timestamps,TP9,AF7,AF8,TP10,Right AUX,Marker0
1582149863.375,18.555,33.691,-51.27,20.508000000000006,0.0,0
1582149863.379,20.02,32.227,-59.082,20.02,0.0,0
1582149863.383,18.066,50.293,-56.152,25.879,0.0,0
1582149863.387,19.531,57.129,-49.805,28.809,0.0,0
1582149863.391,12.695,54.688,-60.059,21.973000000000006,0.0,0
1582149863.395,12.695,47.852,-62.5,23.438,0.0,0
1582149863.399,16.113,54.688,-59.57,27.344,0.0,0
1582149863.4020002,21.484,65.918,-53.223,26.367,0.0,0
1582149863.406,18.555,44.922,-48.34,20.996,0.0,0
1582149863.41,11.23,36.621,-57.129,9.277,0.0,0
1582149863.414,14.16,68.848,-52.246,3.418,0.0,0
1582149863.418,18.555,83.008,-50.293,2.441,0.0,0
1582149863.42,16.602,71.777,-53.71100000000001,-1.465,0.0,0
1582149863.424,-9.766,66.406,-52.734,-21.973000000000006,0.0,0
1582149863.428,-20.996,61.035,-35.156,-28.32,0.0,0
1582149863.4320002,-22.461,72.75399999999998,-29.297,-32.715,0.0,0
1582149863.436,-39.551,149.414,-32.715,-52.734,0.0,0
1582149863.44,-49.316,193.848,-27.832,-67.87100000000001,0.0,0
1582149863.444,-52.734,182.617,-26.855,-63.477,0.0,0
1582149863.447,-78.125,167.48,-16.113,-82.52,0.0,0
1582149863.451,-102.539,144.531,-4.395,-121.094,0.0,0
1582149863.455,-117.188,127.441,-5.859,-131.836,0.0,0
1582149863.459,-135.74200000000002,133.789,-11.719,-140.137,0.0,0
1582149863.4629998,-138.184,116.699,-11.719,-151.36700000000005,0.0,0
1582149863.465,-133.789,95.215,-5.859,-151.36700000000005,0.0,0
1582149863.469,-139.16,88.867,-7.812,-153.32,0.0,0
1582149863.4729998,-145.50799999999995,81.055,-8.789,-153.32,0.0,0
1582149863.4770002,-138.184,82.031,-8.789,-150.391,0.0,0
1582149863.481,-131.836,88.867,-16.113,-148.92600000000004,0.0,0
1582149863.485,-132.812,77.637,-17.578,-141.602,0.0,0
1582149863.4889998,-117.676,68.359,-23.926,-135.254,0.0,0
1582149863.492,-103.516,68.359,-32.227,-116.211,0.0,0
1582149863.496,-93.262,65.43,-26.367,-99.121,0.0,0
1582149863.5,-79.102,58.105,-26.367,-83.49600000000002,0.0,0
1582149863.504,-56.64100000000001,42.48,-35.156,-62.5,0.0,0
1582149863.508,-44.434,30.762,-36.621,-52.246,0.0,0
1582149863.51,-28.809,23.926,-36.621,-39.551,0.0,0
1582149863.514,-10.254,35.156,-39.062,-19.531,0.0,0
1582149863.518,-7.324,30.273000000000003,-42.969,-8.789,0.0,0
1582149863.522,0.488,9.766,-49.316,2.441,0.0,0
1582149863.526,21.973000000000006,18.555,-52.246,21.973000000000006,0.0,0
1582149863.53,30.762,21.973000000000006,-51.758,28.32,0.0,0
1582149863.534,40.527,18.066,-51.758,33.203,0.0,0
1582149863.5370002,50.293,13.672,-54.688,42.48,0.0,0
1582149863.541,54.688,31.25,-58.594,46.387,0.0,0
1582149863.545,66.406,42.48,-60.547,51.758,0.0,0
1582149863.549,68.359,14.648,-67.383,59.57,0.0,0
1582149863.553,66.895,3.418,-69.824,67.87100000000001,0.0,0
1582149863.555,73.242,-11.719,-70.312,67.383,0.0,0
1582149863.559,79.59,-6.348,-66.406,71.289,0.0,0
1582149863.563,81.055,-2.441,-61.035,73.242,0.0,0
1582149863.5670002,87.402,-2.441,-63.477,76.172,0.0,0
1582149863.571,81.543,9.766,-66.895,80.566,0.0,0
1582149863.575,76.66,9.277,-65.918,83.984,0.0,0
1582149863.579,88.867,14.648,-57.129,88.37899999999998,0.0,0
1582149863.582,87.402,19.531,-62.988,80.078,0.0,0
1582149863.586,81.543,36.621,-63.477,78.125,0.0,0
1582149863.59,86.426,42.48,-50.293,84.473,0.0,0
1582149863.594,83.49600000000002,32.227,-50.293,83.984,0.0,0
1582149863.5979998,81.543,20.996,-58.105,82.52,0.0,0
1582149863.6,79.102,20.02,-66.895,74.707,0.0,0
1582149863.604,74.219,25.879,-69.824,66.895,0.0,0
1582149863.6079998,81.055,15.625,-60.059,76.66,0.0,0
1582149863.6120002,86.426,13.184,-57.617,67.87100000000001,0.0,0
1582149863.6160002,77.637,20.508000000000006,-64.453,57.617,0.0,0
1582149863.62,64.453,21.484,-61.035,63.965,0.0,0
1582149863.6239998,65.918,14.648,-56.152,61.035,0.0,0
1582149863.627,67.87100000000001,14.648,-57.617,60.059,0.0,0
1582149863.631,70.312,32.715,-53.71100000000001,71.289,0.0,0
1582149863.635,67.383,23.926,-48.828,67.87100000000001,0.0,0
1582149863.639,62.012,9.277,-48.828,64.941,0.0,0
1582149863.643,64.941,15.137,-53.71100000000001,64.453,0.0,0
1582149863.645,63.477,25.391,-53.71100000000001,60.059,0.0,0
1582149863.649,61.035,25.391,-51.758,58.594,0.0,0
1582149863.653,66.406,23.926,-53.223,57.617,0.0,0
1582149863.657,66.895,36.133,-54.688,55.664,0.0,0
1582149863.661,62.5,41.992,-47.852,61.035,0.0,0
1582149863.665,57.129,22.949,-43.945,62.012,0.0,0
1582149863.669,56.64100000000001,20.508000000000006,-52.734,52.246,0.0,0
1582149863.6720002,58.594,58.105,-53.71100000000001,55.664,0.0,0
1582149863.676,55.664,61.523,-47.852,52.734,0.0,0
1582149863.68,57.129,41.992,-45.898,49.805,0.0,0
1582149863.684,56.152,36.621,-48.828,54.199,0.0,0
1582149863.688,50.78100000000001,47.363,-43.457,51.758,0.0,0
1582149863.705,50.78100000000001,46.875,-40.527,48.828,0.0,0
1582149863.709,48.34,44.922,-48.828,51.758,0.0,0
1582149863.7129998,45.898,58.105,-53.223,46.387,0.0,0
1582149863.717,47.852,78.613,-54.199,38.086,0.0,0
1582149863.721,44.922,88.867,-49.316,40.527,0.0,0
1582149863.725,41.992,58.105,-49.805,33.203,0.0,0
1582149863.729,30.762,62.012,-50.78100000000001,23.926,0.0,0
1582149863.732,29.785,89.355,-46.387,26.367,0.0,0
1582149863.736,37.109,84.473,-41.504,32.715,0.0,0
1582149863.74,36.621,89.355,-40.527,35.156,0.0,0
1582149863.744,37.598,108.398,-41.01600000000001,34.18,0.0,0
1582149863.748,35.645,118.164,-35.645,29.297,0.0,0
1582149863.75,30.762,106.445,-37.598,25.391,0.0,0
1582149863.754,32.715,97.168,-43.457,27.344,0.0,0
1582149863.758,32.227,102.051,-46.875,23.438,0.0,0
1582149863.762,24.414,119.629,-40.527,20.508000000000006,0.0,0
1582149863.766,27.344,118.164,-36.133,31.25,0.0,0
1582149863.77,28.32,112.793,-40.527,29.785,0.0,0
1582149863.774,21.973000000000006,133.789,-39.551,26.367,0.0,0
1582149863.7770002,19.043,145.50799999999995,-45.41,31.738000000000003,0.0,0
1582149863.781,19.531,119.141,-52.734,27.344,0.0,0
1582149863.785,20.508000000000006,112.305,-47.852,24.414,0.0,0
1582149863.789,24.902,139.16,-35.645,34.668,0.0,0
1582149863.793,24.414,136.23,-35.156,39.551,0.0,0
1582149863.795,25.391,120.117,-45.898,33.691,0.0,0
1582149863.799,29.297,128.418,-47.852,36.133,0.0,0
1582149863.803,31.25,139.648,-44.434,41.01600000000001,0.0,0
1582149863.8070002,28.809,119.629,-47.852,39.551,0.0,0
1582149863.811,32.227,97.656,-53.223,36.621,0.0,0
1582149863.815,37.109,99.609,-48.828,39.062,0.0,0
1582149863.819,34.18,118.652,-43.457,36.621,0.0,0
1582149863.822,30.273000000000003,135.74200000000002,-40.527,33.691,0.0,0
1582149863.826,22.461,120.117,-42.969,35.156,0.0,0
1582149863.83,23.438,130.371,-43.945,33.691,0.0,0
1582149863.834,29.297,154.297,-42.48,32.715,0.0,0
1582149863.8379998,23.926,137.695,-46.387,29.785,0.0,0
1582149863.84,18.555,133.789,-43.945,24.902,0.0,0
1582149863.844,19.531,136.719,-40.039,29.297,0.0,0
1582149863.8479998,21.973000000000006,136.23,-41.992,27.832,0.0,0
1582149863.8520002,19.531,129.395,-47.852,23.438,0.0,0
1582149863.856,16.602,132.812,-45.898,21.973000000000006,0.0,0
1582149863.86,15.625,141.602,-44.922,14.16,0.0,0
1582149863.8639998,20.508000000000006,154.785,-45.41,14.16,0.0,0
1582149863.867,31.25,162.59799999999996,-41.992,16.602,0.0,0
1582149863.871,31.25,149.414,-42.969,9.766,0.0,0
1582149863.875,32.227,161.13299999999995,-42.969,14.648,0.0,0
1582149863.879,37.109,161.13299999999995,-42.48,29.785,0.0,0
1582149863.883,36.621,148.438,-47.363,23.438,0.0,0
1582149863.885,23.438,153.809,-44.922,19.531,0.0,0
1582149863.889,14.16,162.109,-47.363,20.508000000000006,0.0,0
1582149863.893,20.996,156.25,-49.316,21.484,0.0,0
1582149863.897,28.809,156.25,-43.457,29.785,0.0,0
1582149863.901,25.879,158.203,-48.828,22.949,0.0,0
1582149863.905,20.996,159.18,-51.758,13.184,0.0,0
1582149863.909,21.973000000000006,161.621,-53.71100000000001,11.719,0.0,0
1582149863.9120002,30.762,140.137,-60.547,16.602,0.0,0
1582149863.916,33.691,146.97299999999996,-66.406,18.555,0.0,0
1582149863.92,28.809,164.551,-58.594,18.066,0.0,0
1582149863.924,37.109,151.855,-53.71100000000001,25.391,0.0,0
1582149863.928,41.01600000000001,150.391,-56.64100000000001,20.996,0.0,0
1582149863.93,41.01600000000001,139.648,-55.664,17.09,0.0,0
1582149863.934,38.086,118.164,-49.316,19.043,0.0,0
1582149863.938,34.18,101.562,-48.828,16.113,0.0,0
1582149863.9420002,38.086,105.957,-53.223,19.043,0.0,0
1582149863.946,48.34,117.188,-51.758,21.484,0.0,0
1582149863.95,38.574,111.328,-49.805,14.16,0.0,0
1582149863.954,31.25,105.957,-44.922,20.02,0.0,0
1582149863.957,40.527,91.797,-44.922,24.414,0.0,0
1582149863.961,39.062,98.145,-45.898,26.367,0.0,0
1582149863.965,35.645,92.285,-41.992,27.344,0.0,0
1582149863.969,34.668,63.477,-50.78100000000001,24.902,0.0,0
1582149863.9729998,35.156,73.242,-58.105,25.391,0.0,0
1582149863.975,42.48,83.008,-56.152,24.902,0.0,0
1582149863.979,47.363,72.266,-56.152,30.273000000000003,0.0,0
1582149863.9829998,35.645,58.105,-55.176,28.809,0.0,0
1582149863.9870002,29.785,63.477,-54.199,20.996,0.0,0
1582149863.9910002,29.785,68.848,-49.805,21.973000000000006,0.0,0
1582149863.995,33.203,64.941,-47.852,26.367,0.0,0
1582149863.9989998,38.086,67.87100000000001,-47.363,24.414,0.0,0
1582149864.002,35.645,82.52,-42.48,25.391,0.0,0
1582149864.006,34.668,91.797,-41.992,31.25,0.0,0
1582149864.01,38.574,77.637,-40.039,34.18,0.0,0
1582149864.014,36.621,78.125,-34.668,27.832,0.0,0
1582149864.018,28.32,89.844,-32.227,20.02,0.0,0
1582149864.02,27.344,100.098,-35.645,31.738000000000003,0.0,0
1582149864.024,30.273000000000003,115.723,-40.039,34.668,0.0,0
1582149864.028,22.949,124.512,-36.621,23.438,0.0,0
1582149864.032,27.832,120.605,-34.18,23.438,0.0,0
1582149864.036,37.109,120.117,-30.762,28.32,0.0,0
1582149864.04,33.691,125.488,-22.949,34.18,0.0,0
1582149864.044,33.691,119.141,-21.484,37.598,0.0,0
1582149864.0470002,28.809,125.0,-24.414,35.156,0.0,0
1582149864.051,27.832,135.74200000000002,-29.297,35.156,0.0,0
1582149864.055,31.25,121.094,-30.273000000000003,37.109,0.0,0
1582149864.059,31.738000000000003,110.352,-27.832,41.504,0.0,0
1582149864.063,33.691,100.586,-20.02,40.527,0.0,0
1582149864.08,29.785,91.797,-15.137,37.598,0.0,0
1582149864.084,27.832,80.078,-10.742,34.668,0.0,0
1582149864.0879998,29.297,85.93799999999997,-13.184,24.414,0.0,0
1582149864.092,29.785,90.82,-26.367,22.949,0.0,0
1582149864.096,31.25,72.75399999999998,-27.344,27.832,0.0,0
1582149864.1,34.18,63.477,-25.391,24.902,0.0,0
1582149864.104,38.574,80.566,-24.414,21.973000000000006,0.0,0
1582149864.107,41.01600000000001,95.703,-14.16,27.344,0.0,0
1582149864.111,39.062,86.914,-11.719,28.32,0.0,0
1582149864.115,40.039,92.773,-20.02,24.414,0.0,0
1582149864.119,37.109,100.586,-22.461,19.531,0.0,0
1582149864.123,28.32,95.215,-17.578,15.137,0.0,0
1582149864.125,30.273000000000003,99.609,-19.043,17.578,0.0,0
1582149864.129,35.645,111.328,-17.578,16.602,0.0,0
1582149864.133,31.738000000000003,114.258,-9.277,16.602,0.0,0
1582149864.137,28.32,118.164,-10.742,23.438,0.0,0
1582149864.141,26.855,100.586,-16.602,19.043,0.0,0
1582149864.145,25.879,74.707,-17.09,15.137,0.0,0
1582149864.149,36.133,72.75399999999998,-10.742,23.926,0.0,0
1582149864.1520002,39.551,90.82,-5.859,22.461,0.0,0
1582149864.156,29.297,85.449,-2.93,21.484,0.0,0
1582149864.16,23.438,70.312,-2.93,13.184,0.0,0
1582149864.164,22.461,83.49600000000002,-5.371,6.836,0.0,0
1582149864.168,22.461,68.359,-12.207,18.555,0.0,0
1582149864.17,25.391,60.547,-15.137,18.066,0.0,0
1582149864.174,35.645,60.059,-8.789,14.648,0.0,0
1582149864.178,23.926,62.5,-9.766,13.672,0.0,0
1582149864.1820002,12.695,73.73,-17.09,9.277,0.0,0
1582149864.186,20.996,67.383,-18.066,16.113,0.0,0
1582149864.19,21.484,63.965,-13.672,18.066,0.0,0
1582149864.194,20.996,60.059,-16.113,15.137,0.0,0
1582149864.197,26.367,71.289,-14.16,18.066,0.0,0
1582149864.201,22.461,69.336,-8.301,16.113,0.0,0
1582149864.205,11.23,60.059,-12.695,9.766,0.0,0
1582149864.209,12.695,79.102,-19.531,9.277,0.0,0
1582149864.2129998,20.508000000000006,74.219,-17.578,17.578,0.0,0
1582149864.215,29.297,58.594,-10.254,32.227,0.0,0
1582149864.219,22.461,62.012,-14.648,23.438,0.0,0
1582149864.2229998,17.578,61.523,-20.996,8.789,0.0,0
1582149864.2270002,34.18,57.129,-16.113,21.484,0.0,0
1582149864.231,28.809,62.5,-17.09,18.555,0.0,0
1582149864.235,20.508000000000006,65.918,-25.391,10.742,0.0,0
1582149864.2389998,22.461,77.637,-27.832,17.578,0.0,0
1582149864.242,17.578,81.055,-20.996,10.254,0.0,0
1582149864.246,16.113,79.59,-19.043,14.648,0.0,0
1582149864.25,21.973000000000006,105.469,-27.832,19.531,0.0,0
1582149864.254,27.832,106.934,-23.926,17.09,0.0,0
1582149864.258,27.344,94.238,-11.719,22.461,0.0,0
1582149864.26,28.809,113.77,-15.137,28.809,0.0,0
1582149864.264,27.832,139.16,-22.949,28.809,0.0,0
1582149864.268,30.762,124.512,-17.578,29.785,0.0,0
1582149864.272,32.227,110.352,-19.531,26.855,0.0,0
1582149864.276,25.879,113.77,-22.461,19.043,0.0,0
1582149864.28,22.461,108.398,-22.461,21.484,0.0,0
1582149864.284,24.902,113.77,-26.855,28.809,0.0,0
1582149864.2870002,30.273000000000003,108.398,-30.762,24.414,0.0,0
1582149864.291,33.203,113.77,-32.227,20.508000000000006,0.0,0
1582149864.295,36.621,131.34799999999998,-24.902,28.32,0.0,0
1582149864.299,35.156,114.746,-24.414,27.344,0.0,0
1582149864.303,35.156,102.051,-25.879,23.438,0.0,0
1582149864.305,31.25,96.191,-20.02,24.414,0.0,0
1582149864.309,28.32,97.168,-19.043,23.438,0.0,0
1582149864.313,31.25,94.238,-20.996,25.391,0.0,0
1582149864.3170002,27.832,93.75,-23.438,27.344,0.0,0
1582149864.321,27.832,95.703,-26.367,24.902,0.0,0
1582149864.325,32.715,93.262,-28.809,23.926,0.0,0
1582149864.329,34.668,91.309,-23.438,28.32,0.0,0
1582149864.332,32.227,77.637,-21.484,27.832,0.0,0
1582149864.336,30.762,88.37899999999998,-27.344,21.973000000000006,0.0,0
1582149864.34,33.691,100.098,-31.738000000000003,29.785,0.0,0
1582149864.344,38.086,87.402,-35.156,24.902,0.0,0
1582149864.3479998,28.809,81.543,-38.086,14.648,0.0,0
1582149864.35,29.785,87.402,-31.738000000000003,27.344,0.0,0
1582149864.354,39.062,92.285,-23.926,32.227,0.0,0
1582149864.3579998,39.062,89.844,-24.414,27.832,0.0,0
1582149864.3620002,34.18,84.961,-20.508000000000006,21.973000000000006,0.0,0
1582149864.3660002,29.785,80.566,-20.02,23.438,0.0,0
1582149864.37,31.738000000000003,87.402,-25.391,24.414,0.0,0
1582149864.3739998,35.645,99.609,-27.832,24.414,0.0,0
1582149864.377,37.598,101.562,-27.832,30.273000000000003,0.0,0
1582149864.381,36.133,111.816,-28.809,31.738000000000003,0.0,0
1582149864.385,40.039,105.469,-28.32,25.391,0.0,0
1582149864.389,45.898,99.609,-19.531,25.879,0.0,0
1582149864.393,35.645,102.051,-17.578,21.484,0.0,0
1582149864.396,29.785,90.332,-23.438,18.066,0.0,0
1582149864.4,30.273000000000003,82.031,-22.949,20.508000000000006,0.0,0
1582149864.404,24.414,91.309,-26.367,21.484,0.0,0
1582149864.408,27.344,98.145,-32.227,20.02,0.0,0
1582149864.4120002,33.203,106.445,-30.273000000000003,10.254,0.0,0
1582149864.416,27.344,92.285,-28.32,12.207,0.0,0
1582149864.42,26.367,87.891,-26.367,16.113,0.0,0
1582149864.423,24.414,107.422,-21.973000000000006,14.648,0.0,0
1582149864.427,23.926,88.37899999999998,-17.578,17.578,0.0,0
1582149864.431,24.902,70.312,-24.414,12.695,0.0,0
1582149864.435,21.973000000000006,74.219,-32.227,10.254,0.0,0
1582149864.439,27.832,76.66,-30.273000000000003,11.23,0.0,0
1582149864.455,28.809,87.402,-33.203,14.16,0.0,0
1582149864.459,25.391,79.59,-32.227,12.207,0.0,0
1582149864.4629998,25.879,74.219,-26.367,12.695,0.0,0
1582149864.467,29.785,86.914,-26.855,16.602,0.0,0
1582149864.471,30.762,77.637,-28.809,19.531,0.0,0
1582149864.475,23.438,42.48,-38.086,20.996,0.0,0
1582149864.479,24.902,36.133,-42.969,19.531,0.0,0
1582149864.482,26.367,60.547,-37.598,22.461,0.0,0
1582149864.486,28.32,57.617,-34.668,18.066,0.0,0
1582149864.49,26.855,48.828,-37.109,16.113,0.0,0
1582149864.494,23.438,47.852,-34.18,21.484,0.0,0
1582149864.498,30.273000000000003,41.01600000000001,-28.809,23.926,0.0,0
1582149864.5,34.668,39.062,-25.391,31.25,0.0,0
1582149864.504,30.273000000000003,52.734,-29.297,33.691,0.0,0
1582149864.508,22.949,44.434,-32.715,31.25,0.0,0
1582149864.512,10.254,29.785,-31.738000000000003,20.02,0.0,0
1582149864.516,11.719,37.109,-35.156,12.695,0.0,0
1582149864.52,16.113,42.969,-34.18,19.531,0.0,0
1582149864.524,10.742,45.898,-27.344,19.043,0.0,0
1582149864.5270002,15.137,54.688,-19.531,18.555,0.0,0
1582149864.531,12.695,47.852,-20.996,20.02,0.0,0
1582149864.535,15.137,43.457,-24.414,22.949,0.0,0
1582149864.539,21.973000000000006,60.059,-29.297,21.973000000000006,0.0,0
1582149864.543,25.879,47.852,-35.156,25.879,0.0,0
1582149864.546,27.832,24.902,-29.297,23.926,0.0,0
1582149864.55,18.555,33.691,-26.855,21.484,0.0,0
1582149864.554,17.09,49.316,-27.344,22.461,0.0,0
1582149864.5579998,17.578,41.504,-18.066,18.555,0.0,0
1582149864.562,11.23,31.738000000000003,-17.09,20.02,0.0,0
1582149864.566,18.066,41.01600000000001,-29.785,19.043,0.0,0
1582149864.57,23.438,52.246,-31.25,20.508000000000006,0.0,0
1582149864.573,23.438,53.223,-25.391,23.926,0.0,0
1582149864.577,25.391,29.785,-25.879,21.973000000000006,0.0,0
1582149864.581,23.438,35.156,-22.461,22.949,0.0,0
1582149864.585,23.438,61.523,-22.461,26.367,0.0,0
1582149864.589,20.508000000000006,48.828,-21.973000000000006,26.367,0.0,0
1582149864.59,25.391,36.133,-10.742,27.832,0.0,0
1582149864.594,30.273000000000003,41.504,-9.766,31.25,0.0,0
1582149864.5979998,26.855,56.152,-26.855,27.344,0.0,0
1582149864.6020002,17.09,50.293,-37.109,29.297,0.0,0
1582149864.606,12.695,27.832,-36.133,28.32,0.0,0
1582149864.61,21.973000000000006,32.715,-32.715,20.996,0.0,0
1582149864.6139998,23.926,48.34,-29.785,18.555,0.0,0
1582149864.617,29.297,41.992,-33.203,23.926,0.0,0
1582149864.621,28.32,23.926,-38.574,21.973000000000006,0.0,0
1582149864.625,28.32,39.551,-35.645,17.578,0.0,0
1582149864.629,40.527,58.105,-32.227,29.297,0.0,0
1582149864.633,32.715,42.969,-34.668,37.598,0.0,0
1582149864.6360002,24.902,33.203,-37.598,21.973000000000006,0.0,0
1582149864.64,34.18,34.18,-39.062,14.16,0.0,0
1582149864.644,34.18,26.855,-39.062,26.855,0.0,0
1582149864.6479998,21.484,23.926,-39.551,28.809,0.0,0
1582149864.6520002,25.879,30.273000000000003,-41.504,19.531,0.0,0
1582149864.656,34.668,34.18,-52.734,18.555,0.0,0
1582149864.66,39.551,45.41,-57.129,33.203,0.0,0
1582149864.663,42.48,28.809,-47.363,37.109,0.0,0
1582149864.667,28.32,13.672,-33.203,20.508000000000006,0.0,0
1582149864.671,11.719,27.344,-26.367,9.277,0.0,0
1582149864.675,17.09,24.414,-35.156,18.555,0.0,0
1582149864.679,26.367,17.578,-32.227,21.973000000000006,0.0,0
1582149864.68,11.23,13.672,-24.902,7.812,0.0,0
1582149864.684,3.418,11.719,-28.32,7.812,0.0,0
1582149864.688,-0.488,12.695,-29.297,12.207,0.0,0
1582149864.6920002,3.418,21.973000000000006,-25.879,13.672,0.0,0
1582149864.696,-2.441,21.973000000000006,-18.555,9.766,0.0,0
1582149864.7,-13.184,9.766,-17.578,8.301,0.0,0
1582149864.704,-4.883,12.695,-18.066,11.719,0.0,0
1582149864.707,-1.953,17.578,-12.695,14.16,0.0,0
1582149864.711,7.812,35.645,-12.695,25.391,0.0,0
1582149864.715,12.207,44.922,-14.648,20.02,0.0,0
1582149864.719,8.789,28.32,-12.695,18.555,0.0,0
1582149864.7229998,19.043,25.391,-14.16,27.832,0.0,0
1582149864.725,28.809,51.758,-14.648,22.949,0.0,0
1582149864.729,20.02,63.477,-17.578,25.879,0.0,0
1582149864.7329998,12.695,35.156,-17.578,20.02,0.0,0
1582149864.7370002,22.949,30.762,-15.625,14.648,0.0,0
1582149864.7410002,26.855,44.922,-21.484,16.602,0.0,0
1582149864.745,19.531,36.621,-25.879,10.254,0.0,0
1582149864.7489998,18.555,32.227,-24.902,10.254,0.0,0
1582149864.752,19.531,41.504,-23.438,13.184,0.0,0
1582149864.756,21.973000000000006,51.758,-19.531,16.602,0.0,0
1582149864.76,25.391,51.758,-18.066,27.832,0.0,0
1582149864.764,20.996,60.059,-16.602,38.574,0.0,0
1582149864.768,14.648,65.43,-11.719,32.227,0.0,0
1582149864.77,21.973000000000006,66.406,-14.648,30.762,0.0,0
1582149864.774,35.156,52.246,-25.391,38.086,0.0,0
1582149864.778,28.809,37.109,-26.855,35.156,0.0,0
1582149864.782,18.066,51.758,-22.949,33.691,0.0,0
1582149864.786,16.602,59.57,-28.32,37.109,0.0,0
1582149864.79,26.855,41.01600000000001,-27.344,42.48,0.0,0
1582149864.794,30.762,43.945,-18.555,33.203,0.0,0
1582149864.7970002,22.461,55.664,-17.09,27.344,0.0,0
1582149864.801,18.555,55.664,-17.578,31.738000000000003,0.0,0
1582149864.805,15.625,50.78100000000001,-21.484,18.066,0.0,0
1582149864.809,15.625,53.223,-27.344,12.207,0.0,0
1582149864.813,18.555,60.547,-31.738000000000003,13.672,0.0,0
1582149864.83,19.531,52.734,-31.25,17.578,0.0,0
1582149864.834,20.996,47.363,-33.691,20.508000000000006,0.0,0
1582149864.8379998,27.832,50.78100000000001,-27.832,24.902,0.0,0
1582149864.842,28.809,54.199,-19.043,27.344,0.0,0
1582149864.846,26.367,54.199,-25.879,16.602,0.0,0
1582149864.85,18.555,45.41,-33.203,17.578,0.0,0
1582149864.854,16.113,42.48,-29.785,22.949,0.0,0
1582149864.857,19.531,49.805,-21.484,23.926,0.0,0
1582149864.861,18.555,43.945,-23.438,20.996,0.0,0
1582149864.865,20.996,43.457,-25.391,25.391,0.0,0
1582149864.869,25.391,52.734,-18.066,29.785,0.0,0
1582149864.873,22.949,56.152,-21.484,35.645,0.0,0
1582149864.8760002,28.32,53.223,-28.809,37.598,0.0,0
1582149864.88,26.367,44.922,-30.762,21.484,0.0,0
1582149864.8839998,14.16,45.41,-30.762,18.555,0.0,0
1582149864.8879998,23.926,49.805,-25.391,25.391,0.0,0
1582149864.8920002,23.438,42.969,-23.438,23.926,0.0,0
1582149864.896,18.066,31.738000000000003,-25.391,23.438,0.0,0
1582149864.9,20.02,37.109,-16.113,22.949,0.0,0
1582149864.903,21.484,50.78100000000001,-14.648,19.531,0.0,0
1582149864.907,20.508000000000006,43.945,-32.227,21.973000000000006,0.0,0
1582149864.911,13.184,31.738000000000003,-38.574,14.16,0.0,0
1582149864.915,14.16,55.664,-31.25,4.395,0.0,0
1582149864.919,20.508000000000006,57.617,-30.762,11.23,0.0,0
1582149864.921,22.949,34.18,-35.156,9.277,0.0,0
1582149864.925,23.438,34.668,-28.809,8.301,0.0,0
1582149864.929,29.785,46.875,-22.949,15.137,0.0,0
1582149864.9329998,32.227,48.828,-28.32,16.602,0.0,0
1582149864.937,31.25,37.109,-28.809,16.113,0.0,0
1582149864.941,36.133,24.902,-23.438,16.113,0.0,0
1582149864.945,38.086,26.855,-27.344,21.973000000000006,0.0,0
1582149864.948,41.504,42.969,-27.832,24.414,0.0,0
1582149864.952,43.457,37.109,-25.391,21.973000000000006,0.0,0
1582149864.956,35.645,40.039,-30.762,18.066,0.0,0
1582149864.96,34.668,58.594,-29.297,18.555,0.0,0
1582149864.964,41.504,47.852,-27.344,22.461,0.0,0
1582149864.965,41.992,39.551,-28.809,24.414,0.0,0
1582149864.969,33.691,37.598,-26.367,23.438,0.0,0
1582149864.9729998,31.738000000000003,37.109,-28.32,23.438,0.0,0
1582149864.9770002,35.645,46.875,-31.25,24.414,0.0,0
1582149864.981,39.062,53.223,-25.391,29.785,0.0,0
1582149864.985,34.668,51.27,-23.438,21.484,0.0,0
1582149864.9889998,25.391,59.57,-25.879,10.254,0.0,0
1582149864.992,20.996,44.922,-20.996,12.695,0.0,0
1582149864.996,14.16,24.414,-23.926,8.789,0.0,0
1582149865.0,17.578,48.828,-21.484,9.766,0.0,0
1582149865.004,21.484,50.78100000000001,-14.648,16.113,0.0,0
1582149865.008,22.949,28.32,-20.508000000000006,16.602,0.0,0
1582149865.01,27.344,36.133,-19.531,17.578,0.0,0
1582149865.014,23.926,44.434,-21.484,18.066,0.0,0
1582149865.018,20.508000000000006,22.461,-24.414,20.02,0.0,0
1582149865.022,23.438,23.438,-16.113,18.555,0.0,0
1582149865.026,28.809,37.109,-14.16,17.09,0.0,0
1582149865.03,31.25,40.527,-17.09,21.973000000000006,0.0,0
1582149865.034,22.949,43.457,-16.113,19.043,0.0,0
1582149865.0370002,17.578,27.832,-12.207,17.09,0.0,0
1582149865.041,28.809,28.32,-8.301,24.902,0.0,0
1582149865.045,28.32,49.316,-12.695,22.949,0.0,0
1582149865.049,20.996,33.691,-23.926,17.578,0.0,0
1582149865.053,20.996,20.508000000000006,-26.367,16.602,0.0,0
1582149865.055,21.484,28.809,-18.555,20.996,0.0,0
1582149865.059,17.578,35.156,-13.672,26.855,0.0,0
1582149865.063,15.625,32.715,-9.766,24.414,0.0,0
1582149865.0670002,20.02,40.527,-8.789,27.832,0.0,0
1582149865.071,19.043,44.922,-14.648,27.344,0.0,0
1582149865.075,20.02,43.945,-17.578,22.461,0.0,0
1582149865.079,23.926,46.387,-18.066,31.25,0.0,0
1582149865.082,24.902,26.855,-20.02,33.203,0.0,0
1582149865.086,28.809,39.551,-17.09,23.438,0.0,0
1582149865.09,29.785,57.617,-18.066,24.902,0.0,0
1582149865.094,28.809,47.363,-24.414,26.367,0.0,0
1582149865.0979998,30.762,39.062,-24.414,23.438,0.0,0
1582149865.1,22.461,28.32,-20.996,19.043,0.0,0
1582149865.104,19.531,21.484,-17.09,17.578,0.0,0
1582149865.1079998,26.855,23.438,-14.16,20.996,0.0,0
1582149865.1120002,31.738000000000003,26.367,-19.043,22.461,0.0,0
1582149865.1160002,29.297,17.578,-27.832,23.926,0.0,0
1582149865.12,25.391,12.695,-28.809,22.461,0.0,0
1582149865.1239998,20.996,11.23,-29.785,17.578,0.0,0
1582149865.127,19.531,12.695,-30.273000000000003,13.184,0.0,0
1582149865.131,20.996,20.508000000000006,-20.996,19.043,0.0,0
1582149865.135,22.461,19.531,-16.602,24.414,0.0,0
1582149865.139,25.879,26.855,-23.926,24.902,0.0,0
1582149865.143,30.273000000000003,31.25,-30.273000000000003,27.832,0.0,0
1582149865.145,28.809,27.344,-34.668,24.414,0.0,0
1582149865.149,23.926,13.672,-31.738000000000003,17.578,0.0,0
1582149865.153,23.926,20.02,-28.32,23.438,0.0,0
1582149865.157,20.996,30.273000000000003,-23.438,21.973000000000006,0.0,0
1582149865.161,20.996,20.508000000000006,-18.555,20.02,0.0,0
1582149865.165,20.508000000000006,10.254,-24.414,20.996,0.0,0
1582149865.169,13.672,7.324,-25.879,17.578,0.0,0
1582149865.1720002,13.184,12.695,-22.461,15.137,0.0,0
1582149865.176,14.648,20.996,-31.738000000000003,8.789,0.0,0
1582149865.18,20.02,9.277,-35.645,11.719,0.0,0
1582149865.184,23.438,6.836,-29.297,17.578,0.0,0
1582149865.188,21.484,30.273000000000003,-33.691,21.973000000000006,0.0,0
1582149865.205,28.32,38.086,-33.691,18.555,0.0,0
1582149865.209,29.297,33.691,-29.297,12.695,0.0,0
1582149865.2129998,20.996,41.01600000000001,-33.203,15.625,0.0,0
1582149865.217,28.32,49.805,-31.25,16.602,0.0,1
1582149865.221,27.344,44.922,-32.715,24.414,0.0,0
1582149865.225,25.879,24.902,-33.691,20.02,0.0,0
1582149865.229,35.156,33.691,-25.879,12.207,0.0,0
1582149865.232,31.738000000000003,46.875,-25.391,19.531,0.0,0
1582149865.236,34.668,42.969,-28.32,22.949,0.0,0
1582149865.24,41.504,49.805,-30.273000000000003,26.367,0.0,0
1582149865.244,39.062,37.598,-29.785,27.832,0.0,0
1582149865.248,38.574,32.715,-28.809,34.668,0.0,0
1582149865.25,43.945,31.738000000000003,-31.25,33.691,0.0,0
1582149865.254,42.969,40.039,-33.203,31.738000000000003,0.0,0
1582149865.258,36.621,46.387,-33.203,33.203,0.0,0
1582149865.262,29.297,46.875,-32.715,20.508000000000006,0.0,0
1582149865.266,32.227,52.734,-37.598,20.996,0.0,0
1582149865.27,39.062,52.246,-38.574,27.832,0.0,0
1582149865.274,38.086,53.223,-30.762,24.414,0.0,0
1582149865.2770002,27.344,47.852,-29.297,19.531,0.0,0
1582149865.281,22.949,34.668,-31.738000000000003,26.367,0.0,0
1582149865.285,26.855,38.086,-33.203,25.879,0.0,0
1582149865.289,26.855,56.152,-33.691,24.414,0.0,0
1582149865.293,22.949,44.922,-29.785,24.414,0.0,0
1582149865.295,21.973000000000006,25.879,-32.227,22.949,0.0,0
1582149865.299,27.832,33.203,-36.621,28.809,0.0,0
1582149865.303,33.691,46.875,-31.25,31.25,0.0,0
1582149865.3070002,33.203,37.109,-32.227,30.762,0.0,0
1582149865.311,30.273000000000003,28.809,-37.598,31.25,0.0,0
1582149865.315,34.668,31.738000000000003,-36.133,36.621,0.0,0
1582149865.319,31.738000000000003,41.504,-34.668,37.598,0.0,0
1582149865.322,24.414,47.363,-41.992,20.508000000000006,0.0,0
1582149865.326,27.344,38.086,-46.387,16.113,0.0,0
1582149865.33,22.461,49.805,-38.086,16.602,0.0,0
1582149865.334,22.461,70.801,-34.18,17.09,0.0,0
1582149865.3379998,20.02,52.246,-39.551,18.555,0.0,0
1582149865.34,8.301,39.551,-45.898,17.09,0.0,0
1582149865.344,14.16,46.875,-40.527,17.09,0.0,0
1582149865.3479998,24.902,56.64100000000001,-34.18,20.02,0.0,0
1582149865.3520002,22.949,50.78100000000001,-37.109,23.438,0.0,0
1582149865.356,20.02,36.621,-37.598,20.02,0.0,0
1582149865.36,20.996,39.062,-34.18,14.16,0.0,0
1582149865.3639998,20.996,58.594,-30.273000000000003,16.602,0.0,0
1582149865.367,20.02,55.176,-30.762,18.555,0.0,0
1582149865.371,19.043,39.062,-34.668,21.484,0.0,0
1582149865.375,23.438,54.688,-35.156,16.113,0.0,0
1582149865.379,26.367,51.27,-32.227,20.02,0.0,0
1582149865.383,28.809,37.598,-29.785,27.344,0.0,0
1582149865.385,31.25,33.691,-28.809,24.414,0.0,0
1582149865.389,25.391,40.039,-28.32,23.438,0.0,0
1582149865.393,24.414,49.316,-32.715,24.414,0.0,0
1582149865.397,28.809,40.039,-36.133,23.926,0.0,0
1582149865.401,19.531,37.598,-32.227,23.438,0.0,0
1582149865.405,16.602,43.945,-33.203,19.531,0.0,0
1582149865.409,21.973000000000006,44.922,-33.691,21.973000000000006,0.0,0
1582149865.4120002,17.578,26.367,-33.203,28.32,0.0,0
1582149865.416,20.508000000000006,12.695,-30.273000000000003,21.484,0.0,0
1582149865.42,25.879,26.367,-29.297,19.531,0.0,0
1582149865.424,20.02,25.879,-34.18,17.578,0.0,0
1582149865.428,16.113,15.625,-39.062,16.113,0.0,0
1582149865.43,20.02,10.254,-34.18,17.578,0.0,0
1582149865.434,25.879,6.836,-28.809,18.555,0.0,0
1582149865.438,28.809,3.418,-32.715,21.973000000000006,0.0,0
1582149865.4420002,22.949,19.531,-31.25,20.996,0.0,0
1582149865.446,25.391,23.926,-30.762,19.531,0.0,0
1582149865.45,28.809,15.137,-30.273000000000003,21.973000000000006,0.0,0
1582149865.454,32.227,13.672,-21.973000000000006,36.621,0.0,0
1582149865.457,38.086,28.32,-21.484,39.551,0.0,0
1582149865.461,28.32,53.223,-23.926,20.02,0.0,0
1582149865.465,25.391,41.01600000000001,-24.414,10.742,0.0,0
1582149865.469,20.996,20.02,-24.902,9.766,0.0,0
1582149865.4729998,22.461,28.32,-32.227,14.648,0.0,0
1582149865.475,33.691,40.527,-42.969,15.137,0.0,0
1582149865.479,33.203,44.922,-43.457,10.254,0.0,0
1582149865.4829998,23.926,34.668,-42.969,10.254,0.0,0
1582149865.4870002,25.391,40.039,-40.039,15.137,0.0,0
1582149865.4910002,35.156,48.828,-31.738000000000003,20.996,0.0,0
1582149865.495,35.156,36.133,-27.832,22.461,0.0,0
1582149865.4989998,28.32,33.203,-29.785,24.414,0.0,0
1582149865.502,30.762,37.109,-32.227,23.438,0.0,0
1582149865.506,35.156,50.78100000000001,-33.691,24.902,0.0,0
1582149865.51,37.598,37.109,-36.621,27.832,0.0,0
1582149865.514,34.668,26.367,-35.156,20.02,0.0,0
1582149865.518,32.227,25.391,-32.227,19.043,0.0,0
1582149865.521,31.738000000000003,29.785,-27.832,19.531,0.0,0
1582149865.525,30.273000000000003,34.18,-25.391,22.949,0.0,0
1582149865.529,30.273000000000003,34.668,-31.738000000000003,19.531,0.0,0
1582149865.533,34.18,45.41,-35.156,18.555,0.0,0
1582149865.5370002,39.062,46.387,-29.785,22.949,0.0,0
1582149865.541,38.574,36.621,-29.297,27.832,0.0,0
1582149865.545,33.691,41.01600000000001,-27.832,25.391,0.0,0
1582149865.548,26.367,50.78100000000001,-30.273000000000003,20.02,0.0,0
1582149865.552,28.809,52.246,-38.086,23.438,0.0,0
1582149865.556,37.109,48.34,-36.133,28.32,0.0,0
1582149865.56,38.574,56.64100000000001,-27.832,28.809,0.0,0
1582149865.564,34.668,56.64100000000001,-25.879,31.738000000000003,0.0,0
1582149865.58,31.738000000000003,47.363,-24.414,31.25,0.0,0
1582149865.584,37.109,41.01600000000001,-14.648,29.297,0.0,0
1582149865.5879998,40.527,42.969,-16.113,34.18,0.0,0
1582149865.592,35.645,51.27,-25.391,30.762,0.0,0
1582149865.596,30.273000000000003,36.133,-29.785,26.367,0.0,0
1582149865.6,31.25,19.043,-28.809,32.715,0.0,0
1582149865.604,31.738000000000003,40.527,-22.949,33.691,0.0,0
1582149865.607,30.762,65.918,-18.555,28.809,0.0,0
1582149865.611,23.926,49.805,-17.09,24.902,0.0,0
1582149865.615,19.043,37.109,-19.531,27.344,0.0,0
1582149865.619,31.738000000000003,54.688,-17.578,26.855,0.0,0
1582149865.623,37.109,67.383,-20.02,22.949,0.0,0
1582149865.625,28.809,56.64100000000001,-23.438,18.066,0.0,0
1582149865.629,27.832,53.71100000000001,-14.648,17.09,0.0,0
1582149865.633,29.785,60.059,-13.184,19.531,0.0,0
1582149865.637,35.156,56.64100000000001,-22.461,14.648,0.0,0
1582149865.641,34.18,49.316,-28.809,14.648,0.0,0
1582149865.645,30.762,52.734,-23.438,21.484,0.0,0
1582149865.649,32.227,62.988,-21.484,24.414,0.0,0
1582149865.6520002,23.926,74.707,-23.926,27.832,0.0,0
1582149865.656,14.16,54.688,-20.508000000000006,29.785,0.0,0
1582149865.66,8.301,30.762,-15.625,20.996,0.0,0
1582149865.664,4.883,45.898,-18.066,15.137,0.0,0
1582149865.668,11.719,48.828,-18.555,21.973000000000006,0.0,0
1582149865.67,12.695,40.527,-20.996,17.09,0.0,0
1582149865.674,6.836,37.598,-27.832,12.207,0.0,0
1582149865.678,11.23,45.41,-27.832,5.859,0.0,0
1582149865.6820002,18.066,47.852,-27.344,1.953,0.0,0
1582149865.686,22.461,30.273000000000003,-23.926,6.348,0.0,0
1582149865.69,11.719,19.043,-26.367,4.395,0.0,0
1582149865.694,3.418,24.414,-26.855,10.742,0.0,0
1582149865.697,16.602,40.039,-32.227,19.043,0.0,0
1582149865.701,23.926,26.855,-37.109,14.16,0.0,0
1582149865.705,26.855,13.184,-29.785,18.066,0.0,0
1582149865.709,26.855,21.973000000000006,-28.809,22.949,0.0,0
1582149865.7129998,19.043,16.602,-28.809,24.414,0.0,0
1582149865.715,18.555,15.625,-24.414,19.531,0.0,0
1582149865.719,20.996,11.719,-25.391,22.949,0.0,0
1582149865.7229998,18.066,3.906,-22.949,28.32,0.0,0
1582149865.7270002,16.113,8.301,-24.902,16.113,0.0,0
1582149865.731,19.043,9.766,-27.832,20.996,0.0,0
1582149865.735,21.484,17.578,-30.273000000000003,24.902,0.0,0
1582149865.7389998,20.02,25.879,-34.18,22.949,0.0,0
1582149865.742,20.508000000000006,11.23,-29.297,26.367,0.0,0
1582149865.746,15.625,2.441,-21.973000000000006,20.508000000000006,0.0,0
1582149865.75,13.184,20.508000000000006,-22.461,20.02,0.0,0
1582149865.754,13.184,12.207,-22.949,19.043,0.0,0
1582149865.758,12.695,-3.418,-25.391,15.625,0.0,0
1582149865.7610002,21.973000000000006,19.531,-31.738000000000003,23.926,0.0,0
1582149865.765,24.414,31.25,-33.203,26.367,0.0,0
1582149865.769,20.996,22.461,-24.902,21.484,0.0,0
1582149865.7729998,18.555,23.438,-20.508000000000006,17.578,0.0,0
1582149865.7770002,13.184,32.715,-20.996,22.461,0.0,0
1582149865.781,17.578,37.598,-25.391,21.973000000000006,0.0,0
1582149865.785,22.461,43.945,-32.227,18.066,0.0,0
1582149865.788,19.531,24.902,-40.039,18.066,0.0,0
1582149865.792,22.461,24.414,-39.062,19.043,0.0,0
1582149865.796,25.879,66.406,-36.621,18.555,0.0,0
1582149865.8,23.926,64.941,-36.621,14.16,0.0,0
1582149865.804,24.414,41.01600000000001,-32.715,15.625,0.0,0
1582149865.805,26.367,33.691,-37.109,20.508000000000006,0.0,0
1582149865.809,35.645,48.828,-49.316,28.32,0.0,0
1582149865.813,24.902,47.852,-47.852,19.531,0.0,0
1582149865.8170002,21.973000000000006,40.527,-40.527,15.137,0.0,0
1582149865.821,30.273000000000003,48.828,-33.203,29.297,0.0,0
1582149865.825,32.227,48.34,-27.344,35.156,0.0,0
1582149865.829,48.828,47.363,-29.297,40.039,0.0,0
1582149865.832,28.809,43.945,-37.598,18.555,0.0,0
1582149865.836,23.438,45.898,-43.457,14.16,0.0,0
1582149865.84,44.922,45.41,-38.574,39.551,0.0,0
1582149865.844,50.78100000000001,38.086,-31.25,33.203,0.0,0
1582149865.8479998,41.01600000000001,33.691,-30.273000000000003,24.902,0.0,0
1582149865.85,33.203,45.41,-35.645,25.879,0.0,0
1582149865.854,35.645,51.27,-34.18,21.484,0.0,0
1582149865.8579998,39.551,45.41,-30.273000000000003,26.367,0.0,0
1582149865.8620002,39.062,59.57,-32.227,28.32,0.0,0
1582149865.8660002,32.715,61.523,-31.25,29.785,0.0,0
1582149865.87,34.18,50.293,-22.949,32.227,0.0,0
1582149865.8739998,37.598,41.504,-17.578,25.391,0.0,0
1582149865.877,35.645,45.898,-22.949,23.926,0.0,0
1582149865.881,32.715,59.082,-22.949,31.25,0.0,0
1582149865.885,32.227,55.664,-18.555,29.785,0.0,0
1582149865.889,31.738000000000003,65.918,-17.578,22.461,0.0,0
1582149865.893,30.273000000000003,57.129,-17.09,29.297,0.0,0
1582149865.896,32.715,51.27,-14.16,28.809,0.0,0
1582149865.9,35.156,59.57,-13.184,22.461,0.0,0
1582149865.904,38.086,45.41,-9.277,30.273000000000003,0.0,0
1582149865.908,41.504,36.133,-10.254,32.715,0.0,0
1582149865.9120002,35.156,33.691,-17.09,32.227,0.0,0
1582149865.916,32.715,20.996,-15.137,36.133,0.0,0
1582149865.92,28.32,17.09,-15.137,29.785,0.0,0
1582149865.923,28.32,43.457,-15.137,26.367,0.0,0
1582149865.927,28.809,50.78100000000001,-17.09,26.855,0.0,0
1582149865.931,23.438,27.344,-14.16,30.273000000000003,0.0,0
1582149865.935,24.902,29.785,-6.836,39.551,0.0,0
1582149865.939,21.973000000000006,37.109,-15.137,35.645,0.0,0
1582149865.956,26.855,36.621,-20.996,31.738000000000003,0.0,0
1582149865.96,27.344,32.227,-22.461,24.902,0.0,0
1582149865.964,19.043,27.832,-26.855,19.043,0.0,0
1582149865.968,24.414,48.34,-22.949,30.762,0.0,0
1582149865.972,30.762,54.688,-20.508000000000006,28.809,0.0,0
1582149865.976,24.902,29.785,-23.926,16.113,0.0,0
1582149865.98,13.672,30.273000000000003,-26.367,16.602,0.0,0
1582149865.9829998,14.16,53.223,-23.438,19.531,0.0,0
1582149865.9870002,12.695,57.129,-20.508000000000006,18.066,0.0,0
1582149865.9910002,9.277,49.316,-20.508000000000006,17.578,0.0,0
1582149865.995,14.16,41.504,-18.066,17.578,0.0,0
1582149865.9989998,18.555,44.922,-17.578,21.484,0.0,0
1582149866.0010002,16.602,45.41,-21.973000000000006,18.555,0.0,0
1582149866.005,21.484,31.738000000000003,-22.949,11.23,0.0,0
1582149866.0089998,24.414,33.203,-22.461,12.695,0.0,0
1582149866.0129998,20.508000000000006,38.574,-23.926,27.344,0.0,0
1582149866.0170002,24.414,25.879,-25.391,23.438,0.0,0
1582149866.021,26.855,20.02,-22.461,16.113,0.0,0
1582149866.025,25.391,33.203,-24.902,19.043,0.0,0
1582149866.028,23.926,59.082,-24.902,14.648,0.0,0
1582149866.032,28.809,65.918,-15.625,20.996,0.0,0
1582149866.036,29.297,53.71100000000001,-14.16,20.508000000000006,0.0,0
1582149866.04,20.508000000000006,57.617,-21.484,11.719,0.0,0
1582149866.044,20.02,58.105,-25.879,18.066,0.0,0
1582149866.046,21.484,57.129,-27.832,24.902,0.0,0
1582149866.05,26.367,57.617,-30.762,27.344,0.0,0
1582149866.054,33.691,66.895,-22.949,26.367,0.0,0
1582149866.0579998,29.785,83.984,-17.09,26.367,0.0,0
1582149866.062,30.762,83.008,-16.113,24.902,0.0,0
1582149866.066,32.227,66.406,-15.625,22.949,0.0,0
1582149866.07,28.32,69.824,-18.066,19.531,0.0,0
1582149866.073,27.344,79.59,-21.484,18.066,0.0,0
1582149866.077,27.832,67.87100000000001,-28.809,20.02,0.0,0
1582149866.081,27.832,73.242,-27.832,17.09,0.0,0
1582149866.085,34.18,93.262,-24.902,18.066,0.0,0
1582149866.089,29.297,84.473,-22.461,19.043,0.0,0
1582149866.09,23.926,83.008,-17.09,22.461,0.0,0
1582149866.094,24.902,88.37899999999998,-20.996,27.344,0.0,0
1582149866.0979998,28.809,81.543,-28.32,24.902,0.0,0
1582149866.1020002,32.715,67.383,-34.668,21.484,0.0,0
1582149866.106,24.414,68.359,-37.109,22.461,0.0,0
1582149866.11,30.273000000000003,79.102,-31.25,25.879,0.0,0
1582149866.1139998,31.25,78.613,-21.973000000000006,25.391,0.0,0
1582149866.117,23.438,69.824,-27.832,20.996,0.0,0
1582149866.121,23.926,65.43,-35.156,17.578,0.0,0
1582149866.125,23.438,92.285,-27.832,19.531,0.0,0
1582149866.129,27.832,96.191,-25.391,26.367,0.0,0
1582149866.133,27.344,73.73,-36.621,22.461,0.0,0
1582149866.1360002,21.973000000000006,72.75399999999998,-38.574,24.414,0.0,0
1582149866.14,28.809,90.82,-35.645,20.996,0.0,0
1582149866.144,28.32,95.215,-33.691,14.648,0.0,0
1582149866.1479998,21.484,91.309,-35.156,21.973000000000006,0.0,0
1582149866.1520002,24.902,84.473,-33.203,27.344,0.0,0
1582149866.156,25.879,76.172,-26.367,23.926,0.0,0
1582149866.16,21.484,84.961,-30.273000000000003,20.996,0.0,0
1582149866.163,25.879,74.219,-32.715,20.996,0.0,0
1582149866.167,23.926,67.87100000000001,-30.762,15.625,0.0,0
1582149866.171,15.625,90.332,-32.715,19.043,0.0,0
1582149866.175,18.066,83.008,-33.203,19.531,0.0,0
1582149866.179,27.832,68.359,-30.762,15.625,0.0,0
1582149866.18,25.879,64.941,-35.156,14.648,0.0,0
1582149866.184,11.719,55.176,-32.227,13.672,0.0,0
1582149866.188,12.207,54.199,-28.809,12.695,0.0,0
1582149866.1920002,19.043,80.078,-28.809,19.043,0.0,0
1582149866.196,26.855,87.891,-29.785,19.531,0.0,0
1582149866.2,30.273000000000003,78.613,-25.391,18.066,0.0,0
1582149866.204,18.555,76.172,-25.391,17.578,0.0,0
1582149866.207,14.16,72.75399999999998,-32.715,9.766,0.0,0
1582149866.211,20.508000000000006,92.773,-30.273000000000003,14.16,0.0,0
1582149866.215,19.531,90.332,-26.855,21.973000000000006,0.0,0
1582149866.219,18.066,76.172,-24.414,19.531,0.0,0
1582149866.2229998,18.555,84.961,-22.949,16.602,0.0,0
1582149866.225,16.113,92.773,-25.879,18.555,0.0,0
1582149866.229,13.672,71.289,-27.832,18.066,0.0,0
1582149866.2329998,9.766,45.898,-23.926,10.254,0.0,0
1582149866.2370002,13.672,61.035,-22.461,12.207,0.0,0
1582149866.2410002,20.508000000000006,84.961,-18.555,20.508000000000006,0.0,0
1582149866.245,15.625,82.031,-14.16,20.996,0.0,0
1582149866.2489998,12.207,66.895,-20.508000000000006,18.066,0.0,0
1582149866.252,18.555,72.266,-21.973000000000006,19.531,0.0,0
1582149866.256,17.578,81.543,-17.578,14.648,0.0,0
1582149866.26,3.418,71.777,-22.949,6.836,0.0,0
1582149866.264,3.906,86.914,-29.785,6.348,0.0,0
1582149866.268,8.789,98.633,-30.762,7.324,0.0,0
1582149866.27,11.23,97.656,-27.344,15.625,0.0,0
1582149866.274,17.578,97.168,-23.926,19.531,0.0,0
1582149866.278,20.996,102.539,-25.391,18.555,0.0,0
1582149866.282,20.996,109.863,-19.043,18.066,0.0,0
1582149866.286,24.902,116.699,-10.742,23.438,0.0,0
1582149866.29,28.809,112.793,-16.602,23.926,0.0,0
1582149866.294,24.902,114.746,-25.879,17.09,0.0,0
1582149866.2970002,25.879,126.465,-29.785,17.578,0.0,0
1582149866.301,28.32,130.859,-34.668,22.461,0.0,0
1582149866.305,26.855,127.93,-32.227,21.973000000000006,0.0,0
1582149866.309,29.785,133.30100000000002,-24.902,20.02,0.0,0
1582149866.313,24.414,154.297,-12.207,19.531,0.0,0
1582149866.33,20.02,151.855,-7.324,11.719,0.0,0
1582149866.334,20.02,141.113,-16.602,16.113,0.0,0
1582149866.3379998,17.09,138.672,-20.996,17.578,0.0,0
1582149866.342,16.602,142.578,-19.043,3.418,0.0,0
1582149866.346,21.484,144.531,-12.695,11.23,0.0,0
1582149866.35,19.043,124.512,-12.207,17.09,0.0,0
1582149866.354,22.461,134.27700000000002,-13.672,13.672,0.0,0
1582149866.357,18.066,155.762,-11.719,12.695,0.0,0
1582149866.361,12.207,146.484,-14.16,8.789,0.0,0
1582149866.365,21.973000000000006,165.03900000000004,-21.484,18.555,0.0,0
1582149866.369,25.391,190.43,-31.738000000000003,18.555,0.0,0
1582149866.373,25.879,188.965,-30.762,9.766,0.0,0
1582149866.375,22.461,191.895,-18.066,9.766,0.0,0
1582149866.379,12.695,186.035,-20.02,13.184,0.0,0
1582149866.383,12.695,172.363,-25.391,17.09,0.0,0
1582149866.387,22.461,169.43400000000003,-28.809,10.254,0.0,0
1582149866.391,21.973000000000006,177.24599999999995,-34.668,14.648,0.0,0
1582149866.395,18.555,158.203,-33.691,24.902,0.0,0
1582149866.399,23.438,164.062,-25.879,24.902,0.0,2
1582149866.4020002,25.879,164.551,-24.902,24.902,0.0,0
1582149866.406,25.879,118.164,-27.344,24.902,0.0,0
1582149866.41,26.855,109.375,-23.926,24.414,0.0,0
1582149866.414,30.762,140.137,-23.438,30.762,0.0,0
1582149866.418,37.109,146.484,-30.273000000000003,33.691,0.0,0
1582149866.42,33.203,105.469,-28.809,32.227,0.0,0
1582149866.424,29.785,91.309,-15.625,36.621,0.0,0
1582149866.428,33.691,125.977,-13.672,35.645,0.0,0
1582149866.4320002,37.109,154.785,-24.414,30.762,0.0,0
1582149866.436,31.738000000000003,142.578,-28.32,32.227,0.0,0
1582149866.44,29.297,120.117,-27.832,35.156,0.0,0
1582149866.444,30.762,130.859,-31.25,30.273000000000003,0.0,0
1582149866.447,24.902,146.484,-23.438,29.297,0.0,0
1582149866.451,21.973000000000006,131.836,-12.207,31.25,0.0,0
1582149866.455,22.949,135.254,-5.859,19.531,0.0,0
1582149866.459,29.785,184.082,3.906,20.996,0.0,0
1582149866.4629998,30.762,216.797,-4.883,22.949,0.0,0
1582149866.465,29.297,231.445,-26.367,19.043,0.0,0
1582149866.469,34.668,234.863,-30.762,17.09,0.0,0
1582149866.4729998,33.203,260.254,-24.414,17.578,0.0,0
1582149866.4770002,30.273000000000003,307.617,-18.066,20.996,0.0,0
1582149866.481,33.203,313.965,-13.184,17.09,0.0,0
1582149866.485,33.691,291.992,-7.812,19.043,0.0,0
1582149866.4889998,29.297,292.969,-4.883,26.367,0.0,0
1582149866.492,15.625,304.199,-5.371,32.227,0.0,0
1582149866.496,12.695,321.289,-15.625,26.855,0.0,0
1582149866.5,16.602,351.5619999999999,-21.973000000000006,26.367,0.0,0
1582149866.504,12.207,332.52,-19.043,33.203,0.0,0
1582149866.508,7.812,311.035,-21.484,19.043,0.0,0
1582149866.51,11.23,300.293,-17.578,14.648,0.0,0
1582149866.514,15.625,309.082,-13.672,19.531,0.0,0
1582149866.518,18.555,302.7340000000001,-19.043,20.996,0.0,0
1582149866.522,20.02,227.051,-23.438,22.949,0.0,0
1582149866.526,24.902,200.195,-20.508000000000006,22.949,0.0,0
1582149866.53,29.785,218.75,-18.066,27.344,0.0,0
1582149866.534,24.902,231.445,-15.137,28.32,0.0,0
1582149866.5370002,30.273000000000003,209.473,-14.648,26.855,0.0,0
1582149866.541,29.297,202.637,-23.926,19.531,0.0,0
1582149866.545,18.066,212.891,-24.414,20.508000000000006,0.0,0
1582149866.549,31.738000000000003,201.66,-16.602,26.855,0.0,0
1582149866.553,39.062,191.895,-17.09,25.391,0.0,0
1582149866.555,24.902,162.109,-20.508000000000006,20.02,0.0,0
1582149866.559,26.855,143.555,-13.672,21.973000000000006,0.0,0
1582149866.563,30.273000000000003,131.836,-4.883,27.832,0.0,0
1582149866.5670002,25.391,79.102,-9.766,29.785,0.0,0
1582149866.571,23.438,23.438,-19.043,21.973000000000006,0.0,0
1582149866.575,24.902,10.742,-29.297,29.297,0.0,0
1582149866.579,29.297,-7.812,-36.621,35.645,0.0,0
1582149866.582,31.738000000000003,10.254,-29.785,20.02,0.0,0
1582149866.586,25.391,80.566,-19.531,12.695,0.0,0
1582149866.59,25.879,83.49600000000002,-11.719,20.02,0.0,0
1582149866.594,35.645,71.289,-19.043,24.414,0.0,0
1582149866.5979998,26.855,110.352,-27.832,18.066,0.0,0
1582149866.6,20.508000000000006,130.371,-22.949,18.555,0.0,0
1582149866.604,22.949,129.88299999999998,-26.367,18.555,0.0,0
1582149866.6079998,27.344,113.281,-30.273000000000003,21.484,0.0,0
1582149866.6120002,29.785,131.34799999999998,-20.508000000000006,23.438,0.0,0
1582149866.6160002,20.508000000000006,125.0,-16.602,11.719,0.0,0
1582149866.62,21.973000000000006,82.031,-19.531,12.695,0.0,0
1582149866.6239998,28.809,69.336,-25.879,12.207,0.0,0
1582149866.627,27.832,32.227,-26.855,7.324,0.0,0
1582149866.631,25.879,36.621,-19.043,15.137,0.0,0
1582149866.635,25.391,88.37899999999998,-14.16,13.184,0.0,0
1582149866.639,20.996,145.996,-10.742,12.695,0.0,0
1582149866.643,24.414,179.688,-19.043,17.09,0.0,0
1582149866.646,27.832,156.738,-24.902,21.973000000000006,0.0,0
1582149866.65,23.438,82.52,-17.578,20.02,0.0,0
1582149866.654,22.949,30.762,-10.742,24.414,0.0,0
1582149866.658,24.902,11.23,-20.996,24.414,0.0,0
1582149866.6620002,31.738000000000003,22.949,-21.484,21.973000000000006,0.0,0
1582149866.666,31.25,105.957,-14.16,25.391,0.0,0
1582149866.67,33.203,185.547,-20.508000000000006,16.113,0.0,0
1582149866.673,41.992,238.281,-21.484,16.602,0.0,0
1582149866.677,38.574,249.512,-20.996,19.531,0.0,0
1582149866.681,33.203,208.008,-20.02,12.207,0.0,0
1582149866.685,24.902,173.34,-13.184,11.23,0.0,0
1582149866.689,23.438,132.812,-3.906,13.672,0.0,0
1582149866.705,29.297,64.941,-2.93,18.555,0.0,0
1582149866.709,30.273000000000003,31.25,-7.324,17.578,0.0,0
1582149866.7129998,24.414,83.008,-7.812,20.02,0.0,0
1582149866.717,25.391,150.391,-10.254,23.926,0.0,0
1582149866.721,29.785,127.441,-9.277,17.09,0.0,0
1582149866.725,29.297,46.387,0.488,16.113,0.0,0
1582149866.729,25.391,29.785,4.395,21.484,0.0,0
1582149866.732,27.832,40.527,3.418,18.555,0.0,0
1582149866.736,25.391,42.48,-8.301,15.137,0.0,0
1582149866.74,25.391,-9.766,-18.555,16.113,0.0,0
1582149866.744,20.02,-51.27,-10.254,11.719,0.0,0
1582149866.748,11.719,-30.273000000000003,-1.953,14.648,0.0,0
1582149866.75,20.508000000000006,-9.277,2.93,20.02,0.0,0
1582149866.754,22.949,23.438,14.648,21.973000000000006,0.0,0
1582149866.758,15.137,44.434,15.137,20.508000000000006,0.0,0
1582149866.762,14.16,71.777,-0.977,21.973000000000006,0.0,0
1582149866.766,19.531,92.285,-14.16,21.973000000000006,0.0,0
1582149866.77,19.531,90.332,-11.23,18.555,0.0,0
1582149866.774,27.344,102.539,-1.953,24.902,0.0,0
1582149866.7770002,24.902,107.91,0.977,27.832,0.0,0
1582149866.781,22.949,131.34799999999998,-1.953,25.391,0.0,0
1582149866.785,25.879,214.844,-10.254,21.973000000000006,0.0,0
1582149866.789,22.461,291.016,-9.277,20.02,0.0,0
1582149866.793,23.438,292.48,-7.812,23.438,0.0,0
1582149866.795,25.391,300.293,-8.789,26.367,0.0,0
1582149866.799,25.879,334.961,-0.977,24.414,0.0,0
1582149866.803,24.902,369.141,3.418,23.926,0.0,0
1582149866.8070002,16.602,429.199,-3.418,25.879,0.0,0
1582149866.811,12.695,477.539,-13.184,21.484,0.0,0
1582149866.815,18.555,470.703,-13.184,17.09,0.0,0
1582149866.819,17.578,474.609,-12.695,16.113,0.0,0
1582149866.822,12.207,497.07,-8.789,15.137,0.0,0
1582149866.826,11.719,471.191,-2.441,13.184,0.0,0
1582149866.83,12.695,452.637,8.789,4.883,0.0,0
1582149866.834,4.883,455.566,12.207,-3.906,0.0,0
1582149866.8379998,11.719,419.434,7.324,3.418,0.0,0
1582149866.84,19.043,380.859,1.465,14.16,0.0,0
1582149866.844,2.93,350.098,-12.695,2.93,0.0,0
1582149866.8479998,-12.207,340.332,-26.855,-15.137,0.0,0
1582149866.8520002,-5.859,314.453,-26.367,-13.184,0.0,0
1582149866.856,-1.953,294.922,-12.695,-3.418,0.0,0
1582149866.86,-17.09,328.125,-6.836,-16.602,0.0,0
1582149866.8639998,-27.832,382.812,-3.418,-29.785,0.0,0
1582149866.867,-41.01600000000001,384.766,-8.301,-41.504,0.0,0
1582149866.871,-41.504,328.61300000000006,-8.301,-50.78100000000001,0.0,0
1582149866.875,-60.547,267.578,9.277,-66.406,0.0,0
1582149866.879,-79.59,260.254,26.855,-79.102,0.0,0
1582149866.883,-91.797,423.34,35.645,-101.074,0.0,0
1582149866.885,-126.953,622.559,38.574,-140.625,0.0,0
1582149866.889,-146.484,684.57,40.527,-158.203,0.0,0
1582149866.893,-148.92600000000004,741.211,46.387,-163.086,0.0,0
1582149866.897,-161.621,882.324,50.78100000000001,-181.641,0.0,0
1582149866.901,-165.03900000000004,972.656,50.293,-181.641,0.0,0
1582149866.905,-162.109,982.422,51.27,-167.48,0.0,0
1582149866.909,-159.668,995.605,51.758,-170.41,0.0,0
1582149866.9120002,-148.92600000000004,988.281,44.434,-167.48,0.0,0
1582149866.916,-138.672,958.008,43.457,-152.832,0.0,0
1582149866.92,-130.371,902.344,44.922,-137.695,0.0,0
1582149866.924,-123.047,829.102,26.855,-133.30100000000002,0.0,0
1582149866.928,-103.027,766.113,14.648,-114.258,0.0,0
1582149866.931,-80.566,694.336,13.184,-89.355,0.0,0
1582149866.935,-71.777,641.602,8.301,-78.125,0.0,0
1582149866.939,-54.688,596.191,6.348,-61.523,0.0,0
1582149866.9429998,-27.832,557.129,0.977,-31.25,0.0,0
1582149866.947,-5.859,527.344,2.93,-15.137,0.0,0
1582149866.951,0.488,479.004,1.465,-10.254,0.0,0
1582149866.955,10.254,432.617,-6.348,6.348,0.0,0
1582149866.958,27.344,412.109,-12.207,14.648,0.0,0
1582149866.962,43.457,394.043,-18.066,28.809,0.0,0
1582149866.966,58.105,374.023,-22.949,47.363,0.0,0
1582149866.97,69.336,338.867,-21.484,54.199,0.0,0
1582149866.974,76.172,312.5,-21.973000000000006,59.082,0.0,0
1582149866.975,79.59,304.199,-24.902,61.523,0.0,0
1582149866.979,81.543,268.555,-32.715,62.5,0.0,0
1582149866.9829998,83.008,222.656,-41.992,70.801,0.0,0
1582149866.9870002,85.449,203.613,-39.551,78.125,0.0,0
1582149866.9910002,85.449,188.477,-33.691,73.242,0.0,0
1582149866.995,89.355,158.691,-33.691,83.49600000000002,0.0,0
1582149866.9989998,95.703,126.465,-40.527,88.867,0.0,0
1582149867.002,95.703,103.027,-41.01600000000001,81.543,0.0,0
1582149867.006,89.355,110.352,-33.691,86.426,0.0,0
1582149867.01,90.332,96.191,-33.691,89.355,0.0,0
1582149867.014,92.773,66.895,-31.25,90.332,0.0,0
1582149867.018,84.473,51.758,-23.438,87.402,0.0,0
1582149867.021,84.473,37.598,-32.227,83.49600000000002,0.0,0
1582149867.025,89.844,15.137,-43.457,92.285,0.0,0
1582149867.029,91.797,21.973000000000006,-38.086,91.309,0.0,0
1582149867.033,79.59,42.969,-35.156,82.031,0.0,0
1582149867.0370002,81.543,41.504,-27.344,81.543,0.0,0
1582149867.041,92.285,36.133,-14.16,87.891,0.0,0
1582149867.045,85.93799999999997,40.039,-22.461,91.309,0.0,0
1582149867.048,83.008,48.34,-34.668,88.37899999999998,0.0,0
1582149867.052,83.984,49.805,-36.621,85.449,0.0,0
1582149867.056,85.449,44.922,-35.645,94.727,0.0,0
1582149867.06,78.613,27.832,-30.273000000000003,86.426,0.0,0
1582149867.064,75.684,36.621,-30.762,68.848,0.0,0
1582149867.08,73.242,57.129,-29.785,69.824,0.0,0
1582149867.084,65.918,48.828,-24.414,71.777,0.0,0
1582149867.0879998,67.87100000000001,62.012,-32.227,70.801,0.0,0
1582149867.092,72.75399999999998,93.75,-33.691,66.895,0.0,0
1582149867.096,63.477,114.258,-19.531,61.035,0.0,0
1582149867.1,62.988,134.27700000000002,-13.184,69.336,0.0,0
1582149867.104,64.453,187.012,-19.531,73.73,0.0,0
1582149867.107,63.477,222.168,-18.555,59.082,0.0,0
1582149867.111,62.012,229.98,-17.09,64.453,0.0,0
1582149867.115,57.617,250.977,-28.809,64.941,0.0,0
1582149867.119,54.688,245.605,-36.133,54.199,0.0,0
1582149867.123,54.688,206.543,-25.879,54.688,0.0,0
1582149867.1260002,53.71100000000001,179.199,-15.137,52.246,0.0,0
1582149867.13,45.898,160.156,-20.508000000000006,50.293,0.0,0
1582149867.1339998,50.78100000000001,139.16,-18.066,56.152,0.0,0
1582149867.1379998,53.71100000000001,117.188,-13.184,57.129,0.0,0
1582149867.1420002,43.945,115.723,-13.672,55.176,0.0,0
1582149867.146,42.969,134.766,-20.508000000000006,51.27,0.0,0
1582149867.15,41.504,144.043,-31.738000000000003,41.01600000000001,0.0,0
1582149867.153,38.574,181.152,-31.738000000000003,42.969,0.0,0
1582149867.157,45.41,180.176,-23.926,44.922,0.0,0
1582149867.161,40.527,122.07,-19.531,36.133,0.0,0
1582149867.165,38.086,119.629,-20.02,27.832,0.0,0
1582149867.169,44.922,135.254,-27.344,28.809,0.0,0
1582149867.17,41.504,117.188,-33.203,30.762,0.0,0
1582149867.174,35.156,117.676,-32.227,26.855,0.0,0
1582149867.178,34.18,111.328,-28.32,29.297,0.0,0
1582149867.1820002,41.01600000000001,82.52,-19.531,25.879,0.0,0
1582149867.186,42.48,73.73,-13.672,24.902,0.0,0
1582149867.19,36.133,81.543,-21.973000000000006,25.879,0.0,0
1582149867.194,35.156,91.797,-30.273000000000003,27.344,0.0,0
1582149867.197,34.18,102.051,-26.855,28.809,0.0,0
1582149867.201,28.809,70.801,-30.762,20.996,0.0,0
1582149867.205,29.785,51.758,-35.645,17.09,0.0,0
1582149867.209,30.273000000000003,79.102,-32.227,21.484,0.0,0
1582149867.2129998,21.973000000000006,94.238,-22.949,18.066,0.0,0
1582149867.216,20.508000000000006,116.211,-14.648,16.602,0.0,0
1582149867.22,30.762,129.395,-18.066,22.949,0.0,0
1582149867.224,35.156,105.469,-19.531,28.809,0.0,0
1582149867.228,36.133,44.434,-20.508000000000006,34.668,0.0,0
1582149867.232,38.086,15.625,-29.785,28.32,0.0,0
1582149867.236,36.621,-12.695,-27.344,27.344,0.0,0
1582149867.24,33.203,-73.73,-9.766,30.273000000000003,0.0,0
1582149867.2429998,33.691,-103.027,-4.883,27.832,0.0,0
1582149867.2470002,32.227,-82.031,-13.184,27.832,0.0,0
1582149867.2510002,36.133,-30.762,-4.395,29.297,0.0,0
1582149867.255,35.645,-16.113,-9.277,20.996,0.0,0
1582149867.2589998,28.32,-57.617,-15.625,15.625,0.0,0
1582149867.2610002,30.273000000000003,-73.242,-10.742,17.578,0.0,0
1582149867.265,35.645,-62.5,-5.371,18.066,0.0,0
1582149867.269,31.25,-75.195,-6.348,17.09,0.0,0
1582149867.2729998,25.879,-108.887,-12.207,17.09,0.0,0
1582149867.2770002,30.273000000000003,-127.93,-12.207,16.602,0.0,0
1582149867.281,44.922,-127.441,-7.324,26.367,0.0,0
1582149867.285,46.387,-139.16,0.0,29.297,0.0,0
1582149867.288,33.691,-142.09,-1.465,22.461,0.0,0
1582149867.292,27.832,-122.559,-8.301,14.648,0.0,0
1582149867.296,26.855,-97.168,-9.277,8.301,0.0,0
1582149867.3,22.949,-125.0,-2.93,13.672,0.0,0
1582149867.304,20.02,-194.336,-6.836,17.09,0.0,0
1582149867.305,29.785,-245.605,-3.418,21.484,0.0,0
1582149867.309,36.133,-272.949,9.277,27.832,0.0,0
1582149867.313,40.527,-293.457,3.906,31.738000000000003,0.0,0
1582149867.3170002,39.062,-324.219,-19.043,24.902,0.0,0
1582149867.321,35.645,-344.23800000000006,-27.344,16.602,0.0,0
1582149867.325,39.551,-366.211,-16.602,18.555,0.0,0
1582149867.329,49.316,-411.133,-9.277,20.508000000000006,0.0,0
1582149867.332,49.805,-463.867,-8.789,20.02,0.0,0
1582149867.336,38.086,-459.473,-2.441,19.043,0.0,0
1582149867.34,31.738000000000003,-461.426,-1.465,16.113,0.0,0
1582149867.344,37.109,-483.398,-1.465,27.832,0.0,0
1582149867.3479998,36.621,-452.637,1.953,36.133,0.0,0
1582149867.35,23.438,-418.945,-7.812,27.344,0.0,0
1582149867.354,18.066,-444.824,-11.719,27.344,0.0,0
1582149867.3579998,19.043,-515.137,-2.93,38.574,0.0,0
1582149867.3620002,21.973000000000006,-567.871,5.371,35.645,0.0,0
1582149867.3660002,22.949,-609.375,16.113,25.879,0.0,0
1582149867.37,20.508000000000006,-654.297,14.16,23.926,0.0,0
1582149867.3739998,23.438,-698.242,1.465,18.066,0.0,0
1582149867.377,16.602,-739.7460000000002,1.465,14.648,0.0,0
1582149867.381,7.324,-744.6289999999998,2.93,18.066,0.0,0
1582149867.385,12.207,-719.238,1.953,21.973000000000006,0.0,0
1582149867.389,14.16,-669.434,-1.953,20.02,0.0,0
1582149867.393,12.207,-606.445,5.371,21.484,0.0,0
1582149867.395,18.555,-569.336,2.93,24.414,0.0,0
1582149867.399,20.996,-601.562,-7.812,24.414,0.0,0
1582149867.403,18.555,-597.656,0.977,27.344,0.0,0
1582149867.407,22.949,-552.734,5.371,27.832,0.0,0
1582149867.411,24.902,-553.711,4.395,28.809,0.0,0
1582149867.415,18.555,-563.965,9.277,24.902,0.0,0
1582149867.419,18.555,-575.195,0.488,14.16,0.0,0
1582149867.4220002,32.227,-553.711,0.0,18.066,0.0,0
1582149867.426,41.992,-482.422,15.625,30.273000000000003,0.0,0
1582149867.43,29.297,-431.641,13.672,23.926,0.0,0
1582149867.434,12.207,-415.039,4.395,16.113,0.0,0
1582149867.438,20.996,-393.555,6.836,23.438,0.0,0
1582149867.455,19.531,-370.605,12.695,16.113,0.0,0
1582149867.459,10.254,-379.883,21.484,11.719,0.0,0
1582149867.4629998,11.23,-346.191,14.648,15.625,0.0,0
1582149867.467,12.207,-273.926,3.418,16.113,0.0,0
1582149867.471,12.695,-236.816,11.23,24.414,0.0,0
1582149867.475,13.672,-251.465,11.23,19.043,0.0,0
1582149867.479,15.625,-227.051,7.324,12.695,0.0,0
1582149867.482,17.09,-169.922,9.766,20.02,0.0,0
1582149867.486,21.973000000000006,-161.13299999999995,7.812,22.949,0.0,0
1582149867.49,21.973000000000006,-161.621,5.371,22.949,0.0,0
1582149867.494,22.461,-176.75799999999995,10.742,20.02,0.0,0
1582149867.498,21.973000000000006,-203.613,9.277,21.484,0.0,0
1582149867.5,22.949,-228.516,1.953,19.043,0.0,0
1582149867.504,22.461,-272.949,4.395,15.625,0.0,0
1582149867.508,17.578,-295.41,6.348,13.672,0.0,0
1582149867.512,18.555,-265.137,9.277,19.531,0.0,0
1582149867.516,21.484,-256.836,14.648,18.555,0.0,0
1582149867.52,27.344,-281.25,16.113,18.555,0.0,0
1582149867.524,27.344,-275.879,11.23,19.531,0.0,0
1582149867.5270002,26.367,-247.55900000000003,12.207,14.648,0.0,0
1582149867.531,20.996,-241.699,12.695,15.137,0.0,1
1582149867.535,20.996,-214.355,4.395,9.766,0.0,0
1582149867.539,32.227,-142.09,11.719,13.672,0.0,0
1582149867.543,23.438,-61.035,23.438,18.555,0.0,0
1582149867.545,23.438,-11.23,19.043,20.996,0.0,0
1582149867.549,38.086,-16.113,10.254,25.879,0.0,0
1582149867.553,37.598,-5.371,12.695,26.367,0.0,0
1582149867.5570002,29.785,9.766,18.066,24.902,0.0,0
1582149867.561,25.391,18.555,16.602,17.09,0.0,0
1582149867.565,28.809,38.574,17.09,19.531,0.0,0
1582149867.569,31.738000000000003,78.125,22.949,18.555,0.0,0
1582149867.572,27.344,114.258,19.043,13.184,0.0,0
1582149867.576,21.484,89.844,12.695,12.695,0.0,0
1582149867.58,28.809,83.984,16.113,13.184,0.0,0
1582149867.584,33.203,100.586,13.672,15.137,0.0,0
1582149867.5879998,30.273000000000003,84.961,11.719,15.137,0.0,0
1582149867.59,33.203,87.891,20.996,19.043,0.0,0
1582149867.594,34.668,106.445,23.926,25.391,0.0,0
1582149867.5979998,37.109,101.074,12.207,22.461,0.0,0
1582149867.6020002,35.156,71.777,10.742,25.879,0.0,0
1582149867.606,34.18,46.387,18.555,29.297,0.0,0
1582149867.61,33.203,38.574,11.719,25.391,0.0,0
1582149867.6139998,27.344,57.129,4.883,21.973000000000006,0.0,0
1582149867.617,25.391,87.891,8.301,25.879,0.0,0
1582149867.621,22.461,91.797,11.23,26.367,0.0,0
1582149867.625,23.438,107.422,12.207,24.414,0.0,0
1582149867.629,27.344,122.07,13.672,21.484,0.0,0
1582149867.633,23.438,112.793,7.324,21.973000000000006,0.0,0
1582149867.635,19.531,94.727,5.371,15.625,0.0,0
1582149867.639,16.113,103.027,12.207,15.137,0.0,0
1582149867.643,15.137,124.512,16.113,19.043,0.0,0
1582149867.647,12.695,155.762,17.578,16.113,0.0,0
1582149867.651,14.648,187.988,12.207,18.066,0.0,0
1582149867.655,15.137,184.082,9.766,21.484,0.0,0
1582149867.659,13.672,196.777,8.789,19.043,0.0,0
1582149867.6620002,15.137,199.707,13.672,17.578,0.0,0
1582149867.666,15.137,236.816,12.695,19.531,0.0,0
1582149867.67,20.02,299.316,3.906,17.578,0.0,0
1582149867.674,24.414,274.902,1.465,13.184,0.0,0
1582149867.678,29.297,255.371,1.953,17.09,0.0,0
1582149867.68,27.344,265.625,6.836,16.602,0.0,0
1582149867.684,15.625,254.395,14.16,10.742,0.0,0
1582149867.688,20.996,243.164,19.531,15.137,0.0,0
1582149867.6920002,28.32,252.93,16.113,19.531,0.0,0
1582149867.696,23.438,250.488,10.254,14.16,0.0,0
1582149867.7,20.02,238.77,7.812,9.277,0.0,0
1582149867.704,18.555,234.863,10.254,15.137,0.0,0
1582149867.707,22.461,225.098,19.043,12.695,0.0,0
1582149867.711,24.414,247.55900000000003,17.09,11.23,0.0,0
1582149867.715,22.949,241.699,8.301,20.996,0.0,0
1582149867.719,18.555,202.637,2.93,21.484,0.0,0
1582149867.7229998,19.531,200.68400000000003,9.277,18.555,0.0,0
1582149867.725,20.02,196.777,23.926,23.926,0.0,0
1582149867.729,19.043,158.203,23.926,28.32,0.0,0
1582149867.7329998,6.836,121.094,14.16,18.066,0.0,0
1582149867.7370002,3.418,137.695,10.254,13.184,0.0,0
1582149867.7410002,9.766,168.945,12.207,12.207,0.0,0
1582149867.745,11.23,161.621,15.137,19.043,0.0,0
1582149867.7489998,15.625,135.74200000000002,17.578,25.391,0.0,0
1582149867.752,15.137,115.234,15.625,16.113,0.0,0
1582149867.756,15.625,125.0,18.555,22.949,0.0,0
1582149867.76,15.137,113.281,14.648,26.855,0.0,0
1582149867.764,17.578,74.219,2.93,16.113,0.0,0
1582149867.768,22.461,71.289,11.719,18.555,0.0,0
1582149867.77,24.902,91.309,18.066,17.09,0.0,0
1582149867.774,29.785,72.266,4.883,19.043,0.0,0
1582149867.778,34.668,45.41,-3.906,29.785,0.0,0
1582149867.782,23.926,36.621,-2.441,20.508000000000006,0.0,0
1582149867.786,23.438,29.785,-2.93,16.113,0.0,0
1582149867.79,23.438,26.367,-9.766,15.137,0.0,0
1582149867.794,26.367,26.367,-0.488,14.648,0.0,0
1582149867.7970002,26.855,45.898,12.695,15.625,0.0,0
1582149867.801,20.996,48.828,5.859,14.16,0.0,0
1582149867.805,30.762,34.668,-5.859,16.602,0.0,0
1582149867.809,28.32,32.227,-9.277,16.113,0.0,0
1582149867.813,21.484,36.621,-6.836,11.23,0.0,0
1582149867.816,22.461,39.551,0.0,7.812,0.0,0
1582149867.82,17.578,33.203,3.418,10.742,0.0,0
1582149867.824,11.23,35.645,16.113,19.531,0.0,0
1582149867.8279998,9.766,64.453,16.602,21.484,0.0,0
1582149867.832,10.254,86.426,-2.441,10.742,0.0,0
1582149867.836,11.23,81.055,-3.906,10.742,0.0,0
1582149867.84,11.719,98.145,5.371,18.555,0.0,0
1582149867.843,13.184,124.512,7.812,16.113,0.0,0
1582149867.847,18.066,111.816,7.324,16.602,0.0,0
1582149867.851,20.02,98.633,0.977,20.996,0.0,0
1582149867.855,22.461,111.328,1.465,18.066,0.0,0
1582149867.859,24.902,124.512,-0.977,11.719,0.0,0
1582149867.8760002,15.137,128.906,-0.977,11.23,0.0,0
1582149867.88,8.301,145.02,0.488,10.254,0.0,0
1582149867.8839998,13.672,182.129,-0.977,10.254,0.0,0
1582149867.8879998,16.113,215.332,-8.789,16.113,0.0,0
1582149867.8920002,16.113,222.168,-11.23,17.578,0.0,0
1582149867.896,17.09,237.793,-0.977,11.23,0.0,0
1582149867.9,17.578,257.812,0.977,12.207,0.0,0
1582149867.903,20.996,283.203,0.977,19.531,0.0,0
1582149867.907,21.484,292.48,-2.93,22.949,0.0,0
1582149867.911,14.648,282.715,-4.883,16.113,0.0,0
1582149867.915,14.16,292.969,-2.441,15.625,0.0,0
1582149867.919,20.508000000000006,291.504,-2.441,16.602,0.0,0
1582149867.92,20.02,255.371,4.395,14.16,0.0,0
1582149867.924,16.113,234.375,15.137,19.531,0.0,0
1582149867.928,27.832,244.629,11.719,19.531,0.0,0
1582149867.9320002,31.738000000000003,242.676,-3.906,25.879,0.0,0
1582149867.936,19.531,251.465,-16.113,21.973000000000006,0.0,0
1582149867.94,19.531,257.324,-16.113,12.207,0.0,0
1582149867.944,23.438,285.645,-6.836,15.137,0.0,0
1582149867.947,28.809,313.4770000000001,6.836,20.02,0.0,0
1582149867.951,36.621,294.922,6.348,31.738000000000003,0.0,0
1582149867.955,32.715,296.875,-3.418,25.879,0.0,0
1582149867.959,30.273000000000003,333.0080000000001,0.977,22.949,0.0,0
1582149867.9629998,37.109,330.0780000000001,0.977,28.32,0.0,0
1582149867.966,38.086,328.61300000000006,-0.488,24.414,0.0,0
1582149867.97,42.969,325.684,5.371,25.879,0.0,0
1582149867.974,42.969,324.219,-0.488,23.926,0.0,0
1582149867.978,43.457,334.473,-9.277,25.391,0.0,0
1582149867.982,48.828,316.406,-12.695,25.879,0.0,0
1582149867.986,40.527,311.523,-2.93,31.738000000000003,0.0,0
1582149867.99,28.32,354.492,6.348,32.715,0.0,0
1582149867.9929998,27.344,380.859,2.93,25.879,0.0,0
1582149867.9970002,25.879,375.48800000000006,6.348,22.461,0.0,0
1582149868.0010002,23.926,398.926,8.789,18.066,0.0,0
1582149868.005,21.973000000000006,414.062,-6.348,16.602,0.0,0
1582149868.0089998,19.043,412.109,-11.23,15.625,0.0,0
1582149868.01,20.02,424.805,-2.441,19.531,0.0,0
1582149868.014,25.391,443.359,2.441,20.02,0.0,0
1582149868.018,29.785,454.102,-4.395,15.625,0.0,0
1582149868.022,29.297,472.656,-8.301,12.207,0.0,0
1582149868.026,28.809,492.1880000000001,-4.395,10.742,0.0,0
1582149868.03,22.461,505.859,0.488,17.578,0.0,0
1582149868.034,18.555,517.09,-2.93,16.602,0.0,0
1582149868.0370002,16.602,490.723,-7.812,13.672,0.0,0
1582149868.041,7.812,471.191,-0.488,11.23,0.0,0
1582149868.045,8.301,489.258,0.488,11.23,0.0,0
1582149868.049,11.719,471.191,-10.254,13.184,0.0,0
1582149868.053,15.625,459.473,-5.371,11.23,0.0,0
1582149868.056,21.484,479.492,6.348,12.695,0.0,0
1582149868.06,19.531,512.695,-3.418,10.742,0.0,0
1582149868.064,18.066,520.996,-13.672,15.625,0.0,0
1582149868.0679998,20.996,500.0,-8.301,18.066,0.0,0
1582149868.072,23.926,512.207,0.0,12.207,0.0,0
1582149868.076,23.926,506.836,-10.254,13.672,0.0,0
1582149868.08,28.32,485.352,-9.277,20.508000000000006,0.0,0
1582149868.083,26.855,473.633,11.23,20.02,0.0,0
1582149868.087,20.996,497.559,15.137,20.02,0.0,0
1582149868.091,22.949,505.859,0.0,16.602,0.0,0
1582149868.095,30.762,479.004,-0.977,19.043,0.0,0
1582149868.099,27.832,463.379,4.395,20.996,0.0,0
1582149868.1,16.602,444.824,-1.465,13.184,0.0,0
1582149868.104,18.555,420.898,-4.395,15.625,0.0,0
1582149868.1079998,27.832,405.762,1.465,19.043,0.0,0
1582149868.1120002,29.785,397.461,8.301,20.508000000000006,0.0,0
1582149868.1160002,24.414,373.535,2.441,18.555,0.0,0
1582149868.12,21.973000000000006,332.031,1.953,12.695,0.0,0
1582149868.1239998,26.855,295.41,9.277,16.113,0.0,0
1582149868.127,27.832,278.32,4.883,14.16,0.0,0
1582149868.131,25.879,253.418,-1.953,14.648,0.0,0
1582149868.135,23.438,227.539,2.441,22.461,0.0,0
1582149868.139,18.555,212.891,6.836,17.578,0.0,0
1582149868.143,21.484,184.57,8.789,15.625,0.0,0
1582149868.146,19.531,165.52700000000004,3.418,13.184,0.0,0
1582149868.15,19.043,150.391,0.977,14.16,0.0,0
1582149868.154,25.391,136.719,8.789,17.578,0.0,0
1582149868.158,26.855,124.512,13.672,19.043,0.0,0
1582149868.1620002,22.949,113.77,11.23,16.602,0.0,0
1582149868.166,21.484,103.516,4.883,11.719,0.0,0
1582149868.17,23.926,97.656,3.906,10.254,0.0,0
1582149868.173,23.438,106.445,9.766,14.16,0.0,0
1582149868.177,20.508000000000006,127.441,7.324,14.648,0.0,0
1582149868.181,22.461,135.74200000000002,3.906,9.766,0.0,0
1582149868.185,19.531,122.559,5.371,15.137,0.0,0
1582149868.189,18.555,125.977,5.859,18.555,0.0,0
1582149868.206,24.414,124.023,10.254,16.602,0.0,0
1582149868.21,29.297,73.242,7.812,20.02,0.0,0
1582149868.214,29.297,59.57,0.0,23.926,0.0,0
1582149868.218,22.461,77.637,0.488,20.02,0.0,0
1582149868.222,20.02,59.57,4.395,15.137,0.0,0
1582149868.226,16.113,15.137,1.465,8.301,0.0,0
1582149868.23,16.113,6.836,-0.488,1.465,0.0,0
1582149868.2329998,28.32,35.645,3.906,11.23,0.0,0
1582149868.2370002,37.109,31.738000000000003,-1.465,13.672,0.0,0
1582149868.2410002,41.504,-16.602,-2.93,8.301,0.0,0
1582149868.245,41.992,-39.062,3.906,10.742,0.0,0
1582149868.2489998,34.18,-43.945,-3.906,16.602,0.0,0
1582149868.25,24.902,-82.52,-7.812,20.02,0.0,0
1582149868.254,25.879,-104.98,-7.324,19.043,0.0,0
1582149868.258,25.879,-121.094,-3.418,26.367,0.0,0
1582149868.262,21.484,-136.23,4.395,31.738000000000003,0.0,0
1582149868.266,25.391,-138.672,2.441,21.973000000000006,0.0,0
1582149868.27,23.438,-148.438,2.93,20.508000000000006,0.0,0
1582149868.274,16.113,-159.18,1.465,17.578,0.0,0
1582149868.2770002,13.184,-159.18,-4.395,12.695,0.0,0
1582149868.281,16.602,-159.668,-10.742,14.16,0.0,0
1582149868.285,24.902,-166.99200000000005,-7.812,15.137,0.0,0
1582149868.289,33.203,-158.203,5.371,15.625,0.0,0
1582149868.293,34.668,-158.691,5.371,18.066,0.0,0
1582149868.295,30.273000000000003,-187.012,5.371,17.09,0.0,0
1582149868.299,28.809,-202.637,10.742,12.695,0.0,0
1582149868.303,24.902,-198.73,3.418,16.602,0.0,0
1582149868.3070002,21.973000000000006,-217.285,-6.836,18.555,0.0,0
1582149868.311,21.973000000000006,-238.281,1.465,15.137,0.0,0
1582149868.315,26.855,-225.098,0.488,19.043,0.0,0
1582149868.319,30.273000000000003,-201.66,2.441,20.996,0.0,0
1582149868.322,23.926,-202.148,11.719,16.602,0.0,0
1582149868.326,21.484,-228.027,4.883,8.301,0.0,0
1582149868.33,27.344,-221.68,3.418,10.254,0.0,0
1582149868.334,25.391,-192.871,3.906,15.625,0.0,0
1582149868.3379998,21.973000000000006,-205.566,0.488,14.648,0.0,0
1582149868.34,28.32,-198.242,8.301,20.996,0.0,0
1582149868.344,30.762,-175.78099999999995,10.254,29.297,0.0,0
1582149868.3479998,27.832,-168.457,-1.465,22.949,0.0,0
1582149868.3520002,24.414,-181.152,-7.812,13.184,0.0,0
1582149868.356,19.043,-180.664,-4.395,16.602,0.0,0
1582149868.36,17.578,-166.016,-1.465,16.602,0.0,0
1582149868.3639998,21.973000000000006,-168.945,-2.93,11.719,0.0,0
1582149868.367,25.879,-190.43,-3.906,17.09,0.0,0
1582149868.371,26.367,-218.262,4.883,21.973000000000006,0.0,0
1582149868.375,22.949,-195.801,5.371,19.043,0.0,0
1582149868.379,24.902,-174.31599999999997,-6.348,16.113,0.0,0
1582149868.383,33.691,-196.289,-11.23,21.484,0.0,0
1582149868.385,30.273000000000003,-211.914,-11.23,19.043,0.0,0
1582149868.389,25.879,-206.055,-2.93,18.066,0.0,0
1582149868.393,33.203,-186.035,1.953,22.461,0.0,0
1582149868.397,25.391,-181.641,-2.93,19.043,0.0,0
1582149868.401,20.508000000000006,-188.477,-5.371,16.113,0.0,0
1582149868.405,22.461,-191.895,-13.184,19.043,0.0,0
1582149868.409,19.043,-163.086,-12.695,18.555,0.0,0
1582149868.4120002,16.602,-164.062,-8.789,14.648,0.0,0
1582149868.416,20.02,-173.828,-9.277,18.066,0.0,0
1582149868.42,20.996,-131.34799999999998,-4.883,18.066,0.0,0
1582149868.424,16.602,-135.254,-6.348,12.695,0.0,0
1582149868.428,24.414,-145.996,-1.465,13.672,0.0,0
1582149868.43,29.785,-141.602,2.441,13.184,0.0,0
1582149868.434,20.996,-141.113,-5.371,13.184,0.0,0
1582149868.438,25.391,-142.09,-5.859,18.066,0.0,0
1582149868.4420002,35.156,-141.602,0.0,22.461,0.0,0
1582149868.446,33.691,-136.23,4.395,27.344,0.0,0
1582149868.45,34.668,-129.88299999999998,4.883,24.902,0.0,0
1582149868.454,27.344,-146.484,3.906,20.996,0.0,0
1582149868.457,20.508000000000006,-160.645,0.488,23.438,0.0,0
1582149868.461,17.578,-138.672,-8.789,14.648,0.0,0
1582149868.465,17.09,-141.113,-10.254,14.16,0.0,0
1582149868.469,21.973000000000006,-156.25,-2.93,26.855,0.0,0
1582149868.4729998,30.273000000000003,-135.74200000000002,2.93,27.832,0.0,0
1582149868.475,36.133,-126.465,7.812,25.879,0.0,0
1582149868.479,25.879,-133.789,5.859,21.973000000000006,0.0,0
1582149868.4829998,23.438,-132.32399999999998,-1.953,20.996,0.0,0
1582149868.4870002,35.645,-123.535,-4.395,34.668,0.0,0
1582149868.4910002,41.504,-104.004,-6.836,35.156,0.0,0
1582149868.495,24.414,-99.609,-13.672,16.602,0.0,0
1582149868.4989998,28.32,-125.977,-8.789,21.484,0.0,0
1582149868.502,41.992,-118.652,7.812,30.762,0.0,0
1582149868.506,28.32,-83.008,20.508000000000006,23.926,0.0,0
1582149868.51,27.832,-99.121,10.742,18.555,0.0,0
1582149868.514,28.809,-125.488,-8.789,18.555,0.0,0
1582149868.518,16.602,-145.996,-10.742,15.137,0.0,0
1582149868.52,16.602,-158.203,-3.418,14.648,0.0,0
1582149868.524,23.438,-149.414,4.883,21.484,0.0,0
1582149868.528,24.414,-134.27700000000002,3.418,20.996,0.0,0
1582149868.532,25.879,-134.27700000000002,1.465,17.09,0.0,0
1582149868.536,27.344,-135.74200000000002,9.766,26.367,0.0,0
1582149868.54,31.25,-135.254,3.906,29.297,0.0,0
1582149868.544,32.715,-143.555,-3.906,17.578,0.0,0
1582149868.5470002,26.855,-127.93,-2.441,18.555,0.0,0
1582149868.551,25.391,-101.074,-2.441,22.461,0.0,0
1582149868.555,25.879,-104.004,-0.488,21.484,0.0,0
1582149868.559,29.785,-111.328,0.488,21.484,0.0,0
1582149868.563,26.367,-112.305,0.977,16.602,0.0,0
1582149868.58,18.066,-106.934,-5.859,10.742,0.0,0
1582149868.584,19.043,-115.234,-7.324,14.16,0.0,0
1582149868.5879998,20.996,-110.352,0.977,14.648,0.0,0
1582149868.592,24.902,-96.191,-3.906,13.672,0.0,0
1582149868.596,24.902,-93.262,-13.184,13.672,0.0,0
1582149868.6,32.715,-94.238,-13.672,15.625,0.0,0
1582149868.604,31.25,-97.168,-6.348,15.137,0.0,0
1582149868.607,25.879,-87.891,1.953,13.672,0.0,0
1582149868.611,21.973000000000006,-99.121,-4.883,9.766,0.0,0
1582149868.615,25.879,-103.027,3.418,14.16,0.0,0
1582149868.619,31.738000000000003,-78.613,11.719,24.902,0.0,0
1582149868.623,22.461,-66.406,-2.93,16.602,0.0,0
1582149868.625,20.508000000000006,-83.49600000000002,-8.301,9.766,0.0,0
1582149868.629,20.996,-83.49600000000002,-9.766,11.23,0.0,0
1582149868.633,19.043,-71.289,-15.137,10.254,0.0,1
1582149868.637,20.508000000000006,-63.477,-7.324,7.324,0.0,0
1582149868.641,29.785,-73.242,9.766,12.207,0.0,0
1582149868.645,28.809,-68.359,9.277,15.137,0.0,0
1582149868.649,23.926,-33.691,0.0,18.066,0.0,0
1582149868.6520002,27.344,-23.926,0.0,15.137,0.0,0
1582149868.656,21.973000000000006,-34.18,-3.906,8.301,0.0,0
1582149868.66,25.879,-46.387,-4.883,13.184,0.0,0
1582149868.664,37.109,-19.043,7.324,16.602,0.0,0
1582149868.668,33.203,2.93,8.301,20.508000000000006,0.0,0
1582149868.67,30.762,-23.926,0.0,26.855,0.0,0
1582149868.674,34.18,-53.71100000000001,1.953,27.344,0.0,0
1582149868.678,34.668,-57.129,5.371,28.809,0.0,0
1582149868.6820002,29.297,-57.617,-1.465,25.391,0.0,0
1582149868.686,21.484,-69.824,-1.953,26.367,0.0,0
1582149868.69,20.02,-69.336,4.395,26.367,0.0,0
1582149868.694,23.926,-38.086,-1.953,20.996,0.0,0
1582149868.697,27.832,-13.672,-5.371,23.438,0.0,0
1582149868.701,29.785,-48.34,-2.93,20.996,0.0,0
1582149868.705,22.461,-66.406,-1.953,11.23,0.0,0
1582149868.709,15.137,-37.109,3.906,10.742,0.0,0
1582149868.7129998,18.555,-38.574,-3.906,13.672,0.0,0
1582149868.715,19.531,-27.344,-11.719,7.812,0.0,0
1582149868.719,13.672,-17.09,-7.324,7.324,0.0,0
1582149868.7229998,22.949,-23.926,-1.953,10.254,0.0,0
1582149868.7270002,30.273000000000003,-19.043,2.441,11.23,0.0,0
1582149868.731,23.438,-5.371,-0.488,14.16,0.0,0
1582149868.735,25.879,-7.324,2.441,21.973000000000006,0.0,0
1582149868.7389998,28.809,-10.254,-0.488,22.949,0.0,0
1582149868.742,29.785,7.324,-1.465,18.555,0.0,0
1582149868.746,32.715,2.441,-4.883,19.043,0.0,0
1582149868.75,24.414,32.715,-4.883,19.043,0.0,0
1582149868.754,28.32,46.875,5.371,24.902,0.0,0
1582149868.758,32.715,30.273000000000003,10.254,33.691,0.0,0
1582149868.76,26.367,33.203,9.277,30.762,0.0,0
1582149868.764,31.25,45.898,5.859,23.926,0.0,0
1582149868.768,33.691,68.359,5.859,25.879,0.0,0
1582149868.772,35.645,75.195,3.418,28.32,0.0,0
1582149868.776,34.18,74.219,-3.906,30.273000000000003,0.0,0
1582149868.78,24.414,74.219,-3.418,24.902,0.0,0
1582149868.784,20.02,83.984,10.742,22.461,0.0,0
1582149868.7870002,19.043,79.102,13.184,23.926,0.0,0
1582149868.791,21.973000000000006,84.961,2.93,24.902,0.0,0
1582149868.795,20.02,120.117,0.0,25.391,0.0,0
1582149868.799,21.973000000000006,113.281,-9.766,23.926,0.0,0
1582149868.803,22.461,104.98,-14.16,19.043,0.0,0
1582149868.805,17.09,120.117,-7.324,22.949,0.0,0
1582149868.809,21.973000000000006,132.812,-1.465,30.273000000000003,0.0,0
1582149868.813,22.461,127.93,0.0,21.484,0.0,0
1582149868.8170002,21.973000000000006,113.281,-8.789,17.09,0.0,0
1582149868.821,20.996,97.656,-20.02,15.625,0.0,0
1582149868.825,26.855,93.75,-16.602,14.648,0.0,0
1582149868.829,29.785,106.934,-3.906,22.949,0.0,0
1582149868.832,28.32,89.355,-6.348,21.973000000000006,0.0,0
1582149868.836,23.926,74.707,0.0,18.066,0.0,0
1582149868.84,24.414,102.539,14.16,29.297,0.0,0
1582149868.844,22.949,81.543,-4.395,24.414,0.0,0
1582149868.8479998,32.715,69.336,-16.113,23.438,0.0,0
1582149868.85,34.668,103.027,-12.207,26.855,0.0,0
1582149868.854,25.391,107.91,-12.207,25.391,0.0,0
1582149868.8579998,28.809,89.355,-10.254,25.391,0.0,0
1582149868.8620002,21.973000000000006,77.637,-7.812,19.043,0.0,0
1582149868.8660002,11.719,75.195,-4.395,15.137,0.0,0
1582149868.87,16.113,77.637,-0.488,21.484,0.0,0
1582149868.8739998,23.926,75.195,-2.93,19.531,0.0,0
1582149868.877,26.367,85.449,-6.836,13.184,0.0,0
1582149868.881,21.973000000000006,108.887,-9.277,13.672,0.0,0
1582149868.885,13.672,91.797,-17.578,12.695,0.0,0
1582149868.889,22.949,77.148,-11.23,20.996,0.0,0
1582149868.893,33.203,72.75399999999998,2.93,32.227,0.0,0
1582149868.895,25.391,67.383,-2.93,24.902,0.0,0
1582149868.899,10.742,46.387,-11.719,8.789,0.0,0
1582149868.903,11.719,42.48,-7.812,12.695,0.0,0
1582149868.907,15.625,65.43,-8.789,18.066,0.0,0
1582149868.911,17.578,70.801,-11.719,14.16,0.0,0
1582149868.915,22.949,75.684,-3.906,14.648,0.0,0
1582149868.919,25.391,116.699,-1.953,19.043,0.0,0
1582149868.9220002,32.715,156.25,1.953,16.602,0.0,0
1582149868.926,30.273000000000003,155.273,1.953,20.996,0.0,0
1582149868.93,23.926,150.391,-18.066,24.902,0.0,0
1582149868.934,18.555,150.391,-22.949,10.742,0.0,0
1582149868.938,18.066,159.18,-10.254,8.301,0.0,0
1582149868.956,26.367,169.922,-9.766,14.648,0.0,0
1582149868.96,21.973000000000006,140.137,-10.254,18.555,0.0,0
1582149868.964,17.578,105.469,0.0,21.484,0.0,0
1582149868.968,21.973000000000006,113.77,2.441,19.531,0.0,0
1582149868.972,16.602,83.008,-8.789,22.461,0.0,0
1582149868.976,15.625,34.18,-6.836,30.762,0.0,0
1582149868.98,14.648,51.758,-0.977,22.949,0.0,0
1582149868.9829998,14.16,71.289,-14.648,16.113,0.0,0
1582149868.9870002,20.996,47.852,-18.066,21.484,0.0,0
1582149868.9910002,22.461,30.762,-8.789,24.414,0.0,0
1582149868.995,24.414,32.227,-2.441,30.762,0.0,0
1582149868.9989998,25.391,49.316,-1.953,31.25,0.0,0
1582149869.0010002,22.949,30.273000000000003,-6.348,22.949,0.0,0
1582149869.005,23.438,22.949,-3.418,17.578,0.0,0
1582149869.0089998,15.625,43.457,-7.812,14.648,0.0,0
1582149869.0129998,13.672,30.273000000000003,-8.789,17.09,0.0,0
1582149869.0170002,17.578,-22.949,-4.883,20.996,0.0,0
1582149869.021,19.531,-79.59,-16.113,20.508000000000006,0.0,0
1582149869.025,22.949,-87.891,-13.184,17.578,0.0,0
1582149869.028,22.949,-85.93799999999997,-6.836,26.367,0.0,0
1582149869.032,26.855,-90.332,-7.812,30.762,0.0,0
1582149869.036,37.598,-93.262,-2.441,30.273000000000003,0.0,0
1582149869.04,40.039,-81.543,-4.395,34.18,0.0,0
1582149869.044,36.133,-68.848,1.465,29.297,0.0,0
1582149869.045,33.203,-68.848,4.395,31.738000000000003,0.0,0
1582149869.049,38.574,-57.617,1.465,36.621,0.0,0
1582149869.053,42.48,-44.434,-0.488,30.273000000000003,0.0,0
1582149869.0570002,35.156,-51.27,-7.324,22.949,0.0,0
1582149869.061,35.156,-31.738000000000003,-6.836,22.949,0.0,0
1582149869.065,39.551,16.113,0.0,22.461,0.0,0
1582149869.069,34.18,31.738000000000003,1.465,22.461,0.0,0
1582149869.072,38.574,35.156,1.465,26.855,0.0,0
1582149869.076,45.898,4.883,1.465,24.414,0.0,0
1582149869.08,44.922,-0.977,-0.977,30.273000000000003,0.0,0
1582149869.084,45.41,41.992,-2.93,25.391,0.0,0
1582149869.0879998,47.363,53.223,4.395,13.184,0.0,0
1582149869.09,51.758,59.082,6.348,15.137,0.0,0
1582149869.094,51.758,62.988,-5.859,15.137,0.0,0
1582149869.0979998,52.246,52.246,-5.371,16.113,0.0,0
1582149869.1020002,51.27,27.832,-7.324,20.996,0.0,0
1582149869.106,39.062,18.066,-5.859,27.344,0.0,0
1582149869.11,25.879,19.531,2.441,24.414,0.0,0
1582149869.1139998,24.902,30.273000000000003,6.348,29.297,0.0,0
1582149869.117,26.855,11.719,6.836,29.297,0.0,0
1582149869.121,20.508000000000006,-32.227,-0.488,19.531,0.0,0
1582149869.125,13.184,-35.156,0.488,14.648,0.0,0
1582149869.129,15.137,-23.926,0.977,14.648,0.0,0
1582149869.133,18.066,-45.898,-6.348,15.137,0.0,0
1582149869.1360002,23.926,-66.895,-7.324,15.137,0.0,0
1582149869.14,20.02,-57.617,-5.859,13.672,0.0,0
1582149869.144,13.672,-74.219,-3.418,16.113,0.0,0
1582149869.1479998,22.949,-120.605,6.348,22.949,0.0,0
1582149869.1520002,27.344,-132.32399999999998,10.742,23.926,0.0,0
1582149869.156,29.297,-129.88299999999998,8.789,31.25,0.0,0
1582149869.16,32.715,-127.441,4.883,26.367,0.0,0
1582149869.163,32.715,-146.484,5.371,22.949,0.0,0
1582149869.167,22.949,-148.438,13.672,16.113,0.0,0
1582149869.171,17.578,-119.141,20.02,9.277,0.0,0
1582149869.175,8.301,-104.98,19.531,3.418,0.0,0
1582149869.179,-9.277,-59.082,17.09,-19.531,0.0,0
1582149869.18,-6.348,-27.832,31.738000000000003,-22.949,0.0,0
1582149869.184,-14.648,-10.254,40.039,-27.832,0.0,0
1582149869.188,-39.551,29.785,38.086,-49.316,0.0,0
1582149869.1920002,-49.316,57.617,46.875,-62.012,0.0,0
1582149869.196,-57.129,72.75399999999998,46.387,-71.289,0.0,0
1582149869.2,-83.008,99.609,50.293,-89.844,0.0,0
1582149869.204,-106.934,140.137,69.824,-109.863,0.0,0
1582149869.207,-113.77,154.297,72.75399999999998,-128.418,0.0,0
1582149869.211,-117.676,185.547,66.895,-136.23,0.0,0
1582149869.215,-128.418,236.328,71.289,-138.672,0.0,0
1582149869.219,-144.531,228.516,66.895,-155.273,0.0,0
1582149869.2229998,-149.414,223.145,61.523,-166.50400000000005,0.0,0
1582149869.225,-152.344,265.625,69.824,-164.551,0.0,0
1582149869.229,-157.227,308.594,72.75399999999998,-164.062,0.0,0
1582149869.2329998,-147.94899999999996,326.66,70.312,-159.668,0.0,0
1582149869.2370002,-142.09,327.148,67.383,-152.832,0.0,0
1582149869.2410002,-134.27700000000002,314.941,59.57,-142.578,0.0,0
1582149869.245,-110.352,297.363,56.152,-124.023,0.0,0
1582149869.2489998,-103.516,237.305,50.78100000000001,-117.676,0.0,0
1582149869.252,-87.891,197.754,52.734,-104.004,0.0,0
1582149869.256,-70.312,189.941,55.664,-85.93799999999997,0.0,0
1582149869.26,-62.012,143.066,45.41,-72.75399999999998,0.0,0
1582149869.264,-45.41,127.441,37.598,-60.059,0.0,0
1582149869.268,-38.086,121.582,33.203,-50.293,0.0,0
1582149869.27,-25.391,106.445,21.484,-36.621,0.0,0
1582149869.274,-12.695,94.727,14.648,-29.297,0.0,0
1582149869.278,-4.883,80.566,20.996,-17.578,0.0,0
1582149869.282,6.348,77.148,22.461,-2.441,0.0,0
1582149869.286,12.695,70.312,16.602,0.977,0.0,0
1582149869.29,30.762,57.129,10.254,13.672,0.0,0
1582149869.294,46.875,40.039,9.277,25.879,0.0,0
1582149869.2970002,43.457,40.039,10.254,28.32,0.0,0
1582149869.301,41.992,41.01600000000001,4.883,31.25,0.0,0
1582149869.305,54.688,25.879,-1.465,40.527,0.0,0
1582149869.309,69.336,24.414,6.836,53.223,0.0,0
1582149869.313,78.125,32.715,11.23,61.035,0.0,0
1582149869.33,77.637,27.344,-1.465,71.289,0.0,0
1582149869.334,80.078,15.625,-4.395,81.055,0.0,0
1582149869.3379998,85.93799999999997,10.742,0.977,82.52,0.0,0
1582149869.342,85.93799999999997,3.418,-5.371,79.102,0.0,0
1582149869.346,91.309,-11.23,-15.625,77.637,0.0,0
1582149869.35,97.168,-19.043,-19.531,81.055,0.0,0
1582149869.354,106.445,14.16,-22.949,83.984,0.0,0
1582149869.357,107.422,48.828,-24.414,83.49600000000002,0.0,0
1582149869.361,107.91,24.902,-23.438,91.309,0.0,0
1582149869.365,115.234,25.391,-22.461,95.215,0.0,0
1582149869.369,111.816,37.598,-17.578,85.93799999999997,0.0,0
1582149869.373,104.98,38.086,-12.207,84.961,0.0,0
1582149869.3760002,106.445,40.039,-20.02,87.402,0.0,0
1582149869.38,106.934,45.41,-26.855,89.844,0.0,0
1582149869.3839998,101.562,56.152,-21.973000000000006,94.727,0.0,0
1582149869.3879998,97.168,59.57,-19.531,94.238,0.0,0
1582149869.3920002,98.145,55.664,-17.578,85.449,0.0,0
1582149869.396,102.539,53.71100000000001,-12.695,88.37899999999998,0.0,0
1582149869.4,98.633,71.289,-16.113,94.727,0.0,0
1582149869.403,88.37899999999998,85.449,-11.719,92.773,0.0,0
1582149869.407,79.102,66.895,-7.324,82.031,0.0,0
1582149869.411,76.66,44.434,-17.09,74.219,0.0,0
1582149869.415,72.75399999999998,68.848,-17.09,77.637,0.0,0
1582149869.419,69.336,87.402,-1.465,79.102,0.0,0
1582149869.42,76.172,102.539,13.672,87.402,0.0,0
1582149869.424,69.336,119.141,-1.465,86.426,0.0,0
1582149869.428,62.5,117.676,-16.602,80.078,0.0,0
1582149869.4320002,67.383,118.164,-13.672,86.914,0.0,0
1582149869.436,62.988,125.488,-8.789,73.242,0.0,0
1582149869.44,62.5,150.391,-9.277,61.523,0.0,0
1582149869.444,74.219,227.051,-2.93,67.87100000000001,0.0,0
1582149869.447,70.801,251.465,-0.488,65.43,0.0,0
1582149869.451,66.895,226.562,-9.277,62.012,0.0,0
1582149869.455,74.219,307.617,3.418,65.43,0.0,0
1582149869.459,67.87100000000001,400.391,6.836,64.941,0.0,0
1582149869.4629998,55.664,463.867,-24.414,59.082,0.0,0
1582149869.466,57.129,690.918,-35.645,49.805,0.0,0
1582149869.47,59.57,929.199,-20.996,48.34,0.0,0
1582149869.474,58.105,999.023,-11.23,47.363,0.0,0
1582149869.478,58.594,995.117,12.695,47.852,0.0,0
1582149869.482,57.129,998.535,30.273000000000003,50.78100000000001,0.0,0
1582149869.486,49.316,-1000.0,10.742,42.48,0.0,0
1582149869.49,43.457,999.512,4.883,34.668,0.0,0
1582149869.4929998,43.457,999.512,17.578,37.109,0.0,0
1582149869.4970002,36.621,999.512,24.414,35.645,0.0,0
1582149869.5010002,27.344,999.512,39.551,31.738000000000003,0.0,0
1582149869.505,16.602,999.512,49.316,27.344,0.0,0
1582149869.5089998,8.301,-999.512,56.152,27.344,0.0,0
1582149869.51,16.602,996.094,74.219,37.598,0.0,0
1582149869.514,27.344,993.652,78.125,38.574,0.0,0
1582149869.518,25.879,993.164,68.359,29.297,0.0,0
1582149869.522,17.09,777.3439999999998,63.477,30.273000000000003,0.0,0
1582149869.526,16.602,400.391,72.75399999999998,31.25,0.0,0
1582149869.53,26.367,143.555,83.008,26.367,0.0,0
1582149869.534,29.785,41.504,83.008,26.855,0.0,0
1582149869.5370002,24.902,-94.238,74.707,29.785,0.0,0
1582149869.541,30.762,-313.4770000000001,77.637,29.297,0.0,0
1582149869.545,30.762,-590.82,85.449,24.414,0.0,0
1582149869.549,27.344,-876.465,95.703,27.832,0.0,0
1582149869.553,30.273000000000003,-969.238,93.75,30.273000000000003,0.0,0
1582149869.555,29.297,-967.773,83.984,23.438,0.0,0
1582149869.559,31.25,-971.191,85.449,24.414,0.0,0
1582149869.563,34.668,-972.656,82.031,28.32,0.0,0
1582149869.5670002,31.25,-972.168,77.148,22.949,0.0,0
1582149869.571,32.227,-972.168,90.332,21.973000000000006,0.0,0
1582149869.575,38.086,-972.168,87.891,30.273000000000003,0.0,0
1582149869.579,41.992,-972.168,75.195,27.832,0.0,0
1582149869.582,34.18,-969.727,75.684,22.461,0.0,0
1582149869.586,25.879,-976.074,69.336,16.602,0.0,0
1582149869.59,32.227,-936.035,73.242,18.066,0.0,0
1582149869.594,36.133,-862.793,72.75399999999998,22.949,0.0,0
1582149869.5979998,29.785,-794.434,62.5,16.602,0.0,0
1582149869.6,30.273000000000003,-696.289,60.547,14.648,0.0,0
1582149869.604,40.039,-607.422,55.664,17.09,0.0,0
1582149869.6079998,38.574,-587.891,41.992,19.043,0.0,0
1582149869.6120002,34.668,-580.566,36.133,17.578,0.0,0
1582149869.6160002,39.062,-566.406,40.039,20.02,0.0,0
1582149869.62,47.852,-573.242,43.945,23.438,0.0,0
1582149869.6239998,49.316,-561.523,32.715,19.531,0.0,0
1582149869.627,41.992,-507.324,31.25,17.09,0.0,0
1582149869.631,37.598,-436.035,38.086,22.461,0.0,0
1582149869.635,28.809,-434.57,30.273000000000003,16.602,0.0,0
1582149869.639,30.762,-389.16,26.855,7.812,0.0,0
1582149869.643,34.668,-332.031,32.715,18.066,0.0,0
1582149869.645,28.809,-285.645,30.273000000000003,21.973000000000006,0.0,0
1582149869.649,30.762,-221.68,23.438,19.531,0.0,0
1582149869.653,28.32,-159.668,21.973000000000006,14.16,0.0,0
1582149869.657,28.809,-104.98,21.484,17.578,0.0,0
1582149869.661,29.297,-103.027,11.23,18.555,0.0,0
1582149869.665,17.09,-103.027,5.859,18.066,0.0,0
1582149869.669,15.625,-48.828,13.672,20.508000000000006,0.0,0
1582149869.6720002,24.414,75.195,17.578,21.484,0.0,0
1582149869.676,24.414,189.453,12.695,20.02,0.0,0
1582149869.68,22.949,207.52,9.277,14.648,0.0,0
1582149869.684,25.391,212.891,4.395,17.09,0.0,0
1582149869.688,25.391,250.0,6.348,21.973000000000006,0.0,0
1582149869.705,28.809,208.008,4.395,22.461,0.0,0
1582149869.709,30.273000000000003,159.18,-5.859,20.02,0.0,0
1582149869.7129998,30.273000000000003,197.266,-4.883,21.973000000000006,0.0,0
1582149869.717,30.273000000000003,246.582,0.0,24.414,0.0,0
1582149869.721,32.227,244.141,2.441,24.414,0.0,0
1582149869.725,28.32,184.57,-0.977,21.484,0.0,0
1582149869.729,23.438,198.73,1.465,17.09,0.0,0
1582149869.732,22.461,267.578,9.766,18.555,0.0,0
1582149869.736,25.879,283.691,8.301,19.531,0.0,0
1582149869.74,29.297,280.273,6.348,20.996,0.0,0
1582149869.744,27.344,298.828,7.324,23.438,0.0,0
1582149869.748,25.391,253.906,14.16,25.879,0.0,0
1582149869.75,26.367,68.848,9.277,23.438,0.0,0
1582149869.754,25.391,-145.50799999999995,0.488,20.02,0.0,0
1582149869.758,20.508000000000006,-316.406,-1.953,22.949,0.0,0
1582149869.762,24.414,-359.86300000000006,-11.23,29.297,0.0,0
1582149869.766,28.32,-405.273,-12.207,25.879,0.0,0
1582149869.77,31.738000000000003,-496.094,-2.93,26.855,0.0,0
1582149869.774,29.785,-503.906,0.977,30.273000000000003,0.0,0
1582149869.7770002,19.531,-489.746,-11.719,20.508000000000006,0.0,0
1582149869.781,24.414,-502.441,-21.484,24.414,0.0,0
1582149869.785,22.949,-520.02,-24.902,16.113,0.0,0
1582149869.789,19.043,-485.352,-21.484,9.766,0.0,0
1582149869.793,21.973000000000006,-448.242,-17.578,16.602,0.0,0
1582149869.795,23.926,-472.168,-20.996,20.996,0.0,0
1582149869.799,28.809,-469.23800000000006,-16.602,21.973000000000006,0.0,0
1582149869.803,29.785,-470.215,-15.137,13.672,0.0,0
1582149869.8070002,26.367,-487.793,-20.996,14.648,0.0,2
1582149869.811,20.508000000000006,-520.508,-21.484,17.09,0.0,0
1582149869.815,19.531,-565.918,-14.648,16.602,0.0,0
1582149869.819,31.738000000000003,-625.0,-6.836,19.043,0.0,0
1582149869.822,26.855,-740.2339999999998,-12.695,22.461,0.0,0
1582149869.826,16.602,-873.047,-30.762,18.555,0.0,0
1582149869.83,11.23,-911.133,-25.879,9.277,0.0,0
1582149869.834,4.883,-854.492,-16.113,7.324,0.0,0
1582149869.8379998,11.23,-857.422,-12.695,15.137,0.0,0
1582149869.84,9.277,-861.328,-4.883,12.207,0.0,0
1582149869.844,16.113,-813.965,0.0,18.066,0.0,0
1582149869.8479998,24.902,-839.355,-2.93,25.391,0.0,0
1582149869.8520002,11.719,-937.988,-6.348,12.207,0.0,0
1582149869.856,10.254,-974.609,-16.113,12.695,0.0,0
1582149869.86,14.16,-969.727,-16.113,15.137,0.0,0
1582149869.8639998,16.602,-971.68,-6.836,16.602,0.0,0
1582149869.867,21.484,-972.168,-2.93,21.973000000000006,0.0,0
1582149869.871,17.09,-972.168,-3.418,9.766,0.0,0
1582149869.875,20.508000000000006,-972.168,-11.23,6.348,0.0,0
1582149869.879,23.926,-972.168,-5.859,15.137,0.0,0
1582149869.883,20.508000000000006,-972.168,0.977,21.973000000000006,0.0,0
1582149869.885,20.996,-972.168,-8.789,16.113,0.0,0
1582149869.889,18.555,-972.168,-14.16,11.719,0.0,0
1582149869.893,18.066,-972.168,-7.324,20.508000000000006,0.0,0
1582149869.897,20.996,-972.168,3.418,19.531,0.0,0
1582149869.901,23.438,-972.168,2.93,26.367,0.0,0
1582149869.905,37.598,-972.168,10.742,31.25,0.0,0
1582149869.909,41.504,-972.168,16.113,29.297,0.0,0
1582149869.9120002,28.809,-972.168,-3.906,31.25,0.0,0
1582149869.916,27.832,-972.168,-6.348,26.855,0.0,0
1582149869.92,32.227,-972.168,8.789,23.926,0.0,0
1582149869.924,40.527,-972.168,13.672,29.785,0.0,0
1582149869.928,48.828,-972.168,20.02,32.715,0.0,0
1582149869.93,53.223,-972.168,29.297,23.926,0.0,0
1582149869.934,53.71100000000001,-972.168,21.973000000000006,26.855,0.0,0
1582149869.938,37.598,-972.168,1.465,22.461,0.0,0
1582149869.9420002,30.762,-972.168,1.465,18.555,0.0,0
1582149869.946,35.156,-972.168,12.695,30.273000000000003,0.0,0
1582149869.95,27.832,-972.168,3.906,26.855,0.0,0
1582149869.954,22.949,-971.68,2.441,30.273000000000003,0.0,0
1582149869.957,20.508000000000006,-970.215,7.812,28.32,0.0,0
1582149869.961,21.973000000000006,-974.121,0.977,22.949,0.0,0
1582149869.965,20.996,-942.871,-0.488,25.391,0.0,0
1582149869.969,13.184,-901.855,0.0,17.578,0.0,0
1582149869.9729998,15.625,-858.398,2.93,17.578,0.0,0
1582149869.975,18.066,-870.605,5.859,18.555,0.0,0
1582149869.979,16.113,-954.59,15.625,18.066,0.0,0
1582149869.9829998,19.531,-972.656,27.832,24.414,0.0,0
1582149869.9870002,22.949,-970.215,20.508000000000006,27.832,0.0,0
1582149869.9910002,23.438,-970.703,6.348,19.531,0.0,0
1582149869.995,20.996,-970.703,2.93,17.09,0.0,0
1582149869.9989998,21.484,-958.496,8.301,23.438,0.0,0
1582149870.002,25.879,-865.7230000000002,15.625,22.461,0.0,0
1582149870.006,31.738000000000003,-746.582,20.02,21.973000000000006,0.0,0
1582149870.01,37.109,-727.051,19.531,24.414,0.0,0
1582149870.014,36.621,-809.57,12.207,19.531,0.0,0
1582149870.018,29.297,-891.602,19.043,20.508000000000006,0.0,0
1582149870.02,29.785,-892.09,20.508000000000006,23.438,0.0,0
1582149870.024,42.48,-782.227,21.484,26.855,0.0,0
1582149870.028,42.969,-635.742,21.973000000000006,26.367,0.0,0
1582149870.032,36.133,-574.707,16.113,33.203,0.0,0
1582149870.036,35.156,-566.406,11.23,33.203,0.0,0
1582149870.04,31.25,-585.4490000000002,10.742,28.32,0.0,0
1582149870.044,33.691,-616.211,16.602,23.926,0.0,0
1582149870.0470002,32.715,-506.348,17.09,19.531,0.0,0
1582149870.051,25.879,-372.559,25.391,31.25,0.0,0
1582149870.055,23.926,-404.297,24.414,32.227,0.0,0
1582149870.059,29.297,-438.965,21.484,30.762,0.0,0
1582149870.063,29.785,-483.398,25.879,29.297,0.0,0
1582149870.08,20.996,-577.148,20.508000000000006,25.391,0.0,0
1582149870.084,24.902,-563.965,23.438,29.297,0.0,0
1582149870.0879998,27.344,-521.484,17.09,20.508000000000006,0.0,0
1582149870.092,22.461,-548.828,7.324,11.23,0.0,0
1582149870.096,26.855,-573.242,12.207,18.066,0.0,0
1582149870.1,44.922,-605.957,16.602,27.832,0.0,0
1582149870.104,44.434,-614.258,21.484,22.949,0.0,0
1582149870.107,37.598,-601.0740000000002,16.113,18.555,0.0,0
1582149870.111,45.41,-587.4019999999998,8.789,24.902,0.0,0
1582149870.115,42.48,-529.297,8.301,26.367,0.0,0
1582149870.119,39.062,-427.734,15.137,30.273000000000003,0.0,0
1582149870.123,39.062,-360.84,22.949,34.668,0.0,0
1582149870.125,39.062,-383.301,21.973000000000006,33.691,0.0,0
1582149870.129,43.945,-441.406,27.832,36.621,0.0,0
1582149870.133,40.527,-580.566,17.578,37.598,0.0,0
1582149870.137,33.691,-741.211,0.977,29.785,0.0,0
1582149870.141,42.969,-854.98,3.906,34.18,0.0,0
1582149870.145,36.621,-925.293,10.742,33.203,0.0,0
1582149870.149,28.32,-852.539,17.578,28.809,0.0,0
1582149870.1520002,41.01600000000001,-718.262,23.438,41.01600000000001,0.0,0
1582149870.156,35.156,-677.2460000000002,25.879,34.18,0.0,0
1582149870.16,21.484,-555.1759999999998,8.789,20.508000000000006,0.0,0
1582149870.164,19.531,-395.02,-4.395,20.02,0.0,0
1582149870.168,36.133,-345.215,11.719,25.391,0.0,0
1582149870.17,39.062,-251.953,20.02,20.996,0.0,0
1582149870.174,31.738000000000003,-73.73,19.043,20.508000000000006,0.0,0
1582149870.178,31.25,182.617,22.461,22.949,0.0,0
1582149870.1820002,25.391,364.258,14.648,23.926,0.0,0
1582149870.186,20.02,360.84,4.395,14.16,0.0,0
1582149870.19,20.02,365.234,6.836,8.301,0.0,0
1582149870.194,19.043,493.164,17.09,13.672,0.0,0
1582149870.197,30.762,540.039,20.996,18.555,0.0,0
1582149870.201,32.227,429.199,19.043,17.578,0.0,0
1582149870.205,21.484,370.117,21.484,10.254,0.0,0
1582149870.209,24.414,429.199,20.996,7.812,0.0,0
1582149870.2129998,19.531,409.18,16.602,9.766,0.0,0
1582149870.215,20.996,329.59,18.066,16.113,0.0,0
1582149870.219,27.344,349.6090000000001,17.578,21.973000000000006,0.0,0
1582149870.2229998,26.367,466.797,17.09,26.367,0.0,0
1582149870.2270002,21.484,554.688,21.484,21.973000000000006,0.0,0
1582149870.231,28.809,602.539,22.949,21.973000000000006,0.0,0
1582149870.235,30.762,611.816,18.555,22.949,0.0,0
1582149870.2389998,19.043,705.078,24.902,19.531,0.0,0
1582149870.242,25.391,801.758,24.414,22.461,0.0,0
1582149870.246,27.832,812.012,17.578,18.066,0.0,0
1582149870.25,23.438,821.289,18.066,13.184,0.0,0
1582149870.254,26.367,784.18,23.926,21.973000000000006,0.0,0
1582149870.258,24.902,741.211,24.902,21.973000000000006,0.0,0
1582149870.26,29.297,776.367,26.367,19.043,0.0,0
1582149870.264,36.621,779.785,27.344,22.461,0.0,0
1582149870.268,25.879,717.285,22.949,20.508000000000006,0.0,0
1582149870.272,14.648,660.1560000000002,26.855,14.16,0.0,0
1582149870.276,24.414,628.906,30.273000000000003,17.09,0.0,0
1582149870.28,32.227,611.816,17.578,16.602,0.0,0
1582149870.284,22.461,599.609,7.812,5.859,0.0,0
1582149870.2870002,14.648,512.695,16.602,8.789,0.0,0
1582149870.291,18.555,466.309,21.484,16.113,0.0,0
1582149870.295,26.367,515.137,17.09,20.996,0.0,0
1582149870.299,24.414,441.406,15.137,20.508000000000006,0.0,0
1582149870.303,18.555,359.86300000000006,18.066,17.09,0.0,0
1582149870.305,25.391,312.5,16.113,22.949,0.0,0
1582149870.309,30.762,267.09,11.23,33.203,0.0,0
1582149870.313,19.531,206.055,13.672,24.902,0.0,0
1582149870.3170002,22.461,130.371,19.043,23.438,0.0,0
1582149870.321,38.086,84.961,18.066,34.18,0.0,0
1582149870.325,32.227,55.176,20.02,33.203,0.0,0
1582149870.329,24.414,32.227,28.809,30.762,0.0,0
1582149870.332,25.391,-30.762,28.32,33.203,0.0,0
1582149870.336,25.879,-69.824,11.23,28.32,0.0,0
1582149870.34,24.414,-76.66,4.395,24.902,0.0,0
1582149870.344,29.785,-118.652,13.672,31.738000000000003,0.0,0
1582149870.3479998,26.855,-142.578,15.137,30.762,0.0,0
1582149870.35,28.32,-135.74200000000002,7.324,29.297,0.0,0
1582149870.354,33.691,-124.023,11.23,29.297,0.0,0
1582149870.3579998,31.25,-141.113,15.625,28.809,0.0,0
1582149870.3620002,34.18,-165.52700000000004,11.23,30.762,0.0,0
1582149870.3660002,27.344,-176.27,17.09,22.949,0.0,0
1582149870.37,23.926,-204.59,25.879,22.949,0.0,0
1582149870.3739998,30.762,-217.773,20.02,28.809,0.0,0
1582149870.377,28.32,-208.496,19.531,20.996,0.0,0
1582149870.381,31.738000000000003,-192.871,21.484,23.926,0.0,0
1582149870.385,37.598,-230.957,7.324,30.762,0.0,0
1582149870.389,31.738000000000003,-256.348,7.812,22.949,0.0,0
1582149870.393,36.133,-253.906,18.555,21.973000000000006,0.0,0
1582149870.395,30.273000000000003,-255.371,19.531,24.902,0.0,0
1582149870.399,27.344,-266.113,19.531,20.996,0.0,0
1582149870.403,29.297,-289.062,23.438,19.531,0.0,0
1582149870.407,26.367,-282.2270000000001,22.949,20.508000000000006,0.0,0
1582149870.411,29.785,-264.16,18.066,14.648,0.0,0
1582149870.415,25.879,-277.832,13.184,15.137,0.0,0
1582149870.419,24.414,-278.32,13.184,16.602,0.0,0
1582149870.4220002,28.32,-232.91,20.02,16.602,0.0,0
1582149870.426,29.297,-212.402,22.461,24.414,0.0,0
1582149870.43,27.832,-263.672,22.949,20.508000000000006,0.0,0
1582149870.434,21.484,-276.367,21.973000000000006,14.648,0.0,0
1582149870.438,20.508000000000006,-255.859,27.832,17.578,0.0,0
1582149870.455,23.438,-266.113,30.273000000000003,20.996,0.0,0
1582149870.459,19.043,-289.551,20.996,21.973000000000006,0.0,0
1582149870.4629998,21.484,-296.387,24.902,20.996,0.0,0
1582149870.467,19.043,-266.113,27.344,14.16,0.0,0
1582149870.471,14.648,-259.766,18.555,9.277,0.0,0
1582149870.475,20.996,-304.199,23.438,15.137,0.0,0
1582149870.479,20.996,-283.691,38.086,15.625,0.0,0
1582149870.482,20.996,-225.586,37.598,12.207,0.0,0
1582149870.486,31.738000000000003,-235.352,19.531,14.16,0.0,0
1582149870.49,27.344,-256.348,12.695,17.09,0.0,0
1582149870.494,21.484,-246.582,21.973000000000006,19.531,0.0,0
1582149870.498,24.902,-229.98,21.484,20.996,0.0,0
1582149870.5,21.484,-233.887,18.066,19.043,0.0,0
1582149870.504,22.461,-243.164,26.855,19.043,0.0,0
1582149870.508,25.391,-239.258,33.203,22.461,0.0,0
1582149870.512,21.484,-217.285,26.855,20.02,0.0,0
1582149870.516,27.832,-210.449,19.043,22.461,0.0,0
1582149870.52,36.133,-229.004,15.137,28.809,0.0,0
1582149870.524,26.367,-234.863,30.273000000000003,22.949,0.0,0
1582149870.5270002,23.926,-210.938,40.527,21.973000000000006,0.0,0
1582149870.531,31.25,-186.035,37.598,30.762,0.0,0
1582149870.535,29.297,-202.148,34.668,21.973000000000006,0.0,0
1582149870.539,31.738000000000003,-178.71099999999996,26.855,17.578,0.0,0
1582149870.543,22.461,-154.785,20.996,18.555,0.0,0
1582149870.545,16.602,-162.109,21.973000000000006,16.113,0.0,0
1582149870.549,24.902,-157.227,25.879,20.508000000000006,0.0,0
1582149870.553,23.438,-149.90200000000004,26.855,20.996,0.0,0
1582149870.5570002,20.996,-137.695,24.902,18.555,0.0,0
1582149870.561,27.832,-119.141,20.508000000000006,18.066,0.0,0
1582149870.565,25.879,-122.559,20.996,11.23,0.0,0
1582149870.569,20.996,-109.863,20.996,10.742,0.0,0
1582149870.572,20.996,-89.355,18.555,15.137,0.0,0
1582149870.576,20.996,-139.16,16.602,14.648,0.0,0
1582149870.58,24.902,-143.066,20.02,17.578,0.0,0
1582149870.584,24.414,-82.52,20.996,17.578,0.0,0
1582149870.5879998,21.973000000000006,-106.445,17.578,13.672,0.0,0
1582149870.591,18.066,-107.91,12.207,16.602,0.0,0
1582149870.595,17.09,-88.37899999999998,9.277,18.066,0.0,0
1582149870.599,27.832,-94.238,13.672,19.043,0.0,0
1582149870.603,29.785,-98.145,7.324,17.09,0.0,0
1582149870.607,26.855,-111.328,12.695,15.137,0.0,0
1582149870.611,30.273000000000003,-108.887,27.832,20.508000000000006,0.0,0
1582149870.615,29.785,-88.867,20.996,19.043,0.0,0
1582149870.6179998,27.344,-84.473,11.23,18.066,0.0,0
1582149870.6220002,20.02,-124.023,17.578,12.207,0.0,0
1582149870.6260002,20.02,-99.121,19.043,12.695,0.0,0
1582149870.63,26.367,-52.734,11.719,19.043,0.0,0
1582149870.6339998,33.203,-89.355,15.137,19.043,0.0,0
1582149870.635,34.668,-113.77,22.949,22.461,0.0,0
1582149870.639,28.809,-88.37899999999998,19.531,25.879,0.0,0
1582149870.643,29.297,-79.102,16.113,26.855,0.0,0
1582149870.647,38.574,-92.285,21.484,25.391,0.0,0
1582149870.651,34.18,-108.398,19.531,22.949,0.0,0
1582149870.655,27.832,-116.211,7.812,22.949,0.0,0
1582149870.659,23.926,-87.891,5.859,15.137,0.0,0
1582149870.6620002,15.137,-89.844,11.23,12.207,0.0,0
1582149870.666,20.02,-79.102,13.672,12.695,0.0,0
1582149870.67,15.625,-33.203,14.648,12.207,0.0,0
1582149870.674,14.648,-62.988,17.09,13.672,0.0,0
1582149870.678,25.391,-87.402,18.066,14.16,0.0,0
1582149870.68,20.02,-72.266,2.93,12.695,0.0,0
1582149870.684,14.648,-73.73,-2.93,9.766,0.0,0
1582149870.688,27.832,-76.172,1.465,18.066,0.0,0
1582149870.6920002,33.691,-57.617,10.254,22.949,0.0,0
1582149870.696,32.227,-53.223,20.996,20.508000000000006,0.0,0
1582149870.7,28.809,-91.309,22.949,22.461,0.0,0
1582149870.704,20.508000000000006,-76.172,16.602,18.066,0.0,0
1582149870.707,21.973000000000006,-69.336,0.0,9.277,0.0,0
1582149870.711,25.391,-50.293,3.906,11.23,0.0,0
1582149870.715,31.25,-16.602,18.066,26.367,0.0,0
1582149870.719,31.25,-42.969,13.672,29.785,0.0,0
1582149870.7229998,27.832,-33.203,4.395,18.066,0.0,0
1582149870.725,33.691,-23.438,-2.441,20.508000000000006,0.0,0
1582149870.729,31.25,-41.504,-1.465,27.344,0.0,0
1582149870.7329998,33.203,-61.523,5.859,23.438,0.0,0
1582149870.7370002,38.574,-40.039,13.184,23.438,0.0,0
1582149870.7410002,26.855,-14.16,15.137,28.809,0.0,0
1582149870.745,23.438,-19.043,12.695,25.391,0.0,0
1582149870.7489998,27.344,-50.293,12.207,23.926,0.0,0
1582149870.752,18.066,-51.758,12.207,20.996,0.0,0
1582149870.756,18.066,-2.441,10.254,20.02,0.0,0
1582149870.76,30.762,-11.23,19.531,27.344,0.0,0
1582149870.764,25.391,-31.738000000000003,25.391,29.785,0.0,0
1582149870.768,22.949,-41.504,22.461,31.25,0.0,0
1582149870.77,30.762,-19.531,15.625,27.832,0.0,0
1582149870.774,33.691,-7.812,7.324,27.344,0.0,0
1582149870.778,34.18,-27.832,10.742,22.949,0.0,0
1582149870.782,26.367,-29.297,9.277,12.695,0.0,0
1582149870.786,26.855,-12.695,0.977,13.184,0.0,0
1582149870.79,40.527,-27.344,6.348,20.996,0.0,0
1582149870.794,41.504,-60.059,18.555,16.113,0.0,0
1582149870.7970002,39.062,-39.062,19.531,12.207,0.0,0
1582149870.801,46.387,-22.949,5.859,20.508000000000006,0.0,0
1582149870.805,38.574,-32.715,-4.883,25.391,0.0,0
1582149870.809,25.391,-23.926,1.465,24.414,0.0,0
1582149870.813,19.043,-19.531,12.207,23.438,0.0,0
1582149870.83,14.16,-31.738000000000003,10.254,28.32,0.0,0
1582149870.834,11.719,-42.969,4.883,21.484,0.0,0
1582149870.8379998,20.508000000000006,-34.18,9.277,15.625,0.0,0
1582149870.842,24.902,-5.859,17.09,14.16,0.0,0
1582149870.846,17.578,-2.93,11.23,17.09,0.0,0
1582149870.85,15.625,-38.574,2.93,20.996,0.0,0
1582149870.854,16.602,-32.715,10.254,10.254,0.0,0
1582149870.857,16.113,-6.836,25.879,6.348,0.0,0
1582149870.861,15.137,-32.715,15.625,7.812,0.0,0
1582149870.865,19.531,-41.504,0.977,11.719,0.0,0
1582149870.869,18.555,-20.996,8.301,15.625,0.0,0
1582149870.873,17.09,-25.879,10.254,16.602,0.0,0
1582149870.875,19.531,-29.297,7.812,14.648,0.0,0
1582149870.879,20.508000000000006,-10.742,20.996,12.207,0.0,0
1582149870.883,28.809,1.465,28.32,17.09,0.0,0
1582149870.887,36.621,13.184,21.484,21.973000000000006,0.0,0
1582149870.891,28.32,0.488,17.09,19.531,0.0,0
1582149870.895,23.926,-32.227,16.113,22.949,0.0,0
1582149870.899,26.855,-9.766,5.859,18.066,0.0,0
1582149870.9020002,22.461,17.578,0.0,12.207,0.0,0
1582149870.906,21.484,-22.949,2.93,14.16,0.0,0
1582149870.91,15.625,-54.199,2.93,13.184,0.0,0
1582149870.914,23.926,-8.301,18.066,18.555,0.0,0
1582149870.918,31.738000000000003,29.297,24.414,25.879,0.0,0
1582149870.92,17.09,7.812,7.324,19.531,0.0,0
1582149870.924,17.09,-5.371,-0.488,22.949,0.0,0
1582149870.928,28.32,-7.812,5.371,34.668,0.0,0
1582149870.9320002,28.809,22.461,11.719,29.297,0.0,0
1582149870.936,29.785,7.812,15.137,27.832,0.0,0
1582149870.94,29.785,-20.996,17.09,34.18,0.0,0
1582149870.944,22.949,21.973000000000006,12.207,22.949,0.0,0
1582149870.947,30.273000000000003,54.199,3.906,24.902,0.0,0
1582149870.951,30.273000000000003,15.625,-1.953,29.297,0.0,0
1582149870.955,23.926,-7.324,-6.836,21.973000000000006,0.0,0
1582149870.959,22.949,41.504,-1.953,19.043,0.0,0
1582149870.9629998,21.484,38.574,8.789,23.438,0.0,0
1582149870.965,20.508000000000006,31.738000000000003,18.555,19.531,0.0,0
1582149870.969,23.438,50.293,13.672,20.996,0.0,0
1582149870.9729998,23.438,48.34,0.488,17.09,0.0,0
1582149870.9770002,24.902,30.762,-3.906,15.625,0.0,0
1582149870.981,38.086,19.043,-7.324,23.926,0.0,0
1582149870.985,37.598,-7.812,0.488,25.879,0.0,0
1582149870.9889998,26.367,-26.367,11.719,28.32,0.0,0
1582149870.992,30.273000000000003,-11.23,12.695,24.902,0.0,0
1582149870.996,35.156,-1.953,11.719,22.949,0.0,0
1582149871.0,32.715,29.785,8.789,20.508000000000006,0.0,0
1582149871.004,26.855,38.574,7.324,23.438,0.0,0
1582149871.008,22.949,9.277,5.371,21.973000000000006,0.0,0
1582149871.01,28.809,38.574,1.465,16.113,0.0,2
1582149871.014,32.227,66.895,8.789,13.184,0.0,0
1582149871.018,32.227,46.875,19.531,19.531,0.0,0
1582149871.022,28.809,27.832,18.555,25.879,0.0,0
1582149871.026,26.367,32.715,10.742,20.02,0.0,0
1582149871.03,35.645,46.875,2.441,22.461,0.0,0
1582149871.034,31.25,58.105,5.859,24.414,0.0,0
1582149871.0370002,22.461,19.043,16.602,15.137,0.0,0
1582149871.041,22.461,9.766,8.789,12.695,0.0,0
1582149871.045,33.203,95.703,2.441,23.926,0.0,0
1582149871.049,39.551,92.773,6.836,32.227,0.0,0
1582149871.053,26.855,63.965,4.883,23.926,0.0,0
1582149871.055,22.949,82.031,1.465,13.672,0.0,0
1582149871.059,27.344,75.684,2.93,16.113,0.0,0
1582149871.063,24.414,53.71100000000001,14.648,19.531,0.0,0
1582149871.0670002,23.438,53.223,18.066,19.531,0.0,0
1582149871.071,19.043,71.777,3.906,19.531,0.0,0
1582149871.075,23.438,71.289,-4.395,17.09,0.0,0
1582149871.079,31.25,73.242,3.906,16.113,0.0,0
1582149871.082,16.602,50.293,15.137,10.254,0.0,0
1582149871.086,10.254,62.012,23.438,4.883,0.0,0
1582149871.09,21.973000000000006,93.75,23.438,14.16,0.0,0
1582149871.094,27.344,76.66,16.602,19.043,0.0,0
1582149871.0979998,29.785,47.363,12.207,19.043,0.0,0
1582149871.1,26.855,44.922,8.789,24.902,0.0,0
1582149871.104,21.973000000000006,48.34,5.859,20.508000000000006,0.0,0
1582149871.1079998,28.809,40.039,4.395,21.484,0.0,0
1582149871.1120002,31.25,60.059,5.371,23.438,0.0,0
1582149871.1160002,26.855,68.359,3.906,17.09,0.0,0
1582149871.12,30.273000000000003,63.965,4.395,20.02,0.0,0
1582149871.1239998,34.668,67.87100000000001,12.695,25.391,0.0,0
1582149871.127,26.367,73.73,13.184,27.344,0.0,0
1582149871.131,15.625,96.68,3.906,16.113,0.0,0
1582149871.135,13.672,110.352,2.441,13.184,0.0,0
1582149871.139,25.391,118.164,2.441,21.484,0.0,0
1582149871.143,28.32,106.934,1.953,19.531,0.0,0
1582149871.145,20.996,92.285,11.719,25.391,0.0,0
1582149871.149,21.484,61.523,9.766,26.367,0.0,0
1582149871.153,29.297,48.34,6.836,26.855,0.0,0
1582149871.157,36.133,68.359,13.184,33.691,0.0,0
1582149871.161,27.344,51.758,2.441,25.391,0.0,0
1582149871.165,22.461,23.438,0.977,22.949,0.0,0
1582149871.169,23.926,25.391,16.113,21.484,0.0,0
1582149871.1720002,22.949,62.988,23.926,23.926,0.0,0
1582149871.176,18.555,72.266,10.254,19.043,0.0,0
1582149871.18,16.113,22.949,12.207,18.066,0.0,0
1582149871.184,18.066,23.926,16.602,22.949,0.0,0
1582149871.188,21.973000000000006,64.941,4.883,18.555,0.0,0
1582149871.205,23.438,53.223,10.742,21.973000000000006,0.0,0
1582149871.209,18.066,20.508000000000006,14.648,18.066,0.0,0
1582149871.2129998,21.484,17.09,8.789,15.625,0.0,0
1582149871.217,31.738000000000003,34.668,5.859,25.879,0.0,0
1582149871.221,35.156,34.668,2.93,29.297,0.0,0
1582149871.225,24.902,10.254,4.883,18.066,0.0,0
1582149871.229,22.461,16.113,14.648,16.113,0.0,0
1582149871.232,25.391,68.848,17.578,20.02,0.0,0
1582149871.236,26.855,87.891,5.859,16.602,0.0,0
1582149871.24,25.879,42.48,-2.441,13.184,0.0,0
1582149871.244,14.16,40.527,-1.465,15.137,0.0,0
1582149871.248,15.137,86.426,4.883,19.043,0.0,0
1582149871.25,21.973000000000006,97.168,11.23,23.926,0.0,0
1582149871.254,23.438,102.051,20.02,22.461,0.0,0
1582149871.258,22.461,100.586,23.438,29.785,0.0,0
1582149871.262,15.137,106.934,16.113,27.344,0.0,0
1582149871.266,16.113,101.562,6.348,20.508000000000006,0.0,0
1582149871.27,22.949,78.125,-6.836,29.785,0.0,0
1582149871.274,18.066,66.406,-6.836,27.832,0.0,0
1582149871.2770002,19.043,81.055,-3.418,27.344,0.0,0
1582149871.281,23.438,72.75399999999998,1.465,27.344,0.0,0
1582149871.285,22.949,55.176,16.602,26.367,0.0,0
1582149871.289,21.484,77.637,14.648,21.484,0.0,0
1582149871.293,16.602,89.355,-2.441,24.414,0.0,0
1582149871.295,11.719,72.75399999999998,-7.324,28.809,0.0,0
1582149871.299,12.207,72.266,-5.859,28.809,0.0,0
1582149871.303,20.508000000000006,94.727,-2.93,28.809,0.0,0
1582149871.3070002,20.02,86.914,3.906,31.25,0.0,0
1582149871.311,16.602,83.984,13.672,31.25,0.0,0
1582149871.315,22.461,103.027,18.066,22.949,0.0,0
1582149871.319,20.996,124.512,15.625,21.973000000000006,0.0,0
1582149871.322,22.949,133.789,10.254,22.461,0.0,0
1582149871.326,29.297,98.145,-6.836,22.949,0.0,0
1582149871.33,24.414,104.98,-6.348,24.414,0.0,0
1582149871.334,20.02,159.18,3.906,27.344,0.0,0
1582149871.3379998,18.066,119.629,-0.977,25.879,0.0,0
1582149871.34,22.949,107.422,2.93,23.926,0.0,0
1582149871.344,23.438,119.141,11.23,26.367,0.0,0
1582149871.3479998,16.602,108.887,6.836,31.738000000000003,0.0,0
1582149871.3520002,19.043,114.746,-4.395,29.785,0.0,0
1582149871.356,15.625,106.445,-0.977,21.973000000000006,0.0,0
1582149871.36,20.996,121.094,2.441,24.414,0.0,0
1582149871.3639998,29.785,140.137,3.418,27.344,0.0,0
1582149871.367,21.484,150.879,7.812,20.996,0.0,0
1582149871.371,10.254,120.605,5.859,17.09,0.0,0
1582149871.375,13.672,163.086,7.812,20.996,0.0,0
1582149871.379,19.043,191.895,6.836,22.949,0.0,0
1582149871.383,15.137,127.441,-2.93,17.09,0.0,0
1582149871.385,18.066,120.605,1.953,21.973000000000006,0.0,0
1582149871.389,22.949,161.621,9.766,26.367,0.0,0
1582149871.393,18.555,154.785,10.742,25.391,0.0,0
1582149871.397,14.648,141.113,9.766,23.438,0.0,0
1582149871.401,16.602,148.92600000000004,3.906,17.578,0.0,0
1582149871.405,17.09,148.92600000000004,2.441,15.625,0.0,0
1582149871.409,12.695,173.34,9.766,18.066,0.0,0
1582149871.4120002,6.348,163.57399999999996,9.766,16.602,0.0,0
1582149871.416,11.23,141.602,0.977,14.648,0.0,0
1582149871.42,13.672,177.24599999999995,1.465,21.484,0.0,0
1582149871.424,11.23,163.57399999999996,-1.953,23.438,0.0,0
1582149871.428,15.625,156.738,-3.906,25.391,0.0,0
1582149871.43,19.043,168.457,0.977,21.484,0.0,0
1582149871.434,14.16,161.13299999999995,3.418,22.949,0.0,0
1582149871.438,4.395,152.832,2.93,19.531,0.0,0
1582149871.4420002,4.883,152.344,15.137,12.207,0.0,0
1582149871.446,16.602,171.387,28.32,21.973000000000006,0.0,0
1582149871.45,25.391,161.621,17.09,23.438,0.0,0
1582149871.454,15.137,154.785,6.348,17.09,0.0,0
1582149871.457,5.371,149.90200000000004,8.789,15.137,0.0,0
1582149871.461,11.23,167.48,10.254,17.09,0.0,0
1582149871.465,8.301,170.41,4.395,16.113,0.0,0
1582149871.469,13.184,151.36700000000005,3.418,14.648,0.0,0
1582149871.4729998,14.16,145.50799999999995,7.812,13.672,0.0,0
1582149871.475,13.184,140.137,14.648,20.508000000000006,0.0,0
1582149871.479,16.113,130.371,17.578,21.484,0.0,0
1582149871.4829998,11.719,106.934,1.465,9.766,0.0,0
1582149871.4870002,13.672,114.746,-6.836,12.695,0.0,0
1582149871.4910002,10.254,150.391,2.441,14.16,0.0,0
1582149871.495,9.277,139.16,8.789,15.137,0.0,0
1582149871.4989998,17.578,124.023,5.371,18.555,0.0,0
1582149871.502,9.766,126.465,3.418,14.16,0.0,0
1582149871.506,7.812,160.645,5.859,19.531,0.0,0
1582149871.51,12.695,166.016,11.719,24.902,0.0,0
1582149871.514,13.184,133.30100000000002,7.812,20.508000000000006,0.0,0
1582149871.518,20.508000000000006,140.625,6.836,21.484,0.0,0
1582149871.52,24.414,155.762,11.719,17.09,0.0,0
1582149871.524,21.973000000000006,149.90200000000004,1.953,10.254,0.0,0
1582149871.528,16.602,147.94899999999996,0.488,11.23,0.0,0
1582149871.532,12.207,161.13299999999995,3.418,9.766,0.0,0
1582149871.536,7.812,164.551,0.0,6.348,0.0,0
1582149871.54,2.93,142.09,3.418,9.277,0.0,0
1582149871.544,8.301,145.02,4.883,14.648,0.0,0
1582149871.5470002,12.207,154.785,8.301,18.555,0.0,0
1582149871.551,7.324,159.18,7.812,11.23,0.0,0
1582149871.555,2.441,160.645,6.348,5.859,0.0,0
1582149871.559,1.465,159.18,6.348,6.836,0.0,0
1582149871.563,-2.93,149.90200000000004,10.742,-4.883,0.0,0
1582149871.58,-11.719,163.57399999999996,23.438,-16.113,0.0,0
1582149871.584,-12.207,201.66,30.273000000000003,-21.484,0.0,0
1582149871.5879998,-19.531,209.473,35.156,-33.203,0.0,0
1582149871.592,-48.828,217.773,41.01600000000001,-53.71100000000001,0.0,0
1582149871.596,-66.895,259.766,46.387,-64.941,0.0,0
1582149871.6,-73.73,268.066,48.34,-73.242,0.0,0
1582149871.604,-92.285,334.473,50.78100000000001,-95.215,0.0,0
1582149871.607,-106.934,462.891,60.059,-112.305,0.0,0
1582149871.611,-118.652,510.254,64.453,-123.535,0.0,0
1582149871.615,-132.812,493.652,64.941,-135.74200000000002,0.0,0
1582149871.619,-140.137,493.164,64.453,-147.461,0.0,0
1582149871.623,-141.602,501.465,75.195,-142.578,0.0,0
1582149871.625,-143.066,495.605,79.102,-143.066,0.0,0
1582149871.629,-151.855,514.16,64.941,-164.062,0.0,0
1582149871.633,-147.461,521.484,54.688,-159.668,0.0,0
1582149871.637,-133.30100000000002,541.016,48.828,-142.09,0.0,0
1582149871.641,-141.113,549.316,44.922,-144.531,0.0,0
1582149871.645,-135.74200000000002,530.762,44.434,-140.137,0.0,0
1582149871.649,-117.676,530.273,42.48,-123.535,0.0,0
1582149871.6520002,-108.398,555.664,38.574,-109.863,0.0,0
1582149871.656,-99.121,546.875,38.086,-101.074,0.0,0
1582149871.66,-88.867,493.164,34.18,-93.75,0.0,0
1582149871.664,-65.918,518.555,26.855,-71.777,0.0,0
1582149871.668,-39.551,553.2230000000002,20.02,-47.363,0.0,0
1582149871.67,-31.738000000000003,496.582,5.371,-37.598,0.0,0
1582149871.674,-15.625,462.402,-2.93,-20.508000000000006,0.0,0
1582149871.678,3.906,490.723,-4.883,-6.836,0.0,0
1582149871.6820002,10.742,475.098,-7.812,10.254,0.0,0
1582149871.686,21.484,420.41,-4.395,23.926,0.0,0
1582149871.69,32.227,382.812,5.371,27.344,0.0,0
1582149871.694,34.18,402.832,3.906,34.668,0.0,0
1582149871.697,45.41,422.852,-8.789,43.457,0.0,0
1582149871.701,67.383,374.512,-18.066,53.223,0.0,0
1582149871.705,76.66,342.285,-27.832,56.152,0.0,0
1582149871.709,80.078,380.371,-26.855,54.688,0.0,0
1582149871.7129998,86.914,362.793,-26.367,62.012,0.0,0
1582149871.715,87.402,333.0080000000001,-17.09,75.684,0.0,0
1582149871.719,94.238,321.777,0.0,82.031,0.0,0
1582149871.7229998,90.82,298.828,-13.672,91.797,0.0,0
1582149871.7270002,83.008,287.598,-34.668,99.121,0.0,0
1582149871.731,87.891,276.855,-33.203,98.145,0.0,0
1582149871.735,88.867,259.277,-24.414,101.562,0.0,0
1582149871.7389998,91.797,248.535,-17.578,101.074,0.0,0
1582149871.742,98.633,264.16,-18.066,98.145,0.0,0
1582149871.746,91.309,239.746,-20.996,89.844,0.0,0
1582149871.75,83.49600000000002,241.699,-17.578,82.52,0.0,0
1582149871.754,83.008,243.652,-24.414,78.613,0.0,0
1582149871.758,78.125,190.43,-20.508000000000006,77.637,0.0,0
1582149871.76,82.52,184.57,-22.461,80.566,0.0,0
1582149871.764,86.426,180.176,-29.785,78.613,0.0,0
1582149871.768,74.219,140.137,-28.32,67.87100000000001,0.0,0
1582149871.772,70.312,122.559,-29.297,72.75399999999998,0.0,0
1582149871.776,73.73,119.629,-23.926,80.566,0.0,0
1582149871.78,75.195,111.816,-20.508000000000006,76.172,0.0,0
1582149871.784,76.172,123.047,-18.066,75.195,0.0,0
1582149871.7870002,68.359,97.656,-14.16,72.266,0.0,0
1582149871.791,64.453,79.59,-10.742,67.383,0.0,0
1582149871.795,67.87100000000001,120.117,-5.371,73.73,0.0,0
1582149871.799,65.918,87.891,-12.207,79.102,0.0,0
1582149871.803,64.941,47.363,-15.137,71.289,0.0,0
1582149871.805,66.895,69.336,-12.695,67.87100000000001,0.0,0
1582149871.809,62.5,84.961,-13.672,62.988,0.0,0
1582149871.813,58.594,78.125,-12.207,61.035,0.0,0
1582149871.8170002,60.547,71.777,-13.672,65.918,0.0,0
1582149871.821,58.105,74.707,-18.066,59.57,0.0,0
1582149871.825,61.035,68.848,-21.484,56.152,0.0,0
1582149871.829,61.523,71.289,-22.461,57.617,0.0,0
1582149871.832,61.035,50.293,-14.16,62.012,0.0,0
1582149871.836,64.941,63.477,-8.301,59.57,0.0,0
1582149871.84,70.801,92.285,-5.371,58.594,0.0,0
1582149871.844,63.477,65.43,-7.812,65.918,0.0,0
1582149871.8479998,50.78100000000001,30.273000000000003,-11.719,59.082,0.0,0
1582149871.85,51.758,47.852,0.488,52.246,0.0,0
1582149871.854,49.805,59.082,-1.465,51.758,0.0,0
1582149871.8579998,44.922,26.855,-12.207,46.387,0.0,0
1582149871.8620002,53.223,33.691,-13.184,47.852,0.0,0
1582149871.8660002,58.105,55.664,-9.277,51.27,0.0,0
1582149871.87,48.828,46.875,0.0,42.969,0.0,0
1582149871.8739998,44.922,38.086,8.789,41.504,0.0,0
1582149871.877,44.434,59.082,8.789,40.527,0.0,0
1582149871.881,34.668,78.613,10.254,40.039,0.0,0
1582149871.885,25.879,41.992,15.625,33.203,0.0,0
1582149871.889,32.715,43.945,1.953,25.391,0.0,0
1582149871.893,33.691,49.316,-4.883,28.809,0.0,0
1582149871.895,35.156,26.367,-4.883,30.273000000000003,0.0,0
1582149871.899,44.922,16.602,-7.324,36.133,0.0,0
1582149871.903,40.039,46.387,3.418,46.387,0.0,0
1582149871.907,37.109,84.473,5.859,43.945,0.0,0
1582149871.911,46.875,75.684,3.906,39.062,0.0,0
1582149871.915,41.992,35.156,14.648,39.062,0.0,0
1582149871.919,35.156,4.395,9.766,32.227,0.0,0
1582149871.9220002,43.945,28.32,3.418,33.691,0.0,0
1582149871.926,40.527,50.78100000000001,-0.977,32.227,0.0,0
1582149871.93,37.598,9.766,-9.277,28.809,0.0,0
1582149871.934,41.504,-5.371,-0.488,31.25,0.0,0
1582149871.938,38.574,25.391,2.93,31.25,0.0,0
1582149871.955,39.551,42.48,10.742,24.902,0.0,0
1582149871.959,42.969,13.184,20.996,22.949,0.0,0
1582149871.9629998,32.715,-28.32,13.672,22.949,0.0,0
1582149871.967,33.691,-10.254,7.324,25.391,0.0,0
1582149871.971,35.156,-3.906,13.184,28.809,0.0,0
1582149871.975,26.367,-57.129,13.672,22.949,0.0,0
1582149871.979,31.25,-28.32,15.625,25.391,0.0,0
1582149871.982,32.715,34.668,17.09,28.809,0.0,0
1582149871.986,25.391,17.578,16.113,25.391,0.0,0
1582149871.99,28.32,6.836,25.391,25.879,0.0,0
1582149871.994,30.762,5.859,27.832,30.762,0.0,0
1582149871.998,17.578,15.625,16.113,27.344,0.0,0
1582149872.0,17.578,21.973000000000006,5.859,24.414,0.0,0
1582149872.004,28.809,11.719,1.465,28.32,0.0,0
1582149872.008,27.832,9.277,6.836,29.785,0.0,0
1582149872.012,34.18,2.441,14.648,35.156,0.0,0
1582149872.016,37.598,16.113,13.672,40.039,0.0,0
1582149872.02,39.062,37.598,8.789,39.062,0.0,0
1582149872.024,31.738000000000003,52.246,8.301,25.879,0.0,0
1582149872.0270002,20.02,79.59,9.277,19.043,0.0,0
1582149872.031,29.785,93.75,7.812,26.367,0.0,0
1582149872.035,35.645,50.293,7.812,25.391,0.0,0
1582149872.039,26.367,22.949,9.766,20.996,0.0,0
1582149872.043,21.484,11.719,9.766,21.973000000000006,0.0,1
1582149872.045,27.344,-6.836,10.254,27.832,0.0,0
1582149872.049,28.809,13.184,14.16,28.32,0.0,0
1582149872.053,27.344,41.504,8.789,22.949,0.0,0
1582149872.0570002,26.367,35.645,0.0,16.602,0.0,0
1582149872.061,22.461,28.32,3.418,15.137,0.0,0
1582149872.065,20.996,42.48,16.602,18.555,0.0,0
1582149872.069,19.043,96.191,18.066,18.555,0.0,0
1582149872.072,20.996,151.36700000000005,8.301,19.531,0.0,0
1582149872.076,21.973000000000006,151.855,9.766,17.578,0.0,0
1582149872.08,18.555,198.73,8.789,20.02,0.0,0
1582149872.084,23.926,285.156,10.742,18.066,0.0,0
1582149872.0879998,26.367,258.789,14.16,13.672,0.0,0
1582149872.09,19.531,250.0,13.184,20.02,0.0,0
1582149872.094,17.09,275.391,13.184,25.391,0.0,0
1582149872.0979998,17.578,289.551,9.277,27.344,0.0,0
1582149872.1020002,16.113,289.551,8.301,15.625,0.0,0
1582149872.106,11.719,271.48400000000004,19.531,15.625,0.0,0
