timestamps,TP9,AF7,AF8,TP10,Right AUX,Marker0
1582736789.178,36.133,21.973000000000006,18.066,47.852,0.0,0
1582736789.1820002,33.203,22.949,14.16,51.27,0.0,0
1582736789.186,41.504,36.133,10.742,57.617,0.0,0
1582736789.19,56.64100000000001,42.48,11.23,57.617,0.0,0
1582736789.194,42.969,33.203,16.602,52.734,0.0,0
1582736789.198,26.367,21.484,19.043,50.78100000000001,0.0,0
1582736789.202,24.414,19.531,16.113,45.41,0.0,0
1582736789.205,32.715,26.855,17.09,43.945,0.0,0
1582736789.209,32.227,25.391,16.113,43.945,0.0,0
1582736789.2129998,18.066,20.508000000000006,15.137,39.062,0.0,0
1582736789.217,21.973000000000006,25.391,17.578,46.387,0.0,0
1582736789.221,19.531,24.902,14.16,41.504,0.0,0
1582736789.2229998,29.297,21.973000000000006,7.812,45.41,0.0,0
1582736789.2270002,27.832,23.926,13.672,54.199,0.0,0
1582736789.231,-0.977,23.438,27.344,30.762,0.0,0
1582736789.235,-13.672,20.996,35.156,16.113,0.0,0
1582736789.2389998,-8.301,19.531,34.668,22.461,0.0,0
1582736789.2429998,0.977,19.043,32.227,26.855,0.0,0
1582736789.2470002,-3.418,20.02,33.691,23.926,0.0,0
1582736789.25,-18.066,17.09,38.086,22.461,0.0,0
1582736789.254,-11.23,14.648,39.062,27.344,0.0,0
1582736789.258,-2.441,17.578,32.715,24.902,0.0,0
1582736789.262,-0.977,20.02,27.832,25.879,0.0,0
1582736789.266,-1.953,19.043,27.344,25.879,0.0,0
1582736789.268,9.766,17.578,24.902,20.508000000000006,0.0,0
1582736789.272,14.16,19.531,29.297,29.785,0.0,0
1582736789.276,9.277,20.02,32.227,38.086,0.0,0
1582736789.28,16.113,17.578,25.391,36.621,0.0,0
1582736789.284,32.227,19.043,24.902,42.969,0.0,0
1582736789.288,28.32,21.973000000000006,24.902,46.387,0.0,0
1582736789.292,25.879,20.508000000000006,23.926,43.457,0.0,0
1582736789.295,31.738000000000003,18.555,25.391,48.828,0.0,0
1582736789.299,21.973000000000006,20.02,23.926,52.246,0.0,0
1582736789.303,27.832,20.996,19.043,48.34,0.0,0
1582736789.3070002,35.645,19.043,21.484,49.805,0.0,0
1582736789.311,35.645,23.926,26.367,53.71100000000001,0.0,0
1582736789.313,36.621,23.926,25.391,52.246,0.0,0
1582736789.3170002,40.039,19.043,27.344,55.176,0.0,0
1582736789.321,41.992,21.973000000000006,32.715,56.152,0.0,0
1582736789.325,45.898,15.625,33.203,51.27,0.0,0
1582736789.329,52.246,20.996,23.926,51.27,0.0,0
1582736789.333,46.875,35.645,18.555,44.434,0.0,0
1582736789.337,29.297,35.645,20.508000000000006,38.086,0.0,0
1582736789.34,21.484,32.715,22.949,42.969,0.0,0
1582736789.344,24.902,26.855,21.484,38.086,0.0,0
1582736789.3479998,28.809,21.484,19.043,37.598,0.0,0
1582736789.3520002,28.32,23.926,21.973000000000006,49.316,0.0,0
1582736789.356,26.855,25.879,20.508000000000006,45.41,0.0,0
1582736789.373,21.484,18.066,16.602,42.969,0.0,0
1582736789.377,22.949,11.719,17.578,44.434,0.0,0
1582736789.381,28.809,18.066,21.484,38.086,0.0,0
1582736789.385,24.414,22.949,24.902,38.574,0.0,0
1582736789.389,20.02,22.461,26.367,45.898,0.0,0
1582736789.393,25.879,22.949,24.414,49.316,0.0,0
1582736789.397,29.785,22.949,24.902,50.293,0.0,0
1582736789.4,24.414,18.555,24.414,46.875,0.0,0
1582736789.404,24.902,14.648,18.555,42.48,0.0,0
1582736789.408,36.621,19.531,19.043,49.316,0.0,0
1582736789.4120002,36.621,20.508000000000006,19.531,52.246,0.0,0
1582736789.416,25.879,16.113,16.602,40.527,0.0,0
1582736789.418,19.531,19.531,17.09,46.387,0.0,0
1582736789.4220002,18.066,25.879,13.672,49.316,0.0,0
1582736789.426,26.367,25.879,17.578,35.156,0.0,0
1582736789.43,20.508000000000006,24.414,24.902,36.133,0.0,0
1582736789.434,18.066,21.973000000000006,22.461,39.551,0.0,0
1582736789.438,13.672,18.555,19.043,39.551,0.0,0
1582736789.4420002,6.836,13.184,18.066,34.18,0.0,0
1582736789.445,11.719,12.695,17.09,33.203,0.0,0
1582736789.449,13.672,20.02,17.09,37.109,0.0,0
1582736789.4529998,15.625,23.438,20.508000000000006,39.062,0.0,0
1582736789.457,22.461,26.367,20.02,43.457,0.0,0
1582736789.461,21.973000000000006,26.855,15.625,40.527,0.0,0
1582736789.4629998,14.648,18.066,17.09,39.062,0.0,0
1582736789.467,19.043,17.578,18.555,45.41,0.0,0
1582736789.471,26.855,24.902,17.09,45.41,0.0,0
1582736789.475,26.367,30.273000000000003,12.695,40.039,0.0,0
1582736789.479,27.832,31.25,14.648,38.086,0.0,0
1582736789.4829998,25.879,32.715,19.043,39.062,0.0,0
1582736789.4870002,20.996,30.762,20.508000000000006,42.48,0.0,0
1582736789.49,24.414,26.367,24.902,42.48,0.0,0
1582736789.494,19.043,23.926,24.414,35.645,0.0,0
1582736789.498,13.672,14.648,18.555,35.645,0.0,0
1582736789.502,25.391,7.324,15.625,46.875,0.0,0
1582736789.506,40.039,27.344,16.602,54.199,0.0,0
1582736789.508,34.18,45.898,13.672,37.598,0.0,0
1582736789.512,31.25,42.48,12.207,30.762,0.0,0
1582736789.516,26.855,40.527,13.184,37.109,0.0,0
1582736789.52,20.996,40.039,15.625,47.363,0.0,0
1582736789.524,20.02,36.621,24.902,44.922,0.0,0
1582736789.528,16.602,29.297,22.461,29.297,0.0,0
1582736789.532,21.484,26.855,7.812,28.32,0.0,0
1582736789.535,28.809,26.855,6.836,32.715,0.0,0
1582736789.539,27.344,23.438,5.859,31.25,0.0,0
1582736789.543,18.066,21.484,0.488,25.879,0.0,0
1582736789.5470002,9.766,19.531,8.301,26.855,0.0,0
1582736789.551,10.254,20.508000000000006,16.113,26.855,0.0,0
1582736789.553,26.367,23.438,15.625,30.273000000000003,0.0,0
1582736789.5570002,29.297,27.344,17.578,33.691,0.0,0
1582736789.561,20.508000000000006,30.273000000000003,20.02,37.109,0.0,0
1582736789.565,20.02,28.32,19.531,41.504,0.0,0
1582736789.569,27.832,28.809,15.137,44.434,0.0,0
1582736789.573,27.832,27.832,10.254,39.551,0.0,0
1582736789.577,28.32,26.367,9.766,42.969,0.0,0
1582736789.58,32.227,28.32,13.672,50.293,0.0,0
1582736789.584,30.762,28.32,18.066,47.852,0.0,0
1582736789.5879998,35.156,23.926,19.043,50.78100000000001,0.0,0
1582736789.592,36.133,21.973000000000006,17.578,52.246,0.0,0
1582736789.596,26.855,22.461,17.09,47.363,0.0,0
1582736789.5979998,22.949,22.949,18.066,41.992,0.0,0
1582736789.6020002,27.344,20.508000000000006,15.625,41.01600000000001,0.0,0
1582736789.606,30.762,12.207,17.578,41.504,0.0,0
1582736789.61,29.785,17.578,20.996,45.898,0.0,0
1582736789.6139998,25.879,28.32,16.602,49.316,0.0,0
1582736789.6179998,30.273000000000003,28.32,17.578,52.246,0.0,0
1582736789.6220002,40.039,30.273000000000003,22.461,51.758,0.0,0
1582736789.625,41.01600000000001,28.809,23.438,50.78100000000001,0.0,0
1582736789.629,38.574,30.273000000000003,23.926,56.64100000000001,0.0,0
1582736789.633,46.875,41.01600000000001,26.367,56.152,0.0,0
1582736789.637,45.898,42.48,26.367,55.664,0.0,0
1582736789.641,39.551,30.273000000000003,22.949,58.594,0.0,0
1582736789.643,36.621,28.809,20.02,61.035,0.0,0
1582736789.647,28.32,35.156,20.508000000000006,62.988,0.0,0
1582736789.651,32.227,33.691,21.484,62.988,0.0,0
1582736789.655,32.715,30.273000000000003,19.531,49.316,0.0,0
1582736789.659,24.414,25.391,17.578,41.504,0.0,0
1582736789.663,28.809,21.484,20.508000000000006,42.48,0.0,0
1582736789.667,27.344,14.648,24.414,41.01600000000001,0.0,0
1582736789.67,23.926,16.602,21.973000000000006,41.01600000000001,0.0,0
1582736789.674,20.02,26.367,19.531,38.574,0.0,0
1582736789.678,20.996,30.762,18.555,36.133,0.0,0
1582736789.6820002,27.832,33.203,16.113,39.551,0.0,0
1582736789.686,25.879,24.414,18.555,37.598,0.0,0
1582736789.688,21.973000000000006,10.254,21.973000000000006,37.598,0.0,0
1582736789.6920002,19.043,11.23,22.949,41.992,0.0,0
1582736789.696,28.809,18.555,22.949,43.945,0.0,0
1582736789.7,35.156,23.438,21.484,44.922,0.0,0
1582736789.704,31.738000000000003,27.832,16.602,39.062,0.0,0
1582736789.708,27.832,27.832,15.137,35.645,0.0,0
1582736789.712,22.461,21.973000000000006,18.555,39.551,0.0,0
1582736789.715,25.879,20.02,19.531,39.551,0.0,0
1582736789.719,23.926,23.926,14.648,32.715,0.0,0
1582736789.7229998,25.391,22.461,11.23,40.527,0.0,0
1582736789.7270002,20.508000000000006,23.438,15.625,43.457,0.0,0
1582736789.731,5.371,24.414,21.973000000000006,36.133,0.0,0
1582736789.748,8.789,18.066,23.926,36.133,0.0,0
1582736789.752,7.324,5.859,24.414,38.574,0.0,0
1582736789.756,-1.953,6.348,26.855,41.01600000000001,0.0,0
1582736789.76,11.719,12.695,28.32,40.039,0.0,0
1582736789.764,17.09,14.16,22.949,41.992,0.0,0
1582736789.768,20.996,20.508000000000006,22.461,51.27,0.0,0
1582736789.772,21.484,19.531,24.902,52.246,0.0,0
1582736789.775,14.648,18.555,20.02,49.805,0.0,0
1582736789.779,26.855,23.438,20.02,54.199,0.0,0
1582736789.783,21.484,22.461,23.438,55.176,0.0,0
1582736789.7870002,17.09,18.066,25.391,56.152,0.0,0
1582736789.791,26.855,13.672,29.785,56.64100000000001,0.0,0
1582736789.793,25.391,12.695,29.785,50.78100000000001,0.0,0
1582736789.7970002,24.902,20.508000000000006,26.855,48.828,0.0,0
1582736789.801,25.879,24.902,26.855,53.71100000000001,0.0,0
1582736789.805,25.391,21.973000000000006,24.414,53.223,0.0,0
1582736789.809,22.461,18.066,22.949,47.363,0.0,0
1582736789.813,26.367,17.578,25.391,52.734,0.0,0
1582736789.8170002,24.414,20.02,28.32,52.734,0.0,0
1582736789.82,21.973000000000006,17.09,22.949,46.387,0.0,0
1582736789.824,25.879,15.625,25.879,57.129,0.0,0
1582736789.8279998,25.391,21.484,28.809,64.941,0.0,0
1582736789.832,20.996,24.414,22.461,55.176,0.0,0
1582736789.836,18.555,23.926,26.367,54.199,0.0,0
1582736789.8379998,22.461,23.926,29.297,53.223,0.0,0
1582736789.842,28.32,26.367,24.414,52.734,0.0,0
1582736789.846,26.367,27.344,21.484,51.758,0.0,0
1582736789.85,16.602,26.367,24.414,42.969,0.0,0
1582736789.854,24.902,26.367,21.484,41.504,0.0,0
1582736789.8579998,29.297,21.973000000000006,22.461,44.434,0.0,0
1582736789.8620002,21.973000000000006,16.602,25.391,44.434,0.0,0
1582736789.865,23.438,15.137,22.461,46.875,0.0,0
1582736789.869,29.297,20.996,19.531,55.176,0.0,0
1582736789.873,31.738000000000003,32.227,19.043,56.64100000000001,0.0,0
1582736789.877,28.809,30.762,17.09,53.223,0.0,0
1582736789.881,37.109,31.738000000000003,16.113,58.105,0.0,0
1582736789.8979998,46.387,37.598,19.043,60.059,0.0,0
1582736789.9020002,37.598,38.574,20.02,56.64100000000001,0.0,0
1582736789.906,26.367,36.621,18.555,58.594,0.0,0
1582736789.91,26.855,29.297,22.949,57.617,0.0,0
1582736789.914,31.25,25.391,23.926,54.688,0.0,0
1582736789.918,29.297,30.273000000000003,21.484,56.152,0.0,0
1582736789.9220002,29.297,32.715,21.973000000000006,52.734,0.0,0
1582736789.925,33.691,32.227,22.461,54.688,0.0,0
1582736789.929,33.691,32.715,27.344,60.547,0.0,0
1582736789.9329998,35.156,33.691,25.391,56.64100000000001,0.0,0
1582736789.937,40.039,31.738000000000003,21.973000000000006,55.176,0.0,0
1582736789.941,41.992,27.832,25.879,55.176,0.0,0
1582736789.928,37.109,26.367,20.996,55.176,0.0,0
1582736789.9320002,37.109,29.297,19.043,59.57,0.0,0
1582736789.936,46.387,18.066,25.879,56.152,0.0,0
1582736789.94,41.504,5.859,26.855,53.71100000000001,0.0,0
1582736789.944,32.715,20.508000000000006,25.879,61.035,0.0,0
1582736789.948,32.715,30.273000000000003,23.926,63.965,0.0,0
1582736789.952,33.203,32.227,25.391,58.594,0.0,0
1582736789.955,35.156,33.691,29.785,51.27,0.0,0
1582736789.959,30.273000000000003,32.227,30.273000000000003,52.246,0.0,0
1582736789.9629998,19.043,34.18,27.344,45.898,0.0,0
1582736789.967,23.926,28.809,26.367,43.945,0.0,0
1582736789.971,30.762,24.902,27.344,57.129,0.0,0
1582736789.9729998,27.832,26.367,27.832,54.199,0.0,0
1582736789.9770002,25.879,24.902,25.391,46.387,0.0,0
1582736789.981,22.949,24.414,25.391,43.457,0.0,0
1582736789.985,29.785,21.484,23.926,48.34,0.0,0
1582736789.9889998,30.762,19.531,23.438,48.828,0.0,0
1582736789.9929998,22.461,19.043,25.879,43.945,0.0,0
1582736789.9970002,24.414,17.09,26.855,46.387,0.0,0
1582736790.0,31.25,20.996,21.973000000000006,53.71100000000001,0.0,0
1582736790.004,32.715,21.484,19.043,49.805,0.0,0
1582736790.008,17.578,9.277,23.438,44.922,0.0,0
1582736790.012,13.184,15.625,24.414,48.34,0.0,0
1582736790.016,25.879,28.32,24.414,49.316,0.0,0
1582736790.018,23.926,26.367,25.879,39.551,0.0,0
1582736790.022,16.602,23.926,22.461,26.367,0.0,0
1582736790.026,16.602,20.996,20.508000000000006,29.297,0.0,0
1582736790.03,22.461,17.578,19.531,39.062,0.0,0
1582736790.034,29.297,21.973000000000006,20.996,42.48,0.0,0
1582736790.038,27.832,23.926,21.973000000000006,40.527,0.0,0
1582736790.042,21.973000000000006,20.996,21.484,39.062,0.0,0
1582736790.045,23.438,21.484,22.461,41.504,0.0,0
1582736790.049,20.996,20.02,18.555,35.156,0.0,0
1582736790.053,18.555,16.602,18.066,41.504,0.0,0
1582736790.0570002,17.09,15.137,19.531,44.922,0.0,0
1582736790.061,20.508000000000006,19.043,17.578,33.203,0.0,0
1582736790.063,32.227,24.902,19.043,40.527,0.0,0
1582736790.0670002,33.691,20.996,19.531,52.246,0.0,0
1582736790.071,29.297,22.461,20.508000000000006,45.41,0.0,0
1582736790.075,22.949,26.855,23.438,39.062,0.0,0
1582736790.079,24.414,21.484,24.414,44.434,0.0,0
1582736790.083,28.809,23.438,22.949,56.152,0.0,0
1582736790.087,26.367,32.227,23.926,52.246,0.0,0
1582736790.09,25.879,33.203,29.297,46.387,0.0,0
1582736790.094,33.691,32.715,26.855,51.27,0.0,0
1582736790.0979998,39.551,35.156,24.414,49.805,0.0,0
1582736790.1020002,37.598,32.227,23.926,45.41,0.0,0
1582736790.106,35.645,26.855,20.02,47.363,0.0,0
1582736790.1079998,33.203,25.879,25.879,51.758,0.0,0
1582736790.1120002,34.668,30.273000000000003,30.273000000000003,48.34,0.0,0
1582736790.1160002,26.855,30.762,21.973000000000006,49.316,0.0,0
1582736790.12,21.973000000000006,26.855,16.602,52.734,0.0,0
1582736790.1239998,19.531,27.832,18.555,55.176,0.0,0
1582736790.1279998,30.762,28.809,22.949,56.64100000000001,0.0,0
1582736790.1320002,39.551,28.809,25.391,52.246,0.0,0
1582736790.135,30.273000000000003,29.297,27.344,47.363,0.0,0
1582736790.139,23.438,28.32,24.902,45.41,0.0,0
1582736790.143,26.367,25.879,28.32,46.875,0.0,0
1582736790.147,23.926,21.484,31.738000000000003,45.41,0.0,0
1582736790.151,14.648,19.531,20.996,39.062,0.0,0
1582736790.168,17.578,22.949,18.555,40.039,0.0,0
1582736790.1720002,19.531,22.461,24.902,43.945,0.0,0
1582736790.176,17.09,17.578,28.809,39.551,0.0,0
1582736790.18,17.09,20.02,25.391,43.945,0.0,0
1582736790.184,22.949,23.438,20.02,46.387,0.0,0
1582736790.188,22.949,23.438,22.461,47.363,0.0,0
1582736790.1920002,20.508000000000006,23.926,25.391,50.78100000000001,0.0,0
1582736790.195,31.25,26.367,28.32,49.805,0.0,0
1582736790.199,23.438,22.949,28.32,54.199,0.0,0
1582736790.2029998,14.16,22.461,26.855,56.152,0.0,0
1582736790.207,20.02,23.438,26.855,51.27,0.0,0
1582736790.211,27.832,26.367,23.438,54.199,0.0,0
1582736790.2129998,25.391,26.367,20.996,44.434,0.0,0
1582736790.217,24.902,23.926,21.973000000000006,40.527,0.0,0
1582736790.221,25.391,25.391,23.926,49.316,0.0,0
1582736790.225,22.461,22.461,26.367,47.852,0.0,0
1582736790.229,22.949,27.344,21.484,45.41,0.0,0
1582736790.2329998,23.438,30.273000000000003,18.555,49.316,0.0,0
1582736790.2370002,27.344,20.508000000000006,21.484,54.199,0.0,0
1582736790.24,25.879,19.531,18.555,47.363,0.0,0
1582736790.244,20.02,24.414,16.113,41.01600000000001,0.0,0
1582736790.248,16.602,26.367,18.066,44.434,0.0,0
1582736790.252,22.949,26.367,20.02,46.387,0.0,0
1582736790.256,24.414,24.902,21.484,49.316,0.0,0
1582736790.258,29.297,25.879,20.508000000000006,55.176,0.0,0
1582736790.262,35.645,27.344,21.484,60.059,0.0,0
1582736790.266,35.156,27.344,24.414,60.547,0.0,1
1582736790.27,39.062,27.344,25.391,58.594,0.0,0
1582736790.274,34.668,26.855,27.344,58.594,0.0,0
1582736790.278,31.25,26.367,26.855,60.059,0.0,0
1582736790.282,35.156,21.484,26.367,59.57,0.0,0
1582736790.285,45.898,20.996,25.879,66.406,0.0,0
1582736790.289,42.48,22.461,25.391,63.477,0.0,0
1582736790.293,26.367,22.949,23.926,52.246,0.0,0
1582736790.2970002,22.461,25.879,20.508000000000006,49.316,0.0,0
1582736790.301,24.414,23.438,23.926,56.152,0.0,0
1582736790.303,31.25,20.508000000000006,26.855,60.059,0.0,0
1582736790.3070002,36.621,22.949,26.367,59.57,0.0,0
1582736790.311,34.18,26.855,26.855,57.617,0.0,0
1582736790.315,29.785,19.531,24.902,54.199,0.0,0
1582736790.319,41.992,16.113,25.391,53.71100000000001,0.0,0
1582736790.323,37.109,20.996,26.855,55.664,0.0,0
1582736790.327,21.973000000000006,26.855,27.344,57.617,0.0,0
1582736790.33,23.438,29.785,27.832,51.27,0.0,0
1582736790.334,25.391,29.297,26.855,45.41,0.0,0
1582736790.3379998,34.18,30.273000000000003,23.438,40.039,0.0,0
1582736790.342,41.01600000000001,32.227,24.902,51.758,0.0,0
1582736790.346,35.156,29.297,25.391,60.547,0.0,0
1582736790.3479998,29.785,26.367,22.461,56.64100000000001,0.0,0
1582736790.3520002,40.039,24.902,22.949,62.988,0.0,0
1582736790.356,41.01600000000001,29.297,25.391,65.43,0.0,0
1582736790.36,32.227,30.762,25.391,67.383,0.0,0
1582736790.3639998,28.32,28.32,25.391,63.965,0.0,0
1582736790.3679998,34.18,25.879,25.391,58.105,0.0,0
1582736790.3720002,39.551,28.809,20.02,58.594,0.0,0
1582736790.375,36.133,33.203,18.555,55.176,0.0,0
1582736790.379,33.691,34.18,22.461,52.246,0.0,0
1582736790.383,39.551,27.832,22.949,47.363,0.0,0
1582736790.387,41.992,20.02,25.879,52.734,0.0,0
1582736790.391,33.691,31.25,25.391,53.71100000000001,0.0,0
1582736790.393,33.691,41.01600000000001,24.414,49.316,0.0,0
1582736790.397,36.621,41.01600000000001,16.113,49.805,0.0,0
1582736790.401,31.738000000000003,35.645,11.719,43.457,0.0,0
1582736790.405,24.902,25.879,14.648,38.574,0.0,0
1582736790.409,20.508000000000006,23.926,16.113,41.504,0.0,0
1582736790.413,23.438,25.879,17.09,42.969,0.0,0
1582736790.417,29.785,22.461,14.648,40.527,0.0,0
1582736790.42,28.32,18.555,12.207,39.062,0.0,0
1582736790.424,20.02,19.531,13.672,40.039,0.0,0
1582736790.428,25.391,20.508000000000006,13.672,46.387,0.0,0
1582736790.4320002,30.273000000000003,19.043,10.742,47.852,0.0,0
1582736790.436,20.508000000000006,20.508000000000006,13.184,40.039,0.0,0
1582736790.438,11.23,17.09,19.043,30.762,0.0,0
1582736790.4420002,17.09,9.766,20.996,33.203,0.0,0
1582736790.446,19.531,14.648,19.043,47.852,0.0,0
1582736790.45,18.555,21.973000000000006,15.625,41.01600000000001,0.0,0
1582736790.454,20.02,25.391,18.066,32.715,0.0,0
1582736790.458,20.02,27.344,19.531,40.527,0.0,0
1582736790.462,18.555,23.438,13.672,46.387,0.0,0
1582736790.465,21.484,13.672,14.16,45.41,0.0,0
1582736790.469,21.973000000000006,15.625,15.625,41.992,0.0,0
1582736790.4729998,23.438,26.855,21.484,47.363,0.0,0
1582736790.4770002,18.555,23.926,21.484,41.01600000000001,0.0,0
1582736790.481,8.789,16.602,14.16,36.621,0.0,0
1582736790.4829998,19.043,20.996,20.02,50.293,0.0,0
1582736790.4870002,24.414,24.414,22.461,48.828,0.0,0
1582736790.4910002,20.02,20.02,19.531,38.574,0.0,0
1582736790.495,20.508000000000006,8.789,21.484,41.992,0.0,0
1582736790.4989998,16.602,11.719,23.438,43.945,0.0,0
1582736790.5029998,18.066,17.09,23.926,46.387,0.0,0
1582736790.5070002,26.367,18.555,23.438,49.316,0.0,0
1582736790.51,26.367,26.855,18.066,43.945,0.0,0
1582736790.514,19.531,28.809,19.531,42.969,0.0,0
1582736790.518,20.508000000000006,29.785,25.391,48.828,0.0,0
1582736790.522,24.414,32.227,25.879,54.199,0.0,0
1582736790.526,25.879,29.785,30.273000000000003,51.758,0.0,0
1582736790.543,29.297,26.855,33.203,53.223,0.0,0
1582736790.5470002,30.273000000000003,26.367,30.273000000000003,53.223,0.0,0
1582736790.551,30.273000000000003,23.926,28.809,48.828,0.0,0
1582736790.555,30.273000000000003,23.926,22.461,45.898,0.0,0
1582736790.559,27.832,21.973000000000006,18.555,46.875,0.0,0
1582736790.563,24.414,20.02,24.414,45.898,0.0,0
1582736790.5670002,20.02,18.555,26.367,40.039,0.0,0
1582736790.57,16.602,13.672,23.926,38.086,0.0,0
1582736790.574,14.648,16.113,24.414,40.039,0.0,0
1582736790.5779998,20.508000000000006,20.508000000000006,24.902,33.691,0.0,0
1582736790.582,36.133,21.484,23.438,38.574,0.0,0
1582736790.586,38.574,22.949,21.973000000000006,61.523,0.0,0
1582736790.5879998,26.855,21.484,25.391,60.059,0.0,0
1582736790.592,5.859,18.555,30.762,33.203,0.0,0
1582736790.596,7.324,15.137,30.762,29.785,0.0,0
1582736790.6,12.207,9.766,32.715,44.434,0.0,0
1582736790.604,15.137,9.766,31.738000000000003,48.828,0.0,0
1582736790.6079998,25.879,13.184,26.367,49.805,0.0,0
1582736790.6120002,20.02,12.695,27.344,54.688,0.0,0
1582736790.615,13.672,12.207,27.344,53.223,0.0,0
1582736790.619,20.02,11.719,18.066,55.176,0.0,0
1582736790.623,26.855,10.254,16.113,50.78100000000001,0.0,0
1582736790.627,26.367,9.277,21.973000000000006,38.574,0.0,0
1582736790.631,17.09,8.789,20.508000000000006,43.457,0.0,0
1582736790.633,14.648,15.137,20.996,44.434,0.0,0
1582736790.637,26.855,18.066,20.508000000000006,45.898,0.0,0
1582736790.641,27.832,16.602,20.02,44.434,0.0,0
1582736790.645,21.973000000000006,23.926,21.484,43.457,0.0,0
1582736790.649,32.715,24.902,15.625,43.945,0.0,0
1582736790.653,37.109,22.949,17.578,37.109,0.0,0
1582736790.657,33.203,28.809,22.461,38.574,0.0,0
1582736790.66,23.926,26.367,20.508000000000006,40.527,0.0,0
1582736790.664,14.648,15.625,20.996,37.598,0.0,0
1582736790.668,15.137,7.812,22.949,40.527,0.0,0
1582736790.6720002,19.043,17.09,21.973000000000006,47.852,0.0,0
1582736790.676,24.414,18.555,22.949,40.527,0.0,0
1582736790.678,26.855,12.695,17.578,32.715,0.0,0
1582736790.6820002,26.855,22.461,19.043,41.01600000000001,0.0,0
1582736790.686,27.344,26.855,25.391,46.387,0.0,0
1582736790.69,27.344,23.438,27.832,46.875,0.0,0
1582736790.694,18.555,20.508000000000006,25.391,41.01600000000001,0.0,0
1582736790.698,14.16,20.02,21.484,33.691,0.0,0
1582736790.702,20.02,23.438,25.391,37.109,0.0,0
1582736790.705,33.203,17.578,26.855,39.062,0.0,0
1582736790.709,28.809,15.137,21.484,29.297,0.0,0
1582736790.7129998,17.09,21.973000000000006,20.996,34.668,0.0,0
1582736790.717,17.578,14.648,25.879,45.41,0.0,0
1582736790.721,20.02,10.742,27.832,49.316,0.0,0
1582736790.7229998,24.414,18.555,26.367,43.945,0.0,0
1582736790.7270002,17.578,18.555,24.902,30.762,0.0,0
1582736790.731,8.789,11.719,22.949,32.715,0.0,0
1582736790.735,14.648,10.742,25.879,37.598,0.0,0
1582736790.7389998,20.996,11.719,22.949,41.504,0.0,0
1582736790.7429998,15.137,7.812,19.531,43.945,0.0,0
1582736790.7470002,20.508000000000006,11.23,22.461,47.852,0.0,0
1582736790.75,35.645,20.996,15.625,49.316,0.0,0
1582736790.754,31.738000000000003,17.09,10.254,41.01600000000001,0.0,0
1582736790.758,18.555,15.137,20.02,33.203,0.0,0
1582736790.762,11.23,19.043,23.438,37.109,0.0,0
1582736790.766,22.461,19.043,21.973000000000006,44.922,0.0,0
1582736790.768,31.738000000000003,14.16,24.902,44.434,0.0,0
1582736790.772,23.438,14.16,24.414,39.551,0.0,0
1582736790.776,19.043,17.578,20.02,42.969,0.0,0
1582736790.78,24.414,16.602,22.949,54.199,0.0,0
1582736790.784,28.32,20.02,26.367,53.71100000000001,0.0,0
1582736790.788,35.156,25.879,22.461,54.199,0.0,0
1582736790.792,35.645,26.855,20.02,52.246,0.0,0
1582736790.795,28.809,24.414,23.926,51.27,0.0,0
1582736790.799,34.18,26.367,21.973000000000006,48.34,0.0,0
1582736790.803,38.086,24.902,20.996,46.387,0.0,0
1582736790.8070002,31.738000000000003,20.02,26.367,50.293,0.0,0
1582736790.811,35.645,22.461,21.484,49.316,0.0,0
1582736790.813,40.039,22.949,17.578,47.852,0.0,0
1582736790.8170002,43.457,26.367,18.555,50.293,0.0,0
1582736790.821,33.691,30.273000000000003,21.973000000000006,45.41,0.0,0
1582736790.825,26.855,32.715,29.785,42.969,0.0,0
1582736790.829,33.203,31.738000000000003,30.273000000000003,51.758,0.0,0
1582736790.833,33.691,27.832,25.879,49.805,0.0,0
1582736790.837,27.832,26.367,26.367,42.48,0.0,0
1582736790.84,17.578,20.508000000000006,22.461,40.039,0.0,0
1582736790.844,19.531,14.16,19.531,41.992,0.0,0
1582736790.8479998,31.738000000000003,18.066,25.391,43.457,0.0,0
1582736790.8520002,33.203,21.973000000000006,25.391,35.645,0.0,0
1582736790.856,20.996,20.996,23.438,35.156,0.0,0
1582736790.8579998,20.996,25.391,24.414,41.992,0.0,0
1582736790.8620002,21.973000000000006,23.926,20.02,41.504,0.0,0
1582736790.8660002,20.508000000000006,20.02,20.996,43.945,0.0,0
1582736790.87,26.855,24.902,23.438,39.551,0.0,0
1582736790.8739998,31.738000000000003,29.785,24.902,40.527,0.0,0
1582736790.8779998,23.438,33.691,30.762,52.734,0.0,0
1582736790.8820002,17.578,32.227,30.762,52.734,0.0,0
1582736790.885,17.578,28.32,29.785,42.969,0.0,0
1582736790.889,15.137,27.832,33.691,33.691,0.0,0
1582736790.893,10.254,31.25,34.668,28.32,0.0,0
1582736790.897,8.301,36.621,36.133,21.973000000000006,0.0,0
1582736790.901,-4.883,37.598,38.574,11.719,0.0,0
1582736790.918,-18.555,44.434,43.945,5.371,0.0,0
1582736790.9220002,-26.367,51.758,46.875,0.0,0.0,0
1582736790.926,-40.039,46.875,48.828,-13.672,0.0,0
1582736790.93,-42.48,46.875,50.293,-25.879,0.0,0
1582736790.934,-53.223,54.199,48.828,-41.504,0.0,0
1582736790.938,-75.684,58.105,48.828,-59.082,0.0,0
1582736790.9420002,-89.355,63.477,51.27,-71.289,0.0,0
1582736790.945,-99.121,63.477,52.734,-79.59,0.0,0
1582736790.949,-105.469,62.988,56.64100000000001,-82.031,0.0,0
1582736790.9529998,-105.469,64.453,51.27,-90.332,0.0,0
1582736790.957,-95.703,64.453,45.41,-85.449,0.0,0
1582736790.961,-90.332,62.012,49.805,-71.777,0.0,0
1582736790.9629998,-81.055,56.152,51.27,-64.453,0.0,0
1582736790.967,-72.75399999999998,57.129,53.223,-57.617,0.0,0
1582736790.971,-66.895,60.059,49.316,-53.71100000000001,0.0,0
1582736790.975,-53.71100000000001,46.875,49.805,-41.01600000000001,0.0,0
1582736790.979,-48.34,33.691,49.316,-29.297,0.0,0
1582736790.9829998,-38.574,39.062,48.828,-19.043,0.0,0
1582736790.9870002,-20.02,42.48,45.898,-9.766,0.0,0
1582736790.99,-3.418,40.039,37.109,6.348,0.0,0
1582736790.994,7.324,20.996,33.203,17.578,0.0,0
1582736790.998,10.254,9.766,35.156,23.438,0.0,0
1582736791.002,15.137,25.879,37.109,33.691,0.0,0
1582736791.006,23.926,29.785,31.25,39.551,0.0,0
1582736791.008,44.922,27.344,26.367,50.78100000000001,0.0,0
1582736791.012,41.01600000000001,22.949,25.879,50.78100000000001,0.0,0
1582736791.016,37.109,14.648,23.926,53.223,0.0,0
1582736791.02,56.152,17.578,19.043,69.824,0.0,0
1582736791.024,46.387,20.508000000000006,15.137,69.824,0.0,0
1582736791.028,43.945,21.484,12.207,65.43,0.0,0
1582736791.032,56.64100000000001,18.555,15.137,75.684,0.0,0
1582736791.035,51.758,9.277,21.484,78.613,0.0,0
1582736791.039,48.828,6.836,14.16,71.289,0.0,0
1582736791.043,54.199,7.324,10.742,72.266,0.0,0
1582736791.0470002,55.664,9.766,11.23,76.172,0.0,0
1582736791.051,59.082,6.348,10.254,76.172,0.0,0
1582736791.053,59.082,2.93,10.742,82.52,0.0,0
1582736791.0570002,65.918,6.836,9.277,86.914,0.0,0
1582736791.061,70.801,11.719,8.789,86.426,0.0,0
1582736791.065,67.87100000000001,13.184,7.812,86.914,0.0,0
1582736791.069,72.266,9.277,11.23,88.37899999999998,0.0,0
1582736791.073,69.336,7.324,8.301,87.402,0.0,0
1582736791.077,54.199,3.418,2.93,90.82,0.0,0
1582736791.08,60.059,4.883,5.859,93.75,0.0,0
1582736791.084,68.359,11.719,1.465,83.49600000000002,0.0,0
1582736791.0879998,68.848,10.254,-3.418,82.52,0.0,0
1582736791.092,72.266,5.859,0.488,87.891,0.0,0
1582736791.096,63.965,7.812,3.906,92.773,0.0,0
1582736791.0979998,71.289,11.23,8.301,100.586,0.0,0
1582736791.1020002,83.008,12.207,10.742,98.633,0.0,0
1582736791.106,75.195,18.066,9.277,93.262,0.0,0
1582736791.11,71.777,14.16,6.348,93.262,0.0,0
1582736791.1139998,70.312,10.254,8.301,94.238,0.0,0
1582736791.1179998,72.75399999999998,15.625,12.207,94.238,0.0,0
1582736791.1220002,77.637,18.066,11.719,91.309,0.0,0
1582736791.125,65.918,16.113,12.207,91.309,0.0,0
1582736791.129,62.988,17.09,10.254,91.309,0.0,0
1582736791.133,75.195,20.02,8.301,84.961,0.0,0
1582736791.137,78.613,14.16,4.883,84.473,0.0,0
1582736791.141,65.918,9.766,2.441,77.637,0.0,0
1582736791.143,57.617,17.09,10.742,76.172,0.0,0
1582736791.147,63.965,17.578,13.672,82.031,0.0,0
1582736791.151,69.336,13.672,12.207,82.52,0.0,0
1582736791.155,62.5,15.137,10.254,85.449,0.0,0
1582736791.159,61.035,11.719,10.254,87.402,0.0,0
1582736791.163,63.965,11.23,10.254,83.984,0.0,0
1582736791.167,58.594,13.672,9.277,71.777,0.0,0
1582736791.17,51.27,14.16,17.09,70.312,0.0,0
1582736791.174,47.852,11.23,20.996,75.684,0.0,0
1582736791.178,46.875,12.207,18.555,72.75399999999998,0.0,0
1582736791.1820002,45.41,16.113,19.531,69.824,0.0,0
1582736791.186,46.875,12.207,21.484,66.895,0.0,0
1582736791.188,46.387,11.23,20.02,69.336,0.0,0
1582736791.1920002,50.293,19.531,16.602,71.777,0.0,0
1582736791.196,51.758,20.996,17.09,68.359,0.0,0
1582736791.2,43.945,20.508000000000006,18.555,61.035,0.0,0
1582736791.204,37.109,13.672,20.02,57.129,0.0,0
1582736791.208,34.18,11.23,20.508000000000006,53.223,0.0,0
1582736791.212,36.621,15.137,17.578,50.293,0.0,0
1582736791.215,32.227,11.719,15.137,48.828,0.0,0
1582736791.219,28.32,14.16,13.184,46.387,0.0,0
1582736791.2229998,33.203,23.438,12.207,54.688,0.0,0
1582736791.2270002,41.01600000000001,22.949,19.043,57.617,0.0,0
1582736791.231,30.273000000000003,16.602,24.902,57.617,0.0,0
1582736791.2329998,30.762,17.09,20.996,61.035,0.0,0
1582736791.2370002,46.387,21.973000000000006,16.602,57.617,0.0,0
1582736791.2410002,44.922,20.996,19.043,59.57,0.0,0
1582736791.245,43.457,19.531,18.555,63.477,0.0,0
1582736791.2489998,45.898,19.043,20.02,58.594,0.0,0
1582736791.2529998,41.992,18.066,24.902,62.988,0.0,0
1582736791.2570002,36.621,15.137,25.391,59.082,0.0,0
1582736791.26,36.621,12.207,20.508000000000006,60.059,0.0,0
1582736791.264,42.969,21.484,17.09,70.312,0.0,0
1582736791.268,38.574,26.855,18.555,61.035,0.0,0
1582736791.272,28.809,20.996,22.949,52.734,0.0,0
1582736791.276,23.926,17.578,23.438,54.199,0.0,0
1582736791.293,24.414,15.625,20.996,50.78100000000001,0.0,0
1582736791.2970002,22.461,9.766,21.484,49.316,0.0,0
1582736791.301,28.809,10.742,26.367,58.105,0.0,2
1582736791.305,32.715,12.207,26.367,60.059,0.0,0
1582736791.309,32.715,11.23,23.926,54.688,0.0,0
1582736791.313,24.414,15.625,22.461,47.363,0.0,0
1582736791.3170002,17.09,7.812,24.902,47.363,0.0,0
1582736791.32,18.066,4.883,24.414,41.504,0.0,0
1582736791.324,30.273000000000003,20.02,16.113,40.039,0.0,0
1582736791.3279998,34.18,26.855,12.695,42.969,0.0,0
1582736791.332,24.414,26.855,21.973000000000006,48.34,0.0,0
1582736791.336,29.785,27.832,28.32,55.664,0.0,0
1582736791.3379998,33.691,28.809,32.715,54.688,0.0,0
1582736791.342,34.18,25.879,29.297,51.758,0.0,0
1582736791.346,29.297,21.484,21.973000000000006,50.293,0.0,0
1582736791.35,23.926,22.461,29.297,51.758,0.0,0
1582736791.354,28.809,27.832,33.203,50.78100000000001,0.0,0
1582736791.3579998,34.18,26.367,35.645,51.27,0.0,0
1582736791.3620002,32.715,24.414,38.086,54.688,0.0,0
1582736791.365,32.227,20.996,36.133,52.246,0.0,0
1582736791.369,36.133,17.09,34.668,55.664,0.0,0
1582736791.373,38.086,20.508000000000006,33.691,59.082,0.0,0
1582736791.377,29.785,22.949,32.227,49.316,0.0,0
1582736791.381,22.461,21.484,30.273000000000003,43.945,0.0,0
1582736791.383,28.809,19.043,28.32,46.387,0.0,0
1582736791.387,37.598,16.602,24.414,54.199,0.0,0
1582736791.391,37.598,12.695,21.973000000000006,58.105,0.0,0
1582736791.395,28.32,15.625,27.344,52.734,0.0,0
1582736791.399,18.066,19.531,33.691,47.852,0.0,0
1582736791.403,19.043,16.113,34.668,47.852,0.0,0
1582736791.407,29.297,19.043,30.762,51.758,0.0,0
1582736791.41,31.25,18.555,29.297,53.223,0.0,0
1582736791.414,27.832,16.113,29.297,51.27,0.0,0
1582736791.418,30.762,25.391,26.855,49.316,0.0,0
1582736791.4220002,35.156,27.832,23.438,48.34,0.0,0
1582736791.426,39.062,24.414,23.438,56.152,0.0,0
1582736791.429,24.902,22.461,23.926,50.293,0.0,0
1582736791.4329998,27.344,25.391,20.02,43.945,0.0,0
1582736791.437,32.715,27.832,19.531,53.71100000000001,0.0,0
1582736791.441,31.738000000000003,26.367,22.461,49.805,0.0,0
1582736791.445,35.156,23.926,26.367,51.27,0.0,0
1582736791.449,22.949,20.996,28.32,53.223,0.0,0
1582736791.4529998,33.691,20.996,26.367,51.758,0.0,0
1582736791.456,39.062,23.926,26.367,50.78100000000001,0.0,0
1582736791.46,24.902,23.438,24.902,42.969,0.0,0
1582736791.464,20.02,20.508000000000006,18.066,44.922,0.0,0
1582736791.468,26.855,19.531,6.836,45.41,0.0,0
1582736791.472,31.738000000000003,21.484,7.812,44.922,0.0,0
1582736791.4729998,30.273000000000003,18.066,12.695,43.457,0.0,0
1582736791.4770002,26.855,17.09,14.16,43.457,0.0,0
1582736791.481,34.668,19.531,17.578,53.223,0.0,0
1582736791.485,36.133,19.043,15.137,47.852,0.0,0
1582736791.4889998,22.461,16.113,13.184,46.875,0.0,0
1582736791.4929998,22.461,14.16,15.625,52.734,0.0,0
1582736791.4970002,22.949,17.578,11.23,48.828,0.0,0
1582736791.5,25.879,23.438,8.789,51.27,0.0,0
1582736791.504,32.715,16.113,13.184,56.64100000000001,0.0,0
1582736791.508,29.785,5.371,15.137,54.199,0.0,0
1582736791.512,34.668,13.672,18.555,50.78100000000001,0.0,0
1582736791.516,36.621,22.461,15.625,49.805,0.0,0
1582736791.518,31.25,17.09,8.301,42.969,0.0,0
1582736791.522,23.926,15.625,12.207,39.062,0.0,0
1582736791.526,30.273000000000003,22.461,17.578,45.898,0.0,0
1582736791.53,37.598,22.461,15.137,51.758,0.0,0
1582736791.534,35.645,17.09,13.184,47.852,0.0,0
1582736791.538,40.039,16.602,21.484,50.293,0.0,0
1582736791.542,37.109,20.996,25.879,53.223,0.0,0
1582736791.545,35.156,20.02,23.438,51.27,0.0,0
1582736791.549,38.086,22.461,24.414,60.547,0.0,0
1582736791.553,31.738000000000003,23.926,26.367,65.43,0.0,0
1582736791.5570002,34.18,25.879,24.902,53.71100000000001,0.0,0
1582736791.561,25.879,25.391,22.949,51.27,0.0,0
1582736791.563,26.855,16.602,21.484,53.71100000000001,0.0,0
1582736791.5670002,30.762,15.137,21.484,52.734,0.0,0
1582736791.571,16.113,22.461,22.949,48.828,0.0,0
1582736791.575,17.09,25.879,21.973000000000006,41.504,0.0,0
1582736791.579,23.926,24.414,19.531,37.109,0.0,0
1582736791.583,26.367,25.879,19.531,44.922,0.0,0
1582736791.587,26.367,26.855,23.438,48.34,0.0,0
1582736791.59,26.367,27.344,27.344,44.922,0.0,0
1582736791.594,27.832,24.414,28.809,46.875,0.0,0
1582736791.5979998,38.086,25.879,26.855,52.246,0.0,0
1582736791.6020002,31.25,26.855,28.32,47.363,0.0,0
1582736791.606,22.461,19.531,27.832,43.945,0.0,0
1582736791.6079998,22.461,21.973000000000006,24.902,49.316,0.0,0
1582736791.6120002,13.672,24.902,29.297,42.969,0.0,0
1582736791.6160002,16.602,25.879,29.785,28.32,0.0,0
1582736791.62,22.461,23.926,29.785,35.156,0.0,0
1582736791.6239998,19.043,22.461,30.273000000000003,38.086,0.0,0
1582736791.6279998,20.02,23.926,27.832,36.133,0.0,0
1582736791.6320002,21.973000000000006,22.461,28.32,47.363,0.0,0
1582736791.635,24.414,19.043,29.785,45.41,0.0,0
1582736791.639,31.25,21.484,26.367,47.852,0.0,0
1582736791.643,28.809,22.461,24.414,51.27,0.0,0
1582736791.647,26.367,19.043,21.973000000000006,45.898,0.0,0
1582736791.651,23.926,21.484,18.555,50.293,0.0,0
1582736791.668,20.996,25.879,20.508000000000006,52.734,0.0,0
1582736791.6720002,35.645,30.273000000000003,19.531,45.898,0.0,0
1582736791.676,41.01600000000001,35.645,20.02,43.945,0.0,0
1582736791.68,21.973000000000006,30.273000000000003,24.902,49.316,0.0,0
1582736791.684,18.066,22.949,25.879,55.664,0.0,0
1582736791.688,30.762,22.461,29.785,60.547,0.0,0
1582736791.6920002,27.832,23.438,29.297,61.523,0.0,0
1582736791.695,22.949,23.926,23.438,55.664,0.0,0
1582736791.699,21.484,25.391,25.879,55.664,0.0,0
1582736791.7029998,22.461,28.32,27.344,59.082,0.0,0
1582736791.707,33.203,26.367,25.391,61.523,0.0,0
1582736791.711,38.574,24.414,22.949,53.223,0.0,0
1582736791.7129998,34.668,31.738000000000003,20.508000000000006,46.387,0.0,0
1582736791.717,26.855,33.203,19.531,49.316,0.0,0
1582736791.721,37.598,31.25,20.508000000000006,50.293,0.0,0
1582736791.725,39.551,31.25,20.996,47.852,0.0,0
1582736791.729,21.973000000000006,26.855,22.461,55.664,0.0,0
1582736791.7329998,14.648,20.996,22.461,65.918,0.0,0
1582736791.7370002,14.648,16.113,23.926,56.64100000000001,0.0,0
1582736791.74,19.043,19.043,26.855,49.805,0.0,0
1582736791.744,19.043,20.508000000000006,21.973000000000006,53.71100000000001,0.0,0
1582736791.748,19.531,20.508000000000006,18.555,50.293,0.0,0
1582736791.752,24.902,23.926,16.602,49.316,0.0,0
1582736791.756,39.062,25.879,12.695,48.34,0.0,0
1582736791.758,40.527,29.785,14.648,46.387,0.0,0
1582736791.762,30.273000000000003,30.273000000000003,16.602,45.41,0.0,0
1582736791.766,25.879,24.902,21.484,45.41,0.0,0
1582736791.77,26.367,23.926,25.879,48.828,0.0,0
1582736791.774,24.902,25.879,23.926,51.758,0.0,0
1582736791.778,20.02,25.391,20.996,50.78100000000001,0.0,0
1582736791.782,17.09,20.02,20.02,45.898,0.0,0
1582736791.785,18.555,19.531,19.043,49.316,0.0,0
1582736791.789,25.391,22.461,14.648,53.71100000000001,0.0,0
1582736791.793,26.855,22.949,17.09,53.223,0.0,0
1582736791.7970002,29.785,30.762,20.02,58.594,0.0,0
1582736791.801,37.598,34.18,15.625,56.64100000000001,0.0,0
1582736791.803,35.645,29.297,13.672,47.363,0.0,0
1582736791.8070002,31.25,25.391,17.578,45.898,0.0,0
1582736791.811,24.902,25.391,23.926,48.828,0.0,0
1582736791.815,21.484,20.02,26.367,51.758,0.0,0
1582736791.819,30.762,17.578,25.879,51.758,0.0,0
1582736791.823,26.855,24.902,24.902,49.316,0.0,0
1582736791.827,21.973000000000006,25.391,21.973000000000006,46.875,0.0,0
1582736791.83,23.438,27.344,20.508000000000006,47.852,0.0,0
1582736791.834,24.902,27.832,20.996,48.828,0.0,0
1582736791.8379998,31.25,22.461,19.043,49.805,0.0,0
1582736791.842,32.715,21.484,18.066,57.129,0.0,0
1582736791.846,24.414,19.043,18.066,50.78100000000001,0.0,0
1582736791.8479998,28.809,14.16,20.996,52.246,0.0,0
1582736791.8520002,25.391,15.137,21.484,54.199,0.0,0
1582736791.856,9.766,15.137,18.555,44.434,0.0,0
1582736791.86,6.348,13.672,20.02,41.992,0.0,0
1582736791.8639998,13.672,15.137,25.391,40.039,0.0,0
1582736791.8679998,18.555,14.16,24.414,42.969,0.0,0
1582736791.8720002,20.996,16.602,17.09,41.504,0.0,0
1582736791.875,26.367,19.043,19.531,42.48,0.0,0
1582736791.879,20.508000000000006,13.184,25.879,47.852,0.0,0
1582736791.883,19.531,15.625,23.438,48.34,0.0,0
1582736791.887,25.879,21.484,17.578,48.34,0.0,0
1582736791.891,29.297,22.949,17.578,45.898,0.0,0
1582736791.893,27.344,23.438,21.484,44.434,0.0,0
1582736791.897,30.762,23.438,20.02,45.41,0.0,0
1582736791.901,31.738000000000003,22.461,21.973000000000006,44.434,0.0,0
1582736791.905,20.02,20.996,24.902,44.922,0.0,0
1582736791.909,21.484,19.531,23.926,48.828,0.0,0
1582736791.913,29.785,17.09,27.344,57.129,0.0,0
1582736791.917,32.227,16.113,26.855,51.758,0.0,0
1582736791.92,27.832,13.672,23.926,45.41,0.0,0
1582736791.924,23.438,17.09,20.996,42.969,0.0,0
1582736791.928,24.902,22.461,20.508000000000006,43.457,0.0,0
1582736791.9320002,25.879,21.973000000000006,21.484,49.316,0.0,0
1582736791.936,25.391,23.438,20.508000000000006,51.27,0.0,0
1582736791.938,26.367,19.043,20.508000000000006,42.48,0.0,0
1582736791.9420002,29.297,20.508000000000006,21.973000000000006,41.01600000000001,0.0,0
1582736791.946,34.18,24.414,20.996,48.34,0.0,0
1582736791.95,34.668,24.414,21.973000000000006,48.34,0.0,0
1582736791.954,31.738000000000003,29.297,21.484,56.64100000000001,0.0,0
1582736791.958,35.156,27.832,20.508000000000006,60.547,0.0,0
1582736791.962,31.738000000000003,19.043,22.949,57.617,0.0,0
1582736791.965,30.273000000000003,17.09,20.508000000000006,53.223,0.0,0
1582736791.969,28.809,22.949,15.625,42.969,0.0,0
1582736791.9729998,21.973000000000006,24.414,20.02,40.527,0.0,0
1582736791.9770002,22.461,24.902,22.949,41.992,0.0,0
1582736791.981,33.203,25.391,20.996,37.109,0.0,0
1582736791.9829998,31.738000000000003,24.902,23.926,40.039,0.0,0
1582736791.9870002,29.297,20.02,28.809,43.457,0.0,0
1582736791.9910002,40.039,21.484,26.367,43.457,0.0,0
1582736791.995,33.691,25.879,21.484,41.504,0.0,0
1582736791.9989998,31.738000000000003,25.879,21.484,44.922,0.0,0
1582736792.0029998,42.48,28.809,21.973000000000006,55.176,0.0,0
1582736792.0070002,40.039,30.273000000000003,23.926,51.758,0.0,0
1582736792.01,35.156,22.461,23.438,50.78100000000001,0.0,0
1582736792.014,38.086,21.973000000000006,21.484,54.688,0.0,0
1582736792.018,41.992,29.297,19.531,43.945,0.0,0
1582736792.022,32.715,27.344,18.555,38.574,0.0,0
1582736792.026,24.902,25.879,17.578,37.109,0.0,0
1582736792.043,26.367,23.438,17.578,29.785,0.0,0
1582736792.0470002,26.855,23.438,19.043,25.391,0.0,0
1582736792.051,27.832,20.02,16.113,30.762,0.0,0
1582736792.055,31.738000000000003,17.09,17.09,41.01600000000001,0.0,0
1582736792.059,35.645,25.879,20.996,41.992,0.0,0
1582736792.063,41.01600000000001,30.273000000000003,22.461,45.41,0.0,0
1582736792.0670002,38.086,26.367,23.438,47.852,0.0,0
1582736792.07,37.109,23.926,19.531,40.527,0.0,0
1582736792.074,43.457,25.391,20.508000000000006,40.527,0.0,0
1582736792.0779998,41.01600000000001,23.926,27.832,44.922,0.0,0
1582736792.082,32.715,27.344,31.738000000000003,46.875,0.0,0
1582736792.086,35.156,31.738000000000003,28.809,43.457,0.0,0
1582736792.0879998,32.227,29.785,30.273000000000003,40.039,0.0,0
1582736792.092,25.391,27.344,33.203,43.945,0.0,0
1582736792.096,30.273000000000003,29.297,28.809,41.504,0.0,0
1582736792.1,23.926,29.785,27.832,35.645,0.0,0
1582736792.104,24.414,21.484,29.297,33.691,0.0,0
1582736792.1079998,26.855,20.996,27.344,35.156,0.0,0
1582736792.1120002,20.02,26.367,28.809,40.527,0.0,0
1582736792.115,21.484,22.949,34.18,43.457,0.0,0
1582736792.119,19.043,20.996,28.809,41.992,0.0,0
1582736792.123,26.367,20.508000000000006,26.855,43.945,0.0,0
1582736792.127,27.344,21.484,34.18,44.434,0.0,0
1582736792.131,20.996,26.367,41.01600000000001,46.875,0.0,0
1582736792.133,26.855,25.879,33.203,52.734,0.0,0
1582736792.137,20.996,23.438,21.973000000000006,49.805,0.0,0
1582736792.141,13.672,23.438,22.949,41.01600000000001,0.0,0
1582736792.145,10.742,22.949,28.809,39.551,0.0,0
1582736792.149,15.625,23.438,36.133,45.898,0.0,0
1582736792.153,27.344,25.879,35.156,49.316,0.0,0
1582736792.157,21.484,20.996,29.297,46.387,0.0,0
1582736792.16,10.254,18.066,25.879,38.086,0.0,0
1582736792.164,7.812,18.555,27.832,36.621,0.0,0
1582736792.168,7.324,21.973000000000006,28.809,40.527,0.0,0
1582736792.1720002,19.043,30.762,23.926,30.273000000000003,0.0,0
1582736792.176,28.32,34.668,28.32,31.738000000000003,0.0,0
1582736792.178,17.09,28.32,38.086,39.551,0.0,0
1582736792.1820002,10.742,22.949,32.227,37.598,0.0,0
1582736792.186,7.812,22.949,27.344,38.574,0.0,0
1582736792.19,14.16,23.926,28.809,43.945,0.0,0
1582736792.194,21.973000000000006,21.973000000000006,27.832,46.875,0.0,0
1582736792.198,28.32,21.484,26.367,46.875,0.0,0
1582736792.202,33.203,20.996,24.414,48.828,0.0,0
1582736792.205,35.156,18.066,23.438,45.41,0.0,0
1582736792.209,31.25,18.555,23.438,42.969,0.0,0
1582736792.2129998,27.344,18.066,23.438,40.039,0.0,0
1582736792.217,26.855,17.578,22.949,41.992,0.0,0
1582736792.221,30.273000000000003,22.461,24.902,45.41,0.0,0
1582736792.2229998,31.738000000000003,26.855,28.809,41.992,0.0,0
1582736792.2270002,20.996,24.414,26.367,44.922,0.0,0
1582736792.231,13.672,19.043,23.926,40.527,0.0,0
1582736792.235,12.207,16.113,22.461,32.715,0.0,0
1582736792.2389998,11.23,15.625,20.996,30.762,0.0,0
1582736792.2429998,13.672,17.09,19.043,39.551,0.0,0
1582736792.2470002,22.461,19.043,15.137,45.41,0.0,0
1582736792.25,19.043,20.996,14.648,36.133,0.0,0
1582736792.254,17.09,19.531,19.531,30.273000000000003,0.0,0
1582736792.258,23.926,19.043,20.508000000000006,29.785,0.0,0
1582736792.262,22.949,20.02,18.555,34.18,0.0,0
1582736792.266,24.902,17.578,18.555,46.875,0.0,0
1582736792.268,32.715,20.02,21.973000000000006,39.551,0.0,0
1582736792.272,30.762,23.438,22.949,34.668,0.0,0
1582736792.276,26.855,24.414,20.996,40.527,0.0,0
1582736792.28,20.996,25.879,21.973000000000006,43.457,0.0,0
1582736792.284,33.203,27.344,18.066,42.969,0.0,0
1582736792.288,36.133,28.809,19.043,45.41,0.0,0
1582736792.292,29.297,28.809,16.602,50.78100000000001,0.0,0
1582736792.295,37.109,27.344,7.812,45.898,0.0,0
1582736792.299,37.109,27.344,11.23,41.504,0.0,0
1582736792.303,25.391,25.391,16.602,41.504,0.0,0
1582736792.3070002,22.949,24.414,14.16,41.504,0.0,0
1582736792.311,20.508000000000006,26.855,14.648,34.668,0.0,0
1582736792.313,18.555,26.855,17.09,30.762,0.0,0
1582736792.3170002,22.461,18.555,17.09,32.715,0.0,0
1582736792.321,18.066,9.277,19.043,33.203,0.0,0
1582736792.325,20.996,17.09,19.531,35.645,0.0,0
1582736792.329,26.367,29.297,20.02,33.691,0.0,0
1582736792.333,20.02,31.25,20.02,30.762,0.0,0
1582736792.337,18.066,28.809,20.508000000000006,31.25,0.0,0
1582736792.34,27.832,22.461,22.949,30.273000000000003,0.0,0
1582736792.344,28.809,20.508000000000006,17.578,29.297,0.0,0
1582736792.3479998,24.902,25.879,19.043,32.715,0.0,0
1582736792.3520002,23.926,24.902,22.949,34.18,0.0,0
1582736792.356,25.879,24.902,24.902,41.504,0.0,0
1582736792.3579998,38.086,26.367,27.344,53.223,0.0,0
1582736792.3620002,43.457,21.484,26.367,59.57,0.0,0
1582736792.3660002,40.039,20.508000000000006,22.461,58.594,0.0,0
1582736792.37,35.645,23.926,23.926,56.152,0.0,0
1582736792.3739998,37.598,22.461,25.391,55.664,0.0,0
1582736792.3779998,45.898,25.391,26.855,60.059,0.0,0
1582736792.3820002,50.293,26.855,27.832,62.012,0.0,2
1582736792.385,53.223,25.391,27.344,62.5,0.0,0
1582736792.389,47.363,27.344,25.391,59.57,0.0,0
1582736792.393,38.574,27.832,22.949,50.293,0.0,0
1582736792.397,37.598,27.344,23.438,49.805,0.0,0
1582736792.401,41.992,29.297,27.832,54.199,0.0,0
1582736792.418,38.574,27.344,31.738000000000003,55.664,0.0,0
1582736792.4220002,34.668,20.996,32.715,53.71100000000001,0.0,0
1582736792.426,38.086,19.043,34.668,60.059,0.0,0
1582736792.43,32.715,17.09,31.25,62.5,0.0,0
1582736792.434,30.762,18.066,24.902,50.78100000000001,0.0,0
1582736792.438,35.156,21.973000000000006,22.949,51.27,0.0,0
1582736792.4420002,34.18,22.461,25.391,58.594,0.0,0
1582736792.445,31.25,22.461,27.344,58.105,0.0,0
1582736792.449,30.273000000000003,25.879,26.367,59.082,0.0,0
1582736792.4529998,32.715,30.273000000000003,24.414,60.059,0.0,0
1582736792.457,31.25,28.32,25.391,50.293,0.0,0
1582736792.461,27.344,23.438,26.367,42.48,0.0,0
1582736792.4629998,26.855,21.484,20.996,41.504,0.0,0
1582736792.467,29.297,20.996,22.949,42.48,0.0,0
1582736792.471,20.508000000000006,17.578,24.414,42.48,0.0,0
1582736792.475,15.137,17.09,24.414,41.01600000000001,0.0,0
1582736792.479,17.578,20.508000000000006,25.879,41.01600000000001,0.0,0
1582736792.4829998,20.996,22.949,23.926,38.574,0.0,0
1582736792.4870002,24.902,26.367,22.949,37.598,0.0,0
1582736792.49,30.273000000000003,26.367,27.832,42.969,0.0,0
1582736792.494,36.133,30.762,29.785,45.898,0.0,0
1582736792.498,26.855,33.691,25.879,48.34,0.0,0
1582736792.502,16.113,32.227,25.879,45.898,0.0,0
1582736792.506,23.926,31.25,25.879,46.387,0.0,0
1582736792.508,35.156,31.738000000000003,23.926,55.176,0.0,0
1582736792.512,27.344,27.832,25.391,61.035,0.0,0
1582736792.516,21.484,25.879,24.902,53.223,0.0,0
1582736792.52,35.645,32.715,20.508000000000006,54.199,0.0,0
1582736792.524,42.48,27.832,21.973000000000006,59.57,0.0,0
1582736792.528,27.344,20.508000000000006,24.414,54.688,0.0,0
1582736792.532,36.133,24.902,23.438,56.152,0.0,0
1582736792.535,41.504,21.484,21.973000000000006,61.523,0.0,0
1582736792.539,31.25,15.137,17.09,58.105,0.0,0
1582736792.543,27.832,20.996,16.602,53.223,0.0,0
1582736792.5470002,24.414,26.367,18.555,51.758,0.0,0
1582736792.551,25.879,27.344,22.461,46.875,0.0,0
1582736792.553,25.391,28.809,25.391,43.457,0.0,0
1582736792.5570002,24.902,26.855,21.973000000000006,43.457,0.0,0
1582736792.561,16.602,21.484,22.949,40.039,0.0,0
1582736792.565,18.555,18.066,24.414,45.898,0.0,0
1582736792.569,27.832,20.996,23.438,44.922,0.0,0
1582736792.573,24.414,24.902,24.902,43.457,0.0,0
1582736792.577,19.531,27.344,22.461,44.922,0.0,0
1582736792.58,22.949,25.879,22.461,48.34,0.0,0
1582736792.584,23.438,21.484,23.926,49.805,0.0,0
1582736792.5879998,17.09,18.066,20.996,41.504,0.0,0
1582736792.592,20.508000000000006,25.879,19.043,33.691,0.0,0
1582736792.596,24.414,31.25,19.043,34.18,0.0,0
1582736792.5979998,21.484,22.461,20.508000000000006,41.992,0.0,0
1582736792.6020002,25.391,22.461,20.508000000000006,47.363,0.0,0
1582736792.606,26.367,29.297,18.555,44.922,0.0,0
1582736792.61,24.902,27.832,20.508000000000006,42.48,0.0,0
1582736792.6139998,25.879,25.879,19.531,39.062,0.0,0
1582736792.6179998,22.461,23.438,20.02,37.598,0.0,0
1582736792.6220002,26.855,23.926,23.926,41.992,0.0,0
1582736792.625,21.484,24.414,23.926,41.992,0.0,0
1582736792.629,16.602,20.996,19.043,40.039,0.0,0
1582736792.633,21.973000000000006,17.578,18.066,41.504,0.0,0
1582736792.637,19.043,17.578,21.973000000000006,40.527,0.0,0
1582736792.641,13.184,16.602,24.902,46.875,0.0,0
1582736792.643,17.09,14.648,23.438,52.246,0.0,0
1582736792.647,20.508000000000006,13.672,20.02,43.945,0.0,0
1582736792.651,25.879,15.625,20.02,39.551,0.0,0
1582736792.655,22.949,19.043,16.602,39.062,0.0,0
1582736792.659,16.113,17.09,14.16,34.668,0.0,0
1582736792.663,24.414,20.996,16.113,37.109,0.0,0
1582736792.667,26.367,28.809,20.508000000000006,45.41,0.0,0
1582736792.67,23.438,30.273000000000003,25.879,47.363,0.0,0
1582736792.674,28.809,28.809,28.809,55.176,0.0,0
1582736792.678,35.156,28.32,30.273000000000003,61.035,0.0,0
1582736792.6820002,41.01600000000001,23.926,29.297,56.64100000000001,0.0,0
1582736792.686,41.01600000000001,21.973000000000006,25.391,58.105,0.0,0
1582736792.688,30.762,26.855,22.949,54.688,0.0,0
1582736792.6920002,30.762,22.949,19.531,55.176,0.0,0
1582736792.696,29.785,17.578,21.973000000000006,56.152,0.0,0
1582736792.7,22.461,21.973000000000006,23.926,52.246,0.0,0
1582736792.704,24.902,19.043,23.926,49.316,0.0,0
1582736792.708,34.18,23.926,24.902,44.922,0.0,0
1582736792.712,40.527,35.156,20.508000000000006,41.504,0.0,0
1582736792.715,33.203,35.645,20.02,41.992,0.0,0
1582736792.719,25.391,36.133,23.438,41.504,0.0,0
1582736792.7229998,25.879,32.227,23.926,50.293,0.0,0
1582736792.7270002,24.902,26.367,22.461,52.734,0.0,0
1582736792.731,25.879,23.438,23.438,53.223,0.0,0
1582736792.7329998,25.391,24.902,23.438,52.246,0.0,0
1582736792.7370002,28.32,27.832,20.996,44.922,0.0,0
1582736792.7410002,26.855,24.902,20.996,48.828,0.0,0
1582736792.745,22.949,22.949,24.414,49.316,0.0,0
1582736792.7489998,24.414,23.926,27.832,46.387,0.0,0
1582736792.7529998,24.902,24.414,25.879,49.805,0.0,0
1582736792.7570002,14.648,19.531,21.484,49.316,0.0,0
1582736792.76,21.484,15.137,22.949,47.363,0.0,0
1582736792.764,35.645,22.949,25.879,50.293,0.0,0
1582736792.768,32.227,24.414,26.367,53.223,0.0,0
1582736792.772,24.902,19.531,24.414,50.293,0.0,0
1582736792.776,24.902,16.602,26.367,52.246,0.0,0
1582736792.793,25.391,15.625,29.297,50.293,0.0,0
1582736792.7970002,26.367,19.531,28.32,50.293,0.0,0
1582736792.801,20.996,20.508000000000006,25.879,50.293,0.0,0
1582736792.805,22.949,20.508000000000006,26.855,49.805,0.0,0
1582736792.809,36.621,19.531,26.367,51.27,0.0,0
1582736792.813,33.691,20.508000000000006,25.879,55.664,0.0,0
1582736792.8170002,24.902,21.973000000000006,26.855,57.617,0.0,0
1582736792.82,27.832,20.996,24.414,56.152,0.0,0
1582736792.824,31.25,23.438,21.484,53.71100000000001,0.0,0
1582736792.8279998,29.785,23.926,25.879,51.27,0.0,0
1582736792.832,29.785,30.273000000000003,30.762,51.27,0.0,0
1582736792.836,38.086,32.715,30.762,47.363,0.0,0
1582736792.8379998,36.621,30.273000000000003,24.902,53.223,0.0,0
1582736792.842,31.738000000000003,29.297,23.438,56.152,0.0,0
1582736792.846,29.785,27.832,24.902,54.688,0.0,0
1582736792.85,18.555,22.949,22.949,47.852,0.0,0
1582736792.854,18.555,21.973000000000006,18.066,43.457,0.0,0
1582736792.8579998,24.902,21.484,15.625,48.34,0.0,0
1582736792.8620002,22.949,20.996,18.555,42.969,0.0,0
1582736792.865,19.043,22.949,20.02,36.133,0.0,0
1582736792.869,23.926,20.508000000000006,24.902,36.621,0.0,0
1582736792.873,22.461,18.555,23.926,37.598,0.0,0
1582736792.877,15.625,18.555,20.02,37.109,0.0,0
1582736792.881,21.484,22.949,21.484,41.504,0.0,0
1582736792.883,19.531,24.902,16.602,36.133,0.0,0
1582736792.887,22.949,23.926,17.578,39.551,0.0,0
1582736792.891,31.738000000000003,23.438,18.066,41.01600000000001,0.0,0
1582736792.895,26.367,21.484,11.719,40.039,0.0,0
1582736792.899,15.625,20.02,13.672,40.527,0.0,0
1582736792.903,17.09,24.902,18.066,45.41,0.0,0
1582736792.907,23.438,26.367,15.625,45.898,0.0,0
1582736792.91,19.043,24.414,13.184,35.645,0.0,0
1582736792.914,14.648,21.484,19.043,35.645,0.0,0
1582736792.918,16.113,17.578,22.461,38.574,0.0,0
1582736792.9220002,24.902,17.578,16.113,41.504,0.0,0
1582736792.926,30.762,23.438,14.648,41.504,0.0,0
1582736792.928,16.113,27.832,19.043,33.203,0.0,0
1582736792.9320002,12.695,28.32,18.066,28.32,0.0,0
1582736792.936,13.184,25.879,16.602,37.598,0.0,0
1582736792.94,9.766,26.367,20.996,41.01600000000001,0.0,0
1582736792.944,6.836,25.391,20.508000000000006,35.645,0.0,0
1582736792.948,13.184,22.949,22.949,38.086,0.0,0
1582736792.952,19.531,18.555,28.32,44.434,0.0,0
1582736792.955,17.09,13.672,28.32,44.922,0.0,0
1582736792.959,20.02,18.066,26.367,42.969,0.0,0
1582736792.9629998,25.391,22.949,27.344,49.316,0.0,0
1582736792.967,28.32,24.414,25.391,55.176,0.0,0
1582736792.971,27.832,28.809,21.973000000000006,49.316,0.0,0
1582736792.9729998,28.32,33.203,24.902,48.828,0.0,0
1582736792.9770002,17.09,29.297,24.414,41.992,0.0,0
1582736792.981,5.859,21.973000000000006,22.461,41.992,0.0,0
1582736792.985,16.113,21.973000000000006,26.367,44.434,0.0,0
1582736792.9889998,19.531,25.391,28.809,40.527,0.0,0
1582736792.9929998,16.602,26.855,29.297,41.992,0.0,0
1582736792.9970002,14.16,21.973000000000006,29.297,37.598,0.0,0
1582736793.0,25.879,19.531,27.832,40.039,0.0,0
1582736793.004,26.855,23.926,26.855,42.969,0.0,0
1582736793.008,12.695,20.508000000000006,18.066,37.598,0.0,0
1582736793.012,9.766,16.602,12.695,34.18,0.0,0
1582736793.016,20.996,19.531,17.578,38.086,0.0,0
1582736793.018,20.508000000000006,22.461,20.996,39.062,0.0,0
1582736793.022,10.742,20.508000000000006,25.879,43.457,0.0,0
1582736793.026,15.137,20.02,21.484,49.316,0.0,0
1582736793.03,20.996,13.672,17.09,43.457,0.0,0
1582736793.034,33.691,10.742,23.438,40.039,0.0,0
1582736793.038,31.738000000000003,21.484,21.973000000000006,38.086,0.0,0
1582736793.042,21.484,24.414,25.391,41.992,0.0,0
1582736793.045,20.508000000000006,18.066,32.715,47.363,0.0,0
1582736793.049,17.09,21.973000000000006,26.855,44.922,0.0,0
1582736793.053,17.578,27.832,21.484,37.598,0.0,0
1582736793.0570002,18.555,26.367,23.926,37.109,0.0,0
1582736793.061,23.926,27.832,23.438,38.086,0.0,0
1582736793.063,25.879,24.902,23.438,36.621,0.0,0
1582736793.0670002,19.043,23.926,30.273000000000003,40.527,0.0,0
1582736793.071,16.113,25.879,29.785,41.01600000000001,0.0,0
1582736793.075,20.508000000000006,21.484,27.344,40.527,0.0,0
1582736793.079,20.02,20.508000000000006,25.391,34.668,0.0,0
1582736793.083,13.184,16.602,20.996,35.645,0.0,0
1582736793.087,17.09,13.672,18.555,39.062,0.0,0
1582736793.09,25.391,18.555,15.625,35.156,0.0,0
1582736793.094,24.902,20.996,15.137,39.062,0.0,0
1582736793.0979998,31.25,20.02,15.625,42.969,0.0,0
1582736793.1020002,34.668,18.555,20.508000000000006,47.852,0.0,0
1582736793.106,24.414,15.625,24.902,46.387,0.0,0
1582736793.1079998,23.926,12.695,23.438,48.828,0.0,0
1582736793.1120002,38.574,18.555,25.391,60.547,0.0,0
1582736793.1160002,28.32,22.461,25.391,58.105,0.0,0
1582736793.12,5.859,19.043,20.02,36.621,0.0,0
1582736793.1239998,20.996,19.043,15.625,40.527,0.0,0
1582736793.1279998,29.297,19.531,18.066,48.34,0.0,0
1582736793.1320002,18.555,17.578,20.508000000000006,31.25,0.0,0
1582736793.135,14.648,18.066,16.113,22.949,0.0,0
1582736793.139,11.719,21.484,15.625,28.32,0.0,0
1582736793.143,19.531,21.973000000000006,18.555,30.273000000000003,0.0,0
1582736793.147,24.902,20.508000000000006,16.113,28.32,0.0,0
1582736793.151,19.531,20.02,13.672,33.691,0.0,0
1582736793.168,20.996,20.996,16.602,37.109,0.0,0
1582736793.1720002,30.273000000000003,18.555,21.973000000000006,42.48,0.0,0
1582736793.176,35.156,13.672,20.508000000000006,51.27,0.0,0
1582736793.18,26.855,16.602,18.066,46.875,0.0,0
1582736793.184,22.949,18.066,19.043,48.34,0.0,0
1582736793.188,25.391,14.16,20.508000000000006,54.688,0.0,0
1582736793.1920002,24.902,19.531,21.484,51.27,0.0,0
1582736793.195,21.973000000000006,21.484,19.043,48.828,0.0,0
1582736793.199,22.461,16.602,20.996,49.316,0.0,0
1582736793.2029998,30.762,22.461,24.902,48.828,0.0,0
1582736793.207,36.133,27.344,27.832,55.176,0.0,0
1582736793.211,39.062,29.785,27.344,53.71100000000001,0.0,0
1582736793.2129998,40.039,31.25,32.715,57.617,0.0,0
1582736793.217,41.992,27.832,33.203,60.059,0.0,0
1582736793.221,42.969,29.297,27.344,53.71100000000001,0.0,0
1582736793.225,35.156,33.203,28.809,54.199,0.0,0
1582736793.229,36.133,32.227,30.762,54.199,0.0,0
1582736793.2329998,44.434,29.297,33.203,54.688,0.0,0
1582736793.2370002,44.922,31.25,29.785,56.152,0.0,0
1582736793.24,35.645,33.203,24.902,51.758,0.0,0
1582736793.244,36.133,33.203,26.367,47.852,0.0,0
1582736793.248,34.668,28.809,28.32,45.41,0.0,0
1582736793.252,25.879,22.949,24.902,44.922,0.0,0
1582736793.256,30.273000000000003,24.902,22.461,47.363,0.0,0
1582736793.258,28.32,29.297,26.367,41.504,0.0,0
1582736793.262,22.949,26.367,32.227,43.945,0.0,0
1582736793.266,21.484,23.926,27.832,43.945,0.0,0
1582736793.27,25.879,25.879,25.391,38.574,0.0,0
1582736793.274,31.25,29.785,28.32,46.387,0.0,0
1582736793.278,32.227,34.18,27.832,57.617,0.0,0
1582736793.282,34.668,31.25,23.438,59.082,0.0,0
1582736793.285,36.133,24.414,21.973000000000006,57.129,0.0,0
1582736793.289,30.273000000000003,26.367,24.902,55.664,0.0,0
1582736793.293,27.344,29.785,21.484,54.199,0.0,0
1582736793.2970002,25.391,28.32,20.996,50.293,0.0,0
1582736793.301,25.879,26.855,20.02,45.41,0.0,0
1582736793.303,27.344,28.32,19.531,45.41,0.0,0
1582736793.3070002,26.367,26.367,23.438,51.27,0.0,0
1582736793.311,20.996,20.508000000000006,23.926,48.34,0.0,0
1582736793.315,22.461,18.555,20.508000000000006,42.48,0.0,0
1582736793.319,27.344,19.043,17.578,38.086,0.0,0
1582736793.323,23.926,18.555,17.09,30.273000000000003,0.0,0
1582736793.327,16.602,13.672,16.602,30.762,0.0,0
1582736793.33,24.414,12.695,17.578,39.551,0.0,0
1582736793.334,29.785,16.113,18.555,47.852,0.0,0
1582736793.3379998,24.414,19.043,20.508000000000006,48.34,0.0,0
1582736793.342,24.414,24.414,21.484,48.828,0.0,0
1582736793.346,21.973000000000006,26.367,22.461,47.363,0.0,0
1582736793.3479998,22.949,24.902,24.414,42.969,0.0,0
1582736793.3520002,25.879,20.996,23.438,41.504,0.0,0
1582736793.356,23.926,18.555,22.461,44.922,0.0,0
1582736793.36,17.578,20.02,23.438,43.457,0.0,0
1582736793.3639998,14.16,16.602,23.926,41.01600000000001,0.0,0
1582736793.3679998,17.09,15.625,22.461,46.387,0.0,0
1582736793.3720002,20.996,20.02,20.996,41.992,0.0,0
1582736793.375,20.508000000000006,19.043,21.973000000000006,42.48,0.0,0
1582736793.379,22.461,20.02,21.484,44.922,0.0,0
1582736793.383,25.879,23.926,18.066,45.41,0.0,0
1582736793.387,23.926,25.391,17.578,42.48,0.0,0
1582736793.391,20.996,24.902,17.09,36.133,0.0,0
1582736793.393,28.32,23.926,14.648,41.504,0.0,0
1582736793.397,29.297,22.949,12.695,39.062,0.0,0
1582736793.401,28.809,21.484,14.648,34.668,0.0,0
1582736793.405,25.879,22.949,20.02,39.062,0.0,0
1582736793.409,21.484,21.973000000000006,21.484,40.527,0.0,0
1582736793.413,24.902,23.926,20.02,38.574,0.0,0
1582736793.417,20.996,23.438,20.02,33.203,0.0,0
1582736793.42,23.438,21.484,19.043,33.691,0.0,0
1582736793.424,18.066,24.414,18.066,34.668,0.0,0
1582736793.428,15.625,23.926,20.508000000000006,37.109,0.0,0
1582736793.4320002,22.949,22.461,18.066,39.551,0.0,0
1582736793.436,25.879,21.484,12.695,38.574,0.0,0
1582736793.438,13.672,19.531,10.254,34.668,0.0,0
1582736793.4420002,7.812,12.695,13.672,38.086,0.0,0
1582736793.446,17.578,8.789,20.996,40.527,0.0,0
1582736793.45,23.438,15.625,23.438,35.645,0.0,0
1582736793.454,29.297,21.484,20.508000000000006,37.598,0.0,0
1582736793.458,23.926,20.508000000000006,18.555,38.574,0.0,0
1582736793.462,25.391,23.926,18.555,39.551,0.0,0
1582736793.465,21.973000000000006,26.855,17.578,43.457,0.0,0
1582736793.469,14.648,20.996,17.578,44.922,0.0,0
1582736793.4729998,28.32,17.578,23.438,43.945,0.0,0
1582736793.4770002,25.391,23.438,20.508000000000006,46.875,0.0,0
1582736793.481,22.461,28.809,20.508000000000006,46.387,0.0,0
1582736793.4829998,29.297,27.344,24.414,45.41,0.0,0
1582736793.4870002,27.344,20.996,23.438,50.293,0.0,0
1582736793.4910002,25.879,16.113,26.367,53.223,0.0,0
1582736793.495,27.832,21.484,26.855,47.363,0.0,0
1582736793.4989998,24.902,23.926,22.949,44.434,0.0,0
1582736793.5029998,20.508000000000006,23.926,20.996,44.922,0.0,0
1582736793.5070002,15.137,24.414,22.949,39.062,0.0,0
1582736793.51,22.949,21.484,21.484,38.086,0.0,0
1582736793.514,28.32,19.043,14.648,35.156,0.0,0
1582736793.518,26.367,20.996,14.16,39.062,0.0,0
1582736793.522,27.832,21.973000000000006,15.137,48.34,0.0,2
1582736793.526,27.832,14.648,16.602,54.688,0.0,0
1582736793.543,27.832,3.906,20.996,53.71100000000001,0.0,0
1582736793.5470002,24.902,5.859,21.973000000000006,46.387,0.0,0
1582736793.551,26.367,22.461,20.508000000000006,49.805,0.0,0
1582736793.555,33.691,32.715,20.508000000000006,52.246,0.0,0
1582736793.559,32.715,29.785,23.438,50.78100000000001,0.0,0
1582736793.563,26.855,24.414,17.578,50.293,0.0,0
1582736793.5670002,24.414,22.949,13.184,45.898,0.0,0
1582736793.57,26.855,21.973000000000006,18.555,48.34,0.0,0
1582736793.574,30.273000000000003,22.949,20.996,55.664,0.0,0
1582736793.5779998,29.785,25.391,26.367,57.617,0.0,0
1582736793.582,22.949,20.996,23.926,52.734,0.0,0
1582736793.586,23.438,16.113,20.508000000000006,49.316,0.0,0
1582736793.5879998,18.555,14.16,21.484,50.78100000000001,0.0,0
1582736793.592,18.066,14.16,19.043,48.34,0.0,0
1582736793.596,26.367,18.555,18.066,45.898,0.0,0
1582736793.6,21.484,19.043,19.531,42.969,0.0,0
1582736793.604,26.367,19.531,19.531,47.852,0.0,0
1582736793.6079998,38.574,19.531,19.043,52.246,0.0,0
1582736793.6120002,35.645,16.113,20.02,50.293,0.0,0
1582736793.615,26.855,17.578,18.555,45.898,0.0,0
1582736793.619,32.715,23.438,14.16,49.316,0.0,0
1582736793.623,38.086,24.414,18.555,58.594,0.0,0
1582736793.627,31.25,21.973000000000006,27.344,58.594,0.0,0
1582736793.631,22.949,16.113,27.832,52.734,0.0,0
1582736793.633,27.344,10.742,22.949,47.363,0.0,0
1582736793.637,34.18,15.137,23.438,47.852,0.0,0
1582736793.641,30.762,15.625,25.391,46.875,0.0,0
1582736793.645,21.973000000000006,12.695,24.902,46.875,0.0,0
1582736793.649,24.902,17.578,27.832,47.852,0.0,0
1582736793.653,31.738000000000003,20.508000000000006,23.926,49.805,0.0,0
1582736793.657,23.438,21.484,19.531,49.316,0.0,0
1582736793.66,17.578,23.438,22.461,46.387,0.0,0
1582736793.664,14.648,18.066,19.043,56.64100000000001,0.0,0
1582736793.668,21.973000000000006,16.602,17.578,50.78100000000001,0.0,0
1582736793.6720002,20.996,14.648,16.602,44.922,0.0,0
1582736793.676,24.414,16.113,15.137,46.875,0.0,0
1582736793.678,23.926,18.066,17.09,41.504,0.0,0
1582736793.6820002,19.531,14.16,9.766,39.062,0.0,0
1582736793.686,30.273000000000003,16.113,11.719,41.01600000000001,0.0,0
1582736793.69,21.973000000000006,12.695,19.043,43.945,0.0,0
1582736793.694,16.113,12.207,19.043,49.316,0.0,0
1582736793.698,19.043,18.066,18.555,49.316,0.0,0
1582736793.702,31.738000000000003,23.438,17.09,41.504,0.0,0
1582736793.705,31.25,21.484,13.672,41.992,0.0,0
1582736793.709,14.16,17.578,14.648,44.922,0.0,0
1582736793.7129998,20.508000000000006,18.066,19.043,38.086,0.0,0
1582736793.717,27.344,21.484,20.508000000000006,46.387,0.0,0
1582736793.721,28.32,21.973000000000006,21.484,51.27,0.0,0
1582736793.7229998,24.902,18.555,21.484,41.01600000000001,0.0,0
1582736793.7270002,20.996,20.508000000000006,22.461,42.969,0.0,0
1582736793.731,24.414,19.531,21.484,48.828,0.0,0
1582736793.735,29.297,19.043,13.672,46.875,0.0,0
1582736793.7389998,28.32,12.695,10.742,39.062,0.0,0
1582736793.7429998,16.602,10.254,17.578,38.574,0.0,0
1582736793.7470002,11.719,14.648,21.484,41.992,0.0,0
1582736793.75,24.902,16.602,21.973000000000006,47.852,0.0,0
1582736793.754,29.297,20.02,21.484,48.828,0.0,0
1582736793.758,24.414,17.578,19.043,48.828,0.0,0
1582736793.762,26.367,20.508000000000006,17.578,55.176,0.0,0
1582736793.766,21.484,22.461,19.531,48.34,0.0,0
1582736793.768,25.391,17.09,24.414,43.457,0.0,0
1582736793.772,20.02,21.484,25.391,42.969,0.0,0
1582736793.776,13.184,23.926,23.926,46.387,0.0,0
1582736793.78,26.367,20.508000000000006,23.438,50.78100000000001,0.0,0
1582736793.784,29.297,20.02,25.391,49.316,0.0,0
1582736793.788,25.391,23.438,27.832,44.922,0.0,0
1582736793.792,23.438,21.973000000000006,27.344,40.039,0.0,0
1582736793.795,20.508000000000006,18.066,25.391,37.598,0.0,0
1582736793.799,20.02,17.578,18.555,28.809,0.0,0
1582736793.803,19.531,13.672,15.625,28.809,0.0,0
1582736793.8070002,11.719,17.578,15.625,36.621,0.0,0
1582736793.811,17.578,19.531,18.066,33.691,0.0,0
1582736793.813,26.855,15.137,22.461,34.18,0.0,0
1582736793.8170002,20.02,17.578,22.461,31.738000000000003,0.0,0
1582736793.821,11.719,23.438,22.949,29.297,0.0,0
1582736793.825,17.09,25.391,23.438,41.01600000000001,0.0,0
1582736793.829,20.508000000000006,20.996,18.555,39.062,0.0,0
1582736793.833,17.578,19.531,18.555,37.109,0.0,0
1582736793.837,19.531,17.578,22.949,41.504,0.0,0
1582736793.84,14.648,15.137,21.973000000000006,41.504,0.0,0
1582736793.844,18.555,16.602,18.555,52.734,0.0,0
1582736793.8479998,27.344,16.602,21.484,52.734,0.0,0
1582736793.8520002,28.32,18.555,26.855,44.434,0.0,0
1582736793.856,29.297,26.367,24.414,42.48,0.0,0
1582736793.8579998,21.484,27.832,21.484,43.945,0.0,0
1582736793.8620002,22.949,26.855,19.531,49.316,0.0,0
1582736793.8660002,26.855,27.344,19.531,46.387,0.0,0
1582736793.87,23.926,25.391,23.438,41.992,0.0,0
1582736793.8739998,27.344,22.461,20.508000000000006,43.945,0.0,0
1582736793.8779998,39.062,22.461,16.113,52.246,0.0,0
1582736793.8820002,31.25,20.996,23.438,51.27,0.0,0
1582736793.885,27.344,24.902,25.879,46.875,0.0,0
1582736793.889,31.738000000000003,20.02,22.461,49.316,0.0,0
1582736793.893,21.484,6.836,21.484,48.828,0.0,0
1582736793.897,28.809,16.602,16.602,44.434,0.0,0
1582736793.901,36.621,25.879,13.672,44.922,0.0,0
1582736793.918,25.391,23.438,17.578,40.039,0.0,0
1582736793.9220002,25.879,22.949,18.555,37.598,0.0,0
1582736793.926,28.32,22.949,17.09,40.527,0.0,0
1582736793.93,26.367,18.066,19.531,40.039,0.0,0
1582736793.934,23.438,15.137,19.043,40.527,0.0,0
1582736793.938,22.949,17.09,18.066,40.527,0.0,0
1582736793.9420002,26.855,16.602,17.578,48.34,0.0,0
1582736793.945,25.879,14.648,17.09,46.875,0.0,0
1582736793.949,24.414,16.113,19.531,43.457,0.0,0
1582736793.9529998,27.832,21.484,22.461,50.78100000000001,0.0,0
1582736793.957,29.297,21.973000000000006,23.438,48.828,0.0,0
1582736793.961,22.949,17.578,20.508000000000006,43.945,0.0,0
1582736793.9629998,18.066,13.672,20.02,44.434,0.0,0
1582736793.967,19.043,16.113,22.461,50.293,0.0,0
1582736793.971,22.949,20.508000000000006,21.484,51.27,0.0,0
1582736793.975,28.32,21.973000000000006,23.438,49.316,0.0,0
1582736793.979,20.508000000000006,23.926,26.367,42.969,0.0,0
1582736793.9829998,18.555,28.809,23.438,39.551,0.0,0
1582736793.9870002,23.926,32.715,24.414,44.922,0.0,0
1582736793.99,19.531,27.832,24.414,46.875,0.0,0
1582736793.994,22.461,26.367,21.973000000000006,51.758,0.0,0
1582736793.998,26.855,29.297,27.344,48.34,0.0,0
1582736794.002,29.785,24.414,31.738000000000003,46.875,0.0,0
1582736794.006,32.227,25.391,28.809,50.293,0.0,0
1582736794.008,30.273000000000003,28.32,25.391,54.688,0.0,0
1582736794.012,29.785,26.855,25.391,57.129,0.0,0
1582736794.016,39.062,30.762,24.414,63.477,0.0,0
1582736794.02,34.18,28.809,29.785,59.57,0.0,0
1582736794.024,14.648,20.02,33.203,39.551,0.0,0
1582736794.028,11.719,20.508000000000006,32.715,41.01600000000001,0.0,0
1582736794.032,15.137,27.832,33.203,47.852,0.0,0
1582736794.035,21.484,32.715,30.273000000000003,41.992,0.0,0
1582736794.039,31.738000000000003,27.832,31.25,42.48,0.0,0
1582736794.043,26.367,24.902,30.273000000000003,39.551,0.0,0
1582736794.0470002,26.367,22.461,24.414,42.48,0.0,0
1582736794.051,35.156,20.02,26.367,52.246,0.0,0
1582736794.053,29.785,24.414,23.926,56.152,0.0,0
1582736794.0570002,30.273000000000003,25.391,18.066,55.176,0.0,0
1582736794.061,32.227,30.762,24.902,53.71100000000001,0.0,0
1582736794.065,34.18,30.762,24.414,52.734,0.0,0
1582736794.069,33.203,28.32,16.602,45.898,0.0,0
1582736794.073,30.273000000000003,28.32,20.508000000000006,43.457,0.0,0
1582736794.077,30.273000000000003,20.996,26.367,48.828,0.0,0
1582736794.08,26.855,23.926,25.391,52.246,0.0,0
1582736794.084,36.133,28.809,23.438,51.27,0.0,0
1582736794.0879998,26.855,22.461,24.414,41.01600000000001,0.0,0
1582736794.092,12.207,19.531,23.926,38.086,0.0,0
1582736794.096,17.578,23.438,21.484,45.898,0.0,0
1582736794.0979998,22.461,26.855,21.484,47.852,0.0,0
1582736794.1020002,22.949,24.902,19.531,42.48,0.0,0
1582736794.106,19.043,21.973000000000006,16.602,36.133,0.0,0
1582736794.11,19.531,19.531,20.02,38.574,0.0,0
1582736794.1139998,21.973000000000006,14.16,21.973000000000006,39.551,0.0,0
1582736794.1179998,19.531,18.555,21.484,44.922,0.0,0
1582736794.1220002,22.461,27.832,22.461,52.246,0.0,0
1582736794.125,25.391,29.297,27.832,49.805,0.0,0
1582736794.129,20.508000000000006,31.738000000000003,25.879,47.363,0.0,0
1582736794.133,12.695,31.25,20.996,41.992,0.0,0
1582736794.137,16.113,31.25,24.902,40.527,0.0,0
1582736794.141,24.414,33.203,26.855,41.504,0.0,0
1582736794.143,18.066,27.832,21.484,36.133,0.0,0
1582736794.147,15.137,13.184,17.578,34.18,0.0,0
1582736794.151,19.531,11.23,22.461,37.598,0.0,0
1582736794.155,23.438,20.508000000000006,28.32,43.457,0.0,0
1582736794.159,30.273000000000003,20.508000000000006,24.902,51.27,0.0,0
1582736794.163,29.297,21.973000000000006,25.879,49.316,0.0,0
1582736794.167,24.902,21.484,28.809,47.363,0.0,0
1582736794.17,25.879,17.09,30.273000000000003,47.852,0.0,0
1582736794.174,20.996,15.137,32.227,50.78100000000001,0.0,0
1582736794.178,20.996,17.09,27.344,56.152,0.0,0
1582736794.1820002,24.414,23.438,27.832,47.363,0.0,0
1582736794.186,33.203,27.344,28.809,43.457,0.0,0
1582736794.188,32.715,23.926,24.414,47.363,0.0,0
1582736794.1920002,22.461,20.02,20.02,43.457,0.0,0
1582736794.196,22.461,21.973000000000006,15.137,43.457,0.0,0
1582736794.2,24.902,23.926,8.301,38.574,0.0,0
1582736794.204,22.949,19.531,12.695,39.062,0.0,0
1582736794.208,20.508000000000006,21.484,20.996,45.41,0.0,0
1582736794.212,21.973000000000006,28.32,25.391,39.551,0.0,0
1582736794.215,19.043,23.926,21.973000000000006,37.109,0.0,0
1582736794.219,14.16,15.137,17.09,37.598,0.0,0
1582736794.2229998,12.695,15.137,18.066,32.227,0.0,0
1582736794.2270002,12.695,20.996,21.484,32.715,0.0,0
1582736794.231,18.066,27.344,18.066,40.039,0.0,0
1582736794.248,20.996,27.344,15.625,38.574,0.0,0
1582736794.252,17.09,24.414,22.949,35.645,0.0,0
1582736794.256,23.926,20.508000000000006,23.926,40.039,0.0,0
1582736794.26,20.508000000000006,18.066,23.438,39.551,0.0,0
1582736794.264,18.066,20.996,24.414,34.18,0.0,0
1582736794.268,20.508000000000006,16.113,24.902,41.01600000000001,0.0,0
1582736794.272,9.277,11.23,21.484,41.504,0.0,0
1582736794.275,14.648,20.02,23.926,39.062,0.0,0
1582736794.279,30.273000000000003,22.461,24.902,39.062,0.0,0
1582736794.283,29.785,16.602,20.508000000000006,35.645,0.0,0
1582736794.2870002,16.113,18.555,20.02,38.086,0.0,0
1582736794.291,16.113,21.484,22.949,37.598,0.0,0
1582736794.293,25.879,22.461,29.785,39.062,0.0,0
1582736794.2970002,26.855,19.043,26.855,42.969,0.0,0
1582736794.301,20.996,14.648,22.461,38.574,0.0,0
1582736794.305,21.973000000000006,19.531,22.461,38.574,0.0,0
1582736794.309,29.297,23.438,21.484,41.01600000000001,0.0,0
1582736794.313,23.438,24.414,23.438,36.621,0.0,0
1582736794.3170002,23.438,24.414,28.32,35.645,0.0,0
1582736794.32,28.32,23.926,24.414,42.48,0.0,0
1582736794.324,20.996,16.113,20.996,40.527,0.0,0
1582736794.3279998,14.648,14.648,18.066,33.203,0.0,0
1582736794.332,17.578,23.926,13.672,34.668,0.0,0
1582736794.336,19.043,23.438,17.578,39.062,0.0,0
1582736794.3379998,20.02,23.926,22.949,38.086,0.0,0
1582736794.342,20.508000000000006,25.879,25.391,41.01600000000001,0.0,0
1582736794.346,21.973000000000006,25.879,25.879,41.01600000000001,0.0,0
1582736794.35,26.855,24.902,21.973000000000006,33.691,0.0,0
1582736794.354,31.25,25.879,25.391,45.898,0.0,0
1582736794.3579998,41.01600000000001,27.344,26.367,48.828,0.0,0
1582736794.3620002,40.527,18.555,22.949,41.992,0.0,0
1582736794.365,32.715,20.02,22.949,43.945,0.0,0
1582736794.369,36.621,34.18,21.484,47.852,0.0,0
1582736794.373,36.133,37.109,24.902,50.78100000000001,0.0,0
1582736794.377,25.879,30.762,23.438,49.805,0.0,0
1582736794.381,25.879,25.879,21.973000000000006,49.805,0.0,0
1582736794.383,30.273000000000003,24.414,23.926,47.852,0.0,0
1582736794.387,35.645,22.949,21.973000000000006,51.27,0.0,0
1582736794.391,33.203,22.461,23.438,51.758,0.0,0
1582736794.395,34.18,19.531,22.461,49.316,0.0,0
1582736794.399,41.992,15.137,19.043,52.246,0.0,0
1582736794.403,31.738000000000003,20.996,19.043,49.805,0.0,0
1582736794.407,25.391,26.367,20.02,52.246,0.0,0
1582736794.41,25.391,24.414,19.043,57.617,0.0,0
1582736794.414,22.461,21.484,20.996,59.082,0.0,0
1582736794.418,26.855,21.484,22.949,57.617,0.0,0
1582736794.4220002,37.598,22.949,21.973000000000006,58.105,0.0,0
1582736794.426,43.945,23.438,22.461,63.965,0.0,0
1582736794.428,40.039,20.996,20.02,62.012,0.0,0
1582736794.4320002,40.039,20.996,18.555,56.64100000000001,0.0,0
1582736794.436,43.945,23.438,16.113,61.035,0.0,0
1582736794.44,40.527,25.391,14.648,62.5,0.0,0
1582736794.444,38.086,21.484,19.043,57.617,0.0,0
1582736794.448,35.645,18.555,27.344,56.152,0.0,0
1582736794.452,32.715,25.391,26.367,56.64100000000001,0.0,0
1582736794.455,36.133,29.297,23.438,50.78100000000001,0.0,0
1582736794.459,32.715,29.297,24.902,44.922,0.0,0
1582736794.4629998,25.879,26.855,21.484,41.01600000000001,0.0,0
1582736794.467,28.32,21.973000000000006,18.555,39.062,0.0,0
1582736794.471,28.809,18.066,19.043,39.551,0.0,0
1582736794.4729998,15.625,17.09,19.531,34.668,0.0,0
1582736794.4770002,18.066,21.484,22.949,33.203,0.0,0
1582736794.481,33.691,22.949,26.855,43.945,0.0,0
1582736794.485,31.25,19.531,23.438,44.434,0.0,0
1582736794.4889998,19.531,19.043,19.043,35.156,0.0,0
1582736794.4929998,17.09,21.973000000000006,18.066,36.621,0.0,0
1582736794.4970002,13.184,19.531,15.625,35.645,0.0,0
1582736794.5,14.16,13.672,17.578,34.18,0.0,0
1582736794.504,24.414,17.09,19.531,41.504,0.0,0
1582736794.508,23.926,16.602,16.113,41.01600000000001,0.0,0
1582736794.512,27.344,10.254,18.555,42.48,0.0,0
1582736794.516,32.715,14.648,27.832,52.734,0.0,0
1582736794.518,32.715,26.367,34.668,58.105,0.0,0
1582736794.522,30.273000000000003,31.738000000000003,30.762,52.734,0.0,0
1582736794.526,26.855,26.367,25.391,48.34,0.0,0
1582736794.53,30.273000000000003,20.996,26.855,47.363,0.0,0
1582736794.534,30.273000000000003,25.879,25.391,49.805,0.0,0
1582736794.538,29.785,26.855,23.926,46.875,0.0,0
1582736794.542,32.227,22.949,26.367,44.922,0.0,0
1582736794.545,41.504,26.367,29.297,51.27,0.0,0
1582736794.549,43.457,26.367,30.762,52.734,0.0,0
1582736794.553,33.203,20.996,33.691,49.805,0.0,0
1582736794.5570002,32.227,23.438,34.668,55.176,0.0,0
1582736794.561,40.039,28.809,31.25,62.012,0.0,0
1582736794.563,40.039,28.32,27.344,56.152,0.0,0
1582736794.5670002,28.32,20.02,26.367,54.199,0.0,0
1582736794.571,32.715,17.578,24.414,53.223,0.0,0
1582736794.575,34.668,20.508000000000006,24.414,49.805,0.0,0
1582736794.579,21.973000000000006,22.949,29.297,50.293,0.0,0
1582736794.583,23.438,30.273000000000003,31.738000000000003,51.758,0.0,2
1582736794.587,25.879,31.738000000000003,33.203,50.78100000000001,0.0,0
1582736794.59,25.879,31.738000000000003,32.715,46.875,0.0,0
1582736794.594,29.297,29.785,34.18,49.316,0.0,0
1582736794.5979998,34.668,27.832,35.156,54.199,0.0,0
1582736794.6020002,32.227,26.855,29.785,48.34,0.0,0
1582736794.606,30.273000000000003,27.832,27.832,44.922,0.0,0
1582736794.6079998,29.785,24.414,22.461,41.992,0.0,0
1582736794.6120002,29.297,21.484,19.531,41.504,0.0,0
1582736794.6160002,27.344,24.902,20.996,48.828,0.0,0
1582736794.62,17.578,24.902,23.438,41.01600000000001,0.0,0
1582736794.6239998,16.602,26.367,25.391,42.48,0.0,0
1582736794.6279998,24.902,28.809,22.949,43.457,0.0,0
1582736794.6320002,25.391,28.32,24.414,34.18,0.0,0
1582736794.635,20.02,31.25,24.414,38.574,0.0,0
1582736794.639,18.555,30.762,20.996,42.48,0.0,0
1582736794.643,15.137,26.367,22.949,41.504,0.0,0
1582736794.647,17.578,20.508000000000006,21.484,41.01600000000001,0.0,0
1582736794.651,18.066,19.043,20.508000000000006,43.457,0.0,0
1582736794.668,21.973000000000006,24.902,23.438,39.062,0.0,0
1582736794.6720002,25.879,29.785,22.949,40.527,0.0,0
1582736794.676,19.531,20.02,21.973000000000006,40.039,0.0,0
1582736794.68,20.508000000000006,16.602,21.484,35.156,0.0,0
1582736794.684,27.832,23.438,20.02,36.621,0.0,0
1582736794.688,20.508000000000006,26.855,20.996,40.039,0.0,0
1582736794.6920002,22.949,34.18,23.438,44.922,0.0,0
1582736794.695,23.926,32.715,23.438,44.434,0.0,0
1582736794.699,19.043,28.32,21.973000000000006,42.969,0.0,0
1582736794.7029998,19.043,26.367,20.508000000000006,45.41,0.0,0
1582736794.707,21.973000000000006,25.391,18.555,46.875,0.0,0
1582736794.711,22.461,23.926,16.602,40.527,0.0,0
1582736794.7129998,20.508000000000006,19.531,20.02,35.156,0.0,0
1582736794.717,23.926,19.043,21.973000000000006,34.668,0.0,0
1582736794.721,22.461,15.137,21.484,37.598,0.0,0
1582736794.725,28.809,17.09,16.113,42.48,0.0,0
1582736794.729,33.203,26.367,10.254,41.01600000000001,0.0,0
1582736794.7329998,23.926,28.32,11.23,39.062,0.0,0
1582736794.7370002,28.32,29.785,16.113,40.527,0.0,0
1582736794.74,34.668,30.762,16.113,44.434,0.0,0
1582736794.744,39.062,29.785,15.137,45.41,0.0,0
1582736794.748,32.227,24.902,17.09,45.41,0.0,0
1582736794.752,26.855,19.531,16.602,46.875,0.0,0
1582736794.756,32.227,22.461,19.531,48.34,0.0,0
1582736794.758,32.227,27.832,20.02,54.688,0.0,0
1582736794.762,28.32,26.367,24.414,56.64100000000001,0.0,0
1582736794.766,25.879,20.508000000000006,33.203,54.199,0.0,0
1582736794.77,33.691,20.02,28.809,52.734,0.0,0
1582736794.774,28.32,20.996,23.926,45.41,0.0,0
1582736794.778,18.066,21.973000000000006,25.391,45.898,0.0,0
1582736794.782,20.996,21.484,27.832,48.34,0.0,0
1582736794.785,28.809,18.555,26.367,46.387,0.0,0
1582736794.789,30.273000000000003,20.996,20.996,52.734,0.0,0
1582736794.793,19.043,25.391,19.043,47.363,0.0,0
1582736794.7970002,11.23,20.02,19.043,34.18,0.0,0
1582736794.801,18.066,15.137,21.484,35.156,0.0,0
1582736794.803,22.461,12.695,25.879,35.156,0.0,0
1582736794.8070002,23.438,17.09,26.855,34.18,0.0,0
1582736794.811,25.391,25.879,28.809,39.062,0.0,0
1582736794.815,28.32,23.926,30.273000000000003,45.898,0.0,0
1582736794.819,30.273000000000003,25.391,30.273000000000003,46.387,0.0,0
1582736794.823,25.879,22.461,28.809,48.34,0.0,0
1582736794.827,27.344,18.555,31.738000000000003,48.34,0.0,0
1582736794.83,33.203,23.926,32.715,50.78100000000001,0.0,0
1582736794.834,34.18,29.297,26.855,52.246,0.0,0
1582736794.8379998,36.621,27.344,26.855,40.527,0.0,0
1582736794.842,31.738000000000003,27.832,26.855,43.945,0.0,0
1582736794.846,27.344,25.879,29.297,47.363,0.0,0
1582736794.8479998,28.809,23.438,30.762,40.039,0.0,0
1582736794.8520002,28.32,28.32,28.809,36.621,0.0,0
1582736794.856,22.949,34.18,31.25,37.109,0.0,0
1582736794.86,23.438,31.25,33.203,38.086,0.0,0
1582736794.8639998,30.762,28.809,30.762,42.969,0.0,0
1582736794.8679998,34.668,32.715,29.297,51.27,0.0,0
1582736794.8720002,33.203,28.32,32.227,53.71100000000001,0.0,0
1582736794.875,20.508000000000006,26.855,34.18,45.898,0.0,0
1582736794.879,21.973000000000006,30.273000000000003,29.297,42.969,0.0,0
1582736794.883,32.715,25.879,25.879,50.293,0.0,0
1582736794.887,31.25,21.973000000000006,25.879,50.78100000000001,0.0,0
1582736794.891,32.227,17.09,20.996,47.363,0.0,0
1582736794.893,33.203,16.602,20.996,50.293,0.0,0
1582736794.897,37.598,22.949,13.672,53.223,0.0,0
1582736794.901,40.039,23.926,7.812,50.293,0.0,0
1582736794.905,28.809,20.996,14.648,51.27,0.0,0
1582736794.909,33.203,24.414,20.508000000000006,53.223,0.0,0
1582736794.913,39.551,28.809,21.484,53.223,0.0,0
1582736794.917,33.691,29.785,21.484,55.176,0.0,0
1582736794.92,29.785,31.25,24.414,48.34,0.0,0
1582736794.924,27.344,29.297,23.438,45.41,0.0,0
1582736794.928,37.598,24.414,22.461,57.617,0.0,0
1582736794.9320002,47.363,25.391,27.344,62.5,0.0,0
1582736794.936,38.086,25.391,32.227,57.617,0.0,0
1582736794.938,25.879,20.02,28.809,53.71100000000001,0.0,0
1582736794.9420002,21.484,22.949,26.855,52.734,0.0,0
1582736794.946,24.414,31.25,27.832,53.71100000000001,0.0,0
1582736794.95,28.32,31.738000000000003,26.855,46.387,0.0,0
1582736794.954,28.809,24.902,23.926,44.434,0.0,0
1582736794.958,24.902,22.949,20.508000000000006,43.945,0.0,0
1582736794.962,21.973000000000006,24.902,19.531,45.898,0.0,0
1582736794.965,28.32,25.879,19.531,44.922,0.0,0
1582736794.969,30.273000000000003,25.391,20.508000000000006,40.039,0.0,0
1582736794.9729998,29.297,26.855,24.902,41.992,0.0,0
1582736794.9770002,20.02,24.414,24.414,41.992,0.0,0
1582736794.981,18.555,19.531,27.344,46.875,0.0,0
1582736794.9829998,25.879,20.02,28.32,51.758,0.0,0
1582736794.9870002,24.414,26.367,21.973000000000006,49.316,0.0,0
1582736794.9910002,27.832,26.855,21.484,55.176,0.0,0
1582736794.995,32.715,25.391,27.344,55.664,0.0,0
1582736794.9989998,28.809,26.855,25.879,46.387,0.0,0
1582736795.0029998,28.809,23.438,22.461,42.48,0.0,0
1582736795.0070002,23.438,24.902,27.344,48.828,0.0,0
1582736795.01,24.414,29.785,30.273000000000003,52.246,0.0,0
1582736795.014,30.762,24.902,31.738000000000003,47.363,0.0,0
1582736795.018,27.344,20.996,27.832,48.34,0.0,0
1582736795.022,27.832,22.461,22.461,50.293,0.0,0
1582736795.026,33.203,26.855,25.391,48.828,0.0,0
1582736795.043,35.156,27.832,24.902,48.828,0.0,0
1582736795.0470002,31.25,27.344,18.555,45.898,0.0,0
1582736795.051,28.809,24.414,17.578,45.898,0.0,0
1582736795.055,28.32,20.02,20.02,49.316,0.0,0
1582736795.059,28.809,24.414,16.602,45.41,0.0,0
1582736795.063,31.738000000000003,26.855,18.555,43.457,0.0,0
1582736795.0670002,30.273000000000003,20.996,21.484,44.434,0.0,0
1582736795.07,22.949,17.578,20.996,45.41,0.0,0
1582736795.074,26.367,22.949,28.32,54.688,0.0,0
1582736795.0779998,26.367,27.344,26.855,48.828,0.0,0
1582736795.082,22.461,21.973000000000006,19.043,41.504,0.0,0
1582736795.086,28.32,17.578,20.508000000000006,47.363,0.0,0
1582736795.0879998,22.949,18.066,21.973000000000006,45.898,0.0,0
1582736795.092,14.16,18.066,22.949,38.574,0.0,0
1582736795.096,9.277,13.672,22.949,31.25,0.0,0
1582736795.1,8.789,10.742,24.414,33.203,0.0,0
1582736795.104,24.902,5.371,30.273000000000003,38.086,0.0,0
1582736795.1079998,35.156,11.719,29.785,38.574,0.0,0
1582736795.1120002,23.926,24.414,26.367,32.715,0.0,0
1582736795.115,20.996,25.391,27.344,36.621,0.0,0
1582736795.119,36.621,27.344,29.297,44.434,0.0,0
1582736795.123,38.574,25.879,30.762,43.945,0.0,0
1582736795.127,19.043,21.973000000000006,30.273000000000003,39.062,0.0,0
1582736795.131,24.902,18.066,29.785,32.227,0.0,0
1582736795.133,31.25,23.926,30.762,37.598,0.0,0
1582736795.137,22.949,28.809,29.785,40.527,0.0,0
1582736795.141,22.949,22.949,33.691,41.992,0.0,0
1582736795.145,19.531,18.066,33.203,41.992,0.0,0
1582736795.149,20.508000000000006,18.555,30.762,43.945,0.0,0
1582736795.153,31.738000000000003,23.438,30.762,46.387,0.0,0
1582736795.157,29.785,21.484,26.367,42.969,0.0,0
1582736795.16,29.297,16.602,24.414,41.01600000000001,0.0,0
1582736795.164,34.18,19.043,26.855,43.457,0.0,0
1582736795.168,35.645,26.367,29.297,47.363,0.0,0
1582736795.1720002,29.297,30.762,25.391,46.387,0.0,0
1582736795.176,24.414,27.832,23.926,43.457,0.0,0
1582736795.178,19.043,18.555,24.902,37.598,0.0,0
1582736795.1820002,13.184,14.648,23.926,34.18,0.0,0
1582736795.186,18.066,14.16,21.484,30.762,0.0,0
1582736795.19,21.484,16.113,20.508000000000006,32.715,0.0,0
1582736795.194,19.043,22.461,23.438,39.062,0.0,0
1582736795.198,28.32,27.344,29.785,49.316,0.0,0
1582736795.202,30.762,23.438,34.18,51.27,0.0,0
1582736795.205,27.832,21.973000000000006,38.086,52.246,0.0,0
1582736795.209,24.414,25.391,41.992,46.387,0.0,0
1582736795.2129998,20.508000000000006,24.902,40.527,36.621,0.0,0
1582736795.217,24.414,30.273000000000003,39.062,39.062,0.0,0
1582736795.221,20.996,32.227,40.527,38.574,0.0,0
1582736795.2229998,4.395,29.785,37.598,33.203,0.0,0
1582736795.2270002,-3.906,31.25,35.156,26.367,0.0,0
1582736795.231,-1.465,33.203,36.621,19.043,0.0,0
1582736795.235,-4.883,33.203,35.156,4.395,0.0,0
1582736795.2389998,-16.602,33.691,32.715,-4.395,0.0,0
1582736795.2429998,-28.32,35.645,35.645,-4.395,0.0,0
1582736795.2470002,-35.645,33.203,39.551,-11.719,0.0,0
1582736795.25,-41.992,36.621,41.01600000000001,-25.879,0.0,0
1582736795.254,-43.945,43.945,41.992,-33.691,0.0,0
1582736795.258,-57.617,43.457,45.898,-40.039,0.0,0
1582736795.262,-68.848,42.969,45.41,-43.945,0.0,0
1582736795.266,-67.383,44.434,47.852,-44.434,0.0,0
1582736795.268,-73.73,45.41,55.664,-60.059,0.0,0
1582736795.272,-71.777,47.852,55.176,-65.918,0.0,0
1582736795.276,-65.43,57.129,52.734,-54.688,0.0,0
1582736795.28,-65.918,60.547,53.71100000000001,-59.57,0.0,0
1582736795.284,-59.57,51.758,57.617,-59.57,0.0,0
1582736795.288,-54.199,55.664,58.105,-47.363,0.0,0
1582736795.292,-54.199,62.5,49.805,-44.434,0.0,0
1582736795.295,-54.199,60.059,44.922,-39.551,0.0,0
1582736795.299,-58.105,56.64100000000001,44.922,-40.039,0.0,0
1582736795.303,-46.875,49.805,42.48,-37.109,0.0,0
1582736795.3070002,-41.01600000000001,46.875,40.039,-29.297,0.0,0
1582736795.311,-38.574,46.875,41.992,-29.785,0.0,0
1582736795.313,-25.391,44.434,36.621,-15.137,0.0,0
1582736795.3170002,-11.719,38.574,33.203,6.836,0.0,0
1582736795.321,-0.977,33.203,30.273000000000003,4.883,0.0,0
1582736795.325,4.395,30.273000000000003,20.996,5.859,0.0,0
1582736795.329,14.648,28.32,22.461,21.484,0.0,0
1582736795.333,28.32,22.949,24.902,32.227,0.0,0
1582736795.337,29.297,15.137,23.438,38.086,0.0,0
1582736795.34,34.668,20.996,25.391,46.387,0.0,0
1582736795.344,41.01600000000001,23.926,21.484,55.176,0.0,0
1582736795.3479998,51.758,20.508000000000006,12.695,59.082,0.0,0
1582736795.3520002,54.199,19.531,14.648,62.5,0.0,0
1582736795.356,48.828,16.602,18.066,67.383,0.0,0
1582736795.3579998,53.223,9.277,16.113,66.895,0.0,0
1582736795.3620002,57.617,2.441,16.602,77.148,0.0,0
1582736795.3660002,58.105,1.465,21.484,75.684,0.0,0
1582736795.37,54.199,0.488,22.949,74.219,0.0,0
1582736795.3739998,54.199,2.441,16.113,76.66,0.0,0
1582736795.3779998,56.64100000000001,3.418,14.16,74.707,0.0,0
1582736795.3820002,70.312,-0.488,16.602,83.984,0.0,0
1582736795.385,69.336,-4.883,12.695,82.52,0.0,0
1582736795.389,64.941,0.0,14.16,86.426,0.0,0
1582736795.393,80.566,6.348,18.555,101.562,0.0,0
1582736795.397,85.93799999999997,6.836,17.578,103.027,0.0,0
1582736795.401,78.613,5.371,18.066,103.027,0.0,0
1582736795.418,76.172,3.906,14.16,98.633,0.0,0
1582736795.4220002,80.078,-0.977,12.207,96.68,0.0,0
1582736795.426,83.984,1.953,15.625,102.539,0.0,0
1582736795.43,76.66,13.672,16.113,96.68,0.0,0
1582736795.434,72.75399999999998,17.09,17.09,95.703,0.0,0
1582736795.438,83.49600000000002,18.066,16.113,104.004,0.0,0
1582736795.4420002,82.52,19.043,13.672,101.562,0.0,0
1582736795.445,79.102,15.137,13.672,102.051,0.0,0
1582736795.449,77.637,11.719,17.09,105.469,0.0,0
1582736795.4529998,75.195,11.719,21.973000000000006,108.398,0.0,0
1582736795.457,78.613,11.23,20.508000000000006,105.957,0.0,0
1582736795.461,75.195,8.301,16.113,98.633,0.0,0
1582736795.4629998,78.613,8.301,18.555,97.656,0.0,0
1582736795.467,70.801,12.207,20.996,96.191,0.0,0
1582736795.471,59.57,13.184,19.531,88.37899999999998,0.0,0
1582736795.475,73.73,15.137,20.508000000000006,84.473,0.0,0
1582736795.479,75.684,12.695,18.066,89.355,0.0,0
1582736795.4829998,61.035,11.23,16.602,91.309,0.0,0
1582736795.4870002,55.664,12.207,19.531,84.473,0.0,0
1582736795.49,60.547,11.23,17.09,81.543,0.0,0
1582736795.494,62.012,14.16,19.043,87.891,0.0,0
1582736795.498,56.152,12.695,21.484,81.055,0.0,0
1582736795.502,56.64100000000001,8.301,18.555,78.125,0.0,0
1582736795.506,64.453,13.184,16.113,82.52,0.0,0
1582736795.508,61.035,18.555,16.113,75.684,0.0,0
1582736795.512,52.246,16.602,16.113,72.75399999999998,0.0,0
1582736795.516,45.41,15.137,17.09,69.336,0.0,0
1582736795.52,40.527,14.648,19.043,73.242,0.0,0
1582736795.524,46.387,16.113,21.484,75.195,0.0,0
1582736795.528,50.293,5.371,20.02,68.359,0.0,0
1582736795.532,47.852,5.859,17.578,61.523,0.0,0
1582736795.535,42.969,15.625,20.508000000000006,58.594,0.0,0
1582736795.539,45.41,20.508000000000006,26.367,68.848,0.0,0
1582736795.543,39.551,22.949,21.484,66.895,0.0,0
1582736795.5470002,31.738000000000003,16.602,20.02,57.129,0.0,0
1582736795.551,36.133,12.695,21.973000000000006,62.5,0.0,0
1582736795.554,38.574,13.672,23.438,65.43,0.0,0
1582736795.5579998,42.969,15.625,26.367,59.57,0.0,0
1582736795.562,29.785,14.648,18.555,50.78100000000001,0.0,0
1582736795.566,26.855,11.23,17.578,62.012,0.0,0
1582736795.57,40.039,10.254,22.949,64.453,0.0,0
1582736795.574,32.715,15.137,20.508000000000006,54.199,0.0,0
1582736795.5779998,25.391,13.184,18.555,58.105,0.0,0
1582736795.581,26.367,11.23,20.02,55.176,0.0,0
1582736795.585,35.645,17.578,20.02,51.27,0.0,0
1582736795.589,36.133,17.09,18.555,46.387,0.0,0
1582736795.593,24.902,16.602,15.137,44.922,0.0,0
1582736795.597,25.391,19.043,16.602,51.27,0.0,0
1582736795.5979998,36.621,22.461,15.625,50.293,0.0,0
1582736795.6020002,35.645,22.461,16.113,48.828,0.0,0
1582736795.606,34.18,25.391,18.555,47.363,0.0,1
1582736795.61,43.457,26.367,20.508000000000006,51.27,0.0,0
1582736795.6139998,39.062,22.949,22.949,59.082,0.0,0
1582736795.6179998,35.156,24.414,23.438,57.129,0.0,0
1582736795.6220002,31.25,23.438,25.879,54.688,0.0,0
1582736795.625,27.832,20.508000000000006,28.32,48.828,0.0,0
1582736795.629,32.227,20.508000000000006,29.785,47.852,0.0,0
1582736795.633,30.273000000000003,19.043,30.273000000000003,49.316,0.0,0
1582736795.637,30.762,19.531,31.25,51.758,0.0,0
1582736795.641,28.809,20.996,28.809,50.78100000000001,0.0,0
1582736795.643,33.691,17.578,25.391,49.316,0.0,0
1582736795.647,30.273000000000003,19.043,29.785,56.152,0.0,0
1582736795.651,22.461,20.02,35.156,54.688,0.0,0
1582736795.655,23.926,17.578,34.18,45.41,0.0,0
1582736795.659,18.066,16.113,31.25,38.086,0.0,0
1582736795.663,19.043,14.648,28.809,39.062,0.0,0
1582736795.667,24.414,13.184,22.461,37.598,0.0,0
1582736795.67,20.996,18.555,21.484,34.18,0.0,0
1582736795.674,20.02,20.508000000000006,29.297,40.039,0.0,0
1582736795.678,21.973000000000006,15.137,29.785,45.41,0.0,0
1582736795.6820002,22.461,14.16,24.902,43.945,0.0,0
1582736795.686,28.32,20.996,25.879,41.01600000000001,0.0,0
1582736795.688,33.203,29.297,26.367,43.945,0.0,0
1582736795.6920002,32.715,31.25,21.484,46.387,0.0,0
1582736795.696,29.785,25.879,21.484,45.41,0.0,0
1582736795.7,26.855,21.484,24.414,48.34,0.0,0
1582736795.704,25.391,25.391,27.832,45.898,0.0,0
1582736795.708,20.996,26.367,26.855,47.363,0.0,0
1582736795.712,31.738000000000003,22.949,29.297,55.664,0.0,0
1582736795.715,37.109,20.02,31.25,53.223,0.0,0
1582736795.719,33.203,20.996,23.926,43.457,0.0,0
1582736795.7229998,28.809,18.555,22.949,41.992,0.0,0
1582736795.7270002,21.484,21.484,26.367,43.945,0.0,0
1582736795.731,27.344,29.297,24.414,42.48,0.0,0
1582736795.7329998,30.273000000000003,28.809,25.391,46.387,0.0,0
1582736795.7370002,28.809,28.32,25.391,48.34,0.0,0
1582736795.7410002,23.438,29.297,26.855,47.852,0.0,0
1582736795.745,27.344,30.273000000000003,32.715,51.758,0.0,0
1582736795.7489998,30.273000000000003,30.762,32.227,57.129,0.0,0
1582736795.7529998,19.043,30.273000000000003,28.32,49.805,0.0,0
1582736795.7570002,24.414,31.738000000000003,25.879,43.457,0.0,0
1582736795.76,35.156,33.203,25.879,57.129,0.0,0
1582736795.764,33.203,31.25,27.344,62.012,0.0,0
1582736795.768,28.32,26.367,35.156,62.988,0.0,0
1582736795.772,38.574,22.461,36.133,67.87100000000001,0.0,0
1582736795.776,33.203,21.484,29.785,56.64100000000001,0.0,0
1582736795.793,29.785,26.367,24.902,51.27,0.0,0
1582736795.7970002,33.691,30.273000000000003,26.855,60.059,0.0,0
1582736795.801,23.926,24.414,29.785,59.57,0.0,0
1582736795.805,23.926,26.367,30.273000000000003,57.617,0.0,0
1582736795.809,30.762,27.344,31.25,58.594,0.0,0
1582736795.813,34.668,24.414,28.32,61.035,0.0,0
1582736795.8170002,37.598,23.926,28.809,64.941,0.0,0
1582736795.82,36.133,22.949,32.227,62.5,0.0,0
1582736795.824,42.969,22.949,29.785,61.035,0.0,0
1582736795.8279998,38.086,18.555,28.809,66.895,0.0,0
1582736795.832,23.926,12.695,29.297,56.64100000000001,0.0,0
1582736795.836,29.297,14.16,29.297,55.664,0.0,0
1582736795.8379998,31.25,20.02,34.668,62.012,0.0,0
1582736795.842,27.832,20.508000000000006,28.32,49.316,0.0,0
1582736795.846,29.297,24.414,21.973000000000006,41.504,0.0,0
1582736795.85,32.715,32.715,24.902,44.922,0.0,0
1582736795.854,47.363,33.203,22.461,55.176,0.0,0
1582736795.8579998,52.246,29.297,20.508000000000006,59.57,0.0,0
1582736795.8620002,25.879,23.926,25.391,44.434,0.0,0
1582736795.865,17.578,20.996,29.297,39.551,0.0,0
1582736795.869,23.926,23.438,29.785,46.875,0.0,0
1582736795.873,23.926,21.973000000000006,25.879,43.945,0.0,0
1582736795.877,28.32,21.973000000000006,21.484,41.01600000000001,0.0,0
1582736795.881,31.738000000000003,24.414,22.949,41.504,0.0,0
1582736795.883,32.715,22.949,25.879,46.387,0.0,0
1582736795.887,34.668,20.508000000000006,29.297,48.34,0.0,0
1582736795.891,35.645,19.531,28.809,48.34,0.0,0
1582736795.895,35.156,21.484,27.344,51.758,0.0,0
1582736795.899,27.832,25.879,29.297,53.71100000000001,0.0,0
1582736795.903,30.762,26.367,31.738000000000003,52.734,0.0,0
1582736795.907,31.738000000000003,25.879,32.715,47.852,0.0,0
1582736795.91,22.461,27.832,33.691,43.945,0.0,0
1582736795.914,24.414,25.391,33.691,47.852,0.0,0
1582736795.918,25.879,22.949,27.344,47.852,0.0,0
1582736795.9220002,24.902,23.926,23.438,51.27,0.0,0
1582736795.926,23.438,24.902,22.949,58.105,0.0,0
1582736795.928,24.902,28.32,21.484,50.293,0.0,0
1582736795.9320002,31.25,28.809,21.973000000000006,42.48,0.0,0
1582736795.936,41.992,23.438,26.367,47.852,0.0,0
1582736795.94,38.574,25.879,29.785,54.199,0.0,0
1582736795.944,27.344,33.203,28.809,45.898,0.0,0
1582736795.948,29.785,32.715,26.367,41.504,0.0,0
1582736795.952,32.227,31.738000000000003,21.973000000000006,45.898,0.0,0
1582736795.955,34.668,31.25,18.555,45.41,0.0,0
1582736795.959,29.297,28.32,18.555,43.457,0.0,0
1582736795.9629998,26.367,24.902,23.926,42.969,0.0,0
1582736795.967,29.785,24.902,22.949,47.363,0.0,0
1582736795.971,30.762,24.414,22.461,52.246,0.0,0
1582736795.9729998,34.18,25.879,24.902,42.969,0.0,0
1582736795.9770002,35.156,28.32,22.461,38.086,0.0,0
1582736795.981,34.668,24.902,22.949,45.41,0.0,0
1582736795.985,36.621,24.902,25.391,44.434,0.0,0
1582736795.9889998,37.109,27.344,22.461,40.527,0.0,0
1582736795.9929998,32.715,29.297,19.043,40.527,0.0,0
1582736795.9970002,30.762,30.273000000000003,21.484,48.34,0.0,0
1582736796.0,38.086,25.391,22.949,54.199,0.0,0
1582736796.004,38.086,22.461,20.508000000000006,58.594,0.0,0
1582736796.008,26.367,23.438,23.926,56.64100000000001,0.0,0
1582736796.012,20.02,26.855,27.832,50.78100000000001,0.0,0
1582736796.016,23.438,25.391,22.949,43.457,0.0,0
1582736796.018,24.902,21.484,16.602,38.086,0.0,0
1582736796.022,26.855,21.484,17.578,42.48,0.0,0
1582736796.026,20.02,20.02,18.555,39.062,0.0,0
1582736796.03,15.625,21.973000000000006,17.09,34.668,0.0,0
1582736796.034,30.273000000000003,28.809,19.043,37.598,0.0,0
1582736796.038,36.621,31.25,20.02,44.922,0.0,0
1582736796.042,24.902,26.855,19.043,45.41,0.0,0
1582736796.045,19.531,22.949,17.578,41.01600000000001,0.0,0
1582736796.049,26.367,20.996,16.113,40.039,0.0,0
1582736796.053,27.832,19.043,16.602,45.898,0.0,0
1582736796.0570002,23.926,20.508000000000006,17.578,50.293,0.0,0
1582736796.061,23.926,20.508000000000006,14.648,41.01600000000001,0.0,0
1582736796.063,20.508000000000006,19.043,9.277,33.203,0.0,0
1582736796.0670002,16.602,18.555,7.812,35.645,0.0,0
1582736796.071,19.043,20.996,11.719,38.086,0.0,0
1582736796.075,15.625,18.066,12.695,40.039,0.0,0
1582736796.079,15.625,18.555,11.719,41.01600000000001,0.0,0
1582736796.083,14.16,18.555,17.09,41.504,0.0,0
1582736796.087,14.16,17.09,21.484,40.527,0.0,0
1582736796.09,10.254,17.578,17.09,32.227,0.0,0
1582736796.094,11.23,15.137,17.578,30.273000000000003,0.0,0
1582736796.0979998,20.02,12.207,23.438,39.551,0.0,0
1582736796.1020002,19.531,12.207,25.879,48.34,0.0,0
1582736796.106,9.277,17.09,24.902,40.039,0.0,0
1582736796.1079998,10.254,23.438,20.508000000000006,38.086,0.0,0
1582736796.1120002,17.578,24.414,17.09,48.828,0.0,0
1582736796.1160002,19.531,20.996,19.531,44.922,0.0,0
1582736796.12,14.16,20.02,21.484,38.574,0.0,0
1582736796.1239998,19.043,19.043,20.996,39.551,0.0,0
1582736796.1279998,26.855,20.02,22.949,46.875,0.0,0
1582736796.1320002,18.555,21.973000000000006,26.855,45.41,0.0,0
1582736796.135,16.113,20.02,26.367,34.18,0.0,0
1582736796.139,16.113,20.02,28.32,33.203,0.0,0
1582736796.143,12.695,26.367,33.691,42.48,0.0,0
1582736796.147,18.555,32.227,33.691,47.852,0.0,0
1582736796.151,20.508000000000006,29.785,33.203,43.945,0.0,0
1582736796.168,21.973000000000006,23.926,31.738000000000003,49.316,0.0,0
1582736796.1720002,27.832,27.832,34.18,49.805,0.0,0
1582736796.176,25.391,33.691,31.738000000000003,36.621,0.0,0
1582736796.18,20.02,31.738000000000003,32.227,39.062,0.0,0
1582736796.184,17.09,26.855,34.668,36.621,0.0,0
1582736796.188,23.926,29.785,30.762,31.25,0.0,0
1582736796.1920002,19.043,31.25,24.902,30.762,0.0,0
1582736796.195,13.184,26.367,19.531,26.855,0.0,0
1582736796.199,13.184,26.855,21.973000000000006,23.926,0.0,0
1582736796.2029998,13.672,30.762,20.02,22.461,0.0,0
1582736796.207,14.16,27.832,22.461,28.32,0.0,0
1582736796.211,13.672,24.902,28.32,36.133,0.0,0
1582736796.2129998,15.137,27.344,28.32,39.062,0.0,0
1582736796.217,17.09,26.855,28.809,36.133,0.0,0
1582736796.221,20.996,25.879,26.855,34.668,0.0,0
1582736796.225,26.367,25.391,26.367,38.574,0.0,0
1582736796.229,21.484,22.461,25.879,34.668,0.0,0
1582736796.2329998,25.391,22.461,23.438,32.227,0.0,0
1582736796.2370002,31.25,26.367,27.832,41.504,0.0,0
1582736796.24,32.227,26.367,31.25,47.363,0.0,0
1582736796.244,27.832,25.879,29.785,44.922,0.0,0
1582736796.248,20.02,26.367,28.32,40.039,0.0,0
1582736796.252,26.855,24.414,26.855,41.992,0.0,0
1582736796.256,27.344,21.484,24.414,45.898,0.0,0
1582736796.258,27.832,23.926,27.832,41.504,0.0,0
1582736796.262,31.738000000000003,22.949,32.715,47.852,0.0,0
1582736796.266,24.414,19.043,31.25,46.387,0.0,0
1582736796.27,23.438,20.02,26.855,41.992,0.0,0
1582736796.274,26.855,20.996,27.344,43.457,0.0,0
1582736796.278,21.973000000000006,22.949,30.762,40.527,0.0,0
1582736796.282,21.484,26.367,27.832,39.062,0.0,0
1582736796.285,25.391,20.508000000000006,25.391,44.434,0.0,0
1582736796.289,21.484,19.043,28.32,45.898,0.0,0
1582736796.293,19.531,22.461,27.832,43.945,0.0,0
1582736796.2970002,20.02,21.484,30.762,40.039,0.0,0
1582736796.301,23.438,21.973000000000006,28.809,40.039,0.0,0
1582736796.303,24.414,25.391,23.438,42.48,0.0,0
1582736796.3070002,24.902,23.438,24.414,43.945,0.0,0
1582736796.311,25.391,18.066,25.879,41.504,0.0,0
1582736796.315,17.578,18.555,27.344,36.133,0.0,0
1582736796.319,16.113,24.414,28.809,38.086,0.0,0
1582736796.323,21.484,28.809,31.738000000000003,42.969,0.0,0
1582736796.327,22.461,26.367,32.715,48.34,0.0,0
1582736796.33,31.738000000000003,26.855,31.738000000000003,48.828,0.0,0
1582736796.334,29.785,25.879,31.25,46.875,0.0,0
1582736796.3379998,25.391,23.438,32.227,49.805,0.0,0
1582736796.342,25.879,20.508000000000006,31.738000000000003,47.363,0.0,0
1582736796.346,21.973000000000006,20.996,28.32,43.945,0.0,0
1582736796.3479998,16.602,22.949,28.809,45.41,0.0,0
1582736796.3520002,13.672,24.414,29.297,33.691,0.0,0
1582736796.356,7.324,24.414,29.785,28.32,0.0,0
1582736796.36,1.465,22.461,33.691,32.715,0.0,0
1582736796.3639998,9.277,29.297,35.156,27.344,0.0,0
1582736796.3679998,11.719,32.227,32.227,20.996,0.0,0
1582736796.3720002,-3.906,32.227,34.668,18.066,0.0,0
1582736796.375,-12.207,30.762,37.109,13.672,0.0,0
1582736796.379,-11.23,30.273000000000003,39.062,11.23,0.0,0
1582736796.383,-8.789,34.18,38.086,2.93,0.0,0
1582736796.387,-16.602,36.621,36.621,-8.789,0.0,0
1582736796.391,-28.809,42.969,41.504,-16.602,0.0,0
1582736796.393,-28.809,47.852,41.01600000000001,-20.508000000000006,0.0,0
1582736796.397,-26.367,47.852,43.945,-14.16,0.0,0
1582736796.401,-33.691,47.363,47.852,-18.555,0.0,0
1582736796.405,-49.805,45.41,45.898,-38.086,0.0,0
1582736796.409,-72.75399999999998,45.898,49.316,-47.852,0.0,0
1582736796.413,-76.172,47.852,52.246,-52.246,0.0,0
1582736796.417,-75.195,53.71100000000001,52.246,-69.824,0.0,0
1582736796.42,-89.844,57.617,54.199,-80.078,0.0,0
1582736796.424,-98.633,57.129,54.199,-78.613,0.0,0
1582736796.428,-99.121,56.64100000000001,54.199,-83.49600000000002,0.0,0
1582736796.4320002,-87.891,56.64100000000001,53.71100000000001,-81.055,0.0,0
1582736796.436,-86.914,58.594,52.734,-77.148,0.0,0
1582736796.438,-90.332,62.988,54.688,-75.684,0.0,0
1582736796.4420002,-89.844,64.453,54.199,-76.66,0.0,0
1582736796.446,-91.797,61.523,50.78100000000001,-76.66,0.0,0
1582736796.45,-82.031,62.5,47.852,-68.848,0.0,0
1582736796.454,-71.777,59.57,45.41,-66.895,0.0,0
1582736796.458,-73.242,48.34,45.898,-55.176,0.0,0
1582736796.462,-52.734,48.34,49.316,-39.062,0.0,0
1582736796.465,-42.48,52.734,41.992,-41.992,0.0,0
1582736796.469,-47.363,43.945,37.598,-39.062,0.0,0
1582736796.4729998,-25.879,36.621,35.156,-18.555,0.0,0
1582736796.4770002,-9.277,41.01600000000001,28.32,0.0,0.0,0
1582736796.481,-3.906,36.133,26.855,10.742,0.0,0
1582736796.4829998,10.254,26.367,24.414,21.973000000000006,0.0,0
1582736796.4870002,23.926,24.902,24.414,38.574,0.0,0
1582736796.4910002,34.668,26.367,22.949,49.805,0.0,0
1582736796.495,39.551,27.344,22.461,58.594,0.0,0
1582736796.4989998,53.71100000000001,15.137,21.973000000000006,62.988,0.0,0
1582736796.5029998,63.477,7.812,19.043,71.289,0.0,0
1582736796.5070002,50.78100000000001,15.137,14.16,75.195,0.0,0
1582736796.51,65.43,15.137,15.137,75.684,0.0,0
1582736796.514,71.289,12.695,15.625,86.914,0.0,0
1582736796.518,56.152,6.836,12.695,86.914,0.0,0
1582736796.522,60.547,5.859,11.23,83.49600000000002,0.0,0
1582736796.526,79.102,11.719,11.719,93.75,0.0,0
1582736796.543,80.566,14.648,18.066,97.656,0.0,0
1582736796.5470002,71.777,10.254,17.09,99.609,0.0,0
1582736796.551,78.125,8.301,16.113,108.887,0.0,0
1582736796.555,90.82,8.301,15.625,117.188,0.0,0
1582736796.559,93.262,7.324,10.254,115.723,0.0,0
1582736796.563,93.75,10.742,10.254,118.164,0.0,0
1582736796.5670002,86.426,10.254,9.766,120.117,0.0,0
1582736796.57,83.49600000000002,9.766,6.348,108.398,0.0,0
1582736796.574,89.355,15.625,6.836,110.352,0.0,0
1582736796.5779998,89.844,11.719,8.301,115.723,0.0,0
1582736796.582,93.75,1.465,6.348,113.281,0.0,0
1582736796.586,82.031,3.418,6.348,111.816,0.0,0
1582736796.5879998,72.266,6.836,7.324,107.91,0.0,0
1582736796.592,73.73,3.906,7.324,107.91,0.0,0
1582736796.596,70.801,0.488,10.254,110.84,0.0,0
1582736796.6,76.172,2.441,13.184,99.121,0.0,0
1582736796.604,76.172,9.277,8.789,96.68,0.0,0
1582736796.6079998,67.87100000000001,12.207,9.277,98.633,0.0,0
1582736796.6120002,67.383,10.742,11.719,98.145,0.0,0
1582736796.615,70.801,12.207,10.742,97.168,0.0,0
1582736796.619,78.125,16.602,11.719,101.074,0.0,0
1582736796.623,78.613,19.531,14.648,104.492,0.0,0
1582736796.627,73.242,14.16,13.672,95.703,0.0,0
1582736796.631,72.266,10.742,14.16,99.121,0.0,0
1582736796.633,69.336,12.695,20.996,101.074,0.0,0
1582736796.637,69.824,14.648,16.113,95.215,0.0,0
1582736796.641,75.684,17.578,9.766,92.285,0.0,0
1582736796.645,69.336,15.137,13.672,86.914,0.0,0
1582736796.649,67.383,8.789,13.672,91.309,0.0,0
1582736796.653,70.801,9.277,8.789,96.191,0.0,0
1582736796.657,69.336,14.648,9.766,89.844,0.0,0
1582736796.66,59.082,13.672,13.184,88.37899999999998,0.0,0
1582736796.664,56.152,8.789,10.254,86.914,0.0,0
1582736796.668,58.594,11.719,11.719,82.031,0.0,0
1582736796.6720002,53.223,15.137,14.648,74.707,0.0,0
1582736796.676,53.223,15.137,18.066,76.66,0.0,0
1582736796.678,52.734,16.113,18.555,79.59,0.0,0
1582736796.6820002,58.594,17.09,19.043,80.566,0.0,0
1582736796.686,52.246,17.578,21.484,83.49600000000002,0.0,0
1582736796.69,49.316,17.09,20.508000000000006,78.125,0.0,0
1582736796.694,46.875,12.695,17.578,68.359,0.0,0
1582736796.698,41.01600000000001,9.766,12.695,64.453,0.0,0
1582736796.702,41.992,8.789,10.254,62.5,0.0,0
1582736796.705,46.387,6.836,11.719,67.87100000000001,0.0,0
1582736796.709,53.223,9.766,15.137,67.383,0.0,1
1582736796.7129998,42.969,11.719,10.254,63.477,0.0,0
1582736796.717,32.715,10.254,11.719,67.383,0.0,0
1582736796.721,38.574,15.625,14.648,64.941,0.0,0
1582736796.7229998,33.691,17.09,11.719,60.547,0.0,0
1582736796.7270002,33.203,14.16,12.695,59.082,0.0,0
1582736796.731,35.645,18.555,12.207,61.523,0.0,0
1582736796.735,29.297,21.973000000000006,14.648,61.523,0.0,0
1582736796.7389998,36.133,19.043,13.672,56.152,0.0,0
1582736796.7429998,39.551,17.09,14.16,49.805,0.0,0
1582736796.7470002,28.809,16.602,16.602,47.363,0.0,0
1582736796.75,31.738000000000003,12.695,17.09,52.246,0.0,0
1582736796.754,33.691,17.578,16.113,49.805,0.0,0
1582736796.758,33.203,22.949,13.184,47.363,0.0,0
1582736796.762,38.086,24.902,16.113,46.875,0.0,0
1582736796.766,35.156,19.531,18.555,50.78100000000001,0.0,0
1582736796.768,34.668,17.578,17.578,60.547,0.0,0
1582736796.772,36.621,23.438,19.531,59.082,0.0,0
1582736796.776,37.598,25.879,23.926,50.293,0.0,0
1582736796.78,41.992,26.367,21.973000000000006,47.363,0.0,0
1582736796.784,42.969,25.391,26.367,54.688,0.0,0
1582736796.788,44.434,21.973000000000006,29.785,62.5,0.0,0
1582736796.792,37.109,20.508000000000006,19.043,59.082,0.0,0
1582736796.795,22.949,23.438,16.602,47.852,0.0,0
1582736796.799,27.832,22.949,16.602,47.363,0.0,0
1582736796.803,38.086,17.578,19.043,53.223,0.0,0
1582736796.8070002,35.156,20.996,16.113,52.734,0.0,0
1582736796.811,40.527,23.926,12.207,55.176,0.0,0
1582736796.813,46.387,23.926,16.113,54.199,0.0,0
1582736796.8170002,36.621,25.391,20.02,57.129,0.0,0
1582736796.821,35.156,25.879,21.973000000000006,54.199,0.0,0
1582736796.825,37.109,24.414,22.949,59.082,0.0,0
1582736796.829,38.086,24.414,21.484,59.57,0.0,0
1582736796.833,39.062,24.414,21.973000000000006,51.27,0.0,0
1582736796.837,44.922,25.879,22.949,56.152,0.0,0
1582736796.84,45.41,29.297,24.414,59.082,0.0,0
1582736796.844,37.598,24.414,24.902,54.688,0.0,0
1582736796.8479998,44.434,16.113,24.902,52.246,0.0,0
1582736796.8520002,37.109,22.461,21.484,52.734,0.0,0
1582736796.856,25.879,26.855,21.973000000000006,51.27,0.0,0
1582736796.8579998,30.762,25.879,28.809,51.27,0.0,0
1582736796.8620002,29.785,27.344,27.832,53.71100000000001,0.0,0
1582736796.8660002,27.832,24.414,28.32,47.852,0.0,0
1582736796.87,29.785,18.555,29.785,47.852,0.0,0
1582736796.8739998,26.367,20.02,25.879,49.316,0.0,0
1582736796.8779998,20.02,22.461,24.902,48.828,0.0,0
1582736796.8820002,22.949,24.902,23.926,51.758,0.0,0
1582736796.885,24.414,28.809,24.414,44.922,0.0,0
1582736796.889,22.949,21.484,27.344,42.48,0.0,0
1582736796.893,27.832,19.043,27.344,47.363,0.0,0
1582736796.897,31.25,28.32,23.926,46.875,0.0,0
1582736796.901,30.762,32.227,23.438,42.48,0.0,0
1582736796.918,37.109,26.855,24.414,47.363,0.0,0
1582736796.9220002,41.01600000000001,28.32,24.902,58.105,0.0,0
1582736796.926,39.551,31.738000000000003,23.926,60.059,0.0,0
1582736796.93,40.527,27.344,27.832,58.594,0.0,0
1582736796.934,34.18,25.391,27.344,61.523,0.0,0
1582736796.938,26.367,25.391,24.902,61.035,0.0,0
1582736796.9420002,30.762,27.832,26.367,60.547,0.0,0
1582736796.945,36.621,27.344,25.879,54.199,0.0,0
1582736796.949,32.227,27.832,26.367,47.852,0.0,0
1582736796.9529998,37.598,30.273000000000003,21.484,52.734,0.0,0
1582736796.957,29.297,29.785,23.438,54.688,0.0,0
1582736796.961,11.23,24.902,31.738000000000003,47.363,0.0,0
1582736796.9629998,14.16,18.555,32.715,49.316,0.0,0
1582736796.967,15.137,24.902,28.32,47.363,0.0,0
1582736796.971,21.484,28.809,22.461,44.922,0.0,0
1582736796.975,26.367,23.926,19.043,46.387,0.0,0
1582736796.979,22.461,22.461,19.531,40.527,0.0,0
1582736796.9829998,21.973000000000006,22.949,20.02,43.457,0.0,0
1582736796.9870002,13.672,20.02,20.02,50.293,0.0,0
1582736796.99,17.578,21.484,17.578,45.41,0.0,0
1582736796.994,28.809,20.996,13.672,40.527,0.0,0
1582736796.998,30.762,22.461,17.578,46.387,0.0,0
1582736797.002,27.344,26.367,22.461,53.71100000000001,0.0,0
1582736797.006,25.879,20.02,20.996,53.71100000000001,0.0,0
1582736797.008,23.926,13.672,20.996,48.34,0.0,0
1582736797.012,23.438,21.484,17.09,44.434,0.0,0
1582736797.016,25.879,29.785,14.648,42.48,0.0,0
1582736797.02,33.203,31.25,14.16,42.969,0.0,0
1582736797.024,32.715,29.785,16.113,48.828,0.0,0
1582736797.028,28.32,26.367,19.531,56.64100000000001,0.0,0
1582736797.032,29.297,25.879,20.02,54.688,0.0,0
1582736797.035,28.809,25.879,20.996,51.27,0.0,0
1582736797.039,39.062,27.832,22.949,57.129,0.0,0
1582736797.043,31.738000000000003,25.879,20.508000000000006,49.316,0.0,0
1582736797.0470002,15.137,22.949,20.996,38.086,0.0,0
1582736797.051,23.438,27.344,24.414,40.527,0.0,0
1582736797.053,29.297,25.879,23.438,39.062,0.0,0
1582736797.0570002,26.367,23.926,21.484,35.645,0.0,0
1582736797.061,27.344,26.367,21.973000000000006,38.574,0.0,0
1582736797.065,31.25,27.832,24.902,45.41,0.0,0
1582736797.069,28.809,23.926,30.762,49.316,0.0,0
1582736797.073,30.273000000000003,22.949,31.738000000000003,47.363,0.0,0
1582736797.077,35.645,28.809,31.25,49.316,0.0,0
1582736797.08,37.109,32.227,34.18,53.71100000000001,0.0,0
1582736797.084,37.598,32.715,31.25,53.223,0.0,0
1582736797.0879998,38.086,33.203,27.344,55.176,0.0,0
1582736797.092,34.18,32.715,26.367,51.27,0.0,0
1582736797.096,32.227,32.227,25.879,55.664,0.0,0
1582736797.0979998,39.551,31.25,28.32,61.523,0.0,0
1582736797.1020002,36.621,26.367,26.855,48.828,0.0,0
1582736797.106,28.809,19.531,25.879,46.387,0.0,0
1582736797.11,32.715,19.531,27.832,48.34,0.0,0
1582736797.1139998,31.25,23.926,27.344,43.945,0.0,0
1582736797.1179998,27.344,24.414,26.855,47.852,0.0,0
1582736797.1220002,26.367,23.926,26.367,51.27,0.0,0
1582736797.125,21.973000000000006,21.484,24.414,41.01600000000001,0.0,0
1582736797.129,20.02,20.996,23.926,37.598,0.0,0
1582736797.133,16.113,24.414,26.367,37.598,0.0,0
1582736797.137,20.508000000000006,25.391,26.855,35.645,0.0,0
1582736797.141,19.531,25.391,24.414,36.621,0.0,0
1582736797.143,23.438,27.344,24.414,41.01600000000001,0.0,0
1582736797.147,26.855,24.902,24.902,41.01600000000001,0.0,0
1582736797.151,19.531,23.926,21.973000000000006,35.156,0.0,0
1582736797.155,24.902,24.414,18.066,31.738000000000003,0.0,0
1582736797.159,19.043,20.508000000000006,18.555,26.855,0.0,0
1582736797.163,17.578,19.531,19.531,28.32,0.0,0
1582736797.167,25.391,20.996,18.066,32.715,0.0,0
1582736797.17,24.902,21.484,20.996,39.062,0.0,0
1582736797.174,19.043,23.926,20.996,41.01600000000001,0.0,0
1582736797.178,21.973000000000006,21.973000000000006,17.578,39.062,0.0,0
1582736797.1820002,36.133,20.02,21.973000000000006,42.969,0.0,0
1582736797.186,36.621,24.414,24.414,40.527,0.0,0
1582736797.188,31.738000000000003,31.25,22.461,40.527,0.0,0
1582736797.1920002,35.156,25.879,25.879,50.78100000000001,0.0,0
1582736797.196,36.133,21.484,27.832,54.199,0.0,0
1582736797.2,38.086,31.738000000000003,31.25,46.875,0.0,0
1582736797.204,36.133,34.668,35.156,44.434,0.0,0
1582736797.208,37.598,31.25,31.738000000000003,48.34,0.0,0
1582736797.212,42.969,27.832,29.785,52.734,0.0,0
1582736797.215,44.434,24.902,29.785,54.688,0.0,0
1582736797.219,36.133,27.832,26.855,46.387,0.0,0
1582736797.2229998,23.926,27.832,29.297,47.363,0.0,0
1582736797.2270002,31.25,24.902,29.785,51.27,0.0,0
1582736797.231,38.086,24.902,27.344,47.363,0.0,0
1582736797.2329998,30.273000000000003,26.367,26.855,48.34,0.0,0
1582736797.2370002,26.855,23.926,26.367,57.617,0.0,0
1582736797.2410002,34.18,25.879,26.855,60.547,0.0,0
1582736797.245,41.01600000000001,26.855,28.32,48.828,0.0,0
1582736797.2489998,38.574,27.344,26.855,44.922,0.0,0
1582736797.2529998,38.574,27.832,25.879,53.223,0.0,0
1582736797.2570002,39.062,21.973000000000006,29.785,53.223,0.0,0
1582736797.26,32.227,25.391,32.227,53.71100000000001,0.0,0
1582736797.264,27.344,33.203,29.785,51.758,0.0,0
1582736797.268,30.762,31.25,28.809,50.293,0.0,0
1582736797.272,23.438,29.297,29.785,52.734,0.0,0
1582736797.276,27.344,31.738000000000003,28.809,49.805,0.0,0
1582736797.293,33.691,31.738000000000003,28.809,46.387,0.0,0
1582736797.2970002,21.973000000000006,26.855,27.344,42.48,0.0,0
1582736797.301,17.09,25.879,26.367,46.875,0.0,0
1582736797.305,23.438,30.762,28.809,47.363,0.0,0
1582736797.309,25.879,29.785,30.273000000000003,40.527,0.0,0
1582736797.313,31.25,23.926,31.738000000000003,41.504,0.0,0
1582736797.3170002,33.203,22.949,25.391,42.969,0.0,0
1582736797.32,21.973000000000006,22.949,24.414,41.01600000000001,0.0,0
1582736797.324,25.391,24.414,27.344,47.852,0.0,0
1582736797.3279998,31.25,24.414,25.391,43.945,0.0,0
1582736797.332,19.531,19.043,28.32,40.527,0.0,0
1582736797.336,14.16,25.879,33.203,48.828,0.0,0
1582736797.3379998,27.344,28.32,33.203,48.34,0.0,0
1582736797.342,29.297,24.902,30.273000000000003,48.828,0.0,0
1582736797.346,23.438,27.832,29.297,41.992,0.0,0
1582736797.35,30.273000000000003,31.738000000000003,31.25,41.504,0.0,0
1582736797.354,33.203,29.785,26.367,44.434,0.0,0
1582736797.3579998,25.391,26.855,22.949,39.062,0.0,0
1582736797.3620002,24.414,28.32,22.461,40.039,0.0,0
1582736797.365,23.438,26.855,20.508000000000006,34.668,0.0,0
1582736797.369,25.391,26.367,20.02,33.203,0.0,0
1582736797.373,36.133,28.809,20.996,37.109,0.0,0
1582736797.377,34.668,29.785,25.391,33.691,0.0,0
1582736797.381,24.414,24.414,27.344,42.48,0.0,0
1582736797.383,21.973000000000006,23.438,25.391,54.199,0.0,0
1582736797.387,25.391,25.879,26.855,46.387,0.0,0
1582736797.391,19.043,19.043,25.391,36.621,0.0,0
1582736797.395,16.113,15.137,20.508000000000006,36.133,0.0,0
1582736797.399,21.484,23.438,18.555,37.109,0.0,0
1582736797.403,23.438,25.391,21.484,35.645,0.0,0
1582736797.407,25.391,21.484,24.902,43.945,0.0,0
1582736797.41,20.996,22.949,24.414,40.527,0.0,0
1582736797.414,23.438,23.438,24.414,33.203,0.0,0
1582736797.418,25.879,23.926,24.414,40.527,0.0,0
1582736797.4220002,27.344,26.855,24.414,42.969,0.0,0
1582736797.426,27.832,27.344,27.832,36.621,0.0,0
1582736797.428,28.32,27.344,28.809,40.527,0.0,0
1582736797.4320002,27.832,27.344,26.855,44.922,0.0,0
1582736797.436,21.973000000000006,26.855,25.391,39.062,0.0,0
1582736797.44,15.625,23.438,19.531,32.715,0.0,0
1582736797.444,11.719,22.949,17.578,32.227,0.0,0
1582736797.448,19.043,23.926,21.484,37.598,0.0,0
1582736797.452,20.508000000000006,20.02,23.926,38.574,0.0,0
1582736797.455,23.438,20.996,25.391,43.945,0.0,0
1582736797.459,32.227,25.879,28.809,51.27,0.0,0
1582736797.4629998,23.926,29.297,27.344,42.969,0.0,0
1582736797.467,7.812,22.949,27.832,33.691,0.0,0
1582736797.471,12.207,17.578,26.855,35.156,0.0,0
1582736797.4729998,20.508000000000006,23.926,25.391,37.598,0.0,0
1582736797.4770002,12.207,26.855,27.344,32.715,0.0,0
1582736797.481,12.695,21.973000000000006,27.344,34.668,0.0,0
1582736797.485,17.578,18.066,25.391,38.574,0.0,0
1582736797.4889998,19.043,17.578,20.996,36.621,0.0,0
1582736797.4929998,18.555,19.531,21.484,39.062,0.0,0
1582736797.4970002,26.855,21.484,19.531,39.062,0.0,0
1582736797.5,26.367,19.531,15.625,41.504,0.0,0
1582736797.504,19.043,20.508000000000006,17.09,49.316,0.0,0
1582736797.508,20.508000000000006,27.344,20.02,42.48,0.0,0
1582736797.512,27.344,22.949,23.438,42.48,0.0,0
1582736797.516,39.062,17.578,24.902,47.363,0.0,0
1582736797.518,31.25,24.414,23.438,42.48,0.0,0
1582736797.522,19.531,30.273000000000003,23.926,42.969,0.0,0
1582736797.526,19.531,28.32,25.879,47.363,0.0,0
1582736797.53,20.996,25.391,26.367,49.316,0.0,0
1582736797.534,32.227,27.344,25.391,47.852,0.0,0
1582736797.538,35.156,29.785,24.414,48.34,0.0,0
1582736797.542,34.18,28.809,24.414,46.387,0.0,0
1582736797.545,40.527,26.855,24.902,45.41,0.0,0
1582736797.549,41.01600000000001,27.832,25.391,50.293,0.0,0
1582736797.553,35.645,32.227,27.832,48.828,0.0,0
1582736797.5570002,28.809,31.25,28.809,43.945,0.0,0
1582736797.561,28.32,26.855,27.832,46.387,0.0,0
1582736797.563,37.109,27.832,28.32,44.922,0.0,0
1582736797.5670002,36.621,31.738000000000003,29.297,42.48,0.0,0
1582736797.571,24.414,28.32,29.297,42.969,0.0,0
1582736797.575,23.438,25.879,26.855,43.457,0.0,0
1582736797.579,28.32,27.344,24.902,36.621,0.0,0
1582736797.583,19.531,24.902,22.949,34.668,0.0,0
1582736797.587,12.207,24.414,22.461,38.086,0.0,0
1582736797.59,30.273000000000003,21.484,23.438,41.01600000000001,0.0,0
1582736797.594,33.203,17.09,21.484,50.78100000000001,0.0,0
1582736797.5979998,24.414,26.855,21.484,47.363,0.0,0
1582736797.6020002,34.668,31.738000000000003,21.484,47.363,0.0,0
1582736797.606,34.668,32.227,21.484,55.176,0.0,0
1582736797.6079998,32.715,31.738000000000003,21.973000000000006,48.828,0.0,0
1582736797.6120002,39.062,26.855,20.508000000000006,44.922,0.0,0
1582736797.6160002,32.227,20.02,20.508000000000006,43.457,0.0,0
1582736797.62,34.668,19.043,22.949,40.527,0.0,0
1582736797.6239998,29.297,22.949,23.438,46.387,0.0,0
1582736797.6279998,22.461,26.367,22.949,49.316,0.0,0
1582736797.6320002,32.715,29.297,24.414,42.48,0.0,0
1582736797.635,26.367,27.344,23.438,42.48,0.0,0
1582736797.639,16.602,20.996,16.113,43.457,0.0,0
1582736797.643,19.531,16.113,14.648,43.457,0.0,0
1582736797.647,21.973000000000006,21.484,13.672,38.574,0.0,0
1582736797.651,22.461,25.391,8.789,40.527,0.0,0
1582736797.668,26.367,22.949,11.23,45.898,0.0,0
1582736797.6720002,26.855,28.32,15.137,46.875,0.0,0
1582736797.676,32.227,35.645,19.531,54.199,0.0,0
1582736797.68,31.738000000000003,35.156,15.625,51.27,0.0,0
1582736797.684,30.762,29.785,11.719,43.945,0.0,0
1582736797.688,34.18,25.879,16.113,53.223,0.0,0
1582736797.6920002,28.32,21.973000000000006,15.137,55.664,0.0,0
1582736797.695,23.438,23.926,19.531,50.78100000000001,0.0,0
1582736797.699,25.391,27.832,22.461,53.71100000000001,0.0,0
1582736797.7029998,28.809,24.414,18.555,49.805,0.0,0
1582736797.707,22.949,22.461,16.602,42.969,0.0,0
1582736797.711,22.949,24.414,17.578,42.969,0.0,0
1582736797.7129998,22.949,25.879,20.02,43.945,0.0,0
1582736797.717,24.902,25.391,20.02,41.504,0.0,0
1582736797.721,22.949,23.926,20.02,41.992,0.0,0
1582736797.725,12.695,17.09,21.484,43.457,0.0,0
1582736797.729,13.184,14.16,21.484,38.574,0.0,0
1582736797.7329998,17.09,19.043,18.555,32.715,0.0,0
1582736797.7370002,15.137,20.02,19.043,29.785,0.0,0
1582736797.74,16.602,21.484,22.461,34.668,0.0,0
1582736797.744,23.926,25.391,25.391,44.922,0.0,0
1582736797.748,22.949,29.785,24.902,47.852,0.0,0
1582736797.752,21.484,30.762,25.391,54.199,0.0,0
1582736797.756,33.691,33.691,24.414,56.152,0.0,0
1582736797.758,36.621,35.645,22.949,59.082,0.0,0
1582736797.762,33.203,35.156,26.367,55.664,0.0,0
1582736797.766,31.738000000000003,35.156,27.832,43.457,0.0,0
1582736797.77,37.598,31.738000000000003,26.367,49.805,0.0,0
1582736797.774,40.039,24.414,26.855,49.316,0.0,0
1582736797.778,25.391,22.949,32.715,45.898,0.0,1
1582736797.782,24.414,29.785,35.156,48.828,0.0,0
1582736797.785,24.414,29.297,31.25,44.434,0.0,0
1582736797.789,22.949,25.879,31.25,39.551,0.0,0
1582736797.793,23.926,29.297,33.203,38.574,0.0,0
1582736797.7970002,21.484,32.227,32.227,46.387,0.0,0
1582736797.801,19.531,28.32,32.715,46.387,0.0,0
1582736797.803,16.602,26.367,34.668,38.574,0.0,0
1582736797.8070002,15.137,27.344,36.133,36.621,0.0,0
1582736797.811,25.391,29.785,37.598,36.621,0.0,0
1582736797.815,26.367,30.273000000000003,37.109,35.645,0.0,0
1582736797.819,21.484,27.832,36.133,38.574,0.0,0
1582736797.823,20.508000000000006,24.414,35.156,41.01600000000001,0.0,0
1582736797.827,18.555,23.926,33.691,38.574,0.0,0
1582736797.83,16.602,29.297,30.762,39.551,0.0,0
1582736797.834,19.531,31.738000000000003,24.902,36.621,0.0,0
1582736797.8379998,21.973000000000006,29.785,23.438,37.109,0.0,0
1582736797.842,21.484,27.832,27.832,42.48,0.0,0
1582736797.846,17.578,29.785,31.738000000000003,36.133,0.0,0
1582736797.8479998,16.602,27.832,30.762,31.25,0.0,0
1582736797.8520002,31.25,26.855,27.832,36.621,0.0,0
1582736797.856,31.25,28.809,27.344,43.945,0.0,0
1582736797.86,21.484,32.227,28.32,45.41,0.0,0
1582736797.8639998,25.879,33.203,28.32,46.387,0.0,0
1582736797.8679998,27.344,27.344,28.809,44.434,0.0,0
1582736797.8720002,28.32,21.484,29.297,40.039,0.0,0
1582736797.875,20.02,25.391,26.855,35.645,0.0,0
1582736797.879,22.461,26.855,28.809,35.156,0.0,0
1582736797.883,28.32,25.391,29.297,38.086,0.0,0
1582736797.887,29.297,28.809,26.367,37.109,0.0,0
1582736797.891,32.227,33.691,30.762,36.621,0.0,0
1582736797.893,22.461,30.762,27.832,38.574,0.0,0
1582736797.897,23.438,29.785,18.555,44.922,0.0,0
1582736797.901,24.414,30.273000000000003,18.555,43.457,0.0,0
1582736797.905,16.113,25.879,20.996,37.109,0.0,0
1582736797.909,14.16,23.926,22.949,39.551,0.0,0
1582736797.913,16.602,24.902,26.855,48.34,0.0,0
1582736797.917,28.32,24.414,28.809,55.664,0.0,0
1582736797.92,30.762,30.273000000000003,25.879,54.199,0.0,0
1582736797.924,29.785,34.18,24.414,57.617,0.0,0
1582736797.928,37.598,30.762,25.879,59.57,0.0,0
1582736797.9320002,45.898,24.414,26.367,58.105,0.0,0
1582736797.936,44.922,26.855,21.973000000000006,59.082,0.0,0
1582736797.938,37.598,34.18,19.531,58.105,0.0,0
1582736797.9420002,36.133,33.203,24.902,59.57,0.0,0
1582736797.946,43.945,34.668,27.344,62.012,0.0,0
