timestamps,TP9,AF7,AF8,TP10,Right AUX,Marker0
1581608765.458,38.086,20.508000000000006,34.18,21.484,0.0,0
1581608765.462,30.273000000000003,27.344,30.762,24.414,0.0,0
1581608765.466,20.996,36.133,27.832,24.414,0.0,0
1581608765.47,23.438,41.504,36.621,25.879,0.0,0
1581608765.474,27.344,44.434,37.598,28.809,0.0,0
1581608765.478,31.25,54.199,25.391,31.25,0.0,0
1581608765.482,33.203,43.945,25.391,28.809,0.0,0
1581608765.485,39.551,26.367,34.668,32.227,0.0,0
1581608765.4889998,37.109,18.066,34.18,41.01600000000001,0.0,0
1581608765.4929998,18.555,7.812,26.367,40.039,0.0,0
1581608765.4970002,21.973000000000006,15.137,25.391,36.133,0.0,0
1581608765.5010002,27.832,18.066,33.691,32.715,0.0,0
1581608765.502,18.555,31.25,35.156,27.344,0.0,0
1581608765.506,16.113,42.969,33.691,23.438,0.0,0
1581608765.51,24.414,25.391,30.273000000000003,27.344,0.0,0
1581608765.514,24.414,15.625,24.414,29.785,0.0,0
1581608765.518,20.508000000000006,30.273000000000003,20.996,32.227,0.0,0
1581608765.522,32.227,40.039,30.273000000000003,36.133,0.0,0
1581608765.526,40.039,33.691,33.203,35.156,0.0,0
1581608765.529,32.715,11.719,28.809,30.273000000000003,0.0,0
1581608765.533,26.855,1.465,34.18,27.344,0.0,0
1581608765.5370002,20.508000000000006,11.719,35.156,26.855,0.0,0
1581608765.541,15.137,21.973000000000006,30.273000000000003,20.508000000000006,0.0,0
1581608765.545,14.648,37.598,28.32,18.555,0.0,0
1581608765.562,20.02,45.898,20.508000000000006,22.461,0.0,0
1581608765.566,29.297,46.875,16.113,27.344,0.0,0
1581608765.57,31.25,39.551,20.996,31.25,0.0,0
1581608765.574,26.855,23.438,25.879,26.855,0.0,0
1581608765.5779998,33.691,22.949,29.297,29.785,0.0,0
1581608765.582,34.18,28.809,29.785,38.086,0.0,0
1581608765.586,33.203,9.766,27.832,34.668,0.0,0
1581608765.589,41.01600000000001,5.859,28.809,32.227,0.0,0
1581608765.593,35.156,26.855,28.32,32.227,0.0,0
1581608765.597,26.367,23.926,25.391,27.344,0.0,0
1581608765.601,29.297,26.367,28.32,21.484,0.0,0
1581608765.605,28.809,33.691,18.066,15.625,0.0,0
1581608765.607,35.156,33.203,10.742,22.949,0.0,0
1581608765.611,36.621,40.039,20.02,35.156,0.0,0
1581608765.615,20.508000000000006,34.18,25.391,25.391,0.0,0
1581608765.619,10.742,21.484,26.367,17.09,0.0,0
1581608765.623,17.578,19.043,24.414,27.344,0.0,0
1581608765.627,29.297,15.625,40.527,35.156,0.0,0
1581608765.631,30.762,4.395,58.105,36.621,0.0,0
1581608765.6339998,19.043,3.906,56.64100000000001,40.039,0.0,0
1581608765.6379998,16.602,5.859,52.734,41.01600000000001,0.0,0
1581608765.6420002,25.391,1.953,51.27,42.969,0.0,0
1581608765.646,18.555,0.488,47.852,41.504,0.0,0
1581608765.65,18.066,4.395,46.875,47.363,0.0,0
1581608765.653,21.484,15.137,47.852,56.152,0.0,0
1581608765.657,20.508000000000006,24.902,44.434,49.805,0.0,0
1581608765.661,22.949,24.902,39.551,43.945,0.0,0
1581608765.665,22.949,10.742,35.156,45.898,0.0,0
1581608765.669,25.391,1.953,35.645,44.434,0.0,0
1581608765.673,25.391,0.0,37.598,40.039,0.0,0
1581608765.677,22.461,11.719,37.598,36.133,0.0,0
1581608765.68,26.855,28.32,39.551,29.297,0.0,0
1581608765.684,20.996,27.832,41.504,22.949,0.0,0
1581608765.688,17.578,23.926,39.551,22.461,0.0,0
1581608765.6920002,24.902,24.902,33.691,25.391,0.0,0
1581608765.696,24.902,29.297,34.18,25.879,0.0,0
1581608765.697,16.602,28.32,25.879,16.602,0.0,0
1581608765.701,5.859,24.414,20.508000000000006,7.324,0.0,0
1581608765.705,13.672,20.996,35.645,14.648,0.0,0
1581608765.709,20.02,9.766,47.363,14.16,0.0,0
1581608765.7129998,15.137,8.789,43.945,9.277,0.0,0
1581608765.717,13.184,23.438,30.762,3.906,0.0,0
1581608765.721,15.137,19.043,21.973000000000006,5.859,0.0,0
1581608765.724,19.531,15.137,26.367,20.02,0.0,0
1581608765.728,26.367,20.02,32.227,25.879,0.0,0
1581608765.732,26.855,31.738000000000003,26.855,26.855,0.0,0
1581608765.736,20.996,33.203,19.043,27.344,0.0,0
1581608765.74,25.879,29.785,20.996,24.902,0.0,0
1581608765.742,30.273000000000003,33.691,29.785,22.949,0.0,0
1581608765.746,22.461,22.949,35.156,24.902,0.0,0
1581608765.75,26.367,20.02,42.969,23.926,0.0,0
1581608765.754,32.715,18.555,39.551,22.949,0.0,0
1581608765.758,28.809,18.066,27.832,20.996,0.0,0
1581608765.762,26.367,22.949,28.32,20.996,0.0,0
1581608765.766,36.621,26.367,33.203,25.391,0.0,0
1581608765.769,26.855,24.414,23.438,20.996,0.0,0
1581608765.7729998,11.719,25.879,13.672,16.113,0.0,0
1581608765.7770002,19.531,27.344,26.855,23.926,0.0,0
1581608765.781,29.785,22.949,35.645,28.32,0.0,0
1581608765.785,31.738000000000003,20.508000000000006,35.156,32.227,0.0,0
1581608765.7870002,27.344,20.996,33.691,35.645,0.0,0
1581608765.791,34.668,25.879,23.926,32.227,0.0,0
1581608765.795,38.574,38.086,21.973000000000006,30.273000000000003,0.0,0
1581608765.799,36.133,37.598,24.902,30.762,0.0,0
1581608765.803,36.133,26.367,23.438,28.32,0.0,0
1581608765.8070002,32.715,31.25,18.555,22.461,0.0,0
1581608765.811,30.273000000000003,37.109,17.09,19.531,0.0,0
1581608765.814,27.832,27.344,27.344,19.531,0.0,0
1581608765.8179998,20.996,24.414,35.156,11.719,0.0,0
1581608765.822,16.602,30.762,32.227,9.766,0.0,0
1581608765.826,15.625,22.949,17.09,19.531,0.0,0
1581608765.83,20.508000000000006,10.254,14.16,20.508000000000006,0.0,0
1581608765.832,33.203,16.602,22.949,17.578,0.0,0
1581608765.836,33.691,21.484,24.902,20.02,0.0,0
1581608765.84,22.461,24.414,24.414,24.902,0.0,0
1581608765.844,20.996,31.738000000000003,28.32,17.09,0.0,0
1581608765.8479998,24.902,29.297,34.18,15.137,0.0,0
1581608765.8520002,24.902,25.879,31.738000000000003,25.391,0.0,0
1581608765.856,15.625,24.902,19.531,25.391,0.0,0
1581608765.859,15.137,19.531,19.043,20.996,0.0,0
1581608765.863,14.648,25.391,24.414,25.391,0.0,0
1581608765.867,17.09,26.855,25.879,32.227,0.0,0
1581608765.871,20.996,11.719,30.762,33.203,0.0,0
1581608765.875,15.137,21.484,30.273000000000003,33.203,0.0,0
1581608765.893,19.531,37.598,28.32,30.273000000000003,0.0,0
1581608765.897,27.832,32.715,19.043,28.809,0.0,0
1581608765.901,29.297,29.297,13.672,27.344,0.0,0
1581608765.905,16.602,31.25,26.855,14.648,0.0,0
1581608765.909,18.555,32.715,28.32,8.301,0.0,0
1581608765.913,36.621,19.531,32.227,15.625,0.0,0
1581608765.917,33.691,19.531,41.504,19.043,0.0,0
1581608765.92,24.414,27.832,41.01600000000001,18.555,0.0,0
1581608765.924,23.926,23.926,35.156,20.508000000000006,0.0,0
1581608765.928,24.414,35.645,29.785,26.855,0.0,0
1581608765.9320002,19.531,34.668,30.762,29.785,0.0,0
1581608765.936,15.625,16.113,22.461,23.926,0.0,0
1581608765.938,18.555,16.602,16.113,20.996,0.0,0
1581608765.9420002,15.137,30.762,21.484,20.508000000000006,0.0,0
1581608765.946,14.16,23.438,27.344,20.508000000000006,0.0,0
1581608765.95,19.531,6.348,33.203,18.066,0.0,0
1581608765.954,24.902,13.672,31.738000000000003,15.137,0.0,0
1581608765.958,29.297,26.855,29.297,12.207,0.0,0
1581608765.962,26.367,36.133,27.344,19.043,0.0,0
1581608765.965,22.461,41.01600000000001,29.297,20.508000000000006,0.0,0
1581608765.969,32.715,33.203,32.227,22.949,0.0,0
1581608765.9729998,43.457,28.32,29.297,28.809,0.0,0
1581608765.9770002,41.01600000000001,24.902,28.32,27.832,0.0,0
1581608765.981,33.203,16.113,29.297,32.715,0.0,0
1581608765.984,30.273000000000003,21.973000000000006,27.344,35.645,0.0,0
1581608765.988,29.297,26.855,34.668,37.598,0.0,0
1581608765.992,29.297,22.461,35.156,41.504,0.0,0
1581608765.996,33.203,12.695,28.809,40.527,0.0,0
1581608766.0,36.621,12.207,30.273000000000003,35.645,0.0,0
1581608766.004,27.832,34.18,24.902,35.156,0.0,0
1581608766.008,23.438,38.574,25.391,37.598,0.0,0
1581608766.0110002,39.551,28.32,33.203,38.086,0.0,0
1581608766.015,39.062,28.32,27.832,38.086,0.0,0
1581608766.019,39.551,27.344,16.602,35.645,0.0,0
1581608766.0229998,34.18,25.879,18.066,32.227,0.0,0
1581608766.0270002,23.438,26.855,33.203,31.738000000000003,0.0,0
1581608766.028,30.273000000000003,26.367,47.363,33.203,0.0,0
1581608766.032,38.086,23.926,45.41,33.691,0.0,0
1581608766.036,35.645,22.461,31.25,32.227,0.0,0
1581608766.04,32.227,21.484,28.32,29.297,0.0,0
1581608766.044,35.645,28.809,27.344,27.832,0.0,0
1581608766.048,24.414,30.273000000000003,17.578,18.555,0.0,0
1581608766.052,19.531,28.32,21.484,20.02,0.0,0
1581608766.055,19.043,20.508000000000006,33.691,19.531,0.0,0
1581608766.059,16.113,17.09,31.738000000000003,9.766,0.0,0
1581608766.063,16.113,30.273000000000003,20.996,8.301,0.0,0
1581608766.0670002,19.043,30.273000000000003,21.484,5.859,0.0,0
1581608766.071,25.879,20.508000000000006,32.227,9.277,0.0,0
1581608766.073,25.391,22.461,33.691,12.207,0.0,0
1581608766.077,27.344,32.715,28.32,16.602,0.0,0
1581608766.081,26.855,27.344,32.715,20.02,0.0,0
1581608766.085,20.02,23.926,34.18,23.438,0.0,0
1581608766.089,21.973000000000006,27.344,31.25,25.391,0.0,0
1581608766.093,26.367,20.02,32.715,27.832,0.0,0
1581608766.097,32.715,14.648,32.227,32.227,0.0,0
1581608766.1,31.25,13.184,33.203,36.621,0.0,0
1581608766.104,27.832,5.859,35.645,37.109,0.0,0
1581608766.1079998,26.367,17.578,34.668,32.715,0.0,0
1581608766.1120002,23.926,41.504,35.156,33.691,0.0,0
1581608766.1160002,21.484,47.852,29.785,24.902,0.0,0
1581608766.1179998,18.066,37.598,35.156,19.043,0.0,0
1581608766.1220002,17.09,22.949,48.34,25.879,0.0,0
1581608766.1260002,16.602,19.043,45.41,24.414,0.0,0
1581608766.13,14.16,19.531,33.203,21.973000000000006,0.0,0
1581608766.1339998,25.879,25.879,32.227,29.297,0.0,0
1581608766.1379998,35.156,28.809,36.621,33.203,0.0,0
1581608766.1420002,27.344,3.418,34.18,32.227,0.0,0
1581608766.145,22.949,8.301,31.25,26.367,0.0,0
1581608766.149,15.625,24.902,17.578,20.02,0.0,0
1581608766.153,13.672,17.578,21.484,14.16,0.0,0
1581608766.157,12.695,32.227,38.574,1.465,0.0,0
1581608766.161,20.996,38.086,33.691,13.184,0.0,0
1581608766.179,35.156,29.297,20.996,29.297,0.0,0
1581608766.1829998,13.184,29.785,26.855,13.672,0.0,0
1581608766.187,-8.301,22.949,32.715,3.906,0.0,0
1581608766.191,3.906,16.602,29.297,10.742,0.0,0
1581608766.195,13.672,14.648,33.691,20.996,0.0,0
1581608766.199,7.812,9.766,34.18,25.391,0.0,0
1581608766.2029998,12.207,7.812,33.203,23.926,0.0,0
1581608766.206,17.578,5.371,30.762,20.508000000000006,0.0,0
1581608766.21,17.09,-0.488,34.668,22.461,0.0,0
1581608766.214,21.973000000000006,2.93,40.039,32.715,0.0,0
1581608766.218,30.762,21.973000000000006,39.062,40.039,0.0,0
1581608766.222,43.457,18.555,40.527,40.039,0.0,0
1581608766.209,44.434,14.16,41.504,39.551,0.0,0
1581608766.2129998,30.273000000000003,18.066,34.18,35.156,0.0,0
1581608766.217,27.832,6.836,34.18,38.086,0.0,0
1581608766.221,34.18,16.113,32.227,44.434,0.0,0
1581608766.225,33.691,32.715,31.738000000000003,43.457,0.0,0
1581608766.229,32.227,23.926,34.18,46.875,0.0,0
1581608766.2329998,32.715,12.695,28.32,46.387,0.0,0
1581608766.236,33.203,17.578,27.832,41.504,0.0,0
1581608766.24,31.738000000000003,26.367,33.203,33.203,0.0,0
1581608766.244,22.461,26.367,32.715,31.25,0.0,0
1581608766.248,24.414,23.926,27.344,36.133,0.0,0
1581608766.252,26.367,29.785,29.785,29.297,0.0,0
1581608766.268,18.066,34.18,32.227,23.438,0.0,0
1581608766.272,11.23,27.832,29.297,28.32,0.0,0
1581608766.276,4.395,15.137,29.297,30.762,0.0,0
1581608766.28,8.301,11.719,30.762,30.273000000000003,0.0,0
1581608766.284,8.301,12.207,39.062,24.902,0.0,0
1581608766.288,12.207,16.113,44.922,20.996,0.0,0
1581608766.292,16.602,23.926,37.109,23.438,0.0,0
1581608766.295,20.996,21.973000000000006,30.273000000000003,32.227,0.0,0
1581608766.299,20.02,19.043,31.25,38.574,0.0,0
1581608766.303,19.531,12.695,30.762,33.203,0.0,0
1581608766.3070002,29.785,20.996,29.297,23.926,0.0,0
1581608766.311,31.738000000000003,47.363,33.203,28.32,0.0,0
1581608766.313,31.738000000000003,39.551,36.133,30.273000000000003,0.0,0
1581608766.3170002,32.715,22.461,38.574,27.344,0.0,0
1581608766.321,29.785,30.273000000000003,34.668,23.926,0.0,0
1581608766.325,37.109,41.01600000000001,31.25,26.855,0.0,0
1581608766.329,36.133,40.527,37.109,33.203,0.0,0
1581608766.333,33.691,29.297,35.645,29.297,0.0,0
1581608766.337,29.297,26.855,19.043,27.344,0.0,0
1581608766.34,23.926,24.902,22.461,28.809,0.0,0
1581608766.344,37.598,13.672,26.367,28.32,0.0,0
1581608766.3479998,37.109,18.555,22.949,24.902,0.0,0
1581608766.3520002,26.855,30.762,33.691,20.02,0.0,0
1581608766.356,32.227,35.156,41.992,26.855,0.0,0
1581608766.3579998,40.039,39.062,35.645,29.297,0.0,0
1581608766.3620002,27.344,28.32,26.855,20.508000000000006,0.0,0
1581608766.3660002,22.949,27.344,27.344,19.043,0.0,0
1581608766.37,29.297,36.621,30.762,25.391,0.0,0
1581608766.3739998,28.809,30.273000000000003,26.855,27.344,0.0,0
1581608766.3779998,25.391,20.02,18.555,20.996,0.0,0
1581608766.3820002,25.879,19.043,13.672,25.391,0.0,0
1581608766.385,19.043,29.297,20.996,24.414,0.0,0
1581608766.389,19.043,26.855,37.598,22.949,0.0,0
1581608766.393,34.668,40.527,43.457,27.344,0.0,0
1581608766.397,27.344,39.062,33.203,24.414,0.0,0
1581608766.401,23.926,17.578,27.832,24.902,0.0,0
1581608766.403,29.785,26.855,31.738000000000003,31.738000000000003,0.0,0
1581608766.407,28.809,29.785,35.156,31.738000000000003,0.0,0
1581608766.411,25.879,25.879,25.391,29.297,0.0,0
1581608766.415,19.043,39.062,6.348,25.879,0.0,0
1581608766.419,29.297,28.809,16.602,25.391,0.0,0
1581608766.423,31.25,3.418,42.48,24.902,0.0,0
1581608766.427,23.438,19.531,42.969,15.137,0.0,0
1581608766.43,20.996,43.945,30.762,14.648,0.0,0
1581608766.434,23.438,44.434,29.785,13.672,0.0,0
1581608766.438,26.855,35.645,29.785,10.742,0.0,0
1581608766.4420002,21.973000000000006,32.715,24.902,12.695,0.0,0
1581608766.446,32.227,32.715,28.809,20.996,0.0,0
1581608766.448,33.691,26.855,35.645,30.762,0.0,0
1581608766.452,20.02,24.414,32.715,27.344,0.0,0
1581608766.456,25.879,18.555,21.484,32.227,0.0,0
1581608766.46,34.668,20.02,20.508000000000006,33.691,0.0,0
1581608766.464,33.203,20.996,35.156,26.855,0.0,0
1581608766.468,22.949,16.602,42.969,32.715,0.0,0
1581608766.472,16.113,30.762,35.156,35.645,0.0,0
1581608766.475,19.043,37.598,35.156,29.297,0.0,0
1581608766.479,12.695,28.809,39.062,19.531,0.0,0
1581608766.4829998,14.648,22.949,40.039,18.066,0.0,0
1581608766.4870002,21.973000000000006,19.043,32.227,22.949,0.0,0
1581608766.4910002,21.973000000000006,20.02,21.484,19.043,0.0,0
1581608766.4929998,24.414,24.414,9.766,29.297,0.0,0
1581608766.4970002,29.297,22.461,7.812,32.715,0.0,0
1581608766.5010002,22.461,13.672,20.508000000000006,26.367,0.0,0
1581608766.505,19.531,19.043,33.203,24.414,0.0,0
1581608766.5089998,23.438,37.109,46.875,22.461,0.0,0
1581608766.5129998,20.996,36.133,48.828,21.973000000000006,0.0,0
1581608766.5170002,23.926,29.297,38.086,19.043,0.0,0
1581608766.52,28.32,31.738000000000003,35.156,14.648,0.0,0
1581608766.524,24.902,33.203,31.25,17.578,0.0,0
1581608766.528,23.438,30.762,28.809,26.367,0.0,0
1581608766.532,24.414,26.367,27.832,23.926,0.0,0
1581608766.536,30.273000000000003,30.762,20.02,17.578,0.0,0
1581608766.538,23.438,23.926,25.879,14.16,0.0,0
1581608766.542,8.301,10.254,37.598,14.648,0.0,0
1581608766.546,25.879,18.555,43.945,33.691,0.0,0
1581608766.55,41.01600000000001,16.113,44.922,44.434,0.0,0
1581608766.554,23.926,17.578,39.062,20.996,0.0,0
1581608766.5579998,16.113,40.039,26.367,7.812,0.0,0
1581608766.562,16.113,46.387,17.578,3.906,0.0,0
1581608766.565,16.602,38.574,16.113,2.441,0.0,0
1581608766.569,28.32,34.668,14.648,6.348,0.0,0
1581608766.573,27.344,37.109,10.742,-0.977,0.0,0
1581608766.577,28.809,34.18,6.836,1.953,0.0,0
1581608766.581,27.832,31.738000000000003,10.254,9.766,0.0,0
1581608766.583,18.555,32.715,19.043,10.254,0.0,0
1581608766.587,24.414,28.809,24.902,14.648,0.0,0
1581608766.591,28.809,23.926,26.855,21.973000000000006,0.0,0
1581608766.595,24.902,28.32,27.344,24.414,0.0,0
1581608766.599,31.25,22.461,25.391,20.508000000000006,0.0,0
1581608766.603,27.832,3.418,23.438,17.09,0.0,0
1581608766.607,21.973000000000006,11.719,27.832,11.719,0.0,0
1581608766.61,29.297,39.062,25.879,17.578,0.0,0
1581608766.6139998,31.738000000000003,51.758,10.742,25.391,0.0,0
1581608766.6179998,23.438,41.01600000000001,8.301,15.625,0.0,0
1581608766.6220002,21.973000000000006,29.785,11.23,16.113,0.0,0
1581608766.6260002,30.762,28.809,20.996,22.949,0.0,0
1581608766.6279998,40.527,39.551,34.18,19.531,0.0,0
1581608766.6320002,37.598,24.414,38.086,17.09,0.0,0
1581608766.6360002,25.391,7.324,38.574,18.555,0.0,0
1581608766.64,27.344,24.414,35.156,18.066,0.0,0
1581608766.644,35.645,28.809,19.043,15.137,0.0,0
1581608766.6479998,35.156,20.508000000000006,8.301,19.043,0.0,0
1581608766.6520002,25.879,15.625,16.113,19.531,0.0,0
1581608766.655,22.461,29.297,23.438,20.02,0.0,0
1581608766.659,24.414,47.363,23.926,25.879,0.0,0
1581608766.663,23.438,37.598,20.996,19.043,0.0,0
1581608766.667,30.762,31.738000000000003,30.762,18.555,0.0,0
1581608766.671,30.273000000000003,40.527,36.133,21.973000000000006,0.0,0
1581608766.687,17.09,39.551,26.855,16.113,0.0,0
1581608766.691,26.855,27.344,29.297,20.02,0.0,0
1581608766.695,41.992,23.438,24.414,28.32,0.0,0
1581608766.699,35.156,24.902,15.625,20.508000000000006,0.0,0
1581608766.7029998,38.086,25.879,29.297,26.855,0.0,0
1581608766.707,36.133,32.227,38.574,30.273000000000003,0.0,0
1581608766.711,32.227,19.531,31.25,25.391,0.0,0
1581608766.714,34.18,7.324,24.414,31.25,0.0,0
1581608766.718,31.738000000000003,31.25,21.484,36.621,0.0,0
1581608766.722,30.273000000000003,37.109,24.902,33.203,0.0,0
1581608766.726,35.645,29.785,28.32,28.809,0.0,0
1581608766.73,36.133,41.504,20.02,22.949,0.0,0
1581608766.7329998,30.273000000000003,42.969,22.461,22.949,0.0,0
1581608766.7370002,29.297,34.18,29.785,28.32,0.0,0
1581608766.7410002,31.738000000000003,27.344,27.832,28.809,0.0,0
1581608766.745,32.715,25.879,33.691,25.391,0.0,0
1581608766.7489998,34.18,28.809,31.25,25.391,0.0,0
1581608766.7529998,32.715,22.949,25.879,25.879,0.0,0
1581608766.7570002,29.785,17.09,37.109,21.973000000000006,0.0,0
1581608766.76,22.461,20.996,42.48,20.996,0.0,0
1581608766.764,19.531,27.832,37.598,22.461,0.0,0
1581608766.768,29.297,34.668,27.344,21.973000000000006,0.0,0
1581608766.772,32.715,33.691,20.996,22.461,0.0,0
1581608766.776,21.484,26.367,22.949,17.09,0.0,0
1581608766.778,20.02,27.832,28.32,14.648,0.0,0
1581608766.782,23.926,27.832,27.832,11.719,0.0,0
1581608766.786,19.043,25.391,23.926,9.277,0.0,0
1581608766.79,24.414,33.691,31.25,20.02,0.0,0
1581608766.794,22.461,39.062,40.039,22.461,0.0,0
1581608766.798,15.137,27.344,33.691,18.555,0.0,0
1581608766.802,17.578,17.09,27.344,21.484,0.0,0
1581608766.805,21.484,15.137,26.367,22.949,0.0,0
1581608766.809,21.973000000000006,17.578,24.414,21.484,0.0,0
1581608766.813,17.09,25.879,24.414,24.414,0.0,0
1581608766.8170002,7.324,27.344,20.02,29.297,0.0,0
1581608766.821,5.859,37.598,25.391,30.273000000000003,0.0,0
1581608766.823,13.672,44.922,27.832,23.926,0.0,0
1581608766.827,16.113,31.25,22.949,17.09,0.0,0
1581608766.831,19.531,27.344,26.855,18.555,0.0,0
1581608766.835,17.578,34.18,30.762,23.438,0.0,1
1581608766.839,15.625,30.762,32.715,18.066,0.0,0
1581608766.843,22.949,27.832,26.855,10.742,0.0,0
1581608766.847,20.02,9.277,26.367,15.625,0.0,0
1581608766.85,18.555,14.16,31.25,16.602,0.0,0
1581608766.854,20.508000000000006,35.156,27.344,10.254,0.0,0
1581608766.8579998,20.508000000000006,26.855,23.926,11.23,0.0,0
1581608766.8620002,24.902,22.949,20.02,17.578,0.0,0
1581608766.8660002,22.949,28.809,13.672,18.066,0.0,0
1581608766.867,25.879,38.086,21.973000000000006,20.02,0.0,0
1581608766.871,25.879,38.574,35.645,19.043,0.0,0
1581608766.875,29.785,30.762,34.668,15.137,0.0,0
1581608766.879,33.691,20.508000000000006,34.668,12.207,0.0,0
1581608766.883,18.066,23.438,36.133,10.742,0.0,0
1581608766.887,22.949,27.344,34.18,17.09,0.0,0
1581608766.891,29.297,28.32,37.598,19.531,0.0,0
1581608766.894,20.508000000000006,33.691,41.504,12.207,0.0,0
1581608766.8979998,19.531,26.367,37.598,5.371,0.0,0
1581608766.9020002,13.672,29.785,37.109,8.301,0.0,0
1581608766.906,18.066,23.926,44.434,16.113,0.0,0
1581608766.91,25.391,18.066,41.992,19.531,0.0,0
1581608766.913,21.973000000000006,19.531,33.203,15.625,0.0,0
1581608766.917,21.484,18.555,29.785,15.137,0.0,0
1581608766.921,20.996,31.738000000000003,35.156,22.949,0.0,0
1581608766.925,23.926,35.156,31.25,23.926,0.0,0
1581608766.929,28.32,29.297,25.391,23.926,0.0,0
1581608766.9329998,32.227,32.715,27.832,28.32,0.0,0
1581608766.937,34.668,36.133,27.832,26.855,0.0,0
1581608766.94,32.227,37.109,35.645,25.391,0.0,0
1581608766.944,28.32,31.738000000000003,42.48,25.879,0.0,0
1581608766.948,20.508000000000006,29.785,44.434,24.414,0.0,0
1581608766.952,17.578,25.391,40.039,22.949,0.0,0
1581608766.956,29.297,22.949,35.156,23.926,0.0,0
1581608766.958,30.273000000000003,37.109,33.203,27.832,0.0,0
1581608766.962,29.297,35.645,31.738000000000003,27.344,0.0,0
1581608766.966,34.668,23.438,28.32,23.926,0.0,0
1581608766.97,28.32,24.902,28.809,23.438,0.0,0
1581608766.974,22.461,29.785,32.227,23.926,0.0,0
1581608766.978,24.902,34.18,33.691,30.762,0.0,0
1581608766.982,20.996,29.297,41.992,28.32,0.0,0
1581608766.985,22.949,32.715,42.969,25.391,0.0,0
1581608766.9889998,25.391,24.902,35.645,26.855,0.0,0
1581608766.9929998,16.602,14.648,28.32,23.926,0.0,0
1581608766.9970002,12.695,20.996,28.809,24.902,0.0,0
1581608767.0010002,16.113,28.809,40.527,27.344,0.0,0
1581608767.018,20.508000000000006,28.809,41.01600000000001,28.32,0.0,0
1581608767.022,22.461,27.832,37.109,31.25,0.0,0
1581608767.026,20.996,24.414,39.551,29.785,0.0,0
1581608767.03,30.762,16.602,35.156,28.809,0.0,0
1581608767.034,36.133,23.438,28.32,27.344,0.0,0
1581608767.038,39.062,33.691,26.855,21.484,0.0,0
1581608767.042,40.527,33.203,29.785,16.113,0.0,0
1581608767.045,45.898,28.809,38.086,21.973000000000006,0.0,0
1581608767.049,48.34,27.832,40.527,31.738000000000003,0.0,0
1581608767.053,37.109,20.996,26.367,26.855,0.0,0
1581608767.0570002,35.645,22.949,23.438,37.109,0.0,0
1581608767.061,31.738000000000003,28.809,29.297,45.898,0.0,0
1581608767.063,25.391,23.438,22.461,43.457,0.0,0
1581608767.0670002,34.18,19.531,17.09,58.105,0.0,0
1581608767.071,42.48,12.695,27.344,59.57,0.0,0
1581608767.075,34.668,20.996,37.598,40.527,0.0,0
1581608767.079,24.902,36.621,37.109,20.02,0.0,0
1581608767.083,24.414,47.852,36.133,20.996,0.0,0
1581608767.087,22.949,41.504,30.273000000000003,24.902,0.0,0
1581608767.09,26.855,29.297,29.785,21.973000000000006,0.0,0
1581608767.094,31.738000000000003,26.855,26.855,23.438,0.0,0
1581608767.0979998,30.273000000000003,22.461,25.391,22.949,0.0,0
1581608767.1020002,27.832,20.02,26.367,23.926,0.0,0
1581608767.106,26.855,20.02,10.254,27.832,0.0,0
1581608767.1079998,37.598,32.227,8.301,30.273000000000003,0.0,0
1581608767.1120002,41.01600000000001,37.109,30.273000000000003,36.133,0.0,0
1581608767.1160002,32.227,27.344,40.039,25.879,0.0,0
1581608767.12,37.109,18.066,38.086,16.113,0.0,0
1581608767.1239998,37.109,13.672,40.527,21.973000000000006,0.0,0
1581608767.1279998,31.738000000000003,38.086,38.086,25.391,0.0,0
1581608767.1320002,26.855,46.875,30.273000000000003,20.996,0.0,0
1581608767.135,14.16,24.902,25.879,15.137,0.0,0
1581608767.139,20.996,26.367,17.578,18.066,0.0,0
1581608767.143,32.227,34.668,9.766,26.367,0.0,0
1581608767.147,22.461,23.438,18.555,34.668,0.0,0
1581608767.151,20.02,16.602,34.18,36.621,0.0,0
1581608767.153,25.879,26.855,35.645,22.461,0.0,0
1581608767.157,27.832,26.367,35.645,19.531,0.0,0
1581608767.161,32.227,31.738000000000003,36.133,26.855,0.0,0
1581608767.165,31.738000000000003,33.691,32.227,24.902,0.0,0
1581608767.169,37.598,20.508000000000006,27.344,28.809,0.0,0
1581608767.173,42.48,23.926,22.949,34.668,0.0,0
1581608767.177,29.785,42.48,22.461,22.461,0.0,0
1581608767.18,30.273000000000003,48.828,19.531,19.043,0.0,0
1581608767.184,29.785,30.273000000000003,19.043,24.902,0.0,0
1581608767.188,28.32,15.625,24.414,25.391,0.0,0
1581608767.1920002,25.879,15.137,27.344,21.973000000000006,0.0,0
1581608767.196,18.555,27.344,27.832,21.973000000000006,0.0,0
1581608767.198,9.277,41.01600000000001,26.855,15.137,0.0,0
1581608767.202,1.465,28.809,22.461,0.0,0.0,0
1581608767.206,7.324,26.855,22.461,-3.906,0.0,0
1581608767.21,17.09,35.645,21.484,2.441,0.0,0
1581608767.214,13.672,39.551,19.531,9.277,0.0,0
1581608767.218,11.23,36.621,21.484,10.254,0.0,0
1581608767.222,18.555,33.203,27.832,10.254,0.0,0
1581608767.225,17.09,19.531,31.738000000000003,10.742,0.0,0
1581608767.229,5.371,10.742,27.344,8.301,0.0,0
1581608767.2329998,3.418,20.02,24.902,14.16,0.0,0
1581608767.2370002,8.301,29.785,22.949,15.625,0.0,0
1581608767.2410002,10.742,35.156,24.414,14.16,0.0,0
1581608767.244,17.09,19.043,25.879,20.996,0.0,0
1581608767.248,20.508000000000006,17.578,27.832,22.949,0.0,0
1581608767.252,23.926,34.668,26.855,17.09,0.0,0
1581608767.256,27.832,31.25,22.461,18.555,0.0,0
1581608767.26,25.391,36.133,22.949,18.555,0.0,0
1581608767.264,21.973000000000006,31.738000000000003,23.438,14.648,0.0,0
1581608767.268,22.949,14.16,33.203,13.672,0.0,0
1581608767.271,23.926,17.578,40.527,12.695,0.0,0
1581608767.275,18.555,13.672,33.691,14.16,0.0,0
1581608767.279,19.531,26.855,29.297,22.461,0.0,0
1581608767.283,30.273000000000003,37.598,23.926,24.902,0.0,0
1581608767.2870002,24.414,25.391,20.02,19.043,0.0,0
1581608767.288,18.555,17.578,24.414,15.625,0.0,0
1581608767.292,27.344,21.484,25.391,23.926,0.0,0
1581608767.296,29.297,32.715,20.02,32.227,0.0,0
1581608767.3,40.527,27.344,24.414,25.879,0.0,0
1581608767.304,39.062,23.438,37.109,17.578,0.0,0
1581608767.3079998,25.391,36.133,35.156,16.113,0.0,0
1581608767.312,32.715,42.48,22.949,22.461,0.0,0
1581608767.315,36.621,41.992,24.414,28.32,0.0,0
1581608767.319,31.738000000000003,40.039,29.297,26.855,0.0,0
1581608767.323,31.25,32.227,27.344,20.996,0.0,0
1581608767.327,32.227,37.109,26.855,28.809,0.0,0
1581608767.331,32.715,32.227,27.832,38.086,0.0,0
1581608767.333,31.738000000000003,17.09,31.738000000000003,30.273000000000003,0.0,0
1581608767.337,29.297,23.926,25.879,29.785,0.0,0
1581608767.341,35.156,30.762,21.484,35.156,0.0,0
1581608767.345,39.551,22.461,20.02,35.156,0.0,0
1581608767.349,33.203,15.137,19.531,28.809,0.0,0
1581608767.353,25.879,17.578,28.32,26.855,0.0,0
1581608767.357,22.949,30.273000000000003,33.691,32.715,0.0,0
1581608767.36,22.461,31.25,27.832,29.785,0.0,0
1581608767.3639998,23.926,9.766,27.832,26.367,0.0,0
1581608767.3679998,25.391,10.254,28.32,26.367,0.0,0
1581608767.3720002,21.484,32.715,31.25,26.855,0.0,0
1581608767.3760002,24.414,35.156,29.297,25.879,0.0,0
1581608767.394,23.926,29.297,20.02,22.949,0.0,0
1581608767.3979998,19.531,28.32,23.926,27.832,0.0,0
1581608767.4020002,24.902,20.02,20.508000000000006,30.762,0.0,0
1581608767.406,29.785,30.273000000000003,26.855,26.855,0.0,0
1581608767.41,17.578,38.574,35.645,20.508000000000006,0.0,0
1581608767.414,11.719,25.391,27.344,21.973000000000006,0.0,0
1581608767.418,17.09,25.391,25.391,19.043,0.0,0
1581608767.421,19.043,28.32,16.602,12.695,0.0,0
1581608767.425,21.973000000000006,20.996,18.066,12.695,0.0,0
1581608767.429,19.043,19.531,36.133,6.836,0.0,0
1581608767.4329998,10.254,23.438,35.156,2.441,0.0,0
1581608767.437,9.766,18.066,20.996,3.906,0.0,0
1581608767.438,8.301,21.484,18.555,4.883,0.0,0
1581608767.4420002,12.207,31.25,24.902,5.371,0.0,0
1581608767.446,16.602,32.227,32.227,6.836,0.0,0
1581608767.45,2.441,25.391,33.691,10.254,0.0,0
1581608767.454,16.113,26.367,20.996,19.043,0.0,0
1581608767.458,25.879,41.01600000000001,12.695,20.02,0.0,0
1581608767.462,25.879,29.785,30.273000000000003,24.414,0.0,0
1581608767.465,27.344,10.742,41.01600000000001,24.414,0.0,0
1581608767.469,20.02,7.324,31.25,16.113,0.0,0
1581608767.4729998,23.926,25.879,21.484,16.113,0.0,0
1581608767.4770002,33.203,43.457,20.508000000000006,25.879,0.0,0
1581608767.481,34.668,31.738000000000003,29.785,31.738000000000003,0.0,0
1581608767.4829998,24.414,18.555,40.527,23.926,0.0,0
1581608767.4870002,19.043,20.02,39.551,25.879,0.0,0
1581608767.4910002,19.043,26.855,28.32,23.926,0.0,0
1581608767.495,22.461,32.715,21.973000000000006,20.996,0.0,0
1581608767.4989998,19.531,39.551,17.578,26.367,0.0,0
1581608767.5029998,11.23,28.809,16.113,21.484,0.0,0
1581608767.5070002,13.672,19.531,19.043,19.531,0.0,0
1581608767.51,18.066,20.996,26.855,14.16,0.0,0
1581608767.514,16.602,25.391,42.48,14.16,0.0,0
1581608767.518,14.648,25.391,43.945,18.555,0.0,0
1581608767.522,8.789,25.391,30.762,16.113,0.0,0
1581608767.526,2.441,26.367,17.578,16.602,0.0,0
1581608767.528,8.301,27.832,11.23,15.137,0.0,0
1581608767.532,13.184,32.227,17.578,7.324,0.0,0
1581608767.536,16.602,24.414,23.926,6.836,0.0,0
1581608767.54,23.438,15.137,26.367,13.184,0.0,0
1581608767.544,19.531,15.137,33.691,8.301,0.0,0
1581608767.548,19.043,20.996,36.621,12.695,0.0,0
1581608767.552,25.879,24.902,31.738000000000003,20.02,0.0,0
1581608767.555,22.949,17.09,18.066,24.414,0.0,0
1581608767.559,29.297,8.789,21.484,22.949,0.0,0
1581608767.563,29.785,17.09,34.18,20.02,0.0,0
1581608767.5670002,22.949,41.992,31.738000000000003,22.949,0.0,0
1581608767.571,27.344,52.246,21.973000000000006,21.973000000000006,0.0,0
1581608767.573,28.809,29.785,21.973000000000006,18.066,0.0,0
1581608767.577,28.32,19.531,28.809,21.484,0.0,0
1581608767.581,21.973000000000006,25.879,31.738000000000003,29.785,0.0,0
1581608767.585,24.902,29.785,32.715,27.832,0.0,0
1581608767.589,37.598,25.879,26.855,26.367,0.0,0
1581608767.593,36.133,27.832,23.438,33.203,0.0,0
1581608767.597,28.32,19.531,24.414,32.227,0.0,0
1581608767.6,33.691,3.906,35.645,32.227,0.0,0
1581608767.604,35.645,19.531,38.086,28.809,0.0,0
1581608767.6079998,28.809,37.598,29.785,25.391,0.0,0
1581608767.6120002,20.508000000000006,42.48,32.715,29.785,0.0,0
1581608767.6160002,16.113,41.01600000000001,24.902,25.879,0.0,0
1581608767.6179998,24.902,31.738000000000003,24.902,24.902,0.0,0
1581608767.6220002,32.715,29.297,27.832,28.809,0.0,0
1581608767.6260002,26.367,26.367,20.996,25.391,0.0,0
1581608767.63,18.066,13.672,21.484,21.973000000000006,0.0,0
1581608767.6339998,19.531,10.742,26.367,23.438,0.0,0
1581608767.6379998,20.996,17.09,27.344,20.996,0.0,0
1581608767.6420002,13.672,24.902,17.578,18.066,0.0,0
1581608767.645,16.113,24.414,20.02,15.625,0.0,0
1581608767.649,21.973000000000006,30.762,27.344,17.578,0.0,0
1581608767.653,14.648,34.18,28.809,14.648,0.0,0
1581608767.657,16.113,32.227,22.461,16.602,0.0,0
1581608767.661,16.113,34.18,12.695,29.297,0.0,0
1581608767.663,4.395,19.043,17.09,24.902,0.0,0
1581608767.667,19.043,14.648,30.762,18.066,0.0,0
1581608767.671,31.738000000000003,22.949,31.738000000000003,21.484,0.0,0
1581608767.675,28.809,22.461,26.855,20.508000000000006,0.0,0
1581608767.679,24.902,29.297,33.203,16.602,0.0,0
1581608767.6829998,23.438,41.504,35.156,18.555,0.0,0
1581608767.687,21.973000000000006,41.504,30.762,14.648,0.0,0
1581608767.69,19.043,33.203,34.668,8.301,0.0,0
1581608767.694,20.508000000000006,31.25,29.785,13.672,0.0,0
1581608767.698,25.391,28.809,16.602,18.555,0.0,0
1581608767.702,24.902,33.203,26.367,17.09,0.0,0
1581608767.706,25.879,24.902,32.715,23.438,0.0,0
1581608767.708,25.879,7.324,21.484,24.414,0.0,0
1581608767.712,21.484,15.625,23.438,24.902,0.0,0
1581608767.716,17.09,12.695,34.18,23.438,0.0,0
1581608767.72,11.719,-0.488,39.062,18.066,0.0,0
1581608767.724,13.672,20.508000000000006,39.551,19.531,0.0,0
1581608767.728,19.531,39.062,31.738000000000003,20.508000000000006,0.0,0
1581608767.732,13.672,37.109,21.484,15.625,0.0,0
1581608767.735,8.301,33.203,24.414,12.695,0.0,0
1581608767.7389998,15.625,23.926,30.762,16.113,0.0,0
1581608767.7429998,10.742,24.902,29.785,15.625,0.0,0
1581608767.7470002,10.742,37.598,34.668,14.648,0.0,0
1581608767.7510002,20.02,32.715,38.574,15.137,0.0,0
1581608767.752,22.949,10.742,23.926,19.531,0.0,0
1581608767.756,25.391,11.719,14.16,27.832,0.0,0
1581608767.76,23.926,21.973000000000006,17.09,29.785,0.0,0
1581608767.764,24.414,33.691,28.32,24.902,0.0,0
1581608767.768,23.926,41.992,41.992,20.508000000000006,0.0,0
1581608767.772,21.484,39.062,40.039,21.484,0.0,0
1581608767.776,19.043,41.992,30.273000000000003,15.137,0.0,0
1581608767.779,19.531,30.762,27.832,12.207,0.0,0
1581608767.783,20.02,14.16,27.344,11.23,0.0,0
1581608767.7870002,13.672,22.949,28.809,14.648,0.0,0
1581608767.791,17.09,26.855,30.273000000000003,21.973000000000006,0.0,0
1581608767.795,24.902,17.578,19.531,19.043,0.0,0
1581608767.813,23.926,14.16,13.672,22.461,0.0,0
1581608767.8170002,20.508000000000006,21.973000000000006,21.973000000000006,19.043,0.0,0
1581608767.821,20.996,29.785,37.598,14.648,0.0,0
1581608767.825,19.531,30.273000000000003,41.504,20.996,0.0,0
1581608767.829,22.949,37.109,32.715,29.297,0.0,0
1581608767.833,23.926,36.621,34.18,25.879,0.0,0
1581608767.837,16.113,24.414,30.762,20.508000000000006,0.0,0
1581608767.84,15.625,20.02,22.461,18.066,0.0,0
1581608767.844,17.09,14.16,26.367,15.625,0.0,0
1581608767.8479998,17.09,13.184,25.391,16.113,0.0,0
1581608767.8520002,18.066,20.996,11.23,13.672,0.0,0
1581608767.856,19.531,16.602,17.578,17.578,0.0,0
1581608767.8579998,24.902,10.254,34.668,24.902,0.0,0
1581608767.8620002,27.344,22.461,30.273000000000003,27.344,0.0,0
1581608767.8660002,17.09,30.273000000000003,17.578,19.531,0.0,0
1581608767.87,10.254,27.344,21.484,20.02,0.0,0
1581608767.8739998,20.02,36.621,29.297,24.414,0.0,0
1581608767.8779998,23.926,41.504,34.668,18.066,0.0,0
1581608767.8820002,22.949,32.227,33.691,17.09,0.0,0
1581608767.885,20.996,31.25,20.996,13.672,0.0,1
1581608767.889,23.438,28.809,25.391,13.672,0.0,0
1581608767.893,22.461,16.602,35.156,11.719,0.0,0
1581608767.897,22.949,16.113,34.668,11.23,0.0,0
1581608767.901,31.738000000000003,15.137,25.391,23.926,0.0,0
1581608767.9020002,33.203,20.02,20.02,28.809,0.0,0
1581608767.906,25.391,20.508000000000006,24.414,19.531,0.0,0
1581608767.91,17.578,10.254,24.902,12.207,0.0,0
1581608767.914,20.508000000000006,30.273000000000003,28.32,13.672,0.0,0
1581608767.918,22.461,53.71100000000001,24.414,14.16,0.0,0
1581608767.9220002,19.531,52.246,23.438,11.23,0.0,0
1581608767.926,21.973000000000006,35.156,33.203,12.695,0.0,0
1581608767.929,19.531,28.809,37.109,20.02,0.0,0
1581608767.9329998,15.137,29.785,30.273000000000003,20.996,0.0,0
1581608767.937,19.043,23.438,25.879,20.996,0.0,0
1581608767.941,20.02,20.02,25.391,19.043,0.0,0
1581608767.945,18.555,22.461,29.297,18.555,0.0,0
1581608767.948,17.578,20.996,38.574,21.484,0.0,0
1581608767.952,17.578,13.672,37.598,22.461,0.0,0
1581608767.956,18.555,16.602,28.809,21.973000000000006,0.0,0
1581608767.96,11.719,26.855,24.902,21.484,0.0,0
1581608767.964,16.602,32.227,23.438,23.438,0.0,0
1581608767.968,24.902,30.273000000000003,28.809,15.625,0.0,0
1581608767.972,23.438,29.785,32.227,10.742,0.0,0
1581608767.975,12.695,19.531,32.715,14.16,0.0,0
1581608767.979,5.371,16.602,41.504,18.066,0.0,0
1581608767.9829998,18.066,19.531,37.109,16.602,0.0,0
1581608767.9870002,22.949,28.32,22.461,21.973000000000006,0.0,0
1581608767.9910002,20.508000000000006,22.949,25.391,21.484,0.0,0
1581608767.9929998,20.02,13.672,25.391,16.113,0.0,0
1581608767.9970002,22.949,34.668,31.738000000000003,18.555,0.0,0
1581608768.0010002,27.832,41.01600000000001,43.457,19.043,0.0,0
1581608768.005,30.762,22.461,33.691,16.113,0.0,0
1581608768.0089998,27.344,20.02,23.926,11.23,0.0,0
1581608768.0129998,21.973000000000006,18.066,29.297,15.137,0.0,0
1581608768.0170002,18.555,15.137,25.879,16.602,0.0,0
1581608768.02,21.484,25.879,26.367,15.137,0.0,0
1581608768.024,20.996,25.879,34.18,14.16,0.0,0
1581608768.028,18.555,21.973000000000006,30.762,19.043,0.0,0
1581608768.032,27.344,26.855,32.227,25.879,0.0,0
1581608768.036,30.762,34.18,37.109,22.949,0.0,0
1581608768.038,27.832,34.668,30.762,19.043,0.0,0
1581608768.042,23.926,25.391,29.785,17.09,0.0,0
1581608768.046,23.438,21.973000000000006,36.621,20.996,0.0,0
1581608768.05,23.438,34.668,24.414,22.949,0.0,0
1581608768.054,20.02,39.062,13.672,18.066,0.0,0
1581608768.0579998,23.438,38.574,17.578,26.367,0.0,0
1581608768.062,25.879,39.062,31.738000000000003,33.203,0.0,0
1581608768.065,24.902,28.809,37.109,24.414,0.0,0
1581608768.069,29.297,19.043,29.297,27.832,0.0,0
1581608768.073,31.738000000000003,18.555,27.832,32.715,0.0,0
1581608768.077,24.414,12.695,26.367,29.785,0.0,0
1581608768.081,28.32,11.719,30.762,32.227,0.0,0
1581608768.083,38.574,29.785,37.109,28.32,0.0,0
1581608768.087,38.086,32.227,37.598,26.855,0.0,0
1581608768.091,29.297,21.973000000000006,26.367,29.297,0.0,0
1581608768.095,28.809,23.438,17.09,29.785,0.0,0
1581608768.099,36.621,34.18,27.832,30.762,0.0,0
1581608768.103,32.227,35.156,33.691,38.086,0.0,0
1581608768.107,33.203,39.062,35.645,31.738000000000003,0.0,0
1581608768.11,35.645,37.109,42.969,21.973000000000006,0.0,0
1581608768.1139998,32.715,19.531,36.621,27.344,0.0,0
1581608768.1179998,33.203,17.578,28.809,21.973000000000006,0.0,0
1581608768.1220002,25.879,25.879,22.461,18.555,0.0,0
1581608768.1260002,25.391,28.32,15.137,19.531,0.0,0
1581608768.143,28.32,26.367,23.926,16.113,0.0,0
1581608768.147,25.879,30.762,37.598,18.555,0.0,0
1581608768.151,29.297,40.039,37.109,18.555,0.0,0
1581608768.155,28.32,41.504,41.504,17.578,0.0,0
1581608768.159,25.391,36.133,37.598,16.113,0.0,0
1581608768.163,27.832,30.762,21.973000000000006,11.23,0.0,0
1581608768.167,39.062,40.039,27.344,14.16,0.0,0
1581608768.17,40.039,28.809,28.32,21.484,0.0,0
1581608768.174,33.691,2.441,24.414,17.09,0.0,0
1581608768.178,24.414,14.648,26.855,7.812,0.0,0
1581608768.1820002,16.113,26.855,24.414,9.277,0.0,0
1581608768.186,10.742,23.926,25.879,13.672,0.0,0
1581608768.188,10.254,32.715,30.273000000000003,20.02,0.0,0
1581608768.1920002,12.695,27.832,38.574,21.484,0.0,0
1581608768.196,15.137,21.973000000000006,39.062,23.438,0.0,0
1581608768.2,17.09,27.832,28.32,25.879,0.0,0
1581608768.204,9.766,29.785,21.484,21.973000000000006,0.0,0
1581608768.208,7.324,32.715,31.25,26.855,0.0,0
1581608768.212,17.09,39.551,42.48,32.227,0.0,0
1581608768.215,23.926,36.621,43.457,35.156,0.0,0
1581608768.219,26.367,25.879,42.48,35.156,0.0,0
1581608768.2229998,33.691,19.043,42.48,26.367,0.0,0
1581608768.2270002,32.227,21.973000000000006,33.691,23.926,0.0,0
1581608768.231,29.785,32.715,25.879,26.367,0.0,0
1581608768.2329998,36.133,19.531,26.855,23.438,0.0,0
1581608768.2370002,39.062,8.789,25.879,26.367,0.0,0
1581608768.2410002,28.809,19.043,30.273000000000003,28.809,0.0,0
1581608768.245,20.02,31.738000000000003,35.645,25.391,0.0,0
1581608768.2489998,12.695,35.156,37.109,18.555,0.0,0
1581608768.2529998,11.719,32.227,35.156,13.184,0.0,0
1581608768.2570002,17.578,37.598,35.645,13.184,0.0,0
1581608768.26,19.531,30.273000000000003,36.133,16.113,0.0,0
1581608768.264,19.043,24.414,32.227,9.277,0.0,0
1581608768.268,22.461,36.133,25.391,4.395,0.0,0
1581608768.272,19.531,30.273000000000003,18.066,14.16,0.0,0
1581608768.276,22.461,14.648,26.855,16.602,0.0,0
1581608768.278,23.926,10.254,33.203,12.207,0.0,0
1581608768.282,17.09,25.879,34.18,14.648,0.0,0
1581608768.286,17.09,32.715,41.01600000000001,19.531,0.0,0
1581608768.29,25.391,23.926,41.504,23.438,0.0,0
1581608768.294,22.461,24.902,41.504,20.02,0.0,0
1581608768.298,18.555,13.672,33.691,19.043,0.0,0
1581608768.302,12.207,6.348,17.09,14.648,0.0,0
1581608768.305,7.812,18.555,19.531,12.695,0.0,0
1581608768.309,16.113,33.203,32.715,15.137,0.0,0
1581608768.313,15.625,34.668,29.785,12.695,0.0,0
1581608768.3170002,12.207,27.832,24.414,9.277,0.0,0
1581608768.321,19.531,26.367,25.391,14.648,0.0,0
1581608768.323,28.32,36.621,29.785,19.531,0.0,0
1581608768.327,32.227,37.598,27.344,18.555,0.0,0
1581608768.331,33.203,30.273000000000003,19.043,24.902,0.0,0
1581608768.335,25.879,34.18,29.297,24.902,0.0,0
1581608768.339,30.273000000000003,31.25,37.109,22.949,0.0,0
1581608768.343,35.156,29.785,41.992,23.926,0.0,0
1581608768.347,28.32,20.02,37.598,23.438,0.0,0
1581608768.35,28.32,20.996,26.367,24.902,0.0,0
1581608768.354,36.133,34.18,25.879,19.531,0.0,0
1581608768.3579998,40.527,34.668,22.461,18.555,0.0,0
1581608768.3620002,38.086,42.48,19.531,26.855,0.0,0
1581608768.3660002,33.203,42.969,14.16,23.438,0.0,0
1581608768.369,27.832,36.621,22.949,12.207,0.0,0
1581608768.373,24.414,34.18,36.133,15.625,0.0,0
1581608768.377,27.832,25.391,36.621,27.832,0.0,0
1581608768.381,25.391,24.414,33.203,27.832,0.0,0
1581608768.385,25.391,27.832,28.32,24.902,0.0,0
1581608768.389,26.367,9.766,26.367,26.855,0.0,0
1581608768.393,30.273000000000003,10.742,18.066,29.297,0.0,0
1581608768.396,32.227,35.645,2.93,34.668,0.0,0
1581608768.4,29.785,35.156,3.906,24.414,0.0,0
1581608768.404,31.738000000000003,26.855,21.973000000000006,20.508000000000006,0.0,0
1581608768.408,31.25,34.668,37.109,21.973000000000006,0.0,0
1581608768.4120002,27.344,37.109,38.574,22.461,0.0,0
1581608768.413,24.902,20.996,32.715,16.113,0.0,0
1581608768.417,28.32,18.066,31.738000000000003,17.09,0.0,0
1581608768.421,31.25,19.043,34.18,23.438,0.0,0
1581608768.425,29.297,22.461,29.297,20.508000000000006,0.0,0
1581608768.429,34.18,32.715,12.695,23.926,0.0,0
1581608768.4329998,35.645,31.25,7.812,24.902,0.0,0
1581608768.437,28.32,31.25,18.555,19.043,0.0,0
1581608768.44,25.391,29.785,23.926,16.113,0.0,0
1581608768.444,22.949,29.297,24.902,14.648,0.0,0
1581608768.448,21.973000000000006,27.832,23.926,17.09,0.0,0
1581608768.452,22.949,31.738000000000003,23.438,15.625,0.0,0
1581608768.456,24.902,26.855,24.902,12.207,0.0,0
1581608768.458,31.25,10.742,20.02,16.602,0.0,0
1581608768.462,29.785,17.09,15.137,21.484,0.0,0
1581608768.466,24.902,30.273000000000003,11.23,21.484,0.0,0
1581608768.47,23.438,32.227,8.789,21.973000000000006,0.0,0
1581608768.474,24.902,35.156,17.09,21.484,0.0,0
1581608768.478,25.879,24.902,26.367,23.926,0.0,0
1581608768.482,29.785,19.531,26.367,28.32,0.0,0
1581608768.485,28.32,29.297,23.438,29.785,0.0,0
1581608768.4889998,20.996,26.855,20.996,31.738000000000003,0.0,0
1581608768.4929998,29.785,30.762,22.461,32.715,0.0,0
1581608768.4970002,29.297,32.715,23.926,32.227,0.0,0
1581608768.5010002,22.461,32.715,19.043,29.297,0.0,0
1581608768.5029998,20.508000000000006,29.297,19.043,30.273000000000003,0.0,0
1581608768.5070002,20.508000000000006,15.137,14.648,31.738000000000003,0.0,0
1581608768.5110002,24.902,28.809,20.02,26.367,0.0,0
1581608768.515,25.879,35.156,34.18,24.902,0.0,0
1581608768.519,20.02,13.672,28.32,21.973000000000006,0.0,0
1581608768.5229998,18.555,17.09,27.344,23.926,0.0,0
1581608768.5270002,21.484,35.156,33.203,18.555,0.0,0
1581608768.53,19.043,43.945,23.926,17.09,0.0,0
1581608768.534,16.602,38.574,17.09,20.508000000000006,0.0,0
1581608768.538,24.414,16.602,19.043,18.066,0.0,0
1581608768.542,24.414,11.719,21.484,16.602,0.0,0
1581608768.546,20.508000000000006,33.203,27.832,18.066,0.0,0
1581608768.563,24.414,40.039,24.414,20.508000000000006,0.0,0
1581608768.5670002,26.855,22.461,25.879,18.555,0.0,0
1581608768.571,22.461,20.02,36.133,19.531,0.0,0
1581608768.575,19.531,35.156,35.645,22.949,0.0,0
1581608768.579,20.508000000000006,38.086,28.32,20.02,0.0,0
1581608768.583,22.461,28.32,27.344,17.09,0.0,0
1581608768.587,21.973000000000006,20.996,28.809,19.531,0.0,0
1581608768.59,20.508000000000006,26.367,19.531,24.414,0.0,0
1581608768.594,32.715,27.344,27.344,36.133,0.0,0
1581608768.5979998,23.926,25.879,39.551,28.32,0.0,0
1581608768.6020002,9.277,26.855,27.344,8.301,0.0,0
1581608768.606,13.184,35.156,23.926,14.16,0.0,0
1581608768.6079998,20.02,35.156,36.133,27.344,0.0,0
1581608768.6120002,22.461,18.555,34.668,29.297,0.0,0
1581608768.6160002,14.648,18.066,21.484,22.461,0.0,0
1581608768.62,10.254,15.137,14.16,19.531,0.0,0
1581608768.6239998,13.672,8.301,14.16,23.926,0.0,0
1581608768.6279998,20.02,15.625,21.484,24.902,0.0,0
1581608768.6320002,28.809,30.273000000000003,35.156,25.391,0.0,0
1581608768.635,26.367,31.738000000000003,36.621,18.066,0.0,0
1581608768.639,20.02,29.785,26.367,9.766,0.0,0
1581608768.643,23.926,33.203,22.949,12.695,0.0,0
1581608768.647,25.879,34.18,26.367,18.066,0.0,0
1581608768.651,20.508000000000006,32.227,33.203,20.508000000000006,0.0,0
1581608768.653,23.926,31.738000000000003,31.25,18.066,0.0,0
1581608768.657,28.809,32.227,14.648,18.555,0.0,0
1581608768.661,19.043,26.367,21.973000000000006,21.973000000000006,0.0,0
1581608768.665,19.043,26.367,39.062,29.785,0.0,0
1581608768.669,23.438,30.762,36.133,25.391,0.0,0
1581608768.673,19.043,22.949,31.738000000000003,18.555,0.0,0
1581608768.677,17.578,10.742,35.156,21.973000000000006,0.0,0
1581608768.68,18.066,15.625,38.574,17.09,0.0,0
1581608768.684,15.137,28.32,31.738000000000003,13.672,0.0,0
1581608768.688,14.16,33.203,19.531,15.137,0.0,0
1581608768.6920002,16.602,35.156,23.926,16.113,0.0,0
1581608768.696,16.602,27.832,31.25,22.461,0.0,0
1581608768.699,14.648,21.484,26.367,22.949,0.0,0
1581608768.7029998,18.555,30.762,32.715,19.531,0.0,0
1581608768.707,25.391,36.133,35.645,23.438,0.0,0
1581608768.711,22.949,27.832,31.738000000000003,24.902,0.0,0
1581608768.715,22.461,20.02,36.621,20.02,0.0,0
1581608768.719,22.461,11.719,28.32,15.137,0.0,0
1581608768.7229998,27.832,16.113,23.438,18.555,0.0,0
1581608768.726,28.32,30.762,30.762,31.738000000000003,0.0,0
1581608768.73,27.832,34.668,28.809,31.25,0.0,0
1581608768.734,28.32,23.438,25.391,19.043,0.0,0
1581608768.738,24.414,25.879,29.297,17.578,0.0,0
1581608768.742,20.996,37.598,37.598,18.555,0.0,0
1581608768.7429998,22.461,35.156,38.574,16.113,0.0,0
1581608768.7470002,20.02,25.391,38.574,22.461,0.0,0
1581608768.7510002,10.254,14.648,35.156,20.02,0.0,0
1581608768.755,17.09,19.531,23.438,19.531,0.0,0
1581608768.7589998,22.461,31.738000000000003,18.555,26.367,0.0,0
1581608768.7629998,20.508000000000006,25.879,26.367,29.785,0.0,0
1581608768.7670002,19.043,10.742,39.551,21.484,0.0,0
1581608768.77,14.648,17.09,39.062,7.324,0.0,0
1581608768.774,25.391,19.043,29.785,13.184,0.0,0
1581608768.778,27.344,18.066,31.25,19.531,0.0,0
1581608768.782,21.484,26.855,31.738000000000003,19.531,0.0,0
1581608768.786,21.973000000000006,19.043,31.738000000000003,22.949,0.0,0
1581608768.7870002,25.391,23.438,34.668,18.066,0.0,0
1581608768.791,23.438,34.668,25.391,18.555,0.0,0
1581608768.795,19.043,33.691,23.926,25.391,0.0,0
1581608768.799,24.902,23.438,36.621,25.391,0.0,0
1581608768.803,28.32,16.113,41.01600000000001,31.738000000000003,0.0,0
1581608768.8070002,23.438,21.973000000000006,37.598,29.785,0.0,0
1581608768.811,23.926,34.18,30.762,25.391,0.0,0
1581608768.814,25.879,37.109,27.832,25.391,0.0,0
1581608768.8179998,22.461,34.18,30.273000000000003,25.391,0.0,0
1581608768.822,18.555,34.668,27.344,19.531,0.0,0
1581608768.826,16.602,19.043,27.344,20.508000000000006,0.0,0
1581608768.83,22.949,12.695,36.133,32.715,0.0,0
1581608768.833,30.273000000000003,20.508000000000006,36.133,39.062,0.0,0
1581608768.837,27.832,20.996,29.785,35.156,0.0,0
1581608768.841,22.461,27.832,25.879,28.32,0.0,0
1581608768.845,18.555,34.668,35.645,28.32,0.0,0
1581608768.849,19.531,28.32,41.992,29.785,0.0,0
1581608768.853,22.461,17.578,25.391,28.809,0.0,0
1581608768.857,22.461,28.32,20.02,26.855,0.0,0
1581608768.86,17.09,39.551,20.996,23.926,0.0,0
1581608768.8639998,18.555,27.344,21.973000000000006,22.461,0.0,0
1581608768.8679998,20.508000000000006,14.16,31.738000000000003,22.949,0.0,0
1581608768.8720002,20.508000000000006,19.531,39.062,26.855,0.0,0
1581608768.8760002,21.973000000000006,29.785,37.598,24.414,0.0,0
1581608768.8779998,22.949,28.809,30.762,21.484,0.0,0
1581608768.8820002,31.738000000000003,20.02,25.879,25.391,0.0,0
1581608768.8860002,28.809,17.578,26.855,27.832,0.0,0
1581608768.89,22.461,20.996,26.367,20.996,0.0,0
1581608768.894,23.926,26.855,27.832,21.973000000000006,0.0,0
1581608768.8979998,25.391,32.227,25.879,17.09,0.0,0
1581608768.9020002,35.156,33.203,24.902,18.555,0.0,0
1581608768.905,36.621,42.48,31.738000000000003,22.949,0.0,0
1581608768.909,20.996,36.133,23.926,8.301,0.0,0
1581608768.913,23.438,27.832,27.344,11.719,0.0,0
1581608768.917,31.25,21.484,36.133,16.602,0.0,0
1581608768.921,28.809,11.23,30.273000000000003,19.531,0.0,0
1581608768.938,22.949,19.531,29.297,32.227,0.0,0
1581608768.9420002,17.578,21.973000000000006,32.227,26.367,0.0,0
1581608768.946,19.043,20.508000000000006,23.438,14.16,0.0,0
1581608768.95,20.996,15.625,28.809,12.695,0.0,2
1581608768.954,14.16,32.715,39.551,11.23,0.0,0
1581608768.958,16.602,47.852,36.621,12.207,0.0,0
1581608768.962,18.555,40.039,33.203,13.184,0.0,0
1581608768.965,17.578,35.645,36.621,17.09,0.0,0
1581608768.969,25.391,27.832,34.18,21.484,0.0,0
1581608768.9729998,25.879,24.902,19.043,20.508000000000006,0.0,0
1581608768.9770002,23.926,26.367,15.137,17.09,0.0,0
1581608768.981,19.043,29.297,28.32,14.648,0.0,0
1581608768.984,13.672,24.902,38.086,20.508000000000006,0.0,0
1581608768.988,20.02,16.113,40.527,28.32,0.0,0
1581608768.992,16.113,17.09,40.039,25.879,0.0,0
1581608768.996,18.066,26.855,40.527,23.926,0.0,0
1581608769.0,18.555,27.344,38.574,20.508000000000006,0.0,0
1581608769.004,17.09,31.25,29.785,22.461,0.0,0
1581608769.008,13.184,30.762,20.996,25.879,0.0,0
1581608769.0110002,9.277,25.879,29.297,18.066,0.0,0
1581608769.015,17.09,39.551,39.062,21.484,0.0,0
1581608769.019,19.043,37.598,32.715,19.043,0.0,0
1581608769.0229998,13.184,19.043,34.18,11.23,0.0,0
1581608769.0270002,9.766,14.16,38.574,13.672,0.0,0
1581608769.028,13.672,19.043,39.551,16.113,0.0,0
1581608769.032,22.461,31.25,41.01600000000001,17.578,0.0,0
1581608769.036,21.973000000000006,30.762,33.691,18.555,0.0,0
1581608769.04,20.02,24.414,20.996,18.066,0.0,0
1581608769.044,27.832,35.156,20.02,24.414,0.0,0
1581608769.048,23.438,40.039,25.391,27.832,0.0,0
1581608769.052,31.25,24.902,22.949,31.25,0.0,0
1581608769.055,41.01600000000001,20.508000000000006,24.414,24.902,0.0,0
1581608769.059,30.273000000000003,37.598,29.785,17.09,0.0,0
1581608769.063,26.855,32.715,31.25,19.043,0.0,0
1581608769.0670002,24.902,25.879,31.738000000000003,20.996,0.0,0
1581608769.071,23.926,31.738000000000003,26.855,29.297,0.0,0
1581608769.073,28.809,26.855,23.438,29.297,0.0,0
1581608769.077,29.297,26.855,22.461,20.508000000000006,0.0,0
1581608769.081,22.461,32.227,18.555,22.461,0.0,0
1581608769.085,20.508000000000006,30.762,22.949,23.438,0.0,0
1581608769.089,21.484,26.367,36.621,18.066,0.0,0
1581608769.093,21.484,24.414,41.504,21.484,0.0,0
1581608769.097,25.879,26.855,34.18,24.902,0.0,0
1581608769.1,25.391,21.484,30.273000000000003,19.531,0.0,0
1581608769.104,32.227,15.625,36.133,22.949,0.0,0
1581608769.1079998,34.18,21.484,30.762,36.621,0.0,0
1581608769.1120002,23.926,20.996,21.973000000000006,34.668,0.0,0
1581608769.1160002,17.09,27.832,22.949,29.785,0.0,0
1581608769.1179998,18.555,35.156,20.996,35.645,0.0,0
1581608769.1220002,25.879,26.855,31.25,38.574,0.0,0
1581608769.1260002,25.391,21.973000000000006,40.039,35.156,0.0,0
1581608769.13,29.297,23.438,38.574,28.809,0.0,0
1581608769.1339998,38.086,23.926,37.598,27.344,0.0,0
1581608769.1379998,31.738000000000003,25.879,32.715,24.414,0.0,0
1581608769.1420002,23.438,22.461,28.32,24.414,0.0,0
1581608769.145,28.32,27.832,33.203,26.855,0.0,0
1581608769.149,24.902,25.879,25.391,24.902,0.0,0
1581608769.153,27.832,12.695,20.508000000000006,28.32,0.0,0
1581608769.157,32.227,27.344,36.621,32.227,0.0,0
1581608769.161,27.832,34.668,47.852,35.645,0.0,0
1581608769.163,31.25,20.508000000000006,45.898,29.297,0.0,0
1581608769.167,28.809,13.672,41.01600000000001,27.344,0.0,0
1581608769.171,24.414,30.762,39.062,33.691,0.0,0
1581608769.175,32.715,31.738000000000003,24.414,30.273000000000003,0.0,0
1581608769.179,33.203,22.949,18.555,37.598,0.0,0
1581608769.1829998,33.691,31.25,32.715,38.086,0.0,0
1581608769.187,32.227,32.715,30.762,24.414,0.0,0
1581608769.19,26.855,16.602,18.555,20.508000000000006,0.0,0
1581608769.194,27.344,4.883,21.484,25.879,0.0,0
1581608769.198,30.273000000000003,26.855,32.715,27.832,0.0,0
1581608769.202,27.344,44.922,32.227,32.227,0.0,0
1581608769.206,20.508000000000006,41.504,17.578,29.297,0.0,0
1581608769.208,25.391,36.133,14.648,22.949,0.0,0
1581608769.212,27.832,23.438,30.273000000000003,31.738000000000003,0.0,0
1581608769.216,28.32,8.789,31.25,38.086,0.0,0
1581608769.22,36.621,21.973000000000006,22.949,33.691,0.0,0
1581608769.224,28.809,40.039,28.809,20.996,0.0,0
1581608769.228,17.09,39.062,35.156,15.137,0.0,0
1581608769.232,21.484,26.855,27.832,12.695,0.0,0
1581608769.235,28.32,18.555,17.09,10.254,0.0,0
1581608769.2389998,26.367,18.555,15.625,9.277,0.0,0
1581608769.2429998,25.879,25.879,13.184,4.883,0.0,0
1581608769.2470002,32.715,39.551,22.461,5.371,0.0,0
1581608769.2510002,32.715,33.691,28.32,8.789,0.0,0
1581608769.2529998,23.926,26.855,22.461,12.695,0.0,0
1581608769.2570002,22.949,22.949,29.297,16.602,0.0,0
1581608769.2610002,23.438,12.695,35.645,16.113,0.0,0
1581608769.265,25.391,15.625,28.32,18.555,0.0,0
1581608769.269,23.926,22.461,21.973000000000006,16.602,0.0,0
1581608769.2729998,18.066,19.531,32.227,21.484,0.0,0
1581608769.2770002,20.02,24.414,40.527,31.738000000000003,0.0,0
1581608769.28,18.555,27.344,30.273000000000003,31.738000000000003,0.0,0
1581608769.284,12.695,24.414,22.461,24.902,0.0,0
1581608769.288,16.602,25.391,32.715,30.273000000000003,0.0,0
1581608769.292,20.996,14.648,38.086,38.086,0.0,0
1581608769.296,16.602,11.719,37.598,29.785,0.0,0
1581608769.313,18.066,25.391,38.574,23.438,0.0,0
1581608769.3170002,17.09,35.156,35.156,24.902,0.0,0
1581608769.321,14.16,34.18,29.297,19.043,0.0,0
1581608769.325,18.555,12.207,27.832,23.438,0.0,0
1581608769.329,20.508000000000006,4.395,30.273000000000003,29.785,0.0,0
1581608769.333,16.113,13.672,31.738000000000003,20.996,0.0,0
1581608769.337,13.184,18.555,34.18,16.602,0.0,0
1581608769.34,11.23,22.461,39.062,13.672,0.0,0
1581608769.344,13.672,29.785,40.039,14.16,0.0,0
1581608769.3479998,22.461,39.062,34.18,19.043,0.0,0
1581608769.3520002,24.414,29.297,34.18,17.09,0.0,0
1581608769.356,28.32,25.879,28.809,18.555,0.0,0
1581608769.3579998,28.809,29.785,23.438,24.414,0.0,0
1581608769.3620002,16.113,23.438,25.879,26.367,0.0,0
1581608769.3660002,6.836,20.508000000000006,26.367,26.367,0.0,0
1581608769.37,8.301,19.043,29.297,23.926,0.0,0
1581608769.3739998,14.648,13.672,33.691,18.555,0.0,0
1581608769.3779998,12.207,18.555,32.715,23.926,0.0,0
1581608769.3820002,13.184,31.25,29.785,22.461,0.0,0
1581608769.385,18.555,26.855,28.32,10.254,0.0,0
1581608769.389,16.602,26.367,31.25,8.301,0.0,0
1581608769.393,17.578,30.762,33.691,15.625,0.0,0
1581608769.397,24.902,34.668,36.133,15.625,0.0,0
1581608769.401,27.344,39.551,29.297,8.789,0.0,0
1581608769.403,24.902,39.551,19.043,10.742,0.0,0
1581608769.407,25.391,34.18,24.902,13.184,0.0,0
1581608769.411,21.973000000000006,18.066,33.691,10.742,0.0,0
1581608769.415,14.648,8.789,38.574,14.16,0.0,0
1581608769.419,17.578,8.789,39.062,20.508000000000006,0.0,0
1581608769.423,28.809,7.812,31.25,17.578,0.0,0
1581608769.427,24.902,20.02,20.508000000000006,20.996,0.0,0
1581608769.43,17.578,41.504,19.043,23.926,0.0,0
1581608769.434,24.414,49.316,25.879,19.531,0.0,0
1581608769.438,30.762,48.828,27.344,25.391,0.0,0
1581608769.4420002,33.691,46.875,18.555,24.414,0.0,0
1581608769.446,34.18,42.48,14.16,20.02,0.0,0
1581608769.449,29.785,37.598,20.996,24.414,0.0,0
1581608769.4529998,29.785,20.996,33.203,28.32,0.0,0
1581608769.457,31.25,0.977,40.527,26.855,0.0,0
1581608769.461,36.133,6.836,40.039,29.785,0.0,0
1581608769.465,39.062,20.996,28.32,32.715,0.0,0
1581608769.469,30.273000000000003,22.461,24.414,32.227,0.0,0
1581608769.4729998,31.738000000000003,13.184,33.203,28.809,0.0,0
1581608769.476,37.598,19.531,28.809,26.855,0.0,0
1581608769.48,33.691,33.203,21.484,22.461,0.0,0
1581608769.484,34.18,46.875,20.02,28.809,0.0,0
1581608769.488,36.621,48.828,26.855,33.691,0.0,0
1581608769.492,34.18,34.668,31.738000000000003,17.09,0.0,0
1581608769.4929998,36.133,31.25,21.973000000000006,10.742,0.0,0
1581608769.4970002,30.273000000000003,32.715,16.602,12.695,0.0,0
1581608769.5010002,19.531,32.715,14.648,7.324,0.0,0
1581608769.505,15.137,13.672,11.719,6.348,0.0,0
1581608769.5089998,18.066,9.766,19.531,12.695,0.0,0
1581608769.5129998,22.949,16.602,25.879,22.461,0.0,0
1581608769.5170002,29.785,17.09,22.461,22.461,0.0,0
1581608769.52,31.25,23.926,20.02,18.555,0.0,0
1581608769.524,23.926,23.926,24.902,18.066,0.0,0
1581608769.528,19.043,32.227,21.484,15.625,0.0,0
1581608769.532,18.555,28.32,21.484,15.625,0.0,0
1581608769.536,24.902,29.785,28.32,20.508000000000006,0.0,0
1581608769.538,24.902,44.922,16.602,17.09,0.0,0
1581608769.542,19.043,30.762,7.812,13.672,0.0,0
1581608769.546,19.043,5.371,19.043,17.578,0.0,0
1581608769.55,21.484,16.113,23.438,22.949,0.0,0
1581608769.554,26.367,33.691,16.113,24.414,0.0,0
1581608769.5579998,20.02,35.156,19.531,27.832,0.0,0
1581608769.562,20.996,33.203,28.809,24.902,0.0,0
1581608769.565,25.879,27.344,29.785,18.555,0.0,0
1581608769.569,16.602,23.926,26.855,16.113,0.0,0
1581608769.573,17.09,17.09,22.461,20.02,0.0,0
1581608769.577,21.973000000000006,5.859,20.996,22.949,0.0,0
1581608769.581,27.832,17.09,21.484,25.391,0.0,0
1581608769.583,35.645,36.133,27.344,33.203,0.0,0
1581608769.587,32.227,36.621,29.785,31.738000000000003,0.0,0
1581608769.591,21.973000000000006,22.461,30.273000000000003,25.879,0.0,0
1581608769.595,21.973000000000006,15.137,33.203,24.902,0.0,0
1581608769.599,23.438,18.555,27.344,22.949,0.0,0
1581608769.603,23.926,23.438,26.855,21.484,0.0,0
1581608769.607,29.785,36.133,38.574,24.902,0.0,0
1581608769.61,27.832,39.551,39.062,31.738000000000003,0.0,0
1581608769.6139998,23.438,31.738000000000003,27.344,31.25,0.0,0
1581608769.6179998,27.344,27.344,25.391,24.414,0.0,0
1581608769.6220002,33.203,31.25,26.367,27.344,0.0,0
1581608769.6260002,31.25,39.551,27.344,25.391,0.0,0
1581608769.6279998,25.879,23.926,30.273000000000003,20.996,0.0,0
1581608769.6320002,21.484,4.883,33.691,22.949,0.0,0
1581608769.6360002,21.973000000000006,15.625,29.297,26.855,0.0,0
1581608769.64,24.902,25.879,26.855,30.273000000000003,0.0,0
1581608769.644,24.414,27.832,33.691,30.762,0.0,0
1581608769.6479998,23.438,37.109,34.18,28.809,0.0,0
1581608769.6520002,25.879,35.645,27.344,24.902,0.0,0
1581608769.655,19.531,37.598,26.855,18.555,0.0,0
1581608769.659,7.324,35.156,33.203,13.672,0.0,0
1581608769.663,14.648,26.855,39.062,17.578,0.0,0
1581608769.667,25.879,30.762,32.715,19.043,0.0,0
1581608769.671,21.973000000000006,23.926,24.414,11.23,0.0,0
1581608769.688,19.531,16.113,29.297,16.113,0.0,0
1581608769.6920002,23.926,24.902,25.879,25.391,0.0,0
1581608769.696,21.973000000000006,20.02,17.578,20.508000000000006,0.0,0
1581608769.7,14.648,3.906,12.695,15.625,0.0,0
1581608769.704,11.23,10.254,13.672,19.043,0.0,0
1581608769.708,15.137,31.738000000000003,32.715,18.555,0.0,0
1581608769.712,18.555,39.551,41.992,22.949,0.0,0
1581608769.715,21.484,30.762,42.969,23.926,0.0,0
1581608769.719,21.973000000000006,33.203,41.992,24.414,0.0,0
1581608769.7229998,24.414,33.203,33.203,20.508000000000006,0.0,0
1581608769.7270002,26.855,22.461,22.949,17.09,0.0,0
1581608769.731,24.902,24.414,20.508000000000006,15.137,0.0,0
1581608769.7329998,18.555,22.949,26.367,12.695,0.0,0
1581608769.7370002,17.09,18.066,24.414,12.695,0.0,0
1581608769.7410002,17.09,13.184,21.484,8.789,0.0,0
1581608769.745,17.09,16.602,27.344,15.137,0.0,0
1581608769.7489998,14.16,28.32,30.273000000000003,14.648,0.0,0
1581608769.7529998,16.602,29.297,29.297,11.719,0.0,0
1581608769.7570002,26.367,33.691,31.738000000000003,15.137,0.0,0
1581608769.76,19.531,24.414,35.645,20.508000000000006,0.0,0
1581608769.764,19.531,19.043,29.297,22.949,0.0,0
1581608769.768,20.996,30.762,23.926,12.207,0.0,0
1581608769.772,16.602,28.809,27.832,14.648,0.0,0
1581608769.776,23.438,23.926,32.227,23.926,0.0,0
1581608769.778,28.32,36.133,28.809,27.344,0.0,0
1581608769.782,27.344,40.039,28.809,28.32,0.0,0
1581608769.786,19.043,17.578,31.738000000000003,25.391,0.0,0
1581608769.79,17.09,15.137,32.715,25.879,0.0,0
1581608769.794,25.391,30.762,36.133,27.344,0.0,0
1581608769.798,36.133,30.273000000000003,30.273000000000003,32.227,0.0,0
1581608769.802,35.645,32.227,28.32,29.785,0.0,0
1581608769.805,29.297,27.832,25.391,25.879,0.0,0
1581608769.809,30.273000000000003,26.367,20.02,22.949,0.0,0
1581608769.813,27.832,37.598,26.367,15.625,0.0,0
1581608769.8170002,23.438,31.738000000000003,33.203,17.578,0.0,0
1581608769.821,24.902,26.855,23.926,22.949,0.0,0
1581608769.823,24.414,26.367,23.438,20.02,0.0,0
1581608769.827,21.973000000000006,35.156,36.133,18.066,0.0,0
1581608769.831,22.461,30.273000000000003,34.668,20.508000000000006,0.0,0
1581608769.835,22.949,25.879,31.738000000000003,17.578,0.0,0
1581608769.839,25.391,32.227,30.762,19.531,0.0,0
1581608769.843,28.809,31.25,22.461,23.926,0.0,0
1581608769.847,28.32,33.691,23.438,22.461,0.0,0
1581608769.85,24.902,32.227,25.879,21.484,0.0,0
1581608769.854,26.367,31.25,27.832,26.855,0.0,0
1581608769.8579998,23.438,27.832,40.039,27.344,0.0,0
1581608769.8620002,26.367,20.996,46.875,24.902,0.0,0
1581608769.8660002,31.738000000000003,24.414,41.01600000000001,23.926,0.0,0
1581608769.8679998,29.297,28.809,36.133,21.484,0.0,0
1581608769.8720002,36.133,23.438,31.738000000000003,27.832,0.0,0
1581608769.8760002,41.992,20.996,23.926,31.25,0.0,0
1581608769.88,24.414,25.391,17.578,22.949,0.0,0
1581608769.8839998,15.137,31.738000000000003,19.043,10.742,0.0,0
1581608769.8879998,17.578,30.273000000000003,30.762,15.625,0.0,0
1581608769.8920002,22.949,26.855,41.01600000000001,30.762,0.0,0
1581608769.895,25.879,24.414,32.227,20.02,0.0,0
1581608769.899,22.461,19.043,17.578,10.742,0.0,0
1581608769.903,20.508000000000006,14.16,20.996,16.113,0.0,0
1581608769.907,21.484,19.531,24.902,13.184,0.0,0
1581608769.911,21.484,33.203,19.531,11.719,0.0,0
1581608769.913,26.855,30.273000000000003,17.09,16.602,0.0,0
1581608769.917,32.227,22.461,20.02,18.066,0.0,0
1581608769.921,26.855,28.32,29.297,24.902,0.0,0
1581608769.925,26.855,37.598,37.109,29.785,0.0,0
1581608769.929,24.414,34.18,30.273000000000003,20.996,0.0,0
1581608769.9329998,22.461,22.461,23.926,18.555,0.0,0
1581608769.937,20.996,12.695,27.344,22.949,0.0,0
1581608769.94,18.555,19.043,28.32,18.066,0.0,0
1581608769.944,24.414,29.297,22.949,20.02,0.0,0
1581608769.948,26.855,25.879,23.438,25.391,0.0,0
1581608769.952,26.855,18.066,28.32,22.949,0.0,0
1581608769.956,25.879,22.949,32.715,20.996,0.0,0
1581608769.958,21.973000000000006,20.02,32.227,19.531,0.0,0
1581608769.962,26.367,17.578,31.738000000000003,20.996,0.0,0
1581608769.966,22.461,36.133,28.32,21.484,0.0,0
1581608769.97,19.531,34.668,23.438,24.414,0.0,0
1581608769.974,25.391,25.391,30.762,27.344,0.0,0
1581608769.978,28.32,27.832,35.156,26.855,0.0,0
1581608769.982,29.785,35.156,27.832,19.043,0.0,0
1581608769.985,29.297,36.133,25.879,18.066,0.0,1
1581608769.9889998,29.297,18.555,28.32,26.367,0.0,0
1581608769.9929998,25.879,13.184,35.156,27.344,0.0,0
1581608769.9970002,26.855,14.648,41.504,27.832,0.0,0
1581608770.0010002,26.367,12.695,32.227,28.32,0.0,0
1581608770.002,28.32,16.602,32.227,23.438,0.0,0
1581608770.006,24.414,22.949,39.062,22.461,0.0,0
1581608770.01,15.137,26.367,37.109,23.438,0.0,0
1581608770.014,19.531,35.645,29.785,23.438,0.0,0
1581608770.018,19.043,41.01600000000001,33.203,19.531,0.0,0
1581608770.022,19.531,29.297,34.668,20.02,0.0,0
1581608770.026,16.602,22.949,32.715,18.066,0.0,0
1581608770.029,13.184,28.32,30.762,8.789,0.0,0
1581608770.033,20.02,31.738000000000003,35.645,11.719,0.0,0
1581608770.0370002,18.555,28.809,32.227,15.625,0.0,0
1581608770.041,16.602,21.973000000000006,26.855,20.508000000000006,0.0,0
1581608770.045,11.719,22.461,31.25,22.949,0.0,0
1581608770.062,9.766,27.832,33.203,24.902,0.0,0
1581608770.066,21.484,32.715,29.297,27.832,0.0,0
1581608770.07,18.555,17.09,27.832,24.902,0.0,0
1581608770.074,17.578,9.766,36.133,26.855,0.0,0
1581608770.0779998,23.926,26.367,36.133,36.133,0.0,0
1581608770.082,17.578,28.809,31.25,39.551,0.0,0
1581608770.086,20.02,25.879,24.902,28.809,0.0,0
1581608770.089,27.832,22.461,28.32,23.926,0.0,0
1581608770.093,32.227,26.855,37.598,25.879,0.0,0
1581608770.097,31.25,29.785,35.645,23.438,0.0,0
1581608770.101,23.438,23.438,27.832,20.996,0.0,0
1581608770.105,26.367,24.902,27.344,21.484,0.0,0
1581608770.1079998,31.25,27.832,29.785,27.832,0.0,0
1581608770.1120002,26.855,31.738000000000003,31.25,30.762,0.0,0
1581608770.1160002,24.414,38.086,33.691,29.785,0.0,0
1581608770.12,29.785,36.133,24.414,28.809,0.0,0
1581608770.1239998,33.691,25.879,24.414,34.18,0.0,0
1581608770.1279998,32.227,28.32,38.574,31.738000000000003,0.0,0
1581608770.1320002,25.391,36.133,38.574,16.602,0.0,0
1581608770.135,29.785,39.551,37.109,16.113,0.0,0
1581608770.139,33.203,44.922,35.156,23.926,0.0,0
1581608770.143,29.785,32.227,25.391,25.879,0.0,0
1581608770.147,30.273000000000003,15.625,23.438,27.344,0.0,0
1581608770.151,29.297,22.949,27.344,29.297,0.0,0
1581608770.153,23.926,33.203,29.785,20.508000000000006,0.0,0
1581608770.157,19.531,19.043,31.738000000000003,11.719,0.0,0
1581608770.161,20.02,19.531,33.691,16.602,0.0,0
1581608770.165,24.414,37.109,29.297,21.484,0.0,0
1581608770.169,29.785,35.156,25.879,28.32,0.0,0
1581608770.173,28.809,26.367,35.645,36.621,0.0,0
1581608770.177,33.691,33.203,37.598,32.715,0.0,0
1581608770.18,34.668,34.18,27.344,25.391,0.0,0
1581608770.184,26.855,21.484,28.809,26.855,0.0,0
1581608770.188,28.32,21.484,38.574,29.297,0.0,0
1581608770.1920002,24.414,21.973000000000006,30.762,29.297,0.0,0
1581608770.196,27.832,15.625,29.297,28.32,0.0,0
1581608770.198,33.203,15.625,34.668,29.297,0.0,0
1581608770.202,29.297,25.391,31.25,29.785,0.0,0
1581608770.206,22.949,26.855,34.668,31.25,0.0,0
1581608770.21,23.926,35.645,34.18,35.156,0.0,0
1581608770.214,24.414,38.086,29.297,26.855,0.0,0
1581608770.218,23.438,35.645,24.902,20.996,0.0,0
1581608770.222,26.367,32.715,23.438,31.738000000000003,0.0,0
1581608770.225,26.855,19.043,29.297,27.832,0.0,0
1581608770.229,27.344,12.207,33.691,19.531,0.0,0
1581608770.2329998,27.832,19.531,31.738000000000003,23.438,0.0,0
1581608770.2370002,26.367,30.762,30.762,22.461,0.0,0
1581608770.2410002,24.902,25.391,37.598,20.996,0.0,0
1581608770.2429998,27.344,25.391,35.156,24.902,0.0,0
1581608770.2470002,22.949,22.949,26.367,25.391,0.0,0
1581608770.2510002,17.09,26.367,29.297,18.555,0.0,0
1581608770.255,21.973000000000006,38.574,30.762,18.555,0.0,0
1581608770.2589998,26.367,31.25,31.738000000000003,22.949,0.0,0
1581608770.2629998,25.879,26.855,38.086,31.738000000000003,0.0,0
1581608770.2670002,26.855,21.484,34.668,31.738000000000003,0.0,0
1581608770.27,29.785,10.254,30.273000000000003,20.996,0.0,0
1581608770.274,30.762,20.996,31.738000000000003,26.855,0.0,0
1581608770.278,20.996,36.621,36.621,27.832,0.0,0
1581608770.282,12.207,32.227,36.621,16.602,0.0,0
1581608770.286,17.578,27.832,34.18,16.602,0.0,0
1581608770.288,17.578,24.902,30.762,15.137,0.0,0
1581608770.292,18.555,20.02,25.391,15.137,0.0,0
1581608770.296,19.043,18.066,27.344,26.367,0.0,0
1581608770.3,16.602,20.508000000000006,29.785,24.902,0.0,0
1581608770.304,24.414,30.273000000000003,32.715,22.949,0.0,0
1581608770.3079998,25.879,31.738000000000003,33.691,21.484,0.0,0
1581608770.312,23.926,20.02,32.227,23.926,0.0,0
1581608770.315,19.043,15.137,30.762,25.879,0.0,0
1581608770.319,16.113,25.879,30.273000000000003,12.207,0.0,0
1581608770.323,23.926,36.621,27.344,16.113,0.0,0
1581608770.327,15.137,36.133,27.344,18.555,0.0,0
1581608770.331,7.324,31.738000000000003,35.156,16.113,0.0,0
1581608770.333,5.371,32.227,36.621,14.648,0.0,0
1581608770.337,8.301,20.996,38.086,14.16,0.0,0
1581608770.341,20.02,7.324,35.645,21.484,0.0,0
1581608770.345,25.879,16.113,26.855,23.438,0.0,0
1581608770.349,26.855,31.25,24.902,18.555,0.0,0
1581608770.353,34.18,28.809,22.949,18.066,0.0,0
1581608770.357,39.062,31.738000000000003,23.438,15.625,0.0,0
1581608770.36,39.062,45.41,32.227,5.371,0.0,0
1581608770.3639998,37.598,40.039,33.203,4.883,0.0,0
1581608770.3679998,33.691,33.691,30.762,6.836,0.0,0
1581608770.3720002,32.227,28.32,22.949,10.254,0.0,0
1581608770.3760002,23.438,26.855,18.066,20.996,0.0,0
1581608770.3779998,15.625,26.855,23.438,23.926,0.0,0
1581608770.3820002,19.531,23.438,26.367,22.461,0.0,0
1581608770.3860002,18.066,25.879,30.273000000000003,25.879,0.0,0
1581608770.39,10.254,25.879,26.367,24.414,0.0,0
1581608770.394,15.137,37.598,21.973000000000006,26.367,0.0,0
1581608770.3979998,15.137,40.527,26.367,21.484,0.0,0
1581608770.4020002,17.09,20.02,33.203,14.16,0.0,0
1581608770.405,28.809,23.926,40.039,17.578,0.0,0
1581608770.409,22.949,39.551,41.504,19.043,0.0,0
1581608770.413,16.113,33.203,33.691,15.625,0.0,0
1581608770.417,20.02,33.203,34.668,16.602,0.0,0
1581608770.421,19.531,34.18,44.434,16.602,0.0,0
1581608770.438,23.438,23.438,34.18,20.02,0.0,0
1581608770.4420002,25.879,26.367,20.02,23.438,0.0,0
1581608770.446,23.926,20.996,35.156,24.902,0.0,0
1581608770.45,25.391,14.16,42.48,23.926,0.0,0
1581608770.454,24.902,26.855,33.691,17.578,0.0,0
1581608770.458,28.809,35.645,36.621,16.113,0.0,0
1581608770.462,31.25,31.25,40.527,16.602,0.0,0
1581608770.465,25.879,24.902,39.551,18.555,0.0,0
1581608770.469,19.043,32.715,37.598,16.602,0.0,0
1581608770.4729998,19.531,33.691,36.133,9.277,0.0,0
1581608770.4770002,26.855,27.344,34.668,18.066,0.0,0
1581608770.481,30.762,22.461,30.273000000000003,25.391,0.0,0
1581608770.4829998,32.227,21.973000000000006,35.156,24.902,0.0,0
1581608770.4870002,30.762,25.879,34.668,23.438,0.0,0
1581608770.4910002,33.203,27.344,29.785,24.902,0.0,0
1581608770.495,32.715,33.691,36.621,32.227,0.0,0
1581608770.4989998,29.785,30.762,36.133,33.691,0.0,0
1581608770.5029998,31.738000000000003,18.555,33.203,31.25,0.0,0
1581608770.5070002,36.133,19.531,33.691,36.133,0.0,0
1581608770.51,38.086,21.973000000000006,37.109,40.527,0.0,0
1581608770.514,26.855,19.043,33.203,31.25,0.0,0
1581608770.518,24.902,18.555,29.297,28.809,0.0,0
1581608770.522,27.832,27.832,33.691,35.156,0.0,0
1581608770.526,29.297,34.18,34.18,33.203,0.0,0
1581608770.528,22.949,26.367,35.156,37.109,0.0,0
1581608770.532,21.973000000000006,16.113,33.203,41.992,0.0,0
1581608770.536,27.832,13.184,27.832,33.691,0.0,0
1581608770.54,25.879,24.902,28.32,28.32,0.0,0
1581608770.544,26.855,25.391,36.621,25.391,0.0,0
1581608770.548,30.273000000000003,11.719,29.297,27.832,0.0,0
1581608770.552,28.32,25.879,20.02,24.902,0.0,0
1581608770.555,25.391,38.574,30.273000000000003,19.043,0.0,0
1581608770.559,26.855,29.297,41.01600000000001,23.438,0.0,0
1581608770.563,26.367,26.855,41.504,24.902,0.0,0
1581608770.5670002,29.785,26.367,34.668,27.832,0.0,0
1581608770.571,32.227,21.484,27.344,28.809,0.0,0
1581608770.573,26.367,24.902,25.391,30.273000000000003,0.0,0
1581608770.577,23.926,29.785,33.203,29.785,0.0,0
1581608770.581,24.414,32.715,30.762,21.973000000000006,0.0,0
1581608770.585,20.996,34.18,24.902,20.996,0.0,0
1581608770.589,18.555,26.855,29.785,21.484,0.0,0
1581608770.593,20.996,16.113,26.367,23.926,0.0,0
1581608770.597,20.02,12.207,21.973000000000006,29.785,0.0,0
1581608770.6,23.438,17.09,27.832,25.391,0.0,0
1581608770.604,23.926,21.973000000000006,34.668,20.508000000000006,0.0,0
1581608770.6079998,16.602,30.762,38.086,19.043,0.0,0
1581608770.6120002,17.09,34.18,29.785,17.09,0.0,0
1581608770.6160002,24.902,27.832,29.297,23.926,0.0,0
1581608770.619,32.715,21.484,31.25,25.391,0.0,0
1581608770.623,32.715,29.785,25.879,17.578,0.0,0
1581608770.627,27.344,33.203,21.484,9.766,0.0,0
1581608770.631,25.391,29.785,15.137,11.719,0.0,0
1581608770.635,30.762,28.809,17.578,21.973000000000006,0.0,0
1581608770.639,25.391,25.391,26.855,22.461,0.0,0
1581608770.643,21.973000000000006,24.414,31.25,19.043,0.0,0
1581608770.646,22.949,27.832,33.203,15.137,0.0,0
1581608770.65,25.391,19.043,32.227,14.16,0.0,0
1581608770.654,22.461,13.184,26.855,16.602,0.0,0
1581608770.658,23.926,29.785,26.855,19.531,0.0,0
1581608770.6620002,26.855,41.504,24.414,19.043,0.0,0
1581608770.663,23.926,22.949,16.602,11.23,0.0,0
1581608770.667,16.113,24.902,12.207,5.859,0.0,0
1581608770.671,14.16,39.062,8.789,10.742,0.0,0
1581608770.675,26.367,22.949,12.695,20.996,0.0,0
1581608770.679,31.25,18.066,19.043,26.367,0.0,0
1581608770.6829998,24.902,17.578,25.879,28.32,0.0,0
1581608770.687,21.484,24.902,28.32,25.879,0.0,0
1581608770.69,25.391,38.086,31.25,23.438,0.0,0
1581608770.694,22.461,23.438,32.227,21.973000000000006,0.0,0
1581608770.698,23.438,14.16,22.949,25.391,0.0,0
1581608770.702,32.227,28.32,18.555,28.32,0.0,0
1581608770.706,26.367,31.25,22.949,29.785,0.0,0
1581608770.708,16.113,18.555,26.367,24.902,0.0,0
1581608770.712,9.277,24.414,20.996,20.02,0.0,0
1581608770.716,6.348,33.203,27.832,17.09,0.0,0
1581608770.72,9.277,30.273000000000003,34.668,13.184,0.0,0
1581608770.724,12.695,24.902,34.668,19.531,0.0,0
1581608770.728,20.02,15.137,39.551,26.855,0.0,0
1581608770.732,30.273000000000003,14.16,34.18,32.227,0.0,0
1581608770.735,31.25,22.949,28.32,32.227,0.0,0
1581608770.7389998,21.484,27.832,27.832,29.297,0.0,0
1581608770.7429998,19.043,22.949,36.621,31.738000000000003,0.0,0
1581608770.7470002,31.738000000000003,28.809,41.504,35.156,0.0,0
1581608770.7510002,33.691,34.668,33.203,34.668,0.0,0
1581608770.7529998,19.043,28.809,26.855,29.297,0.0,0
1581608770.7570002,19.043,22.949,21.973000000000006,23.926,0.0,0
1581608770.7610002,21.484,23.926,22.949,21.484,0.0,0
1581608770.765,18.555,39.062,35.645,17.09,0.0,0
1581608770.769,17.578,39.551,42.48,14.16,0.0,0
1581608770.7729998,15.137,33.691,41.01600000000001,19.531,0.0,0
1581608770.7770002,16.113,32.227,37.598,18.555,0.0,0
1581608770.78,22.461,20.02,29.785,19.043,0.0,0
1581608770.784,23.926,25.879,27.832,22.949,0.0,0
1581608770.788,21.484,32.227,28.809,27.344,0.0,0
1581608770.792,24.414,16.602,22.949,29.297,0.0,0
1581608770.796,24.414,14.648,27.344,26.367,0.0,0
1581608770.813,24.902,27.344,36.133,24.414,0.0,0
1581608770.8170002,26.367,22.949,33.691,21.484,0.0,0
1581608770.821,18.066,22.949,36.133,21.484,0.0,0
1581608770.825,14.648,34.18,43.945,19.531,0.0,0
1581608770.829,17.09,34.18,40.039,15.625,0.0,0
1581608770.833,25.879,28.32,38.086,16.113,0.0,0
1581608770.837,30.273000000000003,26.367,30.273000000000003,16.113,0.0,0
1581608770.84,24.414,24.902,20.508000000000006,16.113,0.0,0
1581608770.844,13.672,30.273000000000003,24.902,15.137,0.0,0
1581608770.8479998,21.484,38.086,34.668,24.414,0.0,0
1581608770.8520002,17.578,27.832,41.992,28.32,0.0,0
1581608770.856,11.23,19.043,41.01600000000001,22.461,0.0,0
1581608770.8579998,21.973000000000006,25.879,39.551,21.973000000000006,0.0,0
1581608770.8620002,24.414,27.344,38.086,25.391,0.0,0
1581608770.8660002,21.484,29.297,38.086,23.438,0.0,0
1581608770.87,10.742,28.809,30.762,13.184,0.0,0
1581608770.8739998,12.695,31.25,27.344,9.277,0.0,0
1581608770.8779998,18.066,31.738000000000003,30.762,15.625,0.0,0
1581608770.8820002,24.902,21.973000000000006,30.762,25.879,0.0,0
1581608770.885,23.438,21.973000000000006,27.832,24.414,0.0,0
1581608770.889,19.043,25.391,28.809,19.531,0.0,0
1581608770.893,23.926,28.809,34.668,17.09,0.0,0
1581608770.897,23.438,27.344,34.18,18.555,0.0,0
1581608770.901,19.043,22.461,28.809,18.066,0.0,0
1581608770.903,29.297,26.367,35.156,23.926,0.0,0
1581608770.907,28.809,32.715,38.574,24.414,0.0,0
1581608770.911,24.414,32.715,32.715,20.02,0.0,0
1581608770.915,27.344,33.691,33.691,22.949,0.0,0
1581608770.919,21.484,34.668,31.25,20.508000000000006,0.0,0
1581608770.923,22.949,29.785,23.926,25.391,0.0,0
1581608770.927,31.738000000000003,21.973000000000006,24.902,26.855,0.0,0
1581608770.93,24.414,23.438,30.762,25.391,0.0,0
1581608770.934,20.996,41.504,33.691,23.438,0.0,0
1581608770.938,21.484,35.645,32.715,17.578,0.0,0
1581608770.9420002,16.113,17.578,32.715,16.602,0.0,0
1581608770.946,14.648,29.785,30.762,17.578,0.0,0
1581608770.948,20.508000000000006,38.086,28.809,22.461,0.0,0
1581608770.952,20.996,15.625,25.391,20.996,0.0,0
1581608770.956,10.254,10.254,24.414,19.531,0.0,0
1581608770.96,19.531,25.391,29.785,22.949,0.0,0
1581608770.964,21.484,23.926,30.762,29.785,0.0,0
1581608770.968,16.602,28.32,25.391,29.297,0.0,0
1581608770.972,19.531,38.086,26.855,20.996,0.0,0
1581608770.975,19.531,43.945,36.133,24.902,0.0,0
1581608770.979,19.043,28.809,33.691,30.762,0.0,0
1581608770.9829998,22.949,24.414,30.273000000000003,33.203,0.0,0
1581608770.9870002,29.297,33.691,35.645,25.879,0.0,0
1581608770.9910002,19.531,19.531,29.297,20.02,0.0,0
1581608770.9929998,12.207,10.742,20.02,21.484,0.0,0
1581608770.9970002,25.879,16.602,16.113,20.508000000000006,0.0,0
1581608771.0010002,33.203,26.855,22.949,20.508000000000006,0.0,0
1581608771.005,32.715,37.598,34.668,21.484,0.0,0
1581608771.0089998,36.621,39.551,41.992,26.855,0.0,0
1581608771.0129998,27.344,35.645,39.551,22.461,0.0,0
1581608771.0170002,21.973000000000006,31.25,36.621,17.09,0.0,0
1581608771.02,28.32,31.25,27.832,20.508000000000006,0.0,0
1581608771.024,25.391,19.043,12.695,18.066,0.0,0
1581608771.028,18.555,4.883,16.602,19.531,0.0,0
1581608771.032,19.531,16.113,28.32,19.531,0.0,0
1581608771.036,22.949,30.273000000000003,33.691,14.16,0.0,0
1581608771.039,25.391,30.762,35.645,19.531,0.0,0
1581608771.043,29.297,40.527,37.598,27.832,0.0,0
1581608771.0470002,29.297,51.27,30.273000000000003,34.18,0.0,0
1581608771.051,30.762,39.551,23.438,28.32,0.0,0
1581608771.055,27.832,29.297,28.809,24.414,0.0,0
1581608771.059,18.066,33.203,35.645,23.926,0.0,0
1581608771.063,23.438,19.531,25.391,26.367,0.0,0
1581608771.066,30.273000000000003,11.23,13.184,30.273000000000003,0.0,0
1581608771.07,24.414,21.973000000000006,23.926,21.484,0.0,0
1581608771.074,27.832,30.273000000000003,26.367,21.973000000000006,0.0,0
1581608771.0779998,29.297,27.832,25.879,29.785,0.0,0
1581608771.082,24.902,24.414,33.203,25.879,0.0,0
1581608771.083,28.809,24.902,33.203,25.879,0.0,0
1581608771.087,23.438,31.738000000000003,30.762,26.855,0.0,0
1581608771.091,13.184,34.668,28.32,22.461,0.0,0
1581608771.095,17.09,25.391,23.438,19.043,0.0,0
1581608771.099,21.973000000000006,25.391,20.996,16.113,0.0,0
1581608771.103,26.855,26.367,33.691,19.043,0.0,0
1581608771.107,24.902,20.02,34.18,16.602,0.0,0
1581608771.11,16.602,27.832,34.668,17.578,0.0,0
1581608771.1139998,17.09,22.949,39.062,21.484,0.0,0
1581608771.1179998,26.367,24.414,33.691,16.602,0.0,0
1581608771.1220002,24.902,33.691,27.344,25.391,0.0,0
1581608771.1260002,17.578,31.738000000000003,27.832,31.25,0.0,0
1581608771.1279998,23.438,26.855,26.367,25.879,0.0,0
1581608771.1320002,22.461,18.066,24.414,22.949,0.0,0
1581608771.1360002,28.809,25.391,36.133,27.832,0.0,0
1581608771.14,28.809,34.668,44.434,34.18,0.0,0
1581608771.144,19.043,22.461,40.039,28.809,0.0,0
1581608771.1479998,28.32,15.137,29.785,27.344,0.0,0
1581608771.1520002,25.879,32.227,30.273000000000003,23.926,0.0,0
1581608771.155,18.555,44.434,26.367,22.461,0.0,0
1581608771.159,18.066,42.48,17.578,21.484,0.0,0
1581608771.163,19.531,41.01600000000001,27.344,21.973000000000006,0.0,0
1581608771.167,22.949,31.738000000000003,35.645,25.391,0.0,0
1581608771.171,25.391,19.531,34.668,19.043,0.0,2
1581608771.188,25.391,18.555,33.691,19.043,0.0,0
1581608771.1920002,23.438,22.949,32.227,19.043,0.0,0
1581608771.196,26.855,28.809,30.762,20.996,0.0,0
1581608771.2,29.297,27.344,31.25,22.949,0.0,0
1581608771.204,22.461,22.461,27.832,21.484,0.0,0
1581608771.208,29.297,30.273000000000003,24.902,26.855,0.0,0
1581608771.212,32.715,46.387,23.926,23.926,0.0,0
1581608771.215,27.344,27.832,23.926,21.973000000000006,0.0,0
1581608771.219,31.25,14.16,32.715,26.367,0.0,0
1581608771.2229998,25.879,33.203,37.598,23.438,0.0,0
1581608771.2270002,21.484,35.156,35.156,20.508000000000006,0.0,0
1581608771.231,24.414,14.16,31.738000000000003,24.414,0.0,0
1581608771.232,29.785,12.695,33.691,31.738000000000003,0.0,0
1581608771.236,29.297,23.438,40.039,28.32,0.0,0
1581608771.24,23.926,17.09,37.109,18.555,0.0,0
1581608771.244,25.879,28.809,28.32,18.555,0.0,0
1581608771.248,21.484,40.527,15.137,20.996,0.0,0
1581608771.252,20.02,34.668,18.066,20.02,0.0,0
1581608771.256,23.438,29.785,35.645,17.09,0.0,0
1581608771.2589998,17.578,19.531,36.133,11.719,0.0,0
1581608771.2629998,14.648,4.883,24.414,6.836,0.0,0
1581608771.2670002,22.461,12.695,24.414,8.301,0.0,0
1581608771.271,20.508000000000006,24.902,30.762,12.207,0.0,0
1581608771.275,15.137,13.672,22.949,14.648,0.0,0
1581608771.2770002,17.09,23.926,0.977,15.625,0.0,0
1581608771.281,14.16,48.34,8.301,12.695,0.0,0
1581608771.285,16.602,41.01600000000001,29.785,19.043,0.0,0
1581608771.289,18.555,34.668,25.879,20.02,0.0,0
1581608771.293,23.926,43.457,26.367,18.555,0.0,0
1581608771.2970002,30.762,44.434,41.504,27.832,0.0,0
1581608771.301,34.18,27.832,46.387,33.691,0.0,0
1581608771.304,28.809,19.043,35.645,32.715,0.0,0
1581608771.3079998,19.531,18.066,28.32,20.02,0.0,0
1581608771.312,24.902,21.484,26.855,22.461,0.0,0
1581608771.316,35.156,22.949,17.09,34.18,0.0,0
1581608771.32,34.18,21.973000000000006,18.066,34.18,0.0,0
1581608771.322,35.156,27.832,30.273000000000003,36.621,0.0,0
1581608771.326,40.527,26.367,36.621,39.551,0.0,0
1581608771.33,31.738000000000003,30.762,33.691,32.715,0.0,0
1581608771.334,31.25,34.668,33.691,30.762,0.0,0
1581608771.3379998,37.598,35.645,36.621,35.645,0.0,0
1581608771.342,35.645,21.973000000000006,30.762,29.785,0.0,0
1581608771.346,33.691,8.789,15.625,24.902,0.0,0
1581608771.349,26.855,15.137,15.625,24.902,0.0,0
1581608771.353,28.32,18.066,30.273000000000003,22.461,0.0,0
1581608771.357,22.949,6.836,34.668,20.996,0.0,0
1581608771.361,21.484,16.113,34.18,20.996,0.0,0
1581608771.365,24.414,36.621,35.156,21.484,0.0,0
1581608771.3679998,14.648,28.809,35.645,20.02,0.0,0
1581608771.3720002,16.113,15.137,35.645,20.02,0.0,0
1581608771.3760002,15.137,13.672,34.18,20.508000000000006,0.0,0
1581608771.38,18.066,14.648,35.645,19.531,0.0,0
1581608771.3839998,19.531,22.949,29.297,13.184,0.0,0
1581608771.3879998,15.137,25.879,20.02,8.789,0.0,0
1581608771.3920002,21.484,25.879,30.273000000000003,11.719,0.0,0
1581608771.395,23.926,32.227,35.645,11.719,0.0,0
1581608771.399,26.855,24.414,29.297,15.137,0.0,0
1581608771.403,34.668,12.695,29.785,17.09,0.0,0
1581608771.407,28.809,23.926,29.297,17.578,0.0,0
1581608771.411,32.715,30.762,21.484,14.16,0.0,0
1581608771.413,43.457,13.672,29.297,17.09,0.0,0
1581608771.417,42.48,22.461,31.25,25.391,0.0,0
1581608771.421,42.969,40.527,31.25,32.227,0.0,0
1581608771.425,43.457,40.039,38.086,37.109,0.0,0
1581608771.429,39.062,33.203,37.109,40.527,0.0,0
1581608771.4329998,37.109,13.184,41.992,45.41,0.0,0
1581608771.437,35.645,15.137,44.434,41.992,0.0,0
1581608771.44,35.645,38.574,45.41,42.48,0.0,0
1581608771.444,33.203,36.133,40.039,48.34,0.0,0
1581608771.448,32.227,26.367,25.879,45.898,0.0,0
1581608771.452,36.133,35.645,23.926,39.062,0.0,0
1581608771.456,36.621,36.621,28.32,30.762,0.0,0
1581608771.458,31.738000000000003,29.297,34.18,26.367,0.0,0
1581608771.462,33.691,29.785,32.227,25.391,0.0,0
1581608771.466,31.25,24.902,24.902,19.531,0.0,0
1581608771.47,19.043,24.902,27.832,18.555,0.0,0
1581608771.474,20.996,38.574,32.715,23.438,0.0,0
1581608771.478,22.461,26.855,28.809,18.066,0.0,0
1581608771.482,14.648,16.113,19.531,10.254,0.0,0
1581608771.485,11.23,24.414,10.742,11.719,0.0,0
1581608771.4889998,10.254,18.066,5.859,4.883,0.0,0
1581608771.4929998,16.602,17.09,6.348,3.418,0.0,0
1581608771.4970002,18.066,24.902,18.066,13.184,0.0,0
1581608771.5010002,10.742,27.344,23.438,6.348,0.0,0
1581608771.5029998,4.395,29.785,27.832,0.977,0.0,0
1581608771.5070002,1.465,36.133,32.715,6.836,0.0,0
1581608771.5110002,9.277,38.086,32.227,8.301,0.0,0
1581608771.515,15.625,33.203,29.785,11.23,0.0,0
1581608771.519,17.578,27.832,20.996,14.648,0.0,0
1581608771.5229998,18.555,23.926,18.066,21.484,0.0,0
1581608771.5270002,20.508000000000006,16.602,21.484,20.996,0.0,0
1581608771.53,23.926,14.648,18.066,17.09,0.0,0
1581608771.534,27.344,20.508000000000006,17.09,26.367,0.0,0
1581608771.538,37.109,37.598,30.273000000000003,30.273000000000003,0.0,0
1581608771.542,41.504,41.01600000000001,41.01600000000001,29.297,0.0,0
1581608771.546,35.645,26.855,36.621,28.809,0.0,0
1581608771.563,40.527,30.273000000000003,35.156,35.156,0.0,0
1581608771.5670002,37.109,32.715,41.992,35.645,0.0,0
1581608771.571,29.297,39.062,34.668,30.762,0.0,0
1581608771.575,33.203,35.645,24.414,33.691,0.0,0
1581608771.579,35.156,15.625,26.855,38.574,0.0,0
1581608771.583,36.133,11.719,28.32,42.48,0.0,0
1581608771.587,38.574,25.879,24.902,42.969,0.0,0
1581608771.59,35.645,41.992,22.949,44.434,0.0,0
1581608771.594,31.738000000000003,48.828,33.203,41.504,0.0,0
1581608771.5979998,32.715,36.133,39.551,27.344,0.0,0
1581608771.6020002,31.738000000000003,24.902,39.062,17.578,0.0,0
1581608771.606,31.738000000000003,38.086,37.598,20.996,0.0,0
1581608771.609,34.668,37.109,33.691,21.484,0.0,0
1581608771.613,32.715,24.902,27.832,20.996,0.0,0
1581608771.617,31.25,20.02,24.414,25.391,0.0,0
1581608771.621,21.973000000000006,13.672,18.066,21.484,0.0,0
1581608771.625,22.461,19.043,19.531,24.414,0.0,0
1581608771.629,32.715,25.391,32.715,29.297,0.0,0
1581608771.633,28.32,32.715,38.086,21.484,0.0,0
1581608771.6360002,27.344,33.691,44.922,22.461,0.0,0
1581608771.64,28.809,30.762,44.922,28.32,0.0,0
1581608771.644,28.809,25.391,39.062,20.508000000000006,0.0,0
1581608771.6479998,34.18,19.043,32.715,20.02,0.0,0
1581608771.6520002,29.785,20.02,20.996,32.227,0.0,0
1581608771.653,26.367,25.391,25.879,32.227,0.0,0
1581608771.657,29.785,30.273000000000003,31.738000000000003,29.297,0.0,0
1581608771.661,29.785,24.414,20.996,27.832,0.0,0
1581608771.665,25.879,17.09,25.879,26.367,0.0,0
1581608771.669,25.391,17.09,47.363,33.691,0.0,0
1581608771.673,34.668,25.879,48.34,35.645,0.0,0
1581608771.677,36.133,28.809,38.574,32.227,0.0,0
1581608771.68,31.25,26.855,39.551,30.762,0.0,0
1581608771.684,30.762,32.227,37.598,30.273000000000003,0.0,0
1581608771.688,33.203,30.273000000000003,25.879,30.273000000000003,0.0,0
1581608771.6920002,33.203,23.438,20.996,31.25,0.0,0
1581608771.696,36.133,22.461,23.438,34.668,0.0,0
1581608771.698,38.086,26.855,24.902,32.715,0.0,0
1581608771.702,26.367,28.32,25.391,29.297,0.0,0
1581608771.706,24.902,30.762,28.32,23.926,0.0,0
1581608771.71,30.762,32.227,31.25,23.926,0.0,0
1581608771.714,26.855,17.09,35.645,23.926,0.0,0
1581608771.718,27.832,16.602,36.621,21.973000000000006,0.0,0
1581608771.722,20.02,30.762,20.508000000000006,16.602,0.0,0
1581608771.725,17.09,30.273000000000003,11.719,18.066,0.0,0
1581608771.729,17.578,26.367,22.461,20.02,0.0,0
1581608771.7329998,13.672,32.227,34.668,17.578,0.0,0
1581608771.7370002,15.137,28.32,37.109,18.066,0.0,0
1581608771.7410002,18.555,21.973000000000006,31.25,20.508000000000006,0.0,0
1581608771.744,21.973000000000006,22.461,26.367,26.367,0.0,0
1581608771.748,20.508000000000006,13.184,24.902,23.926,0.0,0
1581608771.752,20.508000000000006,21.484,34.18,21.484,0.0,0
1581608771.756,19.531,34.18,33.691,22.949,0.0,0
1581608771.76,14.648,19.531,25.879,18.555,0.0,0
1581608771.764,12.695,5.371,25.391,18.066,0.0,0
1581608771.768,10.254,19.043,27.832,19.531,0.0,0
1581608771.771,7.812,34.18,36.621,17.578,0.0,0
1581608771.775,8.301,32.227,37.109,13.672,0.0,0
1581608771.779,10.742,25.391,31.738000000000003,8.789,0.0,0
1581608771.783,9.277,22.461,29.785,16.602,0.0,0
1581608771.7870002,15.625,30.762,29.297,24.902,0.0,0
1581608771.788,20.996,30.273000000000003,28.809,25.391,0.0,0
1581608771.792,19.531,15.137,28.809,25.391,0.0,0
1581608771.796,26.855,20.02,29.785,25.391,0.0,0
1581608771.8,21.973000000000006,20.996,26.367,22.949,0.0,0
1581608771.804,15.625,10.254,34.668,20.996,0.0,0
1581608771.8079998,24.414,17.578,48.34,20.508000000000006,0.0,0
1581608771.812,19.531,30.273000000000003,43.945,19.531,0.0,0
1581608771.815,13.184,29.785,38.086,24.414,0.0,0
1581608771.819,12.207,25.879,37.598,29.785,0.0,0
1581608771.823,17.09,22.949,26.855,28.32,0.0,0
1581608771.827,22.949,32.227,17.09,23.438,0.0,0
1581608771.831,26.855,38.574,20.508000000000006,19.531,0.0,0
1581608771.833,24.414,26.855,22.949,21.484,0.0,0
1581608771.837,11.719,20.508000000000006,23.438,18.066,0.0,0
1581608771.841,9.766,27.832,34.18,13.184,0.0,0
1581608771.845,12.207,33.691,34.18,13.672,0.0,0
1581608771.849,12.207,21.973000000000006,32.227,19.043,0.0,0
1581608771.853,10.742,15.137,35.645,16.113,0.0,0
1581608771.857,15.625,22.461,33.691,12.695,0.0,0
1581608771.86,12.207,26.855,24.902,16.602,0.0,0
1581608771.8639998,8.301,27.832,19.043,15.625,0.0,0
1581608771.8679998,13.672,36.133,20.508000000000006,14.16,0.0,0
1581608771.8720002,9.766,40.039,16.602,16.113,0.0,0
1581608771.8760002,10.742,34.18,19.043,10.254,0.0,0
1581608771.893,14.648,23.438,30.762,5.859,0.0,0
1581608771.897,12.695,23.438,37.109,5.371,0.0,0
1581608771.901,1.465,18.555,33.691,6.348,0.0,0
1581608771.905,13.672,8.301,32.715,12.207,0.0,0
1581608771.909,23.926,16.113,31.25,19.043,0.0,0
1581608771.913,8.789,23.926,26.367,14.16,0.0,0
1581608771.917,4.883,25.879,16.113,8.301,0.0,0
1581608771.92,13.184,28.32,11.719,17.09,0.0,0
1581608771.924,16.602,23.438,25.879,22.461,0.0,0
1581608771.928,17.578,20.996,29.785,16.602,0.0,0
1581608771.9320002,25.391,21.973000000000006,24.902,20.508000000000006,0.0,0
1581608771.936,29.297,28.32,32.715,22.949,0.0,0
1581608771.938,20.996,24.902,41.992,21.484,0.0,0
1581608771.9420002,22.949,14.648,39.062,24.902,0.0,0
1581608771.946,22.949,26.855,30.762,25.391,0.0,0
1581608771.95,16.113,18.066,28.32,18.555,0.0,0
1581608771.954,20.996,10.742,26.367,12.207,0.0,0
1581608771.958,21.973000000000006,30.762,21.973000000000006,16.113,0.0,0
1581608771.962,23.926,42.48,12.695,22.461,0.0,0
1581608771.965,21.973000000000006,40.527,16.113,21.484,0.0,0
1581608771.969,15.625,34.18,21.484,22.461,0.0,0
1581608771.9729998,17.578,36.621,25.879,26.367,0.0,0
1581608771.9770002,22.949,34.18,35.645,27.344,0.0,0
1581608771.981,23.926,27.344,38.574,23.438,0.0,0
1581608771.9829998,17.09,24.902,33.203,20.508000000000006,0.0,0
1581608771.9870002,16.113,18.555,33.203,19.531,0.0,0
1581608771.9910002,18.555,20.508000000000006,39.062,16.602,0.0,0
1581608771.995,16.113,25.879,35.645,13.184,0.0,0
1581608771.9989998,11.23,30.273000000000003,21.973000000000006,8.789,0.0,0
1581608772.0029998,9.277,40.039,15.137,12.207,0.0,0
1581608772.0070002,16.113,38.574,18.066,16.602,0.0,0
1581608772.01,20.996,40.039,26.855,15.625,0.0,0
1581608772.014,23.438,31.738000000000003,37.598,14.648,0.0,0
1581608772.018,21.973000000000006,16.113,27.832,20.996,0.0,0
1581608772.022,17.578,19.043,23.926,19.043,0.0,0
1581608772.026,21.484,18.066,34.668,16.113,0.0,0
1581608772.028,28.32,23.438,35.645,21.973000000000006,0.0,0
1581608772.032,26.367,28.32,33.203,30.273000000000003,0.0,0
1581608772.036,22.949,28.809,28.32,24.414,0.0,0
1581608772.04,23.438,35.645,20.508000000000006,14.648,0.0,0
1581608772.044,29.297,38.086,21.484,18.066,0.0,0
1581608772.048,27.344,38.574,26.855,22.461,0.0,0
1581608772.052,27.832,33.203,34.668,27.832,0.0,0
1581608772.055,31.738000000000003,29.785,39.062,29.297,0.0,0
1581608772.059,23.926,30.762,36.621,21.484,0.0,0
1581608772.063,26.855,21.973000000000006,34.668,20.02,0.0,0
1581608772.0670002,25.391,15.137,33.203,21.484,0.0,0
1581608772.071,20.02,11.719,26.855,25.879,0.0,0
1581608772.073,28.809,13.672,22.461,31.738000000000003,0.0,0
1581608772.077,28.32,22.461,24.902,35.645,0.0,0
1581608772.081,20.508000000000006,30.762,25.391,33.691,0.0,0
1581608772.085,19.531,35.645,34.18,31.738000000000003,0.0,0
1581608772.089,20.996,34.668,42.969,30.273000000000003,0.0,0
1581608772.093,20.02,32.715,39.062,22.461,0.0,0
1581608772.097,24.902,30.762,27.832,27.344,0.0,0
1581608772.1,34.668,23.926,20.996,28.32,0.0,0
1581608772.104,38.086,19.043,24.414,26.855,0.0,0
1581608772.1079998,34.668,20.02,18.555,26.367,0.0,0
1581608772.1120002,20.02,20.996,6.836,18.066,0.0,0
1581608772.1160002,20.996,27.344,21.973000000000006,26.367,0.0,0
1581608772.1179998,27.344,29.297,38.574,27.344,0.0,0
1581608772.1220002,23.926,22.949,39.551,19.043,0.0,0
1581608772.1260002,21.484,24.414,41.01600000000001,18.066,0.0,0
1581608772.13,23.438,41.992,32.715,16.602,0.0,0
1581608772.1339998,34.18,50.293,22.461,21.973000000000006,0.0,0
1581608772.1379998,35.156,37.598,21.484,26.855,0.0,0
1581608772.1420002,31.25,29.297,25.879,26.367,0.0,0
1581608772.145,34.668,34.18,23.438,17.09,0.0,0
1581608772.149,30.762,20.02,20.996,19.531,0.0,0
1581608772.153,27.344,18.555,30.762,23.926,0.0,0
1581608772.157,33.203,30.273000000000003,34.668,25.391,0.0,0
1581608772.161,23.926,40.039,30.762,29.297,0.0,0
1581608772.163,18.066,42.969,30.273000000000003,24.902,0.0,0
1581608772.167,29.297,28.809,34.668,22.949,0.0,0
1581608772.171,34.18,23.438,31.25,24.414,0.0,0
1581608772.175,27.344,23.926,28.32,24.414,0.0,0
1581608772.179,20.996,27.832,28.32,27.344,0.0,0
1581608772.1829998,23.926,25.391,21.973000000000006,29.785,0.0,0
1581608772.187,30.762,18.066,31.738000000000003,36.621,0.0,0
1581608772.19,41.01600000000001,30.273000000000003,45.41,36.621,0.0,0
1581608772.194,35.156,45.898,41.992,23.438,0.0,0
1581608772.198,23.926,32.715,34.668,22.461,0.0,0
1581608772.202,36.621,19.531,31.738000000000003,26.367,0.0,0
1581608772.206,35.156,27.344,28.32,23.438,0.0,0
1581608772.208,19.043,32.715,27.832,21.484,0.0,0
1581608772.212,19.531,35.645,32.715,23.438,0.0,0
1581608772.216,23.438,35.156,34.18,24.414,0.0,0
1581608772.22,25.879,32.227,27.344,21.973000000000006,0.0,0
1581608772.224,26.367,30.273000000000003,24.902,20.508000000000006,0.0,0
1581608772.228,17.09,23.926,28.32,14.648,0.0,0
1581608772.232,12.695,20.996,37.109,7.324,0.0,0
1581608772.235,19.043,21.484,42.48,13.184,0.0,0
1581608772.2389998,14.648,27.832,35.645,15.137,0.0,0
1581608772.2429998,18.555,19.043,27.832,9.766,0.0,0
1581608772.2470002,22.949,17.09,27.344,14.648,0.0,0
1581608772.2510002,17.09,31.738000000000003,31.738000000000003,21.973000000000006,0.0,0
1581608772.252,20.996,35.156,39.062,26.367,0.0,0
1581608772.256,23.926,34.668,29.297,22.949,0.0,0
1581608772.26,28.32,40.039,14.16,22.949,0.0,0
1581608772.264,38.574,38.086,19.531,23.438,0.0,0
1581608772.268,48.828,26.855,28.32,29.785,0.0,0
1581608772.272,43.945,23.438,33.203,36.621,0.0,0
1581608772.276,34.18,15.137,30.762,32.715,0.0,0
1581608772.279,34.18,23.926,29.297,28.32,0.0,0
1581608772.283,28.32,24.902,24.414,21.484,0.0,0
1581608772.2870002,26.855,19.043,25.879,23.438,0.0,0
1581608772.291,29.785,37.109,34.668,22.461,0.0,0
1581608772.295,28.809,47.363,30.762,20.996,0.0,2
1581608772.313,31.25,38.086,30.762,22.461,0.0,0
1581608772.3170002,25.879,33.691,34.18,22.461,0.0,0
1581608772.321,19.043,26.367,32.227,25.391,0.0,0
1581608772.325,22.949,20.02,29.297,23.438,0.0,0
1581608772.329,26.855,28.32,28.32,20.996,0.0,0
1581608772.333,22.949,27.832,24.414,16.113,0.0,0
1581608772.337,22.461,22.949,24.414,15.137,0.0,0
1581608772.34,19.043,15.625,24.902,17.578,0.0,0
1581608772.344,14.16,11.719,26.855,15.137,0.0,0
1581608772.3479998,13.184,12.695,31.738000000000003,9.277,0.0,0
1581608772.3520002,10.742,17.09,29.297,9.766,0.0,0
1581608772.356,15.625,34.668,28.809,17.09,0.0,0
1581608772.357,21.973000000000006,46.875,30.273000000000003,20.996,0.0,0
1581608772.361,25.391,37.598,26.367,20.996,0.0,0
1581608772.365,32.715,33.691,18.066,22.949,0.0,0
1581608772.369,33.203,29.297,23.438,29.297,0.0,0
1581608772.373,25.879,18.555,26.367,28.32,0.0,0
1581608772.377,31.25,20.02,23.926,21.484,0.0,0
1581608772.381,29.297,7.324,33.691,21.484,0.0,0
1581608772.3839998,23.926,16.602,41.01600000000001,27.832,0.0,0
1581608772.3879998,23.926,41.01600000000001,39.551,29.785,0.0,0
1581608772.3920002,17.09,38.086,35.156,20.508000000000006,0.0,0
1581608772.396,19.531,27.832,34.18,13.672,0.0,0
1581608772.4,30.273000000000003,30.762,26.855,22.949,0.0,0
1581608772.403,30.273000000000003,32.227,23.926,27.344,0.0,0
1581608772.407,39.062,28.32,22.949,22.949,0.0,0
1581608772.411,38.086,37.109,17.578,25.879,0.0,0
1581608772.415,22.949,27.832,27.344,22.949,0.0,0
1581608772.419,16.113,13.672,33.691,19.043,0.0,0
1581608772.423,14.16,16.602,30.273000000000003,16.602,0.0,0
1581608772.427,18.555,15.625,31.25,12.695,0.0,0
1581608772.43,22.461,18.066,38.086,10.254,0.0,0
1581608772.434,28.32,26.367,34.18,10.742,0.0,0
1581608772.438,31.25,35.645,23.438,15.137,0.0,0
1581608772.4420002,33.203,39.551,14.648,15.625,0.0,0
1581608772.446,33.691,40.527,17.09,14.648,0.0,0
1581608772.447,35.645,39.062,32.715,17.09,0.0,0
1581608772.451,31.738000000000003,30.273000000000003,36.621,21.484,0.0,0
1581608772.455,18.555,19.531,36.133,25.879,0.0,0
1581608772.459,12.695,20.996,37.109,27.832,0.0,0
1581608772.4629998,14.16,18.555,36.133,30.273000000000003,0.0,0
1581608772.467,10.254,5.371,30.273000000000003,27.832,0.0,0
1581608772.471,8.301,14.648,21.973000000000006,26.855,0.0,0
1581608772.474,15.625,37.598,23.926,28.32,0.0,0
1581608772.478,11.719,45.41,26.855,25.879,0.0,0
1581608772.482,10.742,36.621,26.367,30.762,0.0,0
1581608772.486,18.066,31.738000000000003,19.043,25.391,0.0,0
1581608772.49,19.531,32.715,18.555,17.578,0.0,0
1581608772.4929998,18.555,26.367,29.297,21.484,0.0,0
1581608772.4970002,20.508000000000006,23.926,34.18,23.438,0.0,0
1581608772.5010002,26.855,19.531,35.156,28.32,0.0,0
1581608772.505,28.809,20.02,34.18,29.297,0.0,0
1581608772.5089998,33.203,27.832,34.18,30.273000000000003,0.0,0
1581608772.5129998,43.457,31.738000000000003,38.574,37.598,0.0,0
1581608772.5170002,48.34,18.555,38.086,41.504,0.0,0
1581608772.52,51.27,17.09,30.762,41.992,0.0,0
1581608772.524,45.41,41.01600000000001,26.855,40.039,0.0,0
1581608772.528,41.01600000000001,52.734,30.762,38.086,0.0,0
1581608772.532,39.551,37.109,31.25,30.273000000000003,0.0,0
1581608772.536,36.621,32.715,34.18,25.391,0.0,0
1581608772.539,37.598,40.527,38.086,25.879,0.0,0
1581608772.543,29.297,27.344,38.086,27.832,0.0,0
1581608772.5470002,24.414,8.301,41.992,26.367,0.0,0
1581608772.551,28.32,11.719,41.504,20.996,0.0,0
1581608772.555,32.715,22.461,41.01600000000001,25.391,0.0,0
1581608772.559,22.461,25.391,34.668,26.367,0.0,0
1581608772.563,13.184,21.484,25.879,16.113,0.0,0
1581608772.566,20.508000000000006,23.926,34.668,16.602,0.0,0
1581608772.57,18.066,39.062,39.551,20.02,0.0,0
1581608772.574,19.531,39.551,33.203,26.367,0.0,0
1581608772.5779998,14.648,30.273000000000003,32.715,20.02,0.0,0
1581608772.582,4.395,32.227,26.367,6.348,0.0,0
1581608772.583,16.113,25.879,19.531,10.254,0.0,0
1581608772.587,22.949,16.113,26.367,21.484,0.0,0
1581608772.591,19.531,19.531,29.297,18.066,0.0,0
1581608772.595,14.648,24.414,31.25,21.484,0.0,0
1581608772.599,15.137,17.578,30.762,22.461,0.0,0
1581608772.603,20.02,7.324,34.18,22.949,0.0,0
1581608772.607,24.902,20.508000000000006,41.992,27.832,0.0,0
1581608772.61,25.391,38.574,36.133,22.949,0.0,0
1581608772.6139998,31.738000000000003,41.504,22.461,25.879,0.0,0
1581608772.6179998,35.156,40.039,20.996,28.809,0.0,0
1581608772.6220002,28.809,38.574,26.367,26.855,0.0,0
1581608772.6260002,27.832,18.555,32.227,28.32,0.0,0
1581608772.6279998,32.227,15.625,34.668,41.01600000000001,0.0,0
1581608772.6320002,33.203,32.227,32.227,32.715,0.0,0
1581608772.6360002,21.973000000000006,30.273000000000003,35.156,22.949,0.0,0
1581608772.64,18.555,20.02,42.48,27.344,0.0,0
1581608772.644,26.367,23.438,45.41,28.32,0.0,0
1581608772.6479998,35.645,15.625,32.715,32.715,0.0,0
1581608772.6520002,36.621,16.113,27.344,34.668,0.0,0
1581608772.655,30.273000000000003,36.621,38.574,32.227,0.0,0
1581608772.659,27.832,32.715,38.574,27.832,0.0,0
1581608772.663,28.32,25.879,29.297,24.902,0.0,0
1581608772.667,22.949,27.832,19.531,20.996,0.0,0
1581608772.671,18.066,29.297,24.902,21.484,0.0,0
1581608772.688,12.695,29.297,29.297,21.973000000000006,0.0,0
1581608772.6920002,15.137,37.109,29.785,21.973000000000006,0.0,0
1581608772.696,20.508000000000006,31.25,35.156,20.02,0.0,0
1581608772.7,19.531,20.508000000000006,38.086,20.996,0.0,0
1581608772.704,22.461,21.973000000000006,41.504,25.879,0.0,0
1581608772.708,28.809,22.461,37.109,23.926,0.0,0
1581608772.712,32.715,20.02,30.762,21.484,0.0,0
1581608772.715,26.367,11.23,34.18,20.996,0.0,0
1581608772.719,20.996,17.578,27.344,23.926,0.0,0
1581608772.7229998,25.391,29.785,17.578,21.484,0.0,0
1581608772.7270002,22.461,32.227,19.531,17.578,0.0,0
1581608772.731,25.879,32.715,25.879,26.855,0.0,0
1581608772.7329998,29.297,34.668,27.832,30.762,0.0,0
1581608772.7370002,22.461,31.25,26.367,29.785,0.0,0
1581608772.7410002,24.902,19.531,25.879,31.25,0.0,0
1581608772.745,29.785,24.902,22.949,32.715,0.0,0
1581608772.7489998,29.297,27.344,28.809,30.762,0.0,0
1581608772.7529998,28.809,20.508000000000006,27.344,33.691,0.0,0
1581608772.7570002,31.738000000000003,23.926,19.043,32.715,0.0,0
1581608772.76,35.645,16.113,16.113,29.297,0.0,0
1581608772.764,27.832,7.812,20.996,29.297,0.0,0
1581608772.768,21.484,20.996,29.297,21.973000000000006,0.0,0
1581608772.772,18.555,28.809,33.203,21.484,0.0,0
1581608772.776,12.207,33.691,34.668,21.973000000000006,0.0,0
1581608772.778,16.113,28.32,24.414,26.855,0.0,0
1581608772.782,15.625,20.508000000000006,18.066,34.18,0.0,0
1581608772.786,10.742,23.438,25.391,23.926,0.0,0
1581608772.79,16.602,32.227,35.645,16.602,0.0,0
1581608772.794,20.02,27.344,29.785,24.902,0.0,0
1581608772.798,21.973000000000006,17.578,19.043,23.926,0.0,0
1581608772.802,19.531,19.531,30.273000000000003,8.301,0.0,0
1581608772.805,25.391,28.809,38.086,15.137,0.0,0
1581608772.809,27.832,30.273000000000003,39.062,21.973000000000006,0.0,0
1581608772.813,16.113,25.391,32.227,18.555,0.0,0
1581608772.8170002,20.508000000000006,25.391,23.438,23.926,0.0,0
1581608772.821,26.367,30.273000000000003,19.531,26.855,0.0,0
1581608772.823,19.531,26.855,18.066,25.391,0.0,0
1581608772.827,20.996,22.949,21.484,23.438,0.0,0
1581608772.831,21.973000000000006,24.414,35.156,22.949,0.0,0
1581608772.835,19.043,18.555,39.551,20.02,0.0,0
1581608772.839,17.09,9.277,33.691,19.531,0.0,0
1581608772.843,28.32,9.766,30.273000000000003,21.484,0.0,0
1581608772.847,33.691,23.438,25.879,26.855,0.0,0
1581608772.85,23.926,28.32,29.785,25.879,0.0,0
1581608772.854,30.762,35.645,24.414,20.508000000000006,0.0,0
1581608772.8579998,31.25,46.387,19.531,24.414,0.0,0
1581608772.8620002,20.508000000000006,36.621,25.391,22.949,0.0,0
1581608772.8660002,15.137,13.672,23.926,19.043,0.0,0
1581608772.8679998,14.16,9.277,26.367,21.484,0.0,0
1581608772.8720002,18.066,25.879,33.203,23.926,0.0,0
1581608772.8760002,18.066,37.109,30.762,19.531,0.0,0
1581608772.88,21.484,33.203,24.902,19.043,0.0,0
1581608772.8839998,20.02,19.531,27.344,19.531,0.0,0
1581608772.8879998,28.32,10.254,35.156,24.902,0.0,0
1581608772.8920002,31.738000000000003,16.113,35.156,25.391,0.0,0
1581608772.895,28.32,28.32,22.461,25.391,0.0,0
1581608772.899,29.297,35.156,19.043,22.949,0.0,0
1581608772.903,21.973000000000006,30.762,24.902,17.09,0.0,0
1581608772.907,29.297,28.809,27.344,23.926,0.0,0
1581608772.911,32.227,34.668,26.367,26.855,0.0,0
1581608772.914,10.742,28.32,31.738000000000003,10.742,0.0,0
1581608772.918,7.324,20.996,44.922,10.254,0.0,0
1581608772.9220002,9.766,19.531,47.363,15.137,0.0,0
1581608772.926,7.324,18.066,41.01600000000001,16.602,0.0,0
1581608772.93,8.789,19.531,32.715,20.02,0.0,0
1581608772.934,14.16,21.973000000000006,23.438,13.672,0.0,0
1581608772.938,21.973000000000006,14.648,21.973000000000006,8.301,0.0,0
1581608772.941,22.949,16.602,30.273000000000003,15.137,0.0,0
1581608772.945,19.043,33.691,31.738000000000003,22.949,0.0,0
1581608772.949,12.207,22.949,29.785,22.949,0.0,0
1581608772.9529998,13.184,10.254,25.879,28.32,0.0,0
1581608772.957,23.926,25.391,22.949,31.25,0.0,0
1581608772.958,26.367,26.367,27.344,24.414,0.0,0
1581608772.962,22.949,20.02,33.203,20.996,0.0,0
1581608772.966,24.414,25.879,32.227,25.879,0.0,0
1581608772.97,23.438,26.367,23.926,22.949,0.0,0
1581608772.974,18.066,20.02,31.738000000000003,20.996,0.0,0
1581608772.978,17.578,30.762,37.598,24.414,0.0,0
1581608772.982,27.832,35.645,26.855,16.602,0.0,0
1581608772.985,20.508000000000006,23.926,29.297,11.719,0.0,0
1581608772.9889998,8.789,32.227,32.715,15.625,0.0,0
1581608772.9929998,12.207,34.668,29.785,16.602,0.0,0
1581608772.9970002,15.137,25.391,30.273000000000003,16.113,0.0,0
1581608773.0010002,21.973000000000006,26.855,34.668,19.531,0.0,0
1581608773.0029998,25.879,18.555,34.668,22.461,0.0,0
1581608773.0070002,20.02,11.23,22.461,24.902,0.0,0
1581608773.0110002,16.602,26.855,23.438,26.855,0.0,0
1581608773.015,16.113,39.551,34.668,23.926,0.0,0
1581608773.019,12.695,28.32,30.762,15.625,0.0,0
1581608773.0229998,16.602,25.391,31.25,18.066,0.0,0
1581608773.0270002,18.555,39.062,34.668,23.926,0.0,0
1581608773.03,14.16,41.504,30.762,23.438,0.0,0
1581608773.034,21.973000000000006,38.574,28.32,29.297,0.0,0
1581608773.038,28.809,32.715,31.25,30.762,0.0,0
1581608773.042,20.508000000000006,20.02,29.297,22.949,0.0,0
1581608773.046,17.578,26.367,16.602,22.461,0.0,0
1581608773.064,16.602,27.832,21.973000000000006,22.461,0.0,0
1581608773.0679998,16.113,9.277,33.691,15.625,0.0,0
1581608773.072,18.555,9.277,28.32,16.113,0.0,0
1581608773.076,20.508000000000006,22.461,27.832,20.02,0.0,0
1581608773.08,20.996,30.273000000000003,35.156,10.254,0.0,0
1581608773.084,13.184,22.461,32.715,-3.906,0.0,0
1581608773.0879998,15.137,22.461,30.762,2.93,0.0,0
1581608773.091,19.043,39.062,27.344,8.301,0.0,0
1581608773.095,17.09,44.922,14.648,4.883,0.0,0
1581608773.099,18.066,33.691,2.93,0.977,0.0,0
1581608773.103,17.09,35.645,12.695,2.93,0.0,0
1581608773.107,24.414,31.738000000000003,40.527,10.254,0.0,0
1581608773.111,28.809,23.926,53.71100000000001,17.09,0.0,0
1581608773.115,12.207,23.438,38.574,13.672,0.0,0
1581608773.119,3.418,21.973000000000006,25.879,3.418,0.0,0
1581608773.123,11.719,20.996,23.926,0.488,0.0,0
1581608773.127,19.531,25.879,18.555,-2.93,0.0,0
1581608773.131,22.949,38.086,14.648,-1.953,0.0,0
1581608773.135,22.949,33.691,16.602,4.883,0.0,0
1581608773.1379998,24.414,33.691,21.973000000000006,11.719,0.0,0
1581608773.1420002,19.531,31.25,24.414,13.672,0.0,0
1581608773.146,20.02,35.156,28.32,9.277,0.0,0
1581608773.15,24.414,37.598,27.832,10.742,0.0,0
1581608773.154,20.996,20.02,21.484,16.602,0.0,0
1581608773.153,25.391,29.297,27.832,23.438,0.0,0
1581608773.157,32.227,41.01600000000001,22.949,26.855,0.0,0
1581608773.161,30.762,32.227,11.23,24.414,0.0,0
1581608773.165,33.691,28.32,20.02,15.625,0.0,0
1581608773.169,25.879,32.227,31.25,12.695,0.0,0
1581608773.173,18.555,36.133,38.086,16.113,0.0,0
1581608773.177,29.785,41.01600000000001,41.992,16.602,0.0,0
1581608773.18,27.344,43.457,37.598,17.578,0.0,0
1581608773.184,25.879,43.457,34.668,20.02,0.0,0
1581608773.188,30.762,30.762,34.668,22.949,0.0,0
1581608773.1920002,33.203,18.555,36.133,30.273000000000003,0.0,0
1581608773.196,35.156,25.879,24.414,30.762,0.0,0
1581608773.198,30.273000000000003,28.32,13.184,26.855,0.0,0
1581608773.202,29.297,26.367,24.414,25.391,0.0,0
1581608773.206,33.203,22.949,37.598,31.738000000000003,0.0,0
1581608773.21,30.762,36.621,40.039,33.203,0.0,0
1581608773.214,34.668,51.27,38.574,28.809,0.0,0
1581608773.218,33.691,39.062,33.691,32.227,0.0,0
1581608773.222,28.809,22.461,33.691,35.645,0.0,0
1581608773.225,20.996,17.578,29.297,31.738000000000003,0.0,0
1581608773.229,16.113,15.625,20.996,21.484,0.0,0
1581608773.2329998,18.555,22.461,27.344,18.555,0.0,0
1581608773.2370002,19.043,26.855,33.691,16.602,0.0,0
1581608773.2410002,17.578,15.625,36.621,18.066,0.0,0
1581608773.2429998,12.695,19.531,39.062,21.484,0.0,0
1581608773.2470002,9.277,33.691,29.785,14.648,0.0,0
1581608773.2510002,12.207,41.504,26.367,12.207,0.0,0
1581608773.255,13.184,37.598,30.762,7.812,0.0,0
1581608773.2589998,5.371,32.227,30.273000000000003,3.418,0.0,0
1581608773.2629998,4.883,33.691,28.809,7.324,0.0,0
1581608773.2670002,3.906,28.32,25.391,8.789,0.0,0
1581608773.27,2.93,20.508000000000006,21.973000000000006,12.207,0.0,0
1581608773.274,8.301,15.137,25.879,18.066,0.0,0
1581608773.278,10.742,14.648,33.203,31.25,0.0,0
1581608773.282,20.508000000000006,21.973000000000006,38.574,37.109,0.0,0
1581608773.286,28.32,26.367,40.039,30.762,0.0,0
1581608773.288,30.273000000000003,31.738000000000003,40.039,32.715,0.0,0
1581608773.292,36.621,47.363,35.645,37.598,0.0,0
1581608773.296,40.527,51.758,32.227,36.133,0.0,0
1581608773.3,37.109,40.039,28.809,34.18,0.0,0
1581608773.304,31.738000000000003,34.668,16.113,32.227,0.0,0
1581608773.3079998,29.785,25.879,18.555,25.879,0.0,0
1581608773.312,30.762,17.578,36.621,24.414,0.0,0
1581608773.315,29.297,25.391,41.01600000000001,29.785,0.0,0
1581608773.319,28.809,27.832,34.18,24.414,0.0,0
1581608773.323,31.738000000000003,31.738000000000003,37.109,19.043,0.0,0
1581608773.327,34.668,26.367,37.598,23.438,0.0,0
1581608773.331,28.32,22.949,23.926,22.949,0.0,0
1581608773.333,19.531,33.203,20.996,18.555,0.0,0
1581608773.337,17.578,35.645,29.785,15.625,0.0,0
1581608773.341,21.973000000000006,26.367,30.762,17.578,0.0,0
1581608773.345,24.902,19.531,18.066,17.09,0.0,0
1581608773.349,19.043,41.01600000000001,16.602,17.09,0.0,0
1581608773.353,17.578,45.898,26.855,26.367,0.0,0
1581608773.357,15.625,23.438,32.227,19.043,0.0,0
1581608773.36,5.371,20.02,34.668,9.277,0.0,0
1581608773.3639998,9.766,31.738000000000003,31.25,16.602,0.0,0
1581608773.3679998,18.555,30.762,29.785,19.531,0.0,0
1581608773.3720002,19.531,19.043,38.574,21.484,0.0,0
1581608773.3760002,19.043,19.531,34.18,26.367,0.0,0
1581608773.3779998,7.812,26.367,21.973000000000006,25.879,0.0,0
1581608773.3820002,6.836,34.668,18.555,21.484,0.0,0
1581608773.3860002,15.137,33.691,22.461,14.648,0.0,0
1581608773.39,12.695,26.855,38.574,15.137,0.0,0
1581608773.394,10.254,18.555,44.434,12.695,0.0,0
1581608773.3979998,15.137,25.879,38.086,14.16,0.0,0
1581608773.4020002,16.602,29.297,36.133,19.531,0.0,0
1581608773.405,18.066,22.949,30.762,17.09,0.0,0
1581608773.409,24.414,13.184,26.367,13.672,0.0,0
1581608773.413,28.32,3.906,27.344,20.508000000000006,0.0,0
1581608773.417,35.156,17.578,28.809,30.762,0.0,0
1581608773.421,33.203,16.602,26.367,31.738000000000003,0.0,0
1581608773.438,22.461,8.789,29.297,27.344,0.0,0
1581608773.4420002,26.367,20.996,39.551,24.902,0.0,0
1581608773.446,35.645,41.504,41.992,30.762,0.0,0
1581608773.45,34.18,37.109,39.551,31.25,0.0,0
1581608773.454,34.18,24.902,37.598,34.18,0.0,0
1581608773.458,38.086,33.691,36.133,40.527,0.0,0
1581608773.462,37.109,35.156,34.668,35.156,0.0,0
1581608773.465,36.133,23.438,27.344,26.855,0.0,0
1581608773.469,37.598,21.484,16.113,25.879,0.0,0
1581608773.4729998,40.039,21.973000000000006,15.137,25.879,0.0,0
1581608773.4770002,40.039,20.508000000000006,30.762,21.973000000000006,0.0,0
1581608773.481,34.668,33.203,41.504,17.09,0.0,0
1581608773.4829998,32.227,42.969,40.039,18.555,0.0,0
1581608773.4870002,30.762,28.32,33.203,25.391,0.0,0
1581608773.4910002,17.578,19.043,31.738000000000003,25.391,0.0,0
1581608773.495,12.207,24.902,35.156,27.832,0.0,0
1581608773.4989998,14.16,18.066,30.273000000000003,26.367,0.0,2
1581608773.5029998,0.488,17.09,23.438,18.555,0.0,0
1581608773.5070002,-1.953,31.738000000000003,26.855,20.508000000000006,0.0,0
1581608773.51,5.859,22.949,32.227,18.555,0.0,0
1581608773.514,5.859,19.531,31.25,10.254,0.0,0
1581608773.518,-4.395,20.996,28.32,-0.488,0.0,0
1581608773.522,-4.883,21.973000000000006,30.762,-0.977,0.0,0
1581608773.526,0.977,32.715,33.691,1.465,0.0,0
1581608773.5270002,0.0,25.879,34.18,0.977,0.0,0
1581608773.531,-2.93,23.926,37.109,2.441,0.0,0
1581608773.535,1.465,39.551,24.414,4.883,0.0,0
1581608773.539,6.348,38.574,11.23,1.953,0.0,0
1581608773.543,-3.418,26.855,22.949,-0.488,0.0,0
1581608773.5470002,0.0,20.508000000000006,37.598,7.324,0.0,0
1581608773.551,4.883,23.438,39.062,12.207,0.0,0
1581608773.554,4.395,24.414,25.391,14.648,0.0,0
1581608773.5579998,12.695,22.461,24.902,11.23,0.0,0
1581608773.562,20.996,28.809,39.062,16.602,0.0,0
1581608773.566,27.832,33.203,46.875,23.926,0.0,0
1581608773.57,27.832,32.227,37.109,27.344,0.0,0
1581608773.572,31.738000000000003,25.879,25.391,33.691,0.0,0
1581608773.576,37.109,28.809,33.691,36.133,0.0,0
1581608773.58,39.062,43.945,46.387,44.434,0.0,0
1581608773.584,46.875,36.133,48.34,49.805,0.0,0
1581608773.5879998,41.01600000000001,11.23,34.668,40.527,0.0,0
1581608773.592,36.133,3.418,24.414,31.25,0.0,0
1581608773.596,40.039,19.531,34.668,34.18,0.0,0
1581608773.599,35.645,34.18,39.551,36.621,0.0,0
1581608773.603,39.062,33.203,31.25,33.691,0.0,0
1581608773.607,42.48,27.832,28.809,33.203,0.0,0
1581608773.611,30.273000000000003,26.367,39.062,37.598,0.0,0
1581608773.615,23.926,20.996,41.504,35.645,0.0,0
1581608773.6179998,34.668,20.996,33.203,35.645,0.0,0
1581608773.6220002,36.133,19.043,34.18,32.227,0.0,0
1581608773.6260002,32.227,17.578,41.01600000000001,24.902,0.0,0
1581608773.63,36.621,32.227,45.41,29.785,0.0,0
1581608773.6339998,39.062,34.668,42.969,33.691,0.0,0
1581608773.6379998,36.133,19.043,33.203,37.598,0.0,0
1581608773.6420002,28.32,10.742,27.344,35.156,0.0,0
1581608773.645,28.809,29.297,25.879,33.691,0.0,0
1581608773.649,34.668,36.621,21.973000000000006,36.133,0.0,0
1581608773.653,27.344,23.438,30.762,32.227,0.0,0
1581608773.657,23.926,21.973000000000006,41.01600000000001,23.438,0.0,0
1581608773.661,24.414,23.438,42.48,18.066,0.0,0
1581608773.663,22.461,27.832,42.48,16.602,0.0,0
1581608773.667,27.832,25.879,45.898,16.602,0.0,0
1581608773.671,25.879,20.02,40.039,17.09,0.0,0
1581608773.675,21.973000000000006,27.344,27.344,13.184,0.0,0
1581608773.679,25.879,26.367,19.531,9.277,0.0,0
1581608773.6829998,25.879,23.926,20.996,14.16,0.0,0
1581608773.687,26.855,27.344,24.414,16.602,0.0,0
1581608773.69,22.949,29.785,33.691,10.254,0.0,0
1581608773.694,18.555,28.809,39.062,13.184,0.0,0
1581608773.698,18.555,20.02,34.668,15.137,0.0,0
1581608773.702,20.508000000000006,13.184,28.32,21.484,0.0,0
1581608773.706,32.227,19.531,21.484,30.273000000000003,0.0,0
1581608773.708,34.18,25.391,18.066,33.691,0.0,0
1581608773.712,26.855,24.902,18.555,27.344,0.0,0
1581608773.716,33.203,32.715,17.09,30.273000000000003,0.0,0
1581608773.72,38.574,40.527,13.672,38.086,0.0,0
1581608773.724,40.039,28.32,18.555,36.133,0.0,0
1581608773.728,42.48,27.832,22.461,36.133,0.0,0
1581608773.732,39.551,39.062,23.926,35.645,0.0,0
1581608773.735,45.41,38.574,29.297,42.48,0.0,0
1581608773.7389998,48.828,29.785,27.344,52.734,0.0,0
1581608773.7429998,50.78100000000001,29.297,25.391,58.594,0.0,0
1581608773.7470002,50.78100000000001,33.203,20.508000000000006,52.734,0.0,0
1581608773.7510002,35.156,35.645,12.695,40.039,0.0,0
1581608773.7529998,29.297,29.785,2.93,37.109,0.0,0
1581608773.7570002,34.668,28.809,4.395,43.945,0.0,0
1581608773.7610002,38.574,35.156,31.738000000000003,42.48,0.0,0
1581608773.765,38.086,43.457,47.363,39.062,0.0,0
1581608773.769,32.715,44.922,40.527,34.668,0.0,0
1581608773.7729998,28.809,28.32,37.598,31.25,0.0,0
1581608773.7770002,30.762,23.926,36.133,29.785,0.0,0
1581608773.78,34.18,29.297,28.809,32.227,0.0,0
1581608773.784,28.809,22.949,21.973000000000006,37.598,0.0,0
1581608773.788,21.484,22.461,18.066,38.086,0.0,0
1581608773.792,29.785,34.668,26.855,37.598,0.0,0
1581608773.796,32.227,37.109,28.32,36.621,0.0,0
1581608773.813,26.367,21.973000000000006,24.902,27.344,0.0,0
1581608773.8170002,27.344,19.043,31.25,28.809,0.0,0
1581608773.821,24.414,32.715,37.109,31.25,0.0,0
1581608773.825,19.531,35.645,31.738000000000003,28.809,0.0,0
1581608773.829,22.461,39.062,27.344,33.691,0.0,0
1581608773.833,21.484,29.785,30.273000000000003,28.32,0.0,0
1581608773.837,22.461,22.461,22.949,22.949,0.0,0
1581608773.84,27.832,33.203,21.973000000000006,28.32,0.0,0
1581608773.844,29.785,37.598,26.855,33.203,0.0,0
1581608773.8479998,20.508000000000006,30.273000000000003,23.438,24.902,0.0,0
1581608773.8520002,22.949,18.555,30.273000000000003,23.438,0.0,0
1581608773.856,33.203,19.531,41.992,35.645,0.0,0
1581608773.8579998,31.25,26.367,43.945,40.039,0.0,0
1581608773.8620002,31.25,24.902,41.504,31.738000000000003,0.0,0
1581608773.8660002,32.227,32.227,40.039,28.32,0.0,0
1581608773.87,28.809,38.086,30.273000000000003,37.598,0.0,0
1581608773.8739998,29.785,31.738000000000003,28.32,37.598,0.0,0
1581608773.8779998,25.391,30.762,35.645,23.926,0.0,0
1581608773.8820002,23.926,34.668,39.551,18.555,0.0,0
1581608773.885,34.668,42.48,23.438,22.461,0.0,0
1581608773.889,34.668,36.621,12.207,28.32,0.0,0
1581608773.893,29.297,24.414,26.855,26.855,0.0,0
1581608773.897,32.715,32.227,37.109,31.738000000000003,0.0,0
1581608773.901,32.715,40.039,37.598,29.785,0.0,0
1581608773.903,24.414,35.156,32.715,20.508000000000006,0.0,0
1581608773.907,27.344,32.227,29.785,28.32,0.0,0
1581608773.911,30.762,22.949,29.297,33.691,0.0,0
1581608773.915,27.344,10.742,30.273000000000003,27.832,0.0,0
1581608773.919,23.438,23.926,31.738000000000003,25.879,0.0,0
1581608773.923,26.367,37.598,33.691,26.855,0.0,0
1581608773.927,34.18,26.367,33.203,27.344,0.0,0
1581608773.93,28.809,18.555,22.949,26.367,0.0,0
1581608773.934,26.367,17.09,19.043,21.484,0.0,0
1581608773.938,26.367,10.254,27.832,28.32,0.0,0
1581608773.9420002,24.414,4.395,29.785,29.297,0.0,0
1581608773.946,24.902,14.16,25.879,21.973000000000006,0.0,0
1581608773.948,26.367,38.086,28.32,20.508000000000006,0.0,0
1581608773.952,27.832,36.621,34.668,23.926,0.0,0
1581608773.956,26.855,26.367,36.621,28.32,0.0,0
1581608773.96,21.973000000000006,32.227,29.297,21.973000000000006,0.0,0
1581608773.964,20.02,36.621,23.926,17.578,0.0,0
1581608773.968,17.578,29.297,30.762,24.414,0.0,0
1581608773.972,19.531,28.809,28.32,22.949,0.0,0
1581608773.975,22.461,20.02,28.32,19.531,0.0,0
1581608773.979,25.391,-0.488,26.855,19.531,0.0,0
1581608773.9829998,25.391,9.766,23.926,20.02,0.0,0
1581608773.9870002,15.625,30.762,33.691,22.461,0.0,0
1581608773.9910002,17.578,41.01600000000001,37.109,22.949,0.0,0
1581608773.9929998,26.367,46.387,29.785,20.02,0.0,0
1581608773.9970002,25.879,30.273000000000003,21.973000000000006,19.531,0.0,0
1581608774.0010002,28.32,21.973000000000006,18.066,24.902,0.0,0
1581608774.005,27.832,29.785,22.461,30.762,0.0,0
1581608774.0089998,29.785,27.344,21.484,30.762,0.0,0
1581608774.0129998,36.621,26.367,22.461,35.645,0.0,0
1581608774.0170002,41.992,24.902,34.18,42.969,0.0,0
1581608774.02,38.086,25.879,35.156,40.527,0.0,0
1581608774.024,32.715,25.879,40.527,31.25,0.0,0
1581608774.028,31.25,34.668,44.434,34.18,0.0,0
1581608774.032,33.203,42.969,33.691,38.086,0.0,0
1581608774.036,27.344,39.551,24.902,35.645,0.0,0
1581608774.038,29.785,36.621,22.461,36.621,0.0,0
1581608774.042,32.227,21.484,27.344,33.691,0.0,0
1581608774.046,30.762,28.809,26.367,35.645,0.0,0
1581608774.05,34.18,30.762,18.555,33.203,0.0,0
1581608774.054,28.809,18.066,26.367,29.297,0.0,0
1581608774.0579998,33.691,16.113,33.203,35.645,0.0,0
1581608774.062,34.18,24.902,36.621,37.598,0.0,0
1581608774.065,16.113,36.133,37.598,17.578,0.0,0
1581608774.069,12.695,32.227,32.227,8.789,0.0,0
1581608774.073,19.043,33.203,23.926,18.066,0.0,0
1581608774.077,12.695,31.25,21.484,20.02,0.0,0
1581608774.081,9.766,28.32,27.344,20.02,0.0,0
1581608774.083,20.996,28.809,24.414,20.02,0.0,0
1581608774.087,22.949,20.996,16.113,17.09,0.0,0
1581608774.091,14.648,11.719,27.832,18.555,0.0,0
1581608774.095,17.09,17.578,38.574,26.367,0.0,0
1581608774.099,25.879,34.668,38.574,23.926,0.0,0
1581608774.103,32.227,43.457,37.109,19.531,0.0,0
1581608774.107,26.367,32.227,29.297,19.043,0.0,0
1581608774.11,20.508000000000006,21.973000000000006,25.879,20.508000000000006,0.0,0
1581608774.1139998,23.926,27.832,24.902,21.973000000000006,0.0,0
1581608774.1179998,26.855,39.551,22.949,20.02,0.0,0
1581608774.1220002,24.414,44.434,23.926,23.438,0.0,0
1581608774.1260002,27.832,31.25,26.367,27.832,0.0,0
1581608774.1279998,36.133,12.695,35.156,29.297,0.0,0
1581608774.1320002,35.156,20.508000000000006,41.992,28.809,0.0,0
1581608774.1360002,31.738000000000003,30.273000000000003,34.668,32.227,0.0,0
1581608774.14,28.809,34.668,23.926,29.297,0.0,0
1581608774.144,31.738000000000003,30.273000000000003,27.832,24.902,0.0,0
1581608774.1479998,22.949,17.09,35.156,27.832,0.0,0
1581608774.1520002,20.02,25.879,34.668,28.809,0.0,0
1581608774.155,32.227,25.391,36.621,32.227,0.0,0
1581608774.159,28.809,22.461,24.902,34.668,0.0,0
1581608774.163,27.344,36.133,17.09,28.809,0.0,0
1581608774.167,28.32,38.574,32.715,26.855,0.0,0
1581608774.171,30.762,34.668,38.086,33.203,0.0,0
1581608774.188,30.273000000000003,34.18,30.762,27.832,0.0,0
1581608774.1920002,25.391,39.062,23.438,23.438,0.0,0
1581608774.196,28.809,46.387,28.809,24.902,0.0,0
1581608774.2,26.855,30.762,39.062,21.484,0.0,0
1581608774.204,20.508000000000006,14.16,32.715,17.578,0.0,0
1581608774.208,25.391,29.297,25.391,18.066,0.0,0
1581608774.212,20.508000000000006,32.227,22.949,10.254,0.0,0
1581608774.215,14.16,25.879,22.949,3.418,0.0,0
1581608774.219,21.973000000000006,31.738000000000003,32.227,11.23,0.0,0
1581608774.2229998,24.414,23.926,40.039,16.602,0.0,0
1581608774.2270002,23.438,18.555,40.039,15.137,0.0,0
1581608774.231,26.855,32.715,30.273000000000003,10.742,0.0,0
1581608774.2329998,14.648,38.574,25.391,9.766,0.0,0
1581608774.2370002,2.441,29.785,31.25,13.184,0.0,0
1581608774.2410002,10.742,24.414,26.855,14.648,0.0,0
1581608774.245,15.137,20.996,17.578,9.766,0.0,0
1581608774.2489998,10.254,22.949,24.414,8.301,0.0,0
1581608774.2529998,16.602,27.832,37.598,16.113,0.0,0
1581608774.2570002,21.973000000000006,28.809,40.527,20.996,0.0,0
1581608774.26,22.461,24.414,29.297,14.648,0.0,0
1581608774.264,23.438,16.602,23.438,15.137,0.0,0
1581608774.268,26.855,17.09,30.762,19.043,0.0,0
1581608774.272,31.738000000000003,29.297,32.227,19.043,0.0,0
1581608774.276,33.203,26.367,32.715,22.461,0.0,0
1581608774.279,33.691,20.02,30.762,30.273000000000003,0.0,0
1581608774.283,28.32,27.344,20.996,27.832,0.0,0
1581608774.2870002,25.879,25.391,24.414,25.879,0.0,0
1581608774.291,31.25,27.832,33.691,28.32,0.0,0
