timestamps,TP9,AF7,AF8,TP10,Right AUX,Marker0
1582309017.4889998,12.695,34.668,14.648,20.996,0.0,0
1582309017.4929998,21.973000000000006,37.109,16.602,25.879,0.0,0
1582309017.4970002,19.043,32.715,11.23,30.273000000000003,0.0,0
1582309017.5010002,20.02,10.254,11.719,29.297,0.0,0
1582309017.505,24.902,2.441,24.414,33.691,0.0,0
1582309017.5089998,20.996,25.391,23.438,35.156,0.0,0
1582309017.5129998,15.137,41.01600000000001,18.555,30.762,0.0,0
1582309017.516,11.719,35.156,18.066,23.926,0.0,0
1582309017.52,22.461,11.719,18.066,27.344,0.0,0
1582309017.524,30.762,23.438,20.508000000000006,34.18,0.0,0
1582309017.528,24.902,54.688,17.578,20.508000000000006,0.0,0
1582309017.532,30.762,59.57,12.207,13.184,0.0,0
1582309017.549,42.48,46.387,12.207,15.137,0.0,0
1582309017.553,49.316,31.25,11.23,12.207,0.0,0
1582309017.5570002,44.922,39.062,3.418,7.812,0.0,0
1582309017.561,35.645,39.551,7.812,9.766,0.0,0
1582309017.565,36.621,36.133,17.578,21.484,0.0,0
1582309017.569,31.25,26.367,18.066,34.668,0.0,0
1582309017.573,17.09,30.273000000000003,19.531,38.574,0.0,0
1582309017.576,13.672,25.879,20.996,33.691,0.0,0
1582309017.58,15.137,10.254,22.949,35.645,0.0,0
1582309017.584,14.16,34.18,22.461,36.133,0.0,0
1582309017.5879998,10.254,47.363,17.09,26.367,0.0,0
1582309017.592,8.789,37.109,17.578,24.414,0.0,0
1582309017.594,13.184,23.438,15.625,28.809,0.0,0
1582309017.5979998,16.113,33.691,13.672,27.344,0.0,0
1582309017.6020002,23.438,23.926,10.742,27.832,0.0,0
1582309017.606,18.066,9.766,12.207,23.926,0.0,0
1582309017.61,10.254,38.086,23.438,20.508000000000006,0.0,0
1582309017.6139998,14.16,47.852,24.414,25.879,0.0,0
1582309017.6179998,17.578,39.062,22.461,26.367,0.0,0
1582309017.621,20.508000000000006,20.02,23.926,29.785,0.0,0
1582309017.625,16.113,16.602,20.508000000000006,30.762,0.0,0
1582309017.629,15.625,41.01600000000001,16.113,25.391,0.0,0
1582309017.633,17.09,60.059,20.508000000000006,24.414,0.0,0
1582309017.637,5.859,51.27,23.438,26.855,0.0,0
1582309017.653,7.324,26.855,20.508000000000006,29.785,0.0,0
1582309017.657,12.695,13.184,20.02,24.902,0.0,0
1582309017.661,11.23,29.785,19.531,19.531,0.0,0
1582309017.665,13.184,38.574,19.043,18.555,0.0,0
1582309017.669,12.695,38.574,19.043,18.066,0.0,0
1582309017.673,5.859,24.414,20.02,16.602,0.0,0
1582309017.677,12.695,8.301,23.438,25.879,0.0,0
1582309017.68,19.531,20.996,26.367,27.344,0.0,0
1582309017.684,13.672,41.01600000000001,24.902,20.02,0.0,0
1582309017.688,14.16,51.758,21.973000000000006,22.461,0.0,0
1582309017.6920002,19.043,52.246,13.672,24.902,0.0,0
1582309017.696,26.855,46.387,16.602,29.297,0.0,0
1582309017.6829998,22.949,39.062,25.879,29.785,0.0,0
1582309017.687,15.625,35.156,20.508000000000006,32.227,0.0,0
1582309017.691,19.531,25.879,22.949,34.18,0.0,0
1582309017.695,23.926,12.207,25.391,27.832,0.0,0
1582309017.699,27.344,13.184,22.461,30.273000000000003,0.0,0
1582309017.7029998,25.879,16.113,22.461,30.762,0.0,0
1582309017.707,25.391,20.02,23.926,28.32,0.0,0
1582309017.71,27.832,30.762,20.996,31.738000000000003,0.0,0
1582309017.714,31.25,27.832,18.066,32.227,0.0,0
1582309017.718,27.344,34.668,19.531,25.879,0.0,0
1582309017.722,22.461,51.758,20.02,28.809,0.0,0
1582309017.726,27.344,49.805,18.555,34.668,0.0,0
1582309017.728,27.832,41.992,18.555,28.809,0.0,0
1582309017.732,23.926,31.25,18.555,21.973000000000006,0.0,0
1582309017.736,25.391,37.109,18.066,23.926,0.0,0
1582309017.74,27.344,32.227,19.043,27.832,0.0,0
1582309017.744,36.133,23.438,20.996,33.203,0.0,0
1582309017.748,36.133,30.273000000000003,24.414,34.668,0.0,0
1582309017.752,28.32,32.227,15.625,33.203,0.0,0
1582309017.755,26.855,7.812,17.578,28.32,0.0,0
1582309017.7589998,30.762,14.16,29.297,23.438,0.0,0
1582309017.7629998,30.273000000000003,50.78100000000001,29.297,27.832,0.0,0
1582309017.7670002,28.32,31.25,29.297,29.297,0.0,0
1582309017.771,33.691,16.602,26.855,33.691,0.0,0
1582309017.7729998,31.25,42.48,23.926,29.785,0.0,0
1582309017.7770002,31.738000000000003,44.434,21.973000000000006,24.414,0.0,0
1582309017.781,31.25,44.434,16.113,27.344,0.0,0
1582309017.785,29.785,32.227,16.602,28.809,0.0,0
1582309017.789,35.156,34.668,18.555,27.344,0.0,0
1582309017.793,40.527,50.78100000000001,18.066,31.25,0.0,0
1582309017.7970002,36.621,33.691,19.043,27.832,0.0,0
1582309017.8,35.156,26.367,22.461,27.832,0.0,0
1582309017.804,38.086,35.645,23.438,32.227,0.0,0
1582309017.8079998,42.48,18.066,21.484,31.738000000000003,0.0,0
1582309017.812,39.062,21.484,25.879,31.25,0.0,0
1582309017.816,25.391,27.344,29.785,26.367,0.0,0
1582309017.819,23.926,25.879,25.879,34.18,0.0,0
1582309017.823,25.879,49.316,13.184,32.227,0.0,0
1582309017.827,23.438,40.527,10.254,27.344,0.0,0
1582309017.831,16.602,22.949,20.996,30.762,0.0,0
1582309017.835,15.625,26.855,17.578,25.391,0.0,0
1582309017.839,25.391,35.156,18.555,27.832,0.0,0
1582309017.843,25.879,42.48,25.879,25.879,0.0,0
1582309017.846,24.414,25.391,25.879,26.855,0.0,0
1582309017.85,30.762,21.484,27.344,32.715,0.0,0
1582309017.854,33.691,27.344,29.297,29.297,0.0,0
1582309017.8579998,32.227,24.414,28.809,30.762,0.0,0
1582309017.8620002,31.25,42.48,27.344,36.621,0.0,0
1582309017.879,25.391,19.043,25.391,33.203,0.0,0
1582309017.883,27.344,5.859,21.973000000000006,27.832,0.0,0
1582309017.887,43.945,43.945,23.926,32.227,0.0,0
1582309017.891,42.969,28.32,28.809,37.109,0.0,0
1582309017.895,25.879,28.809,19.531,26.367,0.0,0
1582309017.899,24.902,53.71100000000001,15.137,25.879,0.0,0
1582309017.903,28.32,40.039,19.531,26.367,0.0,0
1582309017.906,29.785,29.785,18.066,22.461,0.0,0
1582309017.91,30.762,30.273000000000003,18.066,27.832,0.0,0
1582309017.914,35.645,37.109,23.438,31.738000000000003,0.0,0
1582309017.918,47.852,23.926,21.973000000000006,35.156,0.0,0
1582309017.9220002,47.852,27.344,21.484,34.18,0.0,0
1582309017.924,38.574,38.574,16.113,30.762,0.0,0
1582309017.928,39.062,36.621,7.324,32.227,0.0,0
1582309017.9320002,43.945,39.551,21.973000000000006,33.691,0.0,0
1582309017.936,39.551,46.875,27.832,32.715,0.0,0
1582309017.94,33.203,36.621,19.043,32.227,0.0,0
1582309017.944,33.203,25.391,21.973000000000006,34.18,0.0,0
1582309017.948,32.715,24.414,26.855,34.18,0.0,0
1582309017.951,29.785,16.113,24.414,30.762,0.0,0
1582309017.955,27.832,22.949,20.508000000000006,28.32,0.0,0
1582309017.959,30.762,21.484,24.414,39.062,0.0,0
1582309017.9629998,38.574,26.855,26.367,40.039,0.0,0
1582309017.967,40.527,28.32,18.555,27.344,0.0,0
1582309017.969,33.691,27.832,17.578,30.273000000000003,0.0,0
1582309017.9729998,27.832,40.527,22.949,31.738000000000003,0.0,0
1582309017.9770002,27.832,32.227,23.438,24.414,0.0,0
1582309017.981,32.715,28.809,19.531,23.438,0.0,0
1582309017.985,38.086,33.203,20.996,27.832,0.0,0
1582309017.9889998,33.203,41.504,20.996,23.438,0.0,0
1582309017.9929998,30.762,24.902,21.973000000000006,21.973000000000006,0.0,0
1582309017.996,35.156,8.789,20.996,22.461,0.0,0
1582309018.0,37.109,31.738000000000003,18.066,20.02,0.0,0
1582309018.004,30.762,46.875,16.113,15.625,0.0,0
1582309018.008,29.297,45.41,14.648,18.555,0.0,0
1582309018.012,39.062,33.691,10.254,29.785,0.0,0
1582309018.014,43.457,7.812,8.301,31.738000000000003,0.0,0
1582309018.018,34.18,13.672,16.602,22.949,0.0,0
1582309018.022,26.367,28.32,27.832,20.996,0.0,0
1582309018.026,29.297,6.348,33.691,28.32,0.0,0
1582309018.03,37.109,25.879,28.809,31.738000000000003,0.0,0
1582309018.034,51.27,55.664,25.879,38.574,0.0,0
1582309018.038,43.457,53.71100000000001,23.926,29.785,0.0,0
1582309018.041,20.996,45.898,19.043,10.254,0.0,0
1582309018.045,25.879,34.668,17.578,15.625,0.0,0
1582309018.049,26.855,31.25,16.602,17.578,0.0,0
1582309018.053,17.578,25.391,20.996,16.113,0.0,0
1582309018.0570002,16.113,20.02,26.367,19.043,0.0,0
1582309018.059,25.391,25.391,27.344,29.785,0.0,0
1582309018.063,34.18,21.484,29.785,38.086,0.0,0
1582309018.0670002,35.645,23.438,27.344,34.668,0.0,0
1582309018.071,40.039,23.926,22.949,37.109,0.0,0
1582309018.075,40.039,21.484,18.555,36.621,0.0,0
1582309018.079,43.457,21.484,20.508000000000006,36.133,0.0,0
1582309018.083,48.34,31.25,24.414,35.156,0.0,0
1582309018.086,36.621,43.945,24.902,34.668,0.0,0
1582309018.09,31.738000000000003,19.043,24.902,36.621,0.0,0
1582309018.094,43.945,8.301,23.926,41.504,0.0,0
1582309018.0979998,42.48,32.715,28.32,40.527,0.0,0
1582309018.1020002,30.273000000000003,34.668,23.926,34.668,0.0,0
1582309018.119,32.227,31.25,14.16,38.574,0.0,0
1582309018.123,44.434,16.113,25.879,38.086,0.0,0
1582309018.127,47.852,6.348,28.809,36.133,0.0,0
1582309018.131,40.039,20.508000000000006,25.879,40.039,0.0,0
1582309018.135,33.203,31.738000000000003,28.809,43.457,0.0,0
1582309018.139,37.109,46.387,26.367,40.527,0.0,0
1582309018.143,45.41,41.504,26.367,37.109,0.0,0
1582309018.146,49.805,37.598,31.738000000000003,43.457,0.0,0
1582309018.15,36.621,51.27,25.391,36.133,0.0,0
1582309018.154,25.879,39.551,16.113,23.926,0.0,0
1582309018.158,32.227,36.621,17.578,26.855,0.0,0
1582309018.1620002,35.645,10.742,20.996,33.691,0.0,0
1582309018.149,31.25,0.0,24.414,36.133,0.0,0
1582309018.153,27.344,21.973000000000006,21.973000000000006,31.738000000000003,0.0,0
1582309018.157,30.273000000000003,24.902,19.043,35.645,0.0,0
1582309018.161,30.273000000000003,35.645,22.949,35.156,0.0,0
1582309018.165,29.297,34.18,25.879,30.762,0.0,0
1582309018.169,34.18,39.551,20.996,32.715,0.0,0
1582309018.173,41.992,29.785,19.043,36.133,0.0,0
1582309018.176,46.875,26.855,19.043,29.297,0.0,0
1582309018.18,46.875,24.902,10.254,18.066,0.0,0
1582309018.184,48.828,29.785,2.93,14.648,0.0,0
1582309018.188,54.199,19.531,17.09,16.113,0.0,0
1582309018.1920002,60.059,-13.184,25.391,12.695,0.0,0
1582309018.194,53.71100000000001,37.598,23.438,9.277,0.0,0
1582309018.198,37.109,74.219,20.508000000000006,16.113,0.0,0
1582309018.202,25.391,63.477,21.973000000000006,25.879,0.0,0
1582309018.206,20.996,46.875,25.879,33.203,0.0,0
1582309018.21,24.902,27.832,23.438,39.551,0.0,0
1582309018.214,21.973000000000006,29.297,19.043,38.574,0.0,0
1582309018.218,14.648,30.762,15.137,28.809,0.0,0
1582309018.221,20.02,33.203,14.648,26.367,0.0,0
1582309018.225,19.531,43.457,16.113,23.926,0.0,0
1582309018.229,13.672,39.062,18.555,24.414,0.0,0
1582309018.2329998,11.719,24.902,16.113,27.344,0.0,0
1582309018.2370002,18.066,8.301,18.555,26.367,0.0,0
1582309018.2389998,28.32,23.438,18.066,32.227,0.0,0
1582309018.2429998,21.973000000000006,32.227,9.766,31.25,0.0,0
1582309018.2470002,15.625,33.691,17.09,25.391,0.0,0
1582309018.2510002,18.066,44.922,25.391,30.762,0.0,0
1582309018.255,23.926,35.645,24.414,32.227,0.0,0
1582309018.2589998,29.785,38.574,21.973000000000006,29.297,0.0,0
1582309018.2629998,28.809,39.551,21.484,25.879,0.0,0
1582309018.266,26.855,17.09,23.926,29.297,0.0,0
1582309018.27,24.902,19.043,24.414,21.484,0.0,0
1582309018.274,23.438,25.391,22.949,18.066,0.0,0
1582309018.278,19.531,28.809,20.02,24.902,0.0,0
1582309018.282,20.02,49.805,20.508000000000006,23.438,0.0,0
1582309018.298,27.344,14.648,25.879,27.832,0.0,0
1582309018.302,29.297,6.836,26.367,28.809,0.0,0
1582309018.306,23.926,47.852,14.648,24.902,0.0,0
1582309018.31,14.648,51.758,10.742,23.926,0.0,0
1582309018.314,13.184,49.316,16.602,19.531,0.0,0
1582309018.3179998,20.996,45.898,18.555,20.996,0.0,0
1582309018.322,19.531,30.762,16.602,25.391,0.0,0
1582309018.325,13.184,20.508000000000006,11.23,24.414,0.0,0
1582309018.329,16.602,38.574,14.648,25.391,0.0,0
1582309018.333,27.832,35.645,22.461,28.32,0.0,0
1582309018.337,26.855,19.531,18.555,24.414,0.0,0
1582309018.341,21.973000000000006,28.32,11.719,20.508000000000006,0.0,0
1582309018.344,26.367,18.555,19.531,20.996,0.0,0
1582309018.3479998,25.879,17.578,18.555,18.555,0.0,0
1582309018.3520002,20.996,53.223,15.625,15.137,0.0,0
1582309018.356,21.484,58.105,17.09,24.414,0.0,0
1582309018.36,26.855,50.293,18.066,35.645,0.0,0
1582309018.3639998,30.762,46.875,20.02,32.227,0.0,0
1582309018.3679998,27.832,37.598,18.555,19.043,0.0,0
1582309018.371,19.043,35.156,18.555,10.742,0.0,0
1582309018.375,21.973000000000006,43.457,23.438,16.602,0.0,0
1582309018.379,18.555,41.504,20.508000000000006,8.789,0.0,0
1582309018.383,8.789,38.086,18.066,-6.348,0.0,0
1582309018.387,-1.953,43.457,18.555,-14.16,0.0,0
1582309018.389,-21.484,41.992,20.996,-23.926,0.0,0
1582309018.393,-32.227,37.598,29.785,-32.227,0.0,0
1582309018.397,-35.645,35.645,27.832,-45.41,0.0,0
1582309018.401,-38.086,36.621,27.344,-46.387,0.0,0
1582309018.405,-54.199,28.809,31.738000000000003,-55.176,0.0,0
1582309018.409,-78.125,30.273000000000003,36.133,-85.449,0.0,0
1582309018.413,-93.75,46.875,37.109,-111.816,0.0,0
1582309018.416,-100.098,52.246,37.109,-123.047,0.0,0
1582309018.42,-117.188,54.199,29.785,-130.859,0.0,0
1582309018.424,-131.836,51.758,28.32,-146.97299999999996,0.0,0
1582309018.428,-131.836,53.71100000000001,41.504,-149.414,0.0,0
1582309018.4320002,-137.695,55.176,39.062,-158.203,0.0,0
1582309018.434,-142.578,55.664,32.715,-167.48,0.0,0
1582309018.438,-140.137,35.156,34.668,-161.621,0.0,0
1582309018.4420002,-138.672,-0.488,36.621,-157.715,0.0,0
1582309018.446,-137.207,17.578,38.574,-158.203,0.0,0
1582309018.45,-135.254,42.48,38.086,-159.668,0.0,0
1582309018.454,-130.859,34.668,37.109,-147.94899999999996,0.0,0
1582309018.458,-125.977,36.133,31.738000000000003,-140.137,0.0,0
1582309018.461,-114.258,66.895,27.832,-138.184,0.0,0
1582309018.465,-98.633,66.406,17.578,-119.629,0.0,0
1582309018.469,-87.402,38.574,10.742,-99.609,0.0,0
1582309018.4729998,-77.637,38.086,23.438,-81.055,0.0,0
1582309018.4770002,-52.246,32.715,30.762,-62.012,0.0,0
1582309018.479,-29.785,2.441,27.832,-50.293,0.0,0
1582309018.4829998,-23.438,14.16,21.973000000000006,-31.738000000000003,0.0,0
1582309018.4870002,-15.137,51.27,18.555,-15.137,0.0,0
1582309018.4910002,-6.348,53.223,17.09,-10.742,0.0,0
1582309018.495,8.301,42.969,15.625,0.977,0.0,0
1582309018.4989998,21.484,36.621,15.137,16.602,0.0,0
1582309018.5029998,36.133,6.836,15.137,34.668,0.0,0
1582309018.506,53.71100000000001,-11.719,15.137,44.922,0.0,0
1582309018.51,61.523,8.301,14.16,41.992,0.0,0
1582309018.514,58.594,21.484,11.23,42.48,0.0,0
1582309018.518,50.293,18.066,-0.977,48.828,0.0,0
1582309018.522,55.176,27.344,-2.441,58.594,0.0,0
1582309018.525,75.195,38.574,11.719,69.824,0.0,0
1582309018.529,82.52,22.461,15.137,73.73,0.0,0
1582309018.533,77.148,22.461,15.137,75.195,0.0,0
1582309018.5370002,89.844,10.742,18.555,84.473,0.0,0
1582309018.541,102.539,13.184,18.066,94.727,0.0,0
1582309018.545,102.051,40.527,11.719,98.633,0.0,0
1582309018.549,101.562,27.344,14.648,96.191,0.0,0
1582309018.552,100.098,7.812,16.113,97.168,0.0,0
1582309018.556,97.168,21.484,13.184,96.191,0.0,0
1582309018.56,101.074,27.832,17.578,99.121,0.0,0
1582309018.564,101.074,13.672,17.578,101.074,0.0,0
1582309018.5679998,98.633,21.484,14.16,98.145,0.0,0
1582309018.569,100.586,35.645,14.648,100.098,0.0,0
1582309018.573,102.539,29.297,17.09,111.816,0.0,0
1582309018.577,106.445,22.949,15.625,109.863,0.0,0
1582309018.581,104.492,27.344,16.602,104.004,0.0,0
1582309018.585,98.633,19.531,18.555,104.492,0.0,0
1582309018.589,94.727,7.812,14.648,102.051,0.0,0
1582309018.593,96.68,12.207,6.348,98.145,0.0,0
1582309018.596,85.93799999999997,11.719,13.184,91.797,0.0,0
1582309018.6,76.172,25.391,22.949,84.473,0.0,0
1582309018.604,81.055,37.598,17.09,84.473,0.0,0
1582309018.6079998,83.49600000000002,22.461,16.602,88.867,0.0,0
1582309018.6120002,84.961,22.949,19.043,87.891,0.0,0
1582309018.6139998,80.078,24.902,20.508000000000006,83.49600000000002,0.0,0
1582309018.6179998,79.59,20.02,20.996,80.566,0.0,0
1582309018.6220002,82.52,25.391,13.672,87.402,0.0,0
1582309018.6260002,78.613,26.367,15.625,83.49600000000002,0.0,0
1582309018.63,71.289,16.113,20.508000000000006,71.777,0.0,0
1582309018.6339998,75.195,-6.348,20.02,78.613,0.0,0
1582309018.6379998,78.613,2.441,20.996,82.031,0.0,0
1582309018.641,73.73,28.32,25.879,79.59,0.0,0
1582309018.645,68.359,27.344,24.902,78.613,0.0,0
1582309018.649,66.406,34.668,20.508000000000006,71.777,0.0,0
1582309018.653,67.87100000000001,40.039,21.973000000000006,69.824,0.0,0
1582309018.657,70.312,40.039,23.438,72.75399999999998,0.0,0
1582309018.674,67.87100000000001,22.949,20.996,66.406,0.0,0
1582309018.678,61.035,-7.812,17.578,63.965,0.0,0
1582309018.6820002,60.059,0.488,20.508000000000006,66.895,0.0,0
1582309018.686,64.453,32.715,18.555,64.453,0.0,0
1582309018.69,59.57,55.176,7.324,62.5,0.0,0
1582309018.694,49.316,44.922,12.207,55.664,0.0,0
1582309018.698,53.223,26.855,25.879,57.129,0.0,0
1582309018.701,56.152,21.484,25.879,57.617,0.0,0
1582309018.705,50.78100000000001,20.508000000000006,22.461,45.898,0.0,0
1582309018.709,48.828,22.949,25.879,47.363,0.0,0
1582309018.7129998,43.457,23.926,26.367,43.457,0.0,0
1582309018.717,41.504,34.668,19.531,34.668,0.0,0
1582309018.719,38.574,42.48,20.02,36.133,0.0,0
1582309018.7229998,31.25,35.645,26.367,38.574,0.0,0
1582309018.7270002,35.645,38.086,24.902,41.504,0.0,0
1582309018.731,44.434,27.832,24.414,49.316,0.0,0
1582309018.735,45.41,11.719,23.438,44.434,0.0,0
1582309018.7389998,42.48,10.742,20.02,37.109,0.0,0
1582309018.7429998,37.598,27.344,19.531,42.48,0.0,0
1582309018.746,34.18,39.062,20.508000000000006,41.992,0.0,0
1582309018.75,38.086,38.574,18.066,40.039,0.0,0
1582309018.754,43.945,42.48,17.09,41.504,0.0,0
1582309018.758,35.156,34.18,17.578,36.621,0.0,0
1582309018.762,32.227,22.461,19.043,39.551,0.0,0
1582309018.764,36.621,13.184,14.16,41.504,0.0,0
1582309018.768,30.762,4.883,17.578,39.062,0.0,0
1582309018.772,26.855,2.93,27.344,37.598,0.0,0
1582309018.776,27.832,18.555,24.902,39.551,0.0,0
1582309018.78,32.715,41.504,22.949,39.551,0.0,0
1582309018.784,36.621,31.738000000000003,20.508000000000006,37.598,0.0,0
1582309018.788,31.25,27.832,19.043,36.133,0.0,0
1582309018.791,28.32,28.32,16.602,36.621,0.0,0
1582309018.795,30.273000000000003,31.738000000000003,17.09,31.738000000000003,0.0,0
1582309018.799,32.715,34.668,20.996,30.273000000000003,0.0,0
1582309018.803,30.273000000000003,30.273000000000003,20.996,36.133,0.0,0
1582309018.8070002,24.902,31.25,20.996,31.738000000000003,0.0,0
1582309018.809,28.32,32.715,19.043,31.25,0.0,0
1582309018.813,30.762,28.809,18.066,32.715,0.0,0
1582309018.8170002,26.367,7.812,22.949,31.25,0.0,0
1582309018.821,28.32,31.25,24.902,35.645,0.0,0
1582309018.825,29.785,54.688,26.367,35.645,0.0,0
1582309018.829,32.715,32.715,29.297,38.086,0.0,0
1582309018.833,39.551,23.438,27.344,36.133,0.0,0
1582309018.836,33.203,38.086,22.461,19.531,0.0,0
1582309018.84,37.598,49.805,21.973000000000006,19.043,0.0,0
1582309018.844,49.805,41.992,21.484,21.484,0.0,0
1582309018.8479998,54.199,33.203,9.766,18.066,0.0,0
1582309018.8520002,59.57,36.621,14.648,17.09,0.0,0
1582309018.854,52.246,29.785,27.832,14.648,0.0,0
1582309018.8579998,44.922,-1.953,28.32,25.391,0.0,0
1582309018.8620002,45.41,0.488,29.297,33.691,0.0,0
1582309018.8660002,28.809,37.598,26.855,28.809,0.0,0
1582309018.87,21.973000000000006,48.34,25.879,32.227,0.0,0
1582309018.8739998,24.902,53.223,27.832,33.691,0.0,0
1582309018.8779998,20.996,54.199,25.391,33.203,0.0,0
1582309018.881,25.879,44.434,16.113,30.273000000000003,0.0,0
1582309018.885,27.344,31.738000000000003,18.066,29.297,0.0,0
1582309018.889,29.785,-2.441,28.809,27.832,0.0,0
1582309018.893,32.715,-3.906,26.855,30.762,0.0,0
1582309018.897,26.367,29.785,24.902,31.25,0.0,0
1582309018.899,24.902,49.805,23.438,24.902,0.0,0
1582309018.903,20.996,55.176,18.066,19.531,0.0,0
1582309018.907,20.02,45.898,20.508000000000006,23.438,0.0,0
1582309018.911,24.902,37.109,28.32,31.25,0.0,0
1582309018.915,32.715,14.648,20.996,30.273000000000003,0.0,0
1582309018.919,29.785,14.16,14.16,26.855,0.0,0
1582309018.923,23.926,18.555,23.438,26.855,0.0,0
1582309018.926,27.832,20.02,27.832,22.461,0.0,0
1582309018.93,25.879,31.25,28.32,21.484,0.0,0
1582309018.934,24.414,47.852,25.879,24.414,0.0,0
1582309018.938,26.367,57.129,22.461,25.391,0.0,0
1582309018.9420002,26.367,47.363,20.508000000000006,20.508000000000006,0.0,0
1582309018.944,24.414,40.039,18.555,13.672,0.0,0
1582309018.948,18.555,40.039,18.066,14.648,0.0,0
1582309018.952,21.973000000000006,15.625,21.484,21.973000000000006,0.0,0
1582309018.956,33.203,0.0,24.902,29.297,0.0,0
1582309018.96,31.25,26.367,20.996,28.32,0.0,0
1582309018.964,23.438,34.668,14.648,20.996,0.0,0
1582309018.968,20.02,27.832,13.184,16.602,0.0,0
1582309018.971,21.484,42.48,16.602,14.648,0.0,0
1582309018.975,19.043,56.64100000000001,20.02,14.16,0.0,0
1582309018.979,13.672,36.133,6.836,18.555,0.0,0
1582309018.9829998,18.555,4.395,3.906,20.996,0.0,0
1582309018.9870002,20.508000000000006,17.578,20.508000000000006,18.555,0.0,0
1582309018.9889998,23.926,44.922,21.484,15.625,0.0,0
1582309018.9929998,24.414,39.551,20.508000000000006,21.973000000000006,0.0,0
1582309018.9970002,19.043,40.527,16.602,20.996,0.0,0
1582309019.0010002,24.414,46.387,16.113,20.02,0.0,0
1582309019.005,34.18,27.344,22.949,29.297,0.0,0
1582309019.0089998,36.133,15.625,22.461,32.715,0.0,0
1582309019.0129998,37.598,25.391,21.973000000000006,30.273000000000003,0.0,0
1582309019.016,36.621,6.836,27.344,32.227,0.0,0
1582309019.02,36.133,5.859,32.715,35.645,0.0,0
1582309019.024,33.691,41.992,27.344,31.25,0.0,0
1582309019.028,26.855,57.129,23.926,30.273000000000003,0.0,0
1582309019.032,23.926,45.41,27.832,29.297,0.0,0
1582309019.049,27.344,28.809,22.949,29.297,0.0,0
1582309019.053,34.18,31.738000000000003,20.02,27.832,0.0,0
1582309019.0570002,26.367,35.156,21.973000000000006,26.855,0.0,0
1582309019.061,20.02,32.715,12.695,30.273000000000003,0.0,0
1582309019.065,28.809,15.625,16.602,28.809,0.0,0
1582309019.069,34.668,2.441,27.832,30.273000000000003,0.0,0
1582309019.073,20.996,20.508000000000006,25.879,26.855,0.0,0
1582309019.076,19.043,28.809,15.137,23.926,0.0,0
1582309019.08,33.691,31.25,8.301,30.762,0.0,0
1582309019.084,29.785,39.551,17.09,23.926,0.0,0
1582309019.0879998,25.391,45.41,19.531,16.113,0.0,0
1582309019.092,15.625,37.109,21.484,18.555,0.0,0
1582309019.094,16.602,23.926,31.25,19.043,0.0,0
1582309019.0979998,29.297,19.043,29.297,22.949,0.0,0
1582309019.1020002,33.203,22.461,23.926,29.297,0.0,0
1582309019.106,32.715,10.742,27.344,24.902,0.0,0
1582309019.11,34.668,10.254,25.879,21.484,0.0,0
1582309019.1139998,37.598,11.23,23.926,24.902,0.0,0
1582309019.1179998,31.25,20.508000000000006,18.555,21.973000000000006,0.0,0
1582309019.121,23.926,41.01600000000001,15.625,21.484,0.0,0
1582309019.125,19.043,48.828,19.531,29.297,0.0,0
1582309019.129,18.555,41.992,13.184,30.273000000000003,0.0,0
1582309019.133,26.367,35.156,11.23,26.367,0.0,0
1582309019.137,27.344,45.898,25.391,30.273000000000003,0.0,0
1582309019.139,20.02,43.945,29.297,29.297,0.0,0
1582309019.143,23.926,32.227,24.902,29.785,0.0,0
1582309019.147,34.18,33.691,23.926,30.762,0.0,0
1582309019.151,30.762,16.602,23.438,26.855,0.0,0
1582309019.155,25.391,13.184,22.461,28.809,0.0,0
1582309019.159,25.879,43.457,21.484,34.18,0.0,0
1582309019.163,26.855,41.504,20.996,33.691,0.0,0
1582309019.166,26.367,27.344,19.043,31.738000000000003,0.0,0
1582309019.17,31.738000000000003,28.809,17.578,33.203,0.0,0
1582309019.174,32.715,32.227,19.531,34.18,0.0,0
1582309019.178,31.25,40.527,25.879,32.715,0.0,0
1582309019.1820002,31.25,50.293,22.461,32.715,0.0,0
1582309019.184,28.809,47.852,16.602,33.691,0.0,0
1582309019.188,30.762,39.062,21.484,31.738000000000003,0.0,0
1582309019.1920002,33.203,38.574,24.414,37.109,0.0,0
1582309019.196,32.715,43.457,20.508000000000006,34.18,0.0,0
1582309019.2,31.738000000000003,21.484,20.508000000000006,30.273000000000003,0.0,0
1582309019.204,30.273000000000003,22.461,22.949,30.273000000000003,0.0,0
1582309019.208,26.855,37.109,23.438,25.391,0.0,0
1582309019.211,26.855,25.391,24.414,28.32,0.0,0
1582309019.215,27.832,5.859,13.184,32.227,0.0,0
1582309019.219,27.832,20.02,11.719,27.832,0.0,0
1582309019.2229998,24.414,49.316,27.344,24.414,0.0,0
1582309019.2270002,28.32,29.785,30.762,31.738000000000003,0.0,0
1582309019.229,29.785,8.301,26.367,34.18,0.0,0
1582309019.2329998,22.461,31.25,21.973000000000006,25.391,0.0,0
1582309019.2370002,18.066,62.988,17.578,22.949,0.0,0
1582309019.2410002,20.996,59.082,13.184,18.066,0.0,0
1582309019.245,25.879,53.71100000000001,13.184,21.973000000000006,0.0,0
1582309019.2489998,24.902,43.457,20.02,27.832,0.0,0
1582309019.2529998,23.438,33.691,21.484,25.391,0.0,0
1582309019.256,26.855,38.574,20.02,24.414,0.0,0
1582309019.26,21.973000000000006,29.785,22.949,22.949,0.0,0
1582309019.264,22.949,13.672,23.438,29.297,0.0,0
1582309019.268,26.367,32.715,26.855,35.156,0.0,0
1582309019.272,29.785,53.223,25.391,31.738000000000003,0.0,0
1582309019.274,27.344,15.137,14.648,32.227,0.0,0
1582309019.278,30.273000000000003,1.953,23.926,34.18,0.0,0
1582309019.282,26.855,30.273000000000003,29.297,32.715,0.0,0
1582309019.286,23.926,47.363,21.973000000000006,30.762,0.0,2
1582309019.29,22.949,45.41,24.902,30.273000000000003,0.0,0
1582309019.294,16.602,38.574,25.879,27.832,0.0,0
1582309019.298,11.719,52.734,23.438,25.391,0.0,0
1582309019.301,15.137,50.293,20.508000000000006,25.391,0.0,0
1582309019.305,24.902,21.973000000000006,22.461,30.762,0.0,0
1582309019.309,29.785,26.367,25.879,36.621,0.0,0
1582309019.313,30.762,30.273000000000003,23.438,32.715,0.0,0
1582309019.3170002,26.855,13.184,23.926,30.273000000000003,0.0,0
1582309019.319,24.902,17.578,20.508000000000006,34.668,0.0,0
1582309019.323,27.832,31.25,13.184,34.18,0.0,0
1582309019.327,25.391,36.133,20.02,30.762,0.0,0
1582309019.331,18.555,42.48,19.531,30.762,0.0,0
1582309019.335,19.531,54.199,5.859,26.855,0.0,0
1582309019.339,28.809,30.762,14.648,21.973000000000006,0.0,0
1582309019.343,28.809,8.301,31.738000000000003,24.414,0.0,0
1582309019.346,26.855,22.461,32.715,27.832,0.0,0
1582309019.35,26.367,34.18,26.855,28.809,0.0,0
1582309019.354,28.32,19.531,22.461,30.273000000000003,0.0,0
1582309019.3579998,35.645,3.906,24.902,28.32,0.0,0
1582309019.3620002,27.344,24.902,24.414,23.926,0.0,0
1582309019.3639998,18.066,46.387,21.973000000000006,23.926,0.0,0
1582309019.3679998,25.879,36.133,20.996,24.902,0.0,0
1582309019.3720002,29.297,18.555,21.973000000000006,25.879,0.0,0
1582309019.3760002,30.273000000000003,30.762,20.508000000000006,22.949,0.0,0
1582309019.38,24.902,44.434,13.672,21.484,0.0,0
1582309019.3839998,24.414,36.133,15.625,22.461,0.0,0
1582309019.3879998,33.691,25.391,13.184,19.531,0.0,0
1582309019.391,35.156,22.949,11.23,18.066,0.0,0
1582309019.395,30.762,11.23,24.902,21.973000000000006,0.0,0
1582309019.399,25.391,12.207,26.855,27.344,0.0,0
1582309019.403,23.926,27.832,23.926,25.879,0.0,0
1582309019.407,27.344,37.109,23.438,23.926,0.0,0
1582309019.424,31.25,33.691,20.996,27.832,0.0,0
1582309019.428,26.855,12.207,23.926,31.25,0.0,0
1582309019.4320002,28.809,22.461,25.391,29.297,0.0,0
1582309019.436,34.668,49.316,21.484,27.832,0.0,0
1582309019.44,25.391,53.223,19.531,26.367,0.0,0
1582309019.444,23.438,21.484,21.973000000000006,29.785,0.0,0
1582309019.448,28.32,3.418,23.438,32.227,0.0,0
1582309019.451,26.855,21.484,25.391,29.297,0.0,0
1582309019.455,29.297,26.367,25.391,31.738000000000003,0.0,0
1582309019.459,26.367,39.551,20.996,25.879,0.0,0
1582309019.4629998,21.973000000000006,42.48,13.184,18.555,0.0,0
1582309019.467,25.879,24.902,7.812,20.996,0.0,0
1582309019.469,30.762,5.371,17.578,28.809,0.0,0
1582309019.4729998,21.484,11.719,17.09,28.32,0.0,0
1582309019.4770002,12.695,21.484,17.09,24.414,0.0,0
1582309019.481,18.066,26.367,17.09,19.531,0.0,0
1582309019.485,25.391,30.273000000000003,14.16,23.438,0.0,0
1582309019.4889998,20.02,23.438,20.508000000000006,23.926,0.0,0
1582309019.4929998,8.789,32.227,19.531,15.625,0.0,0
1582309019.496,10.254,44.434,16.602,16.602,0.0,0
1582309019.5,25.879,27.344,16.113,18.066,0.0,0
1582309019.504,30.273000000000003,23.438,16.113,10.742,0.0,0
1582309019.508,28.809,13.184,16.113,7.324,0.0,0
1582309019.512,38.086,14.16,14.648,10.742,0.0,0
1582309019.514,37.598,30.273000000000003,12.695,5.371,0.0,0
1582309019.518,36.621,25.879,11.719,2.441,0.0,0
1582309019.522,43.457,10.254,15.625,14.16,0.0,0
1582309019.526,35.156,20.02,20.508000000000006,19.043,0.0,0
1582309019.53,24.414,28.32,21.973000000000006,20.996,0.0,0
1582309019.534,22.949,20.02,18.555,26.367,0.0,0
1582309019.538,11.23,43.945,10.742,20.508000000000006,0.0,0
1582309019.541,-3.418,52.246,15.137,13.672,0.0,0
1582309019.545,2.441,36.133,25.391,15.625,0.0,0
1582309019.549,6.348,32.715,24.902,11.23,0.0,0
1582309019.553,3.418,8.301,24.902,11.719,0.0,0
1582309019.5570002,6.836,3.906,25.391,12.695,0.0,0
1582309019.559,23.438,19.043,21.973000000000006,17.578,0.0,0
1582309019.563,32.715,9.277,23.926,23.926,0.0,0
1582309019.5670002,13.184,21.484,26.855,15.625,0.0,0
1582309019.571,1.465,30.273000000000003,25.879,17.09,0.0,0
1582309019.575,1.953,27.344,24.902,14.648,0.0,0
1582309019.579,10.742,36.133,21.973000000000006,17.578,0.0,0
1582309019.583,21.973000000000006,33.691,18.066,28.32,0.0,0
1582309019.586,23.926,8.789,23.926,32.227,0.0,0
1582309019.59,23.438,14.648,25.391,26.855,0.0,0
1582309019.594,25.391,45.898,22.461,22.949,0.0,0
1582309019.5979998,21.973000000000006,41.504,25.879,23.926,0.0,0
1582309019.6020002,21.484,21.973000000000006,23.438,30.762,0.0,0
1582309019.604,21.484,23.926,17.578,37.598,0.0,0
1582309019.6079998,21.973000000000006,27.832,24.902,38.086,0.0,0
1582309019.6120002,22.949,22.949,30.273000000000003,34.668,0.0,0
1582309019.6160002,17.578,12.695,32.227,36.621,0.0,0
1582309019.62,20.996,5.859,32.715,35.156,0.0,0
1582309019.6239998,25.879,17.578,30.762,32.227,0.0,0
1582309019.6279998,25.879,35.645,25.391,32.715,0.0,0
1582309019.631,16.602,27.344,22.461,23.438,0.0,0
1582309019.635,14.648,17.09,23.926,29.297,0.0,0
1582309019.639,22.461,3.418,21.484,35.156,0.0,0
1582309019.643,26.367,9.766,19.043,27.832,0.0,0
1582309019.647,26.855,42.48,19.043,25.391,0.0,0
1582309019.649,18.066,44.922,16.113,25.391,0.0,0
1582309019.653,13.184,41.01600000000001,17.578,20.996,0.0,0
1582309019.657,22.461,24.902,20.508000000000006,25.879,0.0,0
1582309019.661,21.484,9.766,18.066,31.25,0.0,0
1582309019.665,17.09,10.254,17.09,22.949,0.0,0
1582309019.669,20.508000000000006,17.578,16.113,20.508000000000006,0.0,0
1582309019.673,20.996,33.691,17.578,22.949,0.0,0
1582309019.676,28.809,39.062,20.996,27.832,0.0,0
1582309019.68,31.738000000000003,37.109,24.414,25.391,0.0,0
1582309019.684,26.367,30.762,24.902,19.531,0.0,0
1582309019.688,30.762,31.25,21.973000000000006,26.855,0.0,0
1582309019.6920002,33.203,29.785,23.926,24.414,0.0,0
1582309019.694,27.344,18.555,22.949,21.973000000000006,0.0,0
1582309019.698,26.855,1.465,20.996,21.973000000000006,0.0,0
1582309019.702,26.367,13.672,23.438,17.578,0.0,0
1582309019.706,28.32,49.805,22.949,17.09,0.0,0
1582309019.71,32.227,51.27,13.672,18.555,0.0,0
1582309019.714,26.855,41.992,12.207,20.996,0.0,0
1582309019.718,25.879,37.109,21.973000000000006,18.066,0.0,0
1582309019.721,28.809,20.996,23.926,17.578,0.0,0
1582309019.725,26.855,24.902,20.02,12.207,0.0,0
1582309019.729,27.344,42.969,19.043,19.043,0.0,0
1582309019.7329998,26.367,32.715,22.461,22.949,0.0,0
1582309019.7370002,24.902,24.902,20.02,12.695,0.0,0
1582309019.7389998,27.832,35.156,18.555,15.137,0.0,0
1582309019.7429998,28.809,28.809,24.902,21.484,0.0,0
1582309019.7470002,20.02,30.762,24.902,17.09,0.0,0
1582309019.7510002,22.949,25.879,20.508000000000006,17.578,0.0,0
1582309019.755,37.598,14.648,18.066,23.438,0.0,0
1582309019.7589998,32.227,35.156,19.043,22.461,0.0,0
1582309019.7629998,23.438,42.48,22.949,20.02,0.0,0
1582309019.766,23.438,38.086,20.996,21.484,0.0,0
1582309019.77,26.367,28.32,21.484,21.484,0.0,0
1582309019.774,33.691,2.441,22.461,25.391,0.0,0
1582309019.778,25.391,21.973000000000006,17.578,22.461,0.0,0
1582309019.782,21.484,43.457,17.578,26.367,0.0,0
1582309019.814,31.25,25.391,20.508000000000006,30.762,0.0,0
1582309019.8179998,33.203,32.715,22.949,22.949,0.0,0
1582309019.822,31.25,52.246,24.414,25.391,0.0,0
1582309019.826,26.367,39.551,25.391,27.832,0.0,0
1582309019.83,28.32,26.855,25.391,31.25,0.0,0
1582309019.834,35.645,23.438,23.926,34.668,0.0,0
1582309019.8379998,32.227,22.461,25.879,35.156,0.0,0
1582309019.841,24.902,35.156,27.832,29.785,0.0,0
1582309019.845,25.879,49.805,18.555,31.25,0.0,0
1582309019.849,31.738000000000003,55.176,22.949,38.574,0.0,0
1582309019.853,32.227,41.992,36.621,33.691,0.0,0
1582309019.857,27.344,36.621,33.203,30.762,0.0,0
1582309019.845,20.508000000000006,35.645,26.855,29.785,0.0,0
1582309019.849,24.902,25.391,21.973000000000006,28.809,0.0,0
1582309019.853,23.926,31.25,22.949,27.344,0.0,0
1582309019.857,19.531,32.715,27.832,28.809,0.0,0
1582309019.861,18.066,3.418,29.785,29.297,0.0,0
1582309019.865,18.555,6.348,22.949,22.949,0.0,0
1582309019.869,24.414,44.434,20.02,21.973000000000006,0.0,0
1582309019.8720002,16.113,54.688,23.438,17.09,0.0,0
1582309019.8760002,9.277,47.852,24.414,20.996,0.0,0
1582309019.88,19.531,40.039,26.855,29.297,0.0,0
1582309019.8839998,20.02,32.715,24.902,17.578,0.0,0
1582309019.8879998,20.02,26.367,23.438,18.066,0.0,0
1582309019.89,16.113,26.367,25.879,21.973000000000006,0.0,0
1582309019.894,14.16,22.949,23.926,19.043,0.0,0
1582309019.8979998,18.066,28.809,18.066,23.438,0.0,0
1582309019.9020002,17.578,26.367,22.949,23.438,0.0,0
1582309019.906,14.648,21.973000000000006,24.414,24.414,0.0,0
1582309019.91,14.16,31.738000000000003,20.02,19.531,0.0,0
1582309019.914,22.461,24.902,25.391,22.949,0.0,0
1582309019.917,19.531,24.414,29.785,24.414,0.0,0
1582309019.921,15.137,35.645,25.879,18.555,0.0,0
1582309019.925,15.137,31.25,21.973000000000006,13.672,0.0,0
1582309019.929,14.16,29.297,20.508000000000006,15.137,0.0,0
1582309019.9329998,20.996,26.855,16.602,19.043,0.0,0
1582309019.934,21.484,38.086,18.066,13.184,0.0,0
1582309019.938,14.648,20.02,21.973000000000006,12.207,0.0,0
1582309019.9420002,19.531,1.465,22.461,17.578,0.0,0
1582309019.946,29.297,25.879,21.973000000000006,15.625,0.0,0
1582309019.95,26.367,39.551,20.02,14.648,0.0,0
1582309019.954,18.066,43.945,15.137,21.484,0.0,0
1582309019.958,17.09,31.738000000000003,8.789,20.508000000000006,0.0,0
1582309019.961,21.484,27.832,15.137,19.043,0.0,0
1582309019.965,23.926,43.945,21.973000000000006,20.508000000000006,0.0,0
1582309019.969,16.602,34.18,22.949,16.113,0.0,0
1582309019.9729998,14.16,22.461,23.438,17.578,0.0,0
1582309019.9770002,19.531,29.785,20.996,19.043,0.0,0
1582309019.979,22.949,15.137,21.484,18.066,0.0,0
1582309019.9829998,22.461,0.977,20.508000000000006,23.926,0.0,0
1582309019.9870002,20.02,22.949,21.973000000000006,23.926,0.0,0
1582309019.9910002,24.902,42.969,22.949,19.531,0.0,0
1582309019.995,27.344,41.504,22.461,20.02,0.0,0
1582309019.9989998,26.367,37.109,23.926,21.973000000000006,0.0,0
1582309020.0029998,25.391,29.297,20.996,24.414,0.0,0
1582309020.006,19.043,29.785,17.578,21.973000000000006,0.0,0
1582309020.01,21.484,24.414,17.09,21.484,0.0,0
1582309020.014,30.762,28.32,21.484,25.391,0.0,0
1582309020.018,25.391,30.762,22.949,25.391,0.0,0
1582309020.022,15.625,25.879,23.438,23.926,0.0,0
1582309020.024,21.973000000000006,28.32,22.461,20.996,0.0,0
1582309020.028,26.367,15.625,22.949,20.996,0.0,0
1582309020.032,22.949,24.902,25.391,20.02,0.0,0
1582309020.036,27.344,32.715,19.531,23.438,0.0,0
1582309020.04,26.367,20.996,15.625,26.367,0.0,0
1582309020.044,22.949,32.715,19.531,20.02,0.0,0
1582309020.048,22.949,33.691,22.949,20.508000000000006,0.0,0
1582309020.051,22.949,37.109,16.602,27.832,0.0,0
1582309020.055,19.531,32.715,12.207,22.461,0.0,0
1582309020.059,23.926,12.695,24.414,19.531,0.0,0
1582309020.063,31.738000000000003,22.949,29.297,22.949,0.0,0
1582309020.0670002,27.832,35.645,26.367,22.461,0.0,0
1582309020.069,31.25,38.086,23.926,21.973000000000006,0.0,0
1582309020.073,29.297,16.113,22.461,20.508000000000006,0.0,0
1582309020.077,25.879,3.906,20.02,23.438,0.0,0
1582309020.081,23.438,9.766,18.066,22.461,0.0,0
1582309020.085,26.367,26.855,17.578,23.926,0.0,0
1582309020.089,37.598,41.992,18.066,30.273000000000003,0.0,0
1582309020.093,37.109,32.227,21.973000000000006,29.297,0.0,0
1582309020.096,28.32,37.598,22.461,21.973000000000006,0.0,0
1582309020.1,29.297,33.203,22.461,25.391,0.0,0
1582309020.104,30.273000000000003,28.32,20.996,27.832,0.0,0
1582309020.1079998,30.762,30.762,15.625,24.902,0.0,0
1582309020.1120002,35.156,39.551,16.602,24.414,0.0,0
1582309020.1139998,30.273000000000003,47.363,18.555,21.484,0.0,0
1582309020.1179998,25.879,42.48,19.531,21.484,0.0,0
1582309020.1220002,27.344,27.344,21.973000000000006,20.508000000000006,0.0,0
1582309020.1260002,27.344,23.438,22.461,14.648,0.0,0
1582309020.13,19.531,30.762,24.414,18.066,0.0,0
1582309020.1339998,24.414,15.625,28.32,26.855,0.0,0
1582309020.1379998,33.203,-3.418,24.902,31.25,0.0,0
1582309020.141,25.879,23.438,22.949,30.762,0.0,0
1582309020.145,20.996,48.828,27.832,29.785,0.0,0
1582309020.149,19.043,29.785,27.344,26.367,0.0,0
1582309020.153,19.531,28.32,22.949,26.367,0.0,0
1582309020.157,29.785,31.738000000000003,23.926,34.668,0.0,0
1582309020.174,27.832,21.973000000000006,27.832,33.203,0.0,0
1582309020.178,20.02,32.227,27.344,24.902,0.0,0
1582309020.1820002,25.391,31.738000000000003,24.414,28.32,0.0,0
1582309020.186,28.809,11.23,21.973000000000006,28.32,0.0,0
1582309020.19,24.902,19.043,19.531,20.996,0.0,0
1582309020.194,23.926,33.203,9.277,20.996,0.0,0
1582309020.198,32.715,32.715,15.137,31.738000000000003,0.0,0
1582309020.201,30.273000000000003,20.508000000000006,29.785,26.367,0.0,0
1582309020.205,20.02,18.555,27.832,22.461,0.0,0
1582309020.209,19.043,38.574,22.949,29.297,0.0,0
1582309020.2129998,13.184,43.457,19.531,25.391,0.0,0
1582309020.217,18.066,12.695,20.02,23.926,0.0,0
1582309020.219,23.926,0.0,24.414,26.367,0.0,0
1582309020.2229998,21.484,17.578,27.344,24.414,0.0,0
1582309020.2270002,24.414,29.785,21.484,16.602,0.0,0
1582309020.231,26.855,40.039,15.625,3.418,0.0,0
1582309020.235,33.691,41.992,16.602,3.906,0.0,0
1582309020.2389998,36.621,43.457,18.066,7.812,0.0,0
1582309020.2429998,35.645,31.25,15.137,0.0,0.0,0
1582309020.246,39.062,19.531,11.23,-2.441,0.0,0
1582309020.25,38.086,21.973000000000006,9.277,6.836,0.0,0
1582309020.254,28.809,14.16,13.672,17.09,0.0,0
1582309020.258,16.602,23.438,20.508000000000006,19.043,0.0,0
1582309020.262,11.23,37.109,18.066,24.414,0.0,0
1582309020.264,20.508000000000006,34.18,12.695,31.25,0.0,0
1582309020.268,21.973000000000006,36.621,19.043,31.738000000000003,0.0,0
1582309020.272,19.531,24.414,25.879,33.203,0.0,0
1582309020.276,20.02,5.859,22.461,37.109,0.0,0
1582309020.28,19.531,27.344,22.949,30.762,0.0,0
1582309020.284,24.902,37.109,27.344,32.715,0.0,0
1582309020.288,23.438,28.809,26.855,35.156,0.0,0
1582309020.291,20.508000000000006,13.672,25.391,32.227,0.0,0
1582309020.295,20.02,6.836,20.996,27.344,0.0,0
1582309020.299,24.414,31.738000000000003,21.484,30.273000000000003,0.0,0
1582309020.303,21.973000000000006,35.156,22.461,31.738000000000003,0.0,0
1582309020.3070002,13.672,20.02,10.254,25.391,0.0,0
1582309020.309,16.113,30.762,11.719,24.414,0.0,0
1582309020.313,20.508000000000006,41.01600000000001,23.438,20.508000000000006,0.0,0
1582309020.3170002,19.531,38.574,20.996,13.672,0.0,0
1582309020.321,20.508000000000006,38.574,20.02,18.066,0.0,0
1582309020.325,17.09,30.273000000000003,26.367,21.484,0.0,0
1582309020.329,17.09,40.039,25.879,16.602,0.0,0
1582309020.333,23.926,41.01600000000001,14.16,17.578,0.0,0
1582309020.336,17.09,41.01600000000001,12.695,20.02,0.0,2
1582309020.34,9.766,40.039,20.508000000000006,15.625,0.0,0
1582309020.344,12.695,30.762,20.508000000000006,15.625,0.0,0
1582309020.3479998,20.02,21.484,23.926,25.391,0.0,0
1582309020.3520002,21.973000000000006,25.391,24.414,25.391,0.0,0
1582309020.369,14.16,21.973000000000006,23.438,26.367,0.0,0
1582309020.373,14.648,30.762,20.508000000000006,27.344,0.0,0
1582309020.377,25.879,21.973000000000006,18.555,30.762,0.0,0
1582309020.381,27.832,8.789,25.879,34.668,0.0,0
1582309020.385,22.949,10.254,28.809,30.762,0.0,0
1582309020.389,29.297,7.812,28.32,27.832,0.0,0
1582309020.393,36.133,39.551,20.02,28.809,0.0,0
1582309020.396,28.32,47.363,19.043,20.508000000000006,0.0,0
1582309020.4,19.043,47.363,23.438,16.602,0.0,0
1582309020.404,23.926,44.922,21.973000000000006,19.043,0.0,0
1582309020.408,30.762,38.574,24.414,18.555,0.0,0
1582309020.4120002,26.855,41.992,16.113,17.578,0.0,0
1582309020.399,16.602,40.527,12.695,14.648,0.0,0
1582309020.403,20.508000000000006,33.691,24.414,14.648,0.0,0
1582309020.407,33.203,29.297,25.879,15.625,0.0,0
1582309020.411,31.738000000000003,29.785,21.973000000000006,14.16,0.0,0
1582309020.415,25.391,14.648,26.855,19.043,0.0,0
1582309020.419,21.973000000000006,0.488,31.25,17.578,0.0,0
1582309020.423,17.09,20.02,26.367,15.137,0.0,0
1582309020.426,16.602,44.434,24.902,13.184,0.0,0
1582309020.43,17.578,41.992,27.832,15.137,0.0,0
1582309020.434,13.184,36.621,26.855,24.414,0.0,0
1582309020.438,14.16,31.25,23.438,24.902,0.0,0
1582309020.4420002,22.949,24.414,27.832,21.484,0.0,0
1582309020.444,25.879,2.441,29.297,19.043,0.0,0
1582309020.448,21.484,9.277,26.367,23.926,0.0,0
1582309020.452,22.461,42.48,24.414,25.879,0.0,0
1582309020.456,29.785,41.01600000000001,23.926,20.996,0.0,0
1582309020.46,32.715,27.344,26.367,21.973000000000006,0.0,0
1582309020.464,27.832,26.855,26.855,25.391,0.0,0
1582309020.468,22.949,35.156,23.926,23.438,0.0,0
1582309020.471,20.02,34.18,25.391,23.438,0.0,0
1582309020.475,24.414,37.598,28.809,23.438,0.0,0
1582309020.479,21.973000000000006,42.969,26.855,19.531,0.0,0
1582309020.4829998,19.531,38.574,27.344,16.113,0.0,0
1582309020.4870002,20.996,25.879,26.367,16.113,0.0,0
1582309020.4889998,30.273000000000003,-1.953,16.602,23.438,0.0,0
1582309020.4929998,30.273000000000003,4.395,16.113,20.02,0.0,0
1582309020.4970002,18.066,38.574,28.809,21.484,0.0,0
1582309020.5010002,24.902,44.434,30.273000000000003,33.691,0.0,0
1582309020.505,38.086,29.785,27.832,41.01600000000001,0.0,0
1582309020.5089998,36.133,24.902,28.32,36.621,0.0,0
1582309020.5129998,32.227,19.531,24.902,32.227,0.0,0
1582309020.516,29.297,5.859,25.879,34.668,0.0,0
1582309020.52,34.668,25.879,29.785,34.18,0.0,0
1582309020.524,38.574,45.898,31.738000000000003,40.039,0.0,0
1582309020.528,29.297,31.738000000000003,36.133,37.598,0.0,0
1582309020.532,24.414,29.785,37.109,31.738000000000003,0.0,0
1582309020.549,27.344,34.668,31.25,34.668,0.0,0
1582309020.553,30.762,33.203,29.297,35.645,0.0,0
1582309020.5570002,28.809,36.133,30.762,32.715,0.0,0
1582309020.561,31.738000000000003,26.367,29.297,37.598,0.0,0
1582309020.565,37.109,20.996,27.832,36.621,0.0,0
1582309020.569,31.25,25.391,27.832,27.832,0.0,0
1582309020.573,26.367,25.879,28.809,28.32,0.0,0
1582309020.576,25.879,17.578,31.738000000000003,25.879,0.0,0
1582309020.58,25.879,23.926,32.227,25.879,0.0,0
1582309020.584,27.344,44.922,30.762,26.855,0.0,0
1582309020.5879998,28.809,41.504,28.809,20.02,0.0,0
1582309020.592,30.762,27.344,27.344,19.043,0.0,0
1582309020.594,28.809,22.949,27.832,23.926,0.0,0
1582309020.5979998,33.203,27.832,26.367,26.367,0.0,0
1582309020.6020002,36.621,38.574,25.879,29.785,0.0,0
1582309020.606,29.297,37.598,28.809,25.879,0.0,0
1582309020.61,25.391,28.809,31.25,28.809,0.0,0
1582309020.6139998,30.273000000000003,36.133,27.344,34.668,0.0,0
1582309020.6179998,31.738000000000003,41.992,27.344,33.203,0.0,0
1582309020.621,25.879,21.484,32.227,28.809,0.0,0
1582309020.625,28.32,16.113,29.785,32.715,0.0,0
1582309020.629,31.738000000000003,23.926,34.18,32.715,0.0,0
1582309020.633,32.227,11.719,33.203,32.715,0.0,0
1582309020.637,31.738000000000003,28.32,23.926,35.645,0.0,0
1582309020.64,20.508000000000006,48.34,33.691,32.227,0.0,0
1582309020.644,18.066,48.34,37.598,28.32,0.0,0
1582309020.6479998,29.785,47.852,31.738000000000003,27.344,0.0,0
1582309020.6520002,32.227,25.391,30.762,25.391,0.0,0
1582309020.656,24.414,12.695,26.855,25.391,0.0,0
1582309020.66,20.508000000000006,37.109,21.973000000000006,25.879,0.0,0
1582309020.664,19.531,46.387,20.508000000000006,22.949,0.0,0
1582309020.667,21.973000000000006,36.621,22.461,17.09,0.0,0
1582309020.671,16.602,28.32,28.32,13.672,0.0,0
1582309020.675,6.836,24.414,28.809,7.812,0.0,0
1582309020.679,9.766,28.32,27.344,5.371,0.0,0
1582309020.6829998,15.625,31.738000000000003,26.855,9.766,0.0,0
1582309020.684,9.766,23.926,27.344,6.348,0.0,0
1582309020.688,6.348,5.371,28.809,6.836,0.0,0
1582309020.6920002,14.16,19.531,27.344,4.395,0.0,0
1582309020.696,16.113,43.945,23.926,8.301,0.0,0
1582309020.7,9.766,37.109,24.414,12.207,0.0,0
1582309020.704,11.23,32.227,24.414,12.207,0.0,0
1582309020.708,17.09,23.438,21.973000000000006,17.578,0.0,0
1582309020.711,21.973000000000006,12.695,22.461,17.578,0.0,0
1582309020.715,23.438,23.926,23.926,14.16,0.0,0
1582309020.719,14.648,35.156,24.414,12.207,0.0,0
1582309020.7229998,15.137,12.207,23.438,21.484,0.0,0
1582309020.7270002,25.879,9.277,23.438,23.438,0.0,0
1582309020.729,32.227,29.785,24.902,22.461,0.0,0
1582309020.7329998,30.273000000000003,31.25,25.879,29.785,0.0,0
1582309020.7370002,25.391,25.879,27.832,27.832,0.0,0
1582309020.7410002,25.879,9.766,28.32,22.949,0.0,0
1582309020.745,26.367,2.441,29.785,24.902,0.0,0
1582309020.7489998,22.949,23.438,26.855,24.414,0.0,0
1582309020.7529998,17.578,42.48,22.949,18.555,0.0,0
1582309020.756,14.648,41.01600000000001,22.461,20.02,0.0,0
1582309020.76,12.695,41.992,27.344,19.043,0.0,0
1582309020.764,16.113,40.039,31.25,9.277,0.0,0
1582309020.768,9.766,34.18,27.344,9.277,0.0,0
1582309020.772,4.883,28.32,27.344,12.207,0.0,0
1582309020.774,13.184,25.879,29.297,14.16,0.0,0
1582309020.778,26.367,23.926,29.785,19.043,0.0,0
1582309020.782,24.414,19.531,29.297,17.09,0.0,0
1582309020.786,15.137,20.996,30.762,17.578,0.0,0
1582309020.79,22.461,13.672,33.203,21.484,0.0,0
1582309020.794,28.32,21.484,21.973000000000006,24.902,0.0,0
1582309020.798,24.414,24.414,20.02,23.926,0.0,0
1582309020.801,21.484,20.02,30.273000000000003,19.043,0.0,0
1582309020.805,22.949,23.438,30.762,19.043,0.0,0
1582309020.809,27.344,28.809,29.297,25.879,0.0,0
1582309020.813,35.156,22.461,28.32,27.344,0.0,0
1582309020.8170002,29.785,27.832,27.344,26.367,0.0,0
1582309020.819,29.297,48.34,25.879,20.508000000000006,0.0,0
1582309020.823,35.156,49.805,25.391,19.043,0.0,0
1582309020.827,34.18,40.527,25.879,27.344,0.0,0
1582309020.831,26.855,32.715,21.973000000000006,26.367,0.0,0
1582309020.835,23.926,36.621,19.531,20.996,0.0,0
1582309020.839,41.504,20.02,23.926,39.062,0.0,0
1582309020.843,54.688,1.465,27.832,53.223,0.0,0
1582309020.846,33.203,23.438,29.297,32.715,0.0,0
1582309020.85,15.625,34.668,30.273000000000003,24.414,0.0,0
1582309020.854,17.578,33.691,25.879,23.438,0.0,0
1582309020.8579998,18.555,32.715,26.367,16.113,0.0,0
1582309020.8620002,24.902,30.273000000000003,31.25,22.461,0.0,0
1582309020.879,20.02,21.484,26.855,26.367,0.0,0
1582309020.883,18.555,13.672,24.902,26.855,0.0,0
1582309020.887,31.25,14.16,32.227,34.18,0.0,0
1582309020.891,27.832,27.344,33.691,40.527,0.0,0
1582309020.895,19.531,40.039,30.762,32.715,0.0,0
1582309020.899,21.973000000000006,30.762,29.785,30.273000000000003,0.0,0
1582309020.903,33.203,16.602,30.273000000000003,36.621,0.0,0
1582309020.906,30.762,19.531,27.344,29.297,0.0,0
1582309020.91,28.809,25.879,25.879,28.809,0.0,0
1582309020.914,38.086,18.066,27.832,28.32,0.0,0
1582309020.918,35.156,26.855,27.832,24.414,0.0,0
1582309020.9220002,33.691,38.574,28.809,25.879,0.0,0
1582309020.924,29.785,28.32,28.809,28.32,0.0,0
1582309020.928,22.461,35.156,28.809,25.391,0.0,0
1582309020.9320002,24.414,46.387,29.297,24.414,0.0,0
1582309020.936,30.273000000000003,29.297,27.832,26.855,0.0,0
1582309020.94,31.25,28.809,27.344,28.809,0.0,0
1582309020.944,26.367,29.785,28.32,25.391,0.0,0
1582309020.948,26.367,24.414,30.273000000000003,26.855,0.0,0
1582309020.951,31.25,30.762,33.203,28.809,0.0,0
1582309020.955,39.551,33.203,33.203,28.809,0.0,0
1582309020.959,29.785,33.691,29.297,27.832,0.0,0
1582309020.9629998,17.09,35.645,25.879,21.484,0.0,0
1582309020.967,23.438,23.926,29.297,20.996,0.0,0
1582309020.969,30.273000000000003,14.648,28.809,24.902,0.0,0
1582309020.9729998,24.902,27.832,30.762,27.832,0.0,0
1582309020.9770002,18.555,31.25,34.668,29.297,0.0,0
1582309020.981,25.391,32.227,34.18,30.273000000000003,0.0,0
1582309020.985,32.715,21.973000000000006,36.621,37.109,0.0,0
1582309020.9889998,26.367,-1.953,36.621,39.062,0.0,0
1582309020.9929998,19.531,9.277,35.645,31.738000000000003,0.0,0
1582309020.996,20.508000000000006,36.133,32.715,30.273000000000003,0.0,0
1582309021.0,26.855,51.27,29.297,31.25,0.0,0
1582309021.004,26.855,51.27,26.855,28.32,0.0,0
1582309021.008,15.137,36.621,25.879,23.438,0.0,0
1582309021.012,15.625,35.156,17.09,24.902,0.0,0
1582309021.014,23.438,30.762,13.672,26.367,0.0,0
1582309021.018,21.973000000000006,28.32,31.738000000000003,20.508000000000006,0.0,0
1582309021.022,15.137,29.785,36.133,18.066,0.0,0
1582309021.026,18.555,19.043,30.762,17.578,0.0,0
1582309021.03,22.461,28.32,26.367,18.555,0.0,0
1582309021.034,22.461,39.062,26.367,22.461,0.0,0
1582309021.038,20.996,34.668,29.785,23.926,0.0,0
1582309021.041,17.578,36.133,31.738000000000003,19.043,0.0,0
1582309021.045,18.066,20.02,31.25,19.043,0.0,0
1582309021.049,19.531,2.93,27.832,23.926,0.0,0
1582309021.053,20.02,30.273000000000003,23.926,23.438,0.0,0
1582309021.0570002,21.973000000000006,49.316,23.438,13.672,0.0,0
1582309021.059,33.691,40.039,24.414,14.16,0.0,0
1582309021.063,42.969,33.203,23.926,11.23,0.0,0
1582309021.0670002,48.34,20.508000000000006,26.367,13.672,0.0,0
1582309021.071,51.27,12.207,24.902,11.23,0.0,0
1582309021.075,44.434,25.391,21.484,-1.953,0.0,0
1582309021.079,45.898,31.738000000000003,24.414,5.859,0.0,0
1582309021.083,36.133,40.039,25.879,16.113,0.0,0
1582309021.086,19.531,34.668,28.32,19.531,0.0,0
1582309021.09,14.648,28.809,31.25,23.438,0.0,0
1582309021.094,14.16,39.062,28.32,21.973000000000006,0.0,0
1582309021.0979998,20.02,33.691,26.367,20.996,0.0,0
1582309021.1020002,19.043,8.301,27.832,25.879,0.0,0
1582309021.104,12.207,17.09,31.738000000000003,23.438,0.0,0
1582309021.1079998,15.137,37.598,32.227,18.555,0.0,0
1582309021.1120002,22.949,35.156,29.785,20.508000000000006,0.0,0
1582309021.1160002,17.578,33.203,25.391,22.949,0.0,0
1582309021.12,13.672,25.879,26.367,17.578,0.0,0
1582309021.1239998,17.09,20.996,28.32,20.508000000000006,0.0,0
1582309021.1279998,26.367,29.297,32.715,27.832,0.0,0
1582309021.131,21.973000000000006,22.461,35.645,21.973000000000006,0.0,0
1582309021.135,18.066,10.254,31.25,20.508000000000006,0.0,0
1582309021.139,24.414,16.602,28.32,23.438,0.0,0
1582309021.143,23.926,31.25,28.32,27.344,0.0,0
1582309021.147,20.02,29.297,32.227,26.855,0.0,0
1582309021.149,13.184,31.738000000000003,32.227,20.02,0.0,0
1582309021.153,15.137,37.109,30.762,27.344,0.0,0
1582309021.157,23.438,15.625,31.25,32.227,0.0,0
1582309021.161,29.785,13.184,31.738000000000003,29.785,0.0,0
1582309021.165,22.949,35.645,35.156,31.25,0.0,0
1582309021.169,15.625,39.062,35.645,25.879,0.0,0
1582309021.173,23.438,32.227,31.25,25.879,0.0,0
1582309021.176,25.391,28.32,20.02,27.344,0.0,0
1582309021.18,19.531,11.23,12.207,17.09,0.0,0
1582309021.184,13.184,8.301,25.879,10.742,0.0,0
1582309021.188,12.695,28.809,35.156,11.719,0.0,0
1582309021.1920002,17.578,33.203,30.273000000000003,19.043,0.0,0
1582309021.194,14.16,30.762,25.391,16.113,0.0,0
1582309021.198,4.395,33.203,23.438,11.23,0.0,0
1582309021.202,11.719,35.645,23.926,14.16,0.0,0
1582309021.206,20.996,22.461,26.367,10.254,0.0,0
1582309021.21,19.043,18.066,25.391,14.16,0.0,0
1582309021.214,14.648,12.207,23.438,16.602,0.0,0
1582309021.218,17.578,23.438,19.531,14.648,0.0,0
1582309021.221,23.926,43.945,14.648,16.113,0.0,0
1582309021.225,24.414,41.992,19.043,17.578,0.0,0
1582309021.229,23.926,24.414,23.926,22.949,0.0,0
1582309021.2329998,26.855,20.02,23.438,26.367,0.0,0
1582309021.2370002,30.762,33.203,24.414,26.367,0.0,0
1582309021.2389998,33.691,27.832,25.879,29.297,0.0,0
1582309021.2429998,31.25,21.484,27.832,31.25,0.0,0
1582309021.2470002,30.273000000000003,25.879,28.32,34.668,0.0,0
1582309021.2510002,32.227,16.602,27.832,39.062,0.0,0
1582309021.255,37.109,26.367,25.879,36.133,0.0,0
1582309021.2589998,38.086,29.297,23.438,40.527,0.0,0
1582309021.2629998,30.762,24.414,21.973000000000006,34.18,0.0,0
1582309021.266,26.855,35.156,21.973000000000006,27.344,0.0,0
1582309021.27,30.762,41.01600000000001,24.414,33.203,0.0,0
1582309021.274,34.668,42.969,24.902,34.18,0.0,0
1582309021.278,32.227,40.527,27.832,39.062,0.0,0
1582309021.282,33.691,24.414,32.715,38.574,0.0,0
1582309021.299,40.039,6.836,36.133,40.039,0.0,0
1582309021.303,40.039,23.926,21.484,40.039,0.0,0
1582309021.3070002,39.062,42.969,11.23,32.715,0.0,0
1582309021.311,26.855,46.875,22.949,27.832,0.0,0
1582309021.315,22.461,40.039,23.438,25.879,0.0,0
1582309021.319,36.621,38.086,20.508000000000006,28.32,0.0,0
1582309021.323,40.527,32.227,25.879,30.762,0.0,0
1582309021.326,29.785,24.902,33.203,30.273000000000003,0.0,0
1582309021.33,28.32,20.996,34.668,32.227,0.0,0
1582309021.334,39.062,14.648,35.645,35.645,0.0,0
1582309021.3379998,42.48,4.883,34.668,40.527,0.0,0
1582309021.342,36.133,19.043,32.227,37.598,0.0,0
1582309021.344,31.738000000000003,44.434,30.762,27.832,0.0,0
1582309021.3479998,34.18,50.293,24.902,26.855,0.0,0
1582309021.3520002,37.598,48.828,27.832,30.762,0.0,0
1582309021.356,30.273000000000003,36.133,33.203,29.297,0.0,0
1582309021.36,26.855,20.02,30.762,30.273000000000003,0.0,0
1582309021.3639998,31.738000000000003,18.555,29.297,32.715,0.0,0
1582309021.3679998,35.156,20.508000000000006,34.18,34.18,0.0,0
1582309021.371,29.297,28.32,37.109,29.297,0.0,0
1582309021.375,20.508000000000006,43.457,35.156,30.762,0.0,0
1582309021.379,22.461,39.551,31.738000000000003,33.691,0.0,0
1582309021.383,27.832,26.367,32.227,27.344,0.0,0
1582309021.387,26.855,31.25,31.738000000000003,24.902,0.0,0
1582309021.389,23.438,37.109,34.18,24.414,0.0,0
1582309021.393,19.531,29.297,37.598,23.438,0.0,0
1582309021.397,25.879,24.414,35.156,22.949,0.0,0
1582309021.401,30.273000000000003,30.273000000000003,32.715,20.996,0.0,0
1582309021.405,25.879,36.621,35.645,24.902,0.0,0
1582309021.409,23.438,41.504,33.203,20.02,0.0,0
1582309021.413,27.344,36.621,26.855,18.066,0.0,0
1582309021.416,32.227,22.949,30.762,33.203,0.0,1
1582309021.42,29.297,27.344,34.18,31.25,0.0,0
1582309021.424,24.902,25.879,34.668,27.832,0.0,0
1582309021.428,23.926,25.391,37.598,28.809,0.0,0
1582309021.4320002,26.855,44.922,24.902,26.367,0.0,0
1582309021.434,26.367,34.668,17.578,30.762,0.0,0
1582309021.438,20.02,7.324,31.738000000000003,30.273000000000003,0.0,0
1582309021.4420002,20.02,8.789,35.156,31.25,0.0,0
1582309021.446,30.273000000000003,29.297,30.273000000000003,36.621,0.0,0
1582309021.45,30.273000000000003,30.273000000000003,30.273000000000003,31.738000000000003,0.0,0
1582309021.454,17.09,24.414,33.203,29.297,0.0,0
1582309021.458,21.973000000000006,26.855,34.18,35.645,0.0,0
1582309021.461,26.367,29.785,31.25,35.156,0.0,0
1582309021.465,25.391,37.109,30.762,25.879,0.0,0
1582309021.469,21.973000000000006,41.504,29.785,20.996,0.0,0
1582309021.4729998,20.996,27.832,30.762,25.879,0.0,0
1582309021.4770002,26.855,22.461,33.203,29.297,0.0,0
1582309021.479,25.879,19.531,33.203,27.832,0.0,0
1582309021.4829998,28.809,25.391,35.645,25.391,0.0,0
1582309021.4870002,21.484,41.01600000000001,37.109,20.996,0.0,0
1582309021.4910002,18.555,37.598,31.25,20.508000000000006,0.0,0
1582309021.495,26.855,33.203,30.762,20.508000000000006,0.0,0
1582309021.4989998,26.367,38.574,37.598,17.578,0.0,0
1582309021.5029998,22.949,30.273000000000003,34.18,16.602,0.0,0
1582309021.506,24.902,26.367,32.715,24.414,0.0,0
1582309021.51,31.25,39.062,32.715,24.414,0.0,0
1582309021.514,33.203,29.297,29.297,26.855,0.0,0
1582309021.518,33.203,17.578,30.762,31.738000000000003,0.0,0
1582309021.522,24.902,20.02,35.645,23.926,0.0,0
1582309021.539,24.902,17.578,40.039,28.809,0.0,0
1582309021.543,32.715,24.902,39.551,37.109,0.0,0
1582309021.5470002,23.926,43.457,37.598,25.391,0.0,0
1582309021.551,19.531,46.387,36.133,22.461,0.0,0
1582309021.555,21.484,40.527,36.133,24.414,0.0,0
1582309021.559,19.043,34.668,33.691,29.785,0.0,0
1582309021.563,20.02,23.926,30.762,31.738000000000003,0.0,0
1582309021.566,25.879,11.719,30.273000000000003,23.926,0.0,0
1582309021.57,26.367,16.113,29.785,24.414,0.0,0
1582309021.574,26.855,31.738000000000003,27.832,28.32,0.0,0
1582309021.5779998,37.109,42.48,27.344,27.344,0.0,0
1582309021.582,39.062,43.945,34.18,31.738000000000003,0.0,0
1582309021.569,33.203,36.621,34.18,32.715,0.0,0
1582309021.573,33.691,36.133,31.25,23.926,0.0,0
1582309021.577,35.156,29.297,36.621,19.043,0.0,0
1582309021.581,31.738000000000003,39.551,35.645,18.555,0.0,0
1582309021.585,29.785,51.27,21.973000000000006,22.461,0.0,0
1582309021.589,34.18,26.855,30.762,22.949,0.0,0
1582309021.593,30.273000000000003,23.926,37.109,16.113,0.0,0
1582309021.596,23.926,43.457,30.762,17.09,0.0,0
1582309021.6,27.344,38.574,37.598,25.391,0.0,0
1582309021.604,27.344,32.227,41.01600000000001,31.25,0.0,0
1582309021.6079998,25.879,20.996,38.086,30.273000000000003,0.0,0
1582309021.6120002,30.273000000000003,-3.418,38.086,31.25,0.0,0
1582309021.6139998,28.32,21.484,37.598,34.668,0.0,0
1582309021.6179998,20.508000000000006,49.805,33.203,27.344,0.0,0
1582309021.6220002,27.832,38.574,28.809,28.809,0.0,0
1582309021.6260002,41.992,27.344,29.785,33.203,0.0,0
1582309021.63,28.809,28.32,33.691,24.414,0.0,0
1582309021.6339998,12.207,24.414,38.574,20.996,0.0,0
1582309021.6379998,26.367,29.297,41.01600000000001,24.414,0.0,0
1582309021.641,33.203,38.574,36.621,26.367,0.0,0
1582309021.645,26.367,36.133,35.645,30.762,0.0,0
1582309021.649,26.367,19.531,33.203,29.785,0.0,0
1582309021.653,35.645,19.531,31.738000000000003,29.785,0.0,0
1582309021.657,38.086,35.156,33.203,24.902,0.0,0
1582309021.674,37.598,31.25,30.273000000000003,30.762,0.0,0
1582309021.678,38.574,34.18,27.344,35.645,0.0,0
1582309021.6820002,37.109,29.297,31.25,30.273000000000003,0.0,0
1582309021.686,38.574,27.832,28.809,35.645,0.0,0
1582309021.69,34.668,28.32,26.367,34.668,0.0,0
1582309021.694,33.691,21.484,28.32,28.809,0.0,0
1582309021.698,38.574,39.062,29.785,34.18,0.0,0
1582309021.701,39.551,29.297,29.785,29.785,0.0,0
1582309021.705,40.039,2.93,30.762,27.344,0.0,0
1582309021.709,36.621,29.297,31.25,33.203,0.0,0
1582309021.7129998,27.344,47.363,28.32,27.344,0.0,0
1582309021.717,25.879,35.156,23.926,26.367,0.0,0
1582309021.719,28.809,34.668,18.555,36.621,0.0,0
1582309021.7229998,26.855,24.902,27.344,31.738000000000003,0.0,0
1582309021.7270002,26.367,18.066,29.785,30.762,0.0,0
1582309021.731,29.785,29.785,24.902,35.156,0.0,0
1582309021.735,22.461,31.738000000000003,30.273000000000003,25.879,0.0,0
1582309021.7389998,16.602,27.832,33.691,27.832,0.0,0
1582309021.7429998,16.602,17.09,35.645,32.227,0.0,0
1582309021.746,21.973000000000006,18.555,32.715,26.855,0.0,0
1582309021.75,27.344,8.789,28.32,24.414,0.0,0
1582309021.754,25.879,-12.695,29.785,21.973000000000006,0.0,0
1582309021.758,23.438,9.766,29.785,21.973000000000006,0.0,0
1582309021.762,23.438,39.551,27.344,21.484,0.0,0
1582309021.764,32.715,38.574,27.832,21.484,0.0,0
1582309021.768,36.621,33.203,27.832,24.414,0.0,0
1582309021.772,28.32,13.184,22.461,19.043,0.0,0
1582309021.776,27.832,23.926,26.367,18.555,0.0,0
1582309021.78,29.297,49.805,29.297,18.555,0.0,0
1582309021.784,29.297,42.969,27.832,17.09,0.0,0
1582309021.788,24.902,34.18,28.32,18.066,0.0,0
1582309021.791,17.09,27.832,25.879,18.555,0.0,0
1582309021.795,24.414,29.297,25.391,21.484,0.0,0
1582309021.799,32.227,31.738000000000003,22.461,20.02,0.0,0
1582309021.803,26.367,25.391,25.879,20.02,0.0,0
1582309021.8070002,22.949,19.531,30.273000000000003,27.344,0.0,0
1582309021.809,30.762,22.949,30.762,32.715,0.0,0
1582309021.813,34.18,18.066,34.18,32.227,0.0,0
1582309021.8170002,34.18,0.977,37.598,28.32,0.0,0
1582309021.821,25.391,12.207,34.18,28.809,0.0,0
1582309021.825,13.184,34.668,31.25,26.855,0.0,0
1582309021.829,19.043,42.48,29.297,17.09,0.0,0
1582309021.833,20.508000000000006,23.438,33.203,20.508000000000006,0.0,0
1582309021.836,21.973000000000006,26.367,27.832,24.902,0.0,0
1582309021.84,28.809,53.223,19.531,20.508000000000006,0.0,0
1582309021.844,29.785,54.688,32.715,19.043,0.0,0
1582309021.8479998,31.25,47.852,35.645,16.113,0.0,0
1582309021.8520002,29.297,45.898,30.273000000000003,18.555,0.0,0
1582309021.854,25.391,41.01600000000001,25.391,18.555,0.0,0
1582309021.8579998,32.227,27.344,26.367,18.066,0.0,0
1582309021.8620002,29.785,26.367,29.297,16.113,0.0,0
1582309021.8660002,23.438,29.297,27.832,11.719,0.0,0
1582309021.87,27.832,31.738000000000003,26.367,15.137,0.0,0
1582309021.8739998,22.461,28.809,24.902,13.184,0.0,0
1582309021.8779998,24.414,15.137,26.367,9.277,0.0,0
1582309021.881,26.855,28.809,28.809,8.301,0.0,0
1582309021.885,20.996,30.762,29.785,8.301,0.0,0
1582309021.889,16.602,28.32,29.297,9.277,0.0,0
1582309021.893,16.602,35.645,34.668,17.09,0.0,0
1582309021.897,20.508000000000006,33.691,36.133,20.508000000000006,0.0,0
1582309021.899,21.484,27.344,28.809,21.973000000000006,0.0,0
1582309021.903,14.648,28.32,31.738000000000003,23.926,0.0,0
1582309021.907,11.23,21.973000000000006,35.156,18.066,0.0,0
1582309021.911,13.672,7.812,29.785,17.578,0.0,0
1582309021.915,4.883,21.484,27.832,20.508000000000006,0.0,0
1582309021.919,1.953,24.414,27.832,20.508000000000006,0.0,0
1582309021.923,12.695,20.996,28.32,21.973000000000006,0.0,0
1582309021.926,26.367,31.25,26.855,21.973000000000006,0.0,0
1582309021.93,29.297,41.01600000000001,24.902,20.996,0.0,0
1582309021.934,23.926,41.992,27.832,25.391,0.0,0
1582309021.938,27.344,38.574,28.809,36.621,0.0,0
1582309021.9420002,35.156,30.273000000000003,28.809,33.691,0.0,0
1582309021.944,28.32,24.902,25.879,31.738000000000003,0.0,0
1582309021.948,30.273000000000003,18.555,24.414,35.156,0.0,0
1582309021.952,34.668,7.812,26.855,36.133,0.0,0
1582309021.956,36.621,19.531,30.762,40.039,0.0,0
1582309021.96,43.457,30.273000000000003,37.598,41.01600000000001,0.0,0
1582309021.964,35.156,25.879,29.785,43.457,0.0,0
1582309021.968,38.086,14.16,20.508000000000006,48.828,0.0,0
1582309021.971,46.875,21.973000000000006,32.227,48.828,0.0,0
1582309021.975,38.574,32.715,42.969,42.48,0.0,0
1582309021.979,39.551,41.992,40.039,40.527,0.0,0
1582309021.9829998,43.945,53.71100000000001,35.156,39.551,0.0,0
1582309021.9870002,50.293,37.598,35.645,33.203,0.0,0
1582309021.9889998,55.664,23.926,37.109,26.367,0.0,0
1582309021.9929998,57.617,33.203,36.133,25.391,0.0,0
1582309021.9970002,49.805,35.645,34.18,20.996,0.0,0
1582309022.0010002,47.363,23.438,32.715,24.414,0.0,0
1582309022.005,49.316,19.531,29.297,27.344,0.0,0
1582309022.0089998,35.156,26.855,24.902,20.996,0.0,0
1582309022.0129998,21.973000000000006,37.598,26.367,27.832,0.0,0
1582309022.016,21.973000000000006,24.902,26.367,40.527,0.0,0
1582309022.02,24.902,16.113,26.855,35.645,0.0,0
1582309022.024,29.297,25.879,24.414,32.227,0.0,0
1582309022.028,28.809,11.23,20.02,34.18,0.0,0
1582309022.032,21.973000000000006,14.16,22.949,28.809,0.0,0
1582309022.049,23.438,42.48,28.32,30.273000000000003,0.0,0
1582309022.053,26.855,40.527,29.297,33.203,0.0,0
1582309022.0570002,26.367,34.668,31.25,31.738000000000003,0.0,0
1582309022.061,24.902,39.551,34.668,30.273000000000003,0.0,0
1582309022.065,28.32,34.668,33.203,33.691,0.0,0
1582309022.069,34.668,33.691,28.809,27.832,0.0,0
1582309022.073,33.691,30.273000000000003,26.367,31.738000000000003,0.0,0
1582309022.076,24.414,25.879,26.855,30.273000000000003,0.0,0
1582309022.08,27.832,27.344,28.32,30.273000000000003,0.0,0
1582309022.084,37.598,29.785,23.438,38.086,0.0,0
1582309022.0879998,35.156,30.273000000000003,24.902,32.715,0.0,0
1582309022.092,28.32,27.832,36.133,27.832,0.0,0
1582309022.095,26.367,35.645,41.01600000000001,32.227,0.0,0
1582309022.099,29.785,26.855,42.48,35.645,0.0,0
1582309022.103,30.762,5.371,41.504,31.25,0.0,0
1582309022.107,25.879,25.879,28.809,30.762,0.0,0
1582309022.111,16.113,43.945,22.461,29.297,0.0,0
1582309022.115,20.508000000000006,24.902,34.668,31.738000000000003,0.0,0
1582309022.119,31.738000000000003,5.371,39.062,34.668,0.0,0
1582309022.1220002,21.973000000000006,23.926,41.01600000000001,27.832,0.0,0
1582309022.1260002,20.508000000000006,33.203,37.598,34.668,0.0,0
1582309022.13,34.18,36.621,28.32,37.598,0.0,0
1582309022.1339998,35.156,35.156,29.785,28.32,0.0,0
1582309022.1379998,34.668,24.414,33.691,32.715,0.0,0
1582309022.139,36.621,20.996,29.785,32.715,0.0,0
1582309022.143,32.715,28.32,26.855,24.414,0.0,0
1582309022.147,29.297,36.133,27.344,18.066,0.0,0
1582309022.151,23.438,42.969,22.949,15.137,0.0,0
1582309022.155,10.254,48.34,20.508000000000006,10.254,0.0,0
1582309022.159,10.742,40.039,25.391,9.277,0.0,0
1582309022.163,13.184,40.039,24.414,8.301,0.0,0
1582309022.166,8.301,45.898,20.02,11.719,0.0,0
1582309022.17,5.371,39.062,20.02,15.137,0.0,0
1582309022.174,6.836,28.809,23.926,15.625,0.0,0
1582309022.178,13.184,26.367,24.902,13.184,0.0,0
1582309022.1820002,15.625,24.902,22.461,14.16,0.0,0
1582309022.184,12.207,28.32,25.391,18.066,0.0,0
1582309022.188,15.137,17.578,28.809,15.625,0.0,0
1582309022.1920002,20.02,0.488,26.367,13.672,0.0,0
1582309022.196,25.391,26.855,20.996,20.508000000000006,0.0,0
1582309022.2,28.32,41.504,23.438,22.949,0.0,0
1582309022.204,25.879,24.414,28.809,21.484,0.0,0
1582309022.208,23.438,28.32,28.809,23.438,0.0,0
1582309022.211,28.809,26.855,28.32,28.32,0.0,0
1582309022.215,32.227,31.738000000000003,25.391,24.902,0.0,0
1582309022.219,26.367,49.805,23.926,23.926,0.0,0
1582309022.2229998,23.438,50.78100000000001,26.367,28.32,0.0,0
1582309022.2270002,21.973000000000006,47.852,21.973000000000006,19.531,0.0,0
1582309022.229,29.297,41.01600000000001,19.531,19.531,0.0,0
1582309022.2329998,27.344,41.01600000000001,23.438,20.02,0.0,0
1582309022.2370002,28.32,21.484,19.531,23.438,0.0,0
1582309022.2410002,32.715,-7.812,20.996,29.297,0.0,0
1582309022.245,26.855,20.508000000000006,24.414,24.902,0.0,0
1582309022.2489998,25.879,39.062,29.297,27.344,0.0,0
1582309022.2529998,20.02,31.25,32.715,24.414,0.0,0
1582309022.256,14.648,36.621,28.32,21.973000000000006,0.0,0
1582309022.26,18.066,30.273000000000003,30.273000000000003,19.531,0.0,0
1582309022.264,20.996,28.32,26.367,14.16,0.0,0
1582309022.268,14.648,37.598,20.996,13.184,0.0,0
1582309022.272,13.672,12.695,22.461,11.23,0.0,0
1582309022.274,17.09,-0.977,22.461,9.277,0.0,0
1582309022.278,18.555,23.438,21.973000000000006,11.23,0.0,0
1582309022.282,12.695,45.41,21.973000000000006,14.16,0.0,0
1582309022.286,9.766,50.78100000000001,19.043,14.648,0.0,0
1582309022.29,15.625,45.41,15.137,15.137,0.0,0
1582309022.294,16.113,34.18,17.09,19.043,0.0,0
1582309022.298,19.043,34.668,19.043,18.555,0.0,0
1582309022.301,18.066,33.203,24.414,19.531,0.0,0
1582309022.305,20.508000000000006,25.879,31.25,23.926,0.0,0
1582309022.309,25.391,25.879,27.344,21.484,0.0,0
1582309022.313,11.719,16.602,23.926,16.113,0.0,0
1582309022.3170002,10.254,21.484,28.809,19.531,0.0,0
1582309022.319,14.16,28.32,26.855,20.996,0.0,0
1582309022.323,23.438,25.879,23.926,26.367,0.0,0
1582309022.327,27.832,34.668,29.785,30.273000000000003,0.0,0
1582309022.331,19.531,34.18,22.461,21.973000000000006,0.0,0
1582309022.335,16.602,37.109,18.066,20.02,0.0,0
1582309022.339,19.043,40.039,27.344,20.508000000000006,0.0,0
1582309022.343,22.949,20.02,32.227,17.578,0.0,0
1582309022.346,21.973000000000006,5.859,30.273000000000003,17.09,0.0,0
1582309022.35,23.926,2.441,26.367,19.531,0.0,0
1582309022.354,20.996,20.508000000000006,28.809,19.043,0.0,0
1582309022.3579998,22.949,49.316,24.902,13.672,0.0,0
1582309022.3620002,20.996,44.434,19.531,8.301,0.0,0
1582309022.3639998,16.602,26.855,22.461,13.672,0.0,0
1582309022.3679998,23.926,33.203,22.461,20.02,0.0,0
1582309022.3720002,22.461,42.48,28.32,20.996,0.0,0
1582309022.3760002,26.855,33.691,29.297,27.832,0.0,0
1582309022.38,26.855,22.949,27.832,31.25,0.0,0
1582309022.3839998,25.391,27.344,28.809,29.785,0.0,0
1582309022.3879998,25.879,32.227,20.508000000000006,29.297,0.0,0
1582309022.391,23.438,29.297,25.391,25.879,0.0,0
1582309022.395,25.879,23.926,28.32,21.484,0.0,0
1582309022.399,29.785,29.785,27.344,26.367,0.0,0
1582309022.403,32.227,44.922,34.18,29.297,0.0,0
1582309022.407,26.855,32.715,32.227,26.367,0.0,0
1582309022.424,20.996,21.484,27.832,22.461,0.0,0
1582309022.428,19.043,31.25,27.832,20.996,0.0,0
1582309022.4320002,23.926,28.809,25.879,20.508000000000006,0.0,0
1582309022.436,26.855,25.879,27.344,18.066,0.0,0
1582309022.44,21.484,39.062,35.156,18.555,0.0,0
1582309022.444,18.066,41.992,32.227,18.555,0.0,0
1582309022.448,13.184,35.645,23.926,11.719,0.0,0
1582309022.451,20.02,31.738000000000003,25.391,14.16,0.0,0
1582309022.455,20.508000000000006,14.16,27.832,16.113,0.0,0
1582309022.459,17.578,9.766,28.32,21.484,0.0,0
1582309022.4629998,20.996,38.086,25.391,17.09,0.0,0
1582309022.467,21.484,42.48,21.973000000000006,10.254,0.0,0
1582309022.469,24.414,29.785,22.461,22.461,0.0,0
1582309022.4729998,13.672,31.25,22.461,18.066,0.0,0
1582309022.4770002,13.672,22.949,24.902,16.113,0.0,0
1582309022.481,21.973000000000006,15.137,24.414,22.949,0.0,0
1582309022.485,21.973000000000006,13.672,24.414,18.555,0.0,0
1582309022.4889998,21.973000000000006,16.602,29.785,19.531,0.0,0
1582309022.4929998,17.578,33.691,28.809,21.484,0.0,0
1582309022.496,15.137,40.527,24.902,16.602,0.0,1
1582309022.5,23.438,40.527,24.902,14.16,0.0,0
1582309022.504,23.438,39.062,24.902,13.672,0.0,0
1582309022.508,23.926,28.32,23.438,16.602,0.0,0
1582309022.512,32.227,3.418,25.879,21.484,0.0,0
1582309022.514,30.762,9.766,25.879,20.02,0.0,0
1582309022.518,26.367,35.156,25.879,21.973000000000006,0.0,0
1582309022.522,25.391,35.156,30.762,26.855,0.0,0
1582309022.526,24.414,43.945,28.809,26.367,0.0,0
1582309022.53,28.32,54.688,28.32,26.855,0.0,0
1582309022.534,31.25,44.434,29.785,28.32,0.0,0
1582309022.538,26.855,27.344,25.879,26.367,0.0,0
1582309022.541,20.996,24.902,24.414,24.414,0.0,0
1582309022.545,25.879,25.879,24.414,23.438,0.0,0
1582309022.549,32.227,24.902,27.344,22.949,0.0,0
1582309022.553,22.461,33.203,20.996,21.484,0.0,0
1582309022.5570002,22.461,29.785,21.973000000000006,23.438,0.0,0
1582309022.559,27.344,26.367,31.738000000000003,20.996,0.0,0
1582309022.563,28.809,29.785,24.414,19.531,0.0,0
1582309022.5670002,37.109,32.227,27.344,29.297,0.0,0
1582309022.571,29.785,36.133,28.32,31.25,0.0,0
1582309022.575,23.926,28.809,25.879,23.926,0.0,0
1582309022.579,31.25,16.602,33.203,29.785,0.0,0
1582309022.583,31.738000000000003,27.832,35.645,32.715,0.0,0
1582309022.586,27.832,29.785,35.156,30.762,0.0,0
1582309022.59,24.414,29.297,34.668,29.297,0.0,0
1582309022.594,27.832,43.945,33.203,27.344,0.0,0
1582309022.5979998,25.879,40.039,31.25,24.902,0.0,0
1582309022.6020002,22.949,33.691,26.367,26.367,0.0,0
1582309022.604,20.508000000000006,35.645,24.902,30.273000000000003,0.0,0
1582309022.6079998,17.578,23.438,25.879,25.879,0.0,0
1582309022.6120002,24.902,11.23,24.414,20.02,0.0,0
1582309022.6160002,24.414,15.625,29.785,19.531,0.0,0
1582309022.62,19.531,24.414,28.32,24.902,0.0,0
1582309022.6239998,24.902,23.926,21.484,19.043,0.0,0
1582309022.6279998,25.879,18.066,23.438,19.043,0.0,0
1582309022.631,24.902,17.578,26.367,25.391,0.0,0
1582309022.635,24.902,24.414,25.879,18.066,0.0,0
1582309022.639,22.461,37.598,26.367,20.02,0.0,0
1582309022.643,23.438,45.898,25.391,25.879,0.0,0
1582309022.647,25.391,39.551,24.414,26.855,0.0,0
1582309022.649,23.438,34.18,25.879,24.902,0.0,0
1582309022.653,19.043,41.992,26.855,21.973000000000006,0.0,0
1582309022.657,20.02,47.363,27.832,26.855,0.0,0
1582309022.661,30.762,33.203,25.391,31.738000000000003,0.0,0
1582309022.665,31.25,17.09,32.227,36.621,0.0,0
1582309022.669,20.996,26.855,28.32,29.297,0.0,0
1582309022.673,23.438,38.086,20.996,22.949,0.0,0
1582309022.676,24.902,36.621,33.691,25.391,0.0,0
1582309022.68,12.695,40.527,35.645,15.625,0.0,0
1582309022.684,16.113,23.438,29.785,20.996,0.0,0
1582309022.688,24.902,-18.555,29.297,28.809,0.0,0
1582309022.6920002,22.949,8.301,31.738000000000003,23.926,0.0,0
1582309022.694,17.09,47.363,32.715,21.973000000000006,0.0,0
1582309022.698,13.184,41.01600000000001,32.227,18.066,0.0,0
1582309022.702,18.066,43.457,29.785,21.973000000000006,0.0,0
1582309022.706,23.926,40.527,26.855,19.043,0.0,0
1582309022.71,33.691,22.949,28.32,20.508000000000006,0.0,0
1582309022.714,29.297,34.18,26.367,22.461,0.0,0
1582309022.718,20.02,44.434,21.484,19.043,0.0,0
1582309022.721,21.484,38.574,23.438,20.996,0.0,0
1582309022.725,27.344,30.762,30.762,21.973000000000006,0.0,0
1582309022.729,21.484,28.32,31.25,19.531,0.0,0
1582309022.7329998,16.113,31.738000000000003,26.855,23.438,0.0,0
1582309022.7370002,29.297,22.461,30.273000000000003,27.832,0.0,0
1582309022.7389998,29.785,7.812,28.32,26.855,0.0,0
1582309022.7429998,25.391,20.996,25.391,21.973000000000006,0.0,0
1582309022.7470002,23.926,39.551,24.414,17.09,0.0,0
1582309022.7510002,20.508000000000006,44.922,18.555,20.02,0.0,0
1582309022.755,26.367,39.062,22.461,25.391,0.0,0
1582309022.7589998,25.391,30.273000000000003,26.855,26.855,0.0,0
1582309022.7629998,19.531,37.109,27.344,22.461,0.0,0
1582309022.766,21.973000000000006,33.203,28.809,22.949,0.0,0
1582309022.77,19.043,30.273000000000003,25.391,25.391,0.0,0
1582309022.774,14.648,35.645,25.391,20.996,0.0,0
1582309022.778,19.043,30.273000000000003,27.344,24.414,0.0,0
1582309022.782,19.531,21.973000000000006,29.297,23.926,0.0,0
1582309022.799,18.555,22.461,32.715,20.508000000000006,0.0,0
1582309022.803,24.414,36.621,34.668,27.344,0.0,0
1582309022.8070002,21.973000000000006,22.949,32.227,24.414,0.0,0
1582309022.811,14.16,-1.465,23.438,22.949,0.0,0
1582309022.815,19.043,11.23,25.879,23.926,0.0,0
1582309022.819,30.762,39.062,31.738000000000003,23.438,0.0,0
1582309022.823,26.367,41.992,28.32,27.344,0.0,0
1582309022.826,17.578,31.738000000000003,29.297,25.391,0.0,0
1582309022.83,20.508000000000006,36.133,31.738000000000003,22.949,0.0,0
1582309022.834,25.391,40.527,29.785,18.066,0.0,0
1582309022.8379998,24.902,45.41,31.738000000000003,20.996,0.0,0
1582309022.842,19.531,34.18,35.645,26.855,0.0,0
1582309022.844,16.602,19.531,33.203,25.391,0.0,0
1582309022.8479998,24.902,13.672,30.273000000000003,28.32,0.0,0
1582309022.8520002,25.879,26.855,25.879,22.461,0.0,0
1582309022.856,16.113,41.992,23.438,15.625,0.0,0
1582309022.86,21.484,29.785,29.297,20.02,0.0,0
1582309022.8639998,21.973000000000006,16.602,30.762,17.09,0.0,0
1582309022.8679998,22.949,19.531,30.273000000000003,10.742,0.0,0
1582309022.871,32.715,34.668,22.461,3.418,0.0,0
1582309022.875,40.039,41.504,19.531,8.789,0.0,0
1582309022.879,40.039,35.156,25.879,12.207,0.0,0
1582309022.883,35.156,32.227,23.438,7.324,0.0,0
1582309022.887,24.902,42.969,21.973000000000006,10.254,0.0,0
1582309022.89,13.672,47.363,26.855,14.648,0.0,0
1582309022.894,10.254,41.504,28.809,22.949,0.0,0
1582309022.8979998,14.648,33.691,27.344,25.879,0.0,0
1582309022.9020002,18.066,36.133,23.438,25.391,0.0,0
1582309022.906,18.066,16.602,20.02,25.391,0.0,0
1582309022.91,16.602,9.277,23.926,23.926,0.0,0
1582309022.914,18.555,33.203,24.414,20.508000000000006,0.0,0
1582309022.917,19.043,37.598,23.438,19.043,0.0,0
1582309022.921,20.508000000000006,35.645,23.926,24.902,0.0,0
1582309022.925,20.02,38.086,23.926,24.902,0.0,0
1582309022.929,16.113,35.645,25.391,21.973000000000006,0.0,0
1582309022.9329998,24.414,16.602,29.785,30.762,0.0,0
1582309022.935,31.738000000000003,-3.418,31.738000000000003,33.203,0.0,0
1582309022.939,24.902,13.672,28.809,31.25,0.0,0
1582309022.9429998,21.484,27.832,29.297,28.32,0.0,0
1582309022.947,23.926,34.668,18.555,24.414,0.0,0
1582309022.951,26.855,45.898,10.742,27.832,0.0,0
1582309022.955,23.926,45.898,26.855,26.367,0.0,0
1582309022.959,22.461,45.898,38.086,26.855,0.0,0
1582309022.962,32.715,45.41,34.668,28.809,0.0,0
1582309022.966,37.109,43.945,29.297,28.809,0.0,0
1582309022.97,25.391,38.574,31.25,25.879,0.0,0
1582309022.974,19.043,35.156,32.227,27.344,0.0,0
1582309022.978,27.344,32.715,29.297,24.902,0.0,0
1582309022.98,33.691,18.555,30.273000000000003,23.926,0.0,0
1582309022.984,29.297,-0.977,29.785,23.926,0.0,0
1582309022.988,21.484,15.625,27.832,19.043,0.0,0
1582309022.992,22.949,40.527,26.855,21.973000000000006,0.0,0
1582309022.996,25.879,35.645,32.227,20.996,0.0,0
1582309023.0,30.762,-1.953,39.062,24.414,0.0,0
1582309023.004,28.32,-2.441,31.25,23.438,0.0,0
1582309023.0070002,24.414,41.01600000000001,22.949,19.531,0.0,0
1582309023.0110002,29.785,48.828,28.32,25.879,0.0,0
1582309023.015,26.855,39.062,30.762,26.855,0.0,0
1582309023.019,20.02,37.598,28.32,29.785,0.0,0
1582309023.0229998,20.02,32.715,26.855,32.227,0.0,0
1582309023.024,29.297,33.691,26.367,26.367,0.0,0
1582309023.028,30.762,43.457,29.785,25.391,0.0,0
1582309023.032,23.438,38.574,30.273000000000003,26.855,0.0,0
1582309023.036,20.508000000000006,25.879,29.297,26.855,0.0,0
1582309023.04,22.461,28.809,28.809,20.02,0.0,0
1582309023.044,35.156,19.043,23.926,24.414,0.0,0
1582309023.048,40.527,6.836,20.02,32.715,0.0,0
1582309023.051,32.715,28.809,20.996,28.32,0.0,0
1582309023.055,23.926,17.578,23.926,23.438,0.0,0
1582309023.059,32.715,12.695,27.344,20.996,0.0,0
1582309023.063,37.109,43.457,24.902,25.391,0.0,0
1582309023.0670002,25.391,55.176,24.902,23.438,0.0,0
1582309023.069,21.973000000000006,39.062,27.344,20.508000000000006,0.0,0
1582309023.073,29.297,21.973000000000006,24.902,24.414,0.0,0
1582309023.077,32.227,31.25,22.461,21.484,0.0,0
1582309023.081,24.902,39.551,24.414,18.066,0.0,0
1582309023.085,24.902,33.203,26.855,19.043,0.0,0
1582309023.089,38.086,22.461,29.297,28.809,0.0,0
1582309023.093,48.828,26.367,24.414,40.039,0.0,0
1582309023.096,38.086,40.527,24.414,27.832,0.0,0
1582309023.1,17.578,33.691,26.367,14.648,0.0,0
1582309023.104,20.02,28.809,25.879,15.625,0.0,0
1582309023.1079998,24.414,23.438,22.949,10.254,0.0,0
1582309023.1120002,19.531,20.996,24.414,11.23,0.0,0
1582309023.1139998,23.926,29.785,27.832,15.137,0.0,0
1582309023.1179998,28.32,18.066,26.855,16.602,0.0,0
1582309023.1220002,37.109,5.859,28.32,25.391,0.0,0
1582309023.1260002,33.691,22.461,27.832,20.02,0.0,0
1582309023.13,21.973000000000006,38.574,27.344,20.996,0.0,0
1582309023.1339998,22.949,24.902,26.855,21.973000000000006,0.0,0
1582309023.1379998,26.855,19.531,26.367,22.461,0.0,0
1582309023.141,27.344,34.18,27.832,24.902,0.0,0
1582309023.145,27.344,28.32,30.762,26.367,0.0,0
1582309023.149,25.391,23.438,28.809,27.344,0.0,0
1582309023.153,25.391,27.344,27.344,20.02,0.0,0
1582309023.157,29.785,23.438,28.32,20.02,0.0,0
1582309023.174,25.879,31.25,20.508000000000006,19.043,0.0,0
1582309023.178,25.879,27.344,19.531,21.973000000000006,0.0,0
1582309023.1820002,31.738000000000003,4.883,28.809,28.32,0.0,0
1582309023.186,29.297,16.113,27.832,23.926,0.0,0
1582309023.19,26.855,38.574,19.043,22.461,0.0,0
1582309023.194,26.855,40.527,24.414,29.297,0.0,0
1582309023.198,23.926,31.738000000000003,29.785,31.25,0.0,0
1582309023.201,28.32,22.461,23.438,31.738000000000003,0.0,0
1582309023.205,34.18,21.973000000000006,22.461,29.785,0.0,0
1582309023.209,28.809,30.762,27.832,29.785,0.0,0
1582309023.2129998,27.832,33.691,22.949,29.297,0.0,0
1582309023.217,38.574,22.461,17.09,30.273000000000003,0.0,0
1582309023.219,33.203,14.648,23.438,29.785,0.0,0
1582309023.2229998,19.531,17.578,28.32,25.879,0.0,0
1582309023.2270002,20.02,27.832,27.344,31.25,0.0,0
1582309023.231,22.461,31.25,25.879,29.297,0.0,0
1582309023.235,24.414,27.832,24.414,25.391,0.0,0
1582309023.2389998,29.785,15.625,25.391,37.109,0.0,0
1582309023.2429998,28.32,3.906,26.855,35.156,0.0,0
1582309023.246,21.973000000000006,15.137,27.344,28.32,0.0,0
1582309023.25,21.484,40.527,26.855,28.32,0.0,0
1582309023.254,21.973000000000006,47.363,25.391,23.438,0.0,0
1582309023.258,23.438,40.527,28.809,27.832,0.0,0
1582309023.262,19.531,43.945,27.344,25.391,0.0,0
1582309023.265,22.949,46.387,28.32,23.438,0.0,0
1582309023.269,28.32,35.645,29.297,31.25,0.0,0
1582309023.2729998,24.414,26.367,27.344,32.227,0.0,0
1582309023.2770002,23.438,19.531,31.25,34.18,0.0,0
1582309023.281,26.367,19.531,34.18,31.738000000000003,0.0,0
1582309023.285,27.344,28.809,28.809,27.344,0.0,0
1582309023.289,24.414,33.203,27.344,26.367,0.0,0
1582309023.292,18.066,34.668,34.668,25.879,0.0,0
1582309023.296,20.02,31.25,35.645,24.414,0.0,0
1582309023.3,28.32,30.273000000000003,32.715,20.996,0.0,0
1582309023.304,26.367,30.762,32.227,21.973000000000006,0.0,0
1582309023.3079998,17.578,11.23,32.715,22.949,0.0,0
1582309023.309,16.113,16.113,27.344,21.484,0.0,0
1582309023.313,20.996,26.367,24.902,20.508000000000006,0.0,0
1582309023.3170002,20.996,25.391,23.926,21.973000000000006,0.0,0
1582309023.321,15.625,32.715,22.461,20.508000000000006,0.0,0
1582309023.325,16.602,33.691,28.809,18.555,0.0,0
1582309023.329,26.367,28.809,28.809,22.949,0.0,0
1582309023.333,26.367,27.832,23.438,23.438,0.0,0
1582309023.336,22.949,37.598,23.926,20.508000000000006,0.0,0
1582309023.34,21.973000000000006,36.621,24.902,17.578,0.0,0
1582309023.344,26.367,40.527,27.832,19.043,0.0,0
1582309023.3479998,30.273000000000003,44.434,26.855,22.461,0.0,0
1582309023.3520002,22.949,37.109,17.578,16.113,0.0,0
1582309023.354,19.043,35.645,18.066,14.648,0.0,0
1582309023.3579998,22.949,32.227,25.391,18.555,0.0,0
1582309023.3620002,23.926,22.461,26.367,18.555,0.0,0
1582309023.3660002,25.391,25.391,27.344,19.043,0.0,0
1582309023.37,27.344,5.371,27.344,22.461,0.0,0
1582309023.3739998,21.484,2.93,23.438,21.484,0.0,0
1582309023.3779998,25.879,27.344,25.391,20.02,0.0,0
1582309023.381,24.902,34.18,25.391,21.484,0.0,0
1582309023.385,18.555,41.01600000000001,22.461,15.625,0.0,0
1582309023.389,22.461,37.109,22.949,18.066,0.0,0
1582309023.393,27.832,27.344,21.484,26.855,0.0,0
1582309023.397,30.762,32.715,24.902,27.832,0.0,0
1582309023.399,32.715,29.297,31.738000000000003,27.344,0.0,0
1582309023.403,29.785,28.809,32.227,24.902,0.0,0
1582309023.407,32.715,27.832,31.25,24.414,0.0,0
1582309023.411,37.598,26.367,29.297,25.391,0.0,0
1582309023.415,28.809,16.602,29.785,28.32,0.0,0
1582309023.419,19.043,16.113,27.344,28.32,0.0,0
1582309023.423,21.973000000000006,38.086,21.973000000000006,29.785,0.0,0
1582309023.426,24.414,43.945,26.855,26.367,0.0,0
1582309023.43,17.578,40.527,20.508000000000006,22.949,0.0,0
1582309023.434,13.184,38.574,12.207,25.391,0.0,0
1582309023.438,8.301,40.039,21.973000000000006,16.113,0.0,0
1582309023.4420002,15.137,34.18,27.832,15.137,0.0,0
1582309023.444,21.484,27.344,26.367,21.484,0.0,0
1582309023.448,6.836,31.738000000000003,23.926,12.207,0.0,0
1582309023.452,3.906,25.879,20.996,7.324,0.0,0
1582309023.456,19.043,21.484,23.438,18.555,0.0,0
1582309023.46,14.648,31.25,26.855,18.066,0.0,0
1582309023.464,8.789,22.949,25.391,15.137,0.0,0
1582309023.468,16.602,19.043,25.879,16.602,0.0,0
1582309023.471,18.555,22.461,27.832,17.09,0.0,0
1582309023.475,25.391,13.672,23.438,22.949,0.0,0
1582309023.479,28.809,29.785,19.531,22.461,0.0,0
1582309023.4829998,21.973000000000006,39.062,20.996,21.484,0.0,0
1582309023.4870002,27.344,34.668,22.461,25.879,0.0,0
1582309023.4889998,30.273000000000003,48.34,21.484,27.344,0.0,0
1582309023.4929998,36.621,48.34,22.461,28.32,0.0,0
1582309023.4970002,38.574,39.062,25.879,33.691,0.0,0
1582309023.5010002,34.668,23.926,26.855,36.621,0.0,0
1582309023.505,35.156,27.832,24.414,33.691,0.0,0
1582309023.5089998,27.832,36.133,23.926,24.414,0.0,0
1582309023.5129998,19.531,34.18,22.949,15.625,0.0,0
1582309023.516,14.648,36.621,25.391,11.719,0.0,0
1582309023.52,13.672,35.645,30.273000000000003,11.23,0.0,0
1582309023.524,17.578,37.109,24.902,10.254,0.0,0
1582309023.528,23.438,25.391,24.902,13.184,0.0,0
1582309023.532,23.438,15.137,30.273000000000003,16.602,0.0,0
1582309023.549,21.973000000000006,14.648,27.344,15.137,0.0,0
1582309023.553,25.879,20.02,27.344,18.066,0.0,0
1582309023.5570002,24.414,33.691,27.344,19.043,0.0,0
1582309023.561,14.16,26.367,27.344,15.625,0.0,0
1582309023.565,16.602,24.902,31.738000000000003,20.02,0.0,0
1582309023.569,20.996,40.527,31.25,27.832,0.0,0
1582309023.573,20.996,40.527,29.785,25.391,0.0,0
1582309023.576,26.855,33.691,29.785,26.367,0.0,0
1582309023.58,23.438,28.809,27.344,29.297,0.0,0
1582309023.584,16.602,27.344,22.949,21.484,0.0,0
1582309023.5879998,19.531,29.297,20.508000000000006,22.461,0.0,0
1582309023.592,24.414,31.738000000000003,25.879,26.367,0.0,0
1582309023.594,18.066,21.484,30.273000000000003,28.809,0.0,0
1582309023.5979998,21.973000000000006,20.02,28.809,24.902,0.0,0
1582309023.6020002,31.738000000000003,25.391,26.855,25.879,0.0,0
1582309023.606,25.879,15.137,31.25,27.344,0.0,0
1582309023.61,25.879,9.766,36.621,29.297,0.0,0
1582309023.6139998,36.133,14.16,32.227,34.18,0.0,0
1582309023.6179998,35.645,38.086,24.902,33.691,0.0,0
1582309023.621,28.809,40.527,25.879,33.203,0.0,1
1582309023.625,29.785,39.062,30.273000000000003,34.18,0.0,0
1582309023.629,27.344,42.969,31.25,31.738000000000003,0.0,0
1582309023.633,23.438,36.621,32.715,31.25,0.0,0
1582309023.637,30.273000000000003,21.973000000000006,35.156,36.133,0.0,0
1582309023.639,27.344,23.926,31.738000000000003,27.832,0.0,0
1582309023.643,17.09,35.645,26.855,24.902,0.0,0
1582309023.647,23.926,24.414,26.855,31.25,0.0,0
1582309023.651,32.715,33.203,26.855,21.973000000000006,0.0,0
1582309023.655,36.621,40.527,23.438,18.555,0.0,0
1582309023.659,37.598,41.504,18.555,18.066,0.0,0
1582309023.663,38.086,43.457,20.508000000000006,13.672,0.0,0
1582309023.666,46.875,32.715,27.832,20.02,0.0,0
1582309023.67,52.246,31.738000000000003,26.855,23.926,0.0,0
1582309023.674,46.875,19.531,26.367,24.414,0.0,0
1582309023.678,42.48,9.766,27.344,36.133,0.0,0
1582309023.6820002,34.668,18.555,28.809,44.922,0.0,0
1582309023.684,21.484,22.461,30.273000000000003,39.062,0.0,0
1582309023.688,13.672,42.969,28.809,37.109,0.0,0
1582309023.6920002,21.973000000000006,51.758,21.484,38.086,0.0,0
1582309023.696,26.367,39.062,19.043,36.621,0.0,0
1582309023.7,25.391,35.156,25.879,32.715,0.0,0
1582309023.704,22.461,33.203,28.32,30.273000000000003,0.0,0
1582309023.708,17.578,30.762,26.367,30.762,0.0,0
1582309023.711,23.926,35.156,25.391,33.691,0.0,0
1582309023.715,31.25,30.762,27.832,32.715,0.0,0
1582309023.719,22.461,26.855,25.391,28.32,0.0,0
1582309023.7229998,15.137,21.973000000000006,20.996,27.344,0.0,0
1582309023.7270002,24.902,19.531,19.531,29.297,0.0,0
1582309023.729,33.691,31.25,21.484,32.227,0.0,0
1582309023.7329998,24.414,22.949,14.16,25.391,0.0,0
1582309023.7370002,14.16,10.254,8.789,19.531,0.0,0
1582309023.7410002,16.113,6.836,22.461,25.391,0.0,0
1582309023.745,21.484,-1.953,30.762,26.855,0.0,0
1582309023.7489998,21.484,29.785,24.902,24.902,0.0,0
1582309023.7529998,15.625,47.852,26.367,25.391,0.0,0
1582309023.756,19.043,33.203,32.715,22.949,0.0,0
1582309023.76,20.02,32.715,27.832,19.531,0.0,0
1582309023.764,16.113,30.762,24.414,16.602,0.0,0
1582309023.768,19.043,38.574,25.879,23.438,0.0,0
1582309023.772,19.531,45.41,25.879,21.973000000000006,0.0,0
1582309023.774,19.531,40.527,22.949,20.02,0.0,0
1582309023.778,22.461,31.738000000000003,25.391,26.367,0.0,0
1582309023.782,17.09,27.344,26.367,20.02,0.0,0
1582309023.786,11.719,25.879,26.855,15.137,0.0,0
1582309023.79,20.996,12.695,25.879,19.043,0.0,0
1582309023.794,27.832,10.254,23.438,18.555,0.0,0
1582309023.798,19.043,10.742,21.484,18.066,0.0,0
1582309023.801,15.625,22.949,17.578,18.555,0.0,0
1582309023.805,19.043,42.969,19.043,16.113,0.0,0
1582309023.809,21.973000000000006,37.598,21.973000000000006,25.391,0.0,0
1582309023.813,20.996,25.879,20.996,25.391,0.0,0
1582309023.8170002,21.484,14.16,22.461,20.996,0.0,0
1582309023.819,24.414,20.02,24.414,20.996,0.0,0
1582309023.823,22.949,23.926,26.367,20.02,0.0,0
1582309023.827,28.809,25.391,27.344,24.902,0.0,0
1582309023.831,30.273000000000003,33.203,24.414,29.785,0.0,0
1582309023.835,22.949,37.598,20.508000000000006,26.855,0.0,0
1582309023.839,25.879,33.203,22.461,27.344,0.0,0
1582309023.843,35.645,36.133,24.414,28.809,0.0,0
1582309023.846,30.762,29.785,25.879,27.832,0.0,0
1582309023.85,31.25,14.648,24.414,27.832,0.0,0
1582309023.854,38.574,29.785,26.367,29.785,0.0,0
1582309023.8579998,40.527,27.344,28.32,30.762,0.0,0
1582309023.8620002,39.062,1.953,30.273000000000003,24.902,0.0,0
1582309023.8639998,31.738000000000003,15.137,28.809,23.926,0.0,0
1582309023.8679998,27.832,23.438,22.461,26.855,0.0,0
1582309023.8720002,32.227,31.25,21.484,22.949,0.0,0
1582309023.8760002,30.273000000000003,37.109,24.902,18.066,0.0,0
1582309023.88,25.879,32.227,20.996,16.113,0.0,0
1582309023.8839998,25.391,38.574,22.461,17.578,0.0,0
1582309023.8879998,29.297,33.203,27.344,18.066,0.0,0
1582309023.891,36.133,19.531,23.438,20.996,0.0,0
1582309023.895,30.762,27.344,17.09,21.484,0.0,0
1582309023.899,32.227,27.832,25.879,26.367,0.0,0
1582309023.903,35.645,11.23,36.621,30.273000000000003,0.0,0
1582309023.907,29.297,23.926,32.227,19.043,0.0,0
1582309023.924,26.855,31.738000000000003,27.344,17.09,0.0,0
1582309023.928,23.926,33.691,29.297,24.414,0.0,0
1582309023.9320002,23.438,36.133,28.32,20.508000000000006,0.0,0
1582309023.936,31.25,24.414,26.367,20.508000000000006,0.0,0
1582309023.94,32.227,24.902,30.762,22.949,0.0,0
1582309023.944,28.32,37.109,29.297,21.484,0.0,0
1582309023.948,33.203,41.504,24.902,30.762,0.0,0
1582309023.951,41.992,38.086,27.832,33.691,0.0,0
1582309023.955,41.992,29.785,31.738000000000003,36.133,0.0,0
1582309023.959,32.715,20.996,28.32,37.109,0.0,0
1582309023.9629998,25.879,26.367,25.391,31.25,0.0,0
1582309023.967,27.344,36.133,28.32,34.18,0.0,0
1582309023.969,35.645,33.691,29.297,39.551,0.0,0
1582309023.9729998,27.344,20.996,30.273000000000003,31.738000000000003,0.0,0
1582309023.9770002,18.066,21.484,28.809,27.344,0.0,0
1582309023.981,23.926,17.578,27.344,29.785,0.0,0
1582309023.985,23.438,25.391,30.273000000000003,26.367,0.0,0
1582309023.9889998,20.508000000000006,29.785,26.855,26.855,0.0,0
1582309023.9929998,17.578,20.02,29.785,26.855,0.0,0
1582309023.996,20.02,28.809,35.156,22.949,0.0,0
1582309024.0,28.809,30.762,30.762,26.855,0.0,0
1582309024.004,22.461,29.785,28.32,26.855,0.0,0
1582309024.008,9.766,35.645,25.391,21.484,0.0,0
1582309024.012,13.184,39.551,23.438,25.391,0.0,0
1582309024.014,21.484,30.273000000000003,24.902,26.367,0.0,0
1582309024.018,25.391,20.508000000000006,22.461,21.484,0.0,0
1582309024.022,19.043,31.738000000000003,23.438,16.602,0.0,0
1582309024.026,16.602,35.645,25.391,17.578,0.0,0
1582309024.03,22.461,30.762,23.926,29.297,0.0,0
1582309024.034,21.973000000000006,30.762,20.02,24.902,0.0,0
1582309024.038,20.508000000000006,28.32,22.949,12.207,0.0,0
1582309024.041,17.578,23.926,26.855,16.113,0.0,0
1582309024.045,20.996,21.973000000000006,27.832,20.996,0.0,0
1582309024.049,22.461,26.855,26.855,16.602,0.0,0
1582309024.053,16.113,27.832,21.973000000000006,18.066,0.0,0
1582309024.0570002,16.113,31.25,22.461,20.508000000000006,0.0,0
1582309024.059,20.508000000000006,24.902,26.855,23.926,0.0,0
1582309024.063,23.438,7.812,27.832,23.926,0.0,0
1582309024.0670002,21.973000000000006,11.719,25.879,19.531,0.0,0
1582309024.071,21.973000000000006,25.391,25.391,24.902,0.0,0
1582309024.075,25.879,24.902,26.367,27.344,0.0,0
1582309024.079,30.273000000000003,20.02,28.809,28.809,0.0,0
1582309024.083,35.156,26.367,32.227,29.297,0.0,0
1582309024.086,28.809,36.133,30.273000000000003,25.879,0.0,0
1582309024.09,16.602,35.156,28.32,27.344,0.0,0
1582309024.094,16.602,28.809,29.785,28.809,0.0,0
1582309024.0979998,24.902,32.227,30.762,24.414,0.0,0
1582309024.1020002,29.297,41.504,28.809,31.738000000000003,0.0,0
1582309024.105,26.367,38.086,27.832,41.504,0.0,0
1582309024.109,23.438,33.203,28.809,33.203,0.0,0
1582309024.113,33.203,33.203,23.438,32.227,0.0,0
1582309024.117,37.109,19.043,25.391,39.551,0.0,0
1582309024.121,29.785,13.672,33.203,39.062,0.0,0
1582309024.125,25.391,27.832,32.715,32.227,0.0,0
1582309024.129,23.926,24.414,28.32,26.855,0.0,0
1582309024.1320002,31.25,21.973000000000006,29.297,26.855,0.0,0
1582309024.1360002,30.273000000000003,41.01600000000001,27.832,24.414,0.0,0
1582309024.14,21.484,48.828,25.391,21.484,0.0,0
1582309024.144,31.738000000000003,44.922,26.367,24.414,0.0,0
1582309024.1479998,38.574,26.367,24.414,29.297,0.0,0
1582309024.149,32.227,18.066,24.414,21.973000000000006,0.0,0
1582309024.153,27.832,37.598,21.973000000000006,21.484,0.0,0
1582309024.157,27.344,43.457,21.484,33.691,0.0,0
1582309024.161,27.832,41.992,27.344,26.367,0.0,0
1582309024.165,27.344,40.527,26.855,14.648,0.0,0
1582309024.169,43.945,38.574,27.344,35.645,0.0,0
1582309024.173,42.969,34.18,32.227,44.434,0.0,0
1582309024.176,26.855,16.602,30.273000000000003,26.367,0.0,0
1582309024.18,24.414,8.301,32.227,25.879,0.0,0
1582309024.184,16.602,25.391,34.18,20.996,0.0,0
1582309024.188,15.625,35.645,30.762,10.742,0.0,0
1582309024.1920002,21.973000000000006,29.785,30.273000000000003,10.742,0.0,0
1582309024.209,22.461,31.25,26.855,12.695,0.0,0
1582309024.2129998,12.695,28.809,26.855,10.742,0.0,0
1582309024.217,15.625,23.926,29.785,15.625,0.0,0
1582309024.221,26.855,33.203,28.809,22.461,0.0,0
1582309024.225,33.691,29.785,30.762,24.414,0.0,0
1582309024.229,32.715,19.043,30.273000000000003,26.367,0.0,0
1582309024.2329998,25.391,26.855,25.879,21.973000000000006,0.0,0
1582309024.236,27.344,32.227,28.32,22.949,0.0,0
1582309024.24,35.156,28.32,28.809,30.273000000000003,0.0,0
1582309024.244,33.203,26.855,25.391,26.855,0.0,0
1582309024.248,29.297,22.949,24.414,23.926,0.0,0
1582309024.252,27.832,20.508000000000006,20.996,24.414,0.0,0
1582309024.254,28.32,12.207,25.879,26.367,0.0,0
1582309024.258,23.438,22.949,29.785,27.832,0.0,0
1582309024.262,15.137,36.621,28.32,21.973000000000006,0.0,0
1582309024.266,17.09,36.621,28.32,18.066,0.0,0
1582309024.27,23.926,46.875,26.855,21.484,0.0,0
1582309024.274,23.926,45.41,27.832,22.949,0.0,0
1582309024.278,18.066,32.715,28.809,20.02,0.0,0
1582309024.281,19.043,24.902,27.344,26.855,0.0,0
1582309024.285,27.832,31.25,22.461,29.297,0.0,0
1582309024.289,26.855,16.113,26.367,23.926,0.0,0
1582309024.293,27.832,4.883,33.203,26.367,0.0,0
1582309024.2970002,28.809,27.344,31.25,27.344,0.0,0
1582309024.314,21.484,40.039,29.297,22.949,0.0,0
1582309024.3179998,25.879,39.062,29.297,25.391,0.0,0
1582309024.322,30.762,37.109,27.832,30.273000000000003,0.0,0
1582309024.326,21.973000000000006,30.273000000000003,28.809,28.809,0.0,0
1582309024.33,21.973000000000006,22.461,28.32,26.855,0.0,0
1582309024.334,27.344,23.438,25.879,33.203,0.0,0
1582309024.3379998,28.809,28.809,25.879,37.598,0.0,0
1582309024.341,26.367,35.645,24.414,31.738000000000003,0.0,0
1582309024.345,21.973000000000006,35.645,26.367,22.949,0.0,0
1582309024.349,27.344,33.203,27.832,21.973000000000006,0.0,0
1582309024.353,34.18,27.344,28.32,23.926,0.0,0
1582309024.357,29.785,24.414,27.344,29.297,0.0,0
1582309024.344,24.414,31.25,27.832,31.25,0.0,0
1582309024.3479998,26.367,30.273000000000003,29.785,30.273000000000003,0.0,0
1582309024.3520002,22.949,32.227,29.297,20.508000000000006,0.0,0
1582309024.356,18.555,23.438,25.879,12.207,0.0,0
1582309024.36,21.973000000000006,3.906,24.902,16.602,0.0,0
1582309024.3639998,23.438,16.602,23.438,15.137,0.0,0
1582309024.3679998,23.438,29.297,23.926,15.137,0.0,0
1582309024.371,29.297,10.254,28.32,21.973000000000006,0.0,0
1582309024.375,24.414,25.879,27.832,20.996,0.0,0
1582309024.379,23.926,49.316,29.297,19.043,0.0,0
1582309024.383,35.156,40.039,28.809,26.367,0.0,0
1582309024.387,29.297,35.645,29.785,27.344,0.0,0
1582309024.389,26.855,41.992,29.297,27.344,0.0,0
1582309024.393,30.273000000000003,30.273000000000003,25.879,30.273000000000003,0.0,0
1582309024.397,29.785,28.32,24.414,30.762,0.0,0
1582309024.401,34.668,47.363,26.367,33.691,0.0,0
1582309024.405,30.762,44.434,27.344,35.156,0.0,0
1582309024.409,19.531,36.621,24.902,27.832,0.0,0
1582309024.413,23.926,35.156,25.879,26.367,0.0,0
1582309024.416,29.785,27.832,28.32,29.297,0.0,0
1582309024.42,26.855,26.367,25.391,22.461,0.0,0
1582309024.424,22.461,24.902,25.879,18.555,0.0,0
1582309024.428,26.855,3.906,30.273000000000003,26.855,0.0,0
1582309024.4320002,30.273000000000003,8.301,29.785,27.344,0.0,0
1582309024.434,21.484,20.508000000000006,21.484,25.391,0.0,0
1582309024.438,16.602,25.879,18.066,20.508000000000006,0.0,0
1582309024.4420002,16.602,41.992,21.484,16.602,0.0,0
1582309024.446,17.09,48.828,22.949,17.578,0.0,0
1582309024.45,19.531,44.434,22.461,19.531,0.0,0
1582309024.454,13.184,37.109,22.461,20.02,0.0,0
1582309024.458,14.16,22.461,25.391,22.949,0.0,0
1582309024.461,20.996,19.043,25.391,23.926,0.0,0
1582309024.465,17.09,23.438,20.996,15.625,0.0,0
1582309024.469,16.602,18.066,22.949,20.508000000000006,0.0,0
1582309024.4729998,20.996,19.531,26.367,29.785,0.0,0
1582309024.4770002,26.367,21.484,22.461,26.367,0.0,0
1582309024.48,36.133,37.598,21.973000000000006,22.461,0.0,0
1582309024.484,38.574,38.086,21.484,16.602,0.0,0
1582309024.488,45.41,17.09,20.02,17.09,0.0,0
1582309024.492,60.547,16.113,23.926,20.02,0.0,0
1582309024.496,65.43,37.598,23.926,13.672,0.0,0
1582309024.5,51.27,46.387,22.461,14.16,0.0,0
1582309024.504,35.156,39.551,25.391,19.043,0.0,0
1582309024.5070002,28.809,33.203,20.996,27.344,0.0,0
1582309024.5110002,25.879,34.668,19.043,35.156,0.0,0
1582309024.515,24.414,28.809,23.926,34.668,0.0,0
1582309024.519,22.461,13.672,26.855,35.645,0.0,0
1582309024.5229998,21.484,16.602,24.414,31.738000000000003,0.0,0
1582309024.524,22.461,25.391,20.996,27.832,0.0,0
1582309024.528,28.32,31.738000000000003,19.531,25.391,0.0,0
1582309024.532,26.367,36.621,19.531,23.438,0.0,0
1582309024.536,16.113,24.414,20.02,23.438,0.0,0
1582309024.54,10.254,4.395,22.461,15.137,0.0,0
1582309024.544,13.184,17.09,20.996,15.137,0.0,0
1582309024.548,19.043,39.551,14.648,22.949,0.0,0
1582309024.551,13.184,41.504,15.625,14.648,0.0,0
1582309024.555,7.812,34.668,18.555,10.254,0.0,0
1582309024.559,16.113,30.273000000000003,18.066,16.602,0.0,0
1582309024.563,20.02,6.836,18.066,19.043,0.0,0
1582309024.5670002,18.555,0.488,19.043,28.32,0.0,0
1582309024.569,13.672,23.926,16.113,25.391,0.0,0
1582309024.573,20.996,33.203,12.695,26.367,0.0,0
1582309024.577,31.738000000000003,28.32,19.043,33.203,0.0,0
1582309024.581,22.461,36.133,22.949,22.949,0.0,0
1582309024.585,17.578,41.992,20.02,20.02,0.0,0
1582309024.589,20.02,24.414,20.02,24.414,0.0,0
1582309024.593,25.879,18.066,19.043,26.855,0.0,0
1582309024.596,27.344,29.785,16.113,24.414,0.0,0
1582309024.6,21.484,19.043,20.02,25.391,0.0,0
1582309024.604,21.484,18.555,21.484,24.414,0.0,0
1582309024.6079998,28.809,23.926,21.484,18.555,0.0,0
1582309024.6120002,24.902,16.602,20.996,20.508000000000006,0.0,0
1582309024.6139998,15.625,24.902,16.113,17.578,0.0,0
1582309024.6179998,23.438,32.715,17.09,15.625,0.0,0
1582309024.6220002,29.785,30.273000000000003,17.09,25.879,0.0,0
1582309024.6260002,28.32,22.949,11.719,25.879,0.0,0
1582309024.63,20.996,13.184,11.719,15.137,0.0,0
1582309024.6339998,18.555,27.832,13.184,14.16,0.0,0
1582309024.6379998,21.973000000000006,43.945,12.695,15.625,0.0,0
1582309024.641,23.926,30.273000000000003,16.113,17.578,0.0,0
1582309024.645,21.484,31.25,15.137,19.043,0.0,0
1582309024.649,20.508000000000006,42.48,10.742,20.508000000000006,0.0,0
1582309024.653,20.996,32.227,16.602,19.531,0.0,0
1582309024.657,26.367,18.066,15.137,20.996,0.0,0
1582309024.674,29.785,13.672,10.254,29.785,0.0,0
1582309024.678,21.484,30.762,18.066,24.902,0.0,0
1582309024.6820002,21.973000000000006,38.574,16.113,21.484,0.0,0
1582309024.686,25.879,35.645,12.207,21.973000000000006,0.0,0
1582309024.69,22.461,30.762,15.137,20.996,0.0,0
1582309024.694,21.973000000000006,14.648,15.137,23.926,0.0,0
1582309024.698,20.508000000000006,18.066,16.602,20.02,0.0,0
1582309024.701,26.367,28.32,17.09,27.832,0.0,0
1582309024.705,31.25,28.809,14.16,28.32,0.0,0
1582309024.709,19.531,41.01600000000001,15.137,21.973000000000006,0.0,0
1582309024.7129998,11.23,40.039,12.695,23.926,0.0,0
1582309024.717,18.066,32.715,11.23,20.508000000000006,0.0,0
1582309024.719,21.973000000000006,34.668,17.09,17.578,0.0,0
1582309024.7229998,23.438,28.32,18.066,19.043,0.0,0
1582309024.7270002,20.996,22.949,13.184,14.648,0.0,0
1582309024.731,19.043,29.297,11.719,10.254,0.0,0
1582309024.735,27.832,34.18,14.648,19.531,0.0,2
1582309024.7389998,28.809,31.25,16.113,21.484,0.0,0
1582309024.7429998,18.555,20.996,14.16,14.16,0.0,0
1582309024.746,24.902,20.508000000000006,11.719,24.414,0.0,0
1582309024.75,32.227,22.949,14.16,25.391,0.0,0
1582309024.754,23.926,36.621,16.602,13.184,0.0,0
1582309024.758,20.508000000000006,29.297,18.066,12.695,0.0,0
1582309024.762,19.043,0.977,19.043,16.113,0.0,0
1582309024.764,20.02,16.113,18.555,16.602,0.0,0
1582309024.768,21.973000000000006,22.949,20.02,19.043,0.0,0
1582309024.772,20.02,26.367,20.508000000000006,18.066,0.0,0
1582309024.776,16.602,50.293,18.555,15.137,0.0,0
1582309024.78,15.137,44.434,16.602,9.766,0.0,0
1582309024.784,22.949,18.555,14.16,10.742,0.0,0
1582309024.788,20.02,23.926,11.23,13.184,0.0,0
1582309024.791,13.184,29.297,12.695,13.184,0.0,0
1582309024.795,14.648,27.832,15.137,12.207,0.0,0
1582309024.799,18.066,38.574,16.602,13.672,0.0,0
1582309024.803,18.555,25.879,15.625,16.113,0.0,0
1582309024.8070002,15.137,10.742,14.16,15.137,0.0,0
1582309024.809,18.555,23.926,17.09,17.578,0.0,0
1582309024.813,18.555,34.18,20.02,21.484,0.0,0
1582309024.8170002,18.555,32.227,19.043,12.207,0.0,0
1582309024.821,21.484,25.879,16.602,12.695,0.0,0
1582309024.825,23.438,19.531,12.207,26.367,0.0,0
1582309024.829,24.902,16.602,6.836,19.531,0.0,0
1582309024.833,29.785,11.23,7.812,19.043,0.0,0
1582309024.836,25.391,26.855,9.766,24.902,0.0,0
1582309024.84,20.508000000000006,24.902,5.371,19.043,0.0,0
1582309024.844,22.949,-6.836,6.348,22.949,0.0,0
1582309024.8479998,29.297,13.672,12.207,27.344,0.0,0
1582309024.8520002,28.32,32.715,1.465,23.926,0.0,0
1582309024.869,12.207,38.086,-2.93,16.113,0.0,0
1582309024.873,12.695,39.062,5.859,14.16,0.0,0
1582309024.877,22.949,39.551,12.695,23.926,0.0,0
1582309024.881,27.344,44.922,20.02,26.855,0.0,0
1582309024.885,25.391,47.852,17.09,27.344,0.0,0
1582309024.889,24.902,42.48,13.672,23.926,0.0,0
1582309024.893,27.344,36.133,12.207,16.113,0.0,0
1582309024.896,33.203,32.227,12.695,19.043,0.0,0
1582309024.9,27.832,22.461,14.16,22.461,0.0,0
1582309024.904,28.32,19.043,14.16,20.996,0.0,0
1582309024.908,36.133,15.137,14.16,24.902,0.0,0
1582309024.9120002,33.691,10.254,13.672,24.902,0.0,0
1582309024.899,32.715,18.066,11.719,29.785,0.0,0
1582309024.903,31.25,34.668,9.766,33.691,0.0,0
1582309024.907,25.391,27.344,11.23,25.391,0.0,0
1582309024.911,26.855,15.137,18.066,23.438,0.0,0
1582309024.915,29.297,27.832,20.02,26.855,0.0,0
1582309024.919,24.902,29.785,18.555,29.297,0.0,0
1582309024.923,25.391,23.438,16.602,23.438,0.0,0
1582309024.926,32.715,21.484,14.16,25.391,0.0,0
1582309024.93,31.25,19.531,15.625,26.367,0.0,0
1582309024.934,23.438,21.973000000000006,11.719,24.902,0.0,0
1582309024.938,23.438,27.832,13.184,30.273000000000003,0.0,0
1582309024.9420002,35.156,24.414,17.09,34.668,0.0,0
1582309024.944,35.645,19.043,16.113,32.227,0.0,0
1582309024.948,29.297,7.812,18.555,26.367,0.0,0
1582309024.952,30.273000000000003,1.465,20.996,32.715,0.0,0
1582309024.956,27.344,13.184,20.996,34.668,0.0,0
1582309024.96,30.273000000000003,8.301,20.996,29.785,0.0,0
1582309024.964,33.203,6.836,22.949,33.691,0.0,0
1582309024.968,25.879,30.273000000000003,25.391,26.855,0.0,0
1582309024.971,26.855,32.715,23.926,22.461,0.0,0
1582309024.975,27.344,29.297,25.391,24.414,0.0,0
1582309024.979,19.043,28.809,24.414,20.02,0.0,0
1582309024.9829998,17.578,14.648,22.949,24.414,0.0,0
1582309024.9870002,18.555,20.508000000000006,18.555,20.996,0.0,0
1582309024.9889998,23.926,33.203,16.113,18.066,0.0,0
1582309024.9929998,23.926,26.367,17.578,24.414,0.0,0
1582309024.9970002,15.137,26.367,17.578,19.043,0.0,0
1582309025.0010002,16.113,23.926,18.066,16.602,0.0,0
1582309025.005,24.902,19.531,15.137,21.484,0.0,0
1582309025.0089998,24.414,19.043,14.16,17.578,0.0,0
1582309025.0129998,15.137,16.113,15.625,21.973000000000006,0.0,0
1582309025.016,13.184,13.184,20.508000000000006,24.414,0.0,0
1582309025.02,20.02,17.09,25.879,25.879,0.0,0
1582309025.024,27.344,14.16,23.926,33.203,0.0,0
1582309025.028,29.297,5.371,20.996,33.203,0.0,0
1582309025.032,24.902,18.066,20.02,29.297,0.0,0
1582309025.049,15.625,26.855,19.043,26.367,0.0,0
1582309025.053,20.508000000000006,32.227,19.531,28.32,0.0,0
1582309025.0570002,28.809,36.133,20.508000000000006,26.367,0.0,0
1582309025.061,25.391,18.555,22.461,25.391,0.0,0
1582309025.065,25.879,22.949,20.02,27.832,0.0,0
1582309025.069,34.668,35.156,15.625,28.809,0.0,0
1582309025.073,31.25,31.738000000000003,16.113,24.902,0.0,0
1582309025.076,25.391,29.785,20.996,22.461,0.0,0
1582309025.08,22.461,26.367,27.832,25.879,0.0,0
1582309025.084,23.438,24.414,25.391,25.391,0.0,0
1582309025.0879998,29.785,17.578,20.02,25.391,0.0,0
1582309025.092,24.902,18.555,22.461,30.762,0.0,0
1582309025.094,16.113,32.715,23.438,30.762,0.0,0
1582309025.0979998,22.461,29.785,21.973000000000006,30.762,0.0,0
1582309025.1020002,29.785,17.578,22.461,27.344,0.0,0
1582309025.106,29.297,29.297,20.996,21.484,0.0,0
1582309025.11,20.996,33.203,20.996,22.949,0.0,0
1582309025.1139998,23.926,28.32,22.461,25.879,0.0,0
1582309025.1179998,29.785,30.273000000000003,20.02,22.949,0.0,0
1582309025.121,28.32,22.461,20.996,24.414,0.0,0
1582309025.125,25.879,24.902,20.996,28.809,0.0,0
1582309025.129,22.949,31.25,19.531,28.809,0.0,0
1582309025.133,27.832,31.738000000000003,19.043,27.832,0.0,0
1582309025.137,26.367,25.391,17.578,24.902,0.0,0
1582309025.14,30.273000000000003,19.531,18.555,29.297,0.0,0
1582309025.144,31.738000000000003,19.531,19.043,31.738000000000003,0.0,0
1582309025.1479998,24.414,19.531,20.02,28.809,0.0,0
1582309025.1520002,28.809,29.785,21.973000000000006,24.902,0.0,0
1582309025.156,26.367,33.691,19.531,18.555,0.0,0
1582309025.16,23.926,38.086,16.113,20.02,0.0,0
1582309025.164,24.902,41.504,14.648,19.531,0.0,0
1582309025.167,28.809,36.621,15.625,19.531,0.0,0
1582309025.171,29.297,33.203,17.578,25.879,0.0,0
1582309025.175,25.391,31.25,17.578,17.578,0.0,0
1582309025.179,25.879,25.391,14.648,14.16,0.0,0
1582309025.1829998,27.832,23.438,12.207,18.066,0.0,0
1582309025.184,30.273000000000003,26.855,17.578,21.484,0.0,0
1582309025.188,28.809,26.367,20.508000000000006,21.484,0.0,0
1582309025.1920002,27.832,24.414,18.066,21.484,0.0,0
1582309025.196,27.344,25.879,18.066,23.438,0.0,0
1582309025.2,25.391,23.926,20.508000000000006,18.066,0.0,0
1582309025.204,24.902,24.902,18.066,20.02,0.0,0
1582309025.208,27.344,24.902,16.602,20.996,0.0,0
1582309025.211,32.715,19.043,21.973000000000006,22.949,0.0,0
1582309025.215,34.18,27.832,23.438,29.297,0.0,0
1582309025.219,22.949,32.227,20.996,23.926,0.0,0
1582309025.2229998,19.531,32.227,23.926,29.785,0.0,0
1582309025.2270002,25.879,31.25,24.414,36.133,0.0,0
1582309025.244,28.32,26.855,22.461,32.227,0.0,0
1582309025.248,24.414,17.09,22.949,31.738000000000003,0.0,0
1582309025.252,22.461,17.578,19.531,35.645,0.0,0
1582309025.256,24.414,22.461,17.578,40.039,0.0,0
1582309025.26,32.227,31.738000000000003,23.438,35.645,0.0,0
1582309025.264,32.227,38.574,24.414,25.391,0.0,0
1582309025.268,27.832,27.832,25.391,28.809,0.0,0
1582309025.271,29.785,23.926,26.367,32.227,0.0,0
1582309025.275,30.762,27.832,21.484,28.32,0.0,0
1582309025.279,28.32,35.156,21.973000000000006,24.414,0.0,0
1582309025.283,22.949,31.25,23.926,28.32,0.0,0
1582309025.2870002,20.02,22.949,25.391,33.203,0.0,0
1582309025.274,24.414,28.809,25.879,36.133,0.0,0
1582309025.278,26.367,15.137,24.414,38.086,0.0,0
1582309025.282,21.484,8.789,24.902,36.621,0.0,0
1582309025.286,19.043,34.18,22.949,33.691,0.0,0
1582309025.29,19.531,42.48,23.438,28.809,0.0,0
1582309025.294,28.809,38.086,24.902,27.344,0.0,0
1582309025.298,38.574,33.691,23.438,24.902,0.0,0
1582309025.301,40.039,24.414,20.996,16.113,0.0,0
1582309025.305,43.945,21.484,19.043,16.113,0.0,0
1582309025.309,53.223,33.203,18.555,14.648,0.0,0
1582309025.313,49.316,41.992,19.531,8.301,0.0,0
1582309025.3170002,40.527,37.598,20.02,14.16,0.0,0
1582309025.319,36.621,25.391,21.484,20.996,0.0,0
1582309025.323,28.32,29.785,22.949,31.25,0.0,0
1582309025.327,22.949,23.438,24.414,33.691,0.0,0
1582309025.331,15.625,13.672,21.973000000000006,33.691,0.0,0
1582309025.335,10.254,25.879,16.602,32.227,0.0,0
1582309025.339,22.461,29.297,18.066,26.855,0.0,0
1582309025.343,28.32,35.645,20.02,28.32,0.0,0
1582309025.346,21.484,41.01600000000001,18.066,30.762,0.0,0
1582309025.35,22.461,48.34,18.555,27.344,0.0,0
1582309025.354,28.32,44.922,22.949,31.25,0.0,0
1582309025.3579998,33.691,41.504,23.438,30.273000000000003,0.0,0
1582309025.3620002,30.762,34.668,18.066,26.855,0.0,0
1582309025.365,26.367,24.902,17.09,34.18,0.0,0
1582309025.369,31.25,30.273000000000003,22.461,39.062,0.0,0
1582309025.373,35.156,34.18,26.367,42.48,0.0,0
1582309025.377,32.715,36.621,23.926,35.156,0.0,0
1582309025.381,32.715,42.48,22.461,30.273000000000003,0.0,0
1582309025.385,29.297,34.18,22.461,35.156,0.0,0
1582309025.389,28.809,23.926,20.508000000000006,31.738000000000003,0.0,0
1582309025.3920002,28.32,11.719,23.438,27.832,0.0,0
1582309025.396,24.902,-0.977,23.926,30.273000000000003,0.0,0
1582309025.4,19.531,20.996,24.902,28.32,0.0,0
1582309025.404,21.484,42.48,28.32,23.438,0.0,0
1582309025.408,30.273000000000003,45.898,25.391,22.949,0.0,0
1582309025.424,18.066,43.945,21.973000000000006,16.602,0.0,0
1582309025.428,4.883,38.574,22.461,10.742,0.0,0
1582309025.4320002,7.812,31.738000000000003,22.461,16.113,0.0,0
1582309025.436,16.113,26.855,22.461,12.695,0.0,0
1582309025.44,18.066,25.879,21.484,7.324,0.0,0
1582309025.444,13.672,22.461,16.113,13.672,0.0,0
1582309025.448,20.508000000000006,18.066,16.602,20.02,0.0,0
1582309025.451,25.391,17.09,19.043,20.02,0.0,0
1582309025.455,14.16,25.879,16.602,14.16,0.0,0
1582309025.459,11.23,22.461,18.066,13.672,0.0,0
1582309025.4629998,13.184,17.09,20.02,15.625,0.0,0
1582309025.467,12.695,20.02,19.531,9.766,0.0,0
1582309025.469,16.113,28.809,21.973000000000006,15.625,0.0,0
1582309025.4729998,18.066,18.066,22.949,20.508000000000006,0.0,0
1582309025.4770002,10.742,9.766,21.484,20.02,0.0,0
1582309025.481,7.812,32.227,20.996,19.531,0.0,0
1582309025.485,20.508000000000006,40.527,14.16,19.043,0.0,0
1582309025.4889998,26.855,32.227,14.648,24.902,0.0,0
1582309025.4929998,22.949,21.973000000000006,18.066,27.344,0.0,0
1582309025.496,25.391,21.973000000000006,13.672,25.391,0.0,0
1582309025.5,32.227,27.832,13.184,29.785,0.0,0
1582309025.504,27.832,38.086,17.09,26.855,0.0,0
1582309025.508,23.438,20.508000000000006,24.414,27.832,0.0,0
1582309025.512,21.484,4.883,20.508000000000006,26.367,0.0,0
1582309025.514,17.09,23.926,15.137,13.672,0.0,0
1582309025.518,17.578,36.621,16.602,11.23,0.0,0
1582309025.522,15.137,31.738000000000003,16.113,10.742,0.0,0
1582309025.526,16.113,21.973000000000006,18.555,12.695,0.0,0
1582309025.53,19.531,25.879,14.648,12.695,0.0,0
1582309025.534,25.391,-2.441,14.16,14.648,0.0,0
1582309025.538,21.484,-2.441,20.508000000000006,13.184,0.0,0
1582309025.541,14.16,44.434,14.648,13.672,0.0,0
1582309025.545,23.926,41.504,11.719,20.508000000000006,0.0,0
1582309025.549,28.809,22.949,15.625,13.672,0.0,0
1582309025.553,23.438,25.391,15.625,10.742,0.0,0
1582309025.5570002,13.184,36.133,13.672,8.301,0.0,0
1582309025.559,12.207,38.574,15.625,8.789,0.0,0
1582309025.563,24.414,36.133,17.578,18.555,0.0,0
1582309025.5670002,28.32,31.25,18.555,19.531,0.0,0
1582309025.571,26.367,24.414,15.625,20.02,0.0,0
1582309025.575,24.414,20.508000000000006,16.113,22.461,0.0,0
1582309025.579,29.785,25.391,22.461,25.391,0.0,0
1582309025.583,32.715,21.973000000000006,21.973000000000006,30.273000000000003,0.0,0
1582309025.586,25.879,23.926,18.066,29.297,0.0,0
1582309025.59,23.926,32.715,23.438,25.879,0.0,0
1582309025.594,25.391,24.414,27.832,27.344,0.0,0
1582309025.5979998,32.715,17.578,26.367,31.738000000000003,0.0,0
1582309025.6020002,31.25,10.742,25.879,30.273000000000003,0.0,0
1582309025.604,24.414,14.648,25.879,30.273000000000003,0.0,0
1582309025.6079998,29.297,34.668,24.902,35.645,0.0,0
1582309025.6120002,31.25,40.527,21.484,35.645,0.0,0
1582309025.6160002,22.461,37.109,19.531,24.414,0.0,0
1582309025.62,15.137,37.598,22.461,22.461,0.0,0
1582309025.6239998,18.066,36.133,21.484,22.949,0.0,0
1582309025.6279998,37.109,29.297,21.484,26.367,0.0,0
1582309025.631,45.41,24.414,24.902,40.039,0.0,0
1582309025.635,21.973000000000006,21.973000000000006,25.391,27.832,0.0,0
1582309025.639,5.371,26.855,26.367,12.695,0.0,0
1582309025.643,16.602,34.18,25.879,8.301,0.0,0
1582309025.647,19.531,27.832,36.133,10.742,0.0,0
1582309025.649,14.648,19.043,39.551,21.973000000000006,0.0,0
1582309025.653,20.996,23.926,35.645,30.273000000000003,0.0,0
1582309025.657,23.926,20.996,35.645,30.762,0.0,0
1582309025.661,30.762,5.371,35.156,36.133,0.0,0
1582309025.665,28.32,20.996,33.691,35.156,0.0,0
1582309025.669,21.973000000000006,23.926,32.715,30.273000000000003,0.0,0
1582309025.673,31.738000000000003,13.184,36.133,33.691,0.0,0
1582309025.676,32.715,29.297,32.227,30.273000000000003,0.0,0
1582309025.68,24.902,36.133,29.297,23.438,0.0,0
1582309025.684,22.949,35.645,32.227,26.855,0.0,0
1582309025.688,25.879,26.367,33.691,27.344,0.0,0
1582309025.6920002,31.25,21.484,30.273000000000003,25.879,0.0,0
1582309025.694,28.809,30.762,29.785,24.902,0.0,0
1582309025.698,22.461,35.645,31.25,22.461,0.0,0
1582309025.702,27.832,38.574,29.297,29.297,0.0,0
1582309025.706,25.391,38.086,29.785,26.855,0.0,0
1582309025.71,26.367,18.555,36.133,22.949,0.0,0
1582309025.714,28.809,6.836,39.062,29.297,0.0,0
1582309025.718,24.414,24.414,32.227,27.832,0.0,0
1582309025.721,23.438,27.344,30.762,21.973000000000006,0.0,0
1582309025.725,25.391,21.484,33.691,18.066,0.0,0
1582309025.729,26.855,22.461,34.668,20.508000000000006,0.0,0
1582309025.7329998,20.996,10.742,34.18,20.02,0.0,0
1582309025.7370002,21.973000000000006,27.832,33.203,21.484,0.0,0
1582309025.7389998,26.855,43.945,30.762,26.855,0.0,0
1582309025.7429998,23.926,39.551,29.297,21.973000000000006,0.0,0
1582309025.7470002,20.508000000000006,42.969,27.832,21.484,0.0,0
1582309025.7510002,21.484,37.598,27.832,29.785,0.0,0
1582309025.755,32.227,32.715,31.25,35.645,0.0,0
1582309025.7589998,37.598,38.086,29.297,33.691,0.0,0
1582309025.7629998,33.691,32.715,28.809,29.785,0.0,0
1582309025.766,33.203,24.414,30.762,25.879,0.0,0
1582309025.77,29.785,20.508000000000006,32.227,29.785,0.0,0
1582309025.774,32.715,18.066,33.203,30.273000000000003,0.0,0
1582309025.778,28.809,31.738000000000003,28.809,27.344,0.0,0
1582309025.782,24.902,40.527,27.832,24.414,0.0,0
1582309025.799,35.645,24.414,30.273000000000003,23.926,0.0,0
1582309025.803,37.109,22.461,29.785,31.738000000000003,0.0,0
1582309025.8070002,31.25,32.227,30.762,34.18,0.0,0
1582309025.811,30.273000000000003,33.691,29.297,36.621,0.0,0
1582309025.815,32.227,39.551,29.297,37.109,0.0,0
1582309025.819,33.691,29.785,31.25,35.645,0.0,0
1582309025.823,30.273000000000003,31.738000000000003,28.32,34.18,0.0,2
1582309025.826,28.809,32.715,23.438,30.762,0.0,0
1582309025.83,30.762,19.043,25.879,29.785,0.0,0
1582309025.834,24.902,15.625,26.855,23.926,0.0,0
1582309025.8379998,21.973000000000006,27.832,22.461,27.344,0.0,0
1582309025.842,26.367,8.789,25.879,29.297,0.0,0
1582309025.859,28.809,-21.484,25.879,26.855,0.0,0
1582309025.863,31.738000000000003,0.977,28.32,32.227,0.0,0
1582309025.867,27.344,29.785,23.926,26.367,0.0,0
1582309025.871,23.438,39.551,16.113,20.508000000000006,0.0,0
1582309025.875,27.832,42.969,27.832,25.879,0.0,0
1582309025.879,26.855,48.34,26.855,31.25,0.0,0
1582309025.883,25.879,38.086,22.949,27.344,0.0,0
1582309025.8860002,32.227,38.086,27.344,25.391,0.0,0
1582309025.89,29.297,26.367,28.809,28.809,0.0,0
1582309025.894,25.879,11.719,27.344,27.832,0.0,0
1582309025.8979998,32.227,26.367,25.391,28.809,0.0,0
1582309025.9020002,32.227,30.273000000000003,25.879,26.367,0.0,0
1582309025.889,30.762,21.484,27.344,28.32,0.0,0
1582309025.893,27.832,27.832,28.809,30.273000000000003,0.0,0
1582309025.897,29.785,34.18,32.227,32.227,0.0,0
1582309025.901,34.668,32.227,28.32,33.203,0.0,0
1582309025.905,30.273000000000003,28.32,28.32,29.785,0.0,0
1582309025.909,25.391,31.25,32.227,27.344,0.0,0
1582309025.913,25.391,32.715,29.297,25.879,0.0,0
1582309025.916,31.738000000000003,29.297,29.785,23.438,0.0,0
1582309025.92,30.273000000000003,26.367,30.273000000000003,15.625,0.0,0
1582309025.924,21.973000000000006,13.672,33.203,20.02,0.0,0
1582309025.928,25.391,12.207,32.227,23.926,0.0,0
1582309025.9320002,37.109,29.297,29.785,27.832,0.0,0
1582309025.934,34.18,3.418,37.598,31.25,0.0,0
1582309025.938,19.531,-0.977,41.01600000000001,23.926,0.0,0
1582309025.9420002,16.602,33.203,35.156,23.926,0.0,0
1582309025.946,27.344,41.01600000000001,32.227,28.809,0.0,0
1582309025.95,30.762,30.273000000000003,37.598,28.809,0.0,0
1582309025.954,20.508000000000006,11.719,38.574,25.391,0.0,0
1582309025.958,18.066,20.996,34.668,23.438,0.0,0
1582309025.961,22.461,34.668,32.715,22.461,0.0,0
1582309025.965,19.043,24.414,33.691,18.555,0.0,0
1582309025.969,17.09,25.879,37.109,19.531,0.0,0
1582309025.9729998,21.484,32.227,37.598,21.973000000000006,0.0,0
1582309025.9770002,23.926,28.809,37.109,20.508000000000006,0.0,0
1582309025.979,27.832,23.926,36.621,24.414,0.0,0
1582309025.9829998,31.25,21.973000000000006,36.621,24.414,0.0,0
1582309025.9870002,27.832,18.066,33.691,20.508000000000006,0.0,0
1582309025.9910002,27.832,9.766,36.133,29.785,0.0,0
1582309025.995,31.25,21.973000000000006,37.109,31.738000000000003,0.0,0
1582309025.9989998,30.273000000000003,35.645,31.738000000000003,27.832,0.0,0
1582309026.0029998,22.461,36.133,33.691,21.973000000000006,0.0,0
1582309026.006,18.066,36.133,35.645,15.137,0.0,0
1582309026.01,17.578,20.996,37.109,17.578,0.0,0
1582309026.014,17.09,13.184,37.598,17.09,0.0,0
1582309026.018,17.09,31.738000000000003,37.109,20.02,0.0,0
1582309026.022,16.113,27.344,36.133,26.855,0.0,0
1582309026.024,20.02,14.16,36.621,31.738000000000003,0.0,0
1582309026.028,20.996,28.809,35.645,24.902,0.0,0
1582309026.032,19.043,29.785,33.691,19.043,0.0,0
1582309026.036,22.461,17.09,33.691,24.414,0.0,0
1582309026.04,24.414,10.742,35.156,24.414,0.0,0
1582309026.044,30.273000000000003,14.648,34.668,22.949,0.0,0
1582309026.048,32.227,16.602,31.25,25.879,0.0,0
1582309026.051,21.973000000000006,24.414,34.18,23.926,0.0,0
1582309026.055,20.996,38.086,36.621,21.484,0.0,0
1582309026.059,28.32,37.598,35.645,26.367,0.0,0
1582309026.063,25.391,33.691,33.691,22.949,0.0,0
1582309026.0670002,20.02,24.902,32.715,26.367,0.0,0
1582309026.069,15.137,24.414,30.762,22.949,0.0,0
1582309026.073,18.066,25.391,30.273000000000003,16.113,0.0,0
1582309026.077,20.02,26.855,28.32,19.043,0.0,0
1582309026.081,20.508000000000006,32.227,30.762,20.508000000000006,0.0,0
1582309026.085,18.555,29.785,34.668,21.484,0.0,0
1582309026.089,24.902,30.762,29.785,18.555,0.0,0
1582309026.093,42.969,34.18,30.762,18.066,0.0,0
1582309026.096,41.504,17.578,34.18,12.695,0.0,0
1582309026.1,36.133,11.23,32.715,4.883,0.0,0
1582309026.104,41.992,31.738000000000003,30.273000000000003,3.906,0.0,0
1582309026.1079998,43.945,27.832,29.785,3.418,0.0,0
1582309026.1120002,38.574,21.973000000000006,32.715,9.766,0.0,0
1582309026.115,30.762,24.414,34.668,15.625,0.0,0
1582309026.119,25.391,15.625,33.691,26.855,0.0,0
1582309026.123,20.996,27.832,32.227,34.668,0.0,0
1582309026.127,16.602,41.992,34.668,29.297,0.0,0
1582309026.131,8.301,39.062,36.133,31.25,0.0,0
1582309026.135,11.719,31.25,36.133,30.273000000000003,0.0,0
1582309026.139,19.531,23.926,37.598,22.461,0.0,0
1582309026.1420002,18.555,20.996,38.574,30.273000000000003,0.0,0
1582309026.146,14.16,19.531,40.039,34.668,0.0,0
1582309026.15,19.043,8.301,41.01600000000001,31.25,0.0,0
1582309026.154,21.484,11.719,34.18,25.391,0.0,0
1582309026.158,20.996,15.625,32.715,21.973000000000006,0.0,0
1582309026.174,23.438,10.254,36.621,30.273000000000003,0.0,0
1582309026.178,16.602,27.344,35.156,28.32,0.0,0
1582309026.1820002,14.16,35.645,33.691,21.484,0.0,0
1582309026.186,19.531,37.109,33.203,25.391,0.0,0
1582309026.19,21.973000000000006,26.855,31.738000000000003,22.949,0.0,0
1582309026.194,16.602,17.09,36.133,18.066,0.0,0
1582309026.198,13.184,24.902,36.621,20.02,0.0,0
1582309026.201,20.508000000000006,32.715,34.18,24.902,0.0,0
1582309026.205,24.414,30.762,35.645,24.414,0.0,0
1582309026.209,19.043,21.973000000000006,30.273000000000003,18.555,0.0,0
1582309026.2129998,14.648,30.273000000000003,27.832,18.066,0.0,0
1582309026.217,18.555,25.879,30.762,20.996,0.0,0
1582309026.219,21.973000000000006,15.137,32.227,24.414,0.0,0
1582309026.2229998,23.926,21.484,31.25,25.391,0.0,0
1582309026.2270002,16.602,23.926,30.762,26.855,0.0,0
1582309026.231,17.578,14.648,28.809,27.832,0.0,0
1582309026.235,28.809,15.137,28.32,29.785,0.0,0
1582309026.2389998,29.785,23.926,30.273000000000003,33.203,0.0,0
1582309026.2429998,20.508000000000006,24.414,29.785,29.297,0.0,0
1582309026.246,21.973000000000006,24.414,28.809,24.902,0.0,0
1582309026.25,28.809,27.344,28.809,24.902,0.0,0
1582309026.254,28.809,29.785,25.879,26.855,0.0,0
1582309026.258,25.391,20.02,25.879,25.879,0.0,0
1582309026.262,22.461,20.508000000000006,29.785,24.902,0.0,0
1582309026.264,30.273000000000003,32.715,28.32,27.832,0.0,0
1582309026.268,33.203,27.832,25.879,30.762,0.0,0
