timestamps,TP9,AF7,AF8,TP10,Right AUX,Marker0
1581616803.258,30.761999999999997,21.484,33.691,22.461,0.0,0
1581616803.262,28.809,26.855,33.691,31.25,0.0,0
1581616803.266,33.203,27.344,31.25,30.761999999999997,0.0,0
1581616803.27,32.715,23.926,30.761999999999997,25.879,0.0,0
1581616803.274,32.715,20.508000000000006,33.691,23.926,0.0,0
1581616803.2779999,36.621,20.996,36.133,29.785,0.0,0
1581616803.282,38.086,20.996,33.691,35.645,0.0,0
1581616803.285,32.715,19.043,34.18,28.32,0.0,0
1581616803.289,27.344,20.508000000000006,38.574,24.901999999999997,0.0,0
1581616803.293,21.97300000000001,21.484,38.086,22.949,0.0,0
1581616803.2970002,20.996,20.508000000000006,36.621,19.531,0.0,0
1581616803.301,26.366999999999997,18.066,36.621,19.531,0.0,0
1581616803.302,26.366999999999997,19.043,36.133,16.602,0.0,0
1581616803.306,22.461,18.555,37.598,15.137,0.0,0
1581616803.31,30.273000000000003,19.531,37.109,16.113,0.0,0
1581616803.314,29.296999999999997,17.09,36.133,15.625,0.0,0
1581616803.3179998,24.414,16.113,32.227,11.719000000000001,0.0,0
1581616803.322,29.296999999999997,18.066,32.715,14.648,0.0,0
1581616803.326,26.855,17.578,34.668,19.043,0.0,0
1581616803.329,21.97300000000001,14.648,36.133,12.207,0.0,0
1581616803.333,29.296999999999997,17.09,38.086,11.23,0.0,0
1581616803.3370001,31.25,20.02,36.133,7.324,0.0,0
1581616803.341,21.97300000000001,14.16,32.715,7.812,0.0,0
1581616803.345,28.32,17.09,33.691,12.695,0.0,0
1581616803.3479998,32.715,22.949,33.691,12.207,0.0,0
1581616803.3520002,29.785,21.97300000000001,31.25,15.137,0.0,0
1581616803.356,30.273000000000003,20.508000000000006,31.738000000000003,20.02,0.0,0
1581616803.36,29.785,22.949,33.203,24.414,0.0,0
1581616803.3639998,28.32,26.366999999999997,34.668,19.043,0.0,0
1581616803.3679998,23.438000000000002,25.391,33.691,5.371,0.0,0
1581616803.3720002,17.09,24.414,31.25,1.465,0.0,0
1581616803.375,14.16,26.366999999999997,27.344,3.418,0.0,0
1581616803.379,13.184000000000001,24.901999999999997,25.391,0.488,0.0,0
1581616803.383,13.184000000000001,22.949,28.32,-2.93,0.0,0
1581616803.387,12.695,24.414,31.738000000000003,0.0,0.0,0
1581616803.391,12.207,25.391,33.203,6.348,0.0,0
1581616803.393,10.742,23.438000000000002,32.715,7.324,0.0,0
1581616803.397,7.812,24.901999999999997,32.715,0.0,0.0,0
1581616803.401,13.184000000000001,25.391,29.785,-1.953,0.0,0
1581616803.405,20.508000000000006,24.901999999999997,29.296999999999997,5.371,0.0,0
1581616803.409,18.555,23.926,27.831999999999997,6.348,0.0,0
1581616803.4129999,20.508000000000006,24.414,28.32,2.441,0.0,0
1581616803.417,22.949,25.879,30.761999999999997,3.418,0.0,0
1581616803.42,15.137,24.901999999999997,29.296999999999997,8.301,0.0,0
1581616803.424,12.207,24.901999999999997,30.273000000000003,5.859,0.0,0
1581616803.428,18.066,26.366999999999997,30.273000000000003,7.324,0.0,0
1581616803.4320002,17.578,24.414,24.901999999999997,10.254000000000001,0.0,0
1581616803.436,9.766,23.926,26.366999999999997,9.766,0.0,0
1581616803.437,9.766,24.901999999999997,36.621,14.648,0.0,0
1581616803.441,16.602,23.438000000000002,36.133,11.23,0.0,0
1581616803.445,37.109,24.414,32.227,20.508000000000006,0.0,0
1581616803.449,35.645,26.366999999999997,37.109,30.761999999999997,0.0,0
1581616803.4529998,9.766,22.949,40.039,11.719000000000001,0.0,0
1581616803.457,14.648,19.531,36.133,12.695,0.0,0
1581616803.461,20.02,16.602,33.203,17.578,0.0,0
1581616803.464,5.371,14.16,31.738000000000003,-1.953,0.0,0
1581616803.468,2.93,20.508000000000006,32.715,4.395,0.0,0
1581616803.4720001,1.465,20.996,34.18,11.23,0.0,0
1581616803.476,2.441,14.648,36.621,4.395,0.0,0
1581616803.48,6.348,15.625,38.086,6.836,0.0,0
1581616803.482,9.277000000000001,17.578,37.598,13.184000000000001,0.0,0
1581616803.486,16.602,18.066,38.574,18.555,0.0,0
1581616803.49,18.555,19.043,36.133,17.09,0.0,0
1581616803.494,18.066,20.02,35.645,9.277000000000001,0.0,0
1581616803.498,26.366999999999997,19.531,37.598,11.719000000000001,0.0,0
1581616803.502,30.761999999999997,21.484,36.133,20.996,0.0,0
1581616803.506,25.391,20.996,34.668,18.555,0.0,0
1581616803.5089998,28.32,22.461,35.645,17.09,0.0,0
1581616803.5129998,25.879,21.484,34.668,16.602,0.0,0
1581616803.5170002,17.09,16.113,32.715,19.043,0.0,0
1581616803.5210001,22.949,19.531,32.227,20.508000000000006,0.0,0
1581616803.525,27.344,22.949,29.296999999999997,13.672,0.0,0
1581616803.5270002,20.02,20.996,25.391,8.789,0.0,0
1581616803.5310001,18.555,20.996,25.391,6.836,0.0,0
1581616803.535,16.602,18.555,26.366999999999997,8.789,0.0,0
1581616803.539,18.066,19.531,26.855,10.742,0.0,0
1581616803.543,27.344,21.97300000000001,28.809,13.184000000000001,0.0,0
1581616803.5470002,25.879,20.508000000000006,26.855,15.137,0.0,0
1581616803.551,21.484,21.484,26.366999999999997,17.578,0.0,0
1581616803.554,21.484,20.508000000000006,28.32,13.184000000000001,0.0,0
1581616803.5579998,24.414,20.508000000000006,28.32,9.277000000000001,0.0,0
1581616803.562,25.879,19.531,26.855,10.742,0.0,0
1581616803.566,24.901999999999997,19.043,25.879,14.648,0.0,0
1581616803.57,27.344,22.949,29.296999999999997,18.555,0.0,0
1581616803.573,27.344,23.438000000000002,28.809,15.137,0.0,0
1581616803.5770001,29.785,22.949,28.32,17.09,0.0,0
1581616803.581,27.344,26.855,30.273000000000003,20.996,0.0,0
1581616803.585,22.461,27.831999999999997,27.344,18.555,0.0,0
1581616803.589,21.484,25.391,25.879,12.695,0.0,0
1581616803.593,24.901999999999997,23.926,27.831999999999997,11.23,0.0,0
1581616803.5970001,20.508000000000006,23.438000000000002,27.831999999999997,9.766,0.0,0
1581616803.6,15.137,21.97300000000001,28.809,14.16,0.0,0
1581616803.6039999,18.555,22.461,33.203,20.02,0.0,0
1581616803.6079998,14.648,21.97300000000001,31.738000000000003,16.602,0.0,0
1581616803.6120002,20.996,17.578,30.761999999999997,25.391,0.0,0
1581616803.6160002,34.668,19.043,30.761999999999997,36.133,0.0,0
1581616803.6320002,24.901999999999997,25.879,25.879,15.625,0.0,0
1581616803.6360002,14.648,27.344,21.97300000000001,0.488,0.0,0
1581616803.64,17.09,26.366999999999997,18.555,0.977,0.0,0
1581616803.644,21.97300000000001,27.344,14.648,3.906,0.0,0
1581616803.6479998,27.831999999999997,30.761999999999997,13.184000000000001,12.695,0.0,0
1581616803.6520002,29.785,33.691,13.184000000000001,13.672,0.0,0
1581616803.6560001,35.645,34.18,13.672,12.695,0.0,0
1581616803.659,40.039,33.203,14.648,20.02,0.0,0
1581616803.6629999,44.434,33.691,14.648,27.831999999999997,0.0,0
1581616803.667,52.246,35.156,14.16,33.203,0.0,0
1581616803.671,52.246,33.691,17.578,37.598,0.0,0
1581616803.675,47.852,30.761999999999997,19.531,41.992,0.0,0
1581616803.678,43.945,33.203,19.531,43.457,0.0,0
1581616803.6820002,41.992,33.203,21.97300000000001,38.574,0.0,0
1581616803.686,41.504,30.273000000000003,22.461,36.133,0.0,0
1581616803.69,42.48,29.296999999999997,20.02,36.133,0.0,0
1581616803.694,37.109,31.738000000000003,17.578,36.133,0.0,0
1581616803.698,34.668,34.18,15.137,31.738000000000003,0.0,0
1581616803.7020001,37.109,31.738000000000003,16.602,24.414,0.0,0
1581616803.705,37.598,29.296999999999997,20.996,20.508000000000006,0.0,0
1581616803.7089999,35.156,31.25,23.926,23.926,0.0,0
1581616803.7129998,31.25,32.227,24.901999999999997,23.438000000000002,0.0,0
1581616803.717,29.296999999999997,28.809,26.366999999999997,19.043,0.0,0
1581616803.721,27.344,29.785,26.855,16.113,0.0,0
1581616803.7220001,24.414,32.227,25.391,16.602,0.0,0
1581616803.726,25.879,26.855,24.414,17.578,0.0,0
1581616803.73,27.831999999999997,29.296999999999997,27.344,16.113,0.0,0
1581616803.734,32.715,31.738000000000003,29.296999999999997,12.207,0.0,0
1581616803.738,39.062,28.32,30.761999999999997,11.719000000000001,0.0,0
1581616803.742,37.109,28.32,31.738000000000003,21.97300000000001,0.0,0
1581616803.746,35.156,28.809,31.25,25.391,0.0,0
1581616803.7489998,38.574,26.366999999999997,29.296999999999997,25.879,0.0,0
1581616803.7529998,38.574,25.391,30.273000000000003,29.296999999999997,0.0,0
1581616803.7570002,33.691,24.414,32.715,29.785,0.0,0
1581616803.7610002,25.391,21.97300000000001,30.761999999999997,26.855,0.0,0
1581616803.765,22.949,21.97300000000001,29.296999999999997,20.508000000000006,0.0,0
1581616803.768,24.901999999999997,23.438000000000002,26.855,16.602,0.0,0
1581616803.772,20.02,20.508000000000006,27.344,17.09,0.0,0
1581616803.776,20.996,23.926,30.761999999999997,16.113,0.0,0
1581616803.78,25.391,26.855,30.761999999999997,10.742,0.0,0
1581616803.784,26.855,25.391,30.273000000000003,9.766,0.0,0
1581616803.7879999,25.391,26.366999999999997,29.785,14.16,0.0,0
1581616803.792,22.461,25.879,29.296999999999997,15.625,0.0,0
1581616803.795,25.879,26.855,27.831999999999997,11.23,0.0,0
1581616803.799,30.273000000000003,26.366999999999997,27.344,8.301,0.0,0
1581616803.803,30.273000000000003,23.438000000000002,24.901999999999997,10.742,0.0,0
1581616803.8070002,25.879,24.414,23.926,14.648,0.0,0
1581616803.811,20.996,22.461,26.855,16.602,0.0,0
1581616803.812,20.996,21.97300000000001,27.831999999999997,13.184000000000001,0.0,0
1581616803.816,24.901999999999997,25.879,28.32,17.578,0.0,0
1581616803.82,22.949,27.344,27.344,20.02,0.0,0
1581616803.824,19.043,25.879,26.855,18.066,0.0,0
1581616803.8279998,18.066,21.484,30.761999999999997,18.066,0.0,0
1581616803.832,19.531,21.97300000000001,32.715,13.184000000000001,0.0,0
1581616803.836,17.578,23.926,30.761999999999997,16.113,0.0,0
1581616803.839,16.113,21.97300000000001,33.691,18.555,0.0,0
1581616803.843,20.996,20.996,35.645,8.301,0.0,0
1581616803.8470001,26.366999999999997,20.508000000000006,33.203,4.883,0.0,0
1581616803.851,23.926,18.555,31.738000000000003,11.719000000000001,0.0,0
1581616803.855,20.508000000000006,20.02,29.296999999999997,17.578,0.0,0
1581616803.857,21.97300000000001,22.461,29.296999999999997,17.09,0.0,0
1581616803.861,22.949,21.484,29.785,17.578,0.0,0
1581616803.865,23.926,22.949,27.344,13.184000000000001,0.0,0
1581616803.869,25.879,22.949,27.831999999999997,11.719000000000001,0.0,0
1581616803.873,28.32,22.461,25.391,14.648,0.0,0
1581616803.877,23.926,22.461,21.484,7.812,0.0,0
1581616803.881,17.578,21.97300000000001,23.438000000000002,10.742,0.0,0
1581616803.8839998,22.461,22.949,26.855,21.484,0.0,0
1581616803.8879998,29.296999999999997,22.949,28.32,23.926,0.0,0
1581616803.8920002,28.809,22.949,29.785,22.461,0.0,0
1581616803.8960001,29.296999999999997,22.949,30.761999999999997,18.066,0.0,0
1581616803.9,31.738000000000003,20.996,32.227,28.809,0.0,0
1581616803.9020002,35.156,19.043,34.668,31.25,0.0,0
1581616803.9060001,38.086,21.484,33.203,24.414,0.0,0
1581616803.91,40.039,23.438000000000002,32.227,27.344,0.0,0
1581616803.914,41.504,24.414,34.668,29.785,0.0,0
1581616803.918,41.01600000000001,26.366999999999997,33.691,34.668,0.0,0
1581616803.9220002,42.968999999999994,26.855,31.738000000000003,32.227,0.0,0
1581616803.926,42.48,27.344,32.715,21.97300000000001,0.0,0
1581616803.929,34.668,29.296999999999997,30.761999999999997,19.531,0.0,0
1581616803.9329998,30.273000000000003,28.32,28.809,20.02,0.0,0
1581616803.937,32.227,24.414,29.785,20.02,0.0,0
1581616803.941,34.18,22.461,29.785,17.578,0.0,0
1581616803.945,34.668,23.926,30.273000000000003,23.438000000000002,0.0,0
1581616803.948,32.227,23.926,32.715,32.715,0.0,0
1581616803.9520001,32.715,22.949,36.621,33.691,0.0,0
1581616803.956,33.203,23.438000000000002,33.691,29.296999999999997,0.0,0
1581616803.96,30.273000000000003,23.926,31.738000000000003,20.508000000000006,0.0,0
1581616803.964,28.32,23.926,33.203,23.438000000000002,0.0,0
1581616803.968,24.414,20.508000000000006,31.738000000000003,25.391,0.0,0
1581616803.9720001,24.414,19.531,29.785,22.949,0.0,0
1581616803.975,31.25,17.578,28.32,27.344,0.0,0
1581616803.9789999,40.039,15.137,29.296999999999997,36.621,0.0,0
1581616803.9829998,37.109,20.996,31.738000000000003,35.645,0.0,0
1581616803.9870002,27.831999999999997,21.484,27.831999999999997,26.366999999999997,0.0,0
1581616803.9910002,33.203,21.484,23.926,22.949,0.0,0
1581616804.008,36.621,25.391,22.461,20.02,0.0,0
1581616804.012,44.434,23.926,23.926,21.484,0.0,0
1581616804.016,43.457,26.366999999999997,23.926,22.461,0.0,0
1581616804.02,38.086,28.809,21.484,18.066,0.0,0
1581616804.024,41.992,29.785,22.461,19.043,0.0,0
1581616804.0279999,44.922,32.715,19.043,23.926,0.0,0
1581616804.032,48.828,32.227,16.113,27.831999999999997,0.0,0
1581616804.035,52.246,34.668,14.16,29.296999999999997,0.0,0
1581616804.039,51.27,31.738000000000003,15.625,33.203,0.0,0
1581616804.043,45.41,27.344,19.043,35.645,0.0,0
1581616804.0470002,38.574,26.366999999999997,20.508000000000006,28.809,0.0,0
1581616804.051,39.062,25.879,21.97300000000001,23.438000000000002,0.0,0
1581616804.053,37.109,24.901999999999997,20.996,22.949,0.0,0
1581616804.0570002,39.551,24.901999999999997,22.949,30.273000000000003,0.0,0
1581616804.061,43.945,27.344,25.391,33.203,0.0,0
1581616804.065,40.527,26.366999999999997,22.461,31.738000000000003,0.0,0
1581616804.069,40.039,26.366999999999997,21.484,26.366999999999997,0.0,0
1581616804.073,34.668,25.391,22.461,23.926,0.0,0
1581616804.0770001,27.344,24.901999999999997,23.438000000000002,27.344,0.0,0
1581616804.08,26.366999999999997,20.996,22.461,21.97300000000001,0.0,0
1581616804.0839999,26.366999999999997,19.531,21.484,18.555,0.0,0
1581616804.0879998,27.344,21.97300000000001,24.414,15.625,0.0,0
1581616804.092,27.831999999999997,22.949,24.414,14.16,0.0,0
1581616804.096,28.809,26.855,24.414,15.137,0.0,0
1581616804.0979998,33.203,26.855,28.32,12.695,0.0,0
1581616804.1020002,33.203,24.414,28.32,14.16,0.0,0
1581616804.106,30.273000000000003,23.438000000000002,26.855,21.484,0.0,0
1581616804.11,31.738000000000003,23.438000000000002,27.344,21.97300000000001,0.0,0
1581616804.1139998,29.785,20.996,28.809,20.02,0.0,0
1581616804.1179998,30.761999999999997,22.461,28.32,19.043,0.0,0
1581616804.1220002,31.738000000000003,22.949,26.855,20.02,0.0,0
1581616804.125,27.344,20.996,27.831999999999997,25.391,0.0,0
1581616804.129,24.414,20.02,27.344,21.97300000000001,0.0,0
1581616804.133,27.831999999999997,19.531,27.344,20.02,0.0,0
1581616804.137,28.809,19.043,25.879,20.996,0.0,0
1581616804.141,26.366999999999997,21.97300000000001,27.344,21.484,0.0,0
1581616804.143,26.366999999999997,21.484,30.273000000000003,18.555,0.0,0
1581616804.147,25.391,19.043,30.273000000000003,11.719000000000001,0.0,0
1581616804.151,22.949,18.066,30.273000000000003,11.23,0.0,0
1581616804.155,20.996,18.555,31.738000000000003,13.672,0.0,0
1581616804.159,23.438000000000002,18.066,32.227,14.16,0.0,0
1581616804.1629999,22.949,16.602,32.715,8.789,0.0,0
1581616804.167,22.949,17.578,33.691,5.859,0.0,0
1581616804.17,19.043,20.508000000000006,31.738000000000003,9.277000000000001,0.0,0
1581616804.174,13.672,21.484,27.831999999999997,11.23,0.0,0
1581616804.178,14.648,20.02,26.366999999999997,5.371,0.0,0
1581616804.1820002,21.484,20.02,26.366999999999997,7.324,0.0,0
1581616804.186,28.32,23.438000000000002,27.344,20.508000000000006,0.0,0
1581616804.188,21.484,25.879,26.855,21.97300000000001,0.0,0
1581616804.1920002,18.555,20.508000000000006,27.831999999999997,20.508000000000006,0.0,0
1581616804.196,27.344,19.043,29.785,21.97300000000001,0.0,0
1581616804.2,31.25,23.438000000000002,28.809,21.484,0.0,0
1581616804.204,32.715,24.414,24.414,23.926,0.0,0
1581616804.208,31.25,22.949,23.438000000000002,29.785,0.0,0
1581616804.2120001,30.273000000000003,24.414,24.414,32.227,0.0,0
1581616804.215,30.761999999999997,26.855,22.949,26.366999999999997,0.0,0
1581616804.2189999,27.831999999999997,24.901999999999997,23.926,23.438000000000002,0.0,0
1581616804.2229998,21.484,22.461,23.438000000000002,22.949,0.0,0
1581616804.2270002,17.578,22.949,22.461,15.625,0.0,0
1581616804.231,18.066,23.926,23.926,7.812,0.0,0
1581616804.2329998,17.578,21.484,22.949,5.371,0.0,0
1581616804.2370002,17.578,18.555,24.901999999999997,6.836,0.0,0
1581616804.2410002,20.02,16.602,22.949,5.859,0.0,0
1581616804.245,27.344,20.996,21.484,4.883,0.0,0
1581616804.2489998,25.879,25.391,22.949,3.906,0.0,0
1581616804.2529998,19.043,22.461,22.461,5.859,0.0,0
1581616804.2570002,21.484,22.949,22.949,7.324,0.0,0
1581616804.26,23.926,23.926,24.901999999999997,6.348,0.0,0
1581616804.264,20.508000000000006,23.438000000000002,25.879,8.301,0.0,0
1581616804.268,16.113,21.97300000000001,23.926,10.254000000000001,0.0,0
1581616804.272,20.508000000000006,20.508000000000006,25.391,13.184000000000001,0.0,0
1581616804.276,26.855,21.484,27.831999999999997,17.578,0.0,0
1581616804.2779999,28.32,21.484,27.831999999999997,16.602,0.0,0
1581616804.282,27.831999999999997,19.043,26.366999999999997,18.066,0.0,0
1581616804.286,32.227,21.484,26.855,25.879,0.0,0
1581616804.29,34.18,25.879,27.344,23.926,0.0,0
1581616804.294,38.574,30.273000000000003,19.043,13.672,0.0,0
1581616804.2979999,54.688,31.25,20.02,27.831999999999997,0.0,0
1581616804.302,43.945,23.438000000000002,28.32,31.25,0.0,0
1581616804.305,8.301,16.602,29.785,2.441,0.0,0
1581616804.309,-5.859,12.207,30.273000000000003,-13.184000000000001,0.0,0
1581616804.313,-10.742,13.672,34.18,-15.625,0.0,0
1581616804.3170002,-25.879,12.695,45.898,-20.508000000000006,0.0,0
1581616804.321,-39.062,9.277000000000001,55.176,-27.344,0.0,0
1581616804.324,-53.223,9.277000000000001,50.293,-41.992,0.0,0
1581616804.3279998,-61.523,6.836,52.246,-47.363,0.0,0
1581616804.332,-67.383,4.883,61.035,-47.852,0.0,0
1581616804.336,-73.242,3.906,65.918,-51.27,0.0,0
1581616804.34,-80.566,2.93,65.43,-55.663999999999994,0.0,0
1581616804.3439999,-88.37899999999998,1.465,66.406,-63.477,0.0,0
1581616804.3479998,-85.93799999999996,2.441,73.242,-61.035,0.0,0
1581616804.351,-86.426,0.0,71.289,-59.082,0.0,0
1581616804.355,-87.402,-2.93,67.87100000000001,-63.965,0.0,0
1581616804.359,-86.914,-3.418,72.75399999999998,-67.383,0.0,0
1581616804.363,-90.82,-2.93,74.707,-65.918,0.0,0
1581616804.367,-94.238,-3.418,77.148,-61.523,0.0,0
1581616804.383,-91.309,-4.883,75.195,-60.547,0.0,0
1581616804.387,-84.473,-4.883,66.406,-57.617,0.0,0
1581616804.391,-78.125,-2.93,73.242,-50.78100000000001,0.0,0
1581616804.395,-76.66,-1.465,75.195,-44.434,0.0,0
1581616804.399,-78.125,-7.812,69.336,-43.945,0.0,0
1581616804.4029999,-67.383,-9.277000000000001,73.242,-40.527,0.0,0
1581616804.407,-60.547,-7.324,76.172,-30.761999999999997,0.0,0
1581616804.41,-64.453,-7.812,77.148,-27.344,0.0,0
1581616804.414,-51.27,-6.836,72.75399999999998,-18.066,0.0,0
1581616804.418,-37.109,-4.883,69.336,-6.348,0.0,0
1581616804.4220002,-41.01600000000001,-5.859,66.406,-11.23,0.0,0
1581616804.426,-34.18,-5.371,61.035,-4.395,0.0,0
1581616804.428,-22.461,-5.371,59.082,8.789,0.0,0
1581616804.4320002,-13.184000000000001,-5.859,56.64100000000001,9.766,0.0,0
1581616804.436,-7.812,-5.371,52.246,5.371,0.0,0
1581616804.44,-3.906,-0.977,47.852,3.418,0.0,0
1581616804.444,0.488,2.441,44.922,10.254000000000001,0.0,0
1581616804.448,3.906,2.441,41.01600000000001,20.02,0.0,0
1581616804.4520001,14.648,3.906,40.527,24.414,0.0,0
1581616804.455,18.555,5.371,40.527,29.296999999999997,0.0,0
1581616804.4589999,20.996,4.883,36.133,37.598,0.0,0
1581616804.4629998,25.391,3.906,32.227,33.691,0.0,0
1581616804.467,29.296999999999997,4.883,29.785,30.273000000000003,0.0,0
1581616804.471,32.227,5.371,27.344,30.273000000000003,0.0,0
1581616804.4729998,35.645,7.324,24.901999999999997,30.273000000000003,0.0,0
1581616804.4770002,36.133,12.207,24.414,35.645,0.0,0
1581616804.481,32.715,10.254000000000001,25.879,35.156,0.0,0
1581616804.485,29.785,9.766,27.344,33.691,0.0,0
1581616804.4889998,31.738000000000003,11.719000000000001,29.296999999999997,37.598,0.0,0
1581616804.4929998,38.086,11.719000000000001,29.785,40.039,0.0,0
1581616804.4970002,41.504,13.672,29.296999999999997,38.086,0.0,0
1581616804.5,41.01600000000001,16.113,24.901999999999997,34.668,0.0,0
1581616804.504,40.039,15.137,22.949,38.086,0.0,0
1581616804.508,36.133,12.695,27.344,36.133,0.0,0
1581616804.512,37.598,14.16,28.32,31.25,0.0,0
1581616804.516,42.968999999999994,14.648,28.32,32.227,0.0,0
1581616804.518,41.01600000000001,12.207,28.32,30.273000000000003,0.0,0
1581616804.522,35.156,11.719000000000001,27.344,28.32,0.0,0
1581616804.526,36.133,13.672,24.414,30.273000000000003,0.0,0
1581616804.53,42.48,15.625,21.97300000000001,25.391,0.0,0
1581616804.534,42.968999999999994,16.602,23.926,25.391,0.0,0
1581616804.5379999,38.574,16.113,25.879,35.156,0.0,0
1581616804.542,33.203,14.16,23.926,35.156,0.0,0
1581616804.545,35.156,15.137,20.508000000000006,31.25,0.0,0
1581616804.549,39.062,15.625,26.366999999999997,28.32,0.0,0
1581616804.553,35.156,13.672,33.203,33.203,0.0,0
1581616804.5570002,38.574,11.719000000000001,32.227,45.41,0.0,0
1581616804.561,42.968999999999994,13.184000000000001,33.691,45.41,0.0,0
1581616804.563,37.598,15.625,34.668,39.062,0.0,0
1581616804.5670002,38.574,20.02,32.227,35.156,0.0,0
1581616804.571,42.48,22.461,33.203,40.039,0.0,0
1581616804.575,43.457,20.996,36.133,44.922,0.0,0
1581616804.579,45.41,19.043,34.18,43.457,0.0,0
1581616804.583,43.457,20.508000000000006,31.25,41.992,0.0,0
1581616804.5870001,37.109,20.996,33.203,46.875,0.0,0
1581616804.59,39.551,20.508000000000006,34.18,46.387,0.0,0
1581616804.5939999,41.504,22.461,33.691,40.527,0.0,0
1581616804.5979998,35.156,22.949,34.18,36.621,0.0,0
1581616804.6020002,30.273000000000003,24.414,33.691,32.227,0.0,0
1581616804.606,31.25,25.879,30.273000000000003,27.831999999999997,0.0,0
1581616804.6079998,31.25,23.926,29.785,26.366999999999997,0.0,0
1581616804.6120002,30.273000000000003,20.508000000000006,23.926,20.508000000000006,0.0,0
1581616804.6160002,43.457,22.949,18.555,30.761999999999997,0.0,0
1581616804.62,51.758,24.901999999999997,24.901999999999997,46.875,0.0,0
1581616804.6239998,29.296999999999997,17.578,32.715,31.738000000000003,0.0,0
1581616804.6279998,12.695,12.695,35.156,13.184000000000001,0.0,0
1581616804.6320002,19.531,16.113,32.227,17.09,0.0,0
1581616804.635,19.531,18.555,34.668,23.438000000000002,0.0,0
1581616804.639,13.672,20.02,35.156,14.648,0.0,0
1581616804.643,19.043,19.531,32.715,12.695,0.0,0
1581616804.647,13.184000000000001,20.508000000000006,35.156,8.301,0.0,0
1581616804.651,5.859,22.949,33.203,8.301,0.0,0
1581616804.6529999,10.254000000000001,24.901999999999997,27.344,13.184000000000001,0.0,0
1581616804.657,14.648,25.391,26.855,11.23,0.0,0
1581616804.661,15.625,23.438000000000002,24.901999999999997,9.766,0.0,0
1581616804.665,12.207,23.926,22.949,11.719000000000001,0.0,0
1581616804.669,8.789,24.901999999999997,23.438000000000002,9.766,0.0,0
1581616804.6729999,6.348,27.831999999999997,23.438000000000002,7.812,0.0,0
1581616804.677,8.789,29.296999999999997,25.879,9.277000000000001,0.0,0
1581616804.68,9.766,28.32,30.273000000000003,7.812,0.0,0
1581616804.684,8.301,25.391,31.25,14.16,0.0,0
1581616804.688,11.23,25.879,30.761999999999997,20.508000000000006,0.0,0
1581616804.6920002,16.602,27.344,31.738000000000003,13.184000000000001,0.0,0
1581616804.696,19.043,25.879,31.738000000000003,15.625,0.0,0
1581616804.698,20.996,25.391,31.25,26.366999999999997,0.0,0
1581616804.7020001,27.831999999999997,28.32,28.32,28.809,0.0,0
1581616804.706,31.25,31.25,25.879,29.296999999999997,0.0,0
1581616804.71,35.645,29.785,30.273000000000003,27.831999999999997,0.0,0
1581616804.714,34.668,24.414,28.809,26.366999999999997,0.0,0
1581616804.718,33.203,22.949,24.414,28.809,0.0,0
1581616804.7220001,38.574,25.879,27.344,31.25,0.0,0
1581616804.725,38.574,25.879,29.785,28.809,0.0,0
1581616804.7289999,33.203,23.926,26.855,28.32,0.0,0
1581616804.7329998,34.18,20.996,22.949,30.761999999999997,0.0,0
1581616804.7370002,37.109,21.97300000000001,26.366999999999997,32.715,0.0,0
1581616804.7410002,37.109,23.438000000000002,27.831999999999997,31.25,0.0,0
1581616804.758,33.691,23.926,27.831999999999997,26.366999999999997,0.0,0
1581616804.762,33.203,25.391,27.344,27.831999999999997,0.0,0
1581616804.766,33.691,25.391,25.391,28.809,0.0,0
1581616804.77,35.156,25.879,25.879,18.555,0.0,0
1581616804.774,37.598,26.366999999999997,25.391,17.578,0.0,0
1581616804.7779999,36.133,28.32,25.879,24.901999999999997,0.0,0
1581616804.782,35.645,29.296999999999997,27.344,24.901999999999997,0.0,0
1581616804.785,36.621,27.831999999999997,23.926,23.926,0.0,0
1581616804.789,39.062,26.855,22.461,20.508000000000006,0.0,0
1581616804.793,38.574,27.344,27.344,18.555,0.0,0
1581616804.7970002,46.387,29.785,26.855,27.344,0.0,0
1581616804.801,56.64100000000001,34.668,23.926,41.504,0.0,0
1581616804.803,29.785,31.738000000000003,27.831999999999997,26.366999999999997,0.0,0
1581616804.8070002,9.766,25.391,32.227,10.742,0.0,0
1581616804.811,16.602,27.831999999999997,31.25,26.366999999999997,0.0,0
1581616804.815,20.996,25.879,32.715,30.273000000000003,0.0,0
1581616804.819,26.366999999999997,24.414,34.18,24.414,0.0,1
1581616804.823,18.066,25.391,32.227,22.461,0.0,0
1581616804.8270001,11.23,23.926,29.296999999999997,20.508000000000006,0.0,0
1581616804.83,19.531,26.855,29.296999999999997,20.508000000000006,0.0,0
1581616804.8339999,25.879,26.366999999999997,29.296999999999997,16.113,0.0,0
1581616804.8379998,19.531,25.879,27.831999999999997,10.254000000000001,0.0,0
1581616804.842,15.137,27.831999999999997,26.855,13.184000000000001,0.0,0
1581616804.846,14.648,26.366999999999997,23.438000000000002,15.625,0.0,0
1581616804.8479998,19.531,25.879,23.926,17.09,0.0,0
1581616804.8520002,22.949,27.831999999999997,27.344,21.484,0.0,0
1581616804.856,17.09,23.926,26.855,20.996,0.0,0
1581616804.86,14.16,20.02,26.366999999999997,25.391,0.0,0
1581616804.8639998,20.996,21.484,30.273000000000003,31.25,0.0,0
1581616804.8679998,27.344,19.531,32.227,31.738000000000003,0.0,0
1581616804.8720002,23.438000000000002,18.555,29.296999999999997,31.738000000000003,0.0,0
1581616804.875,22.949,20.996,29.785,35.156,0.0,0
1581616804.879,21.97300000000001,22.949,32.227,34.18,0.0,0
1581616804.883,18.555,26.366999999999997,34.668,26.855,0.0,0
1581616804.887,21.484,25.879,34.668,26.855,0.0,0
1581616804.891,21.97300000000001,24.414,37.109,29.296999999999997,0.0,0
1581616804.893,27.831999999999997,27.831999999999997,39.062,28.32,0.0,0
1581616804.897,29.785,26.366999999999997,30.761999999999997,25.391,0.0,0
1581616804.901,29.296999999999997,23.926,26.366999999999997,23.926,0.0,0
1581616804.905,32.227,23.438000000000002,32.715,23.926,0.0,0
1581616804.909,32.227,23.926,34.668,27.831999999999997,0.0,0
1581616804.9129999,34.668,25.391,30.273000000000003,24.414,0.0,0
1581616804.917,33.203,24.901999999999997,25.391,20.508000000000006,0.0,0
1581616804.92,31.738000000000003,25.391,27.344,27.344,0.0,0
1581616804.924,28.32,24.901999999999997,31.738000000000003,27.831999999999997,0.0,0
1581616804.928,25.391,22.949,33.203,24.414,0.0,0
1581616804.9320002,26.855,22.461,34.18,21.484,0.0,0
1581616804.936,23.926,22.949,34.668,20.508000000000006,0.0,0
1581616804.938,18.066,24.414,32.227,20.02,0.0,0
1581616804.9420002,23.438000000000002,23.438000000000002,31.25,19.043,0.0,0
1581616804.946,30.761999999999997,21.484,30.273000000000003,20.02,0.0,0
1581616804.95,31.25,22.461,30.761999999999997,25.391,0.0,0
1581616804.954,31.738000000000003,24.901999999999997,28.809,28.809,0.0,0
1581616804.958,29.785,22.949,28.809,24.901999999999997,0.0,0
1581616804.9620001,33.203,20.508000000000006,31.738000000000003,27.344,0.0,0
1581616804.965,32.227,25.391,31.738000000000003,28.809,0.0,0
1581616804.9689999,27.831999999999997,26.855,32.227,25.879,0.0,0
1581616804.9729998,30.761999999999997,25.391,31.25,28.32,0.0,0
1581616804.9770002,35.156,23.926,32.715,30.273000000000003,0.0,0
1581616804.981,32.227,23.438000000000002,32.715,22.949,0.0,0
1581616804.9829998,20.996,18.066,31.25,18.066,0.0,0
1581616804.9870002,21.484,14.16,31.25,28.32,0.0,0
1581616804.9910002,39.062,19.043,28.809,41.01600000000001,0.0,0
1581616804.995,37.109,26.366999999999997,27.344,24.414,0.0,0
1581616804.9989998,18.066,29.785,26.855,-0.488,0.0,0
1581616805.0029998,20.02,24.414,24.901999999999997,6.348,0.0,0
1581616805.0070002,31.25,24.414,21.97300000000001,14.16,0.0,0
1581616805.01,39.551,27.344,20.996,12.207,0.0,0
1581616805.014,39.551,26.855,19.043,9.277000000000001,0.0,0
1581616805.018,37.598,28.32,15.137,11.719000000000001,0.0,0
1581616805.022,43.457,29.785,13.672,14.16,0.0,0
1581616805.026,52.733999999999995,32.715,12.695,15.625,0.0,0
1581616805.0279999,53.223,34.668,11.23,18.555,0.0,0
1581616805.032,51.27,34.18,10.254000000000001,21.484,0.0,0
1581616805.036,54.199,32.227,13.184000000000001,24.414,0.0,0
1581616805.04,56.152,29.296999999999997,15.625,24.901999999999997,0.0,0
1581616805.044,59.082,29.785,15.137,20.508000000000006,0.0,0
1581616805.0479999,54.688,29.296999999999997,15.137,24.901999999999997,0.0,0
1581616805.052,55.663999999999994,32.227,16.113,25.879,0.0,0
1581616805.055,54.688,33.203,15.625,16.602,0.0,0
1581616805.059,52.733999999999995,32.715,17.09,18.066,0.0,0
1581616805.063,52.733999999999995,33.691,19.043,26.855,0.0,0
1581616805.0670002,50.78100000000001,31.738000000000003,19.531,29.296999999999997,0.0,0
1581616805.071,50.78100000000001,29.296999999999997,20.508000000000006,30.761999999999997,0.0,0
1581616805.073,51.758,27.831999999999997,20.02,30.761999999999997,0.0,0
1581616805.0770001,59.082,29.296999999999997,22.949,29.785,0.0,0
1581616805.081,57.617,29.296999999999997,23.926,36.621,0.0,0
1581616805.085,55.176,28.809,23.926,38.574,0.0,0
1581616805.089,55.663999999999994,26.366999999999997,26.366999999999997,36.133,0.0,0
1581616805.093,56.64100000000001,28.32,25.879,40.039,0.0,0
1581616805.0970001,55.663999999999994,31.25,28.809,41.504,0.0,0
1581616805.1,48.828,27.831999999999997,28.809,39.062,0.0,0
1581616805.1039999,45.898,24.414,25.391,32.715,0.0,0
1581616805.1079998,45.898,23.438000000000002,23.926,29.785,0.0,0
1581616805.1120002,51.27,22.949,24.414,34.668,0.0,0
1581616805.1160002,50.78100000000001,23.926,29.785,38.086,0.0,0
1581616805.133,46.387,23.438000000000002,34.18,37.598,0.0,0
1581616805.137,50.293,20.996,33.691,36.621,0.0,0
1581616805.141,48.34,22.949,31.738000000000003,33.203,0.0,0
1581616805.145,49.316,23.438000000000002,31.738000000000003,34.18,0.0,0
1581616805.149,49.316,23.926,28.32,34.668,0.0,0
1581616805.1529999,46.875,25.391,26.855,30.761999999999997,0.0,0
1581616805.157,46.875,24.414,27.344,27.831999999999997,0.0,0
1581616805.16,43.457,24.414,27.344,31.738000000000003,0.0,0
1581616805.164,39.062,22.949,30.761999999999997,36.621,0.0,0
1581616805.168,38.574,20.996,35.156,37.598,0.0,0
1581616805.1720002,42.968999999999994,20.508000000000006,32.715,38.574,0.0,0
1581616805.176,48.828,19.531,34.668,45.41,0.0,0
1581616805.178,48.828,18.555,39.551,51.758,0.0,0
1581616805.1820002,48.34,20.02,39.551,49.316,0.0,0
1581616805.186,48.828,21.97300000000001,38.574,44.922,0.0,0
1581616805.19,43.945,23.438000000000002,39.062,46.875,0.0,0
1581616805.194,40.527,24.901999999999997,38.574,45.898,0.0,0
1581616805.198,40.527,24.414,38.086,40.527,0.0,0
1581616805.2020001,40.039,24.901999999999997,38.574,36.621,0.0,0
1581616805.205,37.598,24.414,36.621,33.691,0.0,0
1581616805.2089999,38.086,22.461,34.18,38.086,0.0,0
1581616805.2129998,39.062,23.926,32.715,38.086,0.0,0
1581616805.217,41.01600000000001,21.97300000000001,32.227,33.691,0.0,0
1581616805.221,44.922,20.02,34.668,38.574,0.0,0
1581616805.2229998,45.41,22.949,36.621,42.48,0.0,0
1581616805.2270002,42.968999999999994,22.949,32.715,38.574,0.0,0
1581616805.231,41.992,24.414,31.738000000000003,29.785,0.0,0
1581616805.235,40.527,25.391,32.227,21.484,0.0,0
1581616805.2389998,32.227,24.414,30.273000000000003,20.02,0.0,0
1581616805.2429998,29.785,23.438000000000002,31.25,22.461,0.0,0
1581616805.2470002,28.809,22.461,26.855,16.602,0.0,0
1581616805.25,30.273000000000003,22.461,24.901999999999997,9.766,0.0,0
1581616805.254,29.296999999999997,22.949,28.32,11.23,0.0,0
1581616805.258,23.438000000000002,23.926,27.344,14.648,0.0,0
1581616805.262,26.855,23.438000000000002,24.901999999999997,15.137,0.0,0
1581616805.266,33.691,23.926,26.855,19.043,0.0,0
1581616805.268,36.133,25.879,30.761999999999997,24.414,0.0,0
1581616805.272,30.273000000000003,22.461,32.715,27.344,0.0,0
1581616805.276,27.344,21.97300000000001,29.296999999999997,24.414,0.0,0
1581616805.28,34.668,25.391,28.32,22.461,0.0,0
1581616805.284,34.18,26.855,31.25,24.901999999999997,0.0,0
1581616805.2879999,27.831999999999997,26.855,31.738000000000003,24.414,0.0,0
1581616805.292,26.366999999999997,24.901999999999997,29.785,23.926,0.0,0
1581616805.295,27.344,28.32,30.273000000000003,25.879,0.0,0
1581616805.299,30.761999999999997,28.809,32.715,21.97300000000001,0.0,0
1581616805.303,28.32,21.97300000000001,27.344,20.508000000000006,0.0,0
1581616805.3070002,25.391,21.484,25.391,17.09,0.0,0
1581616805.311,28.809,22.949,28.809,13.184000000000001,0.0,0
1581616805.313,32.227,21.484,31.25,15.137,0.0,0
1581616805.3170002,31.738000000000003,19.043,35.645,20.508000000000006,0.0,0
1581616805.321,29.296999999999997,19.043,33.691,26.366999999999997,0.0,0
1581616805.325,30.273000000000003,20.996,28.32,24.901999999999997,0.0,0
1581616805.329,36.133,20.996,28.32,24.901999999999997,0.0,0
1581616805.333,38.574,21.484,29.785,27.344,0.0,0
1581616805.3370001,35.156,21.484,32.715,28.32,0.0,0
1581616805.34,32.715,19.043,34.668,27.831999999999997,0.0,0
1581616805.3439999,34.668,20.996,35.645,23.438000000000002,0.0,0
1581616805.3479998,34.18,22.949,36.133,22.949,0.0,0
1581616805.3520002,33.203,23.438000000000002,35.156,29.785,0.0,0
1581616805.356,32.715,23.926,34.668,33.691,0.0,0
1581616805.3579998,30.761999999999997,21.97300000000001,34.668,31.25,0.0,0
1581616805.3620002,35.645,22.461,35.156,27.344,0.0,0
1581616805.3660002,43.457,26.366999999999997,34.18,30.761999999999997,0.0,0
1581616805.37,42.968999999999994,27.831999999999997,33.691,37.598,0.0,0
1581616805.3739998,40.527,31.738000000000003,31.25,33.691,0.0,0
1581616805.3779998,38.574,34.18,25.391,23.438000000000002,0.0,0
1581616805.3820002,33.203,31.25,24.901999999999997,19.531,0.0,0
1581616805.385,30.761999999999997,30.273000000000003,30.761999999999997,18.555,0.0,0
1581616805.389,28.32,29.296999999999997,30.761999999999997,18.555,0.0,0
1581616805.393,28.809,26.855,26.855,16.113,0.0,0
1581616805.397,33.691,28.809,27.344,12.695,0.0,0
1581616805.401,31.25,29.296999999999997,27.831999999999997,11.23,0.0,0
1581616805.404,29.785,27.831999999999997,30.273000000000003,14.16,0.0,0
1581616805.408,29.296999999999997,25.879,29.296999999999997,13.672,0.0,0
1581616805.4120002,23.926,22.949,25.391,9.277000000000001,0.0,0
1581616805.4160001,23.926,22.949,23.438000000000002,12.695,0.0,0
1581616805.42,22.461,20.02,23.926,12.695,0.0,0
1581616805.424,23.438000000000002,19.531,25.879,11.23,0.0,0
1581616805.428,26.366999999999997,21.97300000000001,28.809,13.184000000000001,0.0,0
1581616805.431,27.831999999999997,22.461,26.855,10.742,0.0,0
1581616805.435,30.761999999999997,22.461,22.949,16.113,0.0,0
1581616805.439,31.25,23.926,25.391,22.461,0.0,0
1581616805.4429998,33.691,24.901999999999997,29.296999999999997,18.066,0.0,0
1581616805.447,33.203,22.949,31.738000000000003,15.625,0.0,0
1581616805.448,30.761999999999997,21.97300000000001,33.203,16.602,0.0,0
1581616805.4520001,32.715,23.438000000000002,33.203,16.113,0.0,0
1581616805.456,37.598,22.949,33.691,12.695,0.0,0
1581616805.46,33.203,22.949,32.227,9.277000000000001,0.0,0
1581616805.464,29.296999999999997,24.901999999999997,28.32,8.301,0.0,0
1581616805.468,31.738000000000003,21.97300000000001,26.855,14.16,0.0,0
1581616805.4720001,30.761999999999997,21.97300000000001,29.296999999999997,17.09,0.0,0
1581616805.475,30.761999999999997,23.926,28.809,14.648,0.0,0
1581616805.4789999,26.855,24.901999999999997,23.438000000000002,19.043,0.0,0
1581616805.4829998,25.391,22.461,24.901999999999997,25.879,0.0,0
1581616805.4870002,28.809,24.901999999999997,29.785,22.461,0.0,0
1581616805.4910002,31.25,27.344,29.296999999999997,17.09,0.0,0
1581616805.508,26.855,21.97300000000001,30.273000000000003,15.137,0.0,0
1581616805.512,22.949,22.949,32.227,19.531,0.0,0
1581616805.516,26.366999999999997,27.831999999999997,32.227,20.02,0.0,0
1581616805.52,23.438000000000002,27.344,33.203,11.23,0.0,0
1581616805.524,19.531,24.901999999999997,32.715,6.348,0.0,0
1581616805.5279999,24.414,24.901999999999997,29.785,8.789,0.0,0
1581616805.532,26.366999999999997,23.438000000000002,29.785,10.742,0.0,0
1581616805.535,25.879,20.02,32.227,9.766,0.0,0
1581616805.539,22.949,17.578,32.715,6.836,0.0,0
1581616805.543,18.066,17.09,30.273000000000003,6.348,0.0,0
1581616805.5470002,17.578,19.043,29.296999999999997,11.719000000000001,0.0,0
1581616805.551,19.531,20.02,29.785,13.184000000000001,0.0,0
1581616805.553,21.484,20.508000000000006,27.344,12.695,0.0,0
1581616805.5570002,18.066,20.508000000000006,26.855,13.672,0.0,0
1581616805.561,20.996,22.949,26.855,19.043,0.0,0
1581616805.565,28.32,25.879,27.344,20.02,0.0,0
1581616805.569,29.296999999999997,24.901999999999997,26.855,19.531,0.0,0
1581616805.573,29.296999999999997,23.438000000000002,26.366999999999997,21.97300000000001,0.0,0
1581616805.5770001,24.901999999999997,23.926,26.855,22.949,0.0,0
1581616805.58,22.461,26.855,26.855,20.508000000000006,0.0,0
1581616805.5839999,27.344,29.296999999999997,27.831999999999997,21.97300000000001,0.0,0
1581616805.5879998,33.691,27.831999999999997,30.761999999999997,23.926,0.0,0
1581616805.592,28.809,23.926,27.831999999999997,24.901999999999997,0.0,0
1581616805.596,25.391,24.414,23.438000000000002,23.926,0.0,0
1581616805.5979998,28.809,26.366999999999997,22.461,16.602,0.0,0
1581616805.6020002,26.855,26.855,20.996,10.254000000000001,0.0,0
1581616805.606,23.438000000000002,26.366999999999997,23.438000000000002,6.836,0.0,0
1581616805.61,19.043,23.438000000000002,25.391,3.418,0.0,0
1581616805.6139998,17.578,24.414,27.344,2.93,0.0,0
1581616805.6179998,13.672,24.414,27.344,-2.441,0.0,0
1581616805.6220002,15.625,20.996,27.344,-2.93,0.0,0
1581616805.625,16.602,21.484,29.296999999999997,7.812,0.0,0
1581616805.629,21.484,22.461,31.738000000000003,15.137,0.0,0
1581616805.633,30.273000000000003,20.508000000000006,35.156,15.625,0.0,0
1581616805.637,25.879,19.043,32.715,18.555,0.0,0
1581616805.641,21.484,20.996,29.296999999999997,24.414,0.0,0
1581616805.643,23.438000000000002,20.996,31.25,26.366999999999997,0.0,0
1581616805.647,21.484,18.066,28.809,25.879,0.0,0
1581616805.651,16.113,15.625,29.296999999999997,24.414,0.0,0
1581616805.655,14.16,18.066,32.715,26.855,0.0,0
1581616805.659,14.16,22.949,32.227,28.809,0.0,0
1581616805.6629999,5.859,19.531,31.25,21.484,0.0,0
1581616805.667,-1.953,18.066,31.738000000000003,11.23,0.0,0
1581616805.67,-4.883,16.602,30.761999999999997,12.207,0.0,0
1581616805.674,-4.395,15.625,28.32,15.625,0.0,0
1581616805.678,0.0,20.02,27.831999999999997,12.695,0.0,0
1581616805.6820002,8.301,21.97300000000001,27.831999999999997,14.16,0.0,0
1581616805.686,16.113,21.484,32.715,19.043,0.0,0
1581616805.687,20.02,20.02,31.738000000000003,20.02,0.0,0
1581616805.691,25.391,21.97300000000001,27.344,21.484,0.0,0
1581616805.695,29.296999999999997,24.414,30.273000000000003,20.996,0.0,0
1581616805.699,29.785,22.461,31.738000000000003,20.02,0.0,0
1581616805.7029998,27.831999999999997,23.438000000000002,30.273000000000003,22.949,0.0,0
1581616805.707,23.926,26.366999999999997,29.296999999999997,24.414,0.0,0
1581616805.711,26.366999999999997,24.901999999999997,27.344,17.09,0.0,0
1581616805.714,29.296999999999997,22.461,25.879,11.23,0.0,0
1581616805.718,25.879,22.949,24.901999999999997,10.254000000000001,0.0,0
1581616805.7220001,23.438000000000002,23.438000000000002,26.366999999999997,14.16,0.0,0
1581616805.726,24.414,21.484,27.344,14.16,0.0,0
1581616805.73,23.926,17.578,24.901999999999997,8.789,0.0,0
1581616805.7329998,22.949,19.043,25.879,14.648,0.0,0
1581616805.7370002,21.484,19.043,29.785,24.414,0.0,0
1581616805.7410002,23.438000000000002,18.066,27.831999999999997,22.461,0.0,0
1581616805.745,23.438000000000002,20.02,27.831999999999997,21.484,0.0,0
1581616805.7489998,22.461,20.02,30.273000000000003,24.414,0.0,0
1581616805.7529998,19.531,20.996,28.32,24.414,0.0,0
1581616805.7570002,14.648,16.602,26.366999999999997,22.461,0.0,0
1581616805.76,18.066,15.137,27.344,19.531,0.0,0
1581616805.764,18.555,19.531,31.738000000000003,20.508000000000006,0.0,0
1581616805.768,15.137,21.484,34.18,25.391,0.0,0
1581616805.772,14.648,21.484,31.25,30.273000000000003,0.0,0
1581616805.776,18.555,20.02,30.761999999999997,27.831999999999997,0.0,0
1581616805.7779999,26.366999999999997,20.02,31.25,23.438000000000002,0.0,0
1581616805.782,27.344,20.996,30.761999999999997,26.855,0.0,0
1581616805.786,26.366999999999997,21.97300000000001,31.738000000000003,27.344,0.0,0
1581616805.79,30.273000000000003,21.97300000000001,29.785,21.484,0.0,0
1581616805.794,30.273000000000003,21.484,28.809,19.531,0.0,0
1581616805.7979999,30.761999999999997,22.949,31.25,20.508000000000006,0.0,0
1581616805.802,28.809,22.461,25.879,22.949,0.0,0
1581616805.805,26.366999999999997,20.996,23.926,20.02,0.0,0
1581616805.809,26.855,20.508000000000006,26.366999999999997,15.625,0.0,0
1581616805.813,25.879,19.043,27.831999999999997,19.043,0.0,0
1581616805.8170002,26.855,19.531,30.273000000000003,20.02,0.0,0
1581616805.821,26.366999999999997,20.508000000000006,30.273000000000003,21.97300000000001,0.0,0
1581616805.823,24.414,18.555,28.809,16.113,0.0,0
1581616805.8270001,23.926,18.066,29.296999999999997,17.578,0.0,0
1581616805.831,19.531,23.926,31.738000000000003,23.438000000000002,0.0,0
1581616805.835,17.578,22.461,32.715,23.926,0.0,0
1581616805.839,22.949,17.09,31.25,23.926,0.0,1
1581616805.843,27.344,19.043,30.273000000000003,25.879,0.0,0
1581616805.8470001,28.809,19.043,28.809,34.18,0.0,0
1581616805.85,34.668,22.949,29.296999999999997,38.086,0.0,0
1581616805.8539999,36.133,27.344,26.855,25.391,0.0,0
1581616805.8579998,32.715,30.273000000000003,23.438000000000002,15.625,0.0,0
1581616805.8620002,32.715,30.761999999999997,22.949,18.555,0.0,0
1581616805.8660002,35.645,31.25,23.926,21.484,0.0,0
1581616805.8679998,40.527,28.32,25.879,24.414,0.0,0
1581616805.8720002,37.109,27.344,27.344,17.578,0.0,0
1581616805.8760002,38.574,29.296999999999997,28.809,17.578,0.0,0
1581616805.88,43.945,24.901999999999997,32.715,26.366999999999997,0.0,0
1581616805.8839998,43.945,24.901999999999997,28.809,23.438000000000002,0.0,0
1581616805.8879998,45.898,30.273000000000003,26.366999999999997,20.02,0.0,0
1581616805.8920002,43.945,29.296999999999997,30.273000000000003,19.043,0.0,0
1581616805.895,37.598,25.391,33.203,21.484,0.0,0
1581616805.899,33.203,26.855,30.761999999999997,22.949,0.0,0
1581616805.9029999,33.203,28.809,28.32,19.043,0.0,0
1581616805.907,35.645,25.879,28.32,24.901999999999997,0.0,0
1581616805.911,32.715,20.996,28.32,28.32,0.0,0
1581616805.928,29.296999999999997,24.414,28.32,26.855,0.0,0
1581616805.9320002,27.831999999999997,27.344,26.855,26.366999999999997,0.0,0
1581616805.936,25.879,25.391,24.901999999999997,25.879,0.0,0
1581616805.94,22.461,23.438000000000002,24.414,25.391,0.0,0
1581616805.944,21.97300000000001,23.438000000000002,25.391,29.296999999999997,0.0,0
1581616805.948,22.949,23.438000000000002,23.438000000000002,31.25,0.0,0
1581616805.9520001,27.344,22.949,26.855,24.901999999999997,0.0,0
1581616805.955,32.227,21.97300000000001,27.831999999999997,24.901999999999997,0.0,0
1581616805.9589999,33.691,23.926,25.879,33.203,0.0,0
1581616805.9629998,36.133,23.926,26.366999999999997,33.203,0.0,0
1581616805.967,38.574,23.926,25.391,30.761999999999997,0.0,0
1581616805.971,33.691,22.461,27.344,27.344,0.0,0
1581616805.9729998,19.531,19.531,27.831999999999997,19.043,0.0,0
1581616805.9770002,20.996,21.484,25.879,21.97300000000001,0.0,0
1581616805.981,21.97300000000001,20.02,25.879,17.09,0.0,0
1581616805.985,17.09,18.066,26.366999999999997,9.277000000000001,0.0,0
1581616805.9889998,16.113,16.602,28.809,10.254000000000001,0.0,0
1581616805.9929998,9.766,16.602,28.809,10.254000000000001,0.0,0
1581616805.9970002,10.254000000000001,20.02,28.809,11.719000000000001,0.0,0
1581616806.0,13.672,21.97300000000001,28.32,9.766,0.0,0
1581616806.004,12.695,19.531,24.901999999999997,6.836,0.0,0
1581616806.008,17.578,16.602,24.414,11.719000000000001,0.0,0
1581616806.012,22.461,18.555,26.366999999999997,20.02,0.0,0
1581616806.016,22.949,17.578,25.879,21.97300000000001,0.0,0
1581616806.018,31.25,19.531,27.344,23.438000000000002,0.0,0
1581616806.022,36.621,25.391,31.25,29.785,0.0,0
1581616806.026,36.133,22.949,29.785,28.32,0.0,0
1581616806.03,38.574,19.043,28.809,25.879,0.0,0
1581616806.034,38.574,20.996,26.366999999999997,24.414,0.0,0
1581616806.0379999,42.968999999999994,21.484,28.32,26.855,0.0,0
1581616806.042,41.992,22.461,29.785,28.32,0.0,0
1581616806.045,41.504,24.414,26.855,21.484,0.0,0
1581616806.049,44.922,22.461,25.879,22.949,0.0,0
1581616806.053,41.992,20.02,26.366999999999997,28.809,0.0,0
1581616806.0570002,39.551,22.461,26.366999999999997,33.691,0.0,0
1581616806.061,40.039,25.391,27.344,36.621,0.0,0
1581616806.063,40.039,23.926,29.785,31.738000000000003,0.0,0
1581616806.0670002,40.039,20.996,30.761999999999997,24.901999999999997,0.0,0
1581616806.071,44.434,21.484,29.296999999999997,34.668,0.0,0
1581616806.075,55.176,27.344,29.296999999999997,50.78100000000001,0.0,0
1581616806.079,46.875,25.391,31.738000000000003,45.41,0.0,0
1581616806.083,31.738000000000003,19.531,31.738000000000003,28.32,0.0,0
1581616806.0870001,29.296999999999997,17.09,33.203,31.25,0.0,0
1581616806.09,32.227,19.043,33.691,41.504,0.0,0
1581616806.0939999,39.551,22.461,27.344,36.133,0.0,0
1581616806.0979998,35.645,18.555,24.414,26.366999999999997,0.0,0
1581616806.1020002,26.855,20.02,26.366999999999997,25.879,0.0,0
1581616806.106,27.344,22.949,26.366999999999997,29.296999999999997,0.0,0
1581616806.1079998,29.296999999999997,20.508000000000006,27.344,29.785,0.0,0
1581616806.1120002,24.901999999999997,20.508000000000006,28.32,28.32,0.0,0
1581616806.1160002,22.949,23.438000000000002,28.809,27.344,0.0,0
1581616806.12,26.855,24.414,32.227,25.391,0.0,0
1581616806.1239998,29.785,23.438000000000002,31.25,23.926,0.0,0
1581616806.1279998,29.296999999999997,20.996,29.296999999999997,19.531,0.0,0
1581616806.1320002,28.32,21.97300000000001,29.785,21.97300000000001,0.0,0
1581616806.135,26.855,23.438000000000002,28.809,25.391,0.0,0
1581616806.139,23.926,20.996,30.761999999999997,24.901999999999997,0.0,0
1581616806.143,29.785,21.484,36.621,31.738000000000003,0.0,0
1581616806.147,37.109,22.949,38.086,35.645,0.0,0
1581616806.151,35.645,25.391,35.645,35.645,0.0,0
1581616806.1529999,30.273000000000003,24.901999999999997,36.621,38.574,0.0,0
1581616806.157,28.809,23.926,37.598,33.203,0.0,0
1581616806.161,33.203,25.879,37.109,30.761999999999997,0.0,0
1581616806.165,34.18,22.949,37.109,33.203,0.0,0
1581616806.169,33.203,21.484,36.133,35.156,0.0,0
1581616806.1729999,36.133,18.555,39.551,37.598,0.0,0
1581616806.177,38.574,16.602,43.457,36.621,0.0,0
1581616806.18,37.109,18.066,41.01600000000001,36.133,0.0,0
1581616806.184,35.645,20.02,40.527,41.504,0.0,0
1581616806.188,34.668,19.043,41.504,41.504,0.0,0
1581616806.1920002,32.227,20.02,40.039,33.203,0.0,0
1581616806.196,32.227,22.949,38.574,29.785,0.0,0
1581616806.198,32.227,22.461,37.109,31.738000000000003,0.0,0
1581616806.2020001,27.344,16.113,36.133,27.831999999999997,0.0,0
1581616806.206,29.785,17.09,37.109,18.555,0.0,0
1581616806.21,34.18,22.461,34.18,10.742,0.0,0
1581616806.214,32.227,18.555,31.738000000000003,12.695,0.0,0
1581616806.218,30.761999999999997,19.043,33.203,19.043,0.0,0
1581616806.2220001,34.668,21.97300000000001,33.203,15.625,0.0,0
1581616806.225,33.691,19.531,33.203,8.301,0.0,0
1581616806.2289999,28.32,17.09,33.203,11.719000000000001,0.0,0
1581616806.2329998,21.97300000000001,19.531,34.18,19.043,0.0,0
1581616806.2370002,26.366999999999997,21.97300000000001,32.227,18.066,0.0,0
1581616806.2410002,31.25,18.555,32.227,12.695,0.0,0
1581616806.2429998,30.273000000000003,18.066,34.18,14.648,0.0,0
1581616806.2470002,30.273000000000003,20.508000000000006,33.203,14.648,0.0,0
1581616806.2510002,34.18,21.97300000000001,34.18,18.066,0.0,0
1581616806.255,35.156,25.391,35.156,19.043,0.0,0
1581616806.2589998,32.227,24.414,33.203,16.113,0.0,0
1581616806.2629998,32.715,20.02,33.691,20.508000000000006,0.0,0
1581616806.2670002,31.25,22.461,35.156,20.02,0.0,0
1581616806.27,34.18,24.414,36.133,20.02,0.0,0
1581616806.274,34.668,21.484,37.109,17.09,0.0,0
1581616806.2779999,25.879,19.043,35.156,16.113,0.0,0
1581616806.282,17.09,20.02,34.668,14.648,0.0,0
1581616806.286,11.23,17.09,33.203,4.395,0.0,0
1581616806.303,7.812,20.996,33.203,-1.465,0.0,0
1581616806.3070002,3.418,26.366999999999997,35.645,-2.93,0.0,0
1581616806.311,-0.488,23.438000000000002,34.18,-3.906,0.0,0
1581616806.315,0.0,26.366999999999997,31.738000000000003,-5.859,0.0,0
1581616806.319,-3.906,26.855,34.18,-16.113,0.0,0
1581616806.323,-11.719000000000001,30.273000000000003,35.645,-26.366999999999997,0.0,0
1581616806.3270001,-16.602,30.761999999999997,35.645,-26.366999999999997,0.0,0
1581616806.33,-25.879,25.879,37.598,-36.133,0.0,0
1581616806.3339999,-35.645,24.901999999999997,38.086,-51.27,0.0,0
1581616806.3379998,-36.133,24.414,38.086,-55.663999999999994,0.0,0
1581616806.342,-38.086,26.855,38.574,-53.223,0.0,0
1581616806.346,-39.062,26.366999999999997,37.109,-41.01600000000001,0.0,0
1581616806.3479998,-38.574,24.414,34.668,-42.48,0.0,0
1581616806.3520002,-41.504,26.855,35.645,-49.316,0.0,0
1581616806.356,-36.621,27.344,37.109,-41.01600000000001,0.0,0
1581616806.36,-39.551,29.296999999999997,34.668,-39.062,0.0,0
1581616806.3639998,-46.387,30.273000000000003,34.668,-46.875,0.0,0
1581616806.3679998,-33.691,28.809,39.551,-41.992,0.0,0
1581616806.3720002,-28.32,27.344,38.086,-37.109,0.0,0
1581616806.375,-33.203,24.901999999999997,38.086,-32.715,0.0,0
1581616806.379,-25.391,24.414,38.086,-21.484,0.0,0
1581616806.383,-16.113,24.901999999999997,36.133,-18.555,0.0,0
1581616806.387,-14.648,24.901999999999997,32.227,-19.043,0.0,0
1581616806.391,-13.672,22.461,29.296999999999997,-14.648,0.0,0
1581616806.393,-12.207,22.949,29.296999999999997,-13.672,0.0,0
1581616806.397,-6.836,24.414,25.391,-15.137,0.0,0
1581616806.401,0.0,22.461,23.438000000000002,-12.695,0.0,0
1581616806.405,5.371,20.02,27.344,-2.93,0.0,0
1581616806.409,10.254000000000001,19.043,30.761999999999997,8.789,0.0,0
1581616806.4129999,14.16,18.066,33.203,15.625,0.0,0
1581616806.417,21.484,16.602,35.156,14.648,0.0,0
1581616806.42,24.414,15.137,34.668,17.578,0.0,0
1581616806.424,21.484,13.184000000000001,31.738000000000003,20.02,0.0,0
1581616806.428,22.461,15.137,29.296999999999997,17.578,0.0,0
1581616806.4320002,27.831999999999997,16.113,29.785,19.043,0.0,0
1581616806.436,25.879,15.625,30.273000000000003,21.97300000000001,0.0,0
1581616806.438,28.809,18.555,31.738000000000003,31.25,0.0,0
1581616806.4420002,36.133,18.555,33.691,35.645,0.0,0
1581616806.446,41.504,14.16,33.203,33.691,0.0,0
1581616806.45,49.805,14.16,34.668,36.621,0.0,0
1581616806.454,49.316,16.113,31.738000000000003,45.41,0.0,0
1581616806.458,47.852,17.09,32.715,48.828,0.0,0
1581616806.4620001,47.363,15.625,32.227,44.434,0.0,0
1581616806.465,45.41,15.625,28.809,36.621,0.0,0
1581616806.4689999,49.805,18.066,28.809,35.156,0.0,0
1581616806.4729998,50.78100000000001,20.02,30.761999999999997,37.109,0.0,0
1581616806.4770002,44.434,21.484,26.855,29.785,0.0,0
1581616806.481,41.504,23.438000000000002,24.414,24.901999999999997,0.0,0
1581616806.484,43.457,22.949,30.273000000000003,28.32,0.0,0
1581616806.488,40.527,20.508000000000006,26.855,29.785,0.0,0
1581616806.492,37.598,21.484,28.32,29.296999999999997,0.0,0
1581616806.496,38.574,16.602,38.574,27.831999999999997,0.0,0
1581616806.5,35.156,12.695,38.086,25.391,0.0,0
1581616806.504,31.738000000000003,19.043,34.18,32.715,0.0,0
1581616806.508,31.25,20.508000000000006,34.668,35.156,0.0,0
1581616806.5110002,38.086,17.578,36.621,35.156,0.0,0
1581616806.515,40.039,19.531,35.156,37.598,0.0,0
1581616806.519,37.109,20.996,29.785,39.062,0.0,0
1581616806.5229998,36.133,19.043,28.32,40.039,0.0,0
1581616806.5270002,33.691,19.531,29.785,34.668,0.0,0
1581616806.529,32.715,19.531,29.785,32.715,0.0,0
1581616806.533,39.062,20.02,29.296999999999997,35.156,0.0,0
1581616806.5370002,39.551,24.414,28.809,31.738000000000003,0.0,0
1581616806.5410001,38.574,22.949,26.366999999999997,25.879,0.0,0
1581616806.545,41.992,17.09,27.831999999999997,21.97300000000001,0.0,0
1581616806.549,37.598,17.09,28.32,18.066,0.0,0
1581616806.553,23.926,18.066,27.831999999999997,19.043,0.0,0
1581616806.556,13.184000000000001,18.066,27.831999999999997,15.625,0.0,0
1581616806.56,18.555,17.09,31.25,12.695,0.0,0
1581616806.564,21.97300000000001,19.531,33.691,16.602,0.0,0
1581616806.5679998,22.461,19.043,34.18,26.366999999999997,0.0,0
1581616806.572,26.366999999999997,15.137,34.18,35.645,0.0,0
1581616806.574,29.785,19.043,31.25,40.527,0.0,0
1581616806.5779998,33.691,20.02,33.691,39.551,0.0,0
1581616806.582,33.203,18.066,34.668,35.156,0.0,0
1581616806.586,26.855,20.508000000000006,37.598,36.621,0.0,0
1581616806.59,24.414,21.484,37.598,35.645,0.0,0
1581616806.5939999,27.344,19.531,35.156,32.227,0.0,0
1581616806.5979998,24.414,20.02,36.621,29.785,0.0,0
1581616806.601,19.043,19.531,33.203,24.901999999999997,0.0,0
1581616806.605,18.066,18.066,28.32,19.043,0.0,0
1581616806.609,24.901999999999997,21.484,29.785,19.043,0.0,0
1581616806.613,25.391,28.32,27.344,17.578,0.0,0
1581616806.617,22.461,26.366999999999997,23.438000000000002,17.09,0.0,0
1581616806.6179998,29.296999999999997,23.926,23.438000000000002,22.949,0.0,0
1581616806.6220002,36.621,23.438000000000002,25.879,25.879,0.0,0
1581616806.6260002,32.715,23.438000000000002,27.344,26.855,0.0,0
1581616806.63,29.296999999999997,26.366999999999997,30.273000000000003,33.691,0.0,0
1581616806.6339998,33.203,22.949,33.203,41.992,0.0,0
1581616806.6379998,32.715,18.066,36.133,39.062,0.0,0
1581616806.6420002,32.227,20.996,36.133,35.645,0.0,0
1581616806.645,30.273000000000003,19.531,33.691,41.01600000000001,0.0,0
1581616806.649,26.855,15.625,35.156,44.922,0.0,0
1581616806.6529999,23.926,17.578,34.668,44.922,0.0,0
1581616806.657,20.508000000000006,18.066,33.203,38.574,0.0,0
1581616806.661,20.996,20.02,33.203,38.574,0.0,0
1581616806.678,26.366999999999997,22.949,32.227,42.968999999999994,0.0,0
1581616806.6820002,31.25,22.461,31.25,42.48,0.0,0
1581616806.686,33.203,22.461,30.273000000000003,35.645,0.0,0
1581616806.69,34.668,22.949,30.761999999999997,26.366999999999997,0.0,0
1581616806.694,35.156,21.97300000000001,29.296999999999997,22.461,0.0,0
1581616806.698,37.109,24.901999999999997,25.391,18.066,0.0,0
1581616806.7020001,39.551,26.366999999999997,27.344,9.277000000000001,0.0,0
1581616806.705,42.968999999999994,27.344,27.831999999999997,4.395,0.0,0
1581616806.7089999,43.945,27.344,23.438000000000002,5.371,0.0,0
1581616806.7129998,46.875,26.366999999999997,22.949,7.812,0.0,0
1581616806.717,49.805,27.344,25.391,6.348,0.0,0
1581616806.721,45.41,26.366999999999997,23.438000000000002,7.324,0.0,0
1581616806.7229998,41.992,25.879,21.484,15.625,0.0,0
1581616806.7270002,40.527,24.414,26.855,16.113,0.0,0
1581616806.731,37.109,21.484,28.809,12.695,0.0,0
1581616806.735,34.18,20.996,26.855,19.531,0.0,0
1581616806.7389998,30.761999999999997,20.508000000000006,27.344,24.901999999999997,0.0,0
1581616806.7429998,28.809,20.996,27.344,27.831999999999997,0.0,0
1581616806.7470002,27.831999999999997,20.996,24.414,27.831999999999997,0.0,0
1581616806.75,23.438000000000002,19.043,25.879,25.879,0.0,0
1581616806.754,18.555,16.602,31.25,24.901999999999997,0.0,0
1581616806.758,9.277000000000001,14.16,28.809,22.461,0.0,0
1581616806.762,6.836,15.625,28.809,23.438000000000002,0.0,0
1581616806.766,14.16,19.531,34.18,24.414,0.0,0
1581616806.768,15.137,21.97300000000001,29.296999999999997,21.97300000000001,0.0,0
1581616806.772,15.625,23.926,24.901999999999997,21.97300000000001,0.0,0
1581616806.776,19.043,23.438000000000002,21.97300000000001,18.066,0.0,0
1581616806.78,25.391,24.414,25.391,14.648,0.0,0
1581616806.784,32.715,26.855,26.855,11.719000000000001,0.0,0
1581616806.7879999,33.691,23.926,26.366999999999997,11.23,0.0,0
1581616806.792,34.668,23.438000000000002,29.296999999999997,15.137,0.0,0
1581616806.795,33.691,25.391,28.32,13.184000000000001,0.0,0
1581616806.799,31.738000000000003,23.926,31.738000000000003,8.301,0.0,0
1581616806.803,31.738000000000003,22.461,34.668,7.812,0.0,0
1581616806.8070002,22.949,25.391,30.761999999999997,16.113,0.0,0
1581616806.811,17.578,25.391,27.344,18.555,0.0,0
1581616806.813,18.555,23.926,27.344,17.09,0.0,0
1581616806.8170002,13.672,25.391,27.831999999999997,21.484,0.0,0
1581616806.821,7.324,22.461,28.32,21.97300000000001,0.0,0
1581616806.825,9.277000000000001,22.461,34.18,23.926,0.0,0
1581616806.829,11.719000000000001,25.879,37.598,28.32,0.0,0
1581616806.833,6.836,22.461,37.109,25.391,0.0,0
1581616806.8370001,5.371,22.949,38.574,25.879,0.0,0
1581616806.84,4.395,21.484,37.598,26.855,0.0,0
1581616806.8439999,5.371,17.578,31.738000000000003,25.391,0.0,0
1581616806.8479998,14.16,18.066,30.273000000000003,24.901999999999997,0.0,0
1581616806.8520002,19.531,17.578,29.785,28.32,0.0,0
1581616806.856,21.97300000000001,19.043,26.855,34.668,0.0,0
1581616806.8579998,24.901999999999997,22.949,28.32,30.273000000000003,0.0,0
1581616806.8620002,29.296999999999997,21.484,31.738000000000003,24.901999999999997,0.0,0
1581616806.8660002,34.668,20.02,30.761999999999997,27.831999999999997,0.0,0
1581616806.87,36.621,25.879,27.831999999999997,32.715,0.0,0
1581616806.8739998,36.621,24.414,25.879,27.344,0.0,0
1581616806.8779998,42.968999999999994,20.508000000000006,26.855,21.484,0.0,0
1581616806.8820002,46.875,25.391,26.855,28.809,0.0,0
1581616806.885,47.363,25.391,28.809,33.691,0.0,0
1581616806.889,51.758,23.438000000000002,29.785,36.133,0.0,0
1581616806.893,54.688,25.391,24.901999999999997,39.062,0.0,0
1581616806.897,52.733999999999995,27.344,23.926,35.645,0.0,0
1581616806.901,47.852,27.344,25.391,31.25,0.0,0
1581616806.9029999,44.434,25.391,26.366999999999997,30.761999999999997,0.0,0
1581616806.907,47.363,27.831999999999997,28.809,29.785,0.0,0
1581616806.911,48.828,28.809,30.273000000000003,26.366999999999997,0.0,0
1581616806.915,43.945,28.809,30.761999999999997,29.296999999999997,0.0,0
1581616806.919,34.668,28.809,33.203,30.273000000000003,0.0,0
1581616806.9229999,29.785,25.879,36.621,24.414,0.0,0
1581616806.927,30.273000000000003,25.391,35.645,18.555,0.0,0
1581616806.93,29.785,26.366999999999997,32.227,19.043,0.0,0
1581616806.934,31.738000000000003,28.32,28.809,24.414,0.0,0
1581616806.938,32.715,30.273000000000003,27.831999999999997,24.901999999999997,0.0,0
1581616806.9420002,30.761999999999997,32.227,26.855,18.066,0.0,0
1581616806.946,29.785,30.273000000000003,26.855,17.09,0.0,0
1581616806.948,25.879,24.901999999999997,28.32,20.996,0.0,0
1581616806.9520001,25.879,24.901999999999997,26.366999999999997,21.484,0.0,0
1581616806.956,35.645,24.414,28.809,22.949,0.0,0
1581616806.96,39.062,21.484,31.738000000000003,23.438000000000002,0.0,0
1581616806.964,35.645,20.02,33.203,31.25,0.0,0
1581616806.968,38.086,21.484,37.109,38.574,0.0,0
1581616806.9720001,43.945,23.438000000000002,32.715,33.691,0.0,0
1581616806.975,44.922,19.531,26.366999999999997,29.785,0.0,0
1581616806.9789999,46.387,18.066,30.761999999999997,34.18,0.0,0
1581616806.9829998,49.805,17.09,35.645,38.086,0.0,0
1581616806.9870002,44.922,15.625,34.668,36.621,0.0,0
1581616806.9910002,39.062,20.02,34.18,28.32,0.0,0
1581616806.9929998,35.156,20.02,34.18,22.949,0.0,0
1581616806.9970002,32.227,20.02,34.18,23.926,0.0,0
1581616807.0010002,33.203,22.461,30.761999999999997,22.949,0.0,0
1581616807.005,31.738000000000003,22.461,32.227,19.531,0.0,0
1581616807.0089998,26.855,22.949,33.203,17.578,0.0,0
1581616807.0129998,23.438000000000002,22.461,30.761999999999997,20.508000000000006,0.0,0
1581616807.0170002,20.508000000000006,22.949,29.296999999999997,15.625,0.0,0
1581616807.02,19.531,21.484,28.32,8.789,0.0,0
1581616807.024,20.996,21.97300000000001,28.809,6.348,0.0,2
1581616807.0279999,17.09,22.461,29.296999999999997,12.695,0.0,0
1581616807.032,16.602,20.996,28.32,17.578,0.0,0
1581616807.036,18.555,23.438000000000002,29.296999999999997,18.555,0.0,0
1581616807.053,20.02,20.996,33.691,20.996,0.0,0
1581616807.0570002,22.461,21.97300000000001,35.645,23.926,0.0,0
1581616807.061,25.879,26.855,32.715,29.785,0.0,0
1581616807.065,32.227,23.926,29.296999999999997,30.761999999999997,0.0,0
1581616807.069,33.691,23.926,28.809,26.855,0.0,0
1581616807.073,31.738000000000003,25.391,31.25,25.391,0.0,0
1581616807.0770001,29.296999999999997,23.926,32.715,29.785,0.0,0
1581616807.08,25.391,24.414,34.18,27.831999999999997,0.0,0
1581616807.0839999,24.414,24.414,33.691,16.113,0.0,0
1581616807.0879998,28.32,23.926,32.715,11.719000000000001,0.0,0
1581616807.092,28.32,22.949,34.18,17.578,0.0,0
1581616807.096,21.484,21.484,35.156,15.625,0.0,0
1581616807.0979998,22.461,18.066,35.156,15.137,0.0,0
1581616807.1020002,26.855,21.484,31.738000000000003,18.066,0.0,0
1581616807.106,23.926,24.901999999999997,29.785,19.531,0.0,0
1581616807.11,18.555,21.484,31.738000000000003,19.531,0.0,0
1581616807.1139998,17.578,20.508000000000006,31.738000000000003,18.555,0.0,0
1581616807.1179998,20.02,21.484,33.203,18.066,0.0,0
1581616807.1220002,16.113,19.531,33.691,14.16,0.0,0
1581616807.125,8.301,17.09,32.227,13.184000000000001,0.0,0
1581616807.129,14.16,20.996,31.25,13.672,0.0,0
1581616807.133,21.97300000000001,19.043,33.203,14.16,0.0,0
1581616807.137,21.484,16.113,36.133,16.113,0.0,0
1581616807.141,20.996,15.625,33.691,18.555,0.0,0
1581616807.143,20.996,17.578,34.18,19.043,0.0,0
1581616807.147,23.926,22.949,32.715,18.555,0.0,0
1581616807.151,21.97300000000001,21.484,31.738000000000003,13.672,0.0,0
1581616807.155,14.648,23.926,36.133,10.254000000000001,0.0,0
1581616807.159,16.113,22.461,34.18,12.695,0.0,0
1581616807.1629999,21.97300000000001,22.461,33.691,12.207,0.0,0
1581616807.167,26.855,25.879,35.156,14.16,0.0,0
1581616807.17,29.296999999999997,23.438000000000002,32.227,19.531,0.0,0
1581616807.174,29.785,22.949,33.203,19.043,0.0,0
1581616807.178,30.761999999999997,23.926,31.738000000000003,18.066,0.0,0
1581616807.1820002,36.133,25.391,27.344,15.625,0.0,0
1581616807.186,38.574,28.32,29.296999999999997,18.066,0.0,0
1581616807.188,31.738000000000003,27.344,29.785,22.461,0.0,0
1581616807.1920002,30.761999999999997,25.391,29.785,18.555,0.0,0
1581616807.196,35.156,26.366999999999997,30.761999999999997,15.137,0.0,0
1581616807.2,35.645,26.855,30.761999999999997,14.16,0.0,0
1581616807.204,35.156,26.366999999999997,28.809,16.113,0.0,0
1581616807.208,37.598,27.344,30.273000000000003,21.97300000000001,0.0,0
1581616807.2120001,36.621,25.879,30.761999999999997,23.438000000000002,0.0,0
1581616807.215,36.621,26.855,31.738000000000003,20.02,0.0,0
1581616807.2189999,36.621,26.855,33.203,21.484,0.0,0
1581616807.2229998,32.715,22.949,29.296999999999997,24.901999999999997,0.0,0
1581616807.2270002,35.645,22.461,28.809,25.391,0.0,0
1581616807.231,39.062,24.901999999999997,34.18,25.391,0.0,0
1581616807.2329998,36.133,25.879,35.645,29.785,0.0,0
1581616807.2370002,37.109,26.855,35.156,32.715,0.0,0
1581616807.2410002,32.715,25.391,35.156,30.273000000000003,0.0,0
1581616807.245,29.296999999999997,21.484,33.691,25.391,0.0,0
1581616807.2489998,29.785,21.484,33.203,23.926,0.0,0
1581616807.2529998,27.344,23.926,34.18,25.879,0.0,0
1581616807.2570002,27.344,22.949,34.668,28.32,0.0,0
1581616807.26,33.203,21.97300000000001,35.156,28.32,0.0,0
1581616807.264,31.738000000000003,22.949,33.203,23.926,0.0,0
1581616807.268,26.366999999999997,22.949,28.809,23.926,0.0,0
1581616807.272,39.062,24.901999999999997,26.366999999999997,34.18,0.0,0
1581616807.276,44.434,22.461,25.391,37.109,0.0,0
1581616807.2779999,31.25,18.066,28.32,21.97300000000001,0.0,0
1581616807.282,26.855,18.066,31.25,21.484,0.0,0
1581616807.286,27.344,19.043,28.32,29.785,0.0,0
1581616807.29,28.32,20.508000000000006,28.809,28.32,0.0,0
1581616807.294,32.227,19.043,33.203,25.879,0.0,0
1581616807.2979999,30.273000000000003,20.02,32.715,25.391,0.0,0
1581616807.302,24.414,22.949,33.203,24.901999999999997,0.0,0
1581616807.305,23.438000000000002,21.97300000000001,33.203,22.461,0.0,0
1581616807.309,30.273000000000003,20.996,31.25,20.508000000000006,0.0,0
1581616807.313,35.645,24.901999999999997,32.227,22.461,0.0,0
1581616807.3170002,32.227,24.901999999999997,32.715,23.438000000000002,0.0,0
1581616807.321,29.785,23.926,31.25,21.97300000000001,0.0,0
1581616807.323,28.809,24.414,30.761999999999997,20.508000000000006,0.0,0
1581616807.3270001,28.809,24.901999999999997,34.18,20.02,0.0,0
1581616807.331,29.296999999999997,26.366999999999997,34.668,25.391,0.0,0
1581616807.335,32.227,25.391,33.691,32.715,0.0,0
1581616807.339,34.18,23.926,34.18,31.25,0.0,0
1581616807.343,34.668,23.438000000000002,35.645,27.831999999999997,0.0,0
1581616807.3470001,36.133,21.97300000000001,36.133,31.25,0.0,0
1581616807.35,35.156,20.508000000000006,32.715,34.668,0.0,0
1581616807.3539999,35.156,18.555,35.156,32.715,0.0,0
1581616807.3579998,37.109,20.02,37.109,27.344,0.0,0
1581616807.3620002,34.668,23.438000000000002,36.133,23.438000000000002,0.0,0
1581616807.3660002,30.273000000000003,24.901999999999997,34.668,25.391,0.0,0
1581616807.3679998,29.785,24.414,30.761999999999997,23.926,0.0,0
1581616807.3720002,26.855,26.366999999999997,30.761999999999997,12.695,0.0,0
1581616807.3760002,22.949,24.414,35.156,9.766,0.0,0
1581616807.38,19.531,20.996,36.133,11.719000000000001,0.0,0
1581616807.3839998,16.602,23.438000000000002,37.598,12.207,0.0,0
1581616807.3879998,16.602,23.438000000000002,37.109,9.277000000000001,0.0,0
1581616807.3920002,22.949,22.949,37.109,5.371,0.0,0
1581616807.395,21.97300000000001,22.461,38.086,6.836,0.0,0
1581616807.399,15.137,22.949,34.668,11.23,0.0,0
1581616807.4029999,17.578,19.043,36.133,13.672,0.0,0
1581616807.407,15.625,18.066,36.133,10.742,0.0,0
1581616807.411,9.277000000000001,19.531,32.227,9.277000000000001,0.0,0
1581616807.428,11.719000000000001,20.02,31.25,13.184000000000001,0.0,0
1581616807.4320002,17.09,24.901999999999997,32.715,13.184000000000001,0.0,0
1581616807.436,19.043,22.949,32.715,9.766,0.0,0
1581616807.44,17.09,20.508000000000006,32.715,7.812,0.0,0
1581616807.444,14.16,24.901999999999997,34.18,14.648,0.0,0
1581616807.448,15.137,24.414,33.203,16.113,0.0,0
1581616807.4520001,17.578,20.508000000000006,29.785,7.812,0.0,0
1581616807.455,18.555,20.508000000000006,29.296999999999997,9.766,0.0,0
1581616807.4589999,13.672,20.02,31.25,10.742,0.0,0
1581616807.4629998,11.719000000000001,19.043,30.761999999999997,9.277000000000001,0.0,0
1581616807.467,14.16,16.602,28.809,9.277000000000001,0.0,0
1581616807.471,17.578,16.602,28.809,8.301,0.0,0
1581616807.4729998,19.531,18.555,29.296999999999997,15.625,0.0,0
1581616807.4770002,14.16,20.996,26.855,13.672,0.0,0
1581616807.481,12.695,22.461,25.879,8.789,0.0,0
1581616807.485,15.625,16.602,27.831999999999997,8.301,0.0,0
1581616807.4889998,15.137,21.97300000000001,27.344,6.836,0.0,0
1581616807.4929998,10.742,26.855,29.296999999999997,5.859,0.0,0
1581616807.4970002,6.348,20.02,29.296999999999997,1.953,0.0,0
1581616807.5,-3.418,18.066,26.855,-11.719000000000001,0.0,0
1581616807.504,-11.23,19.531,27.344,-20.996,0.0,0
1581616807.508,-12.695,22.461,27.831999999999997,-17.578,0.0,0
1581616807.512,-21.97300000000001,25.391,25.879,-20.02,0.0,0
1581616807.516,-31.25,27.344,28.32,-34.18,0.0,0
1581616807.518,-32.715,31.738000000000003,31.25,-40.039,0.0,0
1581616807.522,-34.18,32.715,34.18,-36.621,0.0,0
1581616807.526,-41.504,31.25,34.18,-39.551,0.0,0
1581616807.53,-42.968999999999994,32.227,29.296999999999997,-42.968999999999994,0.0,0
1581616807.534,-38.574,31.738000000000003,31.25,-44.434,0.0,0
1581616807.5379999,-41.992,32.715,33.691,-44.434,0.0,0
1581616807.542,-40.527,35.156,35.645,-38.574,0.0,0
1581616807.545,-38.086,35.156,38.086,-37.109,0.0,0
1581616807.549,-40.527,35.156,39.062,-46.875,0.0,0
1581616807.553,-40.039,36.621,37.598,-49.316,0.0,0
1581616807.5570002,-41.504,35.156,36.621,-41.01600000000001,0.0,0
1581616807.561,-40.527,30.273000000000003,38.574,-40.039,0.0,0
1581616807.564,-29.785,29.296999999999997,38.086,-34.668,0.0,0
1581616807.5679998,-22.461,27.831999999999997,36.621,-24.901999999999997,0.0,0
1581616807.572,-22.461,25.879,37.598,-17.578,0.0,0
1581616807.576,-18.066,25.391,39.551,-12.695,0.0,0
1581616807.58,-15.137,20.508000000000006,39.551,-11.719000000000001,0.0,0
1581616807.5839999,-10.742,18.555,40.039,-5.371,0.0,0
1581616807.5879998,-8.789,21.97300000000001,41.01600000000001,0.0,0.0,0
1581616807.591,-8.789,20.996,31.25,4.395,0.0,0
1581616807.595,-5.371,16.113,30.273000000000003,8.301,0.0,0
1581616807.599,-5.859,11.719000000000001,36.133,6.836,0.0,0
1581616807.603,-0.977,12.695,36.133,14.16,0.0,0
1581616807.607,9.277000000000001,11.719000000000001,37.109,24.414,0.0,0
1581616807.6079998,18.066,14.16,33.203,22.949,0.0,0
1581616807.6120002,28.32,16.113,29.785,21.484,0.0,0
1581616807.6160002,34.668,14.648,28.809,23.926,0.0,0
1581616807.62,38.574,14.648,26.855,27.831999999999997,0.0,0
1581616807.6239998,44.922,18.066,26.366999999999997,31.738000000000003,0.0,0
1581616807.6279998,53.71100000000001,21.484,27.831999999999997,31.738000000000003,0.0,0
1581616807.6320002,57.129,21.97300000000001,28.32,37.109,0.0,0
1581616807.635,52.733999999999995,23.438000000000002,25.879,42.48,0.0,0
1581616807.639,55.663999999999994,20.996,27.344,45.41,0.0,0
1581616807.643,57.617,16.602,29.296999999999997,40.527,0.0,0
1581616807.647,53.71100000000001,15.137,30.761999999999997,34.18,0.0,0
1581616807.651,49.316,14.16,33.203,35.645,0.0,0
1581616807.654,44.434,11.23,30.761999999999997,36.133,0.0,0
1581616807.658,40.527,13.672,26.366999999999997,38.086,0.0,0
1581616807.6620002,38.086,16.113,25.879,42.48,0.0,0
1581616807.6660001,32.715,13.672,29.785,43.945,0.0,0
1581616807.67,29.785,9.766,34.18,41.504,0.0,0
1581616807.674,36.133,11.23,31.25,41.01600000000001,0.0,0
1581616807.678,39.062,13.672,29.296999999999997,34.668,0.0,0
1581616807.681,35.156,9.766,31.25,26.366999999999997,0.0,0
1581616807.685,41.504,9.277000000000001,28.32,28.809,0.0,0
1581616807.689,48.34,11.719000000000001,22.461,32.715,0.0,0
1581616807.6929998,54.199,13.672,24.901999999999997,34.668,0.0,0
1581616807.697,58.105,12.207,27.831999999999997,38.086,0.0,0
1581616807.699,55.663999999999994,9.277000000000001,24.414,41.504,0.0,0
1581616807.7029998,53.223,8.301,22.461,46.387,0.0,0
1581616807.707,50.293,6.836,22.949,44.434,0.0,0
1581616807.711,47.363,7.812,24.901999999999997,37.109,0.0,0
1581616807.715,41.992,10.742,23.926,37.598,0.0,0
1581616807.7189999,41.504,11.23,23.438000000000002,41.992,0.0,0
1581616807.7229998,41.504,7.324,23.438000000000002,40.039,0.0,0
1581616807.726,41.504,8.789,27.831999999999997,40.527,0.0,0
1581616807.73,39.551,10.254000000000001,33.691,45.898,0.0,0
1581616807.734,34.18,10.742,32.715,51.27,0.0,0
1581616807.738,32.227,10.742,31.738000000000003,49.805,0.0,0
1581616807.742,34.18,12.695,31.25,44.922,0.0,0
1581616807.758,33.691,13.672,29.785,44.922,0.0,0
1581616807.762,37.598,14.16,34.668,48.34,0.0,0
1581616807.766,36.621,14.648,34.668,44.434,0.0,0
1581616807.77,28.32,14.16,30.273000000000003,31.25,0.0,0
1581616807.774,32.715,14.16,30.761999999999997,25.391,0.0,0
1581616807.7779999,36.621,14.648,28.32,26.855,0.0,0
1581616807.782,37.109,17.09,25.391,26.366999999999997,0.0,0
1581616807.785,36.621,17.578,23.926,19.531,0.0,0
1581616807.789,44.434,18.555,25.391,21.484,0.0,0
1581616807.793,49.316,19.043,28.809,26.855,0.0,0
1581616807.7970002,42.48,17.578,26.855,24.414,0.0,0
1581616807.801,44.922,17.09,27.831999999999997,26.366999999999997,0.0,0
1581616807.803,48.34,17.578,31.25,27.831999999999997,0.0,0
1581616807.8070002,43.945,18.555,28.32,25.879,0.0,0
1581616807.811,48.828,18.555,25.391,27.344,0.0,0
1581616807.815,58.105,24.414,24.901999999999997,28.809,0.0,0
1581616807.819,58.105,26.855,26.366999999999997,22.461,0.0,0
1581616807.823,47.852,22.461,29.785,11.719000000000001,0.0,0
1581616807.8270001,43.457,24.901999999999997,29.785,11.23,0.0,0
1581616807.83,50.78100000000001,23.438000000000002,25.879,17.578,0.0,0
1581616807.8339999,50.293,21.484,22.949,18.555,0.0,0
1581616807.8379998,51.27,24.901999999999997,23.926,17.09,0.0,0
1581616807.842,53.71100000000001,23.926,24.414,22.949,0.0,0
1581616807.846,52.733999999999995,23.438000000000002,24.901999999999997,27.831999999999997,0.0,0
1581616807.8479998,52.246,24.414,25.879,25.879,0.0,0
1581616807.8520002,49.316,23.926,28.809,23.438000000000002,0.0,0
1581616807.856,45.41,23.438000000000002,34.18,26.366999999999997,0.0,0
1581616807.86,34.18,19.043,36.621,28.32,0.0,0
1581616807.8639998,22.949,16.113,36.621,26.366999999999997,0.0,0
1581616807.8679998,23.438000000000002,18.066,34.18,27.344,0.0,0
1581616807.8720002,21.484,18.066,31.25,24.901999999999997,0.0,0
1581616807.875,17.578,18.555,33.691,24.901999999999997,0.0,0
1581616807.879,22.949,20.996,33.691,27.831999999999997,0.0,0
1581616807.883,25.879,20.996,31.25,21.484,0.0,0
1581616807.887,21.484,19.531,30.761999999999997,21.484,0.0,0
1581616807.891,20.996,20.02,33.691,30.273000000000003,0.0,0
1581616807.893,19.043,19.043,35.645,31.738000000000003,0.0,0
1581616807.897,18.066,21.484,34.18,31.25,0.0,0
1581616807.901,25.391,25.879,32.715,32.227,0.0,0
1581616807.905,27.344,26.855,32.227,36.621,0.0,0
1581616807.909,28.809,25.391,35.156,36.133,0.0,0
1581616807.9129999,28.32,21.484,35.645,29.296999999999997,0.0,0
1581616807.917,24.901999999999997,23.926,35.645,22.461,0.0,0
1581616807.92,23.926,25.879,38.574,19.531,0.0,0
1581616807.924,24.901999999999997,21.484,38.086,20.996,0.0,0
1581616807.928,29.785,22.949,32.715,19.043,0.0,0
1581616807.9320002,30.761999999999997,24.414,28.32,14.16,0.0,0
1581616807.936,28.809,25.879,29.296999999999997,12.207,0.0,0
1581616807.938,28.32,29.296999999999997,29.296999999999997,15.625,0.0,0
1581616807.9420002,23.926,30.761999999999997,25.391,16.113,0.0,0
1581616807.946,18.555,28.809,22.461,8.789,0.0,0
1581616807.95,17.09,27.831999999999997,24.414,6.836,0.0,0
1581616807.954,19.043,28.809,23.438000000000002,11.23,0.0,0
1581616807.958,16.113,26.855,21.97300000000001,14.648,0.0,0
1581616807.9620001,21.97300000000001,25.391,24.414,14.16,0.0,0
1581616807.965,29.296999999999997,26.366999999999997,24.414,16.602,0.0,0
1581616807.9689999,25.879,26.366999999999997,22.949,20.996,0.0,0
1581616807.9729998,29.296999999999997,26.366999999999997,21.484,27.831999999999997,0.0,0
1581616807.9770002,33.691,25.879,22.949,29.296999999999997,0.0,0
1581616807.981,34.668,26.366999999999997,24.414,22.461,0.0,0
1581616807.9829998,36.133,25.391,22.949,21.484,0.0,0
1581616807.9870002,37.109,25.391,20.996,23.926,0.0,0
1581616807.9910002,40.527,27.344,21.97300000000001,19.043,0.0,0
1581616807.995,45.41,29.785,23.438000000000002,17.578,0.0,0
1581616807.9989998,47.363,32.715,20.996,21.484,0.0,0
1581616808.0029998,48.34,33.203,20.508000000000006,22.461,0.0,0
1581616808.0070002,46.875,31.738000000000003,21.484,24.414,0.0,0
1581616808.01,44.922,29.785,24.414,22.461,0.0,0
1581616808.014,42.968999999999994,26.366999999999997,25.879,18.555,0.0,0
1581616808.018,35.645,21.97300000000001,25.391,20.02,0.0,0
1581616808.022,36.133,21.484,25.391,22.461,0.0,0
1581616808.026,41.504,23.926,27.344,21.97300000000001,0.0,0
1581616808.0279999,44.922,21.97300000000001,30.761999999999997,26.855,0.0,0
1581616808.032,39.551,22.461,30.273000000000003,24.901999999999997,0.0,0
1581616808.036,31.738000000000003,22.461,30.761999999999997,20.02,0.0,0
1581616808.04,28.32,20.02,27.831999999999997,17.09,0.0,0
1581616808.044,20.02,18.066,22.461,7.812,0.0,0
1581616808.0479999,15.625,17.09,29.296999999999997,8.301,0.0,1
1581616808.052,15.137,19.043,34.668,15.137,0.0,0
1581616808.055,10.742,18.555,36.133,13.672,0.0,0
1581616808.059,12.207,20.02,38.574,11.23,0.0,0
1581616808.063,12.207,20.02,38.574,12.695,0.0,0
1581616808.0670002,8.789,18.066,37.598,14.16,0.0,0
1581616808.071,5.859,19.043,33.203,13.184000000000001,0.0,0
1581616808.073,10.742,16.602,31.738000000000003,10.742,0.0,0
1581616808.0770001,17.578,16.113,32.227,8.789,0.0,0
1581616808.081,20.996,20.508000000000006,29.296999999999997,17.09,0.0,0
1581616808.085,24.901999999999997,20.996,32.715,24.901999999999997,0.0,0
1581616808.089,27.344,21.97300000000001,38.086,22.461,0.0,0
1581616808.093,32.715,24.414,38.574,23.438000000000002,0.0,0
1581616808.0970001,34.18,24.414,37.109,23.926,0.0,0
1581616808.1,29.785,23.926,32.715,20.508000000000006,0.0,0
1581616808.1039999,28.32,23.438000000000002,28.809,22.949,0.0,0
1581616808.1079998,28.32,24.414,29.296999999999997,23.438000000000002,0.0,0
1581616808.1120002,25.879,23.438000000000002,29.785,24.901999999999997,0.0,0
1581616808.1160002,21.484,23.438000000000002,27.831999999999997,22.949,0.0,0
1581616808.1179998,18.066,25.879,27.344,17.09,0.0,0
1581616808.1220002,15.137,26.855,26.366999999999997,14.16,0.0,0
1581616808.1260002,15.137,24.901999999999997,26.366999999999997,12.695,0.0,0
1581616808.13,10.254000000000001,24.901999999999997,28.32,16.113,0.0,0
1581616808.1339998,9.766,23.438000000000002,29.296999999999997,15.137,0.0,0
1581616808.1379998,11.719000000000001,24.901999999999997,28.32,9.277000000000001,0.0,0
1581616808.1420002,6.836,25.879,27.831999999999997,4.395,0.0,0
1581616808.145,2.441,24.901999999999997,27.831999999999997,7.324,0.0,0
1581616808.149,6.348,23.926,29.296999999999997,13.184000000000001,0.0,0
1581616808.1529999,13.184000000000001,25.879,29.785,10.742,0.0,0
1581616808.157,16.113,24.901999999999997,26.366999999999997,7.812,0.0,0
1581616808.161,21.484,21.97300000000001,29.296999999999997,14.648,0.0,0
1581616808.177,26.366999999999997,25.391,34.668,22.461,0.0,0
1581616808.181,29.296999999999997,24.414,33.203,24.901999999999997,0.0,0
1581616808.185,37.109,20.996,33.203,27.344,0.0,0
1581616808.189,45.898,21.97300000000001,32.715,31.738000000000003,0.0,0
1581616808.1929998,43.945,28.32,28.32,28.809,0.0,0
1581616808.197,41.01600000000001,33.203,26.366999999999997,23.926,0.0,0
1581616808.201,36.621,30.273000000000003,29.296999999999997,20.508000000000006,0.0,0
1581616808.204,34.668,24.901999999999997,28.32,18.555,0.0,0
1581616808.208,32.227,24.901999999999997,23.926,24.901999999999997,0.0,0
1581616808.2120001,27.831999999999997,24.901999999999997,22.949,26.855,0.0,0
1581616808.216,33.203,24.414,25.391,26.366999999999997,0.0,0
1581616808.22,35.645,26.366999999999997,26.855,28.32,0.0,0
1581616808.238,36.621,25.879,31.25,30.761999999999997,0.0,0
1581616808.242,36.621,25.391,33.203,33.203,0.0,0
1581616808.246,33.691,27.344,31.25,31.738000000000003,0.0,0
1581616808.25,32.715,28.809,31.738000000000003,28.809,0.0,0
1581616808.254,30.761999999999997,28.32,31.738000000000003,28.32,0.0,0
1581616808.258,25.879,27.344,31.25,28.809,0.0,0
1581616808.262,22.949,23.438000000000002,28.809,23.926,0.0,0
1581616808.265,26.855,21.97300000000001,27.831999999999997,16.602,0.0,0
1581616808.269,28.32,20.508000000000006,25.391,14.16,0.0,0
1581616808.2729998,21.484,20.508000000000006,24.901999999999997,16.602,0.0,0
1581616808.2770002,18.066,22.949,30.273000000000003,15.137,0.0,0
1581616808.2810001,20.508000000000006,21.97300000000001,31.25,13.672,0.0,0
1581616808.268,22.461,20.508000000000006,27.344,17.578,0.0,0
1581616808.272,22.461,20.02,25.879,19.531,0.0,0
1581616808.276,20.508000000000006,22.949,26.855,19.531,0.0,0
1581616808.28,22.949,20.508000000000006,24.414,20.508000000000006,0.0,0
1581616808.284,21.484,15.137,22.461,20.508000000000006,0.0,0
1581616808.2879999,18.066,17.09,25.879,21.97300000000001,0.0,0
1581616808.292,20.02,16.602,27.831999999999997,29.296999999999997,0.0,0
1581616808.295,24.901999999999997,13.672,29.296999999999997,29.785,0.0,0
1581616808.299,31.25,14.16,29.785,28.32,0.0,0
1581616808.303,35.645,19.043,27.831999999999997,33.691,0.0,0
1581616808.3070002,34.668,19.043,30.273000000000003,36.133,0.0,0
1581616808.311,36.621,16.602,31.738000000000003,36.621,0.0,0
1581616808.313,36.133,19.531,31.25,26.855,0.0,0
1581616808.3170002,28.809,20.508000000000006,26.366999999999997,16.113,0.0,0
1581616808.321,24.414,19.531,22.949,21.97300000000001,0.0,0
1581616808.325,25.879,19.531,25.391,22.461,0.0,0
1581616808.329,29.785,22.949,25.391,18.555,0.0,0
1581616808.333,35.156,25.391,28.809,22.461,0.0,0
1581616808.3370001,36.133,24.414,32.227,24.901999999999997,0.0,0
1581616808.34,31.738000000000003,22.461,30.273000000000003,25.391,0.0,0
1581616808.3439999,34.668,23.438000000000002,29.296999999999997,22.461,0.0,0
1581616808.3479998,36.133,20.996,31.25,17.578,0.0,0
1581616808.3520002,27.344,18.555,28.32,18.066,0.0,0
1581616808.356,23.926,20.996,25.879,19.531,0.0,0
1581616808.3579998,23.438000000000002,21.484,25.879,15.137,0.0,0
1581616808.3620002,20.996,20.02,27.344,14.16,0.0,0
1581616808.3660002,21.484,19.531,29.296999999999997,22.461,0.0,0
1581616808.37,21.97300000000001,18.555,31.25,23.926,0.0,0
1581616808.3739998,22.461,18.555,32.227,21.97300000000001,0.0,0
1581616808.3779998,23.438000000000002,17.09,31.25,21.484,0.0,0
1581616808.3820002,22.461,17.09,32.227,20.02,0.0,0
1581616808.385,22.461,20.02,32.227,25.879,0.0,0
1581616808.389,24.901999999999997,22.461,30.761999999999997,28.32,0.0,0
1581616808.393,24.901999999999997,21.484,31.738000000000003,23.926,0.0,0
1581616808.397,25.391,20.02,33.203,24.414,0.0,0
1581616808.401,23.438000000000002,17.578,33.203,28.809,0.0,0
1581616808.4029999,24.901999999999997,20.02,31.738000000000003,29.296999999999997,0.0,0
1581616808.407,22.949,23.926,30.273000000000003,25.391,0.0,0
1581616808.411,20.996,21.97300000000001,26.855,21.97300000000001,0.0,0
1581616808.415,20.02,20.508000000000006,26.855,21.97300000000001,0.0,0
1581616808.419,15.137,20.996,32.715,25.879,0.0,0
1581616808.4229999,15.625,17.578,36.133,27.831999999999997,0.0,0
1581616808.427,19.043,18.066,34.668,22.461,0.0,0
1581616808.43,14.648,20.996,33.691,18.555,0.0,0
1581616808.434,11.23,17.578,34.668,24.414,0.0,0
1581616808.438,11.719000000000001,15.137,34.668,23.438000000000002,0.0,0
1581616808.4420002,9.766,18.066,29.785,14.16,0.0,0
1581616808.446,8.789,20.02,26.366999999999997,9.277000000000001,0.0,0
1581616808.448,9.766,15.137,28.32,10.742,0.0,0
1581616808.4520001,10.742,14.648,26.366999999999997,6.836,0.0,0
1581616808.456,14.16,18.066,24.414,3.418,0.0,0
1581616808.46,18.555,19.531,25.391,4.883,0.0,0
1581616808.464,17.578,21.97300000000001,28.32,9.766,0.0,0
1581616808.468,14.648,21.97300000000001,28.809,12.207,0.0,0
1581616808.4720001,16.602,19.531,28.32,7.812,0.0,0
1581616808.475,16.113,15.625,29.785,4.883,0.0,0
1581616808.4789999,16.602,15.625,30.761999999999997,8.789,0.0,0
1581616808.4829998,17.09,18.066,28.32,12.695,0.0,0
1581616808.4870002,18.066,18.555,27.831999999999997,7.812,0.0,0
1581616808.4910002,22.461,19.043,28.32,3.906,0.0,0
1581616808.4929998,25.391,20.508000000000006,25.879,6.348,0.0,0
1581616808.4970002,21.484,21.484,26.366999999999997,10.742,0.0,0
1581616808.5010002,15.625,23.438000000000002,28.809,12.207,0.0,0
1581616808.505,10.742,21.97300000000001,31.25,6.348,0.0,0
1581616808.5089998,6.348,23.438000000000002,35.156,0.977,0.0,0
1581616808.5129998,1.465,25.391,35.156,0.488,0.0,0
1581616808.5170002,-7.324,21.97300000000001,33.203,-4.883,0.0,0
1581616808.52,-13.672,20.996,31.738000000000003,-14.648,0.0,0
1581616808.524,-7.812,26.366999999999997,34.18,-15.137,0.0,0
1581616808.5279999,-5.371,32.227,36.133,-11.23,0.0,0
1581616808.532,-11.23,29.785,30.273000000000003,-17.578,0.0,0
1581616808.536,-11.23,29.785,30.761999999999997,-22.949,0.0,0
1581616808.554,-15.625,29.296999999999997,34.668,-26.366999999999997,0.0,0
1581616808.5579998,-20.508000000000006,26.366999999999997,37.109,-33.691,0.0,0
1581616808.562,-23.926,31.25,39.062,-30.273000000000003,0.0,0
1581616808.566,-28.32,32.715,33.203,-32.227,0.0,0
1581616808.57,-32.715,30.273000000000003,32.227,-41.01600000000001,0.0,0
1581616808.574,-34.668,30.761999999999997,36.133,-41.504,0.0,0
1581616808.5779998,-36.133,28.809,36.133,-41.992,0.0,0
1581616808.581,-35.156,29.785,37.598,-43.945,0.0,0
1581616808.585,-36.133,29.296999999999997,38.574,-51.27,0.0,0
1581616808.589,-34.18,27.344,39.551,-51.27,0.0,0
1581616808.593,-29.785,27.344,40.039,-43.945,0.0,0
1581616808.5970001,-31.25,28.809,38.086,-38.574,0.0,0
1581616808.5979998,-33.203,29.296999999999997,37.109,-36.621,0.0,0
1581616808.6020002,-35.645,27.344,37.598,-38.574,0.0,0
1581616808.606,-32.227,25.391,35.156,-34.18,0.0,0
1581616808.61,-24.414,27.831999999999997,35.156,-23.438000000000002,0.0,0
1581616808.6139998,-22.461,27.344,37.598,-22.949,0.0,0
1581616808.6179998,-19.043,21.97300000000001,33.691,-23.438000000000002,0.0,0
1581616808.6220002,-13.672,21.97300000000001,29.785,-16.113,0.0,0
1581616808.625,-15.625,22.461,31.25,-10.254000000000001,0.0,0
1581616808.629,-11.23,21.484,33.203,-7.324,0.0,0
1581616808.633,-4.395,17.578,32.715,-6.348,0.0,0
1581616808.637,2.93,15.137,32.227,0.488,0.0,0
1581616808.641,8.301,16.113,34.18,7.324,0.0,0
1581616808.644,10.254000000000001,13.184000000000001,31.25,7.324,0.0,0
1581616808.6479998,15.625,14.16,28.809,7.812,0.0,0
1581616808.6520002,20.508000000000006,14.648,30.761999999999997,12.207,0.0,0
1581616808.6560001,21.97300000000001,15.137,31.738000000000003,14.648,0.0,0
1581616808.66,17.09,16.113,29.296999999999997,14.648,0.0,0
1581616808.664,19.043,18.066,30.761999999999997,16.602,0.0,0
1581616808.668,27.831999999999997,20.508000000000006,33.203,19.043,0.0,0
1581616808.671,25.391,14.16,28.32,18.555,0.0,0
1581616808.675,26.855,13.184000000000001,24.901999999999997,17.09,0.0,0
1581616808.679,37.109,17.578,25.879,19.043,0.0,0
1581616808.6829998,34.18,16.113,23.438000000000002,16.113,0.0,0
1581616808.687,30.761999999999997,15.625,20.508000000000006,15.137,0.0,0
1581616808.688,29.785,15.137,21.484,19.043,0.0,0
1581616808.6920002,27.831999999999997,18.555,20.996,19.043,0.0,0
1581616808.696,30.273000000000003,16.602,20.508000000000006,20.02,0.0,0
1581616808.7,27.344,11.719000000000001,21.484,20.02,0.0,0
1581616808.704,25.391,13.184000000000001,19.531,19.043,0.0,0
1581616808.708,23.926,11.23,21.484,18.555,0.0,0
1581616808.7120001,14.648,7.324,26.855,11.23,0.0,0
1581616808.715,13.672,6.348,31.25,7.812,0.0,0
1581616808.7189999,19.531,12.207,33.691,15.137,0.0,0
1581616808.7229998,17.578,13.184000000000001,30.761999999999997,21.97300000000001,0.0,0
1581616808.7270002,18.555,10.742,28.809,24.414,0.0,0
1581616808.731,19.531,10.742,29.785,23.926,0.0,0
1581616808.734,18.555,11.23,30.273000000000003,28.32,0.0,0
1581616808.738,16.602,10.254000000000001,28.32,31.738000000000003,0.0,0
1581616808.742,18.066,12.207,28.32,30.273000000000003,0.0,0
1581616808.746,24.414,14.16,31.25,27.344,0.0,0
1581616808.75,26.366999999999997,14.648,28.32,28.809,0.0,0
1581616808.754,27.344,15.137,25.391,34.668,0.0,0
1581616808.758,32.715,17.09,28.32,39.062,0.0,0
1581616808.7610002,35.645,16.113,31.25,33.203,0.0,0
1581616808.765,31.25,13.184000000000001,29.785,27.344,0.0,0
1581616808.769,24.901999999999997,13.184000000000001,29.785,29.785,0.0,0
1581616808.7729998,23.926,15.137,29.785,27.831999999999997,0.0,0
1581616808.7770002,25.879,18.555,27.344,22.461,0.0,0
1581616808.7779999,29.785,18.555,28.32,18.555,0.0,0
1581616808.782,30.273000000000003,18.066,28.809,22.461,0.0,0
1581616808.786,27.831999999999997,19.043,27.831999999999997,28.32,0.0,0
1581616808.79,28.32,20.508000000000006,29.785,28.32,0.0,0
1581616808.794,30.273000000000003,19.531,29.296999999999997,23.926,0.0,0
1581616808.7979999,32.227,19.043,26.366999999999997,25.391,0.0,0
1581616808.802,30.273000000000003,20.996,27.344,28.32,0.0,0
1581616808.805,27.344,22.461,28.32,28.32,0.0,0
1581616808.809,21.484,20.508000000000006,28.809,21.97300000000001,0.0,0
1581616808.813,19.043,18.555,25.879,20.02,0.0,0
1581616808.8170002,19.043,19.043,23.438000000000002,24.414,0.0,0
1581616808.821,19.043,20.02,26.855,25.879,0.0,0
1581616808.823,18.066,20.02,30.761999999999997,23.926,0.0,0
1581616808.8270001,20.508000000000006,17.09,31.25,23.926,0.0,0
1581616808.831,26.366999999999997,20.02,30.273000000000003,33.203,0.0,0
1581616808.835,28.32,22.461,27.831999999999997,35.156,0.0,0
1581616808.839,32.715,24.414,28.809,33.203,0.0,0
1581616808.843,40.527,24.414,27.831999999999997,35.645,0.0,0
1581616808.8470001,48.34,21.97300000000001,26.855,37.109,0.0,0
1581616808.85,47.852,24.901999999999997,28.32,38.574,0.0,0
1581616808.8539999,47.363,26.366999999999997,28.32,39.062,0.0,0
1581616808.8579998,47.852,25.879,25.879,31.738000000000003,0.0,0
1581616808.8620002,51.27,26.366999999999997,24.414,32.227,0.0,0
1581616808.8660002,52.246,26.855,23.438000000000002,39.062,0.0,0
1581616808.883,51.27,24.414,24.901999999999997,38.574,0.0,0
1581616808.887,58.593999999999994,24.901999999999997,29.296999999999997,38.574,0.0,0
1581616808.891,62.988,27.344,29.296999999999997,45.41,0.0,0
1581616808.895,45.41,25.391,31.25,38.574,0.0,0
1581616808.899,28.809,19.531,33.203,28.32,0.0,0
1581616808.9029999,37.598,20.02,30.761999999999997,33.691,0.0,0
1581616808.907,44.434,20.996,31.738000000000003,28.32,0.0,0
1581616808.91,40.039,19.531,32.715,23.438000000000002,0.0,0
1581616808.914,40.527,21.484,30.761999999999997,30.273000000000003,0.0,0
1581616808.918,43.945,25.391,29.296999999999997,31.25,0.0,0
1581616808.9220002,46.387,27.344,26.855,31.738000000000003,0.0,0
1581616808.926,46.875,28.809,26.855,33.203,0.0,0
1581616808.928,44.434,26.366999999999997,27.344,35.156,0.0,0
1581616808.9320002,41.01600000000001,28.32,24.414,33.203,0.0,0
1581616808.936,41.992,29.296999999999997,27.344,30.761999999999997,0.0,0
1581616808.94,39.551,25.879,34.668,29.785,0.0,0
1581616808.944,35.645,25.879,36.133,32.715,0.0,0
1581616808.948,38.574,27.344,32.227,41.01600000000001,0.0,0
1581616808.9520001,41.504,27.344,32.227,37.109,0.0,0
1581616808.955,38.574,22.949,35.156,33.691,0.0,0
1581616808.9589999,38.086,20.02,36.133,41.01600000000001,0.0,0
1581616808.9629998,36.133,22.949,38.086,35.645,0.0,0
1581616808.967,32.715,22.461,38.574,26.366999999999997,0.0,0
1581616808.971,29.296999999999997,21.484,36.621,21.484,0.0,0
1581616808.9729998,26.366999999999997,21.97300000000001,31.738000000000003,20.02,0.0,0
1581616808.9770002,31.25,20.996,28.32,26.366999999999997,0.0,0
1581616808.981,33.691,19.531,26.855,24.414,0.0,0
1581616808.985,35.645,20.996,29.296999999999997,20.996,0.0,0
1581616808.9889998,37.109,20.996,33.691,25.879,0.0,0
1581616808.9929998,34.668,17.578,33.691,34.18,0.0,0
1581616808.9970002,37.109,20.508000000000006,33.691,34.18,0.0,0
1581616809.0,37.598,22.949,34.668,29.296999999999997,0.0,0
1581616809.004,37.598,21.97300000000001,36.621,31.25,0.0,0
1581616809.008,33.691,24.901999999999997,34.668,31.738000000000003,0.0,0
1581616809.012,31.738000000000003,24.414,33.203,31.738000000000003,0.0,0
1581616809.016,37.598,20.508000000000006,33.203,30.761999999999997,0.0,0
1581616809.018,37.598,20.508000000000006,32.715,23.926,0.0,0
1581616809.022,33.691,20.996,32.715,23.438000000000002,0.0,0
1581616809.026,32.715,21.97300000000001,32.715,24.901999999999997,0.0,0
1581616809.03,36.133,22.949,32.227,20.996,0.0,0
1581616809.034,34.668,21.97300000000001,30.273000000000003,19.531,0.0,0
1581616809.0379999,30.273000000000003,21.97300000000001,30.761999999999997,26.366999999999997,0.0,0
1581616809.042,32.227,22.461,31.738000000000003,35.156,0.0,0
1581616809.045,33.203,23.926,31.25,32.227,0.0,0
1581616809.049,32.227,23.926,31.738000000000003,24.414,0.0,0
1581616809.053,30.761999999999997,20.02,29.296999999999997,25.391,0.0,0
1581616809.0570002,26.855,20.02,31.25,28.32,0.0,0
1581616809.061,23.438000000000002,20.02,33.203,26.366999999999997,0.0,0
1581616809.063,23.438000000000002,14.16,29.785,25.391,0.0,0
1581616809.0670002,23.926,12.207,25.879,23.926,0.0,0
1581616809.071,24.414,18.066,24.414,24.901999999999997,0.0,0
1581616809.075,30.273000000000003,24.414,23.926,27.344,0.0,0
1581616809.079,31.738000000000003,22.461,23.926,23.438000000000002,0.0,0
1581616809.083,30.761999999999997,19.531,20.996,18.066,0.0,0
1581616809.0870001,35.156,20.02,22.461,22.949,0.0,0
1581616809.09,38.574,19.531,22.949,26.855,0.0,0
1581616809.0939999,41.992,20.508000000000006,22.461,21.484,0.0,0
1581616809.0979998,47.852,21.484,24.414,20.996,0.0,0
1581616809.1020002,42.48,22.949,24.901999999999997,27.831999999999997,0.0,1
1581616809.106,35.645,23.438000000000002,24.901999999999997,33.691,0.0,0
1581616809.1079998,39.551,22.461,25.391,32.715,0.0,0
1581616809.1120002,37.598,22.949,27.831999999999997,28.32,0.0,0
1581616809.1160002,30.273000000000003,25.391,28.32,24.414,0.0,0
1581616809.12,33.203,23.438000000000002,25.391,26.366999999999997,0.0,0
1581616809.1239998,38.574,22.949,27.344,29.785,0.0,0
1581616809.1279998,33.203,25.879,24.414,21.97300000000001,0.0,0
1581616809.1320002,32.227,24.901999999999997,20.996,22.461,0.0,0
1581616809.135,35.645,25.391,24.414,31.738000000000003,0.0,0
1581616809.139,32.715,26.855,28.32,32.227,0.0,0
1581616809.143,29.785,25.879,29.785,26.366999999999997,0.0,0
1581616809.147,28.809,25.879,25.879,25.879,0.0,0
1581616809.151,27.344,28.32,29.296999999999997,30.761999999999997,0.0,0
1581616809.1529999,30.761999999999997,28.809,35.645,27.831999999999997,0.0,0
1581616809.157,34.668,25.391,37.109,19.531,0.0,0
1581616809.161,40.527,25.879,37.109,20.996,0.0,0
1581616809.165,43.457,27.831999999999997,36.133,25.879,0.0,0
1581616809.169,44.922,26.366999999999997,35.156,28.32,0.0,0
1581616809.1729999,50.293,22.949,30.273000000000003,32.227,0.0,0
1581616809.177,53.71100000000001,22.461,27.344,29.785,0.0,0
1581616809.18,52.733999999999995,24.414,30.273000000000003,28.32,0.0,0
1581616809.184,43.945,23.926,33.203,28.32,0.0,0
1581616809.188,41.992,20.02,35.645,31.738000000000003,0.0,0
1581616809.1920002,41.992,17.09,38.086,32.227,0.0,0
1581616809.196,37.109,16.113,37.598,31.25,0.0,0
1581616809.198,29.785,18.555,35.645,37.598,0.0,0
1581616809.2020001,25.391,17.578,38.086,38.086,0.0,0
1581616809.206,24.901999999999997,14.648,41.01600000000001,34.18,0.0,0
1581616809.21,27.344,19.531,40.527,35.645,0.0,0
1581616809.214,32.715,18.555,40.039,40.527,0.0,0
1581616809.218,33.203,15.137,41.504,44.434,0.0,0
1581616809.2220001,38.574,16.602,41.992,43.945,0.0,0
1581616809.225,44.922,15.137,38.574,41.992,0.0,0
1581616809.2289999,42.968999999999994,19.043,34.18,43.945,0.0,0
1581616809.2329998,42.48,18.555,37.598,48.34,0.0,0
1581616809.2370002,38.086,14.16,38.574,40.527,0.0,0
1581616809.2410002,35.645,18.555,36.133,30.273000000000003,0.0,0
1581616809.2429998,38.574,21.484,35.156,32.227,0.0,0
1581616809.2470002,33.691,21.97300000000001,32.227,35.645,0.0,0
1581616809.2510002,30.273000000000003,20.996,31.25,34.18,0.0,0
1581616809.255,30.761999999999997,18.066,32.715,29.296999999999997,0.0,0
1581616809.2589998,31.25,20.02,34.18,31.738000000000003,0.0,0
1581616809.2629998,28.809,23.438000000000002,32.227,29.296999999999997,0.0,0
1581616809.2670002,22.461,25.391,30.761999999999997,26.366999999999997,0.0,0
1581616809.27,22.461,28.809,27.344,25.391,0.0,0
1581616809.274,20.508000000000006,27.831999999999997,25.879,19.043,0.0,0
1581616809.2779999,10.254000000000001,23.438000000000002,29.785,16.113,0.0,0
1581616809.282,7.324,22.949,27.831999999999997,16.602,0.0,0
1581616809.286,11.719000000000001,20.508000000000006,27.344,17.09,0.0,0
1581616809.303,19.531,21.484,29.785,14.16,0.0,0
1581616809.3070002,24.901999999999997,25.879,27.831999999999997,15.625,0.0,0
1581616809.311,25.879,26.855,29.296999999999997,20.996,0.0,0
1581616809.315,34.18,27.344,32.227,22.949,0.0,0
1581616809.319,37.109,23.438000000000002,29.296999999999997,22.461,0.0,0
1581616809.323,33.203,22.461,27.344,20.02,0.0,0
1581616809.3270001,28.809,21.97300000000001,29.296999999999997,20.508000000000006,0.0,0
1581616809.33,28.809,23.438000000000002,27.831999999999997,19.043,0.0,0
1581616809.3339999,32.227,24.901999999999997,26.855,16.113,0.0,0
1581616809.3379998,34.18,24.901999999999997,31.25,17.578,0.0,0
1581616809.342,31.738000000000003,22.461,32.227,21.97300000000001,0.0,0
1581616809.346,26.855,17.578,32.227,25.391,0.0,0
1581616809.3479998,29.785,19.043,36.133,28.809,0.0,0
1581616809.3520002,33.203,18.066,39.062,32.227,0.0,0
1581616809.356,31.738000000000003,15.137,39.062,38.574,0.0,0
1581616809.36,35.156,13.184000000000001,39.062,44.434,0.0,0
1581616809.3639998,38.086,17.578,38.086,42.968999999999994,0.0,0
1581616809.3679998,35.645,21.484,32.715,33.203,0.0,0
1581616809.3720002,36.133,19.531,30.761999999999997,25.879,0.0,0
1581616809.375,39.062,20.996,30.761999999999997,29.785,0.0,0
1581616809.379,42.968999999999994,21.97300000000001,30.761999999999997,30.273000000000003,0.0,0
1581616809.383,41.01600000000001,23.926,29.296999999999997,20.996,0.0,0
1581616809.387,41.992,24.901999999999997,27.344,14.648,0.0,0
1581616809.391,40.039,22.461,26.855,16.602,0.0,0
1581616809.393,34.18,20.508000000000006,27.344,18.066,0.0,0
1581616809.397,35.156,22.949,30.761999999999997,14.648,0.0,0
1581616809.401,32.715,25.391,28.809,9.277000000000001,0.0,0
1581616809.405,26.855,25.879,24.414,11.23,0.0,0
1581616809.409,25.879,25.391,24.414,14.648,0.0,0
1581616809.4129999,27.831999999999997,24.414,29.785,15.625,0.0,0
1581616809.417,26.855,23.926,30.761999999999997,15.625,0.0,0
1581616809.42,21.484,21.97300000000001,28.809,17.578,0.0,0
1581616809.424,16.602,22.461,31.738000000000003,15.137,0.0,0
1581616809.428,17.578,21.97300000000001,33.203,11.23,0.0,0
1581616809.4320002,22.949,20.996,31.738000000000003,11.719000000000001,0.0,0
1581616809.436,17.578,22.461,30.761999999999997,9.277000000000001,0.0,0
1581616809.438,15.625,21.484,29.296999999999997,9.277000000000001,0.0,0
1581616809.4420002,20.508000000000006,18.066,26.855,3.418,0.0,0
1581616809.446,24.901999999999997,22.461,26.855,-1.465,0.0,0
1581616809.45,31.25,28.32,27.344,4.395,0.0,0
1581616809.454,29.296999999999997,28.32,26.855,8.789,0.0,0
1581616809.458,21.97300000000001,25.879,26.366999999999997,8.301,0.0,0
1581616809.4620001,22.461,25.879,23.438000000000002,3.906,0.0,0
1581616809.465,24.414,24.901999999999997,21.97300000000001,3.418,0.0,0
1581616809.4689999,25.879,25.879,25.879,14.16,0.0,0
1581616809.4729998,29.785,26.855,25.391,20.996,0.0,0
1581616809.4770002,35.156,26.366999999999997,26.366999999999997,24.901999999999997,0.0,0
1581616809.481,37.109,26.855,32.227,23.926,0.0,0
1581616809.484,30.761999999999997,29.296999999999997,32.227,21.484,0.0,0
1581616809.488,24.901999999999997,30.273000000000003,27.831999999999997,26.855,0.0,0
1581616809.492,24.901999999999997,27.344,27.344,31.25,0.0,0
1581616809.496,25.879,25.879,30.761999999999997,24.414,0.0,0
1581616809.5,23.438000000000002,25.391,33.203,24.414,0.0,0
1581616809.504,19.531,24.901999999999997,34.18,31.738000000000003,0.0,0
1581616809.508,17.578,23.926,34.668,28.809,0.0,0
1581616809.5110002,21.97300000000001,23.926,33.203,21.484,0.0,0
1581616809.515,20.508000000000006,22.461,30.273000000000003,19.043,0.0,0
1581616809.519,18.555,20.02,28.32,22.461,0.0,0
1581616809.5229998,18.555,20.508000000000006,30.761999999999997,25.879,0.0,0
1581616809.5270002,21.97300000000001,19.043,34.18,24.414,0.0,0
1581616809.5279999,23.926,20.996,34.18,19.043,0.0,0
1581616809.532,20.996,23.438000000000002,32.227,21.484,0.0,0
1581616809.536,24.414,23.438000000000002,33.203,27.344,0.0,0
1581616809.54,28.809,23.926,35.156,27.831999999999997,0.0,0
1581616809.544,28.809,24.414,35.645,25.391,0.0,0
1581616809.5479999,29.296999999999997,23.926,30.273000000000003,24.414,0.0,0
1581616809.552,30.761999999999997,23.438000000000002,27.831999999999997,30.273000000000003,0.0,0
1581616809.555,30.273000000000003,23.926,30.273000000000003,26.366999999999997,0.0,0
1581616809.559,26.366999999999997,20.508000000000006,31.25,18.555,0.0,0
1581616809.563,27.344,19.531,30.761999999999997,18.555,0.0,0
1581616809.5670002,24.901999999999997,20.02,31.738000000000003,21.484,0.0,0
1581616809.571,24.901999999999997,20.996,32.227,24.901999999999997,0.0,0
1581616809.573,31.738000000000003,24.901999999999997,27.831999999999997,22.461,0.0,0
1581616809.5770001,30.273000000000003,25.879,24.414,16.113,0.0,0
1581616809.581,26.366999999999997,21.484,25.391,13.184000000000001,0.0,0
1581616809.585,24.414,20.508000000000006,25.879,12.695,0.0,0
1581616809.589,26.366999999999997,23.926,28.32,9.277000000000001,0.0,0
1581616809.593,29.296999999999997,20.996,30.761999999999997,8.301,0.0,0
1581616809.5970001,27.831999999999997,22.461,32.227,8.789,0.0,0
1581616809.6,23.438000000000002,23.926,29.296999999999997,9.277000000000001,0.0,0
1581616809.6039999,22.461,18.066,27.344,11.23,0.0,0
1581616809.6079998,22.949,17.578,28.32,5.859,0.0,0
1581616809.6120002,21.97300000000001,16.113,30.761999999999997,4.883,0.0,0
1581616809.6160002,20.02,15.137,32.227,11.719000000000001,0.0,0
1581616809.6179998,20.996,17.578,32.715,13.184000000000001,0.0,0
1581616809.6220002,23.926,16.113,33.691,12.207,0.0,0
1581616809.6260002,21.97300000000001,17.09,32.227,10.742,0.0,0
1581616809.63,19.043,20.02,31.738000000000003,17.09,0.0,0
1581616809.6339998,20.02,18.555,32.227,27.831999999999997,0.0,0
1581616809.6379998,24.901999999999997,19.531,37.109,24.414,0.0,0
1581616809.6420002,26.855,18.555,36.621,16.602,0.0,0
1581616809.645,16.602,17.09,32.227,14.16,0.0,0
1581616809.649,9.766,18.066,32.227,14.648,0.0,0
1581616809.6529999,17.578,16.113,34.18,11.719000000000001,0.0,0
1581616809.657,23.438000000000002,15.625,35.645,11.719000000000001,0.0,0
1581616809.661,25.879,15.625,34.668,14.16,0.0,0
1581616809.678,29.296999999999997,18.066,34.18,16.113,0.0,0
1581616809.6820002,31.25,20.508000000000006,32.715,17.578,0.0,0
1581616809.686,30.273000000000003,20.508000000000006,33.203,15.137,0.0,0
1581616809.69,26.855,19.531,34.668,15.625,0.0,0
1581616809.694,21.97300000000001,20.996,33.203,18.066,0.0,0
1581616809.698,17.578,22.949,32.227,16.113,0.0,0
1581616809.7020001,14.16,23.926,31.738000000000003,9.766,0.0,0
1581616809.705,13.184000000000001,21.484,30.273000000000003,8.301,0.0,0
1581616809.7089999,14.648,20.508000000000006,30.761999999999997,14.648,0.0,0
1581616809.7129998,13.672,22.461,32.715,15.137,0.0,0
1581616809.717,11.719000000000001,19.043,29.296999999999997,10.742,0.0,0
1581616809.721,13.184000000000001,17.578,26.855,13.184000000000001,0.0,0
1581616809.7229998,11.23,17.09,29.296999999999997,16.602,0.0,0
1581616809.7270002,10.254000000000001,14.16,28.809,18.555,0.0,0
1581616809.731,13.672,14.16,28.809,18.555,0.0,0
1581616809.735,20.02,16.113,28.32,18.066,0.0,0
1581616809.7389998,20.02,15.625,28.32,16.113,0.0,0
1581616809.7429998,17.09,15.625,28.809,13.672,0.0,0
1581616809.7470002,15.137,16.602,28.32,11.719000000000001,0.0,0
1581616809.75,13.672,18.555,25.879,6.348,0.0,0
1581616809.754,17.09,21.484,25.391,4.883,0.0,0
1581616809.758,17.09,24.901999999999997,25.879,10.742,0.0,0
1581616809.762,9.277000000000001,21.484,24.901999999999997,13.184000000000001,0.0,0
1581616809.766,7.812,17.578,25.391,9.766,0.0,0
1581616809.768,18.066,17.578,26.855,11.719000000000001,0.0,0
1581616809.772,21.97300000000001,18.066,26.855,16.602,0.0,0
1581616809.776,17.578,20.996,24.414,20.02,0.0,0
1581616809.78,18.555,23.438000000000002,24.414,19.043,0.0,0
1581616809.784,22.949,22.949,25.391,15.625,0.0,0
1581616809.7879999,22.461,23.438000000000002,25.879,15.625,0.0,0
1581616809.792,21.484,25.391,24.901999999999997,21.484,0.0,0
1581616809.795,26.855,22.461,23.926,20.508000000000006,0.0,0
1581616809.799,31.738000000000003,22.461,26.855,12.695,0.0,0
1581616809.803,28.809,22.461,29.785,11.23,0.0,0
1581616809.8070002,26.855,19.531,29.785,18.066,0.0,0
1581616809.811,33.691,21.484,29.296999999999997,25.879,0.0,0
1581616809.813,36.621,21.484,32.227,25.879,0.0,0
1581616809.8170002,34.668,20.02,33.203,23.926,0.0,0
1581616809.821,32.227,19.043,32.715,22.949,0.0,0
1581616809.825,27.344,19.043,30.761999999999997,19.043,0.0,0
1581616809.829,25.879,17.578,28.809,12.695,0.0,0
1581616809.833,26.855,18.555,30.761999999999997,7.812,0.0,0
1581616809.8370001,22.949,20.508000000000006,28.809,14.648,0.0,0
1581616809.84,22.461,22.461,26.855,19.531,0.0,0
1581616809.8439999,22.949,25.391,28.809,14.16,0.0,0
1581616809.8479998,20.508000000000006,25.391,28.809,11.719000000000001,0.0,0
1581616809.8520002,21.484,24.901999999999997,26.366999999999997,15.137,0.0,0
1581616809.856,16.113,25.879,24.901999999999997,19.043,0.0,0
1581616809.8579998,17.578,20.02,29.296999999999997,16.602,0.0,0
1581616809.8620002,27.831999999999997,15.137,31.738000000000003,15.137,0.0,0
1581616809.8660002,29.296999999999997,19.043,30.273000000000003,17.578,0.0,0
1581616809.87,27.344,22.949,31.738000000000003,21.484,0.0,0
1581616809.8739998,23.926,21.97300000000001,31.25,19.531,0.0,0
1581616809.8779998,24.901999999999997,19.531,29.785,12.207,0.0,0
1581616809.8820002,27.344,20.996,28.32,13.672,0.0,0
1581616809.885,26.855,24.901999999999997,29.785,18.066,0.0,0
1581616809.889,29.785,26.366999999999997,33.203,20.02,0.0,0
1581616809.893,29.785,25.879,32.715,22.949,0.0,0
1581616809.897,32.715,25.391,33.203,23.926,0.0,0
1581616809.901,37.598,26.855,35.645,28.809,0.0,0
1581616809.9029999,35.156,28.32,36.621,33.203,0.0,0
1581616809.907,34.668,27.831999999999997,35.645,32.715,0.0,0
1581616809.911,40.039,24.414,34.18,32.715,0.0,0
1581616809.915,33.203,22.949,32.227,34.18,0.0,0
1581616809.919,30.273000000000003,24.901999999999997,32.227,37.109,0.0,0
1581616809.9229999,29.785,25.391,36.133,37.109,0.0,0
1581616809.927,24.901999999999997,26.855,36.133,32.227,0.0,0
1581616809.93,20.508000000000006,25.391,33.203,31.25,0.0,0
1581616809.934,19.043,20.508000000000006,30.761999999999997,34.668,0.0,0
1581616809.938,21.484,19.531,35.645,34.18,0.0,0
1581616809.9420002,20.02,20.02,38.086,24.901999999999997,0.0,0
1581616809.946,27.344,20.996,38.086,22.949,0.0,0
1581616809.948,32.227,24.414,38.086,29.296999999999997,0.0,0
1581616809.9520001,31.25,24.414,36.621,31.738000000000003,0.0,0
1581616809.956,36.133,25.879,37.109,26.855,0.0,0
1581616809.96,33.691,25.391,36.621,18.555,0.0,0
1581616809.964,28.32,24.414,34.18,18.066,0.0,0
1581616809.968,31.25,27.831999999999997,33.203,23.438000000000002,0.0,0
1581616809.9720001,34.668,30.273000000000003,32.227,22.949,0.0,0
1581616809.975,30.761999999999997,27.344,31.25,13.184000000000001,0.0,0
1581616809.9789999,27.831999999999997,23.926,31.25,12.695,0.0,0
1581616809.9829998,24.414,24.901999999999997,30.761999999999997,21.484,0.0,0
1581616809.9870002,20.508000000000006,24.414,32.715,20.02,0.0,0
1581616809.9910002,22.461,24.901999999999997,33.691,16.113,0.0,0
1581616810.008,19.043,24.414,34.668,17.09,0.0,0
1581616810.012,12.207,25.391,33.203,20.996,0.0,0
1581616810.016,14.648,25.879,30.273000000000003,20.996,0.0,0
1581616810.02,20.02,24.414,30.761999999999997,18.555,0.0,0
1581616810.024,17.578,25.391,30.761999999999997,16.602,0.0,0
1581616810.0279999,11.719000000000001,27.344,29.785,15.137,0.0,0
1581616810.032,14.648,25.391,29.296999999999997,13.672,0.0,0
1581616810.035,15.625,24.901999999999997,29.785,11.23,0.0,0
1581616810.039,15.625,22.949,27.831999999999997,9.766,0.0,0
1581616810.043,19.531,21.484,28.809,11.23,0.0,0
1581616810.0470002,23.438000000000002,22.461,30.761999999999997,20.02,0.0,0
1581616810.051,24.901999999999997,21.484,30.761999999999997,20.02,0.0,0
1581616810.053,23.438000000000002,21.97300000000001,33.203,19.531,0.0,0
1581616810.0570002,29.785,22.949,33.203,24.901999999999997,0.0,0
1581616810.061,29.296999999999997,21.97300000000001,28.32,23.926,0.0,0
1581616810.065,22.949,20.508000000000006,26.366999999999997,20.02,0.0,0
1581616810.069,22.949,20.02,26.855,15.625,0.0,0
1581616810.073,21.484,17.09,30.273000000000003,12.207,0.0,0
1581616810.0770001,18.066,16.602,31.25,17.09,0.0,0
1581616810.08,12.207,17.09,26.366999999999997,19.043,0.0,0
1581616810.0839999,14.16,16.602,24.901999999999997,13.672,0.0,0
1581616810.0879998,21.97300000000001,18.555,26.366999999999997,11.23,0.0,0
1581616810.092,24.414,20.508000000000006,25.879,11.23,0.0,0
1581616810.096,24.901999999999997,20.508000000000006,25.391,12.207,0.0,0
1581616810.0979998,27.831999999999997,19.043,27.831999999999997,13.184000000000001,0.0,0
1581616810.1020002,28.809,17.09,28.32,17.578,0.0,0
1581616810.106,32.715,16.113,27.831999999999997,25.879,0.0,0
1581616810.11,37.598,19.043,27.344,24.901999999999997,0.0,0
1581616810.1139998,48.828,24.901999999999997,27.831999999999997,28.809,0.0,0
1581616810.1179998,46.387,24.414,30.761999999999997,29.296999999999997,0.0,0
1581616810.1220002,26.855,20.02,34.18,19.043,0.0,0
1581616810.125,23.438000000000002,20.508000000000006,35.645,21.484,0.0,0
1581616810.129,22.949,15.137,38.086,20.996,0.0,0
1581616810.133,21.484,12.695,39.062,15.625,0.0,0
1581616810.137,28.809,18.066,35.645,20.508000000000006,0.0,0
1581616810.141,33.203,13.184000000000001,31.738000000000003,29.785,0.0,0
1581616810.143,34.18,13.184000000000001,31.25,34.668,0.0,0
1581616810.147,36.621,19.043,31.738000000000003,30.761999999999997,0.0,0
1581616810.151,41.01600000000001,18.555,29.296999999999997,27.831999999999997,0.0,0
1581616810.155,36.621,21.484,26.366999999999997,23.438000000000002,0.0,0
1581616810.159,24.901999999999997,24.901999999999997,24.901999999999997,18.066,0.0,0
1581616810.1629999,25.391,23.438000000000002,26.366999999999997,17.578,0.0,0
1581616810.167,29.785,20.02,27.831999999999997,18.555,0.0,0
1581616810.17,29.785,18.066,24.901999999999997,21.484,0.0,0
1581616810.174,29.785,20.996,26.366999999999997,21.97300000000001,0.0,0
1581616810.178,33.203,23.438000000000002,27.344,24.414,0.0,0
1581616810.1820002,32.715,24.414,21.97300000000001,25.879,0.0,0
1581616810.186,32.227,25.391,22.461,27.831999999999997,0.0,0
1581616810.188,31.738000000000003,23.926,26.855,30.273000000000003,0.0,0
1581616810.1920002,27.831999999999997,22.461,28.32,28.32,0.0,0
1581616810.196,29.296999999999997,18.555,32.227,25.391,0.0,0
1581616810.2,22.461,17.09,32.715,20.508000000000006,0.0,0
1581616810.204,10.742,18.555,29.785,19.531,0.0,0
1581616810.208,13.184000000000001,20.508000000000006,28.809,19.043,0.0,0
1581616810.2120001,16.113,20.996,27.344,14.648,0.0,0
1581616810.215,12.695,20.02,23.926,6.836,0.0,0
1581616810.2189999,14.648,20.996,21.97300000000001,5.859,0.0,0
1581616810.2229998,14.16,20.02,22.461,11.719000000000001,0.0,0
1581616810.2270002,13.184000000000001,18.066,24.414,10.254000000000001,0.0,0
1581616810.231,20.02,20.508000000000006,26.366999999999997,11.719000000000001,0.0,0
1581616810.232,23.926,21.97300000000001,25.391,16.113,0.0,0
1581616810.236,22.949,19.531,23.438000000000002,15.137,0.0,0
1581616810.24,26.855,23.926,27.344,17.578,0.0,2
1581616810.244,31.25,25.879,28.809,18.555,0.0,0
1581616810.248,31.738000000000003,19.043,26.855,19.043,0.0,0
1581616810.252,30.273000000000003,19.043,28.32,23.926,0.0,0
1581616810.256,34.18,19.043,31.738000000000003,26.366999999999997,0.0,0
1581616810.2589998,39.062,17.09,32.227,24.414,0.0,0
1581616810.2629998,32.715,17.578,28.32,19.531,0.0,0
1581616810.2670002,25.391,21.484,26.855,17.09,0.0,0
1581616810.2710001,24.901999999999997,23.926,27.831999999999997,17.578,0.0,0
1581616810.275,28.32,23.926,27.344,20.02,0.0,0
1581616810.2779999,27.831999999999997,22.461,24.901999999999997,19.043,0.0,0
1581616810.282,28.32,22.949,26.366999999999997,21.484,0.0,0
1581616810.286,29.296999999999997,20.02,27.831999999999997,27.344,0.0,0
1581616810.29,26.366999999999997,16.113,26.855,22.461,0.0,0
1581616810.294,24.901999999999997,17.09,29.785,18.555,0.0,0
1581616810.2979999,24.901999999999997,18.066,32.227,20.02,0.0,0
1581616810.302,24.901999999999997,18.555,30.761999999999997,21.97300000000001,0.0,0
1581616810.305,27.831999999999997,20.996,29.785,20.996,0.0,0
1581616810.309,27.344,21.97300000000001,29.785,18.555,0.0,0
1581616810.313,27.831999999999997,22.461,29.785,21.97300000000001,0.0,0
1581616810.3170002,26.855,22.949,30.273000000000003,24.414,0.0,0
1581616810.321,24.414,24.414,29.296999999999997,25.391,0.0,0
1581616810.322,23.438000000000002,26.366999999999997,31.25,23.438000000000002,0.0,0
1581616810.326,25.879,25.879,33.203,21.97300000000001,0.0,0
1581616810.33,25.879,23.926,33.691,24.414,0.0,0
1581616810.3339999,20.508000000000006,23.438000000000002,31.738000000000003,28.32,0.0,0
1581616810.3379998,22.461,22.461,29.785,26.366999999999997,0.0,0
1581616810.342,26.366999999999997,24.414,33.203,22.949,0.0,0
1581616810.346,22.461,24.901999999999997,30.761999999999997,20.02,0.0,0
1581616810.349,15.137,20.02,28.32,19.043,0.0,0
1581616810.353,13.672,18.066,29.296999999999997,18.555,0.0,0
1581616810.357,15.137,19.531,30.273000000000003,14.16,0.0,0
1581616810.361,14.16,21.97300000000001,28.809,14.648,0.0,0
1581616810.365,15.625,22.461,25.391,20.996,0.0,0
1581616810.3720002,20.996,23.926,26.366999999999997,25.879,0.0,0
1581616810.3760002,28.809,26.366999999999997,27.831999999999997,26.366999999999997,0.0,0
1581616810.38,34.18,27.831999999999997,28.32,25.391,0.0,0
1581616810.3839998,36.621,24.901999999999997,27.344,28.32,0.0,0
1581616810.3879998,36.621,21.97300000000001,26.855,33.203,0.0,0
1581616810.3920002,38.086,23.926,30.761999999999997,27.344,0.0,0
1581616810.3960001,44.434,24.901999999999997,31.25,22.949,0.0,0
1581616810.399,44.922,22.461,25.879,27.831999999999997,0.0,0
1581616810.4029999,40.527,25.391,23.926,29.785,0.0,0
1581616810.407,39.551,28.32,25.879,27.344,0.0,0
1581616810.411,40.527,23.438000000000002,27.831999999999997,24.414,0.0,0
1581616810.415,37.598,20.02,28.809,27.344,0.0,0
1581616810.428,36.621,20.508000000000006,29.296999999999997,31.25,0.0,0
1581616810.4320002,38.086,20.02,29.785,31.738000000000003,0.0,0
1581616810.436,37.598,18.555,30.761999999999997,24.414,0.0,0
1581616810.44,33.691,17.09,32.715,20.996,0.0,0
1581616810.444,30.273000000000003,19.043,34.18,25.391,0.0,0
1581616810.448,28.809,18.555,33.691,25.391,0.0,0
1581616810.4520001,29.296999999999997,16.113,32.227,23.926,0.0,0
1581616810.455,27.344,19.531,30.761999999999997,20.996,0.0,0
1581616810.4589999,21.97300000000001,19.043,29.785,18.066,0.0,0
1581616810.4629998,19.043,15.137,30.761999999999997,17.09,0.0,0
1581616810.467,18.555,16.113,32.715,13.672,0.0,0
1581616810.471,18.555,15.625,35.645,17.578,0.0,0
1581616810.4729998,19.531,13.672,37.109,23.926,0.0,0
1581616810.4770002,20.996,13.184000000000001,35.645,29.296999999999997,0.0,0
1581616810.481,20.02,16.602,33.691,28.809,0.0,0
1581616810.485,20.996,16.602,34.668,22.949,0.0,0
1581616810.4889998,19.531,13.184000000000001,33.691,22.949,0.0,0
1581616810.4929998,16.602,14.648,31.738000000000003,28.809,0.0,0
1581616810.4970002,20.02,19.531,32.227,29.296999999999997,0.0,0
1581616810.5,23.438000000000002,20.02,34.668,25.879,0.0,0
1581616810.504,24.901999999999997,17.09,33.691,25.879,0.0,0
1581616810.508,24.414,18.555,33.691,27.344,0.0,0
1581616810.512,19.531,19.531,30.273000000000003,23.926,0.0,0
1581616810.516,21.97300000000001,20.508000000000006,26.855,18.555,0.0,0
1581616810.518,23.438000000000002,19.531,32.227,19.531,0.0,0
1581616810.522,18.555,21.484,31.738000000000003,20.02,0.0,0
1581616810.526,15.625,26.366999999999997,28.809,20.996,0.0,0
1581616810.53,15.625,26.366999999999997,30.273000000000003,21.97300000000001,0.0,0
1581616810.534,18.066,21.97300000000001,30.761999999999997,19.531,0.0,0
1581616810.5379999,18.066,23.438000000000002,33.203,20.996,0.0,0
1581616810.542,16.602,24.414,33.691,23.926,0.0,0
1581616810.545,19.043,23.926,29.785,19.531,0.0,0
1581616810.549,20.996,24.901999999999997,27.831999999999997,13.672,0.0,0
1581616810.553,22.949,22.949,28.32,13.184000000000001,0.0,0
1581616810.5570002,24.901999999999997,21.97300000000001,27.831999999999997,18.555,0.0,0
1581616810.561,26.855,23.438000000000002,29.785,20.996,0.0,0
1581616810.563,30.273000000000003,24.901999999999997,31.25,20.996,0.0,0
1581616810.5670002,29.785,24.414,30.273000000000003,20.508000000000006,0.0,0
1581616810.571,30.761999999999997,23.926,33.203,24.414,0.0,0
1581616810.575,38.574,22.949,36.621,29.296999999999997,0.0,0
1581616810.579,42.48,21.97300000000001,37.109,25.879,0.0,0
1581616810.583,42.48,23.438000000000002,36.621,25.391,0.0,0
1581616810.5870001,41.992,23.926,34.18,27.831999999999997,0.0,0
1581616810.59,42.968999999999994,21.484,29.785,25.391,0.0,0
1581616810.5939999,40.527,20.996,26.855,17.09,0.0,0
1581616810.5979998,40.527,24.414,25.879,12.695,0.0,0
1581616810.6020002,43.945,24.901999999999997,25.879,17.09,0.0,0
1581616810.606,35.645,22.461,25.391,16.602,0.0,0
1581616810.609,29.785,19.531,29.785,15.137,0.0,0
1581616810.613,33.691,21.484,33.203,16.113,0.0,0
1581616810.617,30.761999999999997,21.97300000000001,32.227,13.184000000000001,0.0,0
1581616810.621,25.391,20.02,29.296999999999997,10.254000000000001,0.0,0
1581616810.625,22.461,20.02,29.296999999999997,11.23,0.0,0
1581616810.629,25.391,21.484,31.25,10.254000000000001,0.0,0
1581616810.633,27.344,21.484,28.809,11.23,0.0,0
1581616810.6360002,28.809,21.97300000000001,30.761999999999997,16.602,0.0,0
1581616810.64,28.32,23.438000000000002,33.691,20.996,0.0,0
1581616810.644,24.901999999999997,23.438000000000002,31.25,19.531,0.0,0
1581616810.6479998,24.414,22.461,33.203,16.602,0.0,0
1581616810.6520002,24.901999999999997,18.066,34.18,20.02,0.0,0
1581616810.6529999,21.97300000000001,18.555,31.25,22.461,0.0,0
1581616810.657,22.461,20.996,29.785,23.926,0.0,0
1581616810.661,25.391,23.926,30.761999999999997,21.484,0.0,0
1581616810.665,23.438000000000002,26.855,31.738000000000003,21.484,0.0,0
1581616810.669,23.926,22.461,31.738000000000003,25.879,0.0,0
1581616810.6729999,25.879,21.484,34.668,30.273000000000003,0.0,0
1581616810.677,28.32,24.414,34.18,30.761999999999997,0.0,0
1581616810.68,28.32,25.391,33.691,24.414,0.0,0
1581616810.684,24.901999999999997,23.438000000000002,37.109,25.879,0.0,0
1581616810.688,25.879,20.02,35.156,30.273000000000003,0.0,0
1581616810.6920002,26.855,21.484,32.227,27.344,0.0,0
1581616810.696,25.391,23.438000000000002,32.715,23.926,0.0,0
1581616810.698,24.414,21.484,33.203,27.344,0.0,0
1581616810.7020001,21.97300000000001,20.02,32.715,26.366999999999997,0.0,0
1581616810.706,23.438000000000002,21.484,32.227,20.508000000000006,0.0,0
1581616810.71,27.831999999999997,23.438000000000002,28.32,18.066,0.0,0
1581616810.714,27.831999999999997,20.508000000000006,27.344,20.996,0.0,0
1581616810.718,25.391,20.508000000000006,30.761999999999997,23.926,0.0,0
1581616810.7220001,23.438000000000002,20.996,31.25,21.484,0.0,0
1581616810.725,28.32,20.508000000000006,29.296999999999997,16.113,0.0,0
1581616810.7289999,26.366999999999997,20.508000000000006,26.855,13.184000000000001,0.0,0
1581616810.7329998,20.508000000000006,21.97300000000001,25.879,14.648,0.0,0
1581616810.7370002,20.996,20.996,26.855,12.207,0.0,0
1581616810.7410002,22.949,18.555,26.855,3.418,0.0,0
1581616810.7429998,23.926,18.066,25.879,5.371,0.0,0
1581616810.7470002,19.531,16.113,26.855,8.301,0.0,0
1581616810.7510002,16.602,13.672,25.879,7.812,0.0,0
1581616810.755,16.602,15.625,26.366999999999997,5.371,0.0,0
1581616810.7589998,15.137,17.09,29.296999999999997,2.93,0.0,0
1581616810.7629998,17.09,18.555,27.344,6.836,0.0,0
1581616810.7670002,22.949,20.508000000000006,26.855,11.719000000000001,0.0,0
1581616810.77,27.831999999999997,20.996,27.831999999999997,14.16,0.0,0
1581616810.774,24.901999999999997,24.901999999999997,26.855,11.719000000000001,0.0,0
1581616810.7779999,25.391,23.926,27.831999999999997,17.578,0.0,0
1581616810.782,27.831999999999997,22.949,27.831999999999997,24.414,0.0,0
1581616810.786,25.391,23.926,27.344,18.555,0.0,0
1581616810.803,26.366999999999997,23.438000000000002,24.414,16.602,0.0,0
1581616810.8070002,25.879,23.926,21.484,17.09,0.0,0
1581616810.811,21.484,24.901999999999997,23.438000000000002,15.625,0.0,0
1581616810.815,22.949,27.344,24.414,16.113,0.0,0
1581616810.819,24.414,26.366999999999997,22.949,13.672,0.0,0
1581616810.823,22.949,24.414,22.461,14.648,0.0,0
1581616810.8270001,21.484,24.901999999999997,22.949,16.113,0.0,0
1581616810.83,26.366999999999997,22.461,21.97300000000001,17.09,0.0,0
1581616810.8339999,26.366999999999997,19.531,22.461,18.555,0.0,0
1581616810.8379998,18.066,21.97300000000001,25.391,13.672,0.0,0
1581616810.842,19.043,21.484,27.344,13.184000000000001,0.0,0
1581616810.846,21.484,18.555,27.344,19.531,0.0,0
1581616810.8479998,21.484,21.484,27.831999999999997,19.531,0.0,0
1581616810.8520002,24.414,19.531,27.344,17.09,0.0,0
1581616810.856,26.366999999999997,18.066,28.809,18.066,0.0,0
1581616810.86,23.438000000000002,21.484,27.831999999999997,23.926,0.0,0
1581616810.8639998,24.901999999999997,22.949,28.32,23.438000000000002,0.0,0
1581616810.8679998,28.32,20.996,30.761999999999997,20.508000000000006,0.0,0
1581616810.8720002,24.414,21.97300000000001,27.344,19.043,0.0,0
1581616810.875,25.391,22.461,26.855,18.555,0.0,0
1581616810.879,30.761999999999997,23.926,29.785,26.366999999999997,0.0,0
1581616810.883,30.761999999999997,23.926,28.809,21.97300000000001,0.0,0
1581616810.887,27.831999999999997,23.438000000000002,28.32,17.09,0.0,0
1581616810.891,22.949,22.461,28.32,21.484,0.0,0
1581616810.894,21.484,22.949,27.831999999999997,21.484,0.0,0
1581616810.8979998,17.09,24.414,27.344,17.578,0.0,0
1581616810.9020002,16.602,21.484,26.855,12.695,0.0,0
1581616810.9060001,22.949,19.531,25.391,14.648,0.0,0
