timestamps,TP9,AF7,AF8,TP10,Right AUX,Marker0
1581435148.3720002,19.531,21.484,3.906,26.366999999999997,0.0,0
1581435148.3760002,41.992,20.996,8.301,49.316,0.0,0
1581435148.38,30.761999999999997,17.09,15.137,38.574,0.0,0
1581435148.3839998,21.97300000000001,16.602,14.16,29.785,0.0,0
1581435148.3879998,20.508000000000006,25.391,16.602,33.203,0.0,0
1581435148.3920002,20.508000000000006,14.16,14.16,25.391,0.0,0
1581435148.3960001,19.043,7.324,9.766,17.09,0.0,0
1581435148.399,14.16,12.695,7.324,20.02,0.0,0
1581435148.4029999,13.184000000000001,8.301,6.836,20.996,0.0,0
1581435148.407,24.414,5.859,14.648,12.207,0.0,0
1581435148.411,23.438000000000002,9.766,13.184000000000001,18.066,0.0,0
1581435148.415,23.926,4.883,6.348,39.551,0.0,0
1581435148.417,12.207,5.859,8.789,35.645,0.0,0
1581435148.421,1.953,15.137,6.836,14.648,0.0,0
1581435148.425,11.719000000000001,11.23,8.301,19.531,0.0,0
1581435148.429,12.207,12.207,11.23,31.738000000000003,0.0,0
1581435148.4329998,5.859,10.742,13.672,38.086,0.0,0
1581435148.437,5.371,8.301,14.16,31.25,0.0,0
1581435148.441,12.695,1.953,13.184000000000001,6.348,0.0,0
1581435148.444,11.719000000000001,2.441,10.742,6.836,0.0,0
1581435148.448,8.789,15.625,5.371,8.301,0.0,0
1581435148.4520001,0.977,18.066,3.906,11.719000000000001,0.0,0
1581435148.456,8.789,19.531,3.906,24.414,0.0,0
1581435148.46,22.949,12.207,11.23,20.508000000000006,0.0,0
1581435148.4620001,20.996,13.184000000000001,8.789,19.531,0.0,0
1581435148.466,15.625,21.97300000000001,3.906,26.366999999999997,0.0,0
1581435148.47,17.09,20.508000000000006,15.137,29.296999999999997,0.0,0
1581435148.474,9.277000000000001,13.672,21.484,24.901999999999997,0.0,0
1581435148.478,11.719000000000001,13.672,11.719000000000001,26.855,0.0,0
1581435148.482,19.043,16.113,6.836,22.461,0.0,0
1581435148.486,16.113,11.719000000000001,8.789,24.901999999999997,0.0,0
1581435148.4889998,15.625,18.555,8.789,23.438000000000002,0.0,0
1581435148.4929998,14.16,17.578,13.184000000000001,7.812,0.0,0
1581435148.4970002,10.742,15.625,12.695,6.836,0.0,0
1581435148.5010002,13.672,12.695,8.301,27.344,0.0,0
1581435148.505,21.97300000000001,-3.906,10.742,35.645,0.0,0
1581435148.5070002,19.043,7.812,13.672,30.273000000000003,0.0,0
1581435148.5110002,12.207,25.391,9.766,30.273000000000003,0.0,0
1581435148.515,21.484,25.879,4.395,30.761999999999997,0.0,0
1581435148.519,17.578,18.066,5.371,18.066,0.0,0
1581435148.5229998,8.789,17.578,12.207,13.184000000000001,0.0,0
1581435148.5270002,8.301,15.625,11.719000000000001,15.137,0.0,0
1581435148.5310001,6.348,14.648,5.859,14.16,0.0,0
1581435148.534,0.977,20.508000000000006,4.395,-2.441,0.0,0
1581435148.5379999,-3.906,21.97300000000001,3.906,-17.578,0.0,0
1581435148.542,-11.23,26.855,4.883,0.0,0.0,0
1581435148.546,-9.277000000000001,30.761999999999997,4.395,4.395,0.0,0
1581435148.55,0.488,19.531,3.906,3.418,0.0,0
1581435148.552,7.812,15.137,6.348,8.301,0.0,0
1581435148.556,10.254000000000001,26.366999999999997,11.719000000000001,6.348,0.0,0
1581435148.56,17.578,22.461,16.602,22.949,0.0,0
1581435148.564,20.02,21.484,9.766,20.02,0.0,0
1581435148.5679998,11.23,18.555,4.395,4.883,0.0,0
1581435148.572,11.719000000000001,10.254000000000001,6.348,13.672,0.0,0
1581435148.576,11.23,16.602,8.789,23.438000000000002,0.0,0
1581435148.579,7.324,23.438000000000002,6.348,13.672,0.0,0
1581435148.583,8.789,19.043,-0.977,13.184000000000001,0.0,0
1581435148.5870001,14.648,22.461,3.906,0.977,0.0,0
1581435148.591,10.742,15.137,12.207,-1.465,0.0,0
1581435148.595,8.301,4.395,11.719000000000001,21.484,0.0,0
1581435148.5970001,2.93,8.301,5.371,19.043,0.0,0
1581435148.601,6.348,24.901999999999997,0.488,0.488,0.0,0
1581435148.605,8.789,21.484,-1.465,-10.254000000000001,0.0,0
1581435148.609,-0.488,13.184000000000001,-3.906,8.301,0.0,0
1581435148.613,5.371,18.555,0.977,7.812,0.0,0
1581435148.617,20.508000000000006,18.066,3.906,3.418,0.0,0
1581435148.621,13.184000000000001,8.789,-2.441,5.371,0.0,0
1581435148.6239998,11.719000000000001,7.812,-9.766,-0.488,0.0,0
1581435148.6279998,10.254000000000001,22.461,-5.859,11.719000000000001,0.0,0
1581435148.6320002,12.207,22.949,7.324,19.043,0.0,0
1581435148.6360002,20.996,13.184000000000001,8.301,23.438000000000002,0.0,0
1581435148.64,16.113,18.555,6.348,19.531,0.0,0
1581435148.6420002,13.672,27.831999999999997,4.395,18.555,0.0,0
1581435148.6460001,20.996,16.113,3.418,28.809,0.0,0
1581435148.65,22.461,5.859,6.348,20.996,0.0,0
1581435148.654,7.812,1.465,1.465,14.648,0.0,0
1581435148.658,0.488,4.883,-4.395,14.648,0.0,0
1581435148.6620002,13.672,16.113,-2.441,15.137,0.0,0
1581435148.6660001,20.996,22.949,-1.465,18.066,0.0,0
1581435148.669,15.137,15.625,0.0,19.531,0.0,0
1581435148.6729999,12.695,2.441,1.465,33.691,0.0,0
1581435148.677,9.766,8.301,9.277000000000001,33.691,0.0,0
1581435148.681,21.484,20.508000000000006,11.23,17.09,0.0,0
1581435148.685,32.715,25.391,7.324,28.32,0.0,0
1581435148.7020001,17.578,23.438000000000002,7.324,28.809,0.0,0
1581435148.706,14.16,20.996,8.789,29.785,0.0,0
1581435148.71,23.438000000000002,27.344,10.254000000000001,30.761999999999997,0.0,0
1581435148.714,20.508000000000006,27.831999999999997,9.277000000000001,21.484,0.0,0
1581435148.718,19.531,22.949,7.324,30.761999999999997,0.0,0
1581435148.7220001,21.97300000000001,16.602,12.207,36.133,0.0,0
1581435148.726,22.949,14.648,14.16,24.414,0.0,0
1581435148.7289999,19.531,14.648,5.859,11.23,0.0,0
1581435148.7329998,19.043,17.578,5.371,17.578,0.0,0
1581435148.7370002,26.366999999999997,21.484,13.184000000000001,41.992,0.0,0
1581435148.7410002,26.855,23.926,12.695,30.273000000000003,0.0,0
1581435148.745,21.484,18.555,10.742,19.043,0.0,0
1581435148.7470002,18.555,6.348,9.277000000000001,27.831999999999997,0.0,0
1581435148.7510002,14.648,7.324,7.324,22.461,0.0,0
1581435148.755,17.578,17.578,7.324,28.32,0.0,0
1581435148.7589998,28.32,29.785,6.836,31.25,0.0,0
1581435148.7629998,27.831999999999997,27.831999999999997,11.23,18.555,0.0,0
1581435148.7670002,25.879,18.066,13.672,38.574,0.0,0
1581435148.7710001,21.484,19.531,16.602,45.41,0.0,0
1581435148.774,16.602,30.761999999999997,4.883,11.719000000000001,0.0,0
1581435148.7779999,25.391,29.785,-1.465,20.02,0.0,0
1581435148.782,25.879,13.672,7.812,38.086,0.0,0
1581435148.786,26.855,16.602,4.883,31.25,0.0,0
1581435148.79,26.366999999999997,14.648,0.977,30.273000000000003,0.0,0
1581435148.792,27.344,0.0,2.93,20.508000000000006,0.0,0
1581435148.796,21.97300000000001,13.672,4.395,18.066,0.0,0
1581435148.8,14.648,28.32,5.371,40.527,0.0,0
1581435148.804,24.414,25.391,5.371,36.133,0.0,0
1581435148.8079998,33.691,18.066,8.789,13.184000000000001,0.0,0
1581435148.812,35.645,18.066,12.695,26.855,0.0,0
1581435148.816,19.531,22.949,6.836,40.039,0.0,0
1581435148.819,16.113,16.602,0.977,36.133,0.0,0
1581435148.823,27.344,8.301,-0.488,21.97300000000001,0.0,0
1581435148.8270001,27.831999999999997,14.648,2.93,3.906,0.0,0
1581435148.831,20.996,16.113,10.742,22.461,0.0,0
1581435148.835,16.113,7.812,7.812,26.366999999999997,0.0,0
1581435148.8370001,13.672,14.648,3.906,21.97300000000001,0.0,0
1581435148.841,13.672,13.184000000000001,11.719000000000001,24.414,0.0,0
1581435148.845,22.461,13.672,8.301,20.02,0.0,0
1581435148.849,19.531,10.254000000000001,7.324,32.715,0.0,0
1581435148.853,18.555,9.766,10.742,33.203,0.0,0
1581435148.857,17.09,16.113,6.836,15.137,0.0,0
1581435148.861,13.672,5.371,10.254000000000001,21.484,0.0,0
1581435148.8639998,10.254000000000001,9.277000000000001,15.137,29.785,0.0,0
1581435148.8679998,10.742,25.391,10.254000000000001,14.16,0.0,0
1581435148.8720002,12.695,17.578,4.883,4.395,0.0,0
1581435148.8760002,0.0,-5.859,8.301,6.348,0.0,0
1581435148.88,8.789,-5.371,9.277000000000001,31.738000000000003,0.0,0
1581435148.8820002,20.02,21.97300000000001,3.418,34.668,0.0,0
1581435148.8860002,19.043,27.831999999999997,0.488,20.996,0.0,0
1581435148.89,19.043,17.09,10.254000000000001,32.715,0.0,0
1581435148.894,10.742,10.254000000000001,19.531,38.574,0.0,0
1581435148.8979998,14.16,19.531,12.695,32.227,0.0,0
1581435148.9020002,23.926,28.32,14.16,20.508000000000006,0.0,0
1581435148.9060001,19.531,16.602,17.578,20.996,0.0,0
1581435148.909,15.137,2.93,12.695,23.438000000000002,0.0,0
1581435148.9129999,18.066,10.254000000000001,10.254000000000001,28.809,0.0,0
1581435148.917,17.09,15.625,6.348,25.879,0.0,0
1581435148.921,24.901999999999997,20.02,2.441,25.391,0.0,0
1581435148.925,23.926,18.066,5.859,19.531,0.0,0
1581435148.927,10.254000000000001,13.672,10.254000000000001,20.996,0.0,0
1581435148.931,7.812,13.184000000000001,11.719000000000001,41.504,0.0,0
1581435148.935,21.484,13.672,10.742,27.831999999999997,0.0,0
1581435148.939,14.648,15.625,13.184000000000001,10.254000000000001,0.0,0
1581435148.9429998,20.508000000000006,10.254000000000001,8.789,22.461,0.0,0
1581435148.947,27.344,9.766,8.789,40.039,0.0,0
1581435148.951,25.879,22.949,14.16,36.133,0.0,0
1581435148.954,33.203,29.296999999999997,13.672,24.901999999999997,0.0,0
1581435148.958,28.809,20.996,10.254000000000001,26.855,0.0,0
1581435148.9620001,19.531,7.812,7.324,35.156,0.0,0
1581435148.966,19.043,16.602,8.789,27.344,0.0,0
1581435148.97,25.391,18.066,9.277000000000001,19.531,0.0,0
1581435148.9720001,18.555,10.254000000000001,6.348,24.414,0.0,0
1581435148.976,12.695,14.16,2.441,34.18,0.0,0
1581435148.98,20.996,18.555,2.93,26.855,0.0,0
1581435148.984,14.648,20.508000000000006,7.812,15.137,0.0,0
1581435148.988,5.859,22.461,13.672,31.738000000000003,0.0,0
1581435148.992,23.438000000000002,32.715,8.301,30.761999999999997,0.0,0
1581435148.996,20.508000000000006,22.461,2.93,17.578,0.0,0
1581435148.9989998,16.602,15.137,1.465,10.254000000000001,0.0,0
1581435149.0029998,20.02,20.02,0.0,4.395,0.0,0
1581435149.0070002,11.719000000000001,7.324,3.906,20.996,0.0,0
1581435149.0110002,16.602,-2.441,5.859,35.645,0.0,0
1581435149.015,20.996,11.23,2.441,21.484,0.0,0
1581435149.018,6.348,23.438000000000002,0.0,0.0,0.0,0
1581435149.022,0.488,18.555,0.488,15.625,0.0,0
1581435149.026,17.09,21.484,-2.93,36.133,0.0,0
1581435149.03,26.855,28.809,-7.812,22.949,0.0,0
1581435149.034,18.066,24.901999999999997,-6.836,13.672,0.0,0
1581435149.0379999,18.555,19.043,-4.883,20.508000000000006,0.0,0
1581435149.042,28.32,29.296999999999997,-5.859,30.273000000000003,0.0,0
1581435149.045,21.97300000000001,26.855,-6.836,25.879,0.0,0
1581435149.049,19.531,22.461,-6.836,9.766,0.0,0
1581435149.053,25.391,25.391,-3.418,3.906,0.0,0
1581435149.0570002,12.207,21.97300000000001,-1.465,13.184000000000001,0.0,0
1581435149.061,19.043,32.715,-4.883,29.785,0.0,0
1581435149.0779998,22.461,39.551,0.977,21.97300000000001,0.0,0
1581435149.082,16.602,31.25,6.836,9.277000000000001,0.0,0
1581435149.086,21.97300000000001,26.855,2.93,17.578,0.0,0
1581435149.09,9.277000000000001,29.296999999999997,3.418,16.113,0.0,0
1581435149.0939999,-0.488,23.438000000000002,5.371,9.277000000000001,0.0,0
1581435149.0979998,10.254000000000001,17.09,5.371,8.301,0.0,0
1581435149.1020002,10.742,21.97300000000001,0.977,-3.906,0.0,0
1581435149.105,-0.488,20.996,1.953,-5.859,0.0,0
1581435149.109,-4.395,19.531,9.277000000000001,4.395,0.0,0
1581435149.113,-4.395,25.879,11.23,-5.859,0.0,0
1581435149.117,-11.23,24.901999999999997,11.23,-17.09,0.0,0
1581435149.121,-20.996,25.879,14.16,-1.953,0.0,0
1581435149.123,-26.855,27.831999999999997,14.16,-14.16,0.0,0
1581435149.127,-30.273000000000003,28.32,15.625,-36.621,0.0,0
1581435149.131,-26.366999999999997,27.344,20.02,-22.461,0.0,0
1581435149.135,-18.066,24.414,22.949,-12.695,0.0,0
1581435149.139,-18.066,25.391,21.484,-18.555,0.0,0
1581435149.143,-35.156,23.438000000000002,25.391,-29.296999999999997,0.0,0
1581435149.147,-54.199,18.066,25.879,-37.109,0.0,0
1581435149.15,-54.688,16.113,26.855,-37.598,0.0,0
1581435149.154,-56.152,19.043,29.296999999999997,-37.598,0.0,0
1581435149.158,-57.129,21.484,26.366999999999997,-54.688,0.0,0
1581435149.1620002,-54.688,20.996,25.879,-64.453,0.0,0
1581435149.1660001,-61.523,18.555,23.438000000000002,-53.223,0.0,0
1581435149.168,-68.359,24.414,26.855,-60.547,0.0,0
1581435149.1720002,-68.359,21.484,32.715,-57.129,0.0,0
1581435149.176,-67.87100000000001,13.672,32.227,-61.035,0.0,0
1581435149.18,-64.941,14.16,35.156,-52.733999999999995,0.0,0
1581435149.184,-64.453,11.23,37.109,-41.992,0.0,0
1581435149.188,-72.266,11.23,32.227,-61.523,0.0,0
1581435149.1920002,-83.984,13.672,32.715,-67.383,0.0,0
1581435149.195,-83.49600000000002,15.137,35.645,-68.848,0.0,0
1581435149.199,-87.402,9.766,37.598,-62.5,0.0,0
1581435149.2029998,-88.37899999999998,7.324,33.203,-70.801,0.0,0
1581435149.207,-82.52,15.137,29.296999999999997,-81.543,0.0,0
1581435149.211,-88.867,11.719000000000001,31.25,-75.684,0.0,0
1581435149.2129998,-86.426,14.16,31.25,-66.895,0.0,0
1581435149.217,-76.172,11.719000000000001,28.32,-59.57,0.0,0
1581435149.221,-68.359,13.672,26.366999999999997,-62.5,0.0,0
1581435149.225,-68.359,21.97300000000001,29.785,-66.895,0.0,0
1581435149.2289999,-83.49600000000002,15.137,30.761999999999997,-68.359,0.0,0
1581435149.2329998,-81.543,24.414,28.809,-58.593999999999994,0.0,0
1581435149.2370002,-76.172,24.414,28.32,-59.57,0.0,0
1581435149.24,-76.172,9.277000000000001,28.809,-63.965,0.0,0
1581435149.244,-64.453,17.578,24.901999999999997,-64.453,0.0,0
1581435149.248,-69.824,24.414,20.508000000000006,-63.477,0.0,0
1581435149.252,-92.773,12.207,20.508000000000006,-64.453,0.0,0
1581435149.256,-90.82,0.977,23.438000000000002,-65.918,0.0,0
1581435149.258,-66.406,8.789,25.391,-54.199,0.0,0
1581435149.262,-61.035,7.812,27.831999999999997,-40.039,0.0,0
1581435149.266,-59.57,13.672,24.901999999999997,-38.574,0.0,0
1581435149.27,-45.41,22.461,20.02,-36.621,0.0,0
1581435149.274,-42.968999999999994,14.16,17.578,-31.25,0.0,0
1581435149.2779999,-44.922,4.395,20.996,-30.761999999999997,0.0,0
1581435149.282,-38.574,5.859,23.926,-22.949,0.0,0
1581435149.285,-39.062,10.254000000000001,25.879,-24.901999999999997,0.0,0
1581435149.289,-44.434,5.859,24.414,-41.992,0.0,0
1581435149.293,-55.176,3.418,23.926,-21.484,0.0,0
1581435149.2970002,-43.945,6.836,18.555,-11.719000000000001,0.0,0
1581435149.301,-17.578,9.277000000000001,17.09,-15.625,0.0,0
1581435149.303,-12.207,9.766,25.879,-11.23,0.0,0
1581435149.3070002,-21.484,4.395,28.32,-11.23,0.0,0
1581435149.311,-23.438000000000002,-1.465,26.366999999999997,-0.488,0.0,0
1581435149.315,-16.113,8.301,20.02,12.695,0.0,0
1581435149.319,-17.09,7.812,21.97300000000001,4.395,0.0,0
1581435149.323,-14.648,5.371,21.484,-17.09,0.0,0
1581435149.3270001,-12.207,2.93,17.09,-4.395,0.0,0
1581435149.33,-19.531,-3.418,19.043,7.812,0.0,0
1581435149.3339999,-22.949,2.93,14.648,-20.508000000000006,0.0,0
1581435149.3379998,-11.719000000000001,13.672,16.113,-13.672,0.0,0
1581435149.342,-3.906,15.137,21.484,-7.324,0.0,0
1581435149.346,-18.066,9.766,15.137,-11.719000000000001,0.0,0
1581435149.3479998,-19.043,8.301,8.301,-10.742,0.0,0
1581435149.3520002,-10.742,12.207,5.859,-16.113,0.0,0
1581435149.356,-16.113,7.812,9.766,-10.254000000000001,0.0,0
1581435149.36,-21.97300000000001,5.859,10.742,-11.719000000000001,0.0,0
1581435149.3639998,-23.438000000000002,6.348,10.742,-16.113,0.0,0
1581435149.3679998,-20.996,8.789,11.719000000000001,-14.16,0.0,0
1581435149.3720002,-23.438000000000002,12.695,14.648,-14.648,0.0,0
1581435149.375,-27.831999999999997,23.438000000000002,14.648,-28.32,0.0,0
1581435149.379,-34.668,20.508000000000006,12.695,-28.809,0.0,0
1581435149.383,-30.273000000000003,-2.93,12.207,-32.227,0.0,0
1581435149.387,-17.09,-14.16,12.695,-28.32,0.0,0
1581435149.391,-19.043,4.883,12.207,-10.742,0.0,0
1581435149.393,-19.531,27.831999999999997,4.395,-6.836,0.0,0
1581435149.397,-11.719000000000001,23.438000000000002,1.465,-1.953,0.0,0
1581435149.401,-3.418,27.344,-1.465,-7.812,0.0,0
1581435149.405,4.395,34.668,4.883,2.441,0.0,0
1581435149.409,7.324,23.438000000000002,10.742,18.066,0.0,0
1581435149.4129999,17.578,22.461,5.371,22.461,0.0,0
1581435149.417,22.461,21.484,0.0,1.465,0.0,0
1581435149.42,17.09,16.602,0.977,-1.465,0.0,0
1581435149.424,23.926,12.695,1.953,31.25,0.0,0
1581435149.428,21.97300000000001,10.254000000000001,0.488,30.273000000000003,0.0,0
1581435149.4320002,13.184000000000001,11.719000000000001,1.953,18.066,0.0,0
1581435149.436,16.113,14.16,6.836,20.996,0.0,0
1581435149.4529998,10.742,16.113,9.766,29.296999999999997,0.0,0
1581435149.457,13.184000000000001,14.16,7.812,31.738000000000003,0.0,0
1581435149.461,9.766,10.254000000000001,3.906,14.648,0.0,0
1581435149.465,13.184000000000001,12.207,0.0,-0.977,0.0,0
1581435149.4689999,13.184000000000001,16.113,3.906,7.812,0.0,0
1581435149.4729998,9.277000000000001,15.625,7.324,11.23,0.0,0
1581435149.4770002,5.371,13.672,2.441,1.465,0.0,0
1581435149.48,0.488,9.277000000000001,-1.465,-1.465,0.0,0
1581435149.484,5.859,7.324,0.488,0.977,0.0,0
1581435149.488,4.883,15.625,3.418,-5.371,0.0,0
1581435149.492,-6.836,14.648,5.371,-11.719000000000001,0.0,0
1581435149.496,-5.859,16.113,5.859,-1.465,0.0,0
1581435149.498,3.418,12.207,1.953,-1.953,0.0,0
1581435149.502,7.324,9.277000000000001,-0.488,-6.836,0.0,0
1581435149.506,9.766,11.719000000000001,5.859,14.648,0.0,0
1581435149.51,21.484,2.93,5.859,24.414,0.0,0
1581435149.514,25.879,11.23,0.488,26.366999999999997,0.0,0
1581435149.518,29.296999999999997,25.391,0.488,38.574,0.0,0
1581435149.522,40.527,20.996,0.0,51.758,0.0,0
1581435149.525,48.828,17.09,-3.906,57.617,0.0,0
1581435149.529,61.523,17.09,-4.883,48.34,0.0,0
1581435149.533,62.988,17.09,-4.883,58.105,0.0,0
1581435149.5370002,62.988,15.625,-4.395,76.172,0.0,0
1581435149.5410001,73.242,11.23,-6.348,74.219,0.0,0
1581435149.543,74.707,3.906,-5.371,65.43,0.0,0
1581435149.5470002,70.801,1.953,-2.441,71.289,0.0,0
1581435149.551,74.707,7.324,-1.465,80.078,0.0,0
1581435149.555,86.914,7.812,0.488,81.055,0.0,0
1581435149.559,84.961,-0.488,-2.93,75.684,0.0,0
1581435149.563,73.242,-3.418,-11.23,65.918,0.0,0
1581435149.5670002,76.66,0.977,-4.883,82.031,0.0,0
1581435149.57,83.984,1.465,-0.488,97.656,0.0,0
1581435149.574,87.891,-5.371,-5.859,92.285,0.0,0
1581435149.5779998,83.49600000000002,-4.395,-1.953,90.82,0.0,0
1581435149.582,80.566,0.488,-3.906,90.33200000000001,0.0,0
1581435149.586,80.566,-3.418,-6.348,100.098,0.0,0
1581435149.5879998,82.031,-6.348,-5.371,91.79700000000001,0.0,0
1581435149.592,85.93799999999996,2.441,-5.371,80.566,0.0,0
1581435149.596,85.449,0.0,-1.953,97.656,0.0,0
1581435149.6,84.961,6.348,-1.465,102.539,0.0,0
1581435149.6039999,89.355,9.277000000000001,-3.906,96.191,0.0,0
1581435149.6079998,92.773,1.465,3.418,107.91,0.0,0
1581435149.6120002,86.426,3.418,2.441,115.234,0.0,0
1581435149.615,85.93799999999996,2.441,-6.348,109.863,0.0,0
1581435149.619,90.33200000000001,3.418,-3.418,105.95700000000001,0.0,0
1581435149.623,97.16799999999999,4.883,-2.441,97.656,0.0,0
1581435149.627,93.262,-0.977,-4.883,92.773,0.0,0
1581435149.631,83.008,1.953,-6.836,95.215,0.0,0
1581435149.633,95.70299999999999,11.23,-5.859,108.887,0.0,0
1581435149.637,101.56200000000001,6.836,-5.371,108.398,0.0,0
1581435149.641,87.891,5.371,-8.301,90.82,0.0,0
1581435149.645,87.891,14.648,-9.277000000000001,101.074,0.0,0
1581435149.649,95.215,16.602,-6.348,110.352,0.0,0
1581435149.6529999,95.215,13.184000000000001,-8.301,105.95700000000001,0.0,0
1581435149.657,91.79700000000001,9.277000000000001,-6.836,94.238,0.0,0
1581435149.66,83.49600000000002,4.883,-0.488,87.891,0.0,0
1581435149.664,76.172,-9.766,-2.93,80.566,0.0,0
1581435149.668,69.336,-9.766,-7.324,75.684,0.0,0
1581435149.6720002,79.59,11.23,-7.324,92.285,0.0,0
1581435149.676,78.125,8.789,-8.301,92.773,0.0,0
1581435149.678,67.87100000000001,-0.488,-4.883,75.195,0.0,0
1581435149.6820002,71.777,11.23,-0.977,85.93799999999996,0.0,0
1581435149.686,79.102,16.113,-4.395,90.33200000000001,0.0,0
1581435149.69,85.93799999999996,11.719000000000001,-5.859,87.402,0.0,0
1581435149.694,75.684,14.16,-3.906,88.867,0.0,0
1581435149.698,77.148,16.113,-1.953,88.37899999999998,0.0,0
1581435149.7020001,79.59,11.719000000000001,-2.441,87.402,0.0,0
1581435149.705,76.172,10.742,-1.465,74.707,0.0,0
1581435149.7089999,74.707,12.207,0.977,78.125,0.0,0
1581435149.7129998,62.988,9.766,-1.465,84.961,0.0,0
1581435149.717,60.547,7.812,-2.441,75.195,0.0,0
1581435149.721,65.43,10.254000000000001,-0.977,71.777,0.0,0
1581435149.7229998,68.359,16.602,-4.395,80.566,0.0,0
1581435149.7270002,70.801,11.23,-3.418,83.008,0.0,0
1581435149.731,57.129,0.488,6.348,74.707,0.0,0
1581435149.735,50.293,4.395,10.742,70.801,0.0,0
1581435149.7389998,55.176,2.441,13.672,77.148,0.0,0
1581435149.7429998,56.152,-1.953,12.695,76.66,0.0,0
1581435149.7470002,53.71100000000001,16.113,14.648,65.918,0.0,0
1581435149.75,54.199,19.043,13.184000000000001,43.457,0.0,0
1581435149.754,48.34,5.371,2.93,36.133,0.0,0
1581435149.758,49.316,17.578,2.93,55.176,0.0,0
1581435149.762,48.828,17.578,6.836,59.57,0.0,0
1581435149.766,38.086,19.043,6.836,47.852,0.0,0
1581435149.768,38.574,19.043,6.836,40.527,0.0,0
1581435149.772,34.18,10.742,-0.488,39.551,0.0,0
1581435149.776,30.273000000000003,17.09,-0.488,38.574,0.0,0
1581435149.78,39.062,18.066,5.371,34.668,0.0,0
1581435149.784,39.551,2.93,3.906,28.809,0.0,0
1581435149.7879999,41.01600000000001,-2.93,0.0,36.621,0.0,0
1581435149.792,40.039,3.418,-1.465,35.645,0.0,0
1581435149.795,26.855,17.09,1.953,26.366999999999997,0.0,0
1581435149.799,34.18,23.438000000000002,-0.977,34.18,0.0,0
1581435149.803,38.086,19.043,-3.418,37.109,0.0,0
1581435149.8070002,36.621,19.043,0.488,38.574,0.0,0
1581435149.811,36.621,20.02,-2.441,30.273000000000003,0.0,0
1581435149.813,30.273000000000003,13.184000000000001,-2.441,24.901999999999997,0.0,0
1581435149.8170002,26.366999999999997,6.348,-0.977,25.879,0.0,0
1581435149.821,28.32,7.324,-1.953,21.97300000000001,0.0,0
1581435149.825,29.296999999999997,10.254000000000001,3.906,33.691,0.0,0
1581435149.829,15.137,7.812,8.301,36.621,0.0,0
1581435149.833,7.812,8.301,8.301,18.555,0.0,0
1581435149.8370001,6.348,8.301,12.207,7.324,0.0,0
1581435149.84,5.371,6.836,15.137,7.324,0.0,0
1581435149.8439999,-3.906,9.766,17.09,6.836,0.0,0
1581435149.8479998,-16.113,11.23,22.461,-6.836,0.0,0
1581435149.8520002,-25.391,9.766,23.438000000000002,-11.23,0.0,0
1581435149.856,-26.366999999999997,7.812,21.97300000000001,-3.418,0.0,0
1581435149.8720002,-30.273000000000003,7.812,20.996,-10.742,0.0,0
1581435149.8760002,-31.25,2.93,22.949,-23.438000000000002,0.0,0
1581435149.88,-43.457,5.859,30.273000000000003,-39.551,0.0,0
1581435149.8839998,-59.57,6.836,31.738000000000003,-45.41,0.0,0
1581435149.8879998,-58.105,3.906,32.227,-34.18,0.0,0
1581435149.8920002,-57.129,2.93,36.621,-41.992,0.0,0
1581435149.8960001,-56.64100000000001,2.93,37.109,-51.758,0.0,0
1581435149.899,-61.035,9.277000000000001,34.18,-51.758,0.0,0
1581435149.9029999,-77.637,9.766,35.156,-47.363,0.0,0
1581435149.907,-72.75399999999998,3.906,40.039,-52.246,0.0,0
1581435149.911,-66.406,2.441,39.062,-60.547,0.0,0
1581435149.915,-71.777,7.324,35.156,-52.246,0.0,0
1581435149.917,-69.336,11.719000000000001,34.18,-46.387,0.0,0
1581435149.921,-74.707,8.301,31.25,-48.828,0.0,0
1581435149.925,-68.848,5.859,29.296999999999997,-57.617,0.0,0
1581435149.929,-68.848,-1.465,33.203,-66.895,0.0,0
1581435149.9329998,-76.66,-2.441,32.715,-61.035,0.0,0
1581435149.937,-71.289,-2.441,33.691,-41.992,0.0,0
1581435149.941,-62.012,-13.184000000000001,32.227,-45.898,0.0,0
1581435149.944,-69.336,-0.977,31.738000000000003,-61.035,0.0,0
1581435149.948,-71.289,11.719000000000001,30.761999999999997,-58.593999999999994,0.0,0
1581435149.9520001,-62.012,0.488,27.831999999999997,-49.316,0.0,0
1581435149.956,-55.663999999999994,2.93,28.32,-41.504,0.0,0
1581435149.96,-49.805,4.395,26.855,-32.715,0.0,0
1581435149.9620001,-34.18,4.395,24.414,-19.531,0.0,0
1581435149.966,-38.574,6.348,25.391,-13.672,0.0,0
1581435149.97,-50.293,5.371,19.531,-36.621,0.0,0
1581435149.974,-42.968999999999994,0.0,20.02,-31.25,0.0,0
1581435149.978,-40.039,-10.742,25.879,-4.883,0.0,0
1581435149.982,-22.949,-2.93,20.508000000000006,-0.488,0.0,0
1581435149.986,-13.184000000000001,5.371,19.043,-12.695,0.0,0
1581435149.9889998,-19.043,1.953,20.508000000000006,-6.836,0.0,0
1581435149.9929998,-25.879,0.977,22.949,-14.648,0.0,0
1581435149.9970002,-38.574,1.953,22.949,-19.531,0.0,0
1581435150.0010002,-40.527,0.977,22.949,-6.836,0.0,0
1581435150.005,-24.901999999999997,1.465,25.879,-8.789,0.0,0
1581435150.0070002,-23.926,0.0,20.996,-10.742,0.0,0
1581435150.0110002,-21.97300000000001,-2.441,15.137,-10.742,0.0,0
1581435150.015,-11.23,-0.488,18.555,11.719000000000001,0.0,0
1581435150.019,-20.508000000000006,2.93,21.97300000000001,6.836,0.0,0
1581435150.0229998,-34.18,3.906,20.508000000000006,-15.625,0.0,1
1581435150.0270002,-27.344,1.953,19.043,-3.906,0.0,0
1581435150.0310001,-18.066,3.418,20.508000000000006,1.953,0.0,0
1581435150.034,-17.578,6.348,14.648,-21.484,0.0,0
1581435150.0379999,-25.391,4.883,11.23,-37.598,0.0,0
1581435150.042,-33.203,-1.465,18.555,-27.831999999999997,0.0,0
1581435150.046,-23.926,1.953,21.484,-0.488,0.0,0
1581435150.05,-17.578,12.207,18.066,2.441,0.0,0
1581435150.052,-19.043,16.113,10.742,-26.366999999999997,0.0,0
1581435150.056,-26.366999999999997,13.184000000000001,12.695,-25.879,0.0,0
1581435150.06,-37.598,14.648,13.672,-27.344,0.0,0
1581435150.064,-24.414,18.066,8.301,-19.043,0.0,0
1581435150.0679998,-13.672,10.254000000000001,6.348,-10.742,0.0,0
1581435150.072,-25.879,15.137,9.277000000000001,-20.02,0.0,0
1581435150.076,-33.691,20.02,12.695,-9.277000000000001,0.0,0
1581435150.079,-28.32,16.602,12.695,-15.625,0.0,0
1581435150.083,-17.578,15.625,5.859,-11.719000000000001,0.0,0
1581435150.0870001,-22.461,-2.93,0.0,-10.742,0.0,0
1581435150.091,-19.043,3.418,1.465,-14.16,0.0,0
1581435150.095,-4.883,28.32,2.93,-3.418,0.0,0
1581435150.0970001,-5.859,31.25,-0.488,-7.324,0.0,0
1581435150.101,-8.301,35.156,-0.977,-15.625,0.0,0
1581435150.105,-16.602,35.645,-6.348,-33.691,0.0,0
1581435150.109,-24.901999999999997,23.438000000000002,-6.836,-24.414,0.0,0
1581435150.113,-20.508000000000006,21.484,0.0,-5.371,0.0,0
1581435150.117,-15.625,22.461,-3.906,-24.901999999999997,0.0,0
1581435150.121,-14.16,24.414,-1.953,-33.691,0.0,0
1581435150.1239998,-12.207,28.809,-0.977,-16.602,0.0,0
1581435150.1279998,-16.602,24.901999999999997,-4.883,-19.043,0.0,0
1581435150.1320002,-9.277000000000001,21.484,-1.465,-12.207,0.0,0
1581435150.1360002,-9.277000000000001,18.555,-2.93,-20.02,0.0,0
1581435150.14,-18.555,21.484,-7.324,-37.598,0.0,0
1581435150.1420002,-11.719000000000001,33.691,-8.301,-11.23,0.0,0
1581435150.1460001,-1.465,32.715,-8.301,-3.906,0.0,0
1581435150.15,-9.277000000000001,30.273000000000003,-8.789,-24.901999999999997,0.0,0
1581435150.154,-19.043,27.831999999999997,-5.371,-35.156,0.0,0
1581435150.158,-8.301,22.949,-0.488,-17.578,0.0,0
1581435150.1620002,-5.859,14.16,-0.488,-2.93,0.0,0
1581435150.1660001,6.348,16.113,-3.418,-4.395,0.0,0
1581435150.169,15.137,28.32,1.953,-1.953,0.0,0
1581435150.1729999,1.953,24.901999999999997,-0.977,-0.977,0.0,0
1581435150.177,10.254000000000001,19.531,-7.812,12.207,0.0,0
1581435150.181,22.949,28.32,-0.977,24.901999999999997,0.0,0
1581435150.185,13.672,46.875,-9.766,13.184000000000001,0.0,0
1581435150.187,16.602,43.457,-18.555,6.836,0.0,0
1581435150.191,24.414,23.926,-3.906,26.855,0.0,0
1581435150.195,27.344,23.438000000000002,1.953,38.574,0.0,0
1581435150.199,37.598,23.926,-6.348,29.785,0.0,0
1581435150.2029998,50.78100000000001,26.366999999999997,-10.254000000000001,29.296999999999997,0.0,0
1581435150.207,55.176,31.738000000000003,-3.418,54.199,0.0,0
1581435150.211,48.828,18.066,-2.441,56.152,0.0,0
1581435150.214,56.152,12.695,-7.812,47.363,0.0,0
1581435150.218,51.27,19.531,-8.301,49.805,0.0,0
1581435150.2220001,45.41,20.02,-10.254000000000001,49.316,0.0,0
1581435150.226,49.805,16.113,-8.301,47.852,0.0,0
1581435150.23,44.922,15.137,-2.441,32.715,0.0,0
1581435150.248,43.457,11.719000000000001,-0.977,31.738000000000003,0.0,0
1581435150.252,31.738000000000003,9.766,-1.953,41.504,0.0,0
1581435150.256,23.926,14.16,0.0,32.227,0.0,0
1581435150.26,23.926,19.043,-0.977,19.043,0.0,0
1581435150.264,19.043,19.043,-3.418,8.789,0.0,0
1581435150.268,16.602,14.648,2.441,10.742,0.0,0
1581435150.272,2.441,15.137,2.93,5.859,0.0,0
1581435150.275,-3.906,14.16,2.441,4.395,0.0,0
1581435150.279,-2.441,10.254000000000001,4.883,-5.371,0.0,0
1581435150.283,4.883,3.906,6.348,-14.16,0.0,0
1581435150.2870002,4.883,-13.184000000000001,7.812,-4.883,0.0,0
1581435150.2910001,-13.184000000000001,-7.324,8.301,2.441,0.0,0
1581435150.293,-15.137,11.23,11.719000000000001,-3.418,0.0,0
1581435150.2970002,-4.883,20.508000000000006,10.742,-10.742,0.0,0
1581435150.301,-12.695,24.414,9.277000000000001,0.488,0.0,0
1581435150.305,-3.418,33.203,7.812,15.137,0.0,0
1581435150.309,22.949,33.691,4.395,24.414,0.0,0
1581435150.313,20.996,17.09,4.883,24.901999999999997,0.0,0
1581435150.3170002,17.578,11.23,2.93,33.203,0.0,0
1581435150.32,26.855,11.23,-0.488,44.434,0.0,0
1581435150.324,38.086,-0.488,-0.488,46.387,0.0,0
1581435150.3279998,51.27,3.418,-1.953,36.621,0.0,0
1581435150.332,62.5,5.859,-3.906,56.152,0.0,0
1581435150.336,62.988,3.906,-3.418,88.37899999999998,0.0,0
1581435150.3379998,63.477,16.113,-3.906,78.125,0.0,0
1581435150.342,70.801,9.277000000000001,-7.324,68.848,0.0,0
1581435150.346,81.055,-3.906,-7.324,93.262,0.0,0
1581435150.35,88.867,-2.93,-8.301,97.656,0.0,0
1581435150.3539999,86.426,4.395,-5.371,99.609,0.0,0
1581435150.3579998,92.285,9.277000000000001,-2.441,98.145,0.0,0
1581435150.3620002,103.516,4.883,-4.395,94.727,0.0,0
1581435150.365,97.16799999999999,3.418,-6.348,104.00399999999999,0.0,0
1581435150.369,100.586,10.254000000000001,-6.348,103.516,0.0,0
1581435150.373,106.445,9.277000000000001,-13.672,86.914,0.0,0
1581435150.377,98.633,7.324,-18.555,95.215,0.0,0
1581435150.381,103.516,13.184000000000001,-12.695,118.652,0.0,0
1581435150.383,114.74600000000001,10.742,-14.16,107.91,0.0,0
1581435150.387,110.352,-0.488,-12.695,104.00399999999999,0.0,0
1581435150.391,109.375,-0.488,-9.277000000000001,114.258,0.0,0
1581435150.395,108.398,16.602,-14.648,112.305,0.0,0
1581435150.399,107.91,20.02,-16.113,112.305,0.0,0
1581435150.4029999,103.027,15.625,-14.16,106.445,0.0,0
1581435150.407,95.70299999999999,13.672,-15.625,105.95700000000001,0.0,0
1581435150.41,100.586,9.277000000000001,-19.043,96.191,0.0,0
1581435150.414,101.074,7.812,-17.578,91.309,0.0,0
1581435150.418,104.492,13.672,-12.695,115.723,0.0,0
1581435150.4220002,109.375,9.766,-12.695,115.234,0.0,0
1581435150.426,104.98,7.812,-13.672,101.56200000000001,0.0,0
1581435150.428,89.355,6.836,-13.672,110.352,0.0,0
1581435150.4320002,94.238,1.465,-14.16,109.863,0.0,0
1581435150.436,105.95700000000001,5.371,-12.695,103.027,0.0,0
1581435150.44,101.56200000000001,8.789,-11.23,101.56200000000001,0.0,0
1581435150.444,92.773,12.695,-15.625,95.70299999999999,0.0,0
1581435150.448,91.79700000000001,21.484,-19.043,103.027,0.0,0
1581435150.4520001,97.16799999999999,14.16,-10.742,109.375,0.0,0
1581435150.455,91.79700000000001,16.602,-1.953,90.82,0.0,0
1581435150.4589999,84.961,22.949,-3.418,84.961,0.0,0
1581435150.4629998,86.914,19.531,-4.883,96.68,0.0,0
1581435150.467,88.37899999999998,22.461,-5.371,98.145,0.0,0
1581435150.471,85.93799999999996,19.531,-6.836,90.82,0.0,0
1581435150.4729998,83.008,10.742,-8.789,89.355,0.0,0
1581435150.4770002,80.078,14.648,-12.207,89.844,0.0,0
1581435150.481,81.543,15.625,-13.184000000000001,85.449,0.0,0
1581435150.485,81.543,17.09,-8.789,78.125,0.0,0
1581435150.4889998,81.543,27.831999999999997,-3.906,71.777,0.0,0
1581435150.4929998,68.359,14.648,-0.488,75.684,0.0,0
1581435150.4970002,68.359,9.277000000000001,-0.977,84.961,0.0,0
1581435150.5,67.87100000000001,20.996,-3.418,72.266,0.0,0
1581435150.504,63.965,12.695,-5.371,61.523,0.0,0
1581435150.508,63.965,0.488,-6.348,75.195,0.0,0
1581435150.512,59.57,0.0,-0.977,72.75399999999998,0.0,0
1581435150.516,62.012,2.441,3.418,60.059,0.0,0
1581435150.5210001,59.082,4.395,-2.93,54.199,0.0,0
1581435150.525,57.129,12.695,-0.488,62.5,0.0,0
1581435150.529,52.246,22.949,0.488,56.64100000000001,0.0,0
1581435150.533,47.363,21.484,-6.836,50.78100000000001,0.0,0
1581435150.5370002,52.733999999999995,7.812,-2.441,48.828,0.0,0
1581435150.5410001,62.012,5.371,-2.441,53.71100000000001,0.0,0
1581435150.545,49.805,16.113,-2.93,57.129,0.0,0
1581435150.5479999,42.48,12.207,-0.977,37.109,0.0,0
1581435150.552,48.34,4.395,0.0,38.574,0.0,0
1581435150.556,43.945,16.113,1.953,43.945,0.0,0
1581435150.56,38.574,13.184000000000001,-0.488,52.733999999999995,0.0,0
1581435150.564,29.785,-1.953,0.0,54.199,0.0,0
1581435150.563,29.296999999999997,11.719000000000001,2.93,38.574,0.0,0
1581435150.5670002,32.715,21.97300000000001,-0.977,36.621,0.0,0
1581435150.571,26.855,2.93,-3.906,45.41,0.0,0
1581435150.575,20.508000000000006,-3.418,-1.465,46.387,0.0,0
1581435150.579,42.968999999999994,23.438000000000002,1.953,53.223,0.0,0
1581435150.583,59.57,27.344,5.371,47.852,0.0,0
1581435150.5870001,44.922,5.859,2.93,42.48,0.0,0
1581435150.59,41.01600000000001,11.23,3.906,54.688,0.0,0
1581435150.5939999,52.246,20.508000000000006,0.488,47.363,0.0,0
1581435150.5979998,48.34,13.672,-1.465,40.039,0.0,0
1581435150.6020002,41.504,18.066,-1.465,37.109,0.0,0
1581435150.606,37.598,23.926,-0.488,40.039,0.0,0
1581435150.623,27.344,15.625,-3.418,36.133,0.0,0
1581435150.627,30.273000000000003,18.066,0.488,34.18,0.0,0
1581435150.631,40.527,22.949,4.883,30.273000000000003,0.0,0
1581435150.635,34.18,7.324,0.977,37.109,0.0,0
1581435150.639,35.645,9.766,1.465,49.805,0.0,0
1581435150.643,36.621,20.508000000000006,1.465,32.227,0.0,0
1581435150.647,36.621,0.0,-0.488,24.901999999999997,0.0,0
1581435150.65,41.01600000000001,-2.441,-4.395,32.715,0.0,0
1581435150.654,37.109,18.555,-4.395,35.645,0.0,0
1581435150.658,31.738000000000003,13.672,2.93,24.414,0.0,0
1581435150.6620002,29.785,16.113,5.859,15.137,0.0,0
1581435150.6660001,27.831999999999997,16.602,13.184000000000001,30.273000000000003,0.0,0
1581435150.668,21.484,12.207,9.277000000000001,24.414,0.0,0
1581435150.6720002,22.461,16.113,6.836,24.901999999999997,0.0,0
1581435150.676,27.831999999999997,8.789,16.113,40.527,0.0,0
1581435150.68,42.48,12.207,8.301,41.01600000000001,0.0,0
1581435150.684,36.133,19.043,1.953,39.062,0.0,0
1581435150.688,22.461,21.97300000000001,8.301,37.109,0.0,0
1581435150.6920002,27.831999999999997,23.926,3.906,25.391,0.0,0
1581435150.695,21.97300000000001,16.113,2.93,20.02,0.0,0
1581435150.699,12.695,19.531,4.883,20.02,0.0,0
1581435150.7029998,19.043,25.879,-1.953,18.555,0.0,0
1581435150.707,21.484,20.996,-6.348,13.184000000000001,0.0,0
1581435150.711,18.066,17.578,-6.348,1.465,0.0,0
1581435150.7129998,22.461,21.97300000000001,-3.418,20.996,0.0,0
1581435150.717,23.926,36.621,-4.883,31.738000000000003,0.0,0
1581435150.721,24.414,39.062,-9.766,28.809,0.0,0
1581435150.725,27.831999999999997,43.945,-4.395,20.02,0.0,0
1581435150.7289999,31.25,47.852,8.301,20.02,0.0,0
1581435150.7329998,38.574,30.273000000000003,11.719000000000001,30.273000000000003,0.0,0
1581435150.7370002,40.527,24.414,9.766,27.344,0.0,0
1581435150.74,42.968999999999994,27.831999999999997,9.277000000000001,27.344,0.0,0
1581435150.744,42.968999999999994,25.879,13.184000000000001,31.738000000000003,0.0,0
1581435150.748,35.645,30.761999999999997,11.23,32.715,0.0,0
1581435150.752,32.227,34.18,1.465,22.461,0.0,0
1581435150.756,34.668,30.273000000000003,5.371,29.296999999999997,0.0,0
1581435150.758,32.715,19.531,9.277000000000001,37.109,0.0,0
1581435150.762,31.738000000000003,18.555,4.883,27.831999999999997,0.0,0
1581435150.766,36.133,20.508000000000006,4.883,37.598,0.0,0
1581435150.77,41.01600000000001,20.02,6.348,28.809,0.0,0
1581435150.774,40.039,25.879,9.766,10.742,0.0,0
1581435150.7779999,38.574,22.461,2.441,27.831999999999997,0.0,0
1581435150.782,23.438000000000002,5.371,-4.395,37.598,0.0,0
1581435150.785,17.09,11.719000000000001,7.812,18.555,0.0,0
1581435150.789,27.344,31.25,17.09,8.789,0.0,0
1581435150.793,18.555,31.738000000000003,11.23,17.09,0.0,0
1581435150.7970002,21.484,23.926,6.348,29.296999999999997,0.0,0
1581435150.801,12.207,12.207,5.371,25.879,0.0,0
1581435150.803,2.93,14.648,8.301,21.97300000000001,0.0,0
1581435150.8070002,19.531,16.113,9.277000000000001,23.926,0.0,0
1581435150.811,20.508000000000006,11.719000000000001,-0.977,22.949,0.0,0
1581435150.815,21.97300000000001,7.324,-2.441,27.344,0.0,0
1581435150.819,16.602,5.859,6.348,19.043,0.0,0
1581435150.823,16.113,10.742,8.301,13.184000000000001,0.0,0
1581435150.8270001,17.09,16.602,3.906,16.113,0.0,0
1581435150.83,10.742,22.949,2.441,18.555,0.0,0
1581435150.8339999,6.836,13.184000000000001,5.371,13.184000000000001,0.0,0
1581435150.8379998,16.113,6.836,6.836,0.488,0.0,0
1581435150.842,13.184000000000001,10.254000000000001,7.324,10.254000000000001,0.0,0
1581435150.846,7.324,7.812,3.906,21.97300000000001,0.0,0
1581435150.8479998,12.207,22.461,-3.906,12.207,0.0,0
1581435150.8520002,11.719000000000001,26.366999999999997,-3.418,4.883,0.0,0
1581435150.856,5.371,8.301,3.906,4.883,0.0,0
1581435150.86,-0.488,2.441,5.371,8.789,0.0,0
1581435150.8639998,0.488,19.043,2.441,7.812,0.0,0
1581435150.8679998,14.16,27.344,8.301,9.277000000000001,0.0,0
1581435150.8720002,17.578,19.531,12.207,9.277000000000001,0.0,0
1581435150.875,5.371,15.137,7.324,7.812,0.0,0
1581435150.879,0.0,5.371,7.812,15.137,0.0,0
1581435150.883,2.441,8.789,4.395,9.277000000000001,0.0,0
1581435150.887,7.324,13.672,5.371,5.859,0.0,0
1581435150.891,3.906,15.625,7.324,19.043,0.0,0
1581435150.893,-0.488,19.531,2.93,21.484,0.0,0
1581435150.897,-10.254000000000001,12.207,8.301,4.883,0.0,0
1581435150.901,-18.066,5.859,14.648,-4.883,0.0,0
1581435150.905,-11.719000000000001,11.23,11.719000000000001,-2.93,0.0,0
1581435150.909,-17.09,5.859,9.766,6.836,0.0,0
1581435150.9129999,-20.508000000000006,-4.395,10.254000000000001,5.859,0.0,0
1581435150.917,-20.996,0.977,16.113,-15.625,0.0,0
1581435150.92,-16.113,-0.488,25.391,-11.719000000000001,0.0,0
1581435150.924,-26.855,-0.977,22.461,2.93,0.0,0
1581435150.928,-32.715,1.953,14.16,3.906,0.0,0
1581435150.9320002,-25.391,0.0,13.672,-13.672,0.0,0
1581435150.936,-29.296999999999997,-10.742,18.555,-17.578,0.0,0
1581435150.9520001,-18.066,-5.859,24.901999999999997,-2.441,0.0,0
1581435150.956,-8.301,13.184000000000001,23.926,12.695,0.0,0
1581435150.96,-2.441,12.695,17.578,20.508000000000006,0.0,0
1581435150.964,9.766,6.836,13.184000000000001,5.371,0.0,0
1581435150.968,-1.953,0.0,20.02,13.672,0.0,0
1581435150.9720001,3.906,-4.883,20.508000000000006,21.97300000000001,0.0,0
1581435150.976,15.625,1.953,15.137,11.719000000000001,0.0,0
1581435150.9789999,6.836,2.441,13.184000000000001,8.301,0.0,0
1581435150.9829998,10.254000000000001,6.348,10.254000000000001,11.23,0.0,0
1581435150.9870002,7.324,5.371,9.277000000000001,13.672,0.0,0
1581435150.9910002,-3.418,5.371,12.207,16.602,0.0,0
1581435150.995,7.324,17.578,10.254000000000001,13.184000000000001,0.0,0
1581435150.9970002,26.855,22.461,8.301,10.742,0.0,0
1581435151.0010002,21.484,18.555,10.254000000000001,27.344,0.0,0
1581435151.005,8.301,14.16,16.113,25.391,0.0,0
1581435151.0089998,17.09,14.16,16.113,12.695,0.0,0
1581435151.0129998,12.207,17.578,12.207,14.16,0.0,0
1581435151.0170002,10.254000000000001,7.812,17.09,31.738000000000003,0.0,0
1581435151.0210001,17.09,-7.812,15.625,31.738000000000003,0.0,0
1581435151.024,20.508000000000006,8.301,7.812,23.926,0.0,0
1581435151.0279999,26.366999999999997,15.137,8.301,25.391,0.0,0
1581435151.032,20.02,10.254000000000001,7.324,13.672,0.0,0
1581435151.036,8.301,13.184000000000001,4.395,20.02,0.0,0
1581435151.04,20.02,11.719000000000001,10.254000000000001,28.32,0.0,0
1581435151.042,29.785,10.254000000000001,14.648,25.391,0.0,0
1581435151.046,27.344,17.09,7.812,20.996,0.0,0
1581435151.05,22.949,10.254000000000001,11.23,35.645,0.0,0
1581435151.054,17.09,0.977,15.625,40.527,0.0,0
1581435151.0579998,21.484,7.812,13.672,25.879,0.0,0
1581435151.062,19.531,11.23,14.648,25.879,0.0,0
1581435151.066,20.996,15.137,9.766,36.621,0.0,0
1581435151.069,19.043,21.97300000000001,5.371,40.039,0.0,0
1581435151.073,20.02,21.484,7.812,21.97300000000001,0.0,0
1581435151.0770001,28.32,21.484,7.324,15.625,0.0,1
1581435151.081,22.949,19.531,6.348,32.227,0.0,0
1581435151.085,17.578,14.16,9.766,35.156,0.0,0
1581435151.0870001,16.113,16.602,10.742,23.926,0.0,0
1581435151.091,19.043,13.672,10.254000000000001,23.438000000000002,0.0,0
1581435151.095,16.602,12.695,11.23,24.414,0.0,0
1581435151.099,20.508000000000006,14.648,18.066,34.18,0.0,0
1581435151.103,16.602,18.555,11.23,30.273000000000003,0.0,0
1581435151.107,10.742,11.23,8.789,22.461,0.0,0
1581435151.111,14.648,1.953,8.789,26.366999999999997,0.0,0
1581435151.1139998,23.438000000000002,11.719000000000001,10.254000000000001,30.761999999999997,0.0,0
1581435151.1179998,17.578,2.441,10.742,23.438000000000002,0.0,0
1581435151.1220002,5.371,1.465,6.348,13.672,0.0,0
1581435151.1260002,8.789,21.484,11.719000000000001,21.484,0.0,0
1581435151.13,4.883,26.855,12.695,23.438000000000002,0.0,0
1581435151.1320002,6.348,20.02,10.742,22.949,0.0,0
1581435151.1360002,15.137,11.719000000000001,9.277000000000001,20.996,0.0,0
1581435151.14,14.648,1.953,10.254000000000001,23.438000000000002,0.0,0
1581435151.144,7.812,9.277000000000001,8.301,23.926,0.0,0
1581435151.1479998,7.324,17.578,4.395,25.879,0.0,0
1581435151.1520002,14.648,7.812,9.277000000000001,23.926,0.0,0
1581435151.1560001,17.578,11.719000000000001,8.301,14.648,0.0,0
1581435151.159,16.113,13.672,3.906,15.137,0.0,0
1581435151.1629999,15.137,8.301,9.277000000000001,30.273000000000003,0.0,0
1581435151.167,10.254000000000001,18.066,9.766,30.273000000000003,0.0,0
1581435151.171,9.277000000000001,18.066,6.836,5.371,0.0,0
1581435151.175,5.371,18.555,5.371,7.324,0.0,0
1581435151.177,4.883,26.366999999999997,4.883,19.531,0.0,0
1581435151.181,2.441,22.949,3.906,21.484,0.0,0
1581435151.185,4.395,12.207,0.0,19.043,0.0,0
1581435151.189,11.23,17.578,4.395,15.137,0.0,0
1581435151.1929998,17.09,18.066,9.277000000000001,19.531,0.0,0
1581435151.197,28.32,15.137,3.906,25.391,0.0,0
1581435151.201,16.113,13.184000000000001,7.324,21.484,0.0,0
1581435151.204,16.113,8.789,16.113,10.742,0.0,0
1581435151.208,13.184000000000001,12.207,18.555,19.531,0.0,0
1581435151.2120001,8.789,18.066,10.742,26.855,0.0,0
1581435151.216,20.508000000000006,16.113,2.93,15.625,0.0,0
1581435151.22,5.859,8.789,7.324,11.23,0.0,0
1581435151.2370002,-0.488,14.16,4.883,11.23,0.0,0
1581435151.2410002,15.137,11.719000000000001,0.488,21.97300000000001,0.0,0
1581435151.245,12.695,5.371,6.836,25.879,0.0,0
1581435151.2489998,11.719000000000001,0.488,5.859,20.02,0.0,0
1581435151.2529998,19.531,11.719000000000001,2.441,16.602,0.0,0
1581435151.2570002,17.09,24.901999999999997,7.324,27.344,0.0,0
1581435151.2610002,18.066,21.484,8.301,23.926,0.0,0
1581435151.264,30.761999999999997,27.344,7.812,6.836,0.0,0
1581435151.268,19.531,25.391,4.395,12.695,0.0,0
1581435151.272,10.254000000000001,9.766,-0.488,13.672,0.0,0
1581435151.276,19.531,2.93,7.324,13.184000000000001,0.0,0
1581435151.28,24.414,6.348,11.23,22.461,0.0,0
1581435151.268,20.508000000000006,9.277000000000001,4.883,21.97300000000001,0.0,0
1581435151.272,18.066,10.254000000000001,5.371,27.344,0.0,0
1581435151.276,16.602,19.531,9.277000000000001,32.227,0.0,0
1581435151.28,16.602,21.97300000000001,7.324,26.366999999999997,0.0,0
1581435151.284,21.484,19.043,8.301,22.949,0.0,0
1581435151.2879999,22.949,22.461,11.23,20.996,0.0,0
1581435151.292,8.789,16.113,5.371,20.996,0.0,0
1581435151.295,3.906,-2.93,6.836,27.344,0.0,0
1581435151.299,18.555,-4.395,5.371,17.578,0.0,0
1581435151.303,25.391,7.812,-1.953,19.531,0.0,0
1581435151.3070002,18.555,9.766,5.859,29.296999999999997,0.0,0
1581435151.311,18.555,14.648,18.555,25.391,0.0,0
1581435151.3279998,22.461,23.926,17.578,30.761999999999997,0.0,0
1581435151.332,19.043,22.949,11.23,27.344,0.0,0
1581435151.336,19.531,13.672,12.207,32.715,0.0,0
1581435151.34,25.391,21.97300000000001,14.648,41.504,0.0,0
1581435151.3439999,22.949,20.996,12.207,25.879,0.0,0
1581435151.3479998,21.484,5.371,9.277000000000001,18.555,0.0,0
1581435151.3520002,30.273000000000003,3.906,8.789,31.25,0.0,0
1581435151.355,26.366999999999997,13.672,6.348,36.621,0.0,0
1581435151.359,10.254000000000001,14.16,5.859,33.203,0.0,0
1581435151.363,10.254000000000001,2.93,14.648,32.227,0.0,0
1581435151.367,31.738000000000003,8.301,15.137,42.968999999999994,0.0,0
1581435151.371,30.761999999999997,14.648,13.184000000000001,49.316,0.0,0
1581435151.373,33.691,9.277000000000001,15.137,41.01600000000001,0.0,0
1581435151.377,41.504,5.859,15.137,43.945,0.0,0
1581435151.381,34.18,-4.883,15.625,47.852,0.0,0
1581435151.385,34.18,13.184000000000001,12.695,42.968999999999994,0.0,0
1581435151.389,28.809,20.02,13.672,41.992,0.0,0
1581435151.393,27.831999999999997,6.836,13.672,40.039,0.0,0
1581435151.397,30.273000000000003,-1.465,8.301,28.32,0.0,0
1581435151.4,25.879,-0.977,15.137,39.062,0.0,0
1581435151.404,17.578,12.695,22.949,46.387,0.0,0
1581435151.408,30.761999999999997,5.859,19.531,16.113,0.0,0
1581435151.4120002,40.527,3.906,17.578,17.09,0.0,0
1581435151.4160001,29.785,8.301,17.578,49.805,0.0,0
1581435151.418,21.97300000000001,19.043,18.555,50.78100000000001,0.0,0
1581435151.4220002,26.855,20.02,14.16,42.968999999999994,0.0,0
1581435151.426,27.831999999999997,7.324,5.859,28.32,0.0,0
1581435151.43,18.066,7.324,12.695,30.273000000000003,0.0,0
1581435151.434,19.043,10.742,23.438000000000002,39.062,0.0,0
1581435151.438,17.09,14.16,24.901999999999997,32.227,0.0,0
1581435151.4420002,8.301,10.254000000000001,23.438000000000002,19.531,0.0,0
1581435151.445,13.672,7.324,17.578,8.789,0.0,0
1581435151.449,24.414,5.371,12.695,14.648,0.0,0
1581435151.4529998,25.879,-2.441,8.789,25.879,0.0,0
1581435151.457,19.531,3.906,13.184000000000001,17.09,0.0,0
1581435151.461,17.578,14.16,14.16,16.602,0.0,0
1581435151.4629998,24.414,23.926,6.348,18.555,0.0,0
1581435151.467,21.484,22.461,5.371,21.484,0.0,0
1581435151.471,21.484,16.602,10.254000000000001,34.668,0.0,0
1581435151.475,23.926,10.742,14.648,30.273000000000003,0.0,0
1581435151.4789999,20.508000000000006,8.301,13.672,23.926,0.0,0
1581435151.4829998,22.949,12.207,12.695,24.901999999999997,0.0,0
1581435151.4870002,24.414,6.836,13.184000000000001,25.879,0.0,0
1581435151.49,24.414,8.301,14.648,27.831999999999997,0.0,0
1581435151.494,23.926,18.066,9.766,21.97300000000001,0.0,0
1581435151.498,18.555,20.508000000000006,11.719000000000001,30.273000000000003,0.0,0
1581435151.502,20.508000000000006,21.97300000000001,16.113,36.133,0.0,0
1581435151.506,20.996,7.324,16.113,31.25,0.0,0
1581435151.508,21.484,-8.301,11.23,36.621,0.0,0
1581435151.512,16.113,3.906,5.371,36.133,0.0,0
1581435151.516,11.23,19.043,9.766,40.039,0.0,0
1581435151.52,24.414,23.438000000000002,7.324,28.809,0.0,0
1581435151.524,30.273000000000003,24.414,2.441,16.602,0.0,0
1581435151.5279999,21.97300000000001,20.02,-2.93,28.809,0.0,0
1581435151.532,13.184000000000001,9.277000000000001,2.441,34.18,0.0,0
1581435151.535,22.461,9.277000000000001,6.836,20.02,0.0,0
1581435151.539,10.742,10.742,1.465,5.371,0.0,0
1581435151.543,0.977,8.301,2.441,11.719000000000001,0.0,0
1581435151.5470002,20.02,20.02,6.836,27.831999999999997,0.0,0
1581435151.551,18.555,17.09,5.859,17.578,0.0,0
1581435151.553,14.648,6.348,0.488,14.16,0.0,0
1581435151.5570002,13.672,9.277000000000001,4.883,23.926,0.0,0
1581435151.561,22.461,17.578,2.93,31.25,0.0,0
1581435151.565,16.602,21.97300000000001,0.488,32.227,0.0,0
1581435151.569,7.812,17.578,12.695,25.391,0.0,0
1581435151.573,16.113,21.97300000000001,17.09,25.391,0.0,0
1581435151.5770001,13.672,18.066,10.254000000000001,24.414,0.0,0
1581435151.58,8.301,14.648,9.277000000000001,16.602,0.0,0
1581435151.5839999,13.672,22.461,3.418,17.578,0.0,0
1581435151.5879998,17.578,14.16,4.395,26.855,0.0,0
1581435151.592,15.137,4.395,10.742,37.598,0.0,0
1581435151.596,19.531,17.09,8.789,39.062,0.0,0
1581435151.5979998,23.926,18.066,6.836,30.273000000000003,0.0,0
1581435151.6020002,28.32,10.742,8.301,30.273000000000003,0.0,0
1581435151.606,27.344,16.113,10.254000000000001,36.133,0.0,0
1581435151.61,19.531,23.438000000000002,13.184000000000001,41.01600000000001,0.0,0
1581435151.6139998,20.508000000000006,25.879,14.16,39.551,0.0,0
1581435151.6179998,27.831999999999997,12.695,5.371,27.344,0.0,0
1581435151.6220002,23.926,10.254000000000001,4.883,13.672,0.0,0
1581435151.625,15.625,30.761999999999997,1.465,13.672,0.0,0
1581435151.629,10.254000000000001,30.761999999999997,-4.883,14.648,0.0,0
1581435151.633,6.836,13.672,0.977,15.625,0.0,0
1581435151.637,10.254000000000001,9.766,5.371,15.137,0.0,0
1581435151.641,13.184000000000001,15.137,6.348,15.137,0.0,0
1581435151.643,5.859,16.602,5.371,25.391,0.0,0
1581435151.647,5.371,16.113,6.348,20.508000000000006,0.0,0
1581435151.651,9.766,10.742,2.93,10.254000000000001,0.0,0
1581435151.655,11.23,3.418,4.883,11.719000000000001,0.0,0
1581435151.659,16.602,2.441,11.719000000000001,25.391,0.0,0
1581435151.6629999,14.16,11.719000000000001,12.207,26.855,0.0,0
1581435151.667,12.207,20.02,11.719000000000001,7.812,0.0,0
1581435151.67,12.695,17.578,3.906,0.0,0.0,0
1581435151.674,2.93,15.137,1.465,26.855,0.0,0
1581435151.678,9.766,7.324,5.859,26.855,0.0,0
1581435151.6820002,15.625,0.977,8.301,11.23,0.0,0
1581435151.686,24.414,13.672,8.789,18.555,0.0,0
1581435151.7029998,24.414,15.137,6.348,28.809,0.0,0
1581435151.707,14.648,12.695,11.23,37.598,0.0,0
1581435151.711,23.438000000000002,19.531,10.742,32.715,0.0,0
1581435151.715,27.831999999999997,20.02,6.348,21.97300000000001,0.0,0
1581435151.7189999,23.926,10.742,9.277000000000001,31.25,0.0,0
1581435151.7229998,30.761999999999997,10.254000000000001,7.812,39.062,0.0,0
1581435151.7270002,29.296999999999997,13.672,3.418,30.761999999999997,0.0,0
1581435151.73,26.366999999999997,13.184000000000001,9.766,30.761999999999997,0.0,0
1581435151.734,29.296999999999997,8.789,15.137,32.715,0.0,0
1581435151.738,25.391,11.23,8.301,36.621,0.0,0
1581435151.742,20.996,15.625,7.324,33.691,0.0,0
1581435151.746,19.043,13.672,3.906,20.508000000000006,0.0,0
1581435151.748,10.254000000000001,11.23,-2.93,13.184000000000001,0.0,0
1581435151.752,0.0,3.906,4.883,16.113,0.0,0
1581435151.756,0.977,11.719000000000001,7.324,16.602,0.0,0
1581435151.76,14.16,27.344,-3.906,8.301,0.0,0
1581435151.764,8.301,17.09,-2.441,12.695,0.0,0
1581435151.768,3.906,5.859,5.859,23.926,0.0,0
1581435151.772,16.113,16.113,6.836,25.391,0.0,0
1581435151.775,15.137,7.324,6.836,17.578,0.0,0
1581435151.779,9.766,-0.488,4.395,9.766,0.0,0
1581435151.783,11.719000000000001,12.207,4.395,9.277000000000001,0.0,0
1581435151.7870002,16.113,8.789,0.977,7.324,0.0,0
1581435151.7910001,16.602,4.883,-0.488,20.996,0.0,0
1581435151.793,21.97300000000001,12.207,3.906,23.926,0.0,0
1581435151.7970002,28.809,14.648,1.953,28.809,0.0,0
1581435151.801,26.855,17.09,-1.465,40.039,0.0,0
1581435151.805,26.855,21.97300000000001,2.93,32.227,0.0,0
1581435151.809,28.809,10.742,6.836,20.508000000000006,0.0,0
1581435151.813,18.555,5.371,5.859,19.531,0.0,0
1581435151.8170002,10.742,9.277000000000001,1.465,26.366999999999997,0.0,0
1581435151.82,22.949,11.719000000000001,-0.488,33.203,0.0,0
1581435151.824,26.855,7.812,7.812,26.366999999999997,0.0,0
1581435151.8279998,10.254000000000001,1.465,5.859,6.348,0.0,0
1581435151.832,6.348,4.395,3.418,19.531,0.0,0
1581435151.836,15.137,20.996,2.93,23.438000000000002,0.0,0
1581435151.8379998,12.207,22.461,2.441,8.301,0.0,0
1581435151.842,5.859,17.578,2.93,-1.953,0.0,0
1581435151.846,7.812,19.043,-2.441,6.836,0.0,0
1581435151.85,21.97300000000001,12.695,-1.953,17.09,0.0,0
1581435151.8539999,27.344,19.043,-3.418,6.836,0.0,0
1581435151.8579998,4.395,18.066,1.465,11.719000000000001,0.0,0
1581435151.8620002,4.883,8.789,5.859,21.484,0.0,0
1581435151.865,19.043,9.766,3.418,21.97300000000001,0.0,0
1581435151.869,15.137,17.578,0.0,18.555,0.0,0
1581435151.873,23.926,22.949,0.0,9.277000000000001,0.0,0
1581435151.877,20.996,14.648,4.883,16.602,0.0,0
1581435151.881,17.578,17.09,3.906,30.273000000000003,0.0,0
1581435151.883,14.648,19.043,5.859,41.01600000000001,0.0,0
1581435151.887,18.555,16.113,0.0,26.366999999999997,0.0,0
1581435151.891,26.855,12.207,0.977,11.23,0.0,0
1581435151.895,27.344,11.23,4.395,24.414,0.0,0
1581435151.899,21.484,9.277000000000001,-0.977,33.203,0.0,0
1581435151.9029999,16.113,1.953,1.465,31.738000000000003,0.0,0
1581435151.907,18.066,11.719000000000001,1.465,26.855,0.0,0
1581435151.91,20.508000000000006,20.508000000000006,1.465,23.926,0.0,0
1581435151.914,25.391,12.207,4.883,26.855,0.0,0
1581435151.918,22.949,15.625,7.812,35.156,0.0,0
1581435151.9220002,14.16,18.555,11.23,27.831999999999997,0.0,0
1581435151.926,16.113,18.555,8.789,23.926,0.0,0
1581435151.927,21.97300000000001,22.461,5.371,23.438000000000002,0.0,0
1581435151.931,21.484,13.672,6.836,22.461,0.0,0
1581435151.935,19.043,16.602,0.488,4.883,0.0,0
1581435151.939,19.043,18.555,-6.836,1.465,0.0,0
1581435151.9429998,7.812,9.766,3.418,19.531,0.0,0
1581435151.947,1.465,7.812,5.859,20.02,0.0,0
1581435151.951,15.137,12.207,4.883,13.672,0.0,0
1581435151.954,19.531,11.719000000000001,8.789,5.371,0.0,0
1581435151.958,15.625,-4.395,6.836,3.418,0.0,0
1581435151.9620001,15.137,-4.395,6.348,12.695,0.0,0
1581435151.966,15.625,11.719000000000001,2.441,14.648,0.0,0
1581435151.97,10.742,17.578,3.418,8.301,0.0,0
1581435151.9720001,12.695,21.97300000000001,3.906,5.859,0.0,0
1581435151.976,12.695,27.831999999999997,-2.441,14.648,0.0,0
1581435151.98,13.184000000000001,25.391,2.441,18.066,0.0,0
1581435151.984,17.09,22.949,1.953,8.301,0.0,0
1581435151.988,13.184000000000001,17.578,-1.465,10.254000000000001,0.0,0
1581435151.992,21.97300000000001,16.602,0.977,20.996,0.0,0
1581435151.996,24.414,13.672,0.977,20.02,0.0,0
1581435151.9989998,22.949,13.672,-0.977,15.625,0.0,0
1581435152.0029998,29.785,21.97300000000001,1.953,16.113,0.0,0
1581435152.0070002,23.926,15.137,5.371,27.344,0.0,0
1581435152.0110002,20.508000000000006,5.859,1.953,35.156,0.0,0
1581435152.015,23.438000000000002,14.16,-0.977,27.344,0.0,0
1581435152.0170002,27.831999999999997,11.719000000000001,0.977,13.672,0.0,0
1581435152.0210001,29.785,2.441,0.0,18.555,0.0,0
1581435152.025,21.97300000000001,15.625,-3.418,24.901999999999997,0.0,0
1581435152.029,19.531,26.855,-1.953,21.484,0.0,0
1581435152.033,24.414,27.831999999999997,5.859,24.901999999999997,0.0,0
1581435152.0370002,20.02,21.97300000000001,5.371,23.438000000000002,0.0,0
1581435152.0410001,16.602,20.996,3.906,15.625,0.0,0
1581435152.044,15.137,18.066,7.324,4.883,0.0,0
1581435152.0479999,19.531,11.719000000000001,5.859,13.672,0.0,0
1581435152.052,21.97300000000001,6.836,-1.465,31.738000000000003,0.0,0
1581435152.056,14.648,8.301,-0.977,27.831999999999997,0.0,0
1581435152.06,13.672,9.766,3.906,17.09,0.0,0
1581435152.0770001,17.578,5.371,0.977,19.531,0.0,0
1581435152.081,26.855,5.859,-0.488,17.578,0.0,0
1581435152.085,15.625,9.766,0.977,15.625,0.0,0
1581435152.089,8.301,12.695,-0.977,18.555,0.0,0
1581435152.093,15.137,7.812,0.488,15.625,0.0,0
1581435152.0970001,11.23,11.23,4.395,20.996,0.0,2
1581435152.101,-0.488,5.371,9.766,18.066,0.0,0
1581435152.1039999,-1.953,-0.977,5.371,26.366999999999997,0.0,0
1581435152.1079998,16.602,12.695,1.465,30.273000000000003,0.0,0
1581435152.1120002,16.602,15.137,5.371,19.531,0.0,0
1581435152.1160002,16.113,4.883,9.277000000000001,28.32,0.0,0
1581435152.12,20.02,1.465,12.207,31.738000000000003,0.0,0
1581435152.1220002,25.391,10.254000000000001,4.395,27.344,0.0,0
1581435152.1260002,26.855,17.578,-1.953,22.461,0.0,0
1581435152.13,20.02,19.531,2.441,15.625,0.0,0
1581435152.1339998,17.578,20.996,4.395,29.296999999999997,0.0,0
1581435152.1379998,15.625,11.719000000000001,3.418,31.25,0.0,0
1581435152.1420002,16.602,11.719000000000001,6.836,22.461,0.0,0
1581435152.1460001,16.602,13.184000000000001,3.418,18.066,0.0,0
1581435152.149,21.484,9.277000000000001,-3.418,23.438000000000002,0.0,0
1581435152.1529999,23.926,19.043,-0.977,29.785,0.0,0
1581435152.157,20.508000000000006,23.926,4.883,23.926,0.0,0
1581435152.161,18.066,21.484,8.301,17.578,0.0,0
1581435152.165,22.461,15.137,5.371,13.672,0.0,0
1581435152.167,21.484,14.16,7.812,36.133,0.0,0
1581435152.171,24.901999999999997,13.672,13.672,40.527,0.0,0
1581435152.175,26.855,4.883,8.301,25.879,0.0,0
1581435152.179,25.879,4.883,1.465,32.715,0.0,0
1581435152.1829998,31.738000000000003,13.672,3.418,31.25,0.0,0
1581435152.187,24.901999999999997,25.391,3.418,28.32,0.0,0
1581435152.191,24.901999999999997,28.32,3.906,22.461,0.0,0
1581435152.194,28.32,22.949,-0.977,16.113,0.0,0
1581435152.198,25.391,17.09,-4.883,24.414,0.0,0
1581435152.2020001,23.926,14.16,4.395,26.366999999999997,0.0,0
1581435152.206,20.996,9.766,7.324,23.438000000000002,0.0,0
1581435152.21,19.531,6.836,-2.441,11.23,0.0,0
1581435152.2120001,16.113,19.531,-1.953,15.625,0.0,0
1581435152.216,10.742,24.901999999999997,1.953,24.414,0.0,0
1581435152.22,14.648,15.137,1.465,16.113,0.0,0
1581435152.224,18.066,9.766,3.906,10.254000000000001,0.0,0
1581435152.228,17.578,17.09,3.906,19.043,0.0,0
1581435152.232,19.531,19.531,5.859,33.691,0.0,0
1581435152.236,21.484,16.602,6.836,35.156,0.0,0
1581435152.2389998,13.184000000000001,14.648,1.953,23.926,0.0,0
1581435152.2429998,6.348,14.648,2.93,8.301,0.0,0
1581435152.2470002,6.836,12.207,4.395,10.742,0.0,0
1581435152.2510002,7.812,1.465,-3.906,15.137,0.0,0
1581435152.255,10.742,14.648,-8.301,5.859,0.0,0
1581435152.258,7.812,29.785,5.371,6.348,0.0,0
1581435152.262,14.16,20.02,11.23,24.901999999999997,0.0,0
1581435152.266,12.207,8.301,3.906,26.366999999999997,0.0,0
1581435152.27,15.625,13.672,0.488,11.23,0.0,0
1581435152.274,31.25,29.785,0.0,15.625,0.0,0
1581435152.2779999,20.996,27.831999999999997,6.348,28.32,0.0,0
1581435152.282,14.16,4.395,11.719000000000001,33.691,0.0,0
1581435152.285,31.738000000000003,-2.93,11.719000000000001,40.527,0.0,0
1581435152.289,24.901999999999997,11.719000000000001,13.672,23.926,0.0,0
1581435152.293,5.371,17.578,9.766,4.883,0.0,0
1581435152.2970002,-1.465,20.508000000000006,-1.465,13.184000000000001,0.0,0
1581435152.301,-0.977,15.625,2.441,2.93,0.0,0
1581435152.303,1.465,8.789,1.953,-4.395,0.0,0
1581435152.3070002,-12.207,14.648,3.418,1.953,0.0,0
1581435152.311,-14.16,8.789,12.695,-0.488,0.0,0
1581435152.315,-12.695,2.93,10.742,-1.953,0.0,0
1581435152.319,-15.625,5.859,11.719000000000001,-3.906,0.0,0
1581435152.323,-6.836,13.672,10.742,-7.812,0.0,0
1581435152.3270001,-1.465,7.324,9.277000000000001,7.812,0.0,0
1581435152.33,-1.953,-0.488,6.836,11.23,0.0,0
1581435152.3339999,4.395,7.812,3.906,11.719000000000001,0.0,0
1581435152.3379998,11.23,14.16,5.371,14.648,0.0,0
1581435152.342,12.207,16.602,10.254000000000001,16.113,0.0,0
1581435152.346,14.16,18.066,11.719000000000001,21.484,0.0,0
1581435152.3479998,12.695,17.578,8.301,22.461,0.0,0
1581435152.3520002,10.742,6.348,6.836,25.879,0.0,0
1581435152.356,17.578,-7.324,12.207,19.043,0.0,0
1581435152.36,22.949,2.93,14.16,24.901999999999997,0.0,0
1581435152.3639998,20.996,22.949,10.254000000000001,37.109,0.0,0
1581435152.3679998,23.926,11.719000000000001,8.301,21.97300000000001,0.0,0
1581435152.3720002,25.879,5.859,12.695,23.926,0.0,0
1581435152.375,20.508000000000006,17.578,15.137,24.414,0.0,0
1581435152.379,21.484,19.531,10.254000000000001,15.625,0.0,0
1581435152.383,16.113,16.113,7.812,15.137,0.0,0
1581435152.387,12.695,12.207,8.301,26.855,0.0,0
1581435152.391,24.901999999999997,19.043,9.277000000000001,46.387,0.0,0
1581435152.393,23.926,19.531,7.324,46.875,0.0,0
1581435152.397,16.113,3.418,3.906,23.926,0.0,0
1581435152.401,17.578,16.113,4.883,24.414,0.0,0
1581435152.405,11.719000000000001,20.02,7.812,38.086,0.0,0
1581435152.409,9.277000000000001,19.043,8.789,27.344,0.0,0
1581435152.4129999,16.113,18.555,9.766,27.831999999999997,0.0,0
1581435152.417,20.02,16.113,13.184000000000001,10.742,0.0,0
1581435152.42,15.137,24.901999999999997,12.207,3.418,0.0,0
1581435152.424,6.836,19.043,8.301,18.555,0.0,0
1581435152.428,7.812,17.09,4.395,9.277000000000001,0.0,0
1581435152.4320002,21.97300000000001,15.625,4.883,8.301,0.0,0
1581435152.436,17.09,0.0,8.301,22.461,0.0,0
1581435152.4529998,14.648,-0.488,2.93,24.901999999999997,0.0,0
1581435152.457,20.996,11.23,-0.488,27.344,0.0,0
1581435152.461,16.113,11.719000000000001,3.418,14.648,0.0,0
1581435152.465,11.719000000000001,9.766,13.184000000000001,3.418,0.0,0
1581435152.4689999,14.16,21.97300000000001,10.742,14.16,0.0,0
1581435152.4729998,19.043,18.555,7.324,19.531,0.0,0
1581435152.4770002,14.648,12.695,9.277000000000001,10.742,0.0,0
1581435152.48,11.23,11.719000000000001,7.812,8.301,0.0,0
1581435152.484,22.461,11.23,7.812,10.742,0.0,0
1581435152.488,17.578,13.672,10.254000000000001,17.578,0.0,0
1581435152.492,18.066,8.301,13.672,24.414,0.0,0
1581435152.496,28.809,9.277000000000001,7.812,13.184000000000001,0.0,0
1581435152.498,19.043,12.207,0.488,14.16,0.0,0
1581435152.502,11.23,17.578,3.906,23.926,0.0,0
1581435152.506,11.23,20.508000000000006,9.766,15.137,0.0,0
1581435152.51,7.324,22.461,6.836,4.883,0.0,0
1581435152.514,4.395,21.484,7.812,2.441,0.0,0
1581435152.518,4.883,23.926,11.719000000000001,9.277000000000001,0.0,0
1581435152.522,7.812,18.555,11.23,12.695,0.0,0
1581435152.525,11.23,-1.465,8.301,7.812,0.0,0
1581435152.529,10.742,3.906,0.0,5.371,0.0,0
1581435152.533,10.254000000000001,14.16,-0.977,4.883,0.0,0
1581435152.5370002,9.766,7.812,4.883,3.906,0.0,0
1581435152.5410001,12.207,16.602,6.836,10.742,0.0,0
1581435152.543,22.461,19.531,11.719000000000001,27.831999999999997,0.0,0
1581435152.5470002,20.02,13.184000000000001,13.672,22.949,0.0,0
1581435152.551,16.602,15.137,7.812,17.578,0.0,0
1581435152.555,20.508000000000006,13.184000000000001,4.883,33.691,0.0,0
1581435152.559,23.438000000000002,10.742,9.766,32.227,0.0,0
1581435152.563,20.996,25.879,9.766,23.438000000000002,0.0,0
1581435152.5670002,12.695,20.508000000000006,12.695,25.879,0.0,0
1581435152.57,18.066,12.207,14.648,32.715,0.0,0
1581435152.574,16.602,22.949,11.23,14.648,0.0,0
1581435152.5779998,13.672,24.414,8.789,-10.254000000000001,0.0,0
1581435152.582,6.348,17.09,3.418,9.766,0.0,0
1581435152.586,-6.348,10.742,4.395,15.137,0.0,0
1581435152.5879998,-5.859,1.465,9.766,2.93,0.0,0
1581435152.592,3.906,8.301,5.859,6.348,0.0,0
1581435152.596,7.324,17.578,-0.977,20.996,0.0,0
1581435152.6,2.93,14.16,1.953,20.996,0.0,0
1581435152.6039999,4.883,18.555,8.301,19.043,0.0,0
1581435152.6079998,5.371,15.625,10.742,17.09,0.0,0
1581435152.6120002,5.371,8.301,12.207,11.23,0.0,0
1581435152.615,9.277000000000001,1.465,11.719000000000001,29.296999999999997,0.0,0
1581435152.619,12.695,10.742,11.719000000000001,23.926,0.0,0
1581435152.623,17.578,22.461,11.23,11.719000000000001,0.0,0
1581435152.627,24.414,31.738000000000003,7.812,17.578,0.0,0
1581435152.631,27.344,39.551,6.348,34.18,0.0,0
1581435152.633,28.32,27.831999999999997,8.789,48.34,0.0,0
1581435152.637,25.391,15.137,9.766,33.691,0.0,0
1581435152.641,22.461,18.555,11.23,30.273000000000003,0.0,0
1581435152.645,18.555,19.043,8.301,27.344,0.0,0
1581435152.649,22.949,10.742,8.301,40.039,0.0,0
1581435152.6529999,29.296999999999997,0.488,12.695,48.828,0.0,0
1581435152.657,28.809,11.23,10.254000000000001,39.551,0.0,0
1581435152.66,29.785,33.203,6.348,40.527,0.0,0
1581435152.664,17.09,24.414,11.23,40.527,0.0,0
1581435152.668,14.648,5.371,18.555,37.109,0.0,0
1581435152.6720002,19.531,7.812,12.695,29.296999999999997,0.0,0
1581435152.676,20.996,20.508000000000006,1.465,30.273000000000003,0.0,0
1581435152.678,18.066,13.672,8.301,47.852,0.0,0
1581435152.6820002,13.184000000000001,-3.906,10.742,43.457,0.0,0
1581435152.686,15.625,3.906,7.812,18.066,0.0,0
1581435152.69,24.414,19.531,5.859,13.184000000000001,0.0,0
1581435152.694,27.344,14.648,7.812,37.598,0.0,0
1581435152.698,23.926,9.766,11.719000000000001,46.387,0.0,0
1581435152.7020001,29.785,20.996,9.277000000000001,38.086,0.0,0
1581435152.705,35.645,24.414,3.418,29.296999999999997,0.0,0
1581435152.7089999,35.156,18.066,0.977,23.438000000000002,0.0,0
1581435152.7129998,30.761999999999997,12.695,5.371,40.039,0.0,0
1581435152.717,30.273000000000003,17.09,5.859,41.992,0.0,0
1581435152.721,31.25,20.02,5.371,29.785,0.0,0
1581435152.7229998,27.831999999999997,5.371,6.836,28.32,0.0,0
1581435152.7270002,29.296999999999997,13.184000000000001,4.395,35.156,0.0,0
1581435152.731,29.296999999999997,25.879,6.836,26.855,0.0,0
1581435152.735,26.366999999999997,21.97300000000001,4.883,27.831999999999997,0.0,0
1581435152.7389998,27.831999999999997,21.97300000000001,0.0,25.879,0.0,0
1581435152.7429998,23.926,19.043,4.883,27.344,0.0,0
1581435152.7470002,17.578,7.812,11.719000000000001,37.598,0.0,0
1581435152.75,14.648,15.625,6.348,10.254000000000001,0.0,0
1581435152.754,19.043,12.695,2.93,5.371,0.0,0
1581435152.758,18.066,4.395,4.883,14.16,0.0,0
1581435152.762,17.09,14.16,7.324,15.137,0.0,0
1581435152.766,9.766,21.97300000000001,13.184000000000001,17.09,0.0,0
1581435152.768,10.254000000000001,14.648,10.742,15.137,0.0,0
1581435152.772,13.184000000000001,10.254000000000001,7.812,11.23,0.0,0
1581435152.776,10.742,22.461,11.719000000000001,12.207,0.0,0
1581435152.78,13.184000000000001,16.602,9.766,17.578,0.0,0
1581435152.784,18.555,9.277000000000001,9.766,9.766,0.0,0
1581435152.7879999,14.16,10.742,8.789,9.277000000000001,0.0,0
1581435152.792,20.508000000000006,2.441,10.254000000000001,23.926,0.0,0
1581435152.795,21.97300000000001,1.953,9.277000000000001,21.97300000000001,0.0,0
1581435152.799,15.625,12.695,7.324,12.207,0.0,0
1581435152.803,22.949,17.578,11.23,22.949,0.0,0
1581435152.8070002,26.366999999999997,16.602,9.277000000000001,27.831999999999997,0.0,0
1581435152.811,21.97300000000001,9.766,9.766,27.831999999999997,0.0,0
1581435152.813,18.066,10.742,14.16,24.414,0.0,0
1581435152.8170002,15.625,6.348,13.184000000000001,16.113,0.0,0
1581435152.821,20.996,-6.348,14.16,26.366999999999997,0.0,0
1581435152.825,21.97300000000001,9.277000000000001,15.137,34.18,0.0,0
1581435152.829,20.996,16.113,13.184000000000001,32.227,0.0,0
1581435152.833,27.344,11.719000000000001,15.625,19.531,0.0,0
1581435152.8370001,35.645,20.508000000000006,11.719000000000001,21.97300000000001,0.0,0
1581435152.84,26.855,25.879,12.207,37.598,0.0,0
1581435152.8439999,16.602,26.855,20.02,34.668,0.0,0
1581435152.8479998,23.926,25.879,19.043,22.461,0.0,0
1581435152.8520002,20.508000000000006,16.602,12.207,20.02,0.0,0
1581435152.856,18.555,10.742,10.254000000000001,32.227,0.0,0
1581435152.873,16.113,7.812,11.719000000000001,32.715,0.0,0
1581435152.877,12.695,5.859,18.066,24.901999999999997,0.0,0
1581435152.881,21.97300000000001,9.766,15.137,26.366999999999997,0.0,0
1581435152.885,13.672,15.625,9.277000000000001,30.273000000000003,0.0,0
1581435152.889,8.301,14.16,11.719000000000001,29.296999999999997,0.0,0
1581435152.893,19.043,8.789,11.23,18.066,0.0,0
1581435152.897,18.555,16.602,7.324,19.531,0.0,0
1581435152.9,21.484,18.555,6.348,22.461,0.0,0
1581435152.904,19.043,9.766,9.277000000000001,28.809,0.0,0
1581435152.908,13.184000000000001,13.672,11.23,35.645,0.0,0
1581435152.9120002,18.066,17.578,10.742,20.02,0.0,0
1581435152.9160001,20.02,4.883,15.137,29.785,0.0,0
1581435152.918,20.508000000000006,2.93,15.137,40.039,0.0,0
1581435152.9220002,23.438000000000002,19.043,8.301,41.504,0.0,0
1581435152.926,33.203,29.296999999999997,1.953,40.039,0.0,0
1581435152.93,37.109,28.32,8.301,35.156,0.0,0
1581435152.934,26.855,17.578,15.137,36.621,0.0,0
1581435152.938,23.438000000000002,3.418,11.719000000000001,35.156,0.0,0
1581435152.9420002,24.901999999999997,1.465,9.766,21.97300000000001,0.0,0
1581435152.945,22.949,14.16,5.859,12.695,0.0,0
1581435152.949,22.461,14.648,10.742,24.901999999999997,0.0,0
1581435152.9529998,21.97300000000001,9.766,12.695,24.901999999999997,0.0,0
1581435152.957,22.461,17.09,9.766,21.484,0.0,0
1581435152.961,25.391,17.578,7.324,20.508000000000006,0.0,0
1581435152.9629998,16.602,15.137,9.766,19.531,0.0,0
1581435152.967,20.02,16.113,12.695,15.625,0.0,0
1581435152.971,25.879,18.066,9.766,23.438000000000002,0.0,0
1581435152.975,21.97300000000001,19.531,8.301,20.996,0.0,0
1581435152.9789999,17.09,3.418,12.207,19.043,0.0,0
1581435152.9829998,21.484,-14.648,15.625,32.715,0.0,0
1581435152.9870002,23.926,1.953,13.672,31.738000000000003,0.0,0
1581435152.99,27.831999999999997,31.25,8.301,27.831999999999997,0.0,0
1581435152.994,34.18,36.621,6.836,20.996,0.0,0
1581435152.998,22.949,29.785,5.371,28.809,0.0,0
1581435153.002,23.438000000000002,20.02,4.883,44.922,0.0,0
1581435153.006,27.344,10.254000000000001,7.812,37.109,0.0,0
1581435153.0070002,28.809,14.16,7.324,24.414,0.0,0
1581435153.0110002,33.203,23.926,12.695,32.227,0.0,0
1581435153.015,25.391,19.531,15.625,35.156,0.0,0
1581435153.019,19.531,20.996,10.742,32.715,0.0,0
1581435153.0229998,19.531,14.16,7.812,33.203,0.0,0
1581435153.0270002,17.09,2.441,6.836,25.391,0.0,0
1581435153.0310001,17.09,15.137,5.859,24.901999999999997,0.0,0
1581435153.034,13.672,22.461,9.766,18.066,0.0,0
1581435153.0379999,13.184000000000001,5.371,12.207,7.812,0.0,0
1581435153.042,13.672,-4.883,8.301,13.184000000000001,0.0,0
1581435153.046,21.484,2.441,5.371,22.949,0.0,0
1581435153.05,7.324,22.461,7.324,24.414,0.0,0
1581435153.052,3.418,23.926,11.23,10.742,0.0,0
1581435153.056,10.254000000000001,15.137,12.207,1.953,0.0,0
1581435153.06,6.348,17.09,13.672,29.785,0.0,0
1581435153.064,8.301,11.719000000000001,9.277000000000001,35.645,0.0,0
1581435153.0679998,4.883,12.207,0.488,15.137,0.0,0
1581435153.072,10.254000000000001,6.348,11.23,20.02,0.0,0
1581435153.076,16.113,12.207,17.578,29.785,0.0,0
1581435153.079,11.719000000000001,11.719000000000001,10.254000000000001,31.738000000000003,0.0,0
1581435153.083,20.996,11.23,11.719000000000001,22.949,0.0,0
1581435153.0870001,33.203,19.043,15.625,24.901999999999997,0.0,0
1581435153.091,30.761999999999997,10.254000000000001,12.695,28.32,0.0,0
1581435153.095,28.809,12.695,7.812,31.738000000000003,0.0,0
1581435153.0970001,27.344,15.625,5.371,29.296999999999997,0.0,0
1581435153.101,25.879,14.648,2.93,21.484,0.0,0
1581435153.105,27.831999999999997,12.695,5.371,29.785,0.0,0
1581435153.109,19.043,19.531,4.395,36.133,0.0,0
1581435153.113,7.812,28.809,-0.977,26.855,0.0,0
1581435153.117,16.113,20.02,4.883,29.296999999999997,0.0,0
1581435153.121,18.066,8.789,10.742,25.879,0.0,0
1581435153.1239998,7.324,17.09,5.859,-0.488,0.0,0
1581435153.1279998,0.488,7.812,5.371,5.859,0.0,0
1581435153.1320002,5.859,5.371,9.766,11.23,0.0,0
1581435153.1360002,7.324,15.137,4.883,-3.418,0.0,0
1581435153.14,1.953,6.348,0.488,5.371,0.0,0
1581435153.143,0.0,11.23,0.977,16.602,0.0,0
1581435153.147,-1.465,18.066,3.906,-0.488,0.0,0
1581435153.151,-1.465,19.531,7.812,-2.93,0.0,0
1581435153.155,2.441,20.508000000000006,4.883,9.766,0.0,0
1581435153.159,4.883,16.113,3.418,18.555,0.0,0
1581435153.1629999,-1.465,7.812,9.277000000000001,13.184000000000001,0.0,1
1581435153.167,4.395,12.695,10.742,4.395,0.0,0
1581435153.17,7.324,19.531,7.324,11.719000000000001,0.0,0
1581435153.174,4.883,15.137,0.0,14.16,0.0,0
1581435153.178,4.395,7.324,-0.977,17.578,0.0,0
1581435153.1820002,8.301,-1.953,7.324,10.254000000000001,0.0,0
1581435153.186,19.531,7.324,3.418,1.465,0.0,0
1581435153.2020001,8.789,15.625,2.93,15.625,0.0,0
1581435153.206,5.859,13.184000000000001,13.184000000000001,31.738000000000003,0.0,0
1581435153.21,20.508000000000006,20.508000000000006,8.301,28.32,0.0,0
1581435153.214,10.742,14.648,7.812,11.719000000000001,0.0,0
1581435153.218,7.324,14.16,10.742,15.625,0.0,0
1581435153.2220001,15.625,20.996,9.277000000000001,30.273000000000003,0.0,0
1581435153.226,9.766,19.531,8.789,17.09,0.0,0
1581435153.2289999,10.742,16.602,7.324,9.277000000000001,0.0,0
1581435153.2329998,12.695,12.695,7.812,8.789,0.0,0
1581435153.2370002,8.301,15.625,6.836,14.648,0.0,0
1581435153.2410002,10.254000000000001,22.461,7.812,23.438000000000002,0.0,0
1581435153.245,8.789,19.043,5.859,19.043,0.0,0
1581435153.2470002,14.648,8.789,-3.418,13.184000000000001,0.0,0
1581435153.2510002,17.09,13.184000000000001,0.0,20.996,0.0,0
1581435153.255,18.555,29.296999999999997,8.301,20.996,0.0,0
1581435153.2589998,13.184000000000001,22.949,10.254000000000001,24.414,0.0,0
1581435153.2629998,8.789,16.113,12.207,27.344,0.0,0
1581435153.2670002,14.648,14.648,12.695,25.879,0.0,0
1581435153.2710001,20.996,13.184000000000001,18.066,33.691,0.0,0
1581435153.274,24.414,20.508000000000006,16.602,27.831999999999997,0.0,0
1581435153.2779999,21.484,20.02,9.766,24.901999999999997,0.0,0
1581435153.282,19.531,17.09,6.348,19.043,0.0,0
1581435153.286,14.648,3.906,2.93,14.648,0.0,0
1581435153.29,16.602,5.371,1.953,16.602,0.0,0
1581435153.292,22.949,12.695,6.836,9.766,0.0,0
1581435153.296,21.97300000000001,12.695,12.207,22.461,0.0,0
1581435153.3,19.043,21.484,12.207,29.296999999999997,0.0,0
1581435153.304,18.066,11.719000000000001,12.207,30.273000000000003,0.0,0
1581435153.3079998,15.625,4.395,12.695,17.09,0.0,0
1581435153.312,13.672,21.97300000000001,11.719000000000001,8.789,0.0,0
1581435153.316,11.719000000000001,19.043,11.23,29.785,0.0,0
1581435153.319,11.23,2.93,7.812,30.761999999999997,0.0,0
1581435153.323,19.043,6.836,6.348,21.97300000000001,0.0,0
1581435153.3270001,25.879,10.742,5.859,6.836,0.0,0
1581435153.331,23.926,16.602,2.93,7.812,0.0,0
1581435153.335,20.996,19.043,7.324,40.527,0.0,0
1581435153.3370001,20.508000000000006,17.09,11.719000000000001,37.598,0.0,0
1581435153.341,19.531,8.789,10.254000000000001,19.043,0.0,0
1581435153.345,22.949,-1.953,4.883,31.25,0.0,0
1581435153.349,28.809,10.254000000000001,5.371,34.18,0.0,0
1581435153.353,20.996,21.484,9.766,29.296999999999997,0.0,0
1581435153.357,16.602,16.602,10.742,20.996,0.0,0
1581435153.361,19.531,10.254000000000001,6.348,15.137,0.0,0
1581435153.3639998,11.719000000000001,15.137,6.348,22.461,0.0,0
1581435153.3679998,13.672,12.207,6.836,21.484,0.0,0
1581435153.3720002,13.184000000000001,6.348,2.93,14.16,0.0,0
1581435153.3760002,4.395,11.23,7.324,21.484,0.0,0
1581435153.38,6.348,10.742,9.766,34.18,0.0,0
1581435153.383,12.695,7.812,10.742,37.109,0.0,0
1581435153.387,14.648,17.578,6.836,26.855,0.0,0
1581435153.391,-0.977,25.391,5.859,21.484,0.0,0
1581435153.395,6.348,26.855,4.883,15.137,0.0,0
1581435153.399,15.625,19.531,2.441,15.137,0.0,0
1581435153.4029999,13.184000000000001,5.371,9.766,17.578,0.0,0
1581435153.407,11.23,6.836,11.23,15.625,0.0,0
1581435153.41,6.836,12.695,6.348,11.719000000000001,0.0,0
1581435153.414,7.324,17.578,5.859,10.742,0.0,0
1581435153.418,9.766,23.438000000000002,7.324,20.02,0.0,0
1581435153.4220002,17.09,17.09,6.348,20.996,0.0,0
1581435153.426,21.484,13.184000000000001,5.859,17.09,0.0,0
1581435153.428,19.531,17.578,1.465,17.578,0.0,0
1581435153.4320002,18.555,19.043,2.441,18.555,0.0,0
1581435153.436,29.296999999999997,17.09,5.371,17.578,0.0,0
1581435153.44,26.366999999999997,16.113,5.859,15.625,0.0,0
1581435153.444,24.901999999999997,24.901999999999997,3.418,24.414,0.0,0
1581435153.448,34.18,24.414,3.906,31.738000000000003,0.0,0
1581435153.4520001,22.949,20.02,7.812,21.97300000000001,0.0,0
1581435153.455,10.742,19.531,5.371,13.672,0.0,0
1581435153.4589999,21.97300000000001,24.901999999999997,-1.465,6.348,0.0,0
1581435153.4629998,19.043,15.625,0.488,15.625,0.0,0
1581435153.467,14.648,8.301,10.254000000000001,27.344,0.0,0
1581435153.471,21.97300000000001,20.508000000000006,13.184000000000001,24.414,0.0,0
1581435153.4729998,26.855,27.344,13.672,27.344,0.0,0
1581435153.4770002,27.831999999999997,28.809,6.348,25.879,0.0,0
1581435153.481,24.901999999999997,31.25,3.418,34.668,0.0,0
1581435153.485,23.438000000000002,19.531,7.812,28.809,0.0,0
1581435153.4889998,19.531,13.184000000000001,7.812,20.508000000000006,0.0,0
1581435153.4929998,19.043,16.113,6.348,40.527,0.0,0
1581435153.4970002,25.391,17.09,12.695,41.504,0.0,0
1581435153.5,22.949,8.789,7.812,20.508000000000006,0.0,0
1581435153.504,21.97300000000001,4.883,2.93,17.578,0.0,0
1581435153.508,23.438000000000002,19.531,17.578,29.785,0.0,0
1581435153.512,23.926,12.207,17.578,36.133,0.0,0
1581435153.516,32.715,6.836,11.23,19.531,0.0,0
1581435153.518,24.414,20.508000000000006,12.207,14.648,0.0,0
1581435153.522,12.695,11.719000000000001,14.16,27.831999999999997,0.0,0
1581435153.526,12.207,7.812,12.695,33.203,0.0,0
1581435153.53,15.137,23.926,9.766,23.438000000000002,0.0,0
1581435153.534,20.508000000000006,26.855,6.836,20.508000000000006,0.0,0
1581435153.5379999,14.648,14.16,3.418,23.438000000000002,0.0,0
1581435153.542,7.324,10.254000000000001,8.301,23.926,0.0,0
1581435153.545,11.23,10.742,8.301,20.996,0.0,0
1581435153.549,7.324,20.508000000000006,7.812,12.207,0.0,0
1581435153.553,2.93,16.113,9.766,9.766,0.0,0
1581435153.5570002,10.254000000000001,3.418,7.324,13.184000000000001,0.0,0
1581435153.561,4.883,8.301,3.906,10.254000000000001,0.0,0
1581435153.5779998,10.742,8.789,6.348,13.184000000000001,0.0,0
1581435153.582,20.02,10.254000000000001,8.789,20.508000000000006,0.0,0
1581435153.586,3.418,11.23,7.324,27.831999999999997,0.0,0
1581435153.59,2.441,16.113,1.465,23.438000000000002,0.0,0
1581435153.5939999,16.113,21.484,3.906,15.137,0.0,0
1581435153.5979998,13.184000000000001,1.953,11.719000000000001,18.555,0.0,0
1581435153.6020002,9.766,1.465,4.395,4.883,0.0,0
1581435153.605,6.348,17.09,-3.906,3.906,0.0,0
1581435153.609,2.93,10.254000000000001,2.441,27.344,0.0,0
1581435153.613,13.184000000000001,14.648,2.93,39.062,0.0,0
1581435153.617,20.508000000000006,22.949,-1.465,36.133,0.0,0
1581435153.621,17.578,10.742,7.324,40.039,0.0,0
1581435153.623,24.901999999999997,2.441,10.742,38.574,0.0,0
1581435153.627,22.461,14.648,7.812,29.296999999999997,0.0,0
1581435153.631,20.02,17.578,6.836,20.508000000000006,0.0,0
1581435153.635,14.648,20.508000000000006,0.488,20.02,0.0,0
1581435153.639,8.789,11.23,1.953,28.32,0.0,0
1581435153.643,20.508000000000006,10.254000000000001,7.324,22.461,0.0,0
1581435153.647,19.043,18.555,3.418,10.742,0.0,0
1581435153.65,6.836,16.602,-1.465,13.672,0.0,0
1581435153.654,5.859,17.09,-1.465,20.508000000000006,0.0,0
1581435153.658,15.137,20.02,-5.371,6.836,0.0,0
1581435153.6620002,17.09,16.113,-5.371,5.859,0.0,0
1581435153.6660001,9.277000000000001,-1.953,2.441,18.555,0.0,0
1581435153.668,6.836,5.859,0.977,14.648,0.0,0
1581435153.6720002,11.23,12.695,2.441,13.184000000000001,0.0,0
1581435153.676,17.578,14.648,5.371,19.043,0.0,0
1581435153.68,26.855,8.301,7.324,21.97300000000001,0.0,0
1581435153.684,15.625,-3.418,12.207,28.809,0.0,0
1581435153.688,8.789,15.625,12.207,26.366999999999997,0.0,0
1581435153.6920002,14.16,26.366999999999997,12.207,18.555,0.0,0
1581435153.695,17.09,15.137,9.766,27.344,0.0,0
1581435153.699,16.113,8.301,9.766,27.344,0.0,0
1581435153.7029998,13.672,11.719000000000001,7.812,19.531,0.0,0
1581435153.707,17.09,10.742,3.418,24.414,0.0,0
1581435153.711,22.461,15.137,6.836,25.879,0.0,0
1581435153.7129998,25.391,25.391,7.812,25.391,0.0,0
1581435153.717,22.949,16.602,14.16,33.691,0.0,0
1581435153.721,17.09,10.254000000000001,12.695,22.461,0.0,0
1581435153.725,13.184000000000001,10.254000000000001,5.859,11.23,0.0,0
1581435153.7289999,14.16,9.277000000000001,8.301,7.812,0.0,0
1581435153.7329998,0.0,13.672,10.742,6.348,0.0,0
1581435153.7370002,-0.488,10.254000000000001,11.23,9.766,0.0,0
1581435153.74,4.395,2.441,7.812,3.418,0.0,0
1581435153.744,2.93,9.277000000000001,11.23,0.488,0.0,0
1581435153.748,3.906,24.414,13.184000000000001,6.348,0.0,0
1581435153.752,1.953,27.831999999999997,6.348,13.184000000000001,0.0,0
1581435153.756,-1.953,21.97300000000001,2.441,0.488,0.0,0
1581435153.758,0.977,17.578,2.93,-8.789,0.0,0
1581435153.762,5.859,7.324,5.371,6.348,0.0,0
1581435153.766,2.93,-2.441,12.207,20.508000000000006,0.0,0
1581435153.77,2.441,6.348,17.09,24.414,0.0,0
1581435153.774,8.789,12.695,15.625,20.996,0.0,0
1581435153.7779999,15.625,11.23,14.648,22.461,0.0,0
1581435153.782,12.207,1.465,10.742,31.738000000000003,0.0,0
1581435153.785,8.301,0.977,4.395,20.508000000000006,0.0,0
1581435153.789,8.301,10.742,9.277000000000001,-0.488,0.0,0
1581435153.793,19.531,7.812,14.16,16.113,0.0,0
1581435153.7970002,21.97300000000001,12.207,14.648,41.01600000000001,0.0,0
1581435153.801,21.484,28.809,10.742,29.296999999999997,0.0,0
1581435153.803,29.296999999999997,27.344,8.789,20.02,0.0,0
1581435153.8070002,25.391,13.184000000000001,6.836,23.926,0.0,0
1581435153.811,17.09,11.23,1.953,22.461,0.0,0
1581435153.815,8.789,8.301,10.254000000000001,25.391,0.0,0
1581435153.819,12.207,5.859,8.789,19.531,0.0,0
1581435153.823,13.672,12.207,0.977,8.789,0.0,0
1581435153.8270001,5.371,11.23,10.742,9.277000000000001,0.0,0
1581435153.83,2.441,6.836,18.555,20.02,0.0,0
1581435153.8339999,2.93,17.578,16.602,14.648,0.0,0
1581435153.8379998,7.324,14.16,12.207,-0.977,0.0,0
1581435153.842,4.395,5.371,8.789,1.953,0.0,0
1581435153.846,3.906,7.812,12.695,20.02,0.0,0
1581435153.8479998,8.301,10.742,13.672,20.996,0.0,0
1581435153.8520002,8.301,12.207,9.766,17.09,0.0,0
1581435153.856,16.113,11.719000000000001,8.789,22.949,0.0,0
1581435153.86,18.066,20.508000000000006,7.324,19.043,0.0,0
1581435153.8639998,19.531,12.695,10.254000000000001,20.508000000000006,0.0,0
1581435153.8679998,26.855,2.93,9.277000000000001,24.901999999999997,0.0,0
1581435153.8720002,26.366999999999997,6.348,2.93,19.531,0.0,0
1581435153.875,18.555,9.766,4.395,15.137,0.0,0
1581435153.879,17.578,13.672,4.883,25.879,0.0,0
1581435153.883,24.414,16.602,6.348,30.761999999999997,0.0,0
1581435153.887,26.855,25.879,8.301,32.715,0.0,0
1581435153.891,29.296999999999997,15.625,2.441,36.133,0.0,0
1581435153.893,24.901999999999997,1.953,2.441,30.761999999999997,0.0,0
1581435153.897,26.855,9.277000000000001,6.348,27.344,0.0,0
1581435153.901,28.809,11.23,3.906,11.719000000000001,0.0,0
1581435153.905,22.949,12.695,6.348,15.625,0.0,0
1581435153.909,26.855,18.066,8.789,34.18,0.0,0
1581435153.9129999,14.648,12.207,4.395,34.668,0.0,0
1581435153.917,10.254000000000001,8.789,7.812,15.137,0.0,0
1581435153.92,19.531,14.16,7.812,-3.906,0.0,0
1581435153.924,12.695,13.184000000000001,6.836,10.254000000000001,0.0,0
1581435153.928,22.461,13.672,8.789,26.366999999999997,0.0,0
1581435153.9320002,26.855,18.066,8.301,26.855,0.0,0
1581435153.936,23.438000000000002,13.672,8.789,26.366999999999997,0.0,0
1581435153.938,21.97300000000001,16.602,11.719000000000001,26.366999999999997,0.0,0
1581435153.9420002,20.996,23.438000000000002,11.719000000000001,33.203,0.0,0
1581435153.946,29.296999999999997,19.531,9.277000000000001,34.18,0.0,0
1581435153.95,37.598,14.16,7.812,23.926,0.0,0
1581435153.954,31.25,2.93,6.348,37.109,0.0,0
1581435153.958,27.831999999999997,6.836,9.766,40.039,0.0,0
1581435153.9620001,26.855,10.742,10.742,16.602,0.0,0
1581435153.965,25.879,6.348,13.672,12.695,0.0,0
1581435153.9689999,25.879,18.555,15.137,23.926,0.0,0
1581435153.9729998,16.602,28.809,4.395,39.062,0.0,0
1581435153.9770002,7.812,17.578,6.836,32.715,0.0,0
1581435153.981,12.695,16.602,5.859,15.625,0.0,0
1581435153.998,14.648,19.043,5.859,17.578,0.0,0
1581435154.002,11.719000000000001,12.207,13.184000000000001,32.227,0.0,0
1581435154.006,19.043,11.719000000000001,8.301,36.133,0.0,0
1581435154.01,21.484,15.137,7.324,17.578,0.0,0
1581435154.014,21.484,16.602,8.301,10.742,0.0,0
1581435154.018,11.23,14.648,2.93,20.508000000000006,0.0,0
1581435154.022,0.977,5.371,-1.953,24.414,0.0,0
1581435154.025,6.836,5.859,3.418,14.648,0.0,0
1581435154.029,11.719000000000001,11.719000000000001,10.254000000000001,12.207,0.0,0
1581435154.033,10.254000000000001,14.16,8.301,17.578,0.0,0
1581435154.0370002,10.742,25.391,9.277000000000001,21.484,0.0,0
1581435154.0410001,14.16,20.508000000000006,13.672,32.227,0.0,0
1581435154.043,9.766,6.836,14.16,20.996,0.0,0
1581435154.0470002,20.508000000000006,9.766,4.395,14.648,0.0,0
1581435154.051,25.879,11.23,0.977,29.296999999999997,0.0,0
1581435154.055,25.391,5.371,3.906,33.691,0.0,0
1581435154.059,32.715,16.602,4.395,33.203,0.0,0
1581435154.063,36.621,33.691,11.23,29.296999999999997,0.0,0
1581435154.0670002,29.296999999999997,23.438000000000002,19.531,32.227,0.0,0
1581435154.07,20.508000000000006,14.648,12.695,33.203,0.0,0
1581435154.074,18.066,17.09,6.836,23.438000000000002,0.0,0
1581435154.0779998,14.648,11.719000000000001,12.207,15.137,0.0,0
1581435154.082,11.23,2.93,9.766,21.97300000000001,0.0,0
1581435154.086,10.254000000000001,10.254000000000001,8.789,24.414,0.0,0
1581435154.0870001,11.719000000000001,20.996,5.859,13.672,0.0,0
1581435154.091,19.531,23.438000000000002,7.812,19.531,0.0,0
1581435154.095,19.043,20.996,10.254000000000001,28.809,0.0,0
1581435154.099,4.395,14.648,10.742,29.785,0.0,0
1581435154.103,3.906,20.996,12.207,30.761999999999997,0.0,0
1581435154.107,21.97300000000001,20.996,8.789,25.391,0.0,0
1581435154.111,27.831999999999997,14.16,7.812,20.508000000000006,0.0,0
1581435154.1139998,26.366999999999997,20.02,6.348,31.738000000000003,0.0,0
1581435154.1179998,20.508000000000006,21.97300000000001,6.836,25.879,0.0,0
1581435154.1220002,22.461,23.926,8.301,12.695,0.0,0
1581435154.1260002,20.508000000000006,22.949,7.324,8.789,0.0,0
1581435154.13,15.625,10.742,6.348,16.602,0.0,0
1581435154.1320002,18.555,14.648,6.348,27.344,0.0,0
1581435154.1360002,19.043,20.508000000000006,8.789,25.879,0.0,0
1581435154.14,11.23,11.23,6.348,28.809,0.0,0
1581435154.144,8.301,0.0,3.906,27.831999999999997,0.0,0
1581435154.1479998,8.301,9.277000000000001,9.277000000000001,23.926,0.0,0
1581435154.1520002,8.789,20.508000000000006,0.488,17.09,0.0,0
1581435154.1560001,15.625,9.277000000000001,3.418,17.09,0.0,0
1581435154.159,8.301,1.953,11.719000000000001,16.602,0.0,0
1581435154.1629999,5.371,4.395,9.766,18.066,0.0,0
1581435154.167,14.648,16.602,10.742,16.113,0.0,0
1581435154.171,9.766,20.508000000000006,9.766,13.184000000000001,0.0,0
1581435154.175,10.254000000000001,14.16,6.348,11.23,0.0,0
1581435154.177,10.742,23.438000000000002,7.324,12.695,0.0,0
1581435154.181,5.859,24.901999999999997,10.254000000000001,24.901999999999997,0.0,0
1581435154.185,7.324,11.23,12.207,21.97300000000001,0.0,0
1581435154.189,2.93,11.23,6.348,10.742,0.0,0
1581435154.1929998,3.906,16.113,1.465,9.766,0.0,0
1581435154.197,16.602,11.23,5.859,17.09,0.0,0
1581435154.201,21.484,0.977,7.324,8.301,0.0,0
1581435154.204,15.625,11.23,11.23,-2.93,0.0,0
1581435154.208,22.461,21.97300000000001,14.16,6.348,0.0,0
1581435154.2120001,25.391,14.16,12.695,14.648,0.0,0
1581435154.216,19.531,15.137,11.23,15.137,0.0,0
1581435154.22,22.949,17.578,7.812,5.859,0.0,0
1581435154.2220001,16.602,-0.488,11.719000000000001,7.324,0.0,0
1581435154.226,20.02,4.395,17.09,22.949,0.0,0
1581435154.23,24.414,24.414,12.695,27.344,0.0,0
1581435154.234,15.137,12.695,7.812,11.23,0.0,0
1581435154.238,16.602,1.953,0.0,0.488,0.0,0
1581435154.242,23.438000000000002,15.137,0.977,14.648,0.0,0
1581435154.246,19.043,20.996,17.09,23.438000000000002,0.0,0
1581435154.2489998,13.672,11.23,19.531,5.371,0.0,0
1581435154.2529998,13.184000000000001,6.836,9.277000000000001,-4.395,0.0,0
1581435154.2570002,11.719000000000001,20.02,11.719000000000001,5.371,0.0,2
1581435154.2610002,7.324,23.438000000000002,14.648,20.02,0.0,0
1581435154.265,6.348,20.508000000000006,12.695,12.207,0.0,0
1581435154.282,5.371,19.043,14.648,0.977,0.0,0
1581435154.286,13.184000000000001,15.625,12.207,10.742,0.0,0
1581435154.29,11.719000000000001,4.883,17.09,15.625,0.0,0
1581435154.294,7.324,-4.395,23.438000000000002,20.02,0.0,0
1581435154.2979999,11.23,1.953,20.508000000000006,1.465,0.0,0
1581435154.302,9.277000000000001,8.301,12.207,0.977,0.0,0
1581435154.306,10.742,16.113,8.301,12.695,0.0,0
1581435154.309,10.254000000000001,22.949,14.648,-0.977,0.0,0
1581435154.313,6.836,17.578,18.555,-0.488,0.0,0
1581435154.3170002,6.836,12.207,18.555,3.418,0.0,0
1581435154.321,11.719000000000001,9.766,19.531,18.555,0.0,0
1581435154.325,14.16,5.371,18.066,29.296999999999997,0.0,0
1581435154.3270001,6.348,10.742,10.254000000000001,13.672,0.0,0
1581435154.331,7.324,15.625,6.836,6.348,0.0,0
1581435154.335,9.277000000000001,11.23,8.301,10.254000000000001,0.0,0
1581435154.339,2.93,13.184000000000001,13.672,13.672,0.0,0
1581435154.343,8.789,20.02,16.602,6.836,0.0,0
1581435154.3470001,17.09,20.02,15.625,6.348,0.0,0
1581435154.351,19.531,16.602,12.207,20.996,0.0,0
1581435154.3539999,16.113,20.508000000000006,0.488,15.137,0.0,0
1581435154.3579998,11.719000000000001,20.02,5.371,10.254000000000001,0.0,0
1581435154.3620002,17.578,19.531,10.254000000000001,3.418,0.0,0
1581435154.3660002,20.508000000000006,16.113,9.766,2.441,0.0,0
1581435154.37,25.879,15.625,9.766,20.508000000000006,0.0,0
1581435154.3720002,27.344,19.531,12.695,26.366999999999997,0.0,0
1581435154.3760002,23.438000000000002,12.207,18.555,19.531,0.0,0
1581435154.38,28.32,21.484,13.184000000000001,20.508000000000006,0.0,0
1581435154.3839998,29.785,21.97300000000001,15.625,29.296999999999997,0.0,0
1581435154.3879998,27.344,20.508000000000006,11.719000000000001,35.645,0.0,0
1581435154.3920002,25.879,31.25,7.812,24.901999999999997,0.0,0
1581435154.3960001,22.461,24.414,7.324,8.301,0.0,0
1581435154.399,20.996,3.906,6.348,16.113,0.0,0
1581435154.4029999,20.02,-6.348,12.695,33.691,0.0,0
1581435154.407,16.602,1.953,9.766,22.461,0.0,0
1581435154.411,18.555,13.184000000000001,10.254000000000001,-3.906,0.0,0
1581435154.415,14.648,11.719000000000001,16.602,10.254000000000001,0.0,0
1581435154.417,15.625,11.719000000000001,13.672,22.949,0.0,0
1581435154.421,21.97300000000001,20.02,7.812,19.531,0.0,0
1581435154.425,23.926,21.484,8.301,15.625,0.0,0
1581435154.429,17.578,17.578,8.301,13.184000000000001,0.0,0
1581435154.4329998,14.648,20.508000000000006,5.859,14.16,0.0,0
1581435154.437,9.766,14.648,8.789,14.16,0.0,0
1581435154.441,15.137,7.324,10.254000000000001,19.531,0.0,0
1581435154.444,15.137,8.301,10.254000000000001,18.555,0.0,0
1581435154.448,7.324,-4.883,1.953,20.508000000000006,0.0,0
1581435154.4520001,5.859,2.441,-0.488,22.949,0.0,0
1581435154.456,10.742,20.02,15.625,20.02,0.0,0
1581435154.46,16.113,17.09,17.09,19.043,0.0,0
1581435154.4620001,12.207,3.418,13.672,25.391,0.0,0
1581435154.466,10.254000000000001,0.0,10.254000000000001,26.855,0.0,0
1581435154.47,10.254000000000001,11.719000000000001,9.766,14.648,0.0,0
1581435154.474,20.02,15.137,16.113,19.531,0.0,0
1581435154.478,23.438000000000002,17.578,12.207,21.484,0.0,0
1581435154.482,16.602,14.16,6.836,21.484,0.0,0
1581435154.486,14.648,14.16,12.207,27.344,0.0,0
1581435154.4889998,23.438000000000002,12.695,13.184000000000001,22.949,0.0,0
1581435154.4929998,23.438000000000002,8.789,5.371,17.09,0.0,0
1581435154.4970002,16.602,11.719000000000001,1.953,14.648,0.0,0
1581435154.5010002,17.09,8.789,2.93,15.625,0.0,0
1581435154.505,16.113,3.906,9.277000000000001,17.09,0.0,0
1581435154.508,18.066,16.602,12.207,15.137,0.0,0
1581435154.512,20.02,20.996,14.648,15.137,0.0,0
1581435154.516,14.648,14.648,13.672,16.602,0.0,0
1581435154.52,12.695,6.836,6.836,14.16,0.0,0
1581435154.524,20.996,0.488,13.184000000000001,11.23,0.0,0
1581435154.5279999,18.066,10.254000000000001,10.742,14.648,0.0,0
1581435154.532,15.137,17.09,7.324,24.414,0.0,0
1581435154.535,16.602,14.16,15.625,28.32,0.0,0
1581435154.539,24.414,13.672,19.043,24.414,0.0,0
1581435154.543,28.32,15.137,11.719000000000001,25.391,0.0,0
1581435154.5470002,24.901999999999997,9.277000000000001,1.953,38.086,0.0,0
1581435154.551,21.484,8.301,1.465,30.273000000000003,0.0,0
1581435154.553,27.831999999999997,1.953,7.324,18.066,0.0,0
1581435154.5570002,17.578,7.812,11.23,19.043,0.0,0
1581435154.561,15.137,14.16,16.113,32.227,0.0,0
1581435154.565,29.785,15.137,15.625,35.645,0.0,0
1581435154.569,30.273000000000003,24.414,12.207,20.996,0.0,0
1581435154.573,27.344,20.508000000000006,9.766,11.719000000000001,0.0,0
1581435154.5770001,20.996,8.301,7.324,20.02,0.0,0
1581435154.58,15.625,13.184000000000001,2.93,17.578,0.0,0
1581435154.5839999,12.207,9.766,6.348,3.906,0.0,0
1581435154.5879998,13.184000000000001,-0.977,11.719000000000001,11.23,0.0,0
1581435154.592,9.766,10.254000000000001,7.324,10.254000000000001,0.0,0
1581435154.596,14.648,25.391,5.859,12.207,0.0,0
1581435154.5979998,22.949,22.461,5.371,22.461,0.0,0
1581435154.6020002,16.113,19.043,5.859,11.719000000000001,0.0,0
1581435154.606,25.391,22.461,5.371,1.465,0.0,0
1581435154.61,20.996,19.043,1.953,12.695,0.0,0
1581435154.6139998,9.766,10.254000000000001,11.23,14.648,0.0,0
1581435154.6179998,15.625,5.859,9.277000000000001,6.836,0.0,0
1581435154.6220002,16.602,9.766,6.836,4.395,0.0,0
1581435154.625,16.113,13.184000000000001,11.719000000000001,17.09,0.0,0
1581435154.629,15.625,15.137,9.766,19.531,0.0,0
1581435154.633,16.113,18.555,8.301,9.277000000000001,0.0,0
1581435154.637,18.555,9.277000000000001,5.371,17.578,0.0,0
1581435154.641,17.578,7.812,8.301,25.879,0.0,0
1581435154.643,16.602,11.719000000000001,11.719000000000001,24.414,0.0,0
1581435154.647,17.578,18.066,10.254000000000001,21.97300000000001,0.0,0
1581435154.651,18.555,19.531,12.207,17.09,0.0,0
1581435154.655,19.531,10.742,13.184000000000001,17.09,0.0,0
1581435154.659,23.438000000000002,10.254000000000001,17.09,28.32,0.0,0
1581435154.6629999,26.366999999999997,12.695,14.16,28.809,0.0,0
1581435154.667,21.484,0.488,12.695,12.695,0.0,0
1581435154.67,14.648,0.0,12.207,-9.766,0.0,0
1581435154.674,16.602,24.414,5.371,9.277000000000001,0.0,0
1581435154.678,13.672,22.949,6.836,23.438000000000002,0.0,0
1581435154.6820002,3.906,14.16,6.348,4.395,0.0,0
1581435154.686,13.184000000000001,16.113,3.906,5.371,0.0,0
1581435154.688,13.672,12.695,9.766,19.531,0.0,0
1581435154.6920002,9.766,11.719000000000001,6.836,22.461,0.0,0
1581435154.696,18.066,22.949,2.93,3.418,0.0,0
1581435154.7,13.184000000000001,20.996,9.277000000000001,-1.465,0.0,0
1581435154.704,8.789,5.371,3.418,12.207,0.0,0
1581435154.708,9.277000000000001,7.812,-1.953,15.625,0.0,0
1581435154.7120001,10.742,22.461,6.348,1.953,0.0,0
1581435154.715,11.23,18.555,7.324,-3.906,0.0,0
1581435154.7189999,22.461,15.137,9.766,13.184000000000001,0.0,0
1581435154.7229998,21.97300000000001,4.883,10.254000000000001,26.366999999999997,0.0,0
1581435154.7270002,11.23,0.488,3.418,24.901999999999997,0.0,0
1581435154.731,17.578,25.879,5.371,11.719000000000001,0.0,0
1581435154.748,16.113,22.461,10.742,3.418,0.0,0
1581435154.752,14.648,13.672,11.23,20.996,0.0,0
1581435154.756,16.602,20.996,7.812,26.855,0.0,0
1581435154.76,16.602,17.578,8.301,14.648,0.0,0
1581435154.764,20.508000000000006,16.602,6.348,21.484,0.0,0
1581435154.768,21.97300000000001,13.184000000000001,5.371,21.484,0.0,0
1581435154.772,15.137,22.949,5.859,18.066,0.0,0
1581435154.775,9.277000000000001,18.066,5.371,19.043,0.0,0
1581435154.779,15.137,8.301,9.277000000000001,8.789,0.0,0
1581435154.783,23.438000000000002,18.066,5.859,5.859,0.0,0
1581435154.7870002,20.02,20.02,1.953,14.16,0.0,0
1581435154.7910001,13.184000000000001,17.09,4.883,16.113,0.0,0
1581435154.793,20.996,10.254000000000001,2.441,9.766,0.0,0
1581435154.7970002,16.602,14.648,1.953,16.602,0.0,0
1581435154.801,12.695,25.391,4.883,31.25,0.0,0
1581435154.805,16.113,21.484,3.906,20.996,0.0,0
1581435154.809,10.742,9.277000000000001,5.371,9.766,0.0,0
1581435154.813,9.766,9.277000000000001,2.441,14.16,0.0,0
1581435154.8170002,15.137,16.113,0.488,15.625,0.0,0
1581435154.82,24.414,13.672,8.301,21.97300000000001,0.0,0
1581435154.824,27.344,9.277000000000001,12.695,24.901999999999997,0.0,0
1581435154.8279998,26.855,17.09,5.371,20.508000000000006,0.0,0
1581435154.832,30.273000000000003,16.113,2.93,37.109,0.0,0
1581435154.836,32.227,9.766,6.836,43.457,0.0,0
1581435154.8379998,29.785,14.16,7.812,36.621,0.0,0
1581435154.842,33.203,19.043,9.277000000000001,25.879,0.0,0
1581435154.846,28.32,20.508000000000006,3.906,24.414,0.0,0
1581435154.85,21.97300000000001,19.043,2.93,40.039,0.0,0
1581435154.8539999,26.855,15.137,7.812,45.41,0.0,0
1581435154.8579998,40.527,6.348,6.348,25.391,0.0,0
1581435154.8620002,34.18,5.859,6.348,24.414,0.0,0
1581435154.865,17.09,9.766,5.859,38.086,0.0,0
1581435154.869,21.484,3.906,3.906,29.296999999999997,0.0,0
1581435154.873,21.484,4.883,3.906,12.207,0.0,0
1581435154.877,13.184000000000001,15.625,3.906,9.277000000000001,0.0,0
1581435154.881,4.395,13.184000000000001,8.301,23.438000000000002,0.0,0
1581435154.883,11.719000000000001,12.695,8.301,30.273000000000003,0.0,0
1581435154.887,26.366999999999997,19.043,7.812,24.901999999999997,0.0,0
1581435154.891,26.855,12.695,14.648,19.043,0.0,0
1581435154.895,17.578,9.277000000000001,18.066,28.809,0.0,0
1581435154.899,16.602,9.277000000000001,15.625,43.457,0.0,0
1581435154.9029999,22.461,2.93,9.766,33.203,0.0,0
1581435154.907,18.066,6.348,9.277000000000001,18.555,0.0,0
1581435154.91,8.789,10.254000000000001,10.254000000000001,17.09,0.0,0
1581435154.914,9.277000000000001,5.371,10.254000000000001,25.391,0.0,0
1581435154.918,13.672,14.16,12.207,26.366999999999997,0.0,0
1581435154.9220002,15.625,20.02,6.348,21.97300000000001,0.0,0
1581435154.926,18.555,6.348,1.465,18.555,0.0,0
1581435154.928,18.066,1.953,10.254000000000001,27.344,0.0,0
1581435154.9320002,16.602,10.742,16.113,32.227,0.0,0
1581435154.936,20.02,9.766,14.16,27.831999999999997,0.0,0
1581435154.94,16.602,0.488,11.719000000000001,36.133,0.0,0
1581435154.944,11.719000000000001,10.254000000000001,10.742,33.691,0.0,0
1581435154.948,18.066,19.043,9.277000000000001,27.344,0.0,0
1581435154.9520001,22.949,22.461,7.324,20.996,0.0,0
1581435154.955,27.831999999999997,21.97300000000001,8.301,11.719000000000001,0.0,0
1581435154.9589999,24.901999999999997,16.113,10.254000000000001,12.207,0.0,0
1581435154.9629998,21.97300000000001,15.625,14.648,27.831999999999997,0.0,0
1581435154.967,22.949,17.578,18.555,33.691,0.0,0
1581435154.971,20.996,12.207,12.695,19.531,0.0,0
1581435154.9729998,17.09,15.625,11.719000000000001,12.207,0.0,0
1581435154.9770002,17.578,11.23,9.277000000000001,14.648,0.0,0
1581435154.981,14.16,-6.348,9.277000000000001,19.531,0.0,0
1581435154.985,4.395,3.906,9.277000000000001,14.16,0.0,0
1581435154.9889998,6.348,15.137,3.418,4.395,0.0,0
1581435154.9929998,15.137,19.043,9.766,12.695,0.0,0
1581435154.9970002,28.32,15.625,19.531,32.227,0.0,0
1581435155.0,36.621,12.695,23.926,31.25,0.0,0
1581435155.004,30.761999999999997,25.391,11.23,26.366999999999997,0.0,0
1581435155.008,21.484,28.32,-0.488,28.809,0.0,0
1581435155.012,19.531,26.366999999999997,7.812,32.715,0.0,0
1581435155.016,22.949,17.578,12.695,26.855,0.0,0
1581435155.018,26.366999999999997,13.184000000000001,8.789,19.043,0.0,0
1581435155.022,24.901999999999997,17.09,5.371,24.414,0.0,0
1581435155.026,22.949,17.09,5.859,36.133,0.0,0
1581435155.03,28.809,18.066,11.23,39.062,0.0,0
1581435155.034,35.645,16.602,10.254000000000001,26.855,0.0,0
1581435155.0379999,30.761999999999997,12.207,5.859,38.574,0.0,0
1581435155.042,23.926,10.742,6.348,35.645,0.0,0
1581435155.045,22.461,10.254000000000001,4.883,16.602,0.0,0
1581435155.049,19.531,13.672,-1.465,15.137,0.0,0
1581435155.053,18.066,20.508000000000006,-0.488,14.16,0.0,0
1581435155.0570002,14.648,21.97300000000001,10.254000000000001,20.996,0.0,0
1581435155.061,11.23,5.859,13.184000000000001,27.344,0.0,0
1581435155.063,13.672,4.395,6.836,20.02,0.0,0
1581435155.0670002,17.09,23.438000000000002,4.883,16.602,0.0,0
1581435155.071,20.508000000000006,22.949,13.184000000000001,29.785,0.0,0
1581435155.075,11.719000000000001,13.184000000000001,14.648,25.391,0.0,0
1581435155.079,13.184000000000001,10.742,10.254000000000001,20.02,0.0,0
1581435155.083,22.461,13.184000000000001,10.742,17.578,0.0,0
1581435155.0870001,10.742,15.137,13.672,17.09,0.0,0
1581435155.09,7.812,18.066,9.766,28.32,0.0,0
1581435155.0939999,11.23,13.184000000000001,-6.348,29.785,0.0,0
1581435155.0979998,19.043,19.043,-4.883,26.855,0.0,0
1581435155.1020002,25.391,18.555,7.324,20.996,0.0,0
1581435155.106,25.879,16.602,12.695,34.18,0.0,0
1581435155.123,32.715,10.742,16.602,43.945,0.0,0
1581435155.127,29.785,6.348,8.789,23.438000000000002,0.0,0
1581435155.131,23.438000000000002,12.207,4.883,13.672,0.0,0
1581435155.135,16.113,12.695,10.742,23.926,0.0,0
1581435155.139,13.672,24.414,11.719000000000001,33.203,0.0,0
1581435155.143,25.391,20.02,10.254000000000001,28.32,0.0,0
1581435155.147,19.531,12.207,9.277000000000001,23.926,0.0,0
1581435155.15,7.324,22.461,6.836,22.949,0.0,0
1581435155.154,6.348,18.066,6.836,18.066,0.0,0
1581435155.158,13.184000000000001,9.766,9.277000000000001,7.324,0.0,0
1581435155.1620002,1.953,-3.906,7.812,6.348,0.0,0
1581435155.1660001,-5.859,2.93,2.441,9.766,0.0,0
1581435155.168,7.324,18.555,10.254000000000001,17.578,0.0,0
1581435155.1720002,10.254000000000001,21.484,16.602,21.97300000000001,0.0,0
1581435155.176,12.695,23.438000000000002,8.789,8.301,0.0,0
1581435155.18,9.766,21.484,6.836,11.719000000000001,0.0,0
1581435155.184,2.93,17.09,3.418,24.414,0.0,0
1581435155.188,10.742,3.418,3.906,25.879,0.0,0
1581435155.1920002,6.348,-3.418,6.836,17.09,0.0,0
1581435155.195,10.742,5.371,0.977,8.301,0.0,0
1581435155.199,13.672,0.488,11.23,19.043,0.0,0
1581435155.2029998,15.137,15.137,17.578,18.555,0.0,0
1581435155.207,20.508000000000006,25.391,12.695,22.461,0.0,0
1581435155.211,8.301,17.578,12.207,18.066,0.0,0
1581435155.2120001,2.93,13.672,8.789,14.16,0.0,0
1581435155.216,2.93,10.254000000000001,5.371,24.901999999999997,0.0,0
1581435155.22,3.418,8.301,10.254000000000001,22.949,0.0,0
1581435155.224,8.789,12.207,13.672,16.113,0.0,0
1581435155.228,17.578,8.789,11.719000000000001,20.996,0.0,0
1581435155.232,11.23,2.93,8.789,23.438000000000002,0.0,0
1581435155.236,15.625,-3.418,12.207,26.366999999999997,0.0,0
1581435155.2389998,30.273000000000003,7.812,15.625,34.18,0.0,0
1581435155.2429998,21.97300000000001,18.066,17.578,18.555,0.0,0
1581435155.2470002,11.719000000000001,6.348,10.254000000000001,16.602,0.0,0
1581435155.2510002,6.836,6.836,1.953,24.901999999999997,0.0,0
1581435155.255,12.695,19.043,8.301,15.137,0.0,0
1581435155.2570002,12.695,24.901999999999997,9.766,10.742,0.0,0
1581435155.2610002,-0.977,15.625,8.301,18.555,0.0,0
1581435155.265,0.488,5.859,14.648,20.996,0.0,0
1581435155.269,10.742,7.812,15.625,19.043,0.0,0
1581435155.2729998,9.277000000000001,3.418,12.207,13.184000000000001,0.0,0
1581435155.2770002,-0.977,-10.254000000000001,10.742,7.812,0.0,0
1581435155.2810001,0.488,-2.93,5.371,12.695,0.0,0
1581435155.284,12.695,14.648,5.371,5.859,0.0,0
1581435155.2879999,9.277000000000001,10.742,14.16,-0.488,0.0,0
1581435155.292,4.883,8.789,13.672,11.23,0.0,0
1581435155.296,9.766,4.883,9.277000000000001,19.531,0.0,0
1581435155.3,14.648,9.766,13.184000000000001,26.366999999999997,0.0,0
1581435155.302,16.602,12.207,13.184000000000001,21.484,0.0,0
1581435155.306,18.555,0.488,16.113,20.996,0.0,0
1581435155.31,12.207,11.719000000000001,19.043,33.203,0.0,0
1581435155.314,15.137,28.809,16.113,36.621,0.0,0
1581435155.3179998,23.926,27.831999999999997,16.602,23.926,0.0,0
1581435155.322,21.484,11.23,17.578,16.113,0.0,0
1581435155.326,22.461,4.395,8.301,25.391,0.0,0
1581435155.329,17.578,8.789,10.742,27.831999999999997,0.0,0
1581435155.333,15.137,11.23,16.602,17.578,0.0,0
1581435155.3370001,23.926,9.277000000000001,12.695,21.97300000000001,0.0,0
1581435155.341,28.32,17.578,18.066,23.438000000000002,0.0,0
1581435155.345,17.578,29.296999999999997,15.137,24.414,0.0,0
1581435155.3470001,11.23,24.414,12.695,25.391,0.0,0
1581435155.351,18.066,24.901999999999997,13.672,20.02,0.0,0
1581435155.355,23.438000000000002,21.484,12.207,26.366999999999997,0.0,0
1581435155.359,25.391,3.906,8.301,20.996,0.0,0
1581435155.363,19.043,1.465,8.789,21.97300000000001,0.0,0
1581435155.367,22.949,7.324,9.766,35.156,0.0,0
1581435155.371,21.484,20.996,11.23,12.207,0.0,0
1581435155.3739998,18.066,25.879,8.789,4.883,0.0,0
1581435155.3779998,22.461,18.555,0.977,21.484,0.0,1
1581435155.3820002,23.438000000000002,17.578,4.395,30.273000000000003,0.0,0
1581435155.3860002,16.113,19.043,12.695,21.97300000000001,0.0,0
1581435155.39,10.742,17.578,8.789,11.23,0.0,0
1581435155.407,23.438000000000002,8.789,3.418,20.508000000000006,0.0,0
1581435155.411,14.648,6.348,7.812,21.97300000000001,0.0,0
1581435155.415,6.836,11.23,9.277000000000001,8.789,0.0,0
1581435155.419,16.602,9.277000000000001,5.859,12.207,0.0,0
1581435155.4229999,17.578,18.555,5.371,21.484,0.0,0
1581435155.427,22.461,18.555,11.719000000000001,36.133,0.0,0
1581435155.431,22.949,11.719000000000001,18.555,19.043,0.0,0
1581435155.434,20.508000000000006,18.066,16.113,11.23,0.0,0
1581435155.438,22.461,15.137,12.695,30.761999999999997,0.0,0
1581435155.4420002,8.789,8.789,11.23,23.438000000000002,0.0,0
1581435155.446,8.789,19.531,7.812,14.648,0.0,0
1581435155.45,18.555,21.484,7.324,15.625,0.0,0
1581435155.437,17.09,4.883,12.695,28.809,0.0,0
1581435155.441,24.414,5.859,15.625,34.668,0.0,0
1581435155.445,22.949,14.16,13.672,16.113,0.0,0
1581435155.449,20.508000000000006,13.672,12.207,8.301,0.0,0
1581435155.4529998,21.484,17.578,10.254000000000001,27.831999999999997,0.0,0
1581435155.457,18.066,18.555,10.742,30.273000000000003,0.0,0
1581435155.461,17.578,15.625,15.625,19.531,0.0,0
1581435155.464,20.508000000000006,17.578,10.254000000000001,16.113,0.0,0
1581435155.468,23.438000000000002,23.926,9.277000000000001,24.414,0.0,0
1581435155.4720001,20.508000000000006,24.901999999999997,19.531,31.738000000000003,0.0,0
1581435155.476,11.719000000000001,9.277000000000001,14.16,18.066,0.0,0
1581435155.48,4.883,5.859,6.836,9.277000000000001,0.0,0
1581435155.4970002,12.695,17.09,8.789,17.578,0.0,0
1581435155.5010002,16.113,13.672,10.742,17.09,0.0,0
1581435155.505,11.719000000000001,14.648,10.254000000000001,12.207,0.0,0
1581435155.5089998,8.301,15.625,8.301,8.301,0.0,0
1581435155.5129998,7.324,7.324,5.859,6.836,0.0,0
1581435155.5170002,15.625,7.812,8.301,12.207,0.0,0
1581435155.5210001,7.812,5.371,8.301,22.949,0.0,0
1581435155.524,7.812,11.23,4.395,24.414,0.0,0
1581435155.5279999,17.578,14.648,10.742,18.066,0.0,0
1581435155.532,18.066,12.207,11.23,15.137,0.0,0
1581435155.536,15.137,13.184000000000001,9.277000000000001,17.578,0.0,0
1581435155.54,20.508000000000006,17.578,7.812,22.949,0.0,0
1581435155.543,18.066,21.484,3.418,15.137,0.0,0
1581435155.5470002,13.184000000000001,15.137,2.441,14.648,0.0,0
1581435155.551,28.32,15.625,3.906,33.691,0.0,0
1581435155.555,33.203,18.555,-0.977,40.039,0.0,0
1581435155.559,29.785,20.02,-1.465,21.484,0.0,0
1581435155.563,29.785,19.531,7.812,17.09,0.0,0
1581435155.5670002,25.391,20.508000000000006,6.836,32.227,0.0,0
1581435155.57,11.719000000000001,22.949,0.0,24.414,0.0,0
1581435155.574,18.066,19.531,5.859,8.789,0.0,0
1581435155.5779998,26.855,27.344,6.348,7.324,0.0,0
1581435155.582,20.996,26.855,-1.465,8.789,0.0,0
1581435155.586,17.578,6.836,2.441,15.625,0.0,0
1581435155.5879998,11.719000000000001,9.277000000000001,5.859,24.901999999999997,0.0,0
1581435155.592,17.09,21.484,3.906,13.672,0.0,0
1581435155.596,18.555,21.484,6.348,8.301,0.0,0
1581435155.6,7.812,19.043,4.395,14.648,0.0,0
1581435155.6039999,6.836,18.066,3.906,20.508000000000006,0.0,0
1581435155.6079998,20.02,13.672,11.23,27.831999999999997,0.0,0
1581435155.6120002,28.32,4.883,9.766,20.02,0.0,0
1581435155.615,31.738000000000003,19.531,1.953,22.949,0.0,0
1581435155.619,25.391,26.855,2.93,28.32,0.0,0
1581435155.623,15.137,21.97300000000001,6.348,21.97300000000001,0.0,0
1581435155.627,11.719000000000001,21.97300000000001,5.371,19.043,0.0,0
1581435155.631,5.371,21.484,5.371,23.926,0.0,0
1581435155.633,11.23,16.113,3.906,28.809,0.0,0
1581435155.637,20.996,10.742,4.883,25.879,0.0,0
1581435155.641,22.461,11.719000000000001,7.812,18.066,0.0,0
1581435155.645,20.996,3.906,7.324,27.831999999999997,0.0,0
1581435155.649,15.137,7.324,6.348,33.691,0.0,0
1581435155.6529999,15.137,19.531,4.395,21.484,0.0,0
1581435155.657,20.02,20.02,3.418,13.184000000000001,0.0,0
1581435155.66,22.949,16.602,3.906,10.254000000000001,0.0,0
1581435155.664,11.719000000000001,14.16,4.395,14.16,0.0,0
1581435155.668,4.883,12.207,-0.977,19.531,0.0,0
1581435155.6720002,4.883,6.836,-2.93,14.16,0.0,0
1581435155.676,9.277000000000001,2.93,5.371,7.812,0.0,0
1581435155.678,15.137,8.789,8.789,24.414,0.0,0
1581435155.6820002,16.113,9.766,9.766,28.809,0.0,0
1581435155.686,13.672,17.578,9.766,18.555,0.0,0
1581435155.69,15.137,25.391,5.371,11.719000000000001,0.0,0
1581435155.694,14.648,24.414,4.395,24.901999999999997,0.0,0
1581435155.698,15.625,16.602,2.441,29.785,0.0,0
1581435155.7020001,20.02,19.043,-1.953,30.273000000000003,0.0,0
1581435155.705,13.672,16.602,-1.953,14.648,0.0,0
1581435155.7089999,18.066,6.348,8.301,18.555,0.0,0
1581435155.7129998,21.484,18.066,10.742,31.25,0.0,0
1581435155.717,13.672,23.438000000000002,5.371,17.09,0.0,0
1581435155.721,17.578,15.625,5.859,17.09,0.0,0
1581435155.7229998,12.695,12.695,5.371,28.809,0.0,0
1581435155.7270002,14.648,-0.977,-0.488,36.621,0.0,0
1581435155.731,20.508000000000006,5.859,3.906,31.738000000000003,0.0,0
1581435155.735,14.648,23.926,12.207,23.926,0.0,0
1581435155.7389998,11.719000000000001,28.809,8.789,15.625,0.0,0
1581435155.7429998,8.789,24.414,11.23,17.578,0.0,0
1581435155.7470002,8.789,20.02,16.113,24.414,0.0,0
1581435155.75,11.719000000000001,24.414,4.395,2.93,0.0,0
1581435155.754,15.137,15.625,-1.953,3.418,0.0,0
1581435155.758,7.812,9.766,5.859,22.949,0.0,0
1581435155.762,9.277000000000001,18.066,7.324,23.438000000000002,0.0,0
1581435155.766,11.719000000000001,7.324,5.371,17.578,0.0,0
1581435155.768,17.09,10.254000000000001,5.371,11.23,0.0,0
1581435155.772,18.066,20.02,12.207,16.113,0.0,0
1581435155.776,9.277000000000001,19.531,12.695,22.949,0.0,0
1581435155.78,7.812,19.531,0.977,24.414,0.0,0
1581435155.784,11.23,18.555,0.977,11.719000000000001,0.0,0
1581435155.7879999,12.695,12.207,5.371,4.395,0.0,0
1581435155.792,13.184000000000001,6.836,0.0,15.137,0.0,0
1581435155.795,16.602,15.137,-5.371,22.461,0.0,0
1581435155.799,18.066,14.648,-1.953,20.508000000000006,0.0,0
1581435155.803,26.366999999999997,21.97300000000001,7.812,17.578,0.0,0
1581435155.8070002,21.97300000000001,20.508000000000006,11.719000000000001,21.484,0.0,0
1581435155.811,15.137,10.742,11.719000000000001,22.949,0.0,0
1581435155.813,13.672,15.625,9.277000000000001,9.766,0.0,0
1581435155.8170002,11.719000000000001,18.066,1.465,1.465,0.0,0
1581435155.821,10.254000000000001,13.672,2.441,16.602,0.0,0
1581435155.825,6.348,15.137,2.441,22.461,0.0,0
1581435155.829,9.277000000000001,16.602,3.906,16.113,0.0,0
1581435155.833,16.602,6.836,10.254000000000001,11.719000000000001,0.0,0
1581435155.8370001,17.578,18.555,6.348,3.418,0.0,0
1581435155.84,6.836,11.23,4.395,8.301,0.0,0
1581435155.8439999,10.254000000000001,-10.254000000000001,6.836,10.742,0.0,0
1581435155.8479998,13.184000000000001,7.812,6.836,-0.977,0.0,0
1581435155.8520002,2.93,22.949,8.301,0.977,0.0,0
1581435155.856,-2.93,12.207,7.324,21.484,0.0,0
1581435155.873,0.0,10.254000000000001,1.465,14.648,0.0,0
1581435155.877,8.301,32.227,-2.93,6.348,0.0,0
1581435155.881,7.812,24.414,1.465,19.531,0.0,0
1581435155.885,5.371,11.719000000000001,6.348,22.461,0.0,0
1581435155.889,17.09,8.301,5.371,27.831999999999997,0.0,0
1581435155.893,27.831999999999997,12.695,8.301,28.32,0.0,0
1581435155.897,23.926,8.301,12.207,17.578,0.0,0
1581435155.9,20.996,5.859,5.371,21.484,0.0,0
1581435155.904,23.438000000000002,23.926,4.395,30.273000000000003,0.0,0
1581435155.908,26.366999999999997,24.901999999999997,8.789,23.926,0.0,0
1581435155.9120002,27.831999999999997,22.461,4.883,8.789,0.0,0
1581435155.9160001,24.901999999999997,21.97300000000001,3.418,17.09,0.0,0
1581435155.918,20.996,12.207,5.859,40.527,0.0,0
1581435155.9220002,13.672,8.789,11.719000000000001,35.156,0.0,0
1581435155.926,10.742,12.207,12.695,11.23,0.0,0
1581435155.93,9.277000000000001,11.23,14.16,16.602,0.0,0
1581435155.934,7.324,2.441,15.137,29.296999999999997,0.0,0
1581435155.938,16.602,1.953,12.207,33.203,0.0,0
1581435155.9420002,20.02,20.02,5.371,21.97300000000001,0.0,0
1581435155.945,12.695,19.043,4.883,8.789,0.0,0
1581435155.949,14.16,11.23,10.742,9.766,0.0,0
1581435155.9529998,12.695,17.09,11.23,11.23,0.0,0
1581435155.957,13.672,21.484,10.742,13.672,0.0,0
1581435155.961,19.531,8.301,6.348,13.672,0.0,0
1581435155.9629998,22.461,7.324,13.184000000000001,21.484,0.0,0
1581435155.967,24.414,21.97300000000001,19.043,34.18,0.0,0
1581435155.971,13.672,25.879,9.277000000000001,25.879,0.0,0
1581435155.975,20.996,26.366999999999997,8.301,19.531,0.0,0
1581435155.9789999,28.32,28.809,9.277000000000001,22.949,0.0,0
1581435155.9829998,27.344,27.344,7.812,42.968999999999994,0.0,0
1581435155.9870002,30.761999999999997,13.184000000000001,11.23,43.457,0.0,0
1581435155.99,32.715,7.812,13.184000000000001,27.831999999999997,0.0,0
1581435155.994,35.156,19.531,14.16,28.809,0.0,0
1581435155.998,39.551,26.366999999999997,16.113,40.527,0.0,0
1581435156.002,33.203,19.531,19.531,43.457,0.0,0
1581435156.006,33.691,14.16,13.672,33.691,0.0,0
1581435156.008,27.344,10.254000000000001,6.348,24.414,0.0,0
1581435156.012,16.113,20.508000000000006,3.418,9.766,0.0,0
1581435156.016,19.043,35.156,3.418,18.066,0.0,0
1581435156.02,21.97300000000001,26.855,10.742,29.785,0.0,0
1581435156.024,16.602,24.901999999999997,11.23,9.766,0.0,0
1581435156.0279999,17.09,12.695,11.719000000000001,20.996,0.0,0
1581435156.032,19.531,-0.488,12.695,34.668,0.0,0
1581435156.035,13.184000000000001,1.953,16.113,12.207,0.0,0
1581435156.039,19.531,16.113,11.719000000000001,0.0,0.0,0
1581435156.043,20.996,17.09,7.324,5.859,0.0,0
1581435156.0470002,16.602,16.113,3.418,12.695,0.0,0
1581435156.051,16.113,33.203,-3.418,14.648,0.0,0
1581435156.053,19.531,24.901999999999997,2.93,10.742,0.0,0
1581435156.0570002,22.461,17.578,10.254000000000001,11.719000000000001,0.0,0
1581435156.061,20.02,26.855,7.324,14.648,0.0,0
1581435156.065,14.16,20.02,8.301,18.555,0.0,0
1581435156.069,18.555,12.695,12.207,24.414,0.0,0
1581435156.073,27.831999999999997,12.695,4.883,20.996,0.0,0
1581435156.0770001,22.461,11.719000000000001,5.371,21.97300000000001,0.0,0
1581435156.08,20.02,-1.465,16.113,28.809,0.0,0
1581435156.0839999,23.926,-2.441,17.578,25.391,0.0,0
1581435156.0879998,23.926,20.02,10.254000000000001,24.901999999999997,0.0,0
1581435156.092,19.043,10.254000000000001,3.418,29.296999999999997,0.0,0
1581435156.096,16.602,1.953,9.766,38.086,0.0,0
1581435156.0979998,16.602,18.555,13.672,31.25,0.0,0
1581435156.1020002,6.348,14.648,12.695,19.531,0.0,0
1581435156.106,13.672,10.254000000000001,10.742,8.301,0.0,0
1581435156.11,13.672,7.812,5.859,12.207,0.0,0
1581435156.1139998,1.953,9.277000000000001,6.348,20.996,0.0,0
1581435156.1179998,16.113,16.602,4.395,3.418,0.0,0
1581435156.1220002,10.254000000000001,10.254000000000001,-0.488,0.488,0.0,0
1581435156.125,3.906,2.93,1.953,15.137,0.0,0
1581435156.129,9.277000000000001,1.465,2.441,10.254000000000001,0.0,0
1581435156.133,13.672,4.883,-2.93,1.953,0.0,0
1581435156.137,10.742,11.719000000000001,3.418,1.953,0.0,0
1581435156.141,6.836,15.137,11.719000000000001,15.137,0.0,0
1581435156.143,7.812,16.602,11.719000000000001,24.414,0.0,0
1581435156.147,10.254000000000001,9.766,8.789,19.531,0.0,0
1581435156.151,18.066,6.836,7.324,14.648,0.0,0
1581435156.155,23.926,11.23,3.418,16.113,0.0,0
1581435156.159,22.461,7.324,5.371,21.484,0.0,0
1581435156.1629999,20.996,0.0,4.883,27.831999999999997,0.0,0
1581435156.167,22.949,9.277000000000001,-0.488,17.578,0.0,0
1581435156.17,14.16,20.996,-2.441,10.254000000000001,0.0,0
1581435156.174,17.09,20.02,4.883,25.391,0.0,0
1581435156.178,30.273000000000003,21.484,18.066,39.062,0.0,0
1581435156.1820002,36.621,26.855,17.578,38.574,0.0,0
1581435156.186,21.484,26.366999999999997,11.719000000000001,36.621,0.0,0
1581435156.188,11.23,21.484,13.672,40.527,0.0,0
1581435156.1920002,28.809,11.23,12.207,39.062,0.0,0
1581435156.196,28.809,-2.93,5.371,41.504,0.0,0
1581435156.2,25.879,0.0,3.418,34.668,0.0,0
1581435156.204,28.32,7.812,12.695,30.273000000000003,0.0,0
1581435156.208,28.32,23.926,17.578,40.527,0.0,0
1581435156.2120001,22.949,40.527,8.301,24.414,0.0,0
1581435156.215,18.066,32.715,7.812,15.625,0.0,0
1581435156.2189999,15.137,19.043,8.789,21.484,0.0,0
1581435156.2229998,7.812,12.695,6.348,22.949,0.0,0
1581435156.2270002,14.648,10.742,10.254000000000001,25.391,0.0,0
1581435156.231,20.02,16.113,8.789,16.113,0.0,0
1581435156.248,3.906,26.366999999999997,2.441,7.812,0.0,0
1581435156.252,1.465,23.438000000000002,12.207,19.043,0.0,0
1581435156.256,12.695,6.836,13.184000000000001,24.901999999999997,0.0,0
1581435156.26,14.16,8.789,13.184000000000001,15.625,0.0,0
1581435156.264,17.578,20.02,18.066,21.97300000000001,0.0,0
1581435156.268,16.113,22.461,11.719000000000001,25.879,0.0,0
1581435156.272,14.648,20.996,10.254000000000001,18.555,0.0,0
1581435156.275,8.789,15.625,6.836,17.09,0.0,0
1581435156.279,6.348,11.23,5.371,14.16,0.0,0
1581435156.283,14.16,13.672,14.16,14.16,0.0,0
1581435156.2870002,20.996,17.09,20.02,26.366999999999997,0.0,0
1581435156.2910001,14.648,6.836,16.602,28.32,0.0,0
1581435156.293,10.254000000000001,-2.93,14.16,10.742,0.0,0
1581435156.2970002,8.301,5.859,14.16,10.254000000000001,0.0,0
1581435156.301,13.184000000000001,4.395,15.137,27.831999999999997,0.0,0
1581435156.305,14.648,10.742,11.719000000000001,28.32,0.0,0
1581435156.309,11.719000000000001,30.761999999999997,2.441,14.16,0.0,0
1581435156.313,16.113,34.18,3.906,18.066,0.0,0
1581435156.3170002,14.16,27.831999999999997,5.371,18.555,0.0,0
1581435156.32,12.207,13.184000000000001,7.324,14.16,0.0,0
1581435156.324,4.883,6.348,12.207,15.137,0.0,0
1581435156.3279998,11.719000000000001,12.695,11.719000000000001,6.348,0.0,0
1581435156.332,18.555,9.277000000000001,10.742,5.859,0.0,0
1581435156.336,9.277000000000001,-0.977,9.766,16.602,0.0,0
1581435156.3379998,13.672,-0.977,11.23,19.043,0.0,0
1581435156.342,19.531,16.602,6.836,13.672,0.0,0
1581435156.346,20.508000000000006,27.831999999999997,-2.93,14.648,0.0,0
1581435156.35,16.602,22.461,2.441,25.879,0.0,0
1581435156.3539999,20.996,15.625,15.137,30.273000000000003,0.0,0
1581435156.3579998,36.133,10.742,19.043,21.484,0.0,0
1581435156.3620002,32.227,11.719000000000001,16.602,19.043,0.0,0
1581435156.365,23.438000000000002,6.836,4.883,30.761999999999997,0.0,0
1581435156.369,30.273000000000003,3.906,5.859,31.25,0.0,0
1581435156.373,37.109,18.066,15.137,20.508000000000006,0.0,0
1581435156.377,24.901999999999997,11.719000000000001,10.254000000000001,20.02,0.0,0
1581435156.381,20.02,11.719000000000001,7.324,38.574,0.0,0
1581435156.3820002,22.949,26.855,8.789,38.574,0.0,0
1581435156.3860002,19.043,33.203,6.836,19.531,0.0,0
1581435156.39,14.648,30.761999999999997,2.93,11.23,0.0,0
1581435156.394,12.695,23.438000000000002,7.812,17.578,0.0,0
1581435156.3979998,10.254000000000001,13.184000000000001,6.836,35.645,0.0,0
1581435156.4020002,14.648,10.254000000000001,1.953,30.761999999999997,0.0,0
1581435156.4060001,21.484,14.16,7.324,12.207,0.0,0
1581435156.409,17.09,19.531,6.348,18.066,0.0,0
1581435156.4129999,13.672,20.996,4.883,18.555,0.0,0
1581435156.417,17.578,10.254000000000001,7.324,19.043,0.0,0
1581435156.421,15.625,9.277000000000001,12.695,25.391,0.0,0
1581435156.425,15.137,8.789,14.16,26.855,0.0,0
1581435156.427,23.926,15.625,10.254000000000001,29.296999999999997,0.0,0
1581435156.431,22.949,15.625,7.812,34.18,0.0,0
1581435156.435,30.761999999999997,13.672,4.883,24.901999999999997,0.0,0
1581435156.439,38.574,22.461,11.719000000000001,20.508000000000006,0.0,0
1581435156.4429998,29.785,21.97300000000001,16.113,38.086,0.0,0
1581435156.447,28.809,15.625,13.184000000000001,42.968999999999994,0.0,0
1581435156.451,31.738000000000003,8.301,9.766,41.01600000000001,0.0,0
1581435156.454,35.645,8.301,10.254000000000001,27.831999999999997,0.0,0
1581435156.458,28.809,6.836,7.324,19.043,0.0,0
1581435156.4620001,11.23,10.254000000000001,4.395,28.32,0.0,0
1581435156.466,11.23,8.789,7.324,27.344,0.0,0
1581435156.47,15.625,13.184000000000001,5.371,19.531,0.0,0
1581435156.4729998,18.066,22.461,3.906,27.831999999999997,0.0,0
1581435156.4770002,12.695,19.531,12.695,36.133,0.0,0
1581435156.481,5.859,16.113,16.602,20.508000000000006,0.0,0
1581435156.485,9.277000000000001,18.066,9.766,16.113,0.0,0
1581435156.4889998,1.953,13.184000000000001,5.859,10.742,0.0,0
1581435156.4929998,4.395,-5.859,10.742,19.043,0.0,0
1581435156.4970002,12.695,7.324,11.23,29.785,0.0,0
1581435156.5,15.625,25.879,5.371,2.441,0.0,0
1581435156.504,12.695,17.578,10.742,-3.418,0.0,0
1581435156.508,8.789,12.207,16.113,13.184000000000001,0.0,0
1581435156.512,12.207,25.879,9.277000000000001,24.414,0.0,0
1581435156.516,13.184000000000001,17.09,6.348,28.32,0.0,0
1581435156.5170002,21.484,5.371,10.742,12.695,0.0,0
1581435156.5210001,25.879,11.23,9.277000000000001,11.719000000000001,0.0,0
1581435156.525,15.137,17.578,5.371,23.926,0.0,0
1581435156.529,10.742,25.879,2.93,22.461,0.0,0
1581435156.533,14.648,24.414,3.418,20.508000000000006,0.0,0
1581435156.5370002,24.901999999999997,17.09,9.277000000000001,30.273000000000003,0.0,0
1581435156.5410001,27.344,5.371,13.672,35.645,0.0,0
1581435156.544,19.531,4.883,6.836,25.879,0.0,0
1581435156.5479999,20.508000000000006,2.93,3.906,11.719000000000001,0.0,0
1581435156.552,18.555,18.066,2.441,18.555,0.0,0
1581435156.556,16.113,22.461,1.465,30.273000000000003,0.0,0
