timestamps,TP9,AF7,AF8,TP10,Right AUX,Marker0
1581606331.833,-991.211,40.039,-0.977,21.484,0.0,0
1581606331.8370001,-871.0939999999997,53.71100000000001,-14.16,18.555,0.0,0
1581606331.841,224.609,33.691,-7.324,37.109,0.0,0
1581606331.845,-940.918,14.648,15.137,39.062,0.0,0
1581606331.849,970.215,4.883,16.113,27.831999999999997,0.0,0
1581606331.853,987.305,30.273000000000003,19.531,16.602,0.0,0
1581606331.857,-996.582,46.387,14.16,12.695,0.0,0
1581606331.86,999.512,37.598,5.859,23.926,0.0,0
1581606331.8639998,999.512,17.09,0.488,25.391,0.0,0
1581606331.8679998,999.512,17.09,2.441,13.672,0.0,0
1581606331.8720002,999.512,41.01600000000001,8.301,9.277000000000001,0.0,0
1581606331.8760002,999.512,40.039,-4.395,36.621,0.0,0
1581606331.8779998,999.512,34.18,0.0,69.824,0.0,0
1581606331.8820002,999.512,34.668,17.09,42.48,0.0,0
1581606331.8860002,999.512,33.691,24.901999999999997,-9.277000000000001,0.0,0
1581606331.89,999.512,28.32,28.809,-15.625,0.0,0
1581606331.894,999.512,31.738000000000003,26.366999999999997,-21.97300000000001,0.0,0
1581606331.8979998,999.512,46.875,18.066,-48.34,0.0,0
1581606331.9020002,999.512,28.32,15.625,-55.176,0.0,0
1581606331.905,999.512,0.0,13.672,-61.523,0.0,0
1581606331.909,999.512,-0.977,-4.395,-70.312,0.0,0
1581606331.9129999,999.512,-18.555,-9.766,-73.242,0.0,0
1581606331.917,999.512,-17.09,11.719000000000001,-62.012,0.0,0
1581606331.921,999.512,7.812,31.738000000000003,-49.805,0.0,0
1581606331.9229999,-998.535,13.672,32.715,-50.293,0.0,0
1581606331.927,986.816,11.719000000000001,22.461,-40.527,0.0,0
1581606331.931,-996.582,0.488,0.488,-39.062,0.0,0
1581606331.935,921.387,-1.953,-4.883,-39.551,0.0,0
1581606331.939,344.23800000000006,-2.93,-1.953,-23.926,0.0,0
1581606331.9429998,-125.977,15.625,-0.977,-21.484,0.0,0
1581606331.947,-277.832,6.836,0.0,-23.438000000000002,0.0,0
1581606331.95,-652.344,-11.23,-7.812,-25.391,0.0,0
1581606331.954,-936.523,0.488,-11.719000000000001,-13.672,0.0,0
1581606331.958,-960.938,0.488,-11.23,2.93,0.0,0
1581606331.9620001,-871.582,1.953,10.254000000000001,-0.488,0.0,0
1581606331.966,-917.48,8.301,13.672,3.418,0.0,0
1581606331.968,-880.3710000000003,-1.465,1.465,4.883,0.0,0
1581606331.9720001,-385.254,2.441,2.441,13.672,0.0,0
1581606331.976,345.70300000000015,14.648,-9.766,12.695,0.0,0
1581606331.98,878.9060000000003,8.789,-12.695,10.742,0.0,0
1581606331.984,-985.352,8.789,1.953,10.254000000000001,0.0,0
1581606331.988,-83.49600000000002,15.137,14.16,27.344,0.0,0
1581606331.992,-1000.0,22.461,19.043,26.366999999999997,0.0,0
1581606331.995,-200.195,20.996,13.184000000000001,0.0,0.0,0
1581606331.9989998,811.035,11.719000000000001,0.977,9.277000000000001,0.0,0
1581606332.0029998,-990.7230000000001,20.508000000000006,-1.465,15.137,0.0,0
1581606332.0070002,957.52,21.484,16.113,25.391,0.0,0
1581606332.0110002,-977.051,19.531,25.879,24.901999999999997,0.0,0
1581606332.0279999,831.543,6.348,22.949,7.324,0.0,0
1581606332.032,340.332,-15.137,14.648,20.508000000000006,0.0,0
1581606332.036,28.32,12.695,18.555,23.926,0.0,0
1581606332.04,-129.395,51.758,22.461,6.348,0.0,0
1581606332.044,-58.593999999999994,47.852,-0.977,13.184000000000001,0.0,0
1581606332.0479999,424.316,23.926,4.883,14.648,0.0,0
1581606332.052,934.082,12.695,33.203,-3.418,0.0,0
1581606332.055,-992.188,12.695,30.761999999999997,9.766,0.0,0
1581606332.059,983.887,31.25,6.836,18.066,0.0,0
1581606332.063,-997.559,40.039,7.324,4.395,0.0,0
1581606332.0670002,999.512,24.414,16.602,14.648,0.0,0
1581606332.071,999.512,19.531,15.137,22.949,0.0,0
1581606332.073,999.512,24.414,6.348,17.578,0.0,0
1581606332.0770001,999.512,12.207,-7.812,22.949,0.0,0
1581606332.081,999.512,18.555,-24.414,18.555,0.0,0
1581606332.085,999.512,25.391,-19.531,-3.418,0.0,0
1581606332.089,999.512,11.23,-2.441,-8.789,0.0,0
1581606332.093,999.512,30.273000000000003,-7.812,1.953,0.0,0
1581606332.0970001,999.512,51.27,0.977,12.207,0.0,0
1581606332.1,999.512,46.875,2.93,15.625,0.0,0
1581606332.1039999,999.512,37.109,-21.97300000000001,14.16,0.0,0
1581606332.1079998,999.512,28.32,-17.09,-2.93,0.0,0
1581606332.1120002,999.512,15.137,13.184000000000001,-5.859,0.0,0
1581606332.1160002,999.512,-4.395,21.484,17.09,0.0,0
1581606332.1179998,999.512,12.207,16.602,10.742,0.0,0
1581606332.1220002,999.512,46.387,10.742,4.883,0.0,0
1581606332.1260002,999.512,47.363,6.348,15.137,0.0,0
1581606332.13,999.512,19.043,-0.488,10.254000000000001,0.0,0
1581606332.1339998,999.512,-0.488,-2.441,17.09,0.0,0
1581606332.1379998,999.512,27.831999999999997,14.648,29.785,0.0,0
1581606332.1420002,999.512,28.809,15.625,21.484,0.0,0
1581606332.145,999.512,15.137,10.254000000000001,22.461,0.0,0
1581606332.149,999.512,26.366999999999997,8.301,21.484,0.0,0
1581606332.1529999,999.512,20.02,4.395,20.996,0.0,0
1581606332.157,999.512,17.09,8.301,20.02,0.0,0
1581606332.161,999.512,22.461,11.719000000000001,17.578,0.0,0
1581606332.1629999,999.512,16.113,18.555,28.32,0.0,0
1581606332.167,999.512,4.395,21.97300000000001,29.785,0.0,0
1581606332.171,999.512,3.906,0.0,14.16,0.0,0
1581606332.175,999.512,9.766,-17.578,10.254000000000001,0.0,0
1581606332.179,999.512,19.043,0.488,14.16,0.0,0
1581606332.1829998,999.512,34.668,16.602,28.809,0.0,0
1581606332.187,999.512,45.898,8.789,32.227,0.0,0
1581606332.19,999.512,12.207,9.277000000000001,22.461,0.0,0
1581606332.194,999.512,-0.488,8.789,17.09,0.0,0
1581606332.198,-998.535,40.039,-0.977,7.812,0.0,0
1581606332.2020001,991.211,29.296999999999997,2.441,25.391,0.0,0
1581606332.206,987.305,14.648,-21.97300000000001,20.02,0.0,0
1581606332.208,-990.2339999999999,48.828,-11.719000000000001,9.766,0.0,0
1581606332.2120001,517.09,53.71100000000001,36.133,16.113,0.0,0
1581606332.216,-2.441,43.457,43.945,-1.465,0.0,0
1581606332.22,589.844,39.551,33.203,9.766,0.0,0
1581606332.224,-943.8480000000001,17.578,14.648,24.414,0.0,0
1581606332.228,978.0269999999999,20.996,9.277000000000001,27.344,0.0,0
1581606332.232,988.77,36.133,15.137,34.18,0.0,0
1581606332.235,959.4730000000001,28.32,22.461,41.01600000000001,0.0,0
1581606332.2389998,-925.7810000000001,-1.465,8.789,32.227,0.0,0
1581606332.2429998,193.84799999999998,-11.719000000000001,-25.391,20.996,0.0,0
1581606332.2470002,-967.773,33.203,-6.836,37.109,0.0,0
1581606332.2510002,-969.238,53.71100000000001,33.203,42.48,0.0,0
1581606332.2529998,-944.824,20.996,20.996,26.366999999999997,0.0,0
1581606332.2570002,-979.492,8.789,10.742,15.625,0.0,0
1581606332.2610002,-972.168,24.901999999999997,21.484,33.691,0.0,0
1581606332.265,-972.6560000000001,-15.137,20.02,28.32,0.0,0
1581606332.269,-972.6560000000001,-43.457,20.508000000000006,10.742,0.0,0
1581606332.2729998,-974.1210000000001,3.418,17.09,20.508000000000006,0.0,0
1581606332.2770002,-962.8910000000001,21.97300000000001,9.277000000000001,28.809,0.0,0
1581606332.28,-986.328,15.625,6.348,21.484,0.0,0
1581606332.284,-954.102,7.812,4.395,-9.277000000000001,0.0,0
1581606332.2879999,-712.8910000000003,16.113,-1.953,0.0,0.0,0
1581606332.292,-933.105,33.691,-18.555,31.25,0.0,0
1581606332.296,-628.418,28.809,-17.578,17.578,0.0,0
1581606332.2979999,621.094,15.625,-0.488,15.625,0.0,0
1581606332.302,-958.4960000000001,5.371,19.531,32.227,0.0,0
1581606332.306,962.8910000000001,-14.648,18.066,30.761999999999997,0.0,0
1581606332.31,999.512,0.977,-2.93,29.296999999999997,0.0,0
1581606332.314,-999.023,27.831999999999997,4.883,21.484,0.0,0
1581606332.3179998,999.512,19.531,-8.789,23.438000000000002,0.0,0
1581606332.322,999.512,34.668,1.465,36.621,0.0,0
1581606332.325,999.512,54.199,27.344,30.273000000000003,0.0,0
1581606332.329,-996.582,42.968999999999994,21.484,25.879,0.0,0
1581606332.333,943.3589999999999,26.366999999999997,0.0,19.043,0.0,0
1581606332.3370001,-870.605,22.949,-8.789,13.184000000000001,0.0,0
1581606332.341,404.29699999999997,30.273000000000003,10.742,18.066,0.0,0
1581606332.343,-460.93800000000016,12.695,18.555,29.296999999999997,0.0,0
1581606332.3470001,84.961,20.508000000000006,9.766,34.18,0.0,0
1581606332.351,227.051,36.133,2.93,33.691,0.0,0
1581606332.355,-263.672,20.02,-0.488,29.785,0.0,0
1581606332.359,-889.648,9.766,-3.906,35.645,0.0,0
1581606332.363,-981.445,15.137,1.953,39.062,0.0,0
1581606332.367,-952.148,1.465,3.906,35.645,0.0,0
1581606332.37,-937.988,5.859,5.859,41.504,0.0,0
1581606332.3739998,-450.195,27.831999999999997,-6.836,43.945,0.0,0
1581606332.3779998,-145.02,29.785,-12.695,12.695,0.0,0
1581606332.3820002,-17.578,29.296999999999997,7.324,10.254000000000001,0.0,0
1581606332.3860002,381.836,30.273000000000003,16.113,25.879,0.0,0
1581606332.389,589.844,25.879,0.977,15.625,0.0,0
1581606332.393,772.461,24.901999999999997,-13.672,31.738000000000003,0.0,0
1581606332.397,825.195,23.438000000000002,0.977,41.01600000000001,0.0,0
1581606332.401,500.48800000000006,7.812,17.09,39.062,0.0,0
1581606332.405,200.195,-16.602,15.625,34.668,0.0,0
1581606332.409,582.031,-17.578,14.16,17.578,0.0,0
1581606332.4129999,983.887,9.766,-3.418,5.859,0.0,0
1581606332.4160001,997.07,17.09,-11.23,13.184000000000001,0.0,0
1581606332.42,988.2810000000001,19.531,4.883,20.508000000000006,0.0,0
1581606332.424,998.047,13.184000000000001,8.789,21.97300000000001,0.0,0
1581606332.428,993.164,3.418,14.16,24.414,0.0,0
1581606332.4320002,973.145,4.395,3.906,12.207,0.0,0
1581606332.448,692.8710000000003,6.836,-10.254000000000001,22.949,0.0,0
1581606332.4520001,302.246,24.414,-5.859,38.086,0.0,0
1581606332.456,301.758,31.738000000000003,-1.953,26.366999999999997,0.0,0
1581606332.46,204.102,19.043,-3.418,21.484,0.0,0
1581606332.464,-424.805,4.395,6.836,31.738000000000003,0.0,0
1581606332.468,-1000.0,3.906,16.602,24.414,0.0,0
1581606332.4720001,-738.2810000000003,7.812,20.508000000000006,26.366999999999997,0.0,0
1581606332.475,-293.945,-6.836,4.883,22.461,0.0,0
1581606332.4789999,-251.465,-6.836,-14.648,16.113,0.0,0
1581606332.4829998,18.066,2.441,5.371,12.695,0.0,0
1581606332.4870002,234.375,8.301,22.949,18.555,0.0,0
1581606332.4910002,253.90599999999998,26.855,3.418,23.926,0.0,0
1581606332.4929998,214.355,20.996,2.441,16.113,0.0,0
1581606332.4970002,45.898,25.391,19.043,23.438000000000002,0.0,0
1581606332.5010002,-11.23,38.086,3.906,4.395,0.0,0
1581606332.505,201.66,31.25,-6.836,-3.418,0.0,0
1581606332.5089998,374.023,12.207,1.465,15.625,0.0,0
1581606332.5129998,522.461,-1.953,-5.371,20.508000000000006,0.0,0
1581606332.5170002,-951.66,-4.883,3.906,31.25,0.0,0
1581606332.52,295.89799999999997,1.953,10.742,39.551,0.0,0
1581606332.524,-385.254,15.625,6.836,12.695,0.0,0
1581606332.5279999,721.68,37.598,8.301,6.836,0.0,0
1581606332.532,-928.2230000000001,43.457,-0.488,21.97300000000001,0.0,0
1581606332.536,954.59,29.296999999999997,-4.883,26.366999999999997,0.0,0
1581606332.5379999,-996.582,16.602,7.324,34.668,0.0,0
1581606332.542,-1000.0,16.113,13.672,32.715,0.0,0
1581606332.546,999.512,18.555,5.371,32.715,0.0,0
1581606332.55,999.512,26.855,10.742,31.738000000000003,0.0,0
1581606332.554,999.512,29.785,17.09,26.366999999999997,0.0,0
1581606332.5579998,999.512,8.301,18.555,32.715,0.0,0
1581606332.562,999.512,8.789,15.625,35.156,0.0,0
1581606332.565,999.512,20.996,1.465,34.668,0.0,0
1581606332.569,999.512,8.789,1.465,16.113,0.0,0
1581606332.573,-996.0939999999999,4.883,10.742,21.97300000000001,0.0,0
1581606332.5770001,980.957,17.578,-1.953,17.578,0.0,0
1581606332.581,968.262,25.879,-5.371,17.578,0.0,0
1581606332.583,-875.0,26.855,8.301,18.555,0.0,0
1581606332.5870001,-162.59799999999996,-19.043,4.395,17.09,0.0,0
1581606332.591,-438.965,-35.645,-2.441,30.273000000000003,0.0,0
1581606332.595,992.188,-2.441,-1.953,32.715,0.0,0
1581606332.599,-975.586,7.812,3.418,26.855,0.0,0
1581606332.603,958.9839999999999,-6.836,-2.93,17.578,0.0,0
1581606332.607,-992.188,-15.625,-13.184000000000001,26.855,0.0,0
1581606332.61,999.512,1.465,-3.906,23.926,0.0,0
1581606332.6139998,999.512,12.207,-6.836,-0.488,0.0,0
1581606332.6179998,999.512,32.227,-8.301,-13.184000000000001,0.0,0
1581606332.6220002,999.512,32.715,2.441,4.883,0.0,0
1581606332.6260002,997.559,23.926,1.953,28.32,0.0,0
1581606332.6279998,989.7460000000001,36.621,-24.414,28.809,0.0,0
1581606332.6320002,-958.9839999999999,41.992,-24.901999999999997,25.879,0.0,0
1581606332.6360002,772.461,28.32,3.418,19.531,0.0,0
1581606332.64,774.414,16.602,2.441,16.602,0.0,0
1581606332.644,-959.961,22.949,7.324,22.461,0.0,0
1581606332.6479998,991.211,18.066,30.761999999999997,27.831999999999997,0.0,0
1581606332.6520002,996.0939999999999,8.789,25.391,30.761999999999997,0.0,0
1581606332.655,986.328,20.996,7.812,10.254000000000001,0.0,0
1581606332.659,997.07,22.461,6.348,3.906,0.0,0
1581606332.6629999,-999.023,5.859,2.93,13.184000000000001,0.0,0
1581606332.667,998.535,19.531,-5.859,18.066,0.0,0
1581606332.671,999.512,43.457,-0.977,25.391,0.0,0
1581606332.6729999,999.512,31.25,5.371,22.949,0.0,0
1581606332.677,999.512,20.996,2.441,33.691,0.0,0
1581606332.681,999.512,8.789,2.441,25.879,0.0,0
1581606332.685,999.512,-19.531,11.719000000000001,32.715,0.0,0
1581606332.689,999.512,3.418,16.602,46.875,0.0,0
1581606332.6929998,999.512,39.062,7.324,25.391,0.0,0
1581606332.697,999.512,54.199,-6.836,25.391,0.0,0
1581606332.7,999.512,67.383,-10.742,31.738000000000003,0.0,0
1581606332.704,-998.535,62.5,3.906,25.391,0.0,0
1581606332.708,986.816,41.992,16.602,21.97300000000001,0.0,0
1581606332.7120001,-992.676,19.531,20.996,8.789,0.0,0
1581606332.716,977.051,1.465,18.555,18.066,0.0,0
1581606332.718,533.203,2.441,-0.977,6.836,0.0,0
1581606332.7220001,509.76599999999996,20.02,-8.301,6.836,0.0,0
1581606332.726,902.832,2.441,-4.883,34.668,0.0,0
1581606332.73,572.266,3.418,-9.766,36.621,0.0,0
1581606332.734,295.41,37.598,5.859,18.555,0.0,0
1581606332.738,668.945,44.922,29.296999999999997,29.785,0.0,0
1581606332.742,876.465,38.574,7.812,22.461,0.0,0
1581606332.745,603.516,32.715,-20.02,0.0,0.0,0
1581606332.7489998,354.49199999999996,27.831999999999997,5.371,15.625,0.0,0
1581606332.7529998,263.184,28.32,22.461,20.508000000000006,0.0,0
1581606332.7570002,123.04700000000001,14.648,15.137,8.301,0.0,0
1581606332.7610002,196.77700000000002,10.254000000000001,10.742,19.043,0.0,0
1581606332.7629998,139.16,9.277000000000001,4.395,29.785,0.0,0
1581606332.7670002,-47.363,10.254000000000001,1.465,22.461,0.0,0
1581606332.7710001,-10.254000000000001,29.785,-10.742,30.273000000000003,0.0,0
1581606332.775,163.57399999999996,40.039,-5.371,23.926,0.0,0
1581606332.779,169.922,37.598,8.301,10.742,0.0,0
1581606332.783,-137.695,36.133,14.648,20.508000000000006,0.0,0
1581606332.7870002,-308.105,23.926,13.184000000000001,14.16,0.0,0
1581606332.79,-197.75400000000002,15.625,1.953,22.461,0.0,0
1581606332.794,-93.75,4.883,2.441,32.715,0.0,0
1581606332.7979999,-117.676,1.465,-14.648,43.457,0.0,0
1581606332.802,-341.79699999999997,-6.348,-13.672,51.27,0.0,0
1581606332.806,-500.0,13.184000000000001,19.043,24.901999999999997,0.0,0
1581606332.823,-637.695,52.246,28.809,25.391,0.0,0
1581606332.8270001,-924.316,43.457,23.926,31.738000000000003,0.0,0
1581606332.831,-984.863,34.668,17.578,38.086,0.0,0
1581606332.835,-961.426,29.296999999999997,17.09,32.715,0.0,0
1581606332.839,-974.6089999999999,3.906,11.23,9.277000000000001,0.0,0
1581606332.843,-972.6560000000001,12.695,2.441,10.254000000000001,0.0,0
1581606332.8470001,-972.6560000000001,23.926,6.348,34.668,0.0,0
1581606332.85,-969.238,15.625,0.0,50.78100000000001,0.0,0
1581606332.8539999,-973.145,13.184000000000001,-2.441,50.78100000000001,0.0,0
1581606332.8579998,-984.375,10.742,11.23,31.25,0.0,0
1581606332.8620002,-853.5160000000003,-13.184000000000001,11.719000000000001,34.18,0.0,0
1581606332.8660002,-894.043,-33.203,10.254000000000001,61.523,0.0,0
1581606332.8679998,-987.793,3.906,17.578,55.663999999999994,0.0,0
1581606332.8720002,-964.355,44.922,2.93,38.086,0.0,0
1581606332.8760002,-923.828,41.992,-6.836,20.508000000000006,0.0,0
1581606332.88,-618.164,20.02,4.395,14.648,0.0,0
1581606332.8839998,-47.363,7.812,-2.93,16.602,0.0,0
1581606332.8879998,485.84,-0.488,-7.812,18.066,0.0,0
1581606332.8920002,586.4259999999998,-13.184000000000001,9.766,16.113,0.0,0
1581606332.895,-176.75799999999995,-7.324,20.508000000000006,25.879,0.0,0
1581606332.899,-958.9839999999999,22.949,9.277000000000001,42.48,0.0,0
1581606332.9029999,-968.262,36.621,-0.977,15.625,0.0,0
1581606332.907,-953.613,42.968999999999994,4.395,2.93,0.0,0
1581606332.911,-977.539,41.504,5.859,20.996,0.0,0
1581606332.9129999,-972.6560000000001,16.602,8.301,26.366999999999997,0.0,0
1581606332.917,-972.6560000000001,-5.859,12.207,34.668,0.0,0
1581606332.921,-972.6560000000001,2.441,3.418,34.18,0.0,0
1581606332.925,-972.168,20.508000000000006,0.977,22.461,0.0,0
1581606332.929,-972.168,16.113,16.113,16.602,0.0,0
1581606332.9329998,-972.6560000000001,-9.766,23.438000000000002,25.879,0.0,0
1581606332.937,-972.6560000000001,5.859,17.09,18.555,0.0,0
1581606332.94,-972.6560000000001,32.715,22.461,14.16,0.0,0
1581606332.944,-972.6560000000001,32.715,18.555,24.414,0.0,0
1581606332.948,-972.6560000000001,39.062,13.672,12.207,0.0,0
1581606332.9520001,-975.0980000000001,35.645,6.836,4.395,0.0,0
1581606332.956,-935.059,18.555,4.883,17.578,0.0,0
1581606332.958,-1000.0,21.484,17.09,28.32,0.0,0
1581606332.9620001,-669.434,14.16,6.836,36.133,0.0,0
1581606332.966,507.81199999999995,-7.324,3.418,15.625,0.0,0
1581606332.97,-951.172,13.672,-0.488,0.0,0.0,0
1581606332.974,964.8439999999999,27.831999999999997,-16.113,1.465,0.0,0
1581606332.978,996.0939999999999,17.578,-12.207,12.695,0.0,0
1581606332.982,-998.535,31.25,10.254000000000001,30.761999999999997,0.0,0
1581606332.985,999.512,47.363,14.648,15.137,0.0,0
1581606332.9889998,999.512,48.828,13.672,-14.648,0.0,0
1581606332.9929998,-992.188,39.551,7.324,-17.578,0.0,0
1581606332.9970002,962.8910000000001,28.32,4.883,2.441,0.0,0
1581606333.0010002,-993.164,21.97300000000001,11.23,12.207,0.0,0
1581606333.0029998,-965.332,-4.883,2.93,7.324,0.0,0
1581606333.0070002,-418.457,0.0,-1.953,10.254000000000001,0.0,0
1581606333.0110002,-402.344,36.621,8.301,30.761999999999997,0.0,0
1581606333.015,-954.59,46.875,8.789,19.043,0.0,0
1581606333.019,-997.07,57.617,14.16,-6.348,0.0,0
1581606333.0229998,964.355,59.082,22.461,11.23,0.0,0
1581606333.0270002,-992.188,51.27,15.625,30.761999999999997,0.0,0
1581606333.03,999.512,52.733999999999995,19.531,19.531,0.0,0
1581606333.034,999.512,45.41,7.324,0.0,0.0,0
1581606333.0379999,999.512,27.344,2.441,24.901999999999997,0.0,0
1581606333.042,999.512,29.296999999999997,28.32,43.457,0.0,0
1581606333.046,999.512,40.527,30.273000000000003,35.156,0.0,0
1581606333.0479999,999.512,41.992,18.555,36.621,0.0,0
1581606333.052,999.512,27.831999999999997,-2.441,25.391,0.0,0
1581606333.056,999.512,15.137,-1.953,8.301,0.0,0
1581606333.06,999.512,31.25,20.508000000000006,14.648,0.0,0
1581606333.064,999.512,41.01600000000001,9.766,15.137,0.0,0
1581606333.0679998,999.512,60.059,-8.301,10.254000000000001,0.0,0
1581606333.072,999.512,57.617,0.0,26.366999999999997,0.0,0
1581606333.075,999.512,35.156,7.812,12.207,0.0,0
1581606333.079,999.512,29.785,5.859,12.207,0.0,0
1581606333.083,999.512,24.901999999999997,4.883,31.738000000000003,0.0,0
1581606333.0870001,999.512,13.184000000000001,10.254000000000001,17.09,0.0,0
1581606333.091,999.512,5.859,18.066,18.555,0.0,0
1581606333.093,999.512,21.97300000000001,16.113,20.02,0.0,0
1581606333.0970001,999.512,40.039,4.883,19.531,0.0,0
1581606333.101,999.512,47.363,0.0,24.414,0.0,0
1581606333.105,999.512,41.504,-0.977,9.766,0.0,0
1581606333.109,999.512,41.504,4.883,3.418,0.0,0
1581606333.113,999.512,37.109,15.137,10.254000000000001,0.0,0
1581606333.117,999.512,34.668,-1.953,22.461,0.0,0
1581606333.12,999.512,30.273000000000003,-11.719000000000001,20.996,0.0,0
1581606333.1239998,999.512,11.23,-20.996,13.672,0.0,0
1581606333.1279998,999.512,23.438000000000002,-4.395,22.949,0.0,0
1581606333.1320002,999.512,35.645,11.719000000000001,36.133,0.0,0
1581606333.1360002,999.512,10.254000000000001,9.766,41.01600000000001,0.0,0
1581606333.1379998,999.512,16.113,1.953,39.062,0.0,0
1581606333.1420002,999.512,30.761999999999997,-5.859,8.301,0.0,0
1581606333.1460001,999.512,15.625,0.488,-6.836,0.0,0
1581606333.15,999.512,14.648,2.441,9.277000000000001,0.0,0
1581606333.154,999.512,24.901999999999997,0.0,29.296999999999997,0.0,0
1581606333.158,999.512,16.602,3.418,40.039,0.0,0
1581606333.1620002,999.512,25.879,2.93,4.883,0.0,0
1581606333.165,999.512,41.992,-7.324,-14.16,0.0,0
1581606333.169,-999.023,54.688,-14.16,6.836,0.0,0
1581606333.1729999,993.164,37.598,-11.23,23.438000000000002,0.0,0
1581606333.177,996.582,13.672,-0.977,30.761999999999997,0.0,0
1581606333.181,-983.887,20.996,6.836,4.395,0.0,0
1581606333.198,703.613,20.996,13.184000000000001,-6.348,0.0,0
1581606333.2020001,537.109,25.879,17.09,1.953,0.0,0
1581606333.206,997.07,21.97300000000001,7.324,-5.371,0.0,0
1581606333.21,260.254,14.648,1.953,4.395,0.0,0
1581606333.214,-1000.0,11.719000000000001,8.789,0.0,0.0,0
1581606333.218,-689.941,-8.301,2.441,2.441,0.0,0
1581606333.2220001,-514.648,-9.766,-6.836,10.254000000000001,0.0,0
1581606333.225,-1000.0,15.625,4.395,6.348,0.0,0
1581606333.2289999,-796.875,35.156,15.137,14.16,0.0,0
1581606333.2329998,-248.047,35.645,13.184000000000001,16.113,0.0,0
1581606333.2370002,468.75,43.457,8.301,15.137,0.0,0
1581606333.2410002,832.0310000000003,45.898,5.371,20.508000000000006,0.0,0
1581606333.2429998,-432.61699999999996,43.457,17.578,25.879,0.0,0
1581606333.2470002,-1000.0,37.598,17.578,38.086,0.0,0
1581606333.2510002,-907.715,26.366999999999997,11.719000000000001,37.109,0.0,0
1581606333.255,-979.0039999999999,8.301,11.23,7.812,0.0,0
1581606333.2589998,-972.6560000000001,0.977,18.555,10.742,0.0,0
1581606333.2629998,-972.168,18.066,12.207,23.926,0.0,0
1581606333.2670002,-972.168,23.926,5.371,12.207,0.0,0
1581606333.27,-979.98,8.789,9.277000000000001,9.766,0.0,0
1581606333.274,-923.828,6.836,-1.953,7.812,0.0,0
1581606333.2779999,-1000.0,9.277000000000001,-9.766,8.301,0.0,0
1581606333.282,-699.707,5.859,-1.465,14.648,0.0,0
1581606333.286,594.238,30.273000000000003,11.23,24.901999999999997,0.0,0
1581606333.2879999,-931.1519999999999,47.363,10.742,19.531,0.0,0
1581606333.292,950.684,40.527,5.371,19.043,0.0,0
1581606333.296,-985.84,40.527,20.508000000000006,18.066,0.0,0
1581606333.3,926.758,-3.906,17.09,14.648,0.0,0
1581606333.304,-863.2810000000003,-29.785,0.488,22.461,0.0,0
1581606333.3079998,414.551,23.926,4.395,16.113,0.0,0
1581606333.312,-967.773,35.156,17.09,23.438000000000002,0.0,0
1581606333.315,-989.7460000000001,10.742,13.184000000000001,29.785,0.0,0
1581606333.319,-937.5,3.906,5.371,20.508000000000006,0.0,0
1581606333.323,-917.48,-3.418,6.348,23.438000000000002,0.0,0
1581606333.3270001,-1000.0,-0.488,-3.906,17.578,0.0,0
1581606333.331,-395.996,18.555,-1.953,22.461,0.0,0
1581606333.3479998,957.0310000000001,26.855,3.418,42.968999999999994,0.0,0
1581606333.3520002,-979.0039999999999,3.906,2.93,39.551,0.0,0
1581606333.356,956.543,4.395,10.742,20.508000000000006,0.0,0
1581606333.36,-989.7460000000001,12.207,15.625,12.695,0.0,0
1581606333.3639998,999.512,11.23,13.672,28.32,0.0,0
1581606333.3679998,999.512,40.527,20.996,28.809,0.0,0
1581606333.3720002,999.512,48.828,20.02,13.672,0.0,0
1581606333.375,999.512,39.062,11.719000000000001,7.812,0.0,0
1581606333.379,-1000.0,22.461,1.465,8.301,0.0,0
1581606333.383,999.023,-7.324,-16.113,-6.836,0.0,0
1581606333.387,938.477,1.953,-1.465,-8.789,0.0,0
1581606333.391,-865.2339999999997,25.391,6.348,20.02,0.0,0
1581606333.3779998,205.56599999999997,11.719000000000001,3.906,15.625,0.0,0
1581606333.3820002,-1000.0,-1.465,7.324,12.207,0.0,0
1581606333.3860002,-955.078,1.953,-1.465,25.879,0.0,0
1581606333.39,-945.801,-2.441,6.348,20.508000000000006,0.0,0
1581606333.394,-979.0039999999999,3.906,11.719000000000001,17.09,0.0,0
1581606333.3979998,-972.6560000000001,16.113,16.113,25.391,0.0,0
1581606333.4020002,-972.168,3.906,11.23,27.831999999999997,0.0,0
1581606333.405,-972.168,-6.836,-3.418,23.438000000000002,0.0,0
1581606333.409,-972.6560000000001,1.465,0.977,29.785,0.0,0
1581606333.4129999,-972.168,8.301,20.02,33.691,0.0,0
1581606333.417,-972.6560000000001,16.602,15.625,20.02,0.0,0
1581606333.421,-972.168,-13.184000000000001,-1.465,-8.789,0.0,0
1581606333.4229999,-972.168,-27.831999999999997,-12.207,5.371,0.0,0
1581606333.427,-972.168,10.742,-20.996,35.645,0.0,0
1581606333.431,-972.6560000000001,12.207,-18.555,12.695,0.0,0
1581606333.435,-972.6560000000001,2.93,-0.488,10.254000000000001,0.0,0
1581606333.439,-972.168,12.695,11.23,11.719000000000001,0.0,0
1581606333.4429998,-972.168,21.97300000000001,7.812,3.906,0.0,0
1581606333.447,-972.168,22.461,2.441,21.97300000000001,0.0,0
1581606333.45,-972.168,14.16,-0.977,26.366999999999997,0.0,0
1581606333.454,-972.168,-1.465,-4.395,12.207,0.0,0
1581606333.458,-972.6560000000001,-2.441,11.23,11.719000000000001,0.0,0
1581606333.4620001,-972.6560000000001,16.113,20.508000000000006,29.785,0.0,0
1581606333.466,-972.168,18.066,12.207,25.879,0.0,0
1581606333.468,-972.168,29.785,3.418,22.461,0.0,0
1581606333.4720001,-972.168,23.438000000000002,6.348,33.203,0.0,0
1581606333.476,-972.6560000000001,-5.371,11.23,28.809,0.0,0
1581606333.48,-972.6560000000001,0.488,8.301,18.066,0.0,0
1581606333.484,-972.168,19.043,12.207,17.578,0.0,0
1581606333.488,-972.168,7.812,9.766,26.366999999999997,0.0,0
1581606333.492,-972.168,3.906,2.441,21.484,0.0,0
1581606333.495,-972.6560000000001,5.859,6.348,14.16,0.0,0
1581606333.4989998,-972.6560000000001,2.93,9.277000000000001,18.555,0.0,0
1581606333.5029998,-972.6560000000001,27.831999999999997,5.371,24.901999999999997,0.0,0
1581606333.5070002,-972.6560000000001,33.691,4.395,16.113,0.0,0
1581606333.5110002,-972.168,27.831999999999997,6.836,-4.395,0.0,0
1581606333.514,-972.6560000000001,26.366999999999997,11.23,0.0,0.0,0
1581606333.518,-972.6560000000001,22.949,14.16,28.32,0.0,0
1581606333.522,-972.168,18.555,12.207,29.785,0.0,0
1581606333.526,-972.6560000000001,11.23,9.766,24.901999999999997,0.0,0
1581606333.53,-972.6560000000001,5.859,12.207,15.137,0.0,0
1581606333.534,-972.168,-10.254000000000001,13.672,11.719000000000001,0.0,0
1581606333.5379999,-972.168,-16.113,4.395,6.836,0.0,0
1581606333.5410001,-972.168,7.324,-8.789,6.836,0.0,0
1581606333.545,-972.168,20.02,-2.93,23.926,0.0,0
1581606333.549,-972.168,15.137,2.93,23.926,0.0,0
1581606333.553,-972.6560000000001,13.184000000000001,8.789,13.672,0.0,0
1581606333.5570002,-972.168,30.273000000000003,22.461,26.855,0.0,0
1581606333.574,-972.168,37.109,17.09,16.602,0.0,0
1581606333.5779998,-972.6560000000001,10.742,1.953,4.883,0.0,0
1581606333.582,-972.168,9.766,-3.906,22.461,0.0,0
1581606333.586,-972.168,12.207,2.93,26.366999999999997,0.0,0
1581606333.59,-972.6560000000001,2.93,-0.488,23.926,0.0,0
1581606333.5939999,-972.6560000000001,10.254000000000001,-4.395,13.672,0.0,0
1581606333.5979998,-972.6560000000001,17.09,7.324,3.906,0.0,0
1581606333.601,-972.168,2.441,2.93,9.277000000000001,0.0,0
1581606333.605,-972.168,6.836,-8.789,18.066,0.0,0
1581606333.609,-972.168,14.16,-8.301,9.277000000000001,0.0,0
1581606333.613,-972.168,4.395,-2.93,10.742,0.0,0
1581606333.617,-972.168,17.09,0.977,30.761999999999997,0.0,0
1581606333.619,-972.168,24.414,3.906,32.227,0.0,0
1581606333.623,-972.6560000000001,17.578,6.836,20.02,0.0,0
1581606333.627,-977.539,22.461,2.93,24.901999999999997,0.0,0
1581606333.631,-941.4060000000001,23.926,4.883,32.227,0.0,0
1581606333.635,-984.863,16.113,13.184000000000001,34.18,0.0,0
1581606333.639,-867.188,13.184000000000001,-7.324,30.273000000000003,0.0,0
1581606333.643,311.52299999999997,5.859,-8.789,23.438000000000002,0.0,0
1581606333.6460001,-920.41,10.742,19.531,26.855,0.0,0
1581606333.65,958.008,33.203,27.831999999999997,27.831999999999997,0.0,0
1581606333.654,993.6519999999999,37.598,21.484,2.441,0.0,0
1581606333.658,-999.512,20.996,-0.977,0.0,0.0,0
1581606333.6620002,988.2810000000001,20.02,-1.953,26.366999999999997,0.0,0
1581606333.664,-957.0310000000001,20.02,14.648,25.391,0.0,0
1581606333.668,758.301,19.531,-0.977,24.901999999999997,0.0,0
1581606333.6720002,755.3710000000003,37.598,-16.113,17.578,0.0,0
1581606333.676,-956.055,41.992,2.93,15.625,0.0,0
1581606333.68,989.258,30.273000000000003,11.23,32.227,0.0,0
1581606333.684,997.559,20.02,3.418,29.296999999999997,0.0,0
1581606333.688,999.512,18.555,9.277000000000001,18.066,0.0,0
1581606333.691,999.512,20.996,15.137,22.949,0.0,0
1581606333.695,999.512,32.715,3.418,16.602,0.0,0
1581606333.699,999.512,34.18,3.906,1.953,0.0,0
1581606333.7029998,999.512,29.785,12.207,18.066,0.0,0
1581606333.707,999.512,40.527,16.113,33.691,0.0,0
1581606333.7089999,999.512,45.41,14.16,38.086,0.0,0
1581606333.7129998,999.512,35.156,-2.93,32.715,0.0,0
1581606333.717,999.512,29.785,-8.301,10.254000000000001,0.0,0
1581606333.721,999.512,26.366999999999997,-4.395,-2.93,0.0,0
1581606333.725,999.512,19.043,1.465,4.883,0.0,0
1581606333.7289999,999.512,20.508000000000006,3.906,13.184000000000001,0.0,0
1581606333.7329998,999.512,10.742,2.93,6.836,0.0,0
1581606333.736,999.512,10.254000000000001,0.488,7.812,0.0,0
1581606333.74,999.512,8.301,-6.348,2.93,0.0,0
1581606333.744,999.512,5.371,-3.906,-1.953,0.0,0
1581606333.748,999.512,11.719000000000001,6.836,4.395,0.0,0
1581606333.752,999.512,29.785,1.465,2.441,0.0,0
1581606333.754,999.512,41.992,-17.578,4.883,0.0,0
1581606333.758,999.512,48.828,-20.02,20.508000000000006,0.0,0
1581606333.762,999.512,47.363,-10.742,25.879,0.0,0
1581606333.766,999.512,41.992,2.441,15.625,0.0,0
1581606333.77,999.512,51.758,9.766,7.812,0.0,0
1581606333.774,999.512,44.434,9.766,21.484,0.0,0
1581606333.7779999,999.512,39.551,11.719000000000001,24.901999999999997,0.0,0
1581606333.7810001,-995.117,32.227,5.371,16.602,0.0,0
1581606333.785,921.875,19.531,-4.395,14.648,0.0,0
1581606333.789,-792.9689999999997,23.438000000000002,-4.883,16.602,0.0,0
1581606333.793,194.824,33.691,2.93,18.066,0.0,0
1581606333.7970002,-426.75800000000004,20.996,2.441,23.438000000000002,0.0,0
1581606333.799,970.215,15.137,1.465,22.461,0.0,0
1581606333.803,-943.8480000000001,38.574,2.441,11.719000000000001,0.0,0
1581606333.8070002,946.289,21.484,-12.207,19.043,0.0,0
1581606333.811,-988.77,12.695,-26.366999999999997,22.949,0.0,0
1581606333.815,999.512,24.414,0.0,5.859,0.0,0
1581606333.819,999.512,13.184000000000001,21.97300000000001,14.648,0.0,0
1581606333.823,999.512,1.953,7.324,28.809,0.0,0
1581606333.826,999.512,11.23,2.441,11.23,0.0,0
1581606333.83,999.512,34.18,2.441,10.254000000000001,0.0,0
1581606333.8339999,999.512,28.809,-13.672,18.555,0.0,0
1581606333.8379998,999.512,-4.883,-22.461,22.949,0.0,0
1581606333.842,999.512,-11.23,-13.184000000000001,12.207,0.0,0
1581606333.8439999,999.512,-4.883,-5.371,5.859,0.0,0
1581606333.8479998,999.512,-8.301,4.883,13.184000000000001,0.0,0
1581606333.8520002,999.512,-3.906,0.488,-4.395,0.0,0
1581606333.856,999.512,-6.836,-16.113,0.977,0.0,0
1581606333.86,999.512,-6.348,-6.348,5.371,0.0,0
1581606333.8639998,999.512,14.16,-4.395,-2.441,0.0,0
1581606333.8679998,999.512,19.043,-8.789,5.859,0.0,0
1581606333.871,999.512,2.93,-4.883,17.09,0.0,0
1581606333.875,999.512,20.508000000000006,-5.859,20.996,0.0,0
1581606333.879,999.512,22.461,-4.395,12.695,0.0,0
1581606333.883,999.512,-1.953,8.301,13.184000000000001,0.0,0
1581606333.887,999.512,6.348,18.555,24.414,0.0,0
1581606333.889,999.512,19.531,2.93,37.109,0.0,0
1581606333.893,-1000.0,24.901999999999997,-11.719000000000001,34.668,0.0,0
1581606333.897,995.117,42.48,-8.789,26.855,0.0,0
1581606333.901,943.3589999999999,41.01600000000001,-8.789,24.901999999999997,0.0,0
1581606333.905,-868.6519999999997,26.366999999999997,-2.441,21.97300000000001,0.0,0
1581606333.909,136.23,21.97300000000001,6.348,26.855,0.0,0
1581606333.9129999,-1000.0,11.719000000000001,1.465,9.766,0.0,0
1581606333.9160001,-944.336,8.789,-14.648,4.883,0.0,0
1581606333.92,-954.102,8.301,-19.531,17.09,0.0,0
1581606333.924,-967.773,0.977,-4.883,23.926,0.0,0
1581606333.928,-928.711,-7.812,7.812,20.02,0.0,0
1581606333.9320002,-1000.0,13.672,-0.488,21.484,0.0,0
1581606333.949,-44.434,48.34,-9.277000000000001,26.366999999999997,0.0,0
1581606333.9529998,-913.574,43.457,-1.953,17.578,0.0,0
1581606333.957,969.727,33.203,9.277000000000001,20.508000000000006,0.0,0
1581606333.961,980.957,28.32,14.16,15.137,0.0,0
1581606333.965,-995.605,20.02,7.812,18.066,0.0,0
1581606333.9689999,999.512,23.438000000000002,1.465,7.812,0.0,0
1581606333.9729998,999.512,32.715,4.883,2.93,0.0,0
1581606333.976,-996.582,24.901999999999997,-14.16,12.207,0.0,0
1581606333.98,974.6089999999999,17.578,-23.438000000000002,9.277000000000001,0.0,0
1581606333.984,-970.703,19.531,6.836,12.695,0.0,0
1581606333.988,954.102,15.137,19.531,16.113,0.0,0
1581606333.992,293.945,19.043,7.812,18.066,0.0,0
1581606333.994,595.703,20.02,1.953,22.949,0.0,0
1581606333.998,-908.691,17.09,2.93,33.691,0.0,0
1581606334.002,966.309,11.23,11.719000000000001,31.25,0.0,0
1581606334.006,-999.512,-3.906,13.184000000000001,29.296999999999997,0.0,0
1581606334.01,999.512,-0.488,-3.418,20.02,0.0,0
1581606334.014,999.512,29.296999999999997,-3.906,24.901999999999997,0.0,0
1581606334.018,999.512,48.828,6.836,45.898,0.0,0
1581606334.0210001,-997.559,30.273000000000003,6.836,37.598,0.0,0
1581606334.025,979.0039999999999,12.207,6.836,5.371,0.0,0
1581606334.029,-986.328,8.301,13.672,-2.441,0.0,0
1581606334.033,-974.1210000000001,25.879,14.16,26.855,0.0,0
1581606334.0370002,389.648,46.387,14.648,30.273000000000003,0.0,0
1581606334.039,639.648,42.968999999999994,8.301,30.761999999999997,0.0,0
1581606334.043,992.676,38.086,-1.953,35.645,0.0,0
1581606334.0470002,992.676,29.296999999999997,0.0,31.738000000000003,0.0,0
1581606334.051,298.34,27.831999999999997,-2.441,21.97300000000001,0.0,0
1581606334.055,-1000.0,31.25,-3.906,0.488,0.0,0
1581606334.059,-783.203,13.672,-0.488,5.859,0.0,0
1581606334.063,552.246,0.488,1.465,12.695,0.0,0
1581606334.066,-121.58200000000001,16.113,-4.395,1.465,0.0,0
1581606334.07,-1000.0,21.97300000000001,-6.836,-7.324,0.0,0
1581606334.074,-18.066,15.137,7.324,3.906,0.0,0
1581606334.0779998,-907.227,22.949,18.555,25.879,0.0,0
1581606334.082,932.617,29.296999999999997,13.672,22.461,0.0,0
1581606334.0839999,-969.238,23.926,6.836,20.508000000000006,0.0,0
1581606334.0879998,677.2460000000002,10.742,3.418,15.137,0.0,0
1581606334.092,-394.043,23.438000000000002,2.441,24.414,0.0,0
1581606334.096,-929.199,35.645,-1.465,36.621,0.0,0
1581606334.1,-956.055,15.137,0.0,18.066,0.0,0
1581606334.1039999,-963.867,8.301,3.906,10.254000000000001,0.0,0
1581606334.1079998,-974.6089999999999,-0.488,8.301,15.137,0.0,0
1581606334.111,-972.6560000000001,0.0,14.648,12.207,0.0,0
1581606334.115,-974.6089999999999,11.23,10.742,15.137,0.0,0
1581606334.119,-957.52,8.301,-0.488,14.648,0.0,0
1581606334.123,-996.582,9.277000000000001,1.953,11.719000000000001,0.0,0
1581606334.127,-900.8789999999999,10.742,2.93,30.273000000000003,0.0,0
1581606334.129,-581.543,6.348,4.883,27.344,0.0,0
1581606334.133,-645.996,8.789,7.812,11.719000000000001,0.0,0
1581606334.137,-520.02,7.324,-0.977,30.273000000000003,0.0,0
1581606334.141,-282.715,8.301,-14.16,42.968999999999994,0.0,0
1581606334.145,-494.629,11.719000000000001,-7.812,33.203,0.0,0
1581606334.149,-696.7769999999997,13.184000000000001,7.324,24.901999999999997,0.0,0
1581606334.1529999,-635.254,12.207,16.113,31.738000000000003,0.0,0
1581606334.1560001,-920.898,7.812,22.461,35.156,0.0,0
1581606334.16,-801.758,-6.836,13.184000000000001,15.625,0.0,0
1581606334.164,189.453,-10.742,4.395,9.766,0.0,0
1581606334.168,896.9730000000003,13.672,9.766,6.836,0.0,0
1581606334.1720002,994.6289999999999,31.738000000000003,6.836,8.789,0.0,0
1581606334.174,781.25,33.691,1.953,21.97300000000001,0.0,0
1581606334.178,533.691,29.296999999999997,-5.859,20.508000000000006,0.0,0
1581606334.1820002,112.79299999999999,31.738000000000003,-6.348,0.488,0.0,0
1581606334.186,-410.156,27.344,-5.859,-5.371,0.0,0
1581606334.19,-183.59400000000002,21.484,-21.484,15.625,0.0,0
1581606334.194,158.691,30.761999999999997,-13.672,25.879,0.0,0
1581606334.198,-511.719,25.391,5.859,15.137,0.0,0
1581606334.201,-864.258,9.766,11.719000000000001,-3.418,0.0,0
1581606334.205,-21.97300000000001,17.09,0.488,-13.184000000000001,0.0,0
1581606334.2089999,550.781,35.156,-3.418,-0.488,0.0,0
1581606334.2129998,240.234,24.414,-7.324,30.761999999999997,0.0,0
1581606334.217,-589.355,11.23,-1.465,28.32,0.0,0
1581606334.2189999,-545.898,17.09,8.789,22.949,0.0,0
1581606334.2229998,-493.164,15.625,-5.859,25.391,0.0,0
1581606334.2270002,-946.289,8.301,-3.418,21.484,0.0,0
1581606334.231,-1000.0,1.465,4.395,21.484,0.0,0
1581606334.235,-779.785,-6.348,12.695,30.761999999999997,0.0,0
1581606334.2389998,-458.98400000000004,5.371,24.901999999999997,46.387,0.0,0
1581606334.2429998,-862.305,8.789,15.625,32.227,0.0,0
1581606334.246,-1000.0,3.418,3.418,15.137,0.0,0
1581606334.25,-947.7539999999999,6.836,-2.441,26.855,0.0,0
1581606334.254,-977.539,13.184000000000001,-9.766,35.645,0.0,0
1581606334.258,-972.168,11.719000000000001,5.859,39.062,0.0,0
1581606334.262,-972.168,2.93,20.508000000000006,31.738000000000003,0.0,0
1581606334.2629998,-972.168,10.254000000000001,19.531,20.508000000000006,0.0,0
1581606334.2670002,-972.168,23.438000000000002,18.066,23.926,0.0,0
1581606334.2710001,-972.168,22.461,16.113,21.97300000000001,0.0,0
1581606334.275,-972.6560000000001,20.02,14.648,28.32,0.0,0
1581606334.279,-971.191,16.602,-1.953,20.996,0.0,0
1581606334.283,-949.2189999999999,5.371,-11.719000000000001,19.043,0.0,0
1581606334.2870002,-1000.0,-2.93,-5.371,21.97300000000001,0.0,0
1581606334.29,-636.719,3.906,-5.371,8.789,0.0,0
1581606334.294,-215.332,24.414,-8.301,12.695,0.0,0
1581606334.2979999,-627.441,30.273000000000003,-20.02,19.043,0.0,0
1581606334.302,-980.957,18.066,-11.23,36.621,0.0,0
1581606334.306,-955.078,10.254000000000001,0.977,36.133,0.0,0
1581606334.323,-991.699,3.906,8.301,21.97300000000001,0.0,0
1581606334.3270001,-791.5039999999997,-5.859,24.414,23.438000000000002,0.0,0
1581606334.331,-502.441,3.418,33.691,21.97300000000001,0.0,0
1581606334.335,-192.38299999999998,21.484,33.691,24.901999999999997,0.0,0
1581606334.339,125.488,24.414,27.831999999999997,24.414,0.0,0
1581606334.343,156.25,30.273000000000003,18.555,24.901999999999997,0.0,0
1581606334.3470001,440.918,17.578,13.184000000000001,31.25,0.0,0
1581606334.35,738.77,-9.766,12.207,35.645,0.0,0
1581606334.3539999,770.9960000000003,9.766,25.879,23.438000000000002,0.0,0
1581606334.3579998,747.07,40.039,40.527,2.93,0.0,0
1581606334.3620002,823.73,36.133,27.831999999999997,5.371,0.0,0
1581606334.3660002,557.617,10.742,7.812,22.949,0.0,0
1581606334.3679998,-192.38299999999998,1.465,0.977,17.578,0.0,0
1581606334.3720002,-789.062,24.901999999999997,16.113,9.277000000000001,0.0,0
1581606334.3760002,-936.035,33.691,17.09,9.766,0.0,0
1581606334.38,-1000.0,18.066,6.348,21.97300000000001,0.0,0
1581606334.3839998,-484.86300000000006,17.09,14.16,32.715,0.0,0
1581606334.3879998,471.68,35.645,12.207,19.531,0.0,0
1581606334.3920002,894.5310000000003,30.273000000000003,-6.348,23.438000000000002,0.0,0
1581606334.395,-999.512,37.109,-2.93,28.809,0.0,0
1581606334.399,944.824,49.316,15.137,36.133,0.0,0
1581606334.4029999,-948.242,45.41,15.137,24.901999999999997,0.0,0
1581606334.407,667.48,49.316,15.625,18.066,0.0,0
1581606334.411,-627.93,39.551,22.949,33.691,0.0,0
1581606334.4129999,-1000.0,43.945,16.113,31.738000000000003,0.0,0
1581606334.417,-881.836,58.593999999999994,11.719000000000001,25.879,0.0,0
1581606334.421,-1000.0,47.852,16.113,18.555,0.0,0
1581606334.425,-523.438,42.48,9.766,15.137,0.0,0
1581606334.429,654.785,43.457,5.859,25.879,0.0,0
1581606334.4329998,-966.797,39.551,3.906,31.738000000000003,0.0,0
1581606334.437,966.797,40.527,-9.277000000000001,26.855,0.0,0
1581606334.44,999.023,30.761999999999997,-0.488,36.133,0.0,0
1581606334.444,-999.512,11.719000000000001,12.207,35.156,0.0,0
1581606334.448,999.512,28.32,12.695,12.695,0.0,0
1581606334.4520001,999.512,60.059,5.859,15.137,0.0,0
1581606334.456,999.512,47.852,7.812,23.438000000000002,0.0,0
1581606334.46,999.512,37.109,-1.465,20.02,0.0,0
1581606334.464,999.512,57.129,-8.789,14.16,0.0,0
1581606334.468,999.512,56.152,3.906,10.254000000000001,0.0,0
1581606334.4720001,999.512,26.855,-0.488,-2.93,0.0,0
1581606334.476,999.512,19.531,9.766,-6.348,0.0,0
1581606334.48,999.512,28.809,3.906,1.465,0.0,0
1581606334.484,999.512,30.273000000000003,-20.996,4.883,0.0,0
1581606334.4870002,999.512,39.551,-19.043,1.465,0.0,1
1581606334.4910002,999.512,41.01600000000001,-3.906,0.977,0.0,0
1581606334.495,999.512,29.785,-3.418,0.488,0.0,0
1581606334.4989998,998.535,26.855,-8.789,9.277000000000001,0.0,0
1581606334.5029998,988.77,37.109,1.465,2.441,0.0,0
1581606334.5029998,-981.934,40.527,3.906,-17.09,0.0,0
1581606334.5070002,850.0980000000003,45.898,1.465,-5.859,0.0,0
1581606334.5110002,564.941,32.715,-11.23,8.789,0.0,0
1581606334.515,513.672,5.859,-19.531,-2.441,0.0,0
1581606334.519,583.496,19.531,-13.184000000000001,-1.953,0.0,0
1581606334.5229998,777.832,37.598,-0.977,18.066,0.0,0
1581606334.5270002,954.59,26.366999999999997,1.953,23.438000000000002,0.0,0
1581606334.53,795.898,31.738000000000003,4.883,13.184000000000001,0.0,0
1581606334.534,733.398,46.387,3.906,18.066,0.0,0
1581606334.5379999,883.301,36.621,2.93,21.484,0.0,0
1581606334.542,916.992,40.039,4.395,18.555,0.0,0
1581606334.546,984.863,36.621,9.277000000000001,31.738000000000003,0.0,0
1581606334.5479999,991.211,31.25,13.672,18.555,0.0,0
1581606334.552,-972.168,42.48,1.465,16.113,0.0,0
1581606334.556,796.387,38.574,-1.465,27.831999999999997,0.0,0
1581606334.56,632.812,20.508000000000006,15.137,23.438000000000002,0.0,0
1581606334.564,728.5160000000003,19.043,14.648,20.996,0.0,0
1581606334.5679998,484.375,15.625,-4.395,22.949,0.0,0
1581606334.572,256.836,7.324,-8.301,26.855,0.0,0
1581606334.575,309.57,15.625,-2.441,18.066,0.0,0
1581606334.579,481.445,18.555,1.465,9.766,0.0,0
1581606334.583,477.539,21.97300000000001,-4.395,17.578,0.0,0
1581606334.5870001,390.625,28.809,-9.277000000000001,19.531,0.0,0
1581606334.591,305.176,39.551,2.93,12.207,0.0,0
1581606334.593,339.844,28.809,5.859,31.25,0.0,0
1581606334.5970001,681.6410000000002,27.344,0.0,43.945,0.0,0
1581606334.601,955.078,39.062,-1.953,31.738000000000003,0.0,0
1581606334.605,930.176,36.133,-3.906,24.901999999999997,0.0,0
1581606334.609,724.6089999999997,29.296999999999997,-1.953,21.484,0.0,0
1581606334.613,301.27,25.391,9.277000000000001,29.785,0.0,0
1581606334.617,284.668,18.066,1.465,33.691,0.0,0
1581606334.62,798.34,8.301,-3.418,32.227,0.0,0
1581606334.6239998,-992.188,20.508000000000006,4.395,31.25,0.0,0
1581606334.6279998,921.387,30.273000000000003,3.906,26.366999999999997,0.0,0
1581606334.6320002,779.785,19.531,8.789,33.203,0.0,0
1581606334.6360002,595.703,20.508000000000006,16.113,38.086,0.0,0
1581606334.6379998,403.809,19.043,18.555,44.434,0.0,0
1581606334.6420002,246.09400000000002,25.879,10.742,22.461,0.0,0
1581606334.6460001,59.57,32.227,4.395,11.719000000000001,0.0,0
1581606334.65,-46.875,36.133,9.766,40.039,0.0,0
1581606334.654,166.99200000000005,41.992,19.043,52.733999999999995,0.0,0
1581606334.658,-308.105,30.273000000000003,9.277000000000001,31.25,0.0,0
1581606334.6620002,-871.582,22.949,-14.16,-13.184000000000001,0.0,0
1581606334.665,-620.117,11.719000000000001,-10.742,-10.742,0.0,0
1581606334.669,-444.336,1.953,-2.441,27.344,0.0,0
1581606334.6729999,-54.199,15.625,-11.23,23.926,0.0,0
1581606334.677,207.03099999999998,20.02,3.418,11.719000000000001,0.0,0
1581606334.681,148.92600000000004,23.926,11.719000000000001,14.16,0.0,0
1581606334.699,143.066,26.366999999999997,11.23,18.555,0.0,0
1581606334.7029998,430.176,16.113,8.789,25.879,0.0,0
1581606334.707,715.332,5.859,8.301,25.879,0.0,0
1581606334.711,872.559,10.742,6.348,21.97300000000001,0.0,0
1581606334.715,972.168,39.062,-5.371,28.32,0.0,0
1581606334.7189999,816.4060000000003,52.246,-8.301,14.648,0.0,0
1581606334.7229998,613.281,35.156,-8.789,-7.324,0.0,0
1581606334.726,613.77,17.578,-11.23,5.859,0.0,0
1581606334.73,747.07,22.461,-5.859,12.695,0.0,0
1581606334.734,873.047,35.645,-2.441,9.277000000000001,0.0,0
1581606334.738,960.449,26.855,-17.578,19.531,0.0,0
1581606334.742,994.1410000000001,11.719000000000001,-2.93,38.574,0.0,0
1581606334.744,51.27,36.133,13.672,35.156,0.0,0
1581606334.748,-888.184,35.156,9.766,27.344,0.0,0
1581606334.752,-436.035,24.414,8.789,44.922,0.0,0
1581606334.756,-343.26199999999994,25.391,5.859,37.598,0.0,0
1581606334.76,-601.562,17.578,-2.93,9.277000000000001,0.0,0
1581606334.764,-328.61300000000006,11.719000000000001,-7.324,-0.977,0.0,0
1581606334.768,71.289,17.09,0.0,0.977,0.0,0
1581606334.7710001,247.07,30.761999999999997,8.789,18.066,0.0,0
1581606334.775,213.86700000000002,31.738000000000003,0.488,13.672,0.0,0
1581606334.779,-149.90200000000004,20.02,-20.508000000000006,4.395,0.0,0
1581606334.783,-403.809,10.742,-12.695,18.066,0.0,0
1581606334.7870002,-442.871,10.742,9.766,29.296999999999997,0.0,0
1581606334.789,-329.59,4.395,15.137,21.484,0.0,0
1581606334.793,-109.375,-7.324,9.277000000000001,17.09,0.0,0
1581606334.7970002,-275.39099999999996,2.441,3.906,22.461,0.0,0
1581606334.801,-658.691,22.949,3.906,25.391,0.0,0
1581606334.805,-904.785,6.348,14.16,18.555,0.0,0
1581606334.809,-985.352,-8.789,12.207,19.043,0.0,0
1581606334.813,-913.086,1.953,-0.488,30.273000000000003,0.0,0
1581606334.816,-807.617,6.348,-6.348,23.438000000000002,0.0,0
1581606334.82,-736.816,6.348,-2.441,13.184000000000001,0.0,0
1581606334.824,-650.879,23.438000000000002,12.207,2.93,0.0,0
1581606334.8279998,-541.016,40.527,2.93,8.301,0.0,0
1581606334.832,-640.137,33.691,-0.977,38.086,0.0,0
1581606334.8339999,-607.422,17.578,11.719000000000001,38.574,0.0,0
1581606334.8379998,-458.98400000000004,16.602,-4.395,19.531,0.0,0
1581606334.842,-638.184,19.531,-1.953,20.996,0.0,0
1581606334.846,-452.148,30.273000000000003,9.766,22.461,0.0,0
1581606334.85,-68.848,34.18,6.836,26.366999999999997,0.0,0
1581606334.8539999,-80.566,34.668,4.883,36.621,0.0,0
1581606334.8579998,-366.211,44.922,3.418,29.785,0.0,0
1581606334.861,-484.86300000000006,41.504,3.906,32.227,0.0,0
1581606334.865,-335.9380000000001,36.133,-13.184000000000001,38.574,0.0,0
1581606334.869,-190.918,34.18,-11.719000000000001,23.926,0.0,0
1581606334.873,-16.602,25.391,13.184000000000001,31.25,0.0,0
1581606334.877,385.254,18.066,20.996,37.598,0.0,0
1581606334.879,682.1289999999998,20.02,20.02,31.25,0.0,0
1581606334.883,639.648,27.344,7.812,22.949,0.0,0
1581606334.887,635.742,30.273000000000003,-2.93,13.672,0.0,0
1581606334.891,847.6560000000003,24.414,0.0,18.555,0.0,0
1581606334.895,867.676,23.438000000000002,9.277000000000001,22.949,0.0,0
1581606334.899,832.52,29.785,8.789,22.949,0.0,0
1581606334.9029999,896.4839999999997,35.156,5.859,29.785,0.0,0
1581606334.9060001,791.5039999999997,20.02,2.93,23.926,0.0,0
1581606334.91,868.164,7.812,-3.906,-1.465,0.0,0
1581606334.914,-973.145,17.578,-7.324,2.441,0.0,0
1581606334.918,669.922,28.809,-0.977,-4.395,0.0,0
1581606334.9220002,341.79699999999997,41.504,-0.488,0.0,0.0,0
1581606334.924,262.695,43.457,-5.859,14.648,0.0,0
1581606334.928,-134.766,15.137,0.0,11.23,0.0,0
1581606334.9320002,-373.04699999999997,0.0,0.0,8.789,0.0,0
1581606334.936,-398.43800000000016,15.625,-2.93,6.836,0.0,0
1581606334.94,-306.152,18.066,-16.113,8.301,0.0,0
1581606334.944,-142.578,24.901999999999997,-22.461,12.695,0.0,0
1581606334.948,109.375,13.672,2.441,12.695,0.0,0
1581606334.951,736.816,-0.488,16.113,5.859,0.0,0
1581606334.955,-974.6089999999999,14.16,5.371,-0.488,0.0,0
1581606334.9589999,980.4689999999999,27.831999999999997,2.441,16.602,0.0,0
1581606334.9629998,997.559,31.25,5.859,16.602,0.0,0
1581606334.967,-999.512,31.25,4.883,-1.465,0.0,0
1581606334.9689999,999.512,37.109,-1.465,-0.977,0.0,0
1581606334.9729998,999.512,30.273000000000003,-1.465,0.488,0.0,0
1581606334.9770002,999.512,16.113,0.488,1.953,0.0,0
1581606334.981,999.512,2.441,3.418,2.93,0.0,0
1581606334.985,999.512,12.695,0.0,-2.93,0.0,0
1581606334.9889998,999.512,20.996,-23.438000000000002,1.465,0.0,0
1581606334.9929998,999.512,20.02,-7.324,-6.348,0.0,0
1581606334.996,999.512,16.113,5.859,-16.113,0.0,0
1581606335.0,999.512,7.324,-14.16,-9.277000000000001,0.0,0
1581606335.004,999.512,22.461,-1.465,-21.484,0.0,0
1581606335.008,999.512,26.855,3.418,-19.531,0.0,0
1581606335.012,-999.023,25.391,-11.719000000000001,9.766,0.0,0
1581606335.014,989.258,32.715,-8.301,12.695,0.0,0
1581606335.018,955.078,35.645,-7.812,0.488,0.0,0
1581606335.022,-833.9839999999997,21.484,-6.348,-5.371,0.0,0
1581606335.026,9.766,17.578,1.465,-2.441,0.0,0
1581606335.03,-261.23,22.949,-7.812,5.371,0.0,0
1581606335.034,-957.52,18.555,-26.855,5.859,0.0,0
1581606335.0379999,-987.305,21.97300000000001,-24.901999999999997,-9.277000000000001,0.0,0
1581606335.0410001,967.285,28.809,-14.16,-19.043,0.0,0
1581606335.045,-993.164,13.672,-2.93,-5.859,0.0,0
1581606335.049,999.512,0.977,-2.441,-18.066,0.0,0
1581606335.053,999.512,27.344,-4.395,-9.766,0.0,0
1581606335.0570002,999.512,47.852,9.277000000000001,-1.465,0.0,0
1581606335.074,999.512,39.062,8.789,-10.254000000000001,0.0,0
1581606335.0779998,999.512,26.855,1.465,3.418,0.0,0
1581606335.082,-1000.0,26.855,-2.93,-0.977,0.0,0
1581606335.086,988.2810000000001,41.504,-3.906,-1.953,0.0,0
1581606335.09,998.047,41.504,1.465,-1.465,0.0,0
1581606335.0939999,868.6519999999997,32.715,-1.953,0.977,0.0,0
1581606335.0979998,401.36699999999996,25.391,-8.789,-8.301,0.0,0
1581606335.101,-210.449,8.789,-5.371,-16.602,0.0,0
1581606335.105,-813.477,3.906,12.695,4.395,0.0,0
1581606335.109,-991.211,17.578,12.207,-1.953,0.0,0
1581606335.113,-953.125,31.738000000000003,1.953,-11.719000000000001,0.0,0
1581606335.117,-974.6089999999999,36.621,4.883,-8.301,0.0,0
1581606335.119,-972.6560000000001,29.296999999999997,-1.953,-6.836,0.0,0
1581606335.123,-973.633,21.484,-22.949,-4.395,0.0,0
1581606335.127,-965.332,14.16,-11.23,-18.066,0.0,0
1581606335.131,-974.1210000000001,10.254000000000001,8.301,-9.766,0.0,0
1581606335.135,-963.3789999999999,23.438000000000002,9.766,6.836,0.0,0
1581606335.139,-630.371,28.32,-1.465,-1.953,0.0,0
1581606335.143,-670.41,24.414,-17.09,-1.465,0.0,0
1581606335.1460001,-941.895,22.949,-16.113,5.371,0.0,0
1581606335.15,-1000.0,20.02,-3.906,10.742,0.0,0
1581606335.154,-733.398,14.16,12.207,-10.254000000000001,0.0,0
1581606335.158,640.137,12.207,17.09,-15.137,0.0,0
1581606335.1620002,-914.551,30.761999999999997,8.789,14.16,0.0,0
1581606335.164,939.453,36.621,0.488,16.602,0.0,0
1581606335.168,-990.2339999999999,29.296999999999997,2.441,9.277000000000001,0.0,0
1581606335.1720002,999.512,18.066,1.953,-1.465,0.0,0
1581606335.176,999.512,33.203,-3.418,-5.859,0.0,0
1581606335.18,999.512,44.922,-1.953,11.23,0.0,0
1581606335.184,999.512,34.668,-0.977,7.812,0.0,0
1581606335.188,999.512,26.855,6.348,-7.812,0.0,0
1581606335.191,999.512,25.391,7.324,-22.461,0.0,0
1581606335.195,999.512,29.296999999999997,2.93,-8.789,0.0,0
1581606335.199,999.512,25.879,-2.441,0.977,0.0,0
1581606335.2029998,999.512,18.066,-11.23,-9.277000000000001,0.0,0
1581606335.207,999.512,15.625,-24.414,-2.441,0.0,0
1581606335.2089999,999.512,18.066,-17.09,-3.906,0.0,0
1581606335.2129998,-1000.0,16.113,7.812,-11.719000000000001,0.0,0
1581606335.217,936.523,25.391,14.16,-6.348,0.0,0
1581606335.221,-869.1410000000003,35.645,6.836,0.0,0.0,0
1581606335.225,285.645,32.227,1.953,7.324,0.0,0
1581606335.2289999,-1000.0,20.996,-5.371,15.625,0.0,0
1581606335.2329998,-338.86699999999996,17.578,-8.789,18.555,0.0,0
1581606335.236,-984.863,30.761999999999997,-0.488,6.348,0.0,0
1581606335.24,-993.6519999999999,40.039,4.883,-0.488,0.0,0
1581606335.244,959.4730000000001,42.968999999999994,0.488,17.09,0.0,0
1581606335.248,-990.2339999999999,28.809,-0.488,14.648,0.0,0
1581606335.252,999.512,17.09,-1.953,11.23,0.0,0
1581606335.254,999.512,26.855,-11.23,13.672,0.0,0
1581606335.258,999.512,31.738000000000003,-17.578,5.859,0.0,0
1581606335.262,999.512,34.668,-22.461,18.555,0.0,0
1581606335.266,999.512,35.645,-16.113,21.484,0.0,0
1581606335.27,999.512,22.949,-8.301,-0.488,0.0,0
1581606335.274,999.512,19.043,-3.906,2.441,0.0,0
1581606335.2779999,999.512,23.438000000000002,1.953,21.484,0.0,0
1581606335.2810001,999.512,14.16,2.93,21.484,0.0,0
1581606335.285,999.512,15.625,2.93,-0.977,0.0,0
1581606335.289,999.512,23.438000000000002,-6.348,-3.418,0.0,0
1581606335.293,999.512,25.391,-11.719000000000001,7.812,0.0,0
1581606335.2970002,999.512,28.32,-9.766,1.465,0.0,0
1581606335.299,999.512,22.949,-10.254000000000001,-6.836,0.0,0
1581606335.303,999.512,24.414,-6.836,-11.719000000000001,0.0,0
1581606335.3070002,999.512,15.625,-5.859,-3.906,0.0,0
1581606335.311,999.512,15.625,-6.836,7.324,0.0,0
1581606335.315,999.512,35.645,-1.953,1.465,0.0,0
1581606335.319,999.512,31.25,-13.672,6.348,0.0,0
1581606335.323,999.512,20.996,-24.901999999999997,6.836,0.0,0
1581606335.326,999.512,29.296999999999997,-10.742,1.465,0.0,0
1581606335.33,999.512,27.831999999999997,-1.953,2.441,0.0,0
1581606335.3339999,999.512,30.273000000000003,-7.812,1.465,0.0,0
1581606335.3379998,999.512,39.551,-14.16,1.465,0.0,0
1581606335.342,999.512,37.109,-14.648,0.977,0.0,0
1581606335.3439999,999.512,32.227,-11.23,4.883,0.0,0
1581606335.3479998,999.512,35.156,-6.836,16.602,0.0,0
1581606335.3520002,999.512,36.621,-10.742,31.25,0.0,0
1581606335.356,999.512,32.715,-5.371,28.809,0.0,0
1581606335.36,999.512,36.621,-0.977,12.207,0.0,0
1581606335.3639998,999.512,37.598,-4.395,15.137,0.0,0
1581606335.3679998,999.512,26.855,4.395,11.23,0.0,0
1581606335.371,999.512,28.32,6.348,9.277000000000001,0.0,0
1581606335.375,999.512,30.761999999999997,-3.418,32.227,0.0,0
1581606335.379,999.512,25.391,-6.836,32.227,0.0,0
1581606335.383,999.512,24.414,-8.301,21.97300000000001,0.0,0
1581606335.387,999.512,30.273000000000003,-18.066,21.97300000000001,0.0,0
1581606335.389,999.512,23.926,-2.93,46.875,0.0,0
1581606335.393,999.512,19.531,10.742,30.761999999999997,0.0,0
1581606335.397,999.512,36.133,15.137,-5.859,0.0,0
1581606335.401,999.512,37.109,19.043,0.488,0.0,0
1581606335.405,999.512,30.761999999999997,5.859,3.906,0.0,0
1581606335.409,999.512,30.761999999999997,-5.859,10.254000000000001,0.0,0
1581606335.4129999,999.512,17.578,-6.836,7.812,0.0,0
1581606335.4160001,999.512,24.901999999999997,-6.836,0.977,0.0,0
1581606335.42,999.512,43.457,-2.441,11.23,0.0,0
1581606335.424,999.512,53.223,-3.418,15.137,0.0,0
1581606335.428,999.512,40.527,-4.883,18.066,0.0,0
1581606335.4320002,999.512,23.438000000000002,-0.488,16.113,0.0,0
1581606335.449,999.512,24.901999999999997,-5.371,17.578,0.0,0
1581606335.4529998,999.512,29.296999999999997,2.441,17.09,0.0,0
1581606335.457,999.512,39.551,3.906,20.508000000000006,0.0,0
1581606335.461,999.512,25.391,-11.23,20.996,0.0,0
1581606335.465,999.512,18.555,-1.953,17.09,0.0,0
1581606335.4689999,999.512,46.387,7.812,28.32,0.0,0
1581606335.4729998,999.512,71.289,-10.254000000000001,20.02,0.0,0
1581606335.476,999.512,60.547,-10.742,20.996,0.0,0
1581606335.48,999.512,36.621,-1.465,28.32,0.0,0
1581606335.484,999.512,37.109,-1.465,21.484,0.0,0
1581606335.488,999.512,30.761999999999997,0.977,18.066,0.0,0
1581606335.492,999.512,23.926,2.93,8.789,0.0,0
1581606335.4929998,999.512,21.97300000000001,11.23,-0.977,0.0,0
1581606335.4970002,999.512,19.531,3.906,5.859,0.0,0
1581606335.5010002,999.512,27.344,-1.465,12.207,0.0,0
1581606335.505,999.512,32.227,4.395,4.883,0.0,0
1581606335.5089998,999.512,35.645,-2.441,9.766,0.0,0
1581606335.5129998,998.047,32.715,-4.395,29.296999999999997,0.0,0
1581606335.5170002,-996.582,29.785,8.301,28.32,0.0,0
1581606335.52,990.2339999999999,36.133,19.043,21.484,0.0,0
1581606335.524,952.637,51.27,16.602,20.508000000000006,0.0,0
1581606335.5279999,-979.492,43.457,6.348,20.996,0.0,0
1581606335.532,557.129,26.855,-4.883,21.484,0.0,0
1581606335.536,-541.504,30.273000000000003,2.93,22.949,0.0,0
1581606335.5379999,-1000.0,24.414,14.648,17.09,0.0,0
1581606335.542,-947.2660000000001,20.508000000000006,7.324,9.277000000000001,0.0,0
1581606335.546,-936.035,19.043,7.324,19.531,0.0,0
1581606335.55,-1000.0,21.97300000000001,15.137,28.809,0.0,0
1581606335.554,-695.801,37.598,17.578,31.25,0.0,0
1581606335.5579998,426.27,50.293,19.043,31.25,0.0,0
1581606335.562,-963.3789999999999,53.71100000000001,19.043,31.25,0.0,0
1581606335.565,971.68,54.688,14.16,39.551,0.0,0
1581606335.569,991.699,49.805,16.602,42.48,0.0,0
1581606335.573,-997.559,26.855,2.441,23.926,0.0,0
1581606335.5770001,999.512,19.531,-10.742,32.715,0.0,0
1581606335.581,999.512,49.316,2.93,39.551,0.0,0
1581606335.583,999.512,50.293,10.254000000000001,31.25,0.0,0
1581606335.5870001,999.512,26.855,22.949,38.574,0.0,0
1581606335.591,999.512,37.109,32.715,33.203,0.0,0
1581606335.595,999.512,59.082,24.414,21.484,0.0,0
1581606335.599,999.512,55.176,22.461,20.02,0.0,0
1581606335.603,999.512,48.828,13.672,16.113,0.0,0
1581606335.607,999.512,45.41,12.695,16.602,0.0,0
1581606335.61,999.512,35.645,23.438000000000002,29.785,0.0,0
1581606335.6139998,999.512,37.598,17.09,39.551,0.0,0
1581606335.6179998,999.512,44.434,9.277000000000001,26.855,0.0,0
1581606335.6220002,999.512,45.898,9.277000000000001,17.09,0.0,0
1581606335.6260002,-998.535,35.645,10.742,27.831999999999997,0.0,0
1581606335.6279998,946.289,36.621,10.742,25.879,0.0,0
1581606335.6320002,-857.91,42.48,0.977,16.113,0.0,0
1581606335.6360002,377.441,31.738000000000003,9.766,23.926,0.0,0
1581606335.64,-244.141,21.97300000000001,17.09,35.156,0.0,0
1581606335.644,745.117,20.996,13.672,42.968999999999994,0.0,1
1581606335.6479998,-946.289,24.901999999999997,14.16,46.387,0.0,0
1581606335.6520002,967.285,37.598,14.16,46.387,0.0,0
1581606335.655,902.3439999999999,55.176,20.996,37.598,0.0,0
1581606335.659,913.574,45.41,19.531,42.968999999999994,0.0,0
1581606335.6629999,830.078,32.227,14.16,55.663999999999994,0.0,0
1581606335.667,-237.305,43.945,22.949,52.733999999999995,0.0,0
1581606335.671,-1000.0,40.527,30.273000000000003,32.715,0.0,0
1581606335.6729999,-941.4060000000001,26.366999999999997,33.691,41.504,0.0,0
1581606335.677,-961.914,11.719000000000001,30.273000000000003,54.199,0.0,0
1581606335.681,-975.0980000000001,10.742,25.879,39.551,0.0,0
1581606335.685,-972.6560000000001,25.391,24.414,46.387,0.0,0
1581606335.689,-972.168,26.366999999999997,16.113,52.733999999999995,0.0,0
1581606335.6929998,-972.6560000000001,22.949,8.301,40.039,0.0,0
1581606335.697,-972.168,23.926,14.16,41.992,0.0,0
1581606335.7,-974.6089999999999,31.738000000000003,24.414,41.01600000000001,0.0,0
1581606335.704,-940.43,19.043,31.738000000000003,36.133,0.0,0
1581606335.708,-1000.0,12.695,21.97300000000001,41.01600000000001,0.0,0
1581606335.7120001,-768.066,28.809,16.602,29.296999999999997,0.0,0
1581606335.716,272.461,34.668,25.879,30.761999999999997,0.0,0
1581606335.718,969.727,37.598,23.926,21.97300000000001,0.0,0
1581606335.7220001,983.398,39.062,23.438000000000002,25.391,0.0,0
1581606335.726,987.305,22.949,29.296999999999997,43.457,0.0,0
1581606335.73,-997.559,18.555,33.691,30.273000000000003,0.0,0
1581606335.734,999.512,38.574,39.551,26.366999999999997,0.0,0
1581606335.738,999.512,49.316,39.062,40.039,0.0,0
1581606335.742,-998.535,57.129,35.645,47.363,0.0,0
1581606335.745,988.2810000000001,55.663999999999994,26.855,52.733999999999995,0.0,0
1581606335.7489998,-984.375,36.133,32.715,62.012,0.0,0
1581606335.7529998,979.0039999999999,11.23,46.387,67.87100000000001,0.0,0
1581606335.7570002,802.7339999999997,19.043,44.922,72.75399999999998,0.0,0
1581606335.7610002,935.059,54.199,42.48,68.359,0.0,0
1581606335.7629998,-962.8910000000001,66.406,41.992,53.223,0.0,0
1581606335.7670002,937.5,48.828,40.527,55.663999999999994,0.0,0
1581606335.7710001,944.824,30.273000000000003,32.227,61.035,0.0,0
1581606335.775,-991.699,32.227,40.039,54.688,0.0,0
1581606335.779,998.047,43.945,52.246,52.246,0.0,0
1581606335.783,998.535,41.01600000000001,51.758,43.945,0.0,0
1581606335.7870002,999.512,31.25,47.363,38.574,0.0,0
1581606335.79,999.512,34.668,44.922,34.18,0.0,0
1581606335.794,999.512,38.086,43.945,34.668,0.0,0
1581606335.7979999,999.512,32.715,24.901999999999997,42.48,0.0,0
1581606335.802,999.512,33.203,14.16,41.504,0.0,0
1581606335.806,999.512,52.733999999999995,37.598,38.574,0.0,0
1581606335.823,999.512,49.805,53.223,34.18,0.0,0
1581606335.8270001,999.512,34.18,45.898,24.901999999999997,0.0,0
1581606335.831,999.512,36.133,42.968999999999994,29.785,0.0,0
1581606335.835,999.512,38.086,44.434,30.761999999999997,0.0,0
1581606335.839,999.512,39.551,36.133,25.391,0.0,0
1581606335.843,999.512,46.875,32.227,34.18,0.0,0
1581606335.8470001,999.512,52.733999999999995,32.227,36.621,0.0,0
1581606335.85,999.512,33.203,39.062,44.922,0.0,0
1581606335.8539999,999.512,29.785,47.852,53.223,0.0,0
1581606335.8579998,999.512,52.246,45.898,40.039,0.0,0
1581606335.8620002,999.512,42.968999999999994,41.504,45.898,0.0,0
1581606335.8660002,999.512,27.831999999999997,33.203,61.035,0.0,0
1581606335.869,999.512,34.668,24.414,61.523,0.0,0
1581606335.873,999.512,42.968999999999994,27.344,54.688,0.0,0
1581606335.877,999.512,49.316,46.387,47.852,0.0,0
1581606335.881,999.512,46.875,67.87100000000001,64.453,0.0,0
1581606335.885,999.512,37.598,60.059,78.125,0.0,0
1581606335.889,999.512,38.086,48.34,65.918,0.0,0
1581606335.893,999.512,41.01600000000001,50.78100000000001,33.691,0.0,0
1581606335.8960001,999.512,48.34,46.875,30.273000000000003,0.0,0
1581606335.9,-997.559,57.129,40.039,59.57,0.0,0
1581606335.904,989.258,51.27,39.551,51.758,0.0,0
1581606335.908,975.0980000000001,35.645,39.062,42.48,0.0,0
1581606335.9120002,-958.008,23.926,51.758,54.199,0.0,0
1581606335.914,272.949,24.901999999999997,46.387,55.176,0.0,0
1581606335.918,-560.547,42.48,23.438000000000002,47.852,0.0,0
1581606335.9220002,-767.578,42.48,20.508000000000006,44.922,0.0,0
1581606335.926,-978.5160000000001,32.227,32.715,49.805,0.0,0
1581606335.93,-948.242,18.555,39.062,55.663999999999994,0.0,0
1581606335.934,-963.3789999999999,10.742,43.945,53.223,0.0,0
1581606335.938,-977.539,34.18,44.922,43.945,0.0,0
1581606335.941,-924.805,32.227,33.203,36.621,0.0,0
1581606335.945,-954.59,27.831999999999997,33.691,29.785,0.0,0
1581606335.949,-961.914,33.691,36.133,19.531,0.0,0
1581606335.9529998,-971.191,32.227,37.109,30.273000000000003,0.0,0
1581606335.957,-874.023,44.922,35.645,35.156,0.0,0
1581606335.9589999,-76.172,51.27,41.504,38.086,0.0,0
1581606335.9629998,814.941,33.691,49.316,55.663999999999994,0.0,0
1581606335.967,996.582,29.296999999999997,44.434,55.663999999999994,0.0,0
1581606335.971,973.633,45.41,38.574,63.965,0.0,0
1581606335.975,-997.07,42.968999999999994,25.879,57.129,0.0,0
1581606335.9789999,999.023,34.668,32.227,50.78100000000001,0.0,0
1581606335.9829998,999.512,42.48,50.293,67.383,0.0,0
1581606335.986,999.512,49.805,51.758,59.082,0.0,0
1581606335.99,-996.0939999999999,43.945,52.733999999999995,33.691,0.0,0
1581606335.994,931.1519999999999,23.438000000000002,46.875,35.645,0.0,0
1581606335.998,-862.793,11.23,25.391,49.805,0.0,0
1581606336.002,331.543,20.508000000000006,21.484,42.968999999999994,0.0,0
1581606336.004,-1000.0,37.598,41.992,38.086,0.0,0
1581606336.008,-616.211,50.293,48.34,37.598,0.0,0
1581606336.012,565.43,68.848,44.922,46.387,0.0,0
1581606336.016,-974.6089999999999,64.453,50.293,52.246,0.0,0
1581606336.02,969.238,41.504,47.852,37.598,0.0,0
1581606336.024,995.117,38.574,40.039,41.992,0.0,0
1581606336.0279999,-998.535,36.621,24.901999999999997,47.852,0.0,0
1581606336.0310001,999.512,33.203,22.461,46.387,0.0,0
1581606336.035,999.512,35.645,41.504,31.25,0.0,0
1581606336.039,999.512,46.875,43.457,22.949,0.0,0
1581606336.043,999.512,57.129,33.203,46.875,0.0,0
1581606336.0470002,999.512,39.551,29.296999999999997,50.293,0.0,0
1581606336.049,999.512,33.203,39.551,40.527,0.0,0
1581606336.053,999.512,50.78100000000001,46.387,43.457,0.0,0
1581606336.0570002,999.512,38.086,45.41,46.387,0.0,0
1581606336.061,999.512,24.414,39.062,41.01600000000001,0.0,0
1581606336.065,999.512,32.715,34.668,47.852,0.0,0
1581606336.069,999.512,50.293,35.645,52.246,0.0,0
1581606336.073,999.512,59.57,34.668,49.805,0.0,0
1581606336.076,999.512,53.223,31.25,46.387,0.0,0
1581606336.08,999.512,54.199,27.831999999999997,43.945,0.0,0
1581606336.0839999,-989.258,52.246,24.414,59.082,0.0,0
1581606336.0879998,926.27,45.41,22.461,54.199,0.0,0
1581606336.092,-867.188,40.039,15.137,47.852,0.0,0
1581606336.0939999,449.219,41.504,28.809,48.34,0.0,0
1581606336.0979998,-946.7769999999999,48.34,45.898,40.039,0.0,0
1581606336.1020002,-997.07,45.898,45.41,53.223,0.0,0
1581606336.106,-926.27,29.785,41.504,58.105,0.0,0
1581606336.11,-985.352,33.691,42.48,44.434,0.0,0
1581606336.1139998,-977.051,52.246,42.48,44.922,0.0,0
1581606336.1179998,-944.824,60.547,39.551,41.504,0.0,0
1581606336.121,-982.422,36.621,41.992,29.296999999999997,0.0,0
1581606336.125,-857.91,19.043,22.949,34.18,0.0,0
1581606336.129,253.90599999999998,29.296999999999997,11.23,41.992,0.0,0
1581606336.133,-944.824,40.039,33.203,34.668,0.0,0
1581606336.137,969.727,48.34,38.574,39.062,0.0,0
1581606336.139,988.2810000000001,44.434,26.855,52.733999999999995,0.0,0
1581606336.143,-996.582,45.41,22.461,53.223,0.0,0
1581606336.147,999.512,51.758,35.645,40.527,0.0,0
1581606336.151,999.512,64.453,49.805,34.668,0.0,0
1581606336.155,999.512,62.5,56.152,41.992,0.0,0
1581606336.159,999.512,61.523,56.64100000000001,55.176,0.0,0
1581606336.1629999,999.512,66.895,58.593999999999994,51.758,0.0,0
1581606336.1660001,999.512,56.152,63.477,42.968999999999994,0.0,0
1581606336.17,999.512,66.406,68.359,49.316,0.0,0
1581606336.174,999.512,64.941,62.988,40.527,0.0,0
1581606336.178,999.512,32.227,50.293,47.363,0.0,0
1581606336.1820002,999.512,30.273000000000003,44.922,54.199,0.0,0
1581606336.199,999.512,46.387,27.344,54.199,0.0,0
1581606336.2029998,999.512,48.34,21.97300000000001,50.78100000000001,0.0,0
1581606336.207,999.512,49.805,42.48,36.621,0.0,0
1581606336.211,999.512,54.688,51.758,32.227,0.0,0
1581606336.215,999.512,71.289,55.663999999999994,37.598,0.0,0
1581606336.2189999,999.512,65.918,69.336,38.086,0.0,0
1581606336.2229998,999.512,61.035,67.383,29.296999999999997,0.0,0
1581606336.226,999.512,69.824,47.852,17.578,0.0,0
1581606336.23,999.512,68.848,36.133,19.531,0.0,0
1581606336.234,999.512,54.199,41.992,17.578,0.0,0
1581606336.238,999.512,56.64100000000001,48.828,18.066,0.0,0
1581606336.242,999.512,59.57,47.363,33.203,0.0,0
1581606336.244,999.512,50.78100000000001,49.805,30.761999999999997,0.0,0
1581606336.248,999.023,60.059,46.875,22.461,0.0,0
1581606336.252,999.512,75.195,42.968999999999994,12.695,0.0,0
1581606336.256,999.023,73.73,43.457,2.93,0.0,0
1581606336.26,994.1410000000001,70.801,41.504,5.859,0.0,0
1581606336.264,998.047,88.867,35.156,22.461,0.0,0
1581606336.268,-986.328,81.543,39.551,18.066,0.0,0
1581606336.2710001,936.523,66.406,40.039,6.836,0.0,0
1581606336.275,-924.316,66.406,27.831999999999997,20.508000000000006,0.0,0
1581606336.279,767.578,78.125,41.992,17.578,0.0,0
1581606336.283,-723.633,87.891,59.57,12.207,0.0,0
1581606336.2870002,-840.82,75.684,58.593999999999994,13.672,0.0,0
1581606336.304,514.16,62.5,49.805,26.855,0.0,0
1581606336.3079998,-948.242,61.523,38.574,28.809,0.0,0
1581606336.312,958.4960000000001,80.566,46.387,26.855,0.0,0
1581606336.316,997.07,81.055,62.012,34.668,0.0,0
1581606336.32,-998.535,72.266,56.64100000000001,21.97300000000001,0.0,0
1581606336.324,999.512,86.914,43.457,11.719000000000001,0.0,0
1581606336.3279998,999.512,91.309,36.621,8.301,0.0,0
1581606336.331,999.512,96.191,53.223,-1.953,0.0,0
1581606336.335,999.512,103.516,70.801,-7.324,0.0,0
1581606336.339,999.512,98.633,65.918,-10.254000000000001,0.0,0
1581606336.343,999.512,92.773,62.012,-1.953,0.0,0
1581606336.3470001,999.512,85.449,59.57,4.395,0.0,0
1581606336.3339999,999.512,87.891,60.059,12.695,0.0,0
1581606336.3379998,999.512,97.656,60.547,6.836,0.0,0
1581606336.342,999.512,94.727,45.41,-5.859,0.0,0
1581606336.346,999.512,91.309,49.316,-2.441,0.0,0
1581606336.35,999.512,84.961,61.523,-2.93,0.0,0
1581606336.3539999,999.512,85.449,51.758,-21.97300000000001,0.0,0
1581606336.3579998,-999.023,88.867,42.48,-34.668,0.0,0
1581606336.361,992.676,100.586,46.875,-25.391,0.0,0
1581606336.365,990.2339999999999,119.141,45.898,-15.625,0.0,0
1581606336.369,997.07,120.117,36.621,-8.789,0.0,0
1581606336.373,580.566,101.074,38.574,-15.625,0.0,0
1581606336.377,112.305,74.219,51.758,-21.484,0.0,0
1581606336.379,351.56199999999984,88.37899999999998,60.547,-13.184000000000001,0.0,0
1581606336.383,849.6089999999997,118.164,60.547,0.488,0.0,0
1581606336.387,996.582,131.836,60.547,14.16,0.0,0
1581606336.391,520.996,133.789,64.453,8.789,0.0,0
1581606336.395,408.691,110.84,66.895,1.465,0.0,0
1581606336.399,718.262,92.285,60.059,8.301,0.0,0
1581606336.4029999,851.562,99.12100000000001,51.758,4.883,0.0,0
1581606336.4060001,997.07,136.23,50.293,0.977,0.0,0
1581606336.41,999.512,175.78099999999995,65.43,-11.719000000000001,0.0,0
1581606336.414,995.605,172.363,65.918,-12.695,0.0,0
1581606336.418,-999.512,162.59799999999996,45.898,-23.926,0.0,0
1581606336.4220002,999.512,174.805,49.316,-51.27,0.0,0
1581606336.424,999.512,176.27,40.527,-45.41,0.0,0
1581606336.428,999.512,177.24599999999995,41.504,-38.574,0.0,0
1581606336.4320002,999.512,184.082,54.688,-41.992,0.0,0
1581606336.436,999.512,175.78099999999995,54.688,-32.227,0.0,0
1581606336.44,999.512,160.645,40.039,-43.457,0.0,0
1581606336.444,999.512,149.414,29.296999999999997,-57.129,0.0,0
1581606336.448,999.512,148.438,46.875,-57.129,0.0,0
1581606336.451,999.512,159.18,51.27,-69.336,0.0,0
1581606336.455,999.512,174.805,43.457,-69.336,0.0,0
1581606336.4589999,999.512,172.363,53.71100000000001,-66.895,0.0,0
1581606336.4629998,999.512,167.48,59.082,-55.663999999999994,0.0,0
1581606336.467,999.512,157.715,49.805,-66.895,0.0,0
1581606336.468,999.512,139.16,45.41,-75.195,0.0,0
1581606336.4720001,999.512,136.23,44.434,-48.828,0.0,0
1581606336.476,999.512,130.859,30.761999999999997,-43.945,0.0,0
1581606336.48,999.512,135.74200000000002,32.715,-48.828,0.0,0
1581606336.484,999.512,143.555,45.41,-62.5,0.0,0
1581606336.488,999.512,138.672,36.621,-63.965,0.0,0
1581606336.492,999.512,137.207,35.645,-79.102,0.0,0
1581606336.495,999.512,115.234,31.738000000000003,-102.051,0.0,0
1581606336.4989998,999.512,112.79299999999999,31.738000000000003,-85.93799999999996,0.0,0
1581606336.5029998,999.512,139.648,41.01600000000001,-85.93799999999996,0.0,0
1581606336.5070002,999.512,146.97299999999996,43.457,-84.961,0.0,0
1581606336.5110002,999.512,136.23,48.34,-85.93799999999996,0.0,0
1581606336.5129998,999.023,119.62899999999999,50.78100000000001,-101.074,0.0,0
1581606336.5170002,996.582,129.395,39.062,-93.262,0.0,0
1581606336.5210001,980.957,138.672,33.691,-80.078,0.0,0
1581606336.525,938.477,134.27700000000002,36.621,-84.473,0.0,0
1581606336.529,562.988,130.859,36.133,-88.37899999999998,0.0,0
1581606336.533,338.86699999999996,128.418,37.109,-83.984,0.0,0
1581606336.5370002,-173.828,143.066,34.18,-84.961,0.0,0
1581606336.54,-981.934,148.92600000000004,28.32,-90.82,0.0,0
1581606336.544,-975.586,156.25,35.645,-104.98,0.0,0
1581606336.5479999,-950.195,170.41,46.387,-108.398,0.0,0
1581606336.552,-978.0269999999999,170.898,57.129,-99.609,0.0,0
1581606336.556,-972.168,145.02,52.246,-100.586,0.0,0
1581606336.5579998,-972.168,142.578,40.039,-98.145,0.0,0
1581606336.562,-972.168,137.695,43.457,-92.773,0.0,0
1581606336.566,-972.168,136.23,40.527,-90.33200000000001,0.0,0
1581606336.57,-972.168,170.41,41.992,-93.262,0.0,0
1581606336.574,-972.6560000000001,189.453,56.64100000000001,-90.82,0.0,0
1581606336.5779998,-972.6560000000001,166.99200000000005,64.941,-85.93799999999996,0.0,0
1581606336.582,-956.055,145.996,57.617,-96.68,0.0,0
1581606336.585,-1000.0,165.03900000000004,53.223,-91.309,0.0,0
1581606336.589,-791.0160000000003,169.922,58.593999999999994,-68.359,0.0,0
1581606336.593,-440.43,166.99200000000005,66.895,-69.824,0.0,0
1581606336.5970001,-713.3789999999997,173.34,47.852,-77.637,0.0,0
1581606336.601,-987.305,171.387,24.414,-84.961,0.0,0
1581606336.6179998,-991.211,186.035,37.109,-93.262,0.0,0
1581606336.6220002,-794.434,197.266,41.992,-84.961,0.0,0
1581606336.6260002,-537.5980000000002,179.199,26.855,-112.79299999999999,0.0,0
1581606336.63,-583.496,167.96900000000005,13.672,-123.04700000000001,0.0,0
1581606336.6339998,-516.113,175.293,15.625,-102.539,0.0,0
1581606336.6379998,-708.9839999999997,155.273,5.859,-102.539,0.0,0
1581606336.6420002,-994.1410000000001,141.113,-4.883,-108.887,0.0,0
1581606336.645,-966.309,158.691,1.465,-99.609,0.0,0
1581606336.649,-967.285,190.918,10.742,-83.49600000000002,0.0,0
1581606336.6529999,-973.633,208.984,19.043,-96.191,0.0,0
1581606336.657,-972.6560000000001,206.543,22.949,-113.281,0.0,0
1581606336.661,-972.6560000000001,198.73,30.273000000000003,-108.398,0.0,0
1581606336.6629999,-972.6560000000001,191.40599999999998,25.879,-96.191,0.0,0
1581606336.667,-972.6560000000001,187.012,23.438000000000002,-98.633,0.0,0
1581606336.671,-972.168,180.66400000000002,26.855,-108.398,0.0,0
1581606336.675,-979.492,161.621,29.296999999999997,-117.676,0.0,0
1581606336.679,-937.988,162.59799999999996,29.785,-109.375,0.0,1
1581606336.6829998,-988.2810000000001,179.199,21.484,-107.91,0.0,0
1581606336.687,-890.137,162.59799999999996,28.809,-136.23,0.0,0
1581606336.69,329.59,156.738,26.855,-147.94899999999996,0.0,0
1581606336.694,-911.6210000000001,158.203,9.766,-150.391,0.0,0
1581606336.698,952.637,137.207,11.719000000000001,-152.832,0.0,0
1581606336.7020001,996.582,141.602,24.414,-125.977,0.0,0
1581606336.706,-998.535,161.621,25.879,-118.652,0.0,0
1581606336.708,999.512,164.062,32.227,-117.676,0.0,0
1581606336.7120001,999.512,164.062,37.109,-113.281,0.0,0
1581606336.716,999.512,154.785,23.926,-123.535,0.0,0
1581606336.72,999.512,148.438,30.273000000000003,-123.04700000000001,0.0,0
1581606336.724,999.512,155.762,32.715,-109.375,0.0,0
1581606336.728,999.512,166.016,35.156,-109.863,0.0,0
1581606336.732,999.512,173.34,45.898,-110.84,0.0,0
1581606336.735,999.512,162.109,46.387,-101.074,0.0,0
1581606336.7389998,999.512,143.066,43.945,-107.42200000000001,0.0,0
1581606336.7429998,999.512,148.92600000000004,53.71100000000001,-110.352,0.0,0
1581606336.7470002,999.512,155.273,62.988,-93.75,0.0,0
1581606336.7510002,999.512,153.809,61.523,-102.051,0.0,0
1581606336.7529998,999.512,174.31599999999997,57.617,-108.398,0.0,0
1581606336.7570002,999.512,189.94099999999997,49.316,-104.492,0.0,0
1581606336.7610002,999.512,183.105,44.922,-98.145,0.0,0
1581606336.765,999.512,166.016,50.293,-98.145,0.0,0
1581606336.769,999.512,159.18,67.87100000000001,-101.074,0.0,0
1581606336.7729998,999.512,173.828,75.195,-97.656,0.0,0
1581606336.7770002,999.512,189.94099999999997,66.895,-97.16799999999999,0.0,0
1581606336.78,999.512,187.5,58.593999999999994,-96.68,0.0,0
1581606336.784,999.512,171.387,60.547,-92.285,0.0,0
1581606336.7879999,999.512,151.855,63.965,-88.37899999999998,0.0,0
1581606336.792,999.512,140.137,64.941,-90.82,0.0,0
1581606336.796,999.512,142.578,68.359,-98.145,0.0,0
1581606336.7979999,999.512,166.016,52.246,-105.95700000000001,0.0,0
1581606336.802,999.512,176.75799999999995,39.062,-109.863,0.0,0
1581606336.806,999.512,170.898,52.246,-104.00399999999999,0.0,0
1581606336.81,999.512,164.551,55.663999999999994,-102.051,0.0,0
1581606336.814,999.512,149.90200000000004,68.359,-106.445,0.0,0
1581606336.8179998,999.512,152.832,73.73,-104.492,0.0,0
1581606336.822,999.512,164.062,73.242,-79.102,0.0,0
1581606336.825,999.512,164.062,80.566,-65.918,0.0,0
1581606336.829,999.512,147.461,68.359,-74.707,0.0,0
1581606336.833,999.512,150.391,72.266,-69.336,0.0,0
1581606336.8370001,999.512,172.852,78.125,-65.918,0.0,0
1581606336.841,999.512,177.734,72.266,-70.312,0.0,0
1581606336.843,999.512,176.27,61.035,-78.613,0.0,0
1581606336.8470001,999.512,168.945,48.828,-76.172,0.0,0
1581606336.851,999.512,160.156,42.968999999999994,-77.148,0.0,0
1581606336.855,999.512,144.531,33.691,-80.078,0.0,0
1581606336.859,999.512,140.137,36.133,-85.449,0.0,0
1581606336.863,999.512,147.461,46.387,-83.008,0.0,0
1581606336.867,999.512,160.156,48.828,-83.49600000000002,0.0,0
1581606336.87,999.512,162.59799999999996,41.504,-90.82,0.0,0
1581606336.8739998,999.512,135.74200000000002,40.527,-80.566,0.0,0
1581606336.8779998,999.512,123.04700000000001,46.387,-82.031,0.0,0
1581606336.8820002,999.512,148.438,38.574,-97.656,0.0,0
1581606336.8860002,999.512,167.96900000000005,39.062,-88.867,0.0,0
1581606336.889,999.512,156.25,50.78100000000001,-77.637,0.0,0
1581606336.893,999.512,133.789,31.25,-90.33200000000001,0.0,0
1581606336.897,999.512,118.652,20.02,-103.516,0.0,0
1581606336.901,999.512,116.699,31.738000000000003,-75.684,0.0,0
1581606336.905,999.512,133.30100000000002,36.133,-73.73,0.0,0
1581606336.909,999.512,141.602,28.809,-91.79700000000001,0.0,0
1581606336.9129999,999.512,145.02,26.855,-96.68,0.0,0
1581606336.9160001,999.512,150.879,37.598,-91.309,0.0,0
1581606336.92,999.512,149.90200000000004,40.527,-70.801,0.0,0
1581606336.924,999.512,143.555,42.48,-70.312,0.0,0
1581606336.928,999.512,131.34799999999998,11.23,-73.73,0.0,0
1581606336.9320002,999.512,110.352,10.254000000000001,-64.941,0.0,0
1581606336.949,999.512,129.395,34.668,-69.824,0.0,0
1581606336.9529998,-998.535,162.109,37.109,-95.215,0.0,0
1581606336.957,934.57,153.809,30.761999999999997,-93.262,0.0,0
1581606336.961,-861.328,139.16,34.668,-88.37899999999998,0.0,0
1581606336.965,249.023,118.164,49.316,-87.891,0.0,0
1581606336.9689999,-1000.0,92.285,53.71100000000001,-76.66,0.0,0
1581606336.9729998,-962.8910000000001,100.098,44.434,-92.773,0.0,0
1581606336.976,-899.414,100.586,38.574,-90.82,0.0,0
1581606336.98,-1000.0,86.426,27.831999999999997,-76.172,0.0,0
1581606336.984,-525.879,99.609,30.761999999999997,-74.707,0.0,0
1581606336.988,674.316,101.074,32.227,-74.219,0.0,0
1581606336.992,-968.262,88.37899999999998,9.766,-82.031,0.0,0
1581606336.994,979.0039999999999,85.449,18.066,-73.73,0.0,0
1581606336.998,937.988,97.656,40.039,-62.5,0.0,0
1581606337.002,-917.9689999999999,95.215,39.062,-77.148,0.0,0
1581606337.006,743.164,77.637,25.879,-94.238,0.0,0
1581606337.01,-614.258,79.59,24.901999999999997,-95.215,0.0,0
1581606337.014,-951.172,84.961,31.738000000000003,-85.93799999999996,0.0,0
1581606337.018,-903.32,85.449,22.461,-81.055,0.0,0
1581606337.0210001,-992.676,68.848,19.531,-87.891,0.0,0
1581606337.025,-970.703,65.918,30.273000000000003,-68.359,0.0,0
1581606337.029,-951.172,89.844,33.203,-53.71100000000001,0.0,0
1581606337.033,-981.445,89.844,41.504,-59.57,0.0,0
1581606337.0370002,-993.164,74.707,43.457,-57.129,0.0,0
1581606337.039,15.137,73.242,21.484,-61.035,0.0,0
1581606337.043,-333.496,73.242,14.648,-58.593999999999994,0.0,0
1581606337.0470002,-520.508,91.309,18.555,-59.082,0.0,0
1581606337.051,793.945,107.42200000000001,28.809,-74.707,0.0,0
1581606337.055,990.7230000000001,104.00399999999999,24.414,-85.93799999999996,0.0,0
1581606337.059,980.4689999999999,108.398,13.184000000000001,-74.219,0.0,0
1581606337.063,995.605,100.586,12.695,-67.87100000000001,0.0,0
1581606337.066,-997.559,82.52,12.695,-62.988,0.0,0
1581606337.07,999.512,78.125,16.602,-79.102,0.0,0
1581606337.074,999.512,69.336,9.277000000000001,-99.609,0.0,0
1581606337.0779998,999.512,64.941,-11.719000000000001,-89.844,0.0,0
1581606337.082,999.512,55.176,-20.996,-83.49600000000002,0.0,0
1581606337.0839999,999.512,45.41,-25.391,-84.473,0.0,0
1581606337.0879998,999.512,57.617,-9.277000000000001,-88.37899999999998,0.0,0
1581606337.092,999.512,51.27,0.0,-71.289,0.0,0
1581606337.096,999.512,45.898,-5.859,-66.895,0.0,0
1581606337.1,999.512,63.965,-8.789,-77.637,0.0,0
1581606337.1039999,999.512,65.43,-7.324,-76.66,0.0,0
1581606337.1079998,999.512,58.593999999999994,4.883,-73.73,0.0,0
1581606337.111,999.512,65.43,-1.953,-61.035,0.0,0
1581606337.115,999.512,72.266,-23.438000000000002,-63.965,0.0,0
1581606337.119,999.512,63.477,-7.324,-78.613,0.0,0
1581606337.123,999.512,50.293,9.277000000000001,-61.035,0.0,0
1581606337.127,999.512,61.035,3.418,-64.453,0.0,0
1581606337.129,999.512,84.961,-2.93,-81.055,0.0,0
1581606337.133,999.512,90.33200000000001,-9.766,-62.5,0.0,0
1581606337.137,999.512,74.707,2.441,-57.129,0.0,0
1581606337.141,999.023,51.758,16.113,-74.707,0.0,0
1581606337.145,999.512,42.48,-5.371,-83.008,0.0,0
1581606337.149,-998.535,51.758,-19.531,-93.262,0.0,0
1581606337.1529999,984.375,60.059,-20.02,-91.309,0.0,0
1581606337.1560001,954.102,42.968999999999994,-20.508000000000006,-93.262,0.0,0
1581606337.16,-882.324,24.901999999999997,-5.859,-108.887,0.0,0
1581606337.164,12.207,29.296999999999997,-3.418,-84.961,0.0,0
1581606337.168,-1000.0,41.504,-11.719000000000001,-84.961,0.0,0
1581606337.1720002,-894.043,50.293,-4.395,-97.16799999999999,0.0,0
1581606337.174,-1000.0,39.062,1.953,-86.914,0.0,0
1581606337.178,-458.00800000000004,27.344,1.465,-82.031,0.0,0
1581606337.1820002,350.586,41.01600000000001,9.766,-58.593999999999994,0.0,0
1581606337.186,765.137,56.64100000000001,13.184000000000001,-50.78100000000001,0.0,0
1581606337.19,-972.168,58.105,3.418,-73.73,0.0,0
1581606337.194,980.4689999999999,60.059,1.953,-55.176,0.0,0
1581606337.198,-997.559,67.383,-5.371,-43.457,0.0,0
1581606337.201,999.512,71.289,-14.16,-70.312,0.0,0
1581606337.205,999.512,49.805,-12.207,-64.453,0.0,0
1581606337.2089999,999.512,38.574,-0.488,-41.504,0.0,0
1581606337.2129998,999.512,63.965,6.348,-43.457,0.0,0
1581606337.217,-1000.0,53.223,-5.371,-58.105,0.0,0
1581606337.2189999,936.523,37.598,-18.066,-54.199,0.0,0
1581606337.2229998,-861.816,57.129,-17.578,-58.105,0.0,0
1581606337.2270002,216.30900000000003,59.082,-27.344,-83.008,0.0,0
1581606337.231,-1000.0,34.668,-39.551,-85.93799999999996,0.0,0
1581606337.235,-954.59,12.695,-26.855,-93.75,0.0,0
1581606337.2389998,-860.352,6.836,-13.672,-75.195,0.0,0
1581606337.2429998,-370.605,9.766,-20.996,-64.941,0.0,0
1581606337.246,540.039,25.391,-24.414,-96.68,0.0,0
1581606337.25,-982.422,35.645,-40.527,-93.75,0.0,0
1581606337.254,981.445,41.01600000000001,-50.293,-78.125,0.0,0
1581606337.258,992.188,48.34,-41.992,-71.777,0.0,0
1581606337.262,-998.047,43.945,-31.738000000000003,-76.66,0.0,0
1581606337.264,999.512,26.366999999999997,-30.761999999999997,-71.777,0.0,0
1581606337.268,999.512,8.301,-38.086,-61.523,0.0,0
1581606337.272,999.512,11.23,-21.484,-66.406,0.0,0
1581606337.276,999.512,23.926,-5.859,-71.289,0.0,0
1581606337.28,999.512,18.066,-15.137,-66.895,0.0,0
1581606337.284,999.512,24.901999999999997,-21.484,-59.082,0.0,0
1581606337.2879999,999.512,35.156,-8.789,-63.965,0.0,0
1581606337.2910001,999.512,36.133,-2.93,-54.688,0.0,0
1581606337.295,999.512,46.875,-11.23,-49.316,0.0,0
1581606337.299,999.512,47.852,-8.789,-46.875,0.0,0
1581606337.303,999.512,38.574,1.465,-43.945,0.0,0
1581606337.3070002,999.512,41.504,-5.371,-53.223,0.0,0
1581606337.324,999.512,45.898,-15.137,-53.223,0.0,0
1581606337.3279998,999.512,33.691,-18.066,-53.71100000000001,0.0,0
1581606337.332,999.512,21.97300000000001,-33.691,-55.663999999999994,0.0,0
1581606337.336,999.512,6.836,-28.32,-55.176,0.0,0
1581606337.34,-995.117,-3.906,-27.831999999999997,-52.733999999999995,0.0,0
1581606337.3439999,976.074,13.184000000000001,-30.273000000000003,-66.895,0.0,0
1581606337.3479998,973.145,30.761999999999997,-17.09,-78.125,0.0,0
1581606337.351,-907.227,41.504,-21.97300000000001,-56.64100000000001,0.0,0
1581606337.355,-129.395,51.27,-19.043,-33.203,0.0,0
1581606337.359,-1000.0,46.875,-10.254000000000001,-42.968999999999994,0.0,0
1581606337.363,-397.461,36.621,-7.812,-54.199,0.0,0
1581606337.367,15.137,18.066,-11.719000000000001,-45.898,0.0,0
1581606337.369,175.78099999999995,-1.953,-15.625,-40.039,0.0,0
1581606337.373,823.73,24.414,-6.348,-40.039,0.0,0
1581606337.377,-964.355,69.824,0.488,-36.133,0.0,0
1581606337.381,975.0980000000001,63.477,-1.953,-28.809,0.0,0
1581606337.385,985.352,47.363,-9.277000000000001,-26.366999999999997,0.0,0
1581606337.389,965.332,61.523,-6.348,-28.32,0.0,0
1581606337.393,819.824,65.43,-2.441,-29.785,0.0,0
1581606337.3960001,-161.13299999999995,56.152,-5.859,-11.719000000000001,0.0,0
1581606337.4,-988.77,43.457,8.301,-15.137,0.0,0
1581606337.404,-956.055,59.082,5.859,-40.039,0.0,0
1581606337.408,-957.0310000000001,41.01600000000001,-10.742,-36.133,0.0,0
1581606337.4120002,-979.98,8.301,-18.066,-15.137,0.0,0
1581606337.414,-950.195,38.574,-19.531,-6.836,0.0,0
1581606337.418,-1000.0,64.941,-16.602,-1.465,0.0,0
1581606337.4220002,-779.297,65.918,-14.16,-7.324,0.0,0
1581606337.426,-188.477,46.875,-13.672,-18.066,0.0,0
1581606337.43,492.676,29.785,-20.02,-9.766,0.0,0
1581606337.434,994.1410000000001,40.527,-27.831999999999997,-6.836,0.0,0
1581606337.438,994.6289999999999,59.082,-30.273000000000003,-17.578,0.0,0
1581606337.441,992.188,51.27,-34.18,-29.296999999999997,0.0,0
1581606337.445,972.168,46.875,-29.785,-23.926,0.0,0
1581606337.449,-963.3789999999999,58.105,-26.855,-15.625,0.0,0
1581606337.4529998,849.6089999999997,44.922,-21.97300000000001,-13.184000000000001,0.0,0
1581606337.457,-0.488,36.133,-15.625,-17.578,0.0,0
1581606337.4589999,85.93799999999996,47.363,-14.16,-10.254000000000001,0.0,0
1581606337.4629998,888.184,45.898,-20.02,-17.09,0.0,0
1581606337.467,-983.887,47.363,-33.203,-18.066,0.0,0
1581606337.471,977.051,55.176,-16.602,0.488,0.0,0
1581606337.475,-998.047,40.039,2.93,-12.207,0.0,0
1581606337.4789999,999.512,28.809,6.348,-13.184000000000001,0.0,0
1581606337.4829998,999.512,47.852,11.23,-12.695,0.0,0
1581606337.486,-986.816,77.148,0.0,-18.555,0.0,0
1581606337.49,943.8480000000001,64.941,-14.648,-19.531,0.0,0
1581606337.494,-943.8480000000001,52.733999999999995,-16.113,-17.09,0.0,0
1581606337.498,846.191,57.617,-4.883,4.395,0.0,0
1581606337.502,-565.918,35.156,4.395,9.766,0.0,0
1581606337.5029998,-1000.0,14.16,3.418,3.418,0.0,0
1581606337.5070002,-908.203,18.555,-1.953,-1.953,0.0,0
1581606337.5110002,-934.57,27.344,-2.93,1.465,0.0,0
1581606337.515,-1000.0,35.645,5.371,14.16,0.0,0
1581606337.519,-467.285,37.598,7.324,11.23,0.0,0
1581606337.5229998,787.5980000000003,29.785,5.371,7.812,0.0,0
1581606337.5270002,-967.285,33.203,2.441,8.789,0.0,0
1581606337.53,960.938,40.527,-12.695,-4.395,0.0,0
1581606337.534,-995.605,35.156,-7.812,-2.441,0.0,0
1581606337.5379999,999.512,35.645,10.254000000000001,8.301,0.0,0
1581606337.542,999.512,51.27,21.484,26.366999999999997,0.0,0
1581606337.546,999.512,60.059,30.273000000000003,42.48,0.0,0
1581606337.5479999,999.512,72.266,23.438000000000002,36.621,0.0,0
1581606337.552,999.512,62.012,15.625,20.996,0.0,0
1581606337.556,999.512,56.152,11.719000000000001,23.926,0.0,0
1581606337.56,999.512,71.777,10.742,27.344,0.0,0
1581606337.564,999.512,51.758,15.137,16.602,0.0,0
1581606337.5679998,999.512,51.758,14.16,18.555,0.0,0
1581606337.572,999.512,57.617,1.465,16.602,0.0,0
1581606337.575,999.512,45.41,1.465,23.438000000000002,0.0,0
1581606337.579,999.512,71.289,26.855,40.039,0.0,0
1581606337.583,999.512,75.195,33.203,42.968999999999994,0.0,0
1581606337.5870001,999.512,67.383,23.926,51.758,0.0,0
1581606337.591,999.512,88.867,38.574,64.453,0.0,0
1581606337.593,999.512,74.219,42.968999999999994,58.593999999999994,0.0,0
1581606337.5970001,998.535,58.105,40.527,51.758,0.0,0
1581606337.601,-997.07,66.406,39.551,48.34,0.0,0
1581606337.605,984.863,81.543,34.18,38.086,0.0,0
1581606337.609,990.7230000000001,80.566,42.48,36.133,0.0,0
1581606337.613,-991.699,61.035,30.273000000000003,39.062,0.0,0
1581606337.617,732.91,59.57,13.184000000000001,33.203,0.0,0
1581606337.62,774.414,55.663999999999994,14.16,19.531,0.0,0
1581606337.6239998,-971.68,48.34,5.371,24.414,0.0,0
1581606337.6279998,993.164,44.922,-8.301,29.296999999999997,0.0,0
1581606337.6320002,995.605,48.34,-13.184000000000001,19.043,0.0,0
1581606337.6360002,-1000.0,49.805,-1.465,18.066,0.0,0
1581606337.6379998,999.512,38.574,28.809,31.25,0.0,0
1581606337.6420002,999.512,31.738000000000003,47.852,41.992,0.0,0
1581606337.6460001,999.512,55.663999999999994,45.41,40.527,0.0,0
1581606337.65,999.512,79.102,29.296999999999997,17.09,0.0,0
1581606337.654,996.0939999999999,70.312,2.93,8.301,0.0,0
1581606337.658,-992.676,52.246,-7.324,20.508000000000006,0.0,0
1581606337.6620002,935.059,52.733999999999995,0.0,10.742,0.0,0
1581606337.665,938.477,56.152,1.465,11.23,0.0,0
1581606337.669,703.125,55.176,5.371,31.738000000000003,0.0,0
1581606337.6729999,143.066,50.293,6.348,29.785,0.0,0
1581606337.677,507.81199999999995,36.133,6.348,33.691,0.0,0
1581606337.681,-951.66,30.273000000000003,12.207,40.527,0.0,0
1581606337.698,986.816,44.922,5.371,41.504,0.0,0
1581606337.7020001,990.2339999999999,44.434,-3.906,42.48,0.0,2
1581606337.706,-998.535,49.316,-10.254000000000001,34.668,0.0,0
1581606337.71,999.512,71.289,-2.93,34.18,0.0,0
1581606337.714,998.535,69.336,16.113,39.062,0.0,0
1581606337.718,998.535,51.27,16.113,31.738000000000003,0.0,0
1581606337.7220001,999.512,43.457,3.418,25.879,0.0,0
1581606337.725,999.512,46.875,5.371,34.18,0.0,0
1581606337.7289999,999.512,52.733999999999995,7.324,46.387,0.0,0
1581606337.7329998,999.512,57.129,20.02,61.523,0.0,0
1581606337.7370002,998.535,49.316,29.296999999999997,60.547,0.0,0
1581606337.7410002,979.98,32.715,14.648,38.574,0.0,0
1581606337.7429998,-944.336,45.898,10.254000000000001,32.227,0.0,0
1581606337.7470002,718.75,57.617,6.348,44.922,0.0,0
1581606337.7510002,470.215,46.387,-2.441,54.688,0.0,0
1581606337.755,868.164,32.227,9.766,54.688,0.0,0
1581606337.7589998,750.0,10.742,11.719000000000001,33.203,0.0,0
1581606337.7629998,657.227,34.18,-1.465,42.48,0.0,0
1581606337.7670002,395.996,59.57,10.742,48.34,0.0,0
1581606337.77,-624.512,50.293,14.16,27.344,0.0,0
1581606337.774,-1000.0,46.875,13.672,32.715,0.0,0
1581606337.7779999,-954.102,33.691,19.043,30.761999999999997,0.0,0
1581606337.782,-843.75,25.391,8.789,20.996,0.0,0
1581606337.786,-102.051,31.738000000000003,8.789,33.203,0.0,0
1581606337.7879999,148.438,37.109,6.836,50.78100000000001,0.0,0
1581606337.792,-61.523,34.18,-3.906,51.27,0.0,0
1581606337.796,-236.328,36.133,-15.625,49.805,0.0,0
1581606337.8,-195.312,49.805,-18.555,56.64100000000001,0.0,0
1581606337.804,290.527,48.34,-11.719000000000001,47.363,0.0,0
1581606337.8079998,572.266,34.668,3.418,36.133,0.0,0
1581606337.812,690.918,33.691,5.371,33.203,0.0,0
1581606337.815,864.258,30.273000000000003,-20.508000000000006,37.598,0.0,0
1581606337.819,-991.211,17.578,-25.879,27.344,0.0,0
1581606337.823,995.117,30.273000000000003,-6.348,10.254000000000001,0.0,0
1581606337.8270001,998.535,49.805,6.348,32.227,0.0,0
1581606337.831,976.562,30.761999999999997,5.371,41.01600000000001,0.0,0
1581606337.833,-944.824,18.555,-12.207,39.551,0.0,0
1581606337.8370001,768.555,26.855,-25.391,39.062,0.0,0
1581606337.841,427.246,26.366999999999997,-38.086,40.039,0.0,0
1581606337.845,854.0039999999997,35.645,-45.898,53.71100000000001,0.0,0
1581606337.849,-959.4730000000001,43.945,-40.039,51.758,0.0,0
1581606337.853,978.0269999999999,36.133,-41.504,38.086,0.0,0
1581606337.857,-998.047,25.391,-35.645,29.296999999999997,0.0,0
1581606337.86,999.512,47.363,-24.414,54.688,0.0,0
1581606337.8639998,-990.7230000000001,45.41,-33.203,45.898,0.0,0
1581606337.8679998,956.543,16.602,-50.293,35.156,0.0,0
1581606337.8720002,-973.145,34.18,-33.203,56.152,0.0,0
1581606337.8760002,922.363,51.758,-12.695,50.293,0.0,0
1581606337.8779998,-405.76199999999994,34.668,-19.043,43.457,0.0,0
1581606337.8820002,-1000.0,14.16,-20.996,49.316,0.0,0
1581606337.8860002,-910.645,10.254000000000001,-22.949,44.922,0.0,0
1581606337.89,-978.0269999999999,20.996,-40.527,37.598,0.0,0
1581606337.894,-972.6560000000001,31.25,-31.25,52.246,0.0,0
1581606337.8979998,-972.168,27.831999999999997,-8.789,52.733999999999995,0.0,0
1581606337.9020002,-972.168,28.809,-15.137,48.34,0.0,0
1581606337.905,-972.6560000000001,37.598,-19.531,36.133,0.0,0
1581606337.909,-972.6560000000001,36.133,-15.137,31.25,0.0,0
1581606337.9129999,-972.6560000000001,29.785,-19.531,40.039,0.0,0
1581606337.917,-972.6560000000001,18.066,-29.296999999999997,41.992,0.0,0
1581606337.921,-972.168,4.883,-40.039,26.855,0.0,0
1581606337.924,-975.586,2.93,-30.273000000000003,18.066,0.0,0
1581606337.928,-941.895,25.391,-23.438000000000002,41.504,0.0,0
1581606337.9320002,-1000.0,20.508000000000006,-30.761999999999997,43.945,0.0,0
1581606337.936,-592.773,9.766,-29.785,42.968999999999994,0.0,0
1581606337.94,-419.92199999999997,30.273000000000003,-30.273000000000003,55.176,0.0,0
1581606337.944,-1000.0,31.738000000000003,-37.598,59.57,0.0,0
1581606337.948,-906.25,36.621,-24.414,53.223,0.0,0
1581606337.951,308.594,44.922,-12.207,50.293,0.0,0
1581606337.955,-959.4730000000001,44.434,-29.785,46.387,0.0,0
1581606337.9589999,980.957,51.758,-37.598,45.898,0.0,0
1581606337.9629998,942.383,46.387,-23.438000000000002,31.25,0.0,0
1581606337.967,-396.48400000000004,34.668,-24.414,7.324,0.0,0
1581606337.9689999,-1000.0,22.461,-32.715,7.324,0.0,0
1581606337.9729998,-994.6289999999999,1.953,-32.227,11.719000000000001,0.0,0
1581606337.9770002,-56.64100000000001,-3.418,-36.621,17.578,0.0,0
1581606337.981,-924.316,-1.465,-35.156,35.645,0.0,0
1581606337.985,973.145,27.831999999999997,-27.831999999999997,39.062,0.0,0
1581606337.9889998,979.492,61.523,-14.648,44.922,0.0,0
1581606337.9929998,-995.117,42.48,-12.207,39.551,0.0,0
1581606337.996,999.512,23.438000000000002,-27.344,14.16,0.0,0
1581606338.0,999.512,34.668,-28.32,13.184000000000001,0.0,0
1581606338.004,999.512,60.547,-19.531,35.156,0.0,0
1581606338.008,-984.863,67.87100000000001,-19.043,38.086,0.0,0
1581606338.012,933.105,63.965,-15.137,46.387,0.0,0
1581606338.014,-911.133,73.242,-4.395,63.477,0.0,0
1581606338.018,724.1210000000003,66.406,5.859,61.035,0.0,0
1581606338.022,-727.539,49.316,11.719000000000001,54.688,0.0,0
1581606338.026,-989.7460000000001,50.78100000000001,1.465,48.828,0.0,0
1581606338.03,-1000.0,61.035,-11.719000000000001,38.574,0.0,0
1581606338.034,-375.977,63.965,0.977,44.922,0.0,0
1581606338.0379999,-922.852,62.012,0.977,38.574,0.0,0
1581606338.0410001,324.707,53.71100000000001,-22.949,31.738000000000003,0.0,0
1581606338.045,320.801,44.434,-23.438000000000002,48.828,0.0,0
1581606338.049,-876.465,49.316,-13.184000000000001,48.34,0.0,0
1581606338.053,970.703,62.012,-10.254000000000001,50.293,0.0,0
1581606338.0570002,996.0939999999999,71.777,-8.301,48.34,0.0,0
1581606338.059,-1000.0,69.824,-21.484,40.527,0.0,0
1581606338.063,999.512,55.176,-31.738000000000003,56.152,0.0,0
1581606338.0670002,999.512,32.715,-15.137,65.43,0.0,0
1581606338.071,999.512,34.18,-3.418,55.176,0.0,0
1581606338.075,999.512,62.988,1.953,58.593999999999994,0.0,0
1581606338.079,999.512,87.891,8.301,51.758,0.0,0
1581606338.083,-1000.0,80.078,-0.977,40.527,0.0,0
1581606338.086,936.523,38.086,-19.043,54.199,0.0,0
1581606338.09,-861.816,12.695,-22.461,56.64100000000001,0.0,0
1581606338.0939999,213.37900000000002,30.273000000000003,-24.414,31.738000000000003,0.0,0
1581606338.0979998,-1000.0,47.852,-31.738000000000003,24.414,0.0,0
1581606338.1020002,-946.289,53.71100000000001,-30.273000000000003,40.039,0.0,0
1581606338.119,-926.758,41.504,-22.949,48.34,0.0,0
1581606338.123,160.645,47.363,-20.508000000000006,53.223,0.0,0
1581606338.127,-998.047,67.383,-10.254000000000001,50.293,0.0,0
1581606338.131,-904.785,80.566,3.906,51.758,0.0,0
1581606338.135,492.18800000000016,64.453,8.789,52.733999999999995,0.0,0
1581606338.139,-906.25,33.203,-3.906,38.574,0.0,0
1581606338.143,-973.633,20.996,-29.296999999999997,37.109,0.0,0
1581606338.1460001,-977.051,33.203,-27.344,46.387,0.0,0
1581606338.15,-161.13299999999995,61.523,-2.441,49.316,0.0,0
1581606338.154,980.4689999999999,61.523,-10.742,34.668,0.0,0
1581606338.158,998.047,42.968999999999994,-19.531,26.366999999999997,0.0,0
1581606338.1620002,972.168,44.922,-20.508000000000006,35.156,0.0,0
1581606338.164,-993.6519999999999,52.733999999999995,-17.578,50.78100000000001,0.0,0
1581606338.168,999.512,19.043,-10.742,56.152,0.0,0
1581606338.1720002,999.512,4.395,-7.812,55.176,0.0,0
1581606338.176,999.512,21.484,-6.348,54.199,0.0,0
1581606338.18,999.512,56.64100000000001,-8.789,37.598,0.0,0
1581606338.184,999.512,79.59,-9.277000000000001,30.761999999999997,0.0,0
1581606338.188,999.512,65.918,-16.602,39.062,0.0,0
1581606338.191,999.512,37.598,-12.207,54.199,0.0,0
1581606338.195,999.512,14.16,-4.883,55.176,0.0,0
1581606338.199,999.512,40.527,0.488,49.316,0.0,0
1581606338.2029998,999.512,65.918,5.371,52.246,0.0,0
1581606338.207,999.512,62.5,-0.977,46.387,0.0,0
1581606338.2089999,999.512,52.733999999999995,-12.695,50.78100000000001,0.0,0
1581606338.2129998,-994.1410000000001,31.25,-2.93,68.848,0.0,0
1581606338.217,972.168,14.16,10.254000000000001,65.918,0.0,0
1581606338.221,982.91,16.602,6.836,56.64100000000001,0.0,0
1581606338.225,-930.664,23.926,12.207,45.898,0.0,0
1581606338.2289999,-190.918,34.18,24.414,45.41,0.0,0
1581606338.2329998,-1000.0,29.785,11.23,50.78100000000001,0.0,0
1581606338.236,-1000.0,18.066,1.465,42.48,0.0,0
1581606338.24,-286.621,20.996,15.137,36.621,0.0,0
1581606338.244,962.8910000000001,40.527,13.672,41.992,0.0,0
1581606338.248,-992.676,57.617,0.0,49.805,0.0,0
1581606338.252,965.82,72.266,-5.371,46.875,0.0,0
1581606338.254,-990.7230000000001,74.219,-5.371,38.574,0.0,0
1581606338.258,965.82,50.78100000000001,-4.883,51.758,0.0,0
1581606338.262,-894.043,52.733999999999995,9.277000000000001,69.336,0.0,0
1581606338.266,545.41,62.988,17.578,63.965,0.0,0
1581606338.27,405.273,52.246,15.137,62.012,0.0,0
1581606338.274,-925.7810000000001,43.945,21.484,67.87100000000001,0.0,0
1581606338.2779999,915.5269999999999,55.176,16.113,77.148,0.0,0
1581606338.2810001,-826.66,62.012,-2.441,54.688,0.0,0
1581606338.285,378.906,49.805,-12.207,31.738000000000003,0.0,0
1581606338.289,-559.57,35.645,-19.531,46.875,0.0,0
1581606338.293,687.5,37.598,-4.883,37.598,0.0,0
1581606338.2970002,-902.832,50.78100000000001,6.348,29.785,0.0,0
1581606338.299,940.918,37.109,-3.418,41.992,0.0,0
1581606338.303,-994.6289999999999,17.09,-17.578,51.758,0.0,0
1581606338.3070002,-1000.0,25.391,-22.461,57.617,0.0,0
1581606338.311,999.512,38.086,-17.09,63.477,0.0,0
1581606338.315,999.512,46.875,-6.836,55.663999999999994,0.0,0
1581606338.319,999.512,52.733999999999995,-6.348,37.598,0.0,0
1581606338.323,999.512,57.617,-8.789,39.062,0.0,0
1581606338.326,999.512,52.246,-15.625,40.039,0.0,0
1581606338.33,999.512,26.855,-30.273000000000003,52.733999999999995,0.0,0
1581606338.3339999,999.512,34.18,-34.18,60.059,0.0,0
1581606338.3379998,999.512,49.316,-26.855,41.01600000000001,0.0,0
1581606338.342,999.512,49.316,-19.043,46.875,0.0,0
1581606338.3439999,999.512,37.109,-32.715,57.617,0.0,0
1581606338.3479998,999.512,-0.977,-48.828,50.293,0.0,0
1581606338.3520002,999.512,-29.296999999999997,-21.484,49.316,0.0,0
1581606338.356,999.512,-4.395,1.953,58.105,0.0,0
1581606338.36,999.512,41.01600000000001,-7.812,50.293,0.0,0
1581606338.3639998,999.512,58.593999999999994,-40.039,35.645,0.0,0
1581606338.3679998,999.512,56.152,-42.48,38.574,0.0,0
1581606338.371,999.512,49.805,-15.625,37.598,0.0,0
1581606338.375,998.047,32.715,-11.719000000000001,53.71100000000001,0.0,0
1581606338.379,941.4060000000001,28.809,-29.296999999999997,78.125,0.0,0
1581606338.383,-835.938,35.156,-45.41,72.266,0.0,0
1581606338.387,157.715,30.761999999999997,-30.761999999999997,52.733999999999995,0.0,0
1581606338.389,-583.984,6.348,-15.625,51.27,0.0,0
1581606338.393,312.988,-17.578,-24.414,65.918,0.0,0
1581606338.397,425.781,-4.395,-20.02,66.895,0.0,0
1581606338.401,-119.141,22.461,-10.254000000000001,61.523,0.0,0
1581606338.405,-567.383,50.293,-14.16,57.129,0.0,0
1581606338.409,-1000.0,60.547,-10.254000000000001,59.57,0.0,0
1581606338.4129999,-396.973,44.434,-8.301,50.78100000000001,0.0,0
1581606338.4160001,800.293,26.366999999999997,-23.438000000000002,49.316,0.0,0
1581606338.42,953.125,21.484,-20.508000000000006,76.66,0.0,0
1581606338.424,-892.578,13.672,-14.16,87.891,0.0,0
1581606338.428,220.215,11.23,-20.508000000000006,70.312,0.0,0
1581606338.4320002,-1000.0,16.113,-19.531,53.71100000000001,0.0,0
1581606338.449,-957.0310000000001,6.836,-21.484,41.504,0.0,0
1581606338.4529998,-942.383,0.488,-28.809,39.062,0.0,0
1581606338.457,-955.566,6.348,-35.156,41.992,0.0,0
1581606338.461,-978.0269999999999,1.465,-38.574,30.761999999999997,0.0,0
1581606338.465,-494.14099999999996,-7.812,-26.366999999999997,48.828,0.0,0
1581606338.4689999,448.24199999999996,15.625,-14.16,62.988,0.0,0
1581606338.4729998,940.43,24.901999999999997,-23.926,47.852,0.0,0
1581606338.476,995.605,23.438000000000002,-28.32,43.457,0.0,0
1581606338.48,987.305,34.668,-26.366999999999997,54.688,0.0,0
1581606338.484,-997.559,24.901999999999997,-35.645,62.988,0.0,0
1581606338.488,999.512,23.438000000000002,-30.761999999999997,65.918,0.0,0
1581606338.492,999.512,27.344,-5.859,62.5,0.0,0
1581606338.494,999.512,22.461,-5.371,43.457,0.0,0
1581606338.498,999.512,28.32,-14.16,28.809,0.0,0
1581606338.502,999.512,32.715,-7.324,40.039,0.0,0
1581606338.506,999.512,18.555,-0.977,44.922,0.0,0
1581606338.51,999.512,20.02,-8.789,38.574,0.0,0
1581606338.514,999.512,36.133,-17.09,49.316,0.0,0
1581606338.518,999.512,29.296999999999997,-9.766,62.5,0.0,0
1581606338.5210001,999.512,15.625,-21.484,56.64100000000001,0.0,0
1581606338.525,-990.7230000000001,16.113,-31.25,49.316,0.0,0
1581606338.529,926.758,20.508000000000006,-22.949,56.64100000000001,0.0,0
1581606338.533,-864.258,19.531,-25.879,51.27,0.0,0
1581606338.5370002,411.621,29.296999999999997,-26.366999999999997,41.01600000000001,0.0,0
1581606338.539,-966.797,23.926,-19.531,64.453,0.0,0
1581606338.543,-989.7460000000001,7.324,-19.043,61.523,0.0,0
1581606338.5470002,-932.617,5.371,-32.227,38.086,0.0,0
1581606338.551,-947.2660000000001,7.324,-45.41,35.156,0.0,0
1581606338.555,-1000.0,9.277000000000001,-49.316,33.691,0.0,0
1581606338.559,-563.477,0.977,-34.668,38.574,0.0,0
1581606338.563,-312.5,-10.742,-23.438000000000002,45.41,0.0,0
1581606338.566,-993.6519999999999,-18.066,-31.738000000000003,46.387,0.0,0
1581606338.57,-989.7460000000001,-11.23,-34.18,42.48,0.0,0
1581606338.574,-949.707,10.254000000000001,-27.831999999999997,37.109,0.0,0
1581606338.5779998,-977.051,24.901999999999997,-26.855,39.062,0.0,0
1581606338.582,-972.6560000000001,8.301,-27.344,47.363,0.0,0
1581606338.5870001,-972.6560000000001,-12.207,-23.926,46.387,0.0,0
1581606338.591,-972.6560000000001,-2.441,-19.043,42.48,0.0,0
1581606338.595,-972.168,5.859,-20.508000000000006,42.48,0.0,0
1581606338.599,-972.168,-3.418,-30.273000000000003,37.598,0.0,0
1581606338.603,-972.6560000000001,6.836,-35.645,41.504,0.0,0
1581606338.607,-972.6560000000001,8.301,-36.621,44.434,0.0,0
1581606338.611,-972.168,10.742,-25.391,57.129,0.0,0
1581606338.6139998,-972.168,27.344,-3.418,64.941,0.0,0
1581606338.6179998,-972.168,18.555,-10.742,59.57,0.0,0
1581606338.6220002,-972.168,5.371,-26.366999999999997,44.434,0.0,0
1581606338.6260002,-972.6560000000001,21.97300000000001,-33.691,32.227,0.0,0
1581606338.63,-972.168,39.062,-38.574,42.48,0.0,0
1581606338.629,-972.168,16.602,-32.715,40.039,0.0,0
1581606338.633,-972.168,5.859,-23.438000000000002,32.227,0.0,0
1581606338.637,-972.168,16.113,-27.831999999999997,44.434,0.0,0
1581606338.641,-972.6560000000001,4.395,-25.879,57.617,0.0,0
1581606338.645,-972.6560000000001,-4.883,-25.391,62.5,0.0,0
1581606338.649,-972.168,-6.348,-30.761999999999997,46.387,0.0,0
1581606338.6529999,-972.168,-1.465,-17.09,39.062,0.0,0
1581606338.6560001,-972.6560000000001,6.836,-17.09,31.738000000000003,0.0,0
1581606338.66,-972.168,-1.465,-37.109,25.879,0.0,0
1581606338.664,-972.168,5.371,-43.457,39.551,0.0,0
1581606338.668,-972.168,20.508000000000006,-32.715,39.062,0.0,0
1581606338.6720002,-972.6560000000001,20.996,-32.715,39.062,0.0,0
1581606338.674,-972.6560000000001,17.578,-32.227,47.852,0.0,0
1581606338.678,-974.1210000000001,12.207,-26.855,49.805,0.0,0
1581606338.6820002,-965.332,6.836,-26.366999999999997,37.598,0.0,0
1581606338.686,-922.852,6.836,-20.02,26.855,0.0,0
1581606338.69,-1000.0,8.789,-18.066,31.25,0.0,0
1581606338.694,-68.359,2.93,-44.434,45.898,0.0,0
1581606338.698,-906.738,1.953,-50.78100000000001,51.27,0.0,0
1581606338.701,982.91,4.395,-15.137,38.574,0.0,0
1581606338.705,920.898,12.207,-4.883,39.062,0.0,0
1581606338.7089999,-927.2460000000001,18.555,-11.23,63.965,0.0,0
1581606338.7129998,799.316,2.441,-2.441,67.383,0.0,0
1581606338.717,-617.188,-9.277000000000001,3.906,64.941,0.0,0
1581606338.718,-1000.0,-9.766,-3.906,60.059,0.0,0
1581606338.7220001,-1000.0,6.836,-11.23,57.617,0.0,0
1581606338.726,-151.36700000000005,24.414,-13.184000000000001,70.801,0.0,0
1581606338.73,-781.25,26.855,-12.207,62.5,0.0,0
1581606338.734,158.691,30.273000000000003,2.441,58.593999999999994,0.0,0
1581606338.738,-1000.0,43.457,5.859,62.988,0.0,0
1581606338.742,-112.305,35.156,-4.883,59.082,0.0,0
1581606338.745,857.422,23.438000000000002,-1.465,50.293,0.0,0
1581606338.7489998,-146.484,19.043,-8.789,45.898,0.0,0
1581606338.7529998,-1000.0,13.184000000000001,-37.109,55.663999999999994,0.0,0
1581606338.7570002,31.738000000000003,3.418,-36.133,59.57,0.0,0
1581606338.7610002,126.465,6.348,-16.113,45.898,0.0,0
1581606338.7629998,-1000.0,17.578,-19.531,43.945,0.0,0
1581606338.7670002,-1000.0,20.996,-20.996,58.593999999999994,0.0,0
1581606338.7710001,-789.551,0.488,-2.93,59.082,0.0,0
1581606338.775,552.246,1.953,4.883,50.78100000000001,0.0,0
1581606338.779,-903.32,31.738000000000003,-13.184000000000001,31.25,0.0,0
1581606338.783,938.477,31.738000000000003,-27.831999999999997,38.574,0.0,0
1581606338.7870002,-991.699,21.97300000000001,-20.996,46.875,0.0,0
1581606338.79,999.512,36.133,-15.625,34.18,0.0,0
1581606338.794,999.512,41.992,-15.137,45.41,0.0,0
1581606338.7979999,999.512,30.761999999999997,-11.719000000000001,49.316,0.0,0
1581606338.802,999.512,29.296999999999997,-13.184000000000001,61.523,0.0,0
1581606338.806,999.512,24.901999999999997,-14.648,78.125,0.0,0
1581606338.823,999.512,26.366999999999997,-12.207,68.848,0.0,0
1581606338.8270001,999.512,24.414,-5.371,61.035,0.0,0
1581606338.831,999.512,32.227,5.859,64.453,0.0,0
1581606338.835,999.512,35.156,-1.953,74.707,0.0,0
1581606338.839,999.512,19.531,-28.32,65.918,0.0,0
1581606338.843,999.512,4.883,-23.926,45.41,0.0,0
1581606338.8470001,999.512,2.93,-10.254000000000001,43.945,0.0,0
1581606338.85,999.512,4.395,-16.113,56.152,0.0,0
1581606338.8539999,999.512,8.301,-15.625,65.43,0.0,0
1581606338.8579998,999.512,6.348,-16.113,62.012,0.0,0
1581606338.8620002,999.512,8.301,-25.391,49.805,0.0,0
1581606338.8660002,999.512,25.391,-38.574,39.551,0.0,0
1581606338.8679998,999.512,28.809,-41.01600000000001,47.363,0.0,0
1581606338.8720002,999.512,20.02,-32.227,41.992,0.0,0
1581606338.8760002,999.512,9.277000000000001,-21.484,42.48,0.0,0
1581606338.88,999.512,4.883,-2.93,60.059,0.0,0
1581606338.8839998,999.512,18.555,-12.207,50.293,0.0,0
1581606338.8879998,999.512,17.09,-26.366999999999997,43.457,0.0,0
1581606338.8920002,999.512,16.113,-23.926,40.039,0.0,1
1581606338.895,999.512,22.461,-15.137,37.109,0.0,0
1581606338.899,999.512,22.461,-5.859,62.5,0.0,0
1581606338.9029999,997.559,12.695,-3.906,50.293,0.0,0
1581606338.907,967.285,19.531,-15.625,37.109,0.0,0
1581606338.911,-883.301,37.598,-27.831999999999997,66.895,0.0,0
1581606338.9129999,418.945,37.109,-19.043,62.5,0.0,0
1581606338.917,321.289,36.621,-18.066,56.152,0.0,0
1581606338.921,-915.039,34.18,-25.391,52.246,0.0,0
1581606338.925,988.2810000000001,31.738000000000003,-34.18,46.875,0.0,0
1581606338.929,987.793,30.761999999999997,-33.203,60.547,0.0,0
1581606338.9329998,-999.023,14.16,-20.508000000000006,62.012,0.0,0
1581606338.937,999.512,6.836,-16.602,52.733999999999995,0.0,0
1581606338.94,998.535,30.273000000000003,-24.901999999999997,56.64100000000001,0.0,0
1581606338.944,938.477,41.01600000000001,-32.715,59.57,0.0,0
1581606338.948,-865.2339999999997,11.719000000000001,-28.32,45.898,0.0,0
1581606338.9520001,197.75400000000002,-2.93,-16.602,48.828,0.0,0
1581606338.956,-998.047,12.207,-10.254000000000001,63.477,0.0,0
1581606338.958,-1000.0,0.977,-5.859,72.266,0.0,0
1581606338.9620001,-133.30100000000002,4.395,-7.812,75.684,0.0,0
1581606338.966,-955.078,36.133,-20.508000000000006,61.035,0.0,0
1581606338.97,921.387,31.738000000000003,-24.901999999999997,63.477,0.0,0
1581606338.974,-887.695,9.277000000000001,-13.672,69.336,0.0,0
1581606338.978,254.395,16.602,-14.648,62.988,0.0,0
1581606338.982,-1000.0,13.184000000000001,-21.484,67.87100000000001,0.0,0
1581606338.985,-968.262,1.465,-1.465,72.266,0.0,0
1581606338.9889998,-887.695,3.906,3.418,49.316,0.0,0
1581606338.9929998,-1000.0,10.742,1.953,32.227,0.0,0
1581606338.9970002,-579.102,23.926,-1.465,57.129,0.0,0
1581606339.0010002,656.25,36.621,-5.371,73.73,0.0,0
1581606339.0029998,-811.035,38.574,5.859,66.406,0.0,0
1581606339.0070002,408.20300000000003,30.761999999999997,0.0,66.895,0.0,0
1581606339.0110002,-938.965,16.113,-17.578,66.895,0.0,0
1581606339.015,-997.559,5.371,-27.831999999999997,67.383,0.0,0
1581606339.019,-922.363,-3.906,-15.625,74.219,0.0,0
1581606339.0229998,-988.77,-16.113,-3.418,72.75399999999998,0.0,0
1581606339.0270002,-975.586,-13.184000000000001,-7.812,73.242,0.0,0
1581606339.03,-896.9730000000003,1.953,-19.531,57.617,0.0,0
1581606339.034,-891.113,21.484,-25.391,44.922,0.0,0
1581606339.0379999,-1000.0,5.371,-21.97300000000001,68.848,0.0,0
1581606339.042,-765.625,-8.301,-14.648,84.473,0.0,0
1581606339.046,505.85900000000004,18.066,-6.348,80.566,0.0,0
1581606339.0479999,-920.898,21.484,-16.602,51.758,0.0,0
1581606339.052,949.707,14.16,-29.296999999999997,46.875,0.0,0
1581606339.056,-997.559,5.859,-20.508000000000006,50.78100000000001,0.0,0
1581606339.06,-999.512,-10.742,-12.695,48.34,0.0,0
1581606339.064,-1000.0,0.977,-12.207,51.758,0.0,0
1581606339.0679998,926.758,14.648,-9.766,57.617,0.0,0
1581606339.072,-816.4060000000003,16.602,-0.977,78.613,0.0,0
1581606339.075,179.688,28.32,-0.488,68.848,0.0,0
1581606339.079,-976.074,21.97300000000001,-8.789,53.71100000000001,0.0,0
1581606339.083,664.062,14.16,-15.137,54.688,0.0,0
1581606339.0870001,349.60900000000015,-3.418,-14.16,48.828,0.0,0
1581606339.091,-1000.0,-21.484,-25.391,54.688,0.0,0
1581606339.093,217.773,15.137,-20.508000000000006,51.758,0.0,0
1581606339.0970001,-875.488,41.504,3.906,52.733999999999995,0.0,0
1581606339.101,947.7539999999999,29.296999999999997,2.441,65.43,0.0,0
1581606339.105,992.676,16.602,3.906,71.777,0.0,0
1581606339.109,-998.047,5.371,19.531,76.172,0.0,0
1581606339.113,999.512,2.93,17.09,72.266,0.0,0
1581606339.117,999.512,0.977,14.648,72.75399999999998,0.0,0
1581606339.12,999.512,-5.859,14.648,75.195,0.0,0
1581606339.1239998,-994.1410000000001,6.836,9.766,62.5,0.0,0
1581606339.1279998,972.168,16.602,-0.488,58.105,0.0,0
1581606339.1320002,982.91,14.648,-4.395,60.059,0.0,0
1581606339.1360002,-937.012,24.901999999999997,0.0,52.246,0.0,0
1581606339.139,-144.043,25.391,-14.648,55.663999999999994,0.0,0
1581606339.143,-1000.0,14.648,-24.414,65.43,0.0,0
1581606339.147,-658.691,7.324,-12.695,57.617,0.0,0
1581606339.151,564.453,-2.441,5.371,65.918,0.0,0
1581606339.155,-929.199,0.488,16.113,79.59,0.0,0
1581606339.159,964.355,25.391,17.09,76.172,0.0,0
1581606339.1629999,948.73,27.344,2.441,57.617,0.0,0
1581606339.1660001,-947.2660000000001,16.113,-5.371,54.688,0.0,0
1581606339.17,860.84,27.344,12.207,70.801,0.0,0
1581606339.174,-555.1759999999998,23.438000000000002,19.531,73.242,0.0,0
1581606339.178,-1000.0,1.465,3.418,65.918,0.0,0
1581606339.1820002,-967.773,0.977,-10.742,52.733999999999995,0.0,0
1581606339.199,-753.9060000000003,20.508000000000006,-18.555,68.848,0.0,0
1581606339.2029998,767.578,4.883,-23.438000000000002,74.707,0.0,0
1581606339.207,358.398,0.488,-3.906,60.547,0.0,0
1581606339.211,-1000.0,20.996,10.254000000000001,60.059,0.0,0
1581606339.215,-951.66,8.301,-6.348,55.663999999999994,0.0,0
1581606339.2189999,292.969,-10.254000000000001,-37.109,48.34,0.0,0
1581606339.2229998,871.582,-7.324,-28.32,43.457,0.0,0
1581606339.226,-318.848,-2.441,-3.418,48.34,0.0,0
1581606339.23,-1000.0,-0.977,3.906,60.059,0.0,0
1581606339.234,-912.5980000000001,3.906,4.883,60.547,0.0,0
1581606339.238,-979.492,4.883,5.371,65.43,0.0,0
1581606339.242,-859.863,3.418,0.0,67.383,0.0,0
1581606339.244,352.051,22.949,-2.93,59.57,0.0,0
1581606339.248,-920.41,25.879,9.766,65.918,0.0,0
1581606339.252,955.566,0.0,9.277000000000001,54.688,0.0,0
1581606339.256,996.0939999999999,7.324,-1.465,46.875,0.0,0
1581606339.26,-998.535,17.09,5.859,62.988,0.0,0
1581606339.264,999.512,20.508000000000006,14.648,57.129,0.0,0
1581606339.268,999.512,19.531,11.719000000000001,57.129,0.0,0
1581606339.2710001,999.512,23.438000000000002,1.465,62.5,0.0,0
1581606339.275,937.012,8.789,13.184000000000001,63.477,0.0,0
1581606339.279,-862.305,-18.066,24.414,58.105,0.0,0
1581606339.283,208.984,-4.395,22.949,45.41,0.0,0
1581606339.2870002,-1000.0,-16.602,17.09,57.129,0.0,0
1581606339.289,-961.914,-17.09,16.602,64.453,0.0,0
1581606339.293,-891.113,5.859,22.949,60.547,0.0,0
1581606339.2970002,-1000.0,-2.93,14.16,61.035,0.0,0
1581606339.301,-570.312,-10.742,10.742,57.617,0.0,0
1581606339.305,735.84,-7.812,2.93,57.129,0.0,0
1581606339.309,-952.148,7.324,-8.789,59.57,0.0,0
1581606339.313,954.102,21.97300000000001,-0.488,50.293,0.0,0
1581606339.316,-994.1410000000001,17.578,0.0,60.547,0.0,0
1581606339.32,999.512,15.137,-21.97300000000001,68.848,0.0,0
1581606339.324,999.512,3.906,-25.391,49.805,0.0,0
1581606339.3279998,999.512,-13.184000000000001,-5.859,47.852,0.0,0
1581606339.332,999.512,-7.812,6.836,61.523,0.0,0
1581606339.3339999,999.512,-8.301,13.184000000000001,67.383,0.0,0
1581606339.3379998,999.512,-1.953,10.254000000000001,69.824,0.0,0
1581606339.342,999.512,-0.488,7.324,74.707,0.0,0
1581606339.346,999.512,-25.879,-10.742,69.824,0.0,0
1581606339.35,999.512,-23.926,-34.18,57.617,0.0,0
1581606339.3539999,999.512,7.324,-21.484,45.898,0.0,0
1581606339.3579998,999.512,19.043,-0.977,38.574,0.0,0
1581606339.361,999.512,11.23,7.324,41.01600000000001,0.0,0
1581606339.365,999.512,15.137,3.418,38.574,0.0,0
1581606339.369,999.512,3.418,-7.812,53.71100000000001,0.0,0
1581606339.373,-1000.0,-4.883,-7.324,55.663999999999994,0.0,0
1581606339.377,991.211,23.438000000000002,3.418,48.34,0.0,0
1581606339.379,992.188,38.086,16.602,59.082,0.0,0
1581606339.383,921.875,34.668,28.32,55.663999999999994,0.0,0
1581606339.387,460.93800000000016,31.25,20.508000000000006,56.152,0.0,0
1581606339.391,-446.777,17.09,-3.906,62.988,0.0,0
1581606339.395,-1000.0,-1.465,-8.301,53.71100000000001,0.0,0
1581606339.399,-722.168,4.395,-0.488,46.387,0.0,0
1581606339.4029999,505.85900000000004,-13.672,-1.953,39.551,0.0,0
1581606339.4060001,-934.57,-11.23,-11.23,39.062,0.0,0
1581606339.41,955.078,13.184000000000001,-14.648,39.551,0.0,0
1581606339.414,-1000.0,0.488,-12.695,29.785,0.0,0
1581606339.418,-998.535,11.719000000000001,-0.488,31.738000000000003,0.0,0
1581606339.4220002,996.0939999999999,21.484,-5.859,39.062,0.0,0
1581606339.424,958.4960000000001,20.508000000000006,-25.391,46.387,0.0,0
1581606339.428,-856.934,15.137,-2.93,53.223,0.0,0
1581606339.4320002,252.44099999999997,2.441,17.09,52.246,0.0,0
1581606339.436,62.988,0.488,16.602,52.733999999999995,0.0,0
1581606339.44,-921.875,10.742,9.277000000000001,50.293,0.0,0
1581606339.444,999.512,8.301,-7.812,46.387,0.0,0
1581606339.448,977.051,-1.465,-15.625,49.316,0.0,0
1581606339.451,-996.0939999999999,-13.184000000000001,-18.555,47.363,0.0,0
1581606339.455,999.512,-13.184000000000001,-19.043,43.945,0.0,0
1581606339.4589999,999.512,-18.555,-8.789,38.574,0.0,0
1581606339.4629998,999.512,-10.742,-0.977,43.945,0.0,0
1581606339.467,999.512,21.484,-4.883,45.898,0.0,0
1581606339.4689999,999.512,25.879,0.0,48.34,0.0,0
1581606339.4729998,999.512,13.184000000000001,7.812,63.477,0.0,0
1581606339.4770002,999.512,6.348,2.441,66.406,0.0,0
1581606339.481,999.512,14.16,-8.789,50.293,0.0,0
1581606339.485,999.512,5.859,-2.93,48.828,0.0,0
1581606339.4889998,999.512,-10.742,16.602,58.105,0.0,0
1581606339.4929998,-999.023,0.977,19.531,54.199,0.0,0
1581606339.496,993.164,7.812,2.441,40.527,0.0,0
1581606339.5,-989.7460000000001,-6.348,-5.859,40.039,0.0,0
1581606339.504,982.422,-9.766,1.465,50.78100000000001,0.0,0
1581606339.508,904.297,5.859,14.648,67.87100000000001,0.0,0
1581606339.512,938.965,12.207,12.695,71.289,0.0,0
1581606339.514,-878.9060000000003,15.625,1.465,53.71100000000001,0.0,0
1581606339.518,101.56200000000001,27.831999999999997,2.93,55.663999999999994,0.0,0
1581606339.522,-1000.0,14.16,15.625,68.359,0.0,0
1581606339.526,-952.148,2.441,17.09,62.988,0.0,0
1581606339.53,-907.227,-4.395,10.742,55.176,0.0,0
1581606339.534,-1000.0,-9.766,13.672,53.71100000000001,0.0,0
1581606339.5379999,-717.285,-11.719000000000001,-4.395,54.688,0.0,0
1581606339.5410001,545.898,-13.672,-15.625,48.828,0.0,0
1581606339.545,-933.105,-8.789,-1.953,57.617,0.0,0
1581606339.549,953.613,-12.207,0.0,62.5,0.0,0
1581606339.553,-998.535,-8.789,-5.859,53.71100000000001,0.0,0
1581606339.5570002,-999.512,-0.488,-6.836,46.875,0.0,0
1581606339.559,999.512,-5.371,-1.953,50.78100000000001,0.0,0
1581606339.563,999.512,5.371,-4.395,46.875,0.0,0
1581606339.5670002,999.512,24.414,-10.742,30.761999999999997,0.0,0
1581606339.571,999.512,11.23,-12.207,32.715,0.0,0
1581606339.575,999.512,-6.836,-11.719000000000001,54.199,0.0,0
1581606339.579,999.512,1.465,7.812,61.523,0.0,0
1581606339.583,999.512,14.16,-5.371,48.828,0.0,0
1581606339.586,999.512,15.625,-23.926,49.805,0.0,0
1581606339.59,999.512,15.137,-2.441,52.246,0.0,0
1581606339.5939999,999.512,9.277000000000001,9.277000000000001,52.246,0.0,0
1581606339.5979998,999.512,-12.695,15.625,59.57,0.0,0
1581606339.6020002,999.512,-13.672,10.742,63.477,0.0,0
1581606339.619,999.512,4.883,4.395,70.312,0.0,0
1581606339.623,999.512,23.926,25.391,60.547,0.0,0
1581606339.627,999.512,26.366999999999997,28.32,58.105,0.0,0
1581606339.631,999.512,17.578,14.16,59.57,0.0,0
1581606339.635,999.512,16.113,13.672,48.828,0.0,0
1581606339.639,999.512,10.742,14.16,49.805,0.0,0
1581606339.643,999.512,6.836,3.418,45.41,0.0,0
1581606339.6460001,999.512,1.953,-1.465,48.828,0.0,0
1581606339.65,999.512,-12.695,-5.859,54.199,0.0,0
1581606339.654,999.512,-22.949,-13.672,53.223,0.0,0
1581606339.658,999.512,-9.766,-5.859,46.387,0.0,0
1581606339.6620002,999.512,16.113,0.488,49.316,0.0,0
1581606339.664,999.512,13.672,3.906,47.852,0.0,0
1581606339.668,999.512,-3.418,7.812,40.527,0.0,0
1581606339.6720002,-997.559,-1.465,-3.906,44.434,0.0,0
1581606339.676,972.6560000000001,0.977,-4.395,46.875,0.0,0
1581606339.68,-951.172,5.371,-1.465,39.062,0.0,0
1581606339.684,807.1289999999997,19.531,-12.695,44.434,0.0,0
1581606339.688,256.836,19.531,0.488,48.828,0.0,0
1581606339.691,576.66,1.953,12.207,55.176,0.0,0
1581606339.695,-986.328,-3.418,2.93,55.176,0.0,0
1581606339.699,990.2339999999999,-5.371,-10.742,41.992,0.0,0
1581606339.7029998,991.699,-1.953,1.465,48.828,0.0,0
1581606339.707,-998.535,7.324,12.207,50.293,0.0,0
1581606339.7089999,999.512,12.207,5.859,37.598,0.0,0
1581606339.7129998,999.512,3.906,4.883,49.805,0.0,0
1581606339.717,-998.535,-11.23,-4.395,42.968999999999994,0.0,0
1581606339.721,984.375,-8.789,-15.625,35.156,0.0,0
1581606339.725,-977.539,-5.371,-22.949,46.875,0.0,0
1581606339.7289999,919.922,-6.836,-19.531,46.387,0.0,0
1581606339.7329998,565.918,1.953,-12.207,51.27,0.0,0
1581606339.736,691.895,9.277000000000001,-16.602,39.062,0.0,0
1581606339.74,-983.887,18.066,-29.785,29.296999999999997,0.0,0
1581606339.744,690.43,3.906,-30.273000000000003,32.715,0.0,0
1581606339.748,494.14099999999996,-11.719000000000001,-6.348,47.852,0.0,0
1581606339.752,340.332,-7.812,9.277000000000001,51.758,0.0,0
1581606339.7529998,-181.641,-24.901999999999997,19.043,40.527,0.0,0
1581606339.7570002,-400.879,-33.691,14.648,46.875,0.0,0
1581606339.7610002,-643.066,-3.906,0.977,46.387,0.0,0
1581606339.765,-956.543,0.0,-7.324,44.922,0.0,0
1581606339.769,-962.8910000000001,-13.672,-7.324,53.71100000000001,0.0,0
1581606339.7729998,-978.0269999999999,-12.207,2.93,59.082,0.0,0
1581606339.7770002,-826.172,-1.465,-1.465,55.663999999999994,0.0,0
1581606339.78,-370.11699999999996,12.695,-6.836,59.082,0.0,0
1581606339.784,57.617,4.883,-20.02,48.828,0.0,0
1581606339.7879999,6.836,-0.977,-33.691,35.156,0.0,0
1581606339.792,-525.879,1.465,-4.395,44.434,0.0,0
1581606339.796,-373.04699999999997,-15.137,19.043,64.453,0.0,0
1581606339.7979999,67.383,-12.695,14.16,69.824,0.0,0
1581606339.802,32.227,5.859,9.766,66.406,0.0,0
1581606339.806,-517.578,-7.812,13.184000000000001,57.129,0.0,0
1581606339.81,-989.7460000000001,-26.366999999999997,20.02,45.898,0.0,0
1581606339.814,-962.8910000000001,-23.926,6.836,45.898,0.0,0
1581606339.8179998,-962.4019999999999,-15.137,-8.301,48.828,0.0,0
1581606339.822,-975.0980000000001,-9.277000000000001,-5.371,45.41,0.0,0
1581606339.825,-972.168,3.418,12.207,43.945,0.0,0
1581606339.829,-972.168,3.418,14.16,40.039,0.0,0
1581606339.833,-972.168,-6.348,-2.93,44.434,0.0,0
1581606339.8370001,-972.168,2.441,7.812,54.688,0.0,0
1581606339.841,-972.6560000000001,-1.953,15.625,59.57,0.0,0
