timestamps,TP9,AF7,AF8,TP10,Right AUX,Marker0
1555615514.220,124.023,44.434,-8.301,90.332,45.898,0
1555615514.224,26.367,20.508,-9.766,104.492,46.387,0
1555615514.228,62.012,20.996,-0.977,101.562,24.902,0
1555615514.232,157.227,26.367,-4.395,98.145,1.465,0
1555615514.236,145.020,6.836,0.000,91.797,23.438,0
1555615514.240,20.020,11.719,26.855,82.520,22.461,0
1555615514.244,-5.371,39.551,21.973,81.543,14.160,0
1555615514.247,103.516,44.434,9.766,73.730,-19.043,0
1555615514.251,138.184,45.410,7.324,64.453,29.297,0
1555615514.255,47.852,50.781,15.625,67.871,118.652,0
1555615514.259,-1.953,43.945,21.973,68.848,73.730,0
1555615514.263,90.820,34.180,13.184,67.871,20.996,0
1555615514.265,169.922,29.297,2.441,71.289,47.363,0
1555615514.269,91.309,22.461,5.859,67.871,-7.324,0
1555615514.273,-1.465,19.531,22.949,61.523,-9.766,0
1555615514.277,74.219,10.254,20.996,54.688,52.246,0
1555615514.281,160.645,13.672,1.465,63.965,32.227,0
1555615514.285,110.840,23.438,-6.348,72.266,17.578,0
1555615514.289,7.324,44.434,2.930,48.828,30.762,0
1555615514.292,7.812,53.223,24.902,25.879,-29.297,0
1555615514.296,104.980,39.062,37.598,31.738,-26.367,0
1555615514.300,108.887,39.551,21.484,42.969,30.762,0
1555615514.304,-10.254,40.039,13.184,35.156,50.781,0
1555615514.308,-28.320,42.480,24.414,38.574,82.031,0
1555615514.310,99.609,45.410,32.227,40.039,70.312,0
1555615514.314,143.555,38.574,26.367,40.527,33.203,0
1555615514.318,47.852,24.902,18.555,48.340,40.527,0
1555615514.322,-20.996,28.809,23.926,45.898,29.785,0
1555615514.326,50.781,46.875,40.527,43.945,40.039,0
1555615514.330,126.953,45.410,27.832,53.711,73.730,0
1555615514.334,70.312,29.785,5.371,40.527,34.668,0
1555615514.337,-29.297,28.320,17.578,27.344,49.316,0
1555615514.341,14.648,19.043,33.691,43.457,100.586,0
1555615514.345,120.117,19.531,37.598,55.176,47.852,0
1555615514.349,87.891,54.688,29.785,39.062,10.742,0
1555615514.353,-19.043,65.430,28.809,31.250,44.922,0
1555615514.355,-8.301,59.570,36.621,42.969,55.664,0
1555615514.359,103.516,43.457,19.043,52.246,45.410,0
1555615514.363,115.723,39.551,15.137,46.875,67.383,0
1555615514.367,10.742,54.199,28.320,29.297,35.156,0
1555615514.371,-28.809,53.223,26.855,28.809,21.484,0
1555615514.375,80.078,47.363,37.109,38.086,20.020,0
1555615514.379,127.441,37.109,49.805,38.574,9.277,0
1555615514.382,25.879,28.809,42.969,45.410,28.809,0
1555615514.386,-43.945,33.203,26.855,39.551,19.531,0
1555615514.390,24.902,38.574,20.996,15.137,28.320,0
1555615514.394,108.887,35.156,31.250,21.484,47.363,0
1555615514.398,75.684,34.668,32.227,40.039,51.270,0
1555615514.415,-19.531,43.457,24.414,30.273,6.836,0
1555615514.419,-2.930,59.570,24.902,8.789,0.488,0
1555615514.423,108.398,72.754,22.461,21.484,48.828,0
1555615514.427,101.074,66.895,13.184,33.203,24.414,0
1555615514.431,-16.602,61.523,4.883,15.625,2.930,0
1555615514.435,-21.484,69.336,0.488,5.859,54.199,0
1555615514.439,87.402,73.242,-1.465,0.977,61.523,0
1555615514.442,111.816,71.289,-8.301,7.812,40.527,0
1555615514.446,7.812,65.918,-12.695,16.113,30.762,0
1555615514.450,-18.066,60.059,-10.742,20.020,-18.066,0
1555615514.454,89.355,53.711,-11.719,30.762,-8.301,0
1555615514.458,137.695,60.547,-11.230,30.762,-20.020,0
1555615514.460,58.594,49.316,-13.672,31.738,-31.738,0
1555615514.464,-24.414,46.875,-15.137,20.020,16.113,0
1555615514.468,41.504,63.965,-3.418,21.484,66.895,0
1555615514.472,126.953,60.059,4.883,28.320,82.031,0
1555615514.476,74.707,65.430,9.766,28.320,80.078,0
1555615514.480,-16.113,68.359,7.324,29.297,53.711,0
1555615514.484,14.648,60.059,3.906,22.949,30.762,0
1555615514.487,108.398,44.922,2.441,34.668,65.430,0
1555615514.491,101.562,27.832,-6.836,41.016,58.105,0
1555615514.495,0.977,41.992,0.977,30.762,-14.648,0
1555615514.499,-6.836,65.918,22.461,25.879,-11.719,0
1555615514.503,91.309,71.289,34.180,30.273,15.137,0
1555615514.505,105.957,64.453,24.902,39.062,20.996,0
1555615514.509,16.113,53.223,20.508,43.457,61.035,0
1555615514.513,-37.109,51.758,24.414,36.621,21.484,0
1555615514.517,52.734,52.246,20.508,29.297,18.555,0
1555615514.521,121.094,48.340,25.391,35.645,72.266,0
1555615514.525,46.387,16.602,27.832,33.691,89.844,0
1555615514.529,-47.363,12.207,27.344,22.949,30.762,0
1555615514.532,17.090,56.152,35.645,24.414,4.883,0
1555615514.536,114.746,68.359,25.391,32.715,50.293,0
1555615514.540,79.102,56.641,8.789,33.203,61.035,0
1555615514.544,-25.391,53.711,17.090,25.879,22.949,0
1555615514.548,-12.207,53.711,30.273,33.691,0.977,0
1555615514.550,108.887,27.832,33.203,31.738,-3.418,0
1555615514.554,120.605,15.137,26.367,20.508,-17.090,0
1555615514.558,-4.395,43.457,25.879,22.949,-23.926,0
1555615514.562,-41.504,54.199,26.855,26.367,-28.809,0
1555615514.566,66.895,38.574,26.367,23.438,-17.578,0
1555615514.570,113.770,39.551,36.621,21.973,13.184,0
1555615514.574,23.438,55.176,28.320,21.484,27.832,0
1555615514.577,-32.715,46.387,28.320,26.367,69.336,0
1555615514.581,41.016,41.016,37.598,21.973,59.082,0
1555615514.585,93.262,39.062,32.227,14.160,25.391,0
1555615514.589,41.504,39.062,26.855,24.414,36.621,0
1555615514.593,-38.574,40.527,25.391,28.320,-1.465,0
1555615514.595,8.789,29.785,23.926,26.855,3.418,0
1555615514.599,113.770,20.020,25.879,33.203,46.875,0
1555615514.603,78.613,30.273,26.367,35.645,31.738,0
1555615514.607,-29.785,25.391,20.996,24.414,-0.488,0
1555615514.611,-15.625,22.461,14.160,19.043,7.324,0
1555615514.615,91.309,44.434,22.949,23.438,21.484,0
1555615514.619,106.445,38.574,28.320,28.320,41.504,0
1555615514.622,-5.371,15.137,24.414,36.621,24.902,0
1555615514.626,-41.504,22.461,27.344,25.879,33.691,0
1555615514.630,62.988,51.270,31.738,18.555,19.043,0
1555615514.634,109.863,48.828,23.926,29.297,-4.883,0
1555615514.638,27.344,26.367,16.602,35.156,38.086,0
1555615514.640,-50.293,31.738,20.020,36.133,58.594,0
1555615514.644,23.926,42.969,30.762,38.574,39.551,0
1555615514.648,114.746,39.062,31.738,38.086,45.410,0
1555615514.652,61.523,45.898,19.531,27.832,46.387,0
1555615514.656,-35.645,42.969,30.762,18.555,18.555,0
1555615514.660,-2.441,31.250,36.133,17.090,-12.207,0
1555615514.664,94.238,31.250,20.508,28.320,-23.926,0
1555615514.667,68.359,37.109,3.418,28.320,-2.441,0
1555615514.671,-33.203,23.438,3.418,20.996,-10.742,0
1555615514.675,-32.227,23.926,20.020,24.414,41.016,0
1555615514.679,72.754,33.691,20.508,20.508,100.098,0
1555615514.683,111.328,31.738,18.555,14.160,99.609,0
1555615514.685,11.719,44.922,25.879,17.090,54.688,0
1555615514.689,-45.410,53.223,30.273,24.902,68.848,0
1555615514.693,47.363,48.828,29.297,26.367,91.797,0
1555615514.697,104.004,39.551,26.855,16.602,51.270,0
1555615514.701,23.926,30.762,24.414,3.906,49.316,0
1555615514.705,-52.734,39.551,18.066,10.254,21.973,0
1555615514.709,12.695,41.016,17.090,15.625,7.324,0
1555615514.712,95.703,34.668,23.926,11.719,30.273,0
1555615514.716,54.199,34.668,20.996,14.648,9.277,0
1555615514.720,-36.621,13.184,29.297,12.695,49.316,0
1555615514.724,-12.207,6.836,30.273,13.184,83.984,0
1555615514.728,86.426,39.551,21.973,30.273,24.414,0
1555615514.731,85.938,58.105,23.438,35.645,23.438,0
1555615514.735,-20.996,59.570,20.508,13.184,31.738,0
1555615514.739,-29.785,52.734,22.461,14.160,15.625,0
1555615514.743,83.496,36.133,31.738,27.832,34.180,0
1555615514.747,109.375,45.898,34.668,22.949,46.875,0
1555615514.751,4.883,46.387,30.762,22.461,24.414,0
1555615514.755,-51.758,25.391,25.879,17.578,20.020,0
1555615514.758,48.340,30.762,28.320,15.137,21.484,0
1555615514.762,112.793,36.621,29.785,19.531,9.766,0
1555615514.766,49.805,39.062,26.367,23.438,32.715,0
1555615514.770,-1.953,45.898,35.156,44.434,13.672,0
1555615514.774,35.645,34.668,49.805,35.156,-20.020,0
1555615514.776,84.473,31.250,54.199,13.184,-12.695,0
1555615514.780,41.992,33.691,47.852,16.113,62.500,0
1555615514.784,-66.406,20.508,34.180,11.230,54.199,0
1555615514.788,-53.711,-1.465,45.410,4.883,21.973,0
1555615514.792,49.316,-12.695,74.219,-3.418,35.156,0
1555615514.796,48.828,-7.812,94.238,-8.789,46.875,0
1555615514.800,-50.293,-17.578,100.586,-1.465,36.621,0
1555615514.803,-74.707,-22.461,99.121,-6.348,35.156,0
1555615514.807,6.348,-1.465,95.703,-2.441,40.039,0
1555615514.811,54.199,16.113,84.961,8.789,46.875,0
1555615514.815,-10.742,10.254,72.754,8.301,62.012,0
1555615514.819,-77.148,2.930,64.941,-1.465,69.824,0
1555615514.836,10.254,4.395,68.359,-10.742,37.109,0
1555615514.840,92.773,14.160,76.172,-2.441,35.645,0
1555615514.844,27.832,6.836,74.707,1.953,27.344,0
1555615514.848,-47.363,1.953,73.242,-10.742,44.434,0
1555615514.852,6.348,18.555,69.336,-13.672,38.574,0
1555615514.856,88.867,8.789,62.012,-2.441,-8.301,0
1555615514.860,63.965,9.277,61.035,1.465,-8.301,0
1555615514.863,-36.621,28.809,60.059,-3.906,6.348,0
1555615514.867,-26.855,31.250,49.316,-9.766,-20.020,0
1555615514.871,89.355,31.738,51.270,9.277,13.672,0
1555615514.875,111.816,28.320,75.684,22.461,75.195,0
1555615514.879,7.324,19.043,76.660,0.488,35.645,0
1555615514.882,-39.062,16.602,66.406,-13.672,3.418,0
1555615514.886,56.641,33.691,70.801,0.977,10.742,0
1555615514.890,117.676,41.992,72.266,20.996,43.457,0
1555615514.894,20.996,41.992,71.289,13.184,52.734,0
1555615514.898,-63.965,52.734,71.777,2.441,25.391,0
1555615514.902,14.648,52.246,62.500,-9.766,43.945,0
1555615514.906,82.520,50.781,56.641,-18.555,75.684,0
1555615514.909,21.484,58.105,61.035,-25.391,47.363,0
1555615514.913,-92.285,68.848,72.754,-47.852,56.152,0
1555615514.917,-84.961,69.336,83.496,-81.055,113.281,0
1555615514.921,0.977,67.383,81.055,-100.098,99.609,0
1555615514.925,-27.344,76.172,85.449,-115.234,14.648,0
1555615514.926,-153.809,79.102,89.355,-138.672,0.977,0
1555615514.930,-173.828,68.848,93.262,-143.555,-17.090,0
1555615514.934,-103.027,57.617,98.145,-170.898,-12.695,0
1555615514.938,-110.352,62.988,102.539,-212.402,34.180,0
1555615514.942,-223.145,77.637,111.816,-240.234,33.203,0
1555615514.946,-279.785,69.824,115.234,-236.328,47.363,0
1555615514.950,-189.941,60.059,129.395,-237.793,49.316,0
1555615514.953,-144.531,73.730,139.648,-253.418,20.020,0
1555615514.957,-223.633,98.145,123.535,-265.625,24.414,0
1555615514.961,-310.059,115.234,118.652,-273.438,40.527,0
1555615514.965,-247.559,89.844,115.723,-267.090,-5.859,0
1555615514.969,-138.184,55.664,90.820,-250.977,-11.230,0
1555615514.971,-166.504,80.078,71.777,-230.957,55.176,0
1555615514.975,-251.465,97.656,84.961,-215.332,48.340,0
1555615514.979,-224.609,85.449,94.238,-211.914,-11.719,0
1555615514.983,-104.492,83.496,75.684,-193.359,-6.348,0
1555615514.987,-68.848,85.938,73.730,-161.133,52.246,0
1555615514.991,-160.645,95.703,91.309,-138.184,59.082,0
1555615514.995,-161.133,104.980,81.055,-107.910,21.973,0
1555615514.998,-37.109,95.215,46.387,-87.402,-14.648,0
1555615515.002,9.766,68.359,44.922,-81.543,-11.719,0
1555615515.006,-65.918,37.109,59.082,-70.312,58.105,0
1555615515.010,-106.934,44.922,40.039,-42.480,77.637,0
1555615515.014,-6.348,74.219,10.742,-17.578,31.250,0
1555615515.016,79.102,84.961,20.508,-2.441,41.016,0
1555615515.020,33.203,82.520,36.621,13.672,33.203,0
1555615515.024,-32.227,67.871,30.273,34.668,-4.883,0
1555615515.028,27.344,62.500,17.578,44.434,25.391,0
1555615515.032,136.230,71.777,1.465,56.641,19.043,0
1555615515.036,138.672,52.734,-2.441,84.473,10.742,0
1555615515.040,33.691,34.668,1.953,102.051,19.043,0
1555615515.043,19.531,27.832,10.254,103.516,20.996,0
1555615515.047,129.395,22.461,6.348,116.699,48.828,0
1555615515.051,152.832,32.715,11.719,120.117,44.434,0
1555615515.055,63.477,47.852,23.438,113.281,-8.301,0
1555615515.059,41.992,48.340,5.859,106.445,-17.090,0
1555615515.061,142.578,41.016,-8.301,113.281,27.344,0
1555615515.065,195.801,18.066,-31.738,126.465,29.785,0
1555615515.069,109.375,16.113,-41.992,121.094,43.945,0
1555615515.073,41.016,37.109,1.465,115.234,76.660,0
1555615515.077,120.605,28.809,23.926,122.070,59.570,0
1555615515.081,192.871,41.504,10.254,133.301,15.137,0
1555615515.085,116.699,63.477,1.953,125.977,31.738,0
1555615515.088,28.809,39.062,3.418,115.234,30.762,0
1555615515.092,92.773,23.926,0.977,125.000,2.441,0
1555615515.096,188.965,22.461,7.324,125.000,2.930,0
1555615515.100,155.762,17.090,3.418,124.512,15.625,0
1555615515.104,55.176,8.789,-10.742,128.906,41.992,0
1555615515.106,70.801,-23.438,-13.184,117.676,69.336,0
1555615515.110,174.316,-21.484,-9.277,109.863,72.754,0
1555615515.114,171.387,1.465,6.836,119.141,36.621,0
1555615515.118,75.684,30.762,12.695,117.188,16.113,0
1555615515.122,26.855,32.715,7.812,101.074,57.617,0
1555615515.126,112.305,11.230,-0.977,103.027,88.867,0
1555615515.130,178.223,12.207,-1.953,113.281,42.480,0
1555615515.133,90.820,4.883,14.648,112.793,72.754,0
1555615515.137,21.484,-5.371,9.766,113.770,78.613,0
1555615515.141,93.750,-8.301,-4.883,107.910,-27.344,0
1555615515.145,171.875,14.160,19.043,109.863,-18.066,0
1555615515.149,132.812,31.738,32.227,117.188,7.812,0
1555615515.151,34.668,25.391,14.160,90.820,29.785,0
1555615515.155,41.504,15.625,9.766,73.242,57.617,0
1555615515.159,141.113,16.113,8.789,88.379,56.641,0
1555615515.163,146.973,34.180,11.230,93.750,36.133,0
1555615515.167,45.410,27.344,15.625,93.750,62.500,0
1555615515.171,14.648,6.348,-8.301,89.355,83.984,0
1555615515.175,104.980,7.812,-13.672,74.219,83.008,0
1555615515.178,138.184,17.090,17.090,75.684,49.805,0
1555615515.182,42.969,21.484,25.879,78.125,15.137,0
1555615515.186,-7.324,27.344,24.902,70.312,-13.672,0
1555615515.190,91.309,42.969,25.391,73.730,-32.227,0
1555615515.194,157.715,43.457,19.043,75.684,0.000,0
1555615515.211,75.684,30.762,11.719,68.359,-10.254,0
1555615515.215,-10.254,30.762,10.254,55.664,1.953,0
1555615515.219,46.875,23.926,5.371,56.152,31.250,0
1555615515.223,130.371,9.277,6.836,67.871,-13.184,0
1555615515.227,93.750,39.551,16.113,66.895,-11.230,0
1555615515.231,-11.719,60.059,12.207,60.547,99.121,0
1555615515.235,8.789,41.504,-6.348,50.293,85.449,0
1555615515.238,122.070,29.785,-1.465,46.875,24.414,0
1555615515.242,127.930,20.508,18.555,56.641,31.738,0
1555615515.246,20.020,32.715,11.719,50.293,29.785,0
1555615515.250,-19.043,41.504,17.578,31.250,51.270,0
1555615515.254,98.145,39.551,22.461,37.598,29.785,0
1555615515.256,142.578,36.133,-17.090,55.664,38.574,0
1555615515.260,26.367,33.203,-12.207,58.594,89.355,0
1555615515.264,-25.391,43.457,35.156,48.828,49.316,0
1555615515.268,64.453,55.176,15.625,46.387,4.883,0
1555615515.272,130.859,39.062,-4.395,51.758,22.461,0
1555615515.276,60.547,17.578,6.348,58.594,63.477,0
1555615515.280,-35.156,19.043,8.789,35.156,38.574,0
1555615515.283,16.113,34.180,16.113,23.438,-31.738,0
1555615515.287,116.699,22.949,16.602,30.273,19.043,0
1555615515.291,90.332,17.578,24.902,42.969,73.730,0
1555615515.295,-3.418,52.246,36.133,41.992,10.742,0
1555615515.299,6.348,77.148,35.156,31.738,13.184,0
1555615515.301,105.469,76.172,42.969,40.039,47.363,0
1555615515.305,112.305,50.293,24.902,32.227,78.613,0
1555615515.309,-3.418,30.762,-4.395,32.227,107.422,0
1555615515.313,4.883,40.527,1.953,61.035,95.215,0
1555615515.317,131.836,45.410,1.953,56.641,59.082,0
1555615515.321,132.324,33.691,12.207,29.785,31.250,0
1555615515.325,12.695,35.645,53.711,23.438,32.227,0
1555615515.328,-49.805,33.691,58.594,23.926,39.062,0
1555615515.332,33.203,27.832,41.016,52.734,83.984,0
1555615515.336,92.773,25.879,45.410,57.129,89.355,0
1555615515.340,32.227,9.277,49.316,36.133,75.684,0
1555615515.344,-45.898,1.953,44.434,34.668,68.359,0
1555615515.346,3.906,18.555,53.223,28.320,24.414,0
1555615515.350,103.516,34.668,62.012,28.809,-13.672,0
1555615515.354,86.914,32.715,45.410,55.176,-22.461,0
1555615515.358,-13.672,22.461,23.438,57.129,-9.277,0
1555615515.362,-9.277,-4.395,7.324,38.574,12.207,0
1555615515.366,103.516,11.719,10.254,51.270,-3.906,0
1555615515.370,105.469,55.664,41.504,62.500,-3.418,0
1555615515.373,-0.488,45.898,61.035,50.293,10.254,0
1555615515.377,-19.531,40.527,47.363,49.316,23.438,0
1555615515.381,93.262,41.992,49.805,68.359,19.531,0
1555615515.385,143.555,23.926,57.129,87.891,-25.879,0
1555615515.389,62.500,12.695,12.695,86.426,35.645,0
1555615515.391,-2.930,21.484,-7.324,80.078,73.242,0
1555615515.395,53.223,46.875,40.039,59.082,13.184,0
1555615515.399,116.211,57.617,59.082,50.781,31.250,0
1555615515.403,74.707,46.875,50.293,59.570,20.020,0
1555615515.407,-6.836,45.410,48.828,53.711,0.977,0
1555615515.411,33.203,34.180,32.227,55.664,22.949,0
1555615515.415,92.285,27.832,24.902,41.992,23.926,0
1555615515.418,69.336,31.738,35.156,54.199,6.836,0
1555615515.422,3.906,27.832,35.156,62.500,46.387,0
1555615515.426,-6.836,18.066,31.738,60.547,87.891,0
1555615515.430,94.238,-6.348,27.344,55.176,99.121,0
1555615515.434,121.582,16.113,22.461,47.852,72.266,0
1555615515.436,24.414,45.898,18.066,47.852,44.434,0
1555615515.440,-17.578,31.738,21.484,40.039,49.805,0
1555615515.444,67.383,35.156,10.254,55.664,70.312,0
1555615515.448,105.469,41.016,15.137,62.988,51.758,0
1555615515.452,54.199,36.621,31.250,47.852,75.195,0
1555615515.456,-12.207,45.898,35.156,34.668,107.422,0
1555615515.460,38.574,50.293,42.969,40.039,106.445,0
1555615515.463,138.184,35.156,19.531,57.129,90.820,0
1555615515.467,103.027,28.320,16.113,71.289,86.914,0
1555615515.471,-16.602,46.387,44.434,63.477,72.266,0
1555615515.475,-18.066,41.992,53.223,42.969,53.711,0
1555615515.479,109.375,20.020,46.387,34.668,55.664,0
1555615515.481,113.770,43.945,33.203,61.523,41.016,0
1555615515.485,-12.207,54.688,35.645,55.664,28.320,0
1555615515.489,-22.949,47.363,44.434,50.293,-0.977,0
1555615515.493,94.238,36.621,26.855,62.012,18.555,0
1555615515.497,110.352,33.691,0.000,38.574,28.320,0
1555615515.501,4.395,51.270,20.996,39.062,13.184,0
1555615515.505,-49.805,50.293,52.734,46.875,25.391,0
1555615515.508,14.648,47.363,64.453,32.227,50.781,0
1555615515.512,94.727,33.203,62.988,49.316,42.969,0
1555615515.516,56.641,22.949,41.504,41.992,12.695,0
1555615515.520,-24.414,41.016,30.273,40.039,38.086,0
1555615515.524,25.391,53.711,37.109,59.082,1.953,0
1555615515.540,122.559,46.387,42.969,43.457,-5.371,0
1555615515.544,67.383,51.270,40.039,12.207,41.504,0
1555615515.548,-43.945,66.895,21.973,13.672,43.457,0
1555615515.552,-14.160,69.336,-1.953,39.062,47.852,0
1555615515.556,86.426,74.219,-7.324,31.738,32.715,0
1555615515.560,120.117,70.312,-0.977,37.598,19.531,0
1555615515.564,23.438,78.613,2.930,43.945,89.844,0
1555615515.567,-32.715,78.125,-5.371,26.855,73.242,0
1555615515.571,70.312,63.965,1.465,42.480,-18.066,0
1555615515.575,121.582,60.547,17.090,48.828,16.113,0
1555615515.579,36.133,60.059,9.766,42.480,90.332,0
1555615515.583,-17.578,55.664,10.254,38.574,90.820,0
1555615515.585,64.453,37.598,17.090,35.156,48.828,0
1555615515.589,137.207,31.738,18.555,53.711,25.879,0
1555615515.593,78.125,41.992,23.438,52.734,8.789,0
1555615515.597,-29.785,50.293,21.484,39.551,23.926,0
1555615515.601,-3.906,70.801,13.184,41.504,51.270,0
1555615515.605,99.121,81.055,20.996,29.785,41.016,0
1555615515.609,70.312,73.730,23.438,19.043,1.953,0
1555615515.612,-26.367,65.918,11.230,36.133,19.043,0
1555615515.616,-13.184,43.945,7.812,35.156,29.297,0
1555615515.620,84.473,39.551,12.695,25.879,37.109,0
1555615515.624,95.703,55.664,10.254,32.227,78.125,0
1555615515.628,10.742,51.270,23.438,45.410,65.430,0
1555615515.630,-17.578,43.457,32.715,37.598,26.855,0
1555615515.634,60.547,49.805,14.160,31.738,19.043,0
1555615515.638,114.746,47.363,5.371,47.363,20.508,0
1555615515.642,57.617,50.781,14.648,32.227,45.410,0
1555615515.646,-37.598,30.273,28.320,7.324,21.973,0
1555615515.650,4.395,3.418,44.434,20.996,-7.324,0
1555615515.654,112.793,28.320,37.109,57.129,31.738,0
1555615515.657,54.688,52.246,22.949,52.734,64.941,0
1555615515.661,-56.641,56.641,30.273,29.785,57.617,0
1555615515.665,-4.883,48.340,36.133,44.922,39.551,0
1555615515.669,94.238,32.715,35.156,58.105,27.344,0
1555615515.673,88.379,53.711,35.156,59.570,63.477,0
1555615515.676,-12.207,64.453,33.691,36.621,64.941,0
1555615515.680,-42.969,46.875,30.273,5.371,3.906,1
1555615515.684,32.227,29.297,22.461,5.859,26.367,0
1555615515.688,78.125,19.043,26.367,40.039,21.973,0
1555615515.692,34.180,32.227,34.668,57.129,-5.371,0
1555615515.696,-25.391,57.129,21.484,29.297,32.715,0
1555615515.700,40.039,71.289,19.531,33.691,21.484,0
1555615515.703,93.262,57.129,20.508,43.457,40.039,0
1555615515.707,24.414,40.039,13.672,21.484,17.090,0
1555615515.711,-40.039,27.344,28.320,29.297,38.574,0
1555615515.715,14.160,30.273,41.992,45.410,79.102,0
1555615515.719,74.219,44.922,40.039,45.898,15.137,0
1555615515.720,47.363,56.152,36.133,36.621,30.273,0
1555615515.724,-29.297,51.270,38.086,44.922,79.590,0
1555615515.728,-22.461,44.434,33.203,55.176,77.637,0
1555615515.732,109.863,44.434,28.320,60.547,70.801,0
1555615515.736,126.465,35.645,39.062,66.406,28.320,0
1555615515.740,5.371,45.410,43.945,50.293,-5.371,0
1555615515.744,-27.344,46.875,35.156,52.246,39.062,0
1555615515.747,81.055,39.062,31.738,66.895,61.523,0
1555615515.751,123.047,53.711,31.738,61.523,76.172,0
1555615515.755,28.809,59.570,35.156,49.805,38.086,0
1555615515.759,-54.688,46.387,39.551,53.711,32.227,0
1555615515.763,33.203,22.461,37.598,53.711,107.910,0
1555615515.766,127.441,25.391,32.715,39.062,99.609,0
1555615515.770,47.363,46.875,36.621,25.391,51.758,0
1555615515.774,-39.062,58.594,36.621,32.227,13.184,0
1555615515.778,25.391,58.594,40.527,48.828,-7.812,0
1555615515.782,105.469,34.668,43.945,41.504,-18.555,0
1555615515.786,82.031,23.926,32.227,35.645,21.484,0
1555615515.790,-19.531,39.062,29.297,51.270,43.457,0
1555615515.793,-25.391,42.480,40.039,30.762,18.555,0
1555615515.797,86.914,40.527,46.875,22.949,-7.324,0
1555615515.801,97.168,39.062,34.180,49.316,-14.648,0
1555615515.805,28.320,31.250,30.762,65.430,21.484,0
1555615515.809,6.836,23.926,41.992,83.496,37.598,0
1555615515.810,86.426,20.508,48.340,94.238,59.082,0
1555615515.814,152.832,22.949,48.340,117.188,87.402,0
1555615515.818,81.055,30.273,41.992,97.168,34.180,0
1555615515.822,0.977,28.320,53.223,77.148,-0.488,0
1555615515.826,68.848,26.855,48.828,75.195,-21.973,0
1555615515.830,147.461,19.531,36.133,77.637,-1.953,0
1555615515.834,96.680,26.367,30.762,88.379,46.875,0
1555615515.837,6.348,36.133,34.180,82.031,34.180,0
1555615515.841,31.738,31.250,39.062,82.520,41.992,0
1555615515.845,127.441,46.875,43.457,86.426,73.242,0
1555615515.849,121.094,59.082,48.340,66.895,20.996,0
1555615515.853,3.906,44.922,42.969,49.316,1.953,0
1555615515.855,-14.648,31.738,48.828,58.594,28.320,0
1555615515.859,97.656,32.227,43.457,70.312,-22.461,0
1555615515.863,127.441,44.434,40.039,55.664,-6.348,0
1555615515.867,21.484,42.969,41.504,49.805,28.809,0
1555615515.871,-23.926,31.738,41.016,56.152,25.391,0
1555615515.875,76.660,35.645,37.109,44.922,-1.465,0
1555615515.879,132.812,39.062,32.227,45.898,31.738,0
1555615515.882,54.199,46.875,26.855,37.109,73.242,0
1555615515.886,-27.344,44.434,26.367,31.250,40.039,0
1555615515.890,29.785,33.691,33.203,24.414,14.648,0
1555615515.894,124.512,41.016,47.363,41.504,-20.996,0
1555615515.898,94.727,28.809,49.805,45.898,18.555,0
1555615515.901,-7.324,5.859,39.062,14.160,21.484,0
1555615515.905,-9.766,45.898,35.645,-2.441,-10.254,0
1555615515.909,75.684,62.500,22.949,20.996,35.156,0
1555615515.913,113.281,58.594,14.160,46.387,50.293,0
1555615515.917,16.113,73.730,21.973,30.273,44.434,0
1555615515.921,-47.852,67.383,45.410,-11.230,76.172,0
1555615515.925,27.832,48.340,48.340,-40.527,85.938,0
1555615515.928,52.734,48.828,40.039,-42.480,119.629,0
1555615515.932,-39.062,60.059,44.434,-41.992,100.586,0
1555615515.936,-99.609,37.109,40.039,-55.664,91.797,0
1555615515.940,-24.902,13.672,35.645,-64.453,45.898,0
1555615515.944,42.969,28.809,29.297,-51.270,-6.836,0
1555615515.961,-13.672,49.805,25.879,-45.410,31.250,0
1555615515.965,-87.891,51.758,18.555,-44.434,59.570,0
1555615515.969,-10.742,43.945,17.090,-17.578,67.871,0
1555615515.973,92.285,26.855,27.832,-3.418,30.273,0
1555615515.977,48.828,20.996,28.320,3.906,52.734,0
1555615515.981,-59.570,20.996,19.531,-4.883,40.039,0
1555615515.985,-36.621,27.344,22.461,-11.719,-27.832,0
1555615515.988,62.012,24.902,27.832,-4.395,-5.371,0
1555615515.992,62.500,36.621,15.625,-5.859,15.137,0
1555615515.996,-33.691,62.012,24.414,-18.066,-3.906,0
1555615516.000,-57.129,56.152,44.434,-12.207,-9.766,0
1555615516.004,57.617,45.410,55.664,18.555,14.160,0
1555615516.006,104.004,49.316,52.734,45.898,18.555,0
1555615516.010,4.883,56.152,33.203,18.555,23.438,0
1555615516.014,-68.359,40.039,30.273,-11.719,51.758,0
1555615516.018,30.273,16.602,36.133,15.137,49.316,0
1555615516.022,113.770,21.484,31.250,35.645,33.203,0
1555615516.026,39.062,45.410,29.785,33.691,-14.648,0
1555615516.030,-54.688,64.453,29.785,17.090,38.574,0
1555615516.033,3.906,60.547,21.484,20.020,70.312,0
1555615516.037,109.863,41.016,19.531,30.273,47.852,0
1555615516.041,68.359,44.922,38.086,18.555,34.668,0
1555615516.045,-39.551,47.363,45.410,14.648,0.000,0
1555615516.049,-17.090,25.391,49.316,19.043,14.648,0
1555615516.051,84.961,28.809,38.086,26.367,50.293,0
1555615516.055,87.891,52.734,24.902,17.578,25.391,0
1555615516.059,-20.508,56.641,32.715,6.836,31.738,0
1555615516.063,-69.336,45.410,38.086,11.230,78.125,0
1555615516.067,36.133,31.250,36.621,10.742,44.922,0
1555615516.071,97.656,43.457,28.320,25.391,37.598,0
1555615516.075,1.465,50.293,14.648,27.344,33.203,0
1555615516.078,-71.777,45.410,16.602,11.230,33.203,0
1555615516.082,12.695,49.805,26.367,9.277,48.828,0
1555615516.086,100.586,40.527,31.738,17.090,3.418,0
1555615516.090,62.988,32.227,41.504,29.785,-5.859,0
1555615516.094,-37.109,36.621,40.039,26.855,-15.625,0
1555615516.096,-13.184,47.363,39.062,17.090,-43.457,0
1555615516.100,85.938,50.293,41.016,16.113,15.625,0
1555615516.104,70.312,35.645,31.250,18.066,40.527,0
1555615516.108,-42.480,42.480,9.766,16.113,31.738,0
1555615516.112,-33.691,59.082,3.906,23.438,22.949,0
1555615516.116,80.566,43.945,24.414,34.180,24.902,0
1555615516.120,87.891,26.367,31.250,29.297,40.039,0
1555615516.123,0.000,40.039,28.809,28.809,-17.090,0
1555615516.127,-49.805,57.129,33.691,19.531,-13.672,0
1555615516.131,37.109,52.734,34.180,24.414,74.219,0
1555615516.135,118.652,42.969,35.645,40.527,16.602,0
1555615516.139,33.691,41.016,22.949,30.273,-23.926,0
1555615516.141,-63.477,42.480,12.695,13.184,64.453,0
1555615516.145,-3.418,37.598,29.785,8.789,68.359,0
1555615516.149,91.309,41.504,34.668,29.785,49.805,0
1555615516.153,53.223,41.504,21.484,46.387,47.363,0
1555615516.157,-41.504,50.293,18.555,27.832,58.105,0
1555615516.161,-14.648,48.340,23.926,0.488,65.430,0
1555615516.165,84.473,34.668,20.020,17.578,20.508,0
1555615516.168,83.984,35.645,24.902,44.922,-4.883,0
1555615516.172,-25.879,44.434,34.180,35.156,7.812,0
1555615516.176,-45.898,46.387,20.996,24.902,39.551,0
1555615516.180,49.805,45.410,24.414,31.738,67.871,0
1555615516.184,89.355,25.879,24.414,39.062,44.434,0
1555615516.186,9.277,27.832,23.438,34.668,82.031,0
1555615516.190,-54.199,46.875,41.992,29.297,82.031,0
1555615516.194,40.039,43.945,38.086,25.391,91.309,0
1555615516.198,120.117,46.387,28.809,37.598,82.031,0
1555615516.202,46.875,42.480,36.621,38.086,19.531,0
1555615516.206,-56.152,41.992,31.250,20.508,24.414,0
1555615516.210,-8.301,53.223,28.809,23.926,68.848,0
1555615516.213,105.957,59.570,38.574,33.203,97.168,0
1555615516.217,74.219,42.969,13.672,23.438,54.199,0
1555615516.221,-46.387,16.602,8.301,-1.953,-3.418,0
1555615516.225,-37.598,19.531,44.434,-2.441,-22.461,0
1555615516.229,60.547,51.758,44.434,14.160,-36.621,0
1555615516.231,75.195,67.383,30.273,19.043,4.395,0
1555615516.235,-12.695,54.688,25.391,15.625,18.066,0
1555615516.239,-32.227,32.227,36.621,20.020,-42.480,0
1555615516.243,71.777,33.691,41.016,23.926,6.348,0
1555615516.247,113.281,55.664,33.691,36.621,65.918,0
1555615516.251,28.809,30.762,33.691,46.875,24.414,0
1555615516.255,-45.410,17.578,23.438,33.691,22.461,0
1555615516.258,25.391,48.828,21.484,10.742,75.684,0
1555615516.262,102.539,49.805,22.949,17.578,71.289,0
1555615516.266,48.340,26.855,28.320,27.832,46.875,0
1555615516.270,-34.180,32.715,48.828,16.113,66.406,0
1555615516.274,8.789,58.105,41.016,6.836,69.824,0
1555615516.276,98.633,49.316,12.695,10.254,4.883,0
1555615516.280,74.219,22.461,15.625,19.531,19.043,0
1555615516.284,-36.621,20.508,35.645,18.066,35.645,0
1555615516.288,-32.227,43.457,39.062,17.090,9.277,0
1555615516.292,79.102,43.457,24.414,20.996,35.645,0
1555615516.296,89.844,42.480,13.672,23.438,38.574,0
1555615516.300,-8.301,53.223,34.668,31.738,19.531,0
1555615516.303,-20.508,39.062,40.527,25.391,25.879,0
1555615516.307,85.449,27.832,32.227,25.391,48.340,0
1555615516.311,127.930,23.438,36.621,34.180,34.668,0
1555615516.315,18.555,39.062,39.062,20.996,35.645,0
1555615516.319,-92.285,50.781,32.715,7.324,56.641,0
1555615516.351,6.836,51.270,9.277,7.812,69.336,0
1555615516.355,127.441,62.500,10.254,23.438,41.504,0
1555615516.359,66.895,45.410,29.297,30.762,32.715,0
1555615516.363,-29.785,36.621,31.250,26.855,49.316,0
1555615516.367,5.859,43.457,38.574,32.227,27.832,0
1555615516.371,108.887,33.203,40.527,43.945,52.734,0
1555615516.375,95.703,21.484,34.668,37.598,57.617,0
1555615516.378,-26.367,43.945,29.785,23.926,9.766,0
1555615516.382,-24.414,42.480,41.504,40.039,-25.879,0
1555615516.386,99.121,33.691,31.250,47.363,-43.457,0
1555615516.390,108.887,49.805,18.066,39.062,-20.020,0
1555615516.394,-2.930,51.270,43.945,30.273,41.992,0
1555615516.381,-54.688,50.781,36.133,17.578,22.949,0
1555615516.385,41.016,52.734,22.461,22.461,-29.785,0
1555615516.389,104.980,51.758,45.410,35.156,6.348,0
1555615516.393,44.922,21.973,50.293,42.480,65.918,0
1555615516.397,-30.762,12.207,28.320,28.320,41.504,0
1555615516.401,15.625,42.480,12.207,24.902,7.324,0
1555615516.405,95.703,63.477,17.578,40.527,3.906,0
1555615516.408,52.734,66.406,21.973,36.621,-1.953,0
1555615516.412,-41.992,56.641,25.391,7.812,24.414,0
1555615516.416,-21.973,54.199,35.156,-4.883,47.363,0
1555615516.420,70.312,51.758,20.996,5.859,34.180,0
1555615516.424,69.336,34.668,13.672,20.508,65.918,0
1555615516.426,-46.875,23.438,35.156,11.230,57.617,0
1555615516.430,-68.359,33.691,33.691,-4.395,53.711,0
1555615516.434,55.176,52.246,34.668,12.207,33.691,0
1555615516.438,87.402,54.688,34.180,19.531,28.320,0
1555615516.442,-6.836,46.387,24.902,5.859,23.926,0
1555615516.446,-56.152,43.457,26.855,0.977,41.504,0
1555615516.450,33.203,47.363,37.109,11.719,84.961,0
1555615516.453,111.328,33.203,42.480,16.602,82.520,0
1555615516.457,51.758,22.949,36.621,15.625,24.414,0
1555615516.461,-45.898,37.598,29.785,-1.953,3.418,0
1555615516.465,-12.207,37.598,29.785,-4.883,6.348,0
1555615516.469,76.172,12.695,20.996,-1.465,29.297,0
1555615516.471,59.570,41.992,15.137,6.348,30.273,0
1555615516.475,-46.387,67.871,20.996,9.766,33.691,0
1555615516.479,-43.457,55.664,23.438,-1.953,82.031,0
1555615516.483,66.406,51.270,35.156,4.395,34.668,0
1555615516.487,78.613,38.086,39.551,18.066,42.480,0
1555615516.491,-22.949,28.320,29.297,19.531,111.816,0
1555615516.495,-48.340,15.137,32.227,3.906,2.441,0
1555615516.498,60.547,19.531,28.809,-2.441,-38.574,0
1555615516.502,102.539,49.805,19.531,-1.953,32.227,0
1555615516.506,4.395,48.828,16.602,6.348,40.527,0
1555615516.510,-51.270,51.270,10.254,9.766,28.809,0
1555615516.514,26.367,42.969,17.578,9.277,43.457,0
1555615516.516,88.379,25.879,22.461,16.113,44.434,0
1555615516.520,27.832,32.715,16.113,11.230,55.176,0
1555615516.524,-49.805,26.855,20.996,8.301,54.199,0
1555615516.528,-14.648,34.668,17.578,12.695,47.852,0
1555615516.532,78.125,42.480,12.207,16.113,72.266,0
1555615516.536,81.055,36.133,11.719,20.508,47.363,0
1555615516.540,-13.184,42.480,15.625,10.254,34.668,0
1555615516.543,-22.949,51.270,32.715,2.930,82.520,0
1555615516.547,62.988,51.270,44.434,12.207,47.852,0
1555615516.551,78.613,42.480,32.227,26.367,25.391,0
1555615516.555,-13.672,41.016,14.648,28.320,-15.625,0
1555615516.559,-46.875,21.973,17.578,28.320,14.160,0
1555615516.560,62.012,21.484,20.996,40.527,49.316,0
1555615516.564,112.305,42.480,37.109,44.434,-13.184,0
1555615516.568,10.742,35.156,39.062,22.461,-4.883,0
1555615516.572,-65.430,41.016,26.367,10.254,-5.371,0
1555615516.576,14.160,43.457,20.996,15.625,15.137,0
1555615516.580,105.469,32.227,22.461,6.836,38.574,0
1555615516.584,56.641,35.156,16.113,19.043,15.625,0
1555615516.587,-50.293,38.086,15.137,34.180,23.438,0
1555615516.591,-9.277,41.992,36.133,29.785,5.859,0
1555615516.595,114.258,43.457,39.551,36.621,1.953,0
1555615516.599,97.168,48.340,34.668,37.109,28.809,0
1555615516.603,-32.715,40.527,35.645,20.020,71.777,0
1555615516.606,-44.922,26.367,29.785,14.648,44.922,0
1555615516.610,58.594,32.227,34.668,14.648,57.617,0
1555615516.614,83.008,26.855,36.133,6.836,47.852,0
1555615516.618,-12.207,21.973,33.203,3.906,5.371,0
1555615516.622,-62.500,36.133,35.156,0.977,27.344,0
1555615516.626,34.180,31.250,15.137,6.348,-12.695,0
1555615516.630,108.887,21.484,11.230,13.672,-45.410,0
1555615516.633,40.527,32.227,23.438,3.906,36.621,0
1555615516.637,-48.828,43.457,13.184,-0.488,30.273,0
1555615516.641,-7.324,50.781,27.344,-1.953,26.367,0
1555615516.645,93.750,41.016,41.016,12.695,39.551,0
1555615516.649,66.895,31.250,27.344,30.273,10.254,0
1555615516.650,-36.133,43.945,21.973,33.691,-14.648,0
1555615516.654,-19.043,30.762,34.668,36.133,-34.180,0
1555615516.658,87.402,24.414,37.598,35.645,-27.832,0
1555615516.662,102.051,60.547,37.109,33.203,7.812,0
1555615516.666,-6.836,56.641,37.109,22.461,-6.348,0
1555615516.670,-36.133,37.598,31.250,20.996,-22.949,0
1555615516.674,73.242,42.480,20.996,22.461,27.832,0
1555615516.677,100.586,36.133,12.695,20.020,31.250,0
1555615516.681,9.766,41.504,12.695,25.879,-3.906,0
1555615516.685,-38.574,37.109,23.926,24.902,12.695,0
1555615516.689,46.875,34.668,37.109,25.391,42.969,0
1555615516.693,109.863,55.176,18.555,20.508,47.363,0
1555615516.710,39.062,61.035,10.254,18.066,56.152,0
1555615516.714,-44.434,45.410,34.668,13.184,48.340,0
1555615516.718,-3.418,36.621,44.922,7.812,41.504,0
1555615516.722,86.426,43.945,34.668,16.113,15.137,0
1555615516.726,60.059,26.855,17.090,20.508,0.000,0
1555615516.730,-38.086,17.578,14.160,12.207,32.227,0
1555615516.734,-20.996,31.738,21.484,-2.930,46.875,0
1555615516.737,74.707,48.340,28.320,10.742,51.758,0
1555615516.741,76.660,59.570,9.277,19.531,35.645,0
1555615516.745,-13.184,63.965,-1.953,11.719,35.645,0
1555615516.749,-45.410,62.500,28.320,12.207,20.996,0
1555615516.753,38.086,52.734,42.969,16.602,-19.043,0
1555615516.756,92.285,45.898,30.273,33.203,46.387,0
1555615516.760,19.531,30.273,29.297,27.832,119.629,0
1555615516.764,-51.270,30.762,35.645,13.672,87.891,0
1555615516.768,29.785,41.016,38.574,18.066,27.344,0
1555615516.772,108.398,43.945,22.461,24.414,30.273,1
1555615516.776,54.688,34.180,13.672,22.949,35.156,0
1555615516.780,-35.156,52.734,23.926,14.160,24.902,0
1555615516.783,-13.672,87.402,33.691,20.508,42.480,0
1555615516.787,72.266,78.613,50.781,25.879,-21.484,0
1555615516.791,52.734,60.547,43.457,1.465,-29.297,0
1555615516.795,-56.152,50.781,31.250,-16.113,-11.230,0
1555615516.799,-62.988,49.316,26.367,-15.137,31.250,0
1555615516.801,31.738,59.082,25.391,-19.531,98.145,0
1555615516.805,47.852,62.988,37.598,-19.043,57.129,0
1555615516.809,-56.641,59.570,42.480,-31.250,58.105,0
1555615516.813,-117.188,65.430,36.621,-62.500,95.703,0
1555615516.817,-24.414,59.082,52.734,-59.082,69.336,0
1555615516.821,34.180,41.504,58.105,-54.688,28.809,0
1555615516.825,-75.195,39.062,41.016,-81.055,46.875,0
1555615516.828,-177.734,70.312,27.832,-112.305,57.129,0
1555615516.832,-93.262,102.051,51.758,-128.418,27.832,0
1555615516.836,-17.090,102.051,70.312,-118.652,22.461,0
1555615516.840,-87.891,92.773,44.434,-104.492,48.340,0
1555615516.844,-191.406,104.004,59.082,-127.441,41.992,0
1555615516.846,-147.949,91.797,79.590,-116.211,56.641,0
1555615516.850,-4.883,73.242,58.105,-67.383,64.453,0
1555615516.854,11.230,91.309,43.457,-36.621,27.832,0
1555615516.858,-72.266,59.082,22.461,-18.555,8.301,0
1555615516.862,-80.078,12.695,23.438,-27.832,19.043,0
1555615516.866,16.602,40.527,51.758,-35.645,16.602,0
1555615516.870,65.430,66.895,49.805,-6.348,13.184,0
1555615516.873,-19.531,40.039,19.531,12.695,56.641,0
1555615516.877,-58.105,32.227,22.949,-0.977,67.871,0
1555615516.881,60.547,62.012,24.902,17.578,31.250,0
1555615516.885,122.559,49.805,8.301,41.992,16.113,0
1555615516.889,38.574,38.574,15.625,36.621,45.410,0
1555615516.891,-24.902,40.039,12.695,45.410,46.387,0
1555615516.895,42.480,17.578,-19.531,56.152,34.668,0
1555615516.899,138.672,-2.441,-10.742,65.430,42.480,0
1555615516.903,100.586,15.625,23.926,62.988,3.906,0
1555615516.907,-6.836,61.523,35.645,47.852,25.879,0
1555615516.911,15.625,49.805,42.480,62.500,60.547,0
1555615516.915,122.559,30.762,-12.695,88.379,55.664,0
1555615516.918,128.906,31.250,-86.914,82.520,46.387,0
1555615516.922,19.531,10.742,-35.156,71.777,23.926,0
1555615516.926,-8.301,25.391,60.547,64.453,6.836,0
1555615516.930,92.773,43.945,64.941,64.453,-3.418,0
1555615516.934,140.137,29.297,28.320,72.754,5.859,0
1555615516.936,76.172,19.043,32.227,67.871,66.895,0
1555615516.940,11.719,37.598,33.691,64.941,36.621,0
1555615516.944,70.312,28.320,18.066,67.871,23.926,0
1555615516.948,155.762,18.066,0.488,83.496,47.852,0
1555615516.952,82.031,49.316,-24.902,70.801,29.785,0
1555615516.956,-19.043,50.781,-3.418,52.734,34.180,0
1555615516.960,42.480,40.039,27.344,70.312,14.160,0
1555615516.963,129.883,48.828,11.719,89.844,37.598,0
1555615516.967,97.168,35.156,1.953,80.078,80.078,0
1555615516.971,-5.859,29.785,-1.953,47.852,54.199,0
1555615516.975,6.836,29.297,-3.418,46.387,43.945,0
1555615516.979,120.605,36.621,12.207,66.406,28.809,0
1555615516.981,129.883,53.223,25.879,63.477,14.648,0
1555615516.985,18.066,46.387,15.137,58.594,27.344,0
1555615516.989,-22.949,35.645,-2.441,52.734,38.086,0
1555615516.993,84.961,22.949,4.883,58.594,53.711,0
1555615516.997,129.395,25.879,20.508,69.824,52.734,0
1555615517.001,29.297,18.066,27.832,54.199,-8.789,0
1555615517.005,-26.855,-2.441,26.367,41.504,23.926,0
1555615517.008,61.523,18.066,4.395,56.152,58.594,0
1555615517.012,138.672,44.434,-0.977,52.734,17.090,0
1555615517.016,69.824,54.688,12.207,27.832,36.621,0
1555615517.020,-29.297,47.363,8.301,30.273,-16.602,0
1555615517.024,28.320,32.715,6.836,39.551,-2.441,0
1555615517.026,127.930,22.949,19.043,32.227,33.203,0
1555615517.030,79.102,7.324,21.484,30.762,-3.418,0
1555615517.034,-38.086,14.160,25.879,27.344,1.465,0
1555615517.038,-33.691,36.621,39.551,25.391,55.176,0
1555615517.042,79.102,47.852,26.855,30.273,8.789,0
1555615517.046,97.656,42.480,5.859,19.531,-22.949,0
1555615517.050,3.418,16.113,0.000,17.578,12.695,0
1555615517.053,-39.062,12.207,9.277,27.344,17.090,0
1555615517.057,58.105,19.531,18.066,28.320,24.902,0
1555615517.061,116.699,14.160,8.789,39.062,73.730,0
1555615517.065,42.969,35.156,15.625,35.645,118.652,0
1555615517.069,-33.203,65.918,28.320,29.297,35.645,0
1555615517.086,28.809,57.129,40.039,41.504,41.992,0
1555615517.090,124.512,35.645,39.062,36.133,56.641,0
1555615517.094,86.914,33.691,14.648,37.598,20.020,0
1555615517.098,-4.395,45.410,7.812,36.621,23.926,0
1555615517.102,8.789,45.898,26.855,20.508,41.016,0
1555615517.106,106.934,27.344,36.621,26.855,45.410,0
1555615517.110,119.141,40.527,41.504,34.668,51.270,0
1555615517.113,23.438,41.016,29.785,39.551,36.621,0
1555615517.117,10.742,37.598,3.906,54.688,-12.695,0
1555615517.121,110.352,50.293,0.000,62.500,32.227,0
1555615517.125,142.090,39.551,21.484,66.406,62.012,0
1555615517.129,60.059,30.762,41.016,59.570,13.672,0
1555615517.131,-15.625,40.527,33.691,49.316,51.758,0
1555615517.135,60.547,40.527,25.879,43.457,84.961,0
1555615517.139,129.395,40.039,30.762,40.039,13.184,0
1555615517.143,43.457,65.430,36.133,31.738,32.227,0
1555615517.147,-39.062,56.641,30.273,18.555,57.129,0
1555615517.151,36.133,25.879,17.578,42.480,-7.812,0
1555615517.155,142.578,40.527,8.789,62.500,7.812,0
1555615517.158,86.426,48.340,11.719,32.227,-2.441,0
1555615517.162,-25.391,31.250,20.508,20.996,-2.930,0
1555615517.166,-0.977,39.551,27.832,28.320,65.918,0
1555615517.170,101.074,51.270,37.598,38.086,67.871,0
1555615517.174,95.703,16.602,28.320,22.949,47.852,0
1555615517.176,-13.672,22.461,28.320,20.996,50.781,0
1555615517.180,-35.645,55.176,33.691,27.832,52.246,0
1555615517.184,55.176,41.992,15.625,18.066,41.504,0
1555615517.188,92.773,35.645,25.879,22.949,28.320,0
1555615517.192,14.160,44.922,40.527,25.391,47.852,0
1555615517.196,-49.805,52.246,27.344,22.949,32.715,0
1555615517.200,29.785,55.664,23.926,19.043,41.016,0
1555615517.203,104.492,38.086,15.625,27.344,56.641,0
1555615517.207,46.387,21.484,13.184,27.344,63.477,0
1555615517.211,-38.086,21.973,11.719,17.578,74.707,0
1555615517.215,-4.883,21.973,4.883,0.977,43.457,0
1555615517.219,88.379,24.902,16.602,4.395,21.973,0
1555615517.222,68.359,42.969,27.344,23.926,-0.488,0
1555615517.226,-39.551,56.152,26.855,13.184,23.926,0
1555615517.230,-32.227,55.176,22.949,8.789,85.449,0
1555615517.234,70.312,32.227,27.344,16.602,7.324,0
1555615517.238,84.473,20.508,23.926,27.832,-1.953,0
1555615517.242,-12.695,41.016,8.301,20.996,68.848,0
1555615517.246,-41.016,45.410,12.207,11.230,33.203,0
1555615517.249,49.316,46.875,20.996,16.602,14.648,0
1555615517.253,97.656,54.199,14.648,12.695,43.457,0
1555615517.257,10.742,52.734,10.742,7.324,44.922,0
1555615517.261,-63.965,47.852,16.602,0.977,47.363,0
1555615517.265,20.996,34.180,24.902,6.836,73.242,0
1555615517.266,110.352,7.324,23.926,31.250,32.227,0
1555615517.270,56.152,22.949,23.926,35.156,-10.254,0
1555615517.274,-39.062,46.875,32.715,13.672,57.129,0
1555615517.278,9.277,41.016,11.230,20.508,91.797,0
1555615517.282,103.516,55.664,4.883,43.945,60.547,0
1555615517.286,87.402,78.613,42.480,52.734,74.219,0
1555615517.290,-25.879,50.293,45.898,37.109,8.301,0
1555615517.293,-33.203,41.992,37.109,11.719,-30.762,0
1555615517.297,96.680,52.734,23.926,30.273,0.000,0
1555615517.301,125.977,28.809,15.137,50.293,52.246,0
1555615517.305,0.977,27.832,24.414,20.020,62.012,0
1555615517.309,-46.875,48.340,29.785,13.184,-21.484,0
1555615517.311,60.059,36.133,41.992,41.504,9.277,0
1555615517.315,119.629,25.391,41.504,39.062,72.266,0
1555615517.319,40.039,45.410,27.344,25.879,57.617,0
1555615517.323,-41.992,43.457,14.160,22.949,38.574,0
1555615517.327,36.621,30.762,26.855,36.133,56.152,0
1555615517.331,134.766,39.551,34.668,52.246,43.945,0
1555615517.335,73.730,40.527,19.531,46.387,34.668,0
1555615517.338,-39.062,20.508,23.926,32.227,68.359,0
1555615517.342,-7.324,33.203,40.527,23.438,81.055,0
1555615517.346,93.262,72.266,31.738,27.832,32.715,0
1555615517.350,78.613,72.266,27.344,25.879,36.621,0
1555615517.354,-7.812,62.012,31.738,26.367,83.984,0
1555615517.356,-6.348,51.758,24.414,34.668,47.363,0
1555615517.360,85.449,37.109,22.461,39.062,38.086,0
1555615517.364,115.723,38.574,25.391,45.410,43.945,0
1555615517.368,33.691,39.062,17.090,43.457,25.391,0
1555615517.372,-29.785,42.969,28.809,32.227,33.203,0
1555615517.376,41.016,42.480,40.039,33.691,33.203,0
1555615517.380,109.375,44.922,52.246,45.410,36.133,0
1555615517.383,31.250,49.805,58.594,33.691,-9.277,0
1555615517.387,-59.082,36.621,46.875,22.949,-44.434,0
1555615517.391,5.371,37.598,32.715,15.625,-5.371,0
1555615517.395,94.238,51.758,20.996,21.484,34.180,0
1555615517.399,60.547,56.641,20.020,29.297,33.203,0
1555615517.401,-35.645,46.387,28.320,18.066,20.996,0
1555615517.405,-19.531,42.969,33.203,16.113,34.668,0
1555615517.409,94.727,39.551,26.367,40.527,97.168,0
1555615517.413,105.957,26.855,33.203,48.340,55.176,0
1555615517.417,-8.789,29.297,47.852,32.227,17.578,0
1555615517.421,-46.875,29.785,49.805,13.184,26.367,0
1555615517.425,51.758,40.527,36.621,6.348,7.324,0
1555615517.428,85.449,62.500,31.250,4.395,-3.906,0
1555615517.432,-20.020,59.082,35.156,-12.695,57.617,0
1555615517.436,-83.008,64.941,39.551,-22.461,57.129,0
1555615517.440,-7.324,68.848,50.293,-13.184,13.672,0
1555615517.444,23.926,54.199,59.082,-34.180,-2.441,0
1555615517.461,-63.965,64.941,61.035,-84.473,-3.906,0
1555615517.465,-167.480,75.684,58.105,-113.281,61.035,0
1555615517.469,-134.277,47.852,68.359,-125.000,66.406,0
1555615517.473,-52.246,47.852,86.914,-135.742,7.324,0
1555615517.477,-111.328,62.012,95.703,-168.457,-7.324,0
1555615517.481,-239.258,59.570,80.566,-204.590,24.414,0
1555615517.485,-234.375,80.078,83.008,-203.613,65.430,0
1555615517.488,-138.672,111.328,100.586,-194.336,47.363,0
1555615517.492,-138.184,123.535,90.820,-197.754,41.992,0
1555615517.496,-234.863,90.820,100.098,-205.078,53.223,0
1555615517.500,-239.746,62.012,116.211,-196.289,47.852,0
1555615517.504,-125.977,80.566,111.816,-170.410,-13.672,0
1555615517.507,-67.383,85.938,77.637,-135.742,14.648,0
1555615517.511,-135.742,85.938,47.852,-122.070,68.359,0
1555615517.515,-194.824,98.633,71.777,-131.836,57.617,0
1555615517.519,-97.168,100.586,87.891,-114.746,36.621,0
1555615517.523,6.836,85.938,55.664,-77.637,44.922,0
1555615517.527,-35.645,73.730,58.105,-67.383,24.902,0
1555615517.531,-109.863,53.711,69.824,-65.918,-10.254,0
1555615517.534,-51.270,59.570,52.734,-51.758,-4.395,0
1555615517.538,36.621,76.172,54.199,-46.875,41.016,0
1555615517.542,-1.465,72.266,48.340,-55.664,59.570,0
1555615517.546,-90.332,62.988,39.062,-53.223,57.129,0
1555615517.550,-76.660,51.270,37.598,-29.785,55.664,0
1555615517.551,38.574,59.082,39.062,-7.812,56.152,0
1555615517.555,66.895,47.363,35.156,-16.602,-20.508,0
1555615517.559,-39.551,33.691,25.879,-30.273,-7.812,0
1555615517.563,-85.449,56.152,-17.090,-25.879,32.715,0
1555615517.567,18.066,41.992,1.465,-10.254,35.645,0
1555615517.571,73.730,23.926,71.289,-1.465,53.711,0
1555615517.575,-19.043,59.082,75.684,-5.859,33.203,0
1555615517.578,-90.820,75.684,43.457,-11.719,12.207,0
1555615517.582,6.348,45.410,16.602,15.625,12.207,0
1555615517.586,124.023,34.668,24.414,50.293,37.109,0
1555615517.590,78.125,44.922,33.203,42.969,28.320,0
1555615517.594,-31.738,26.855,19.531,22.461,58.105,0
1555615517.596,-3.906,23.926,11.230,20.996,12.207,0
1555615517.600,104.980,37.598,18.555,43.457,3.418,0
1555615517.604,109.863,34.180,-1.465,64.941,29.297,0
1555615517.608,14.648,15.137,-0.977,66.406,45.898,0
1555615517.612,22.461,-22.949,8.789,83.496,80.566,0
1555615517.616,137.207,-1.953,-4.395,95.215,49.316,0
1555615517.620,160.156,40.527,-11.719,85.938,18.066,0
1555615517.623,76.660,26.367,-22.949,88.867,34.668,0
1555615517.627,24.414,19.043,-10.742,87.402,21.484,0
1555615517.631,109.863,29.297,8.301,84.961,4.395,0
1555615517.635,181.641,37.598,2.441,95.703,-26.855,0
1555615517.639,115.723,6.836,-9.766,102.539,-26.367,0
1555615517.656,39.551,-20.020,-14.160,97.656,21.973,0
1555615517.660,83.008,23.926,-20.020,94.238,56.152,0
1555615517.664,166.992,44.922,-13.672,105.469,50.781,0
1555615517.668,149.414,22.461,-7.812,116.211,12.207,0
1555615517.672,59.570,20.020,-6.836,111.328,0.000,0
1555615517.676,64.453,16.602,-10.254,108.398,29.297,0
1555615517.680,158.691,15.625,-17.090,115.234,54.688,0
1555615517.683,161.133,34.180,-3.418,122.559,40.527,0
1555615517.687,65.918,25.391,-0.977,97.656,44.434,0
1555615517.691,39.551,18.066,-27.832,80.078,45.410,0
1555615517.695,145.996,17.090,-26.367,102.539,33.203,0
1555615517.699,188.477,15.137,9.766,104.980,53.223,0
1555615517.685,92.285,19.043,11.230,91.797,82.031,0
1555615517.689,23.926,4.883,-16.602,76.172,57.617,0
1555615517.693,102.051,0.488,-17.090,81.055,40.039,0
1555615517.697,177.246,25.391,2.441,96.191,51.270,0
1555615517.701,104.492,39.062,6.836,92.285,23.438,0
1555615517.705,2.441,25.879,-14.160,84.961,-21.973,0
1555615517.709,49.316,24.902,-13.184,75.684,-12.207,0
1555615517.712,162.109,12.695,-22.461,86.914,24.902,0
1555615517.716,129.395,-1.465,-34.668,79.590,67.383,0
1555615517.720,6.836,18.555,-7.324,54.688,51.270,0
1555615517.724,17.090,25.391,6.836,64.941,41.504,0
1555615517.728,128.418,8.301,-0.488,74.219,50.781,0
1555615517.730,142.090,5.859,-10.254,72.266,48.340,0
1555615517.734,41.016,20.508,3.906,60.059,89.355,0
1555615517.738,-1.953,35.156,21.973,57.617,90.332,0
1555615517.742,85.449,25.879,17.578,66.406,32.715,0
1555615517.746,137.695,18.066,11.719,61.035,29.785,0
1555615517.750,58.594,26.855,14.160,58.105,22.949,0
1555615517.754,-3.906,25.879,12.695,61.035,1.953,0
1555615517.757,73.730,26.855,0.488,62.012,4.395,0
1555615517.761,145.996,35.645,-5.371,64.941,-8.301,0
1555615517.765,83.008,39.062,14.160,65.430,-0.488,0
1555615517.769,-15.625,62.012,18.555,45.410,18.555,0
1555615517.773,26.855,46.387,15.625,41.016,30.762,0
1555615517.775,123.047,4.883,11.719,56.641,70.312,0
1555615517.779,104.492,20.996,1.953,47.363,73.730,0
1555615517.783,-1.953,38.574,4.395,27.344,69.824,0
1555615517.787,-15.625,37.598,8.301,22.949,42.480,0
1555615517.791,82.520,25.879,11.719,39.551,44.922,0
1555615517.795,108.887,22.949,11.230,51.270,67.383,0
1555615517.799,27.832,32.227,-3.906,43.945,14.648,0
1555615517.802,-5.859,36.133,1.953,39.551,11.230,0
1555615517.806,76.660,35.645,17.578,40.527,46.387,0
1555615517.810,121.582,39.062,21.484,42.480,22.461,0
1555615517.814,37.109,41.504,27.832,28.809,-39.062,0
1555615517.818,-46.875,37.109,26.367,13.672,14.160,0
1555615517.835,26.855,31.738,25.879,20.508,35.645,0
1555615517.839,126.465,1.465,13.184,39.062,-6.836,0
1555615517.843,89.844,-10.254,7.812,39.062,37.598,0
1555615517.847,-18.555,30.762,24.414,28.320,4.883,0
1555615517.851,-7.324,49.805,8.301,22.949,-12.207,0
1555615517.855,89.355,39.062,-12.207,31.250,29.785,0
1555615517.859,96.680,53.223,24.414,55.176,20.996,0
1555615517.862,-5.859,55.664,42.969,51.270,1.465,1
1555615517.866,-39.551,41.992,26.855,23.926,-22.949,0
1555615517.870,65.918,32.227,20.020,20.508,4.395,0
1555615517.874,100.586,30.273,27.344,26.855,36.621,0
1555615517.878,9.766,29.297,32.227,28.809,29.785,0
1555615517.881,-37.598,23.438,24.902,18.555,64.941,0
1555615517.885,52.246,22.949,14.160,22.949,44.922,0
1555615517.889,121.582,34.668,8.301,44.922,5.859,0
1555615517.893,66.406,41.504,16.602,47.363,41.016,0
1555615517.897,-16.113,42.480,23.438,37.598,54.199,0
1555615517.901,13.184,37.109,18.066,32.227,59.082,0
1555615517.905,95.215,28.809,4.395,37.598,89.355,0
1555615517.908,69.824,31.250,16.602,38.086,69.336,0
1555615517.912,-32.227,32.715,30.273,28.320,56.152,0
1555615517.916,-10.742,34.668,20.996,38.574,77.637,0
1555615517.920,105.957,17.578,13.672,58.594,11.230,0
1555615517.924,95.215,31.250,17.578,41.992,-9.277,0
1555615517.926,-23.926,53.711,28.809,6.836,25.879,0
1555615517.930,-56.152,58.105,31.738,4.883,11.719,0
1555615517.934,43.457,54.688,24.414,26.367,63.477,0
1555615517.938,107.910,46.875,28.320,42.969,64.941,0
1555615517.942,31.250,49.316,11.719,28.320,32.227,0
1555615517.946,-43.945,30.762,-1.953,10.254,-4.395,0
1555615517.950,37.109,4.883,21.973,17.578,0.977,0
1555615517.953,112.305,31.250,24.902,32.715,-1.953,0
1555615517.957,38.086,60.059,25.391,30.273,23.438,0
1555615517.961,-42.969,62.012,27.832,18.066,90.820,0
1555615517.965,6.836,51.758,5.371,13.184,76.172,0
1555615517.969,99.121,43.945,13.184,22.461,62.012,0
1555615517.971,89.844,57.617,39.551,41.992,52.246,0
1555615517.975,-20.020,54.688,21.973,39.551,62.500,0
1555615517.979,-15.625,36.621,12.207,22.949,63.965,0
1555615517.983,97.656,47.363,28.809,30.762,90.332,0
1555615517.987,110.352,60.547,21.973,26.367,37.109,0
1555615517.991,-8.301,49.316,4.395,10.742,19.043,0
1555615517.995,-42.969,52.246,3.906,12.695,12.207,0
1555615517.998,72.266,59.570,21.484,30.762,-38.086,0
1555615518.002,109.863,30.273,28.320,40.039,20.020,0
1555615518.006,33.691,33.691,40.039,26.367,61.523,0
1555615518.010,-13.672,45.898,46.387,32.227,51.270,0
1555615518.014,35.645,21.973,19.531,31.738,25.391,0
1555615518.016,91.309,34.668,11.719,20.020,13.184,0
1555615518.020,52.734,44.922,17.090,33.203,59.082,0
1555615518.024,-41.016,34.668,25.879,22.461,39.062,0
1555615518.028,-8.789,41.504,31.250,9.277,14.648,0
1555615518.032,106.445,53.223,27.832,36.133,17.578,0
1555615518.036,95.215,56.641,-0.488,37.109,43.457,0
1555615518.040,-15.137,47.363,6.836,21.484,26.367,0
1555615518.043,-19.531,35.645,43.457,20.996,-2.930,0
1555615518.047,78.125,23.926,41.016,17.090,11.719,0
1555615518.051,111.328,21.484,37.598,29.297,30.273,0
1555615518.055,27.832,41.992,33.691,35.156,23.438,0
1555615518.059,-31.250,62.988,28.320,30.273,39.551,0
1555615518.061,53.223,57.617,17.090,39.062,19.043,0
1555615518.065,130.371,41.016,5.859,38.086,25.879,0
1555615518.069,60.059,45.410,0.977,28.809,83.984,0
1555615518.073,-32.227,28.320,27.344,30.273,12.207,0
1555615518.077,31.250,25.391,41.016,20.508,0.977,0
1555615518.081,116.211,42.480,21.973,23.438,53.711,0
1555615518.085,83.496,30.273,18.555,38.086,32.715,0
1555615518.088,2.930,42.969,27.832,33.203,68.848,0
1555615518.092,16.113,63.477,21.973,25.391,83.496,0
1555615518.096,111.328,52.734,7.324,45.410,54.199,0
1555615518.100,100.586,38.574,11.719,47.363,8.301,0
1555615518.104,4.883,52.734,32.715,28.320,10.742,0
1555615518.106,-15.625,62.500,36.133,20.508,1.953,0
1555615518.110,60.547,29.785,30.273,13.184,-30.273,0
1555615518.114,100.586,26.367,23.926,16.602,23.438,0
1555615518.118,25.879,33.203,4.883,22.949,70.801,0
1555615518.122,-25.879,27.832,10.254,16.113,62.012,0
1555615518.126,42.969,54.688,25.879,15.625,44.434,0
1555615518.130,104.492,55.176,22.461,31.250,42.969,0
1555615518.133,41.504,29.785,26.855,34.668,43.457,0
1555615518.137,-36.133,24.902,40.527,31.738,45.898,0
1555615518.141,34.180,43.945,21.484,36.133,29.297,0
1555615518.145,137.207,33.691,10.254,47.852,27.344,0
1555615518.149,79.102,35.156,20.996,30.273,42.480,0
1555615518.151,-39.062,58.594,23.438,10.254,48.828,0
1555615518.155,-10.254,65.430,29.297,22.461,40.039,0
1555615518.159,99.121,48.828,22.461,41.504,11.230,0
1555615518.163,94.238,26.855,7.812,45.898,47.852,0
1555615518.167,-9.277,24.902,15.625,34.668,93.750,0
1555615518.171,-40.527,24.414,24.902,23.438,59.570,0
1555615518.175,53.711,26.367,24.902,34.180,72.266,0
1555615518.178,118.652,38.086,31.250,52.734,90.820,0
1555615518.182,42.480,31.250,25.879,50.293,88.867,0
1555615518.186,-40.527,30.273,24.902,43.457,64.453,0
1555615518.190,36.133,47.363,33.203,40.527,55.664,0
1555615518.194,117.188,39.062,20.508,41.016,0.488,0
1555615518.211,44.434,27.344,2.441,32.715,-10.742,0
1555615518.215,-56.641,26.855,-1.953,26.855,-29.297,0
1555615518.219,-10.254,24.902,16.602,31.250,-6.348,0
1555615518.223,94.727,26.855,28.320,25.391,57.617,0
1555615518.227,68.359,20.508,20.508,20.020,59.082,0
1555615518.231,-33.691,33.691,8.301,20.020,7.812,0
1555615518.235,-37.109,39.062,-4.883,7.324,10.742,0
1555615518.238,52.734,40.039,6.348,4.395,16.113,0
1555615518.242,78.125,39.551,-3.906,22.949,30.762,0
1555615518.246,-1.953,21.484,-14.160,15.137,31.738,0
1555615518.250,-43.945,21.973,19.043,-5.371,38.574,0
1555615518.254,39.062,33.203,26.855,3.418,56.641,0
1555615518.256,82.520,35.645,20.508,29.785,48.340,0
1555615518.260,4.883,33.203,9.277,9.766,26.367,0
1555615518.264,-62.012,21.973,4.883,-12.207,20.508,0
1555615518.268,3.906,7.812,11.230,2.930,88.379,0
1555615518.272,91.309,15.137,11.719,1.953,87.402,0
1555615518.276,41.992,17.578,6.348,5.371,64.453,0
1555615518.280,-57.617,23.926,8.301,10.742,37.109,0
1555615518.283,-15.625,46.387,16.602,11.230,44.922,0
1555615518.287,71.777,44.922,8.301,6.836,75.195,0
1555615518.291,40.039,28.809,4.395,-16.602,33.203,0
1555615518.295,-52.734,7.324,7.812,-21.973,46.387,0
1555615518.299,-43.945,11.230,19.043,1.953,37.598,0
1555615518.301,61.035,17.090,11.719,12.695,-22.949,0
1555615518.305,79.590,18.555,-7.812,13.672,17.578,0
1555615518.309,-16.113,26.855,-15.625,4.395,63.965,0
1555615518.313,-61.523,25.391,-10.254,-15.137,5.859,0
1555615518.317,30.762,26.855,16.602,-5.859,12.207,0
1555615518.321,89.844,32.227,24.414,4.883,52.734,0
1555615518.325,-4.395,33.691,6.836,-1.953,32.715,0
1555615518.328,-90.332,14.648,7.324,-8.301,43.457,0
1555615518.332,-6.348,1.953,12.695,10.254,50.781,0
1555615518.336,87.891,10.742,-9.277,14.160,31.738,0
1555615518.340,40.527,27.832,-5.371,0.000,44.434,0
1555615518.344,-56.641,41.992,9.766,-5.371,47.363,0
1555615518.346,-33.203,33.691,18.555,-6.836,12.695,0
1555615518.350,78.125,36.621,20.020,14.648,48.340,0
1555615518.354,79.102,40.527,15.625,28.320,66.895,0
1555615518.358,-27.832,33.203,14.648,13.672,59.082,0
1555615518.362,-52.734,28.809,11.230,-12.695,70.312,0
1555615518.366,56.152,25.879,18.555,4.883,64.453,0
1555615518.370,104.492,20.020,22.949,30.762,80.566,0
1555615518.373,-6.836,32.227,22.949,16.113,99.609,0
1555615518.377,-60.547,51.758,25.391,3.418,57.129,0
1555615518.381,40.039,38.574,20.020,14.648,16.113,0
1555615518.385,100.098,32.715,20.020,31.250,4.883,0
1555615518.389,33.203,24.414,26.855,29.297,24.902,0
1555615518.391,-54.199,13.672,25.879,18.555,90.332,0
1555615518.395,6.836,25.391,17.578,21.484,43.945,0
1555615518.399,93.262,37.598,20.020,32.227,33.203,0
1555615518.403,49.316,34.668,30.273,26.367,46.387,0
1555615518.407,-43.457,36.133,18.066,10.742,36.621,0
1555615518.411,-26.855,43.945,19.043,13.184,59.082,0
1555615518.415,77.637,45.898,42.480,29.785,78.613,0
1555615518.418,93.750,39.551,43.945,29.297,-6.348,0
1555615518.422,-8.301,34.668,29.297,16.113,-16.113,0
1555615518.426,-47.363,40.039,19.043,16.602,73.242,0
1555615518.430,52.246,27.344,20.996,20.508,17.578,0
1555615518.434,92.285,21.973,18.066,25.391,6.836,0
1555615518.436,10.742,24.902,2.930,19.531,43.457,0
1555615518.440,-31.250,9.766,6.836,12.207,29.297,0
1555615518.444,44.922,26.367,23.438,20.508,39.062,0
1555615518.448,117.188,75.195,29.785,48.828,83.496,0
1555615518.452,54.199,67.871,18.555,41.992,40.039,0
1555615518.456,-30.273,35.156,19.531,23.438,-3.906,0
1555615518.460,19.531,28.809,33.691,28.320,35.156,0
1555615518.463,107.910,23.438,34.180,31.738,44.434,0
1555615518.467,81.543,22.949,16.602,26.855,-44.922,0
1555615518.471,-28.809,30.273,18.555,10.742,-24.902,0
1555615518.475,-25.879,42.480,39.062,11.719,-10.742,0
1555615518.479,93.262,50.293,29.785,40.039,-21.484,0
1555615518.481,109.863,46.387,17.090,41.992,71.777,0
1555615518.485,15.137,41.016,31.738,32.227,67.871,0
1555615518.489,-45.410,36.621,32.715,38.086,20.020,0
1555615518.493,34.668,15.625,17.578,21.484,29.297,0
1555615518.497,116.211,24.902,18.066,24.414,20.508,0
1555615518.501,52.734,31.738,25.879,40.039,21.973,0
1555615518.505,-18.066,28.809,41.992,29.785,41.992,0
1555615518.508,31.738,50.781,38.574,26.367,37.109,0
1555615518.512,98.633,68.848,28.809,41.016,10.254,0
1555615518.516,45.410,66.406,30.762,36.133,20.020,0
1555615518.520,-46.387,42.480,20.508,15.137,37.598,0
1555615518.524,-5.371,35.156,22.949,21.484,4.395,0
1555615518.526,92.773,40.039,33.691,28.320,-14.160,0
1555615518.530,86.426,33.203,39.062,27.832,29.297,0
1555615518.534,-14.160,39.062,52.246,41.016,55.664,0
1555615518.538,-21.484,35.645,37.109,38.574,46.875,0
1555615518.542,83.496,30.762,10.742,38.574,15.137,0
1555615518.546,101.562,36.133,15.625,37.598,52.246,0
1555615518.550,10.742,18.555,31.250,17.090,95.703,0
1555615518.553,-41.992,23.926,29.785,-2.441,50.293,0
1555615518.557,51.758,39.551,43.945,12.207,21.973,0
1555615518.561,128.906,32.227,50.781,35.645,57.129,0
1555615518.565,47.852,38.086,21.484,38.574,61.523,0
1555615518.569,-42.969,42.969,17.090,23.438,12.695,0
1555615518.586,22.949,51.270,36.133,38.086,51.270,0
1555615518.590,110.840,56.641,48.340,44.922,23.438,0
1555615518.594,61.523,48.340,46.387,21.973,-58.594,0
1555615518.598,-38.574,33.691,28.809,19.043,-47.363,0
1555615518.602,-1.953,31.738,16.602,35.645,-5.371,0
1555615518.606,94.238,22.949,2.441,32.715,67.383,0
1555615518.610,97.656,29.297,7.324,18.066,36.133,0
1555615518.613,6.836,56.152,30.273,23.438,3.418,0
1555615518.617,-34.180,58.105,57.129,28.809,57.129,0
1555615518.621,67.383,41.504,54.199,35.156,47.363,0
1555615518.625,115.723,32.715,39.062,39.062,9.766,0
1555615518.629,19.531,20.508,39.062,32.715,-12.207,0
1555615518.631,-29.297,17.578,38.574,33.203,1.465,0
1555615518.635,53.711,33.203,29.785,34.668,-11.230,0
1555615518.639,109.863,56.152,30.273,15.137,23.438,0
1555615518.643,55.664,68.359,38.086,14.160,36.133,0
1555615518.647,-17.578,63.477,30.273,21.484,12.695,0
1555615518.651,16.113,52.246,20.020,16.602,13.184,0
1555615518.655,98.633,17.090,24.902,19.531,11.719,0
1555615518.658,89.844,16.113,33.691,33.691,29.297,0
1555615518.662,-13.672,49.316,29.297,29.297,-4.395,0
1555615518.666,-22.949,46.875,24.902,14.160,0.488,0
1555615518.670,83.984,47.363,20.020,26.367,19.043,0
1555615518.674,92.285,42.969,24.902,43.945,10.254,0
1555615518.676,-15.137,35.645,29.297,39.062,7.324,0
1555615518.680,-44.922,32.227,35.645,16.113,34.668,0
1555615518.684,54.688,40.527,33.203,16.113,57.129,0
1555615518.688,104.492,41.992,16.602,38.574,28.809,0
1555615518.692,16.113,47.363,22.949,27.832,39.551,0
1555615518.696,-62.012,39.551,27.832,9.766,44.434,0
1555615518.700,24.902,26.367,29.785,10.254,33.203,0
1555615518.703,120.117,33.203,26.855,20.996,40.039,0
1555615518.707,54.688,41.504,17.090,21.484,41.504,0
1555615518.711,-50.293,39.062,22.461,12.695,-29.297,0
1555615518.715,-2.441,28.320,9.277,22.461,-6.348,0
1555615518.719,104.004,41.016,0.488,37.598,29.785,0
1555615518.721,78.125,28.809,42.969,29.785,70.801,0
1555615518.725,-21.484,16.602,50.781,15.625,94.238,0
1555615518.729,-21.973,43.457,26.855,28.809,4.395,0
1555615518.733,85.449,35.156,30.762,32.227,-4.395,0
1555615518.737,104.492,16.602,29.297,23.438,58.594,0
1555615518.741,10.254,32.715,20.996,14.648,45.898,0
1555615518.745,-35.156,39.062,12.695,4.883,36.133,0
1555615518.748,43.945,45.898,13.184,17.578,9.277,0
1555615518.752,109.863,42.969,20.508,26.855,-44.434,0
1555615518.756,54.688,37.598,39.551,20.996,20.020,0
1555615518.760,-42.480,43.945,48.340,16.602,52.734,0
1555615518.764,-4.395,34.668,16.113,15.137,26.367,0
1555615518.766,95.215,31.250,5.859,30.762,14.648,0
1555615518.770,55.664,21.484,17.578,31.738,29.785,0
1555615518.774,-42.480,31.738,26.855,20.996,42.969,0
1555615518.778,-12.695,58.105,30.762,27.344,34.180,0
1555615518.782,90.820,45.898,22.461,40.039,53.223,0
1555615518.786,82.520,40.039,20.996,27.344,88.379,0
1555615518.790,-33.203,31.250,20.508,2.930,74.707,0
1555615518.793,-49.316,9.277,9.277,6.348,62.500,0
1555615518.797,61.523,39.551,24.414,19.531,50.293,0
1555615518.801,107.910,65.918,37.598,25.879,26.367,0
1555615518.805,12.207,49.805,20.508,14.648,45.898,0
1555615518.809,-58.105,34.180,14.648,3.418,54.688,0
1555615518.812,43.945,40.039,20.020,23.926,38.574,0
1555615518.816,121.582,32.227,25.879,33.203,19.043,0
1555615518.820,37.109,7.812,27.832,19.043,-27.344,0
1555615518.824,-45.410,9.766,30.273,19.043,2.441,0
1555615518.828,22.949,43.945,45.410,32.227,40.527,0
1555615518.832,122.070,64.941,36.621,52.246,49.805,0
1555615518.836,81.543,67.383,32.227,45.410,63.965,0
1555615518.839,-28.320,42.480,36.133,11.230,86.914,0
1555615518.843,-5.859,19.043,17.578,15.137,85.449,0
1555615518.847,79.102,35.156,17.090,25.391,-19.043,0
1555615518.851,76.172,47.852,26.855,23.926,-6.836,0
1555615518.855,-11.230,38.574,30.762,16.113,77.637,0
1555615518.855,-25.391,23.438,31.250,19.531,78.613,0
1555615518.859,75.195,45.898,27.344,45.410,60.059,0
1555615518.863,115.234,58.594,31.250,49.805,9.766,0
1555615518.867,37.598,34.668,37.109,38.086,-10.742,0
1555615518.871,-36.133,34.180,25.391,12.207,41.992,0
1555615518.875,31.738,43.945,25.879,7.324,28.809,0
1555615518.879,102.539,38.086,32.715,18.066,9.766,0
1555615518.882,46.387,32.715,24.902,31.250,9.277,0
1555615518.886,-23.926,35.156,30.762,36.133,11.719,0
1555615518.890,20.020,32.715,40.039,21.973,50.293,0
1555615518.894,97.168,37.598,37.598,24.414,51.758,0
1555615518.898,66.406,43.945,33.691,15.625,-10.254,0
1555615518.900,-36.621,46.387,12.207,-0.488,19.043,0
1555615518.904,-21.484,47.363,13.672,17.578,62.988,0
1555615518.908,101.074,47.363,32.715,43.457,52.246,0
1555615518.912,92.285,36.133,31.250,40.527,49.805,0
1555615518.916,-15.137,35.156,33.203,21.973,51.270,0
1555615518.920,-40.527,29.785,30.762,17.090,30.762,0
1555615518.924,69.336,15.137,22.949,25.391,-29.785,0
1555615518.927,128.418,30.273,29.785,41.016,-7.324,0
1555615518.931,20.508,60.059,31.250,23.926,68.848,0
1555615518.935,-47.852,62.012,15.137,-1.465,60.547,0
1555615518.939,37.109,45.410,16.113,9.277,-17.578,0
1555615518.943,106.445,46.387,33.691,22.461,5.371,0
1555615518.961,46.387,52.734,29.785,27.832,58.105,0
1555615518.965,-49.805,39.551,24.414,16.113,42.480,0
1555615518.969,-7.812,20.996,35.645,19.531,49.316,0
1555615518.973,104.492,24.902,37.109,32.715,20.020,0
1555615518.977,99.609,35.645,29.785,28.320,46.387,0
1555615518.981,-3.906,34.668,20.508,19.043,49.316,0
1555615518.985,-11.719,39.062,21.973,15.137,-38.086,0
1555615518.988,83.496,44.434,20.508,17.090,16.602,0
1555615518.992,97.168,35.645,13.184,23.926,28.320,0
1555615518.996,4.883,45.410,2.930,31.250,24.414,1
1555615519.000,-46.875,52.246,23.438,14.160,51.758,0
1555615519.004,41.016,38.086,42.480,11.230,22.949,0
1555615519.005,101.562,36.133,32.227,22.461,40.039,0
1555615519.009,23.926,38.574,35.156,19.531,56.152,0
1555615519.013,-48.828,36.621,33.691,8.301,52.246,0
1555615519.017,15.625,38.574,29.785,10.742,96.680,0
1555615519.021,102.539,19.531,21.973,23.926,85.449,0
1555615519.025,64.941,13.184,9.277,29.297,12.207,0
1555615519.029,-20.996,38.086,18.555,30.273,-0.977,0
1555615519.032,-0.488,14.160,26.367,18.555,28.320,0
1555615519.036,96.191,-8.301,25.879,30.762,39.551,0
1555615519.040,86.426,24.414,16.602,32.227,28.809,0
1555615519.044,-17.090,58.105,12.207,18.555,21.973,0
1555615519.048,-19.531,69.824,27.344,31.738,2.441,0
1555615519.050,77.148,41.016,33.203,38.574,-13.184,0
1555615519.054,101.562,14.160,31.250,31.250,17.090,0
1555615519.058,14.648,41.016,38.574,24.902,22.461,0
1555615519.062,-50.781,54.688,35.645,15.137,40.039,0
1555615519.066,18.555,33.691,21.484,6.836,40.527,0
1555615519.070,101.562,24.902,31.250,31.738,1.953,0
1555615519.074,42.969,41.016,43.457,45.898,5.859,0
1555615519.077,-48.340,47.363,42.480,17.090,32.715,0
1555615519.081,10.742,36.621,34.668,13.672,55.664,0
1555615519.085,94.727,25.879,9.277,28.320,6.348,0
1555615519.089,52.734,33.203,-6.348,5.371,27.832,0
1555615519.093,-30.762,48.828,20.996,-1.953,49.805,0
1555615519.095,-11.719,35.645,43.945,13.184,52.734,0
1555615519.099,74.219,12.695,27.832,20.020,33.691,0
1555615519.103,77.637,9.277,18.066,19.043,13.672,0
1555615519.107,-5.371,25.879,35.645,21.484,40.527,0
1555615519.111,-42.969,47.852,35.156,16.113,30.273,0
1555615519.115,41.016,62.012,34.180,15.625,30.273,0
1555615519.119,97.168,58.594,37.109,33.203,32.227,0
1555615519.122,25.391,60.547,31.738,42.480,41.504,0
1555615519.126,-43.457,48.340,25.879,31.738,42.969,0
1555615519.130,39.551,17.578,19.043,28.809,42.480,0
1555615519.134,125.488,29.297,24.414,47.363,45.898,0
1555615519.138,58.594,24.902,27.832,39.551,47.852,0
1555615519.140,-33.691,20.996,21.973,20.508,23.438,0
1555615519.144,4.395,47.363,11.719,22.461,18.555,0
1555615519.148,92.285,53.711,25.879,25.391,63.965,0
1555615519.152,71.289,52.246,41.992,32.715,90.820,0
1555615519.156,-21.484,44.434,33.203,29.297,45.410,0
1555615519.160,-16.113,18.066,31.738,21.484,-30.273,0
1555615519.164,92.285,13.184,31.250,28.320,13.184,0
1555615519.167,108.398,40.527,3.418,24.414,48.828,0
1555615519.171,-13.184,47.852,-5.371,8.301,62.012,0
1555615519.175,-55.176,56.152,32.227,10.742,18.066,0
1555615519.179,34.668,58.594,33.203,11.719,-23.438,0
1555615519.183,86.426,41.016,16.113,14.160,9.766,0
1555615519.186,9.766,38.086,15.625,24.902,31.738,0
1555615519.190,-77.148,26.855,-2.930,20.020,70.312,0
1555615519.194,13.184,22.949,27.344,12.207,110.840,0
1555615519.198,103.516,27.832,69.336,21.484,54.199,0
1555615519.202,37.109,22.949,54.688,24.902,4.883,0
1555615519.206,-43.457,27.832,36.621,20.508,48.340,0
1555615519.210,-14.160,29.785,32.715,15.137,55.176,0
1555615519.213,64.941,38.086,34.668,19.043,3.418,0
1555615519.217,68.359,35.156,27.832,32.715,-9.277,0
1555615519.221,-15.137,35.156,18.555,33.691,30.273,0
1555615519.225,-24.902,36.621,25.879,20.996,10.742,0
1555615519.229,69.336,38.086,22.461,20.996,-0.488,0
1555615519.231,103.516,48.828,26.367,40.527,52.246,0
1555615519.235,20.996,54.199,39.551,57.129,41.016,0
1555615519.239,-29.297,54.199,26.855,46.387,22.949,0
1555615519.243,47.363,28.320,47.363,24.902,12.207,0
1555615519.247,101.074,22.949,62.988,24.414,6.348,0
1555615519.251,31.738,28.809,27.344,17.578,68.359,0
1555615519.255,-47.363,34.180,14.648,19.043,72.266,0
1555615519.258,-1.465,45.410,38.086,21.973,6.836,0
1555615519.262,90.332,37.109,44.434,31.738,37.109,0
1555615519.266,69.336,28.320,44.434,50.781,65.918,0
1555615519.270,-36.621,31.738,42.969,33.691,27.344,0
1555615519.274,-23.438,36.133,33.203,23.438,-7.324,0
1555615519.276,84.961,41.992,5.371,42.480,14.648,0
1555615519.280,81.055,35.156,7.324,34.668,46.875,0
1555615519.284,-21.484,37.598,29.785,21.484,33.691,0
1555615519.288,-26.855,47.852,36.133,28.320,9.277,0
1555615519.292,78.613,39.062,48.828,29.297,-10.742,0
1555615519.296,106.445,30.762,45.898,33.203,28.320,0
1555615519.300,8.789,32.715,31.738,29.785,44.434,0
1555615519.303,-51.758,40.527,19.531,15.625,17.578,0
1555615519.307,31.250,58.594,34.180,20.020,11.230,0
1555615519.311,110.352,49.316,26.367,40.039,11.230,0
1555615519.315,39.062,30.762,8.789,40.527,44.922,0
1555615519.319,-64.453,41.504,28.320,22.461,35.645,0
1555615519.336,0.488,54.688,46.387,16.602,-0.977,0
1555615519.340,100.098,56.152,36.133,22.949,-32.227,0
1555615519.344,62.500,41.016,18.555,27.344,-11.230,0
1555615519.348,-36.621,27.344,24.414,11.719,37.598,0
1555615519.352,-6.836,28.320,38.086,7.324,13.672,0
1555615519.356,107.910,31.250,54.199,29.785,-7.812,0
1555615519.360,96.680,33.203,41.992,34.180,49.805,0
1555615519.363,-23.926,35.645,20.020,12.695,-22.949,0
1555615519.367,-29.297,46.875,19.043,17.090,-19.531,0
1555615519.371,82.520,58.594,14.160,33.691,75.195,0
1555615519.375,111.328,42.969,15.625,37.598,35.645,0
1555615519.379,13.672,17.578,31.250,35.156,50.781,0
1555615519.381,-58.594,5.859,35.645,17.578,49.805,0
1555615519.385,20.996,36.133,32.715,13.184,51.758,0
1555615519.389,96.680,60.547,28.809,36.133,97.168,0
1555615519.393,26.855,54.688,20.996,15.625,48.828,0
1555615519.397,-58.105,51.758,34.180,-2.441,54.688,0
1555615519.401,4.883,32.227,35.156,13.184,97.656,0
1555615519.405,111.328,24.414,33.691,25.391,68.848,0
1555615519.408,83.008,46.387,37.598,33.691,-15.625,0
1555615519.412,-24.902,40.527,35.156,17.090,-4.883,0
1555615519.416,-16.602,28.809,34.668,12.207,75.684,0
1555615519.420,84.473,42.480,28.809,32.715,72.754,0
1555615519.424,103.027,37.109,20.508,38.574,52.246,0
1555615519.426,-1.953,23.926,7.812,23.438,27.344,0
1555615519.430,-46.875,39.062,16.602,15.137,39.551,0
1555615519.434,62.012,49.316,39.062,22.949,53.711,0
1555615519.438,120.117,44.922,43.945,43.945,18.066,0
1555615519.442,24.902,30.762,36.133,34.668,18.555,0
1555615519.446,-44.434,21.484,36.621,14.648,40.039,0
1555615519.450,21.484,35.156,34.668,18.066,20.020,0
1555615519.453,87.891,44.922,24.414,19.043,20.020,0
1555615519.457,36.133,54.199,32.227,19.043,34.180,0
1555615519.461,-44.434,45.410,27.832,20.020,6.348,0
1555615519.465,-11.719,29.785,13.672,21.484,-21.973,0
1555615519.469,91.309,22.461,30.273,32.227,-5.859,0
1555615519.471,85.938,14.648,36.133,38.086,36.133,0
1555615519.475,-15.137,23.926,30.762,29.785,58.105,0
1555615519.479,-19.531,34.180,35.156,16.602,46.387,0
1555615519.483,63.965,20.020,39.062,13.672,42.969,0
1555615519.487,77.637,19.043,48.828,22.461,32.227,0
1555615519.491,-5.371,36.133,24.902,18.555,44.922,0
1555615519.495,-47.363,31.250,-3.418,11.230,57.129,0
1555615519.498,33.691,45.410,20.996,14.160,30.273,0
1555615519.502,100.586,55.664,34.180,14.160,38.574,0
1555615519.506,40.039,51.758,28.320,20.996,6.836,0
1555615519.510,-59.082,49.805,28.320,16.113,-9.277,0
1555615519.514,-17.090,43.945,38.574,10.742,31.738,0
1555615519.516,73.730,46.387,32.715,13.184,-6.348,0
1555615519.520,47.363,43.457,29.297,14.648,15.137,0
1555615519.524,-38.086,9.766,40.527,20.020,85.449,0
1555615519.528,-26.367,7.812,23.438,20.020,88.379,0
1555615519.532,75.195,29.297,19.531,30.273,35.645,0
1555615519.536,78.613,43.945,28.320,27.832,44.434,0
1555615519.540,-28.809,39.551,16.602,13.672,58.105,0
1555615519.543,-31.738,25.879,17.578,15.625,12.695,0
1555615519.547,68.359,37.109,14.160,26.855,15.625,0
1555615519.551,94.727,26.367,19.531,27.344,33.691,0
1555615519.555,23.438,17.090,39.062,17.090,9.277,0
1555615519.559,-48.340,46.387,35.645,7.812,-7.324,0
1555615519.561,21.484,64.453,25.879,19.531,60.059,0
1555615519.565,95.215,48.340,24.414,28.320,69.824,0
1555615519.569,30.273,38.086,19.531,23.438,42.969,0
1555615519.573,-54.688,42.480,19.531,16.602,63.477,0
1555615519.577,-0.977,30.273,24.414,17.090,53.711,0
1555615519.581,102.539,30.762,22.461,37.109,27.344,0
1555615519.585,63.965,41.016,32.227,36.133,74.707,0
1555615519.588,-48.828,29.297,22.461,14.648,36.621,0
1555615519.592,-26.855,35.645,12.207,16.602,35.156,0
1555615519.596,82.031,20.020,21.484,27.832,29.297,0
1555615519.600,77.637,17.090,21.484,15.137,-6.836,0
1555615519.604,-34.668,51.270,23.438,4.395,15.137,0
1555615519.606,-55.664,49.805,27.832,3.418,-13.184,0
1555615519.610,57.617,30.762,38.574,16.113,-7.812,0
1555615519.614,104.980,23.438,24.902,31.738,3.906,0
1555615519.618,23.926,20.508,6.836,19.043,-23.438,0
1555615519.622,-38.086,18.066,21.484,0.000,4.395,0
1555615519.626,34.180,35.156,26.367,15.137,41.504,0
1555615519.630,118.652,45.410,39.062,38.086,45.410,0
1555615519.633,52.734,46.387,44.434,25.391,51.270,0
1555615519.637,-49.316,50.293,36.133,10.254,6.348,0
1555615519.641,-5.859,50.781,29.297,12.207,19.043,0
1555615519.645,72.754,38.086,14.160,13.184,52.246,0
1555615519.649,48.340,4.883,18.066,1.465,36.133,0
1555615519.651,-35.645,5.371,24.902,8.301,23.438,0
1555615519.655,-25.879,29.297,33.203,26.855,-17.578,0
1555615519.659,72.266,34.668,30.762,21.484,9.766,0
1555615519.663,81.055,36.621,12.695,15.137,59.082,0
1555615519.667,-20.020,36.133,14.160,9.277,57.129,0
1555615519.671,-51.758,40.527,23.438,5.859,37.598,0
1555615519.675,43.945,54.199,21.484,13.184,46.387,0
1555615519.678,99.609,36.133,32.715,12.207,60.059,0
1555615519.682,34.668,19.043,49.316,21.973,41.504,0
1555615519.686,-38.086,37.598,29.297,19.043,-11.230,0
1555615519.690,23.926,39.551,13.184,25.391,-4.395,0
1555615519.694,105.469,35.156,15.137,41.504,9.766,0
1555615519.711,51.758,44.922,18.555,16.113,54.688,0
1555615519.715,-22.949,61.523,33.691,12.695,73.242,0
1555615519.719,6.836,62.988,18.066,18.066,73.730,0
1555615519.723,86.426,42.480,0.977,17.090,44.434,0
1555615519.727,87.402,34.668,17.578,26.367,4.395,0
1555615519.731,-9.766,30.762,41.016,25.391,35.156,0
1555615519.735,-26.855,15.625,43.945,24.414,5.859,0
1555615519.738,77.637,34.180,40.039,39.062,15.625,0
1555615519.742,100.098,58.594,43.457,36.621,30.273,0
1555615519.746,-5.859,45.898,25.879,16.602,33.691,0
1555615519.750,-58.105,34.180,16.602,9.277,58.105,0
1555615519.754,29.785,40.039,25.391,9.277,45.410,0
1555615519.756,91.797,36.621,26.367,7.324,8.301,0
1555615519.760,19.043,25.879,20.508,11.719,11.719,0
1555615519.764,-56.641,16.602,23.926,26.855,-7.812,0
1555615519.768,2.441,31.738,32.715,19.531,-49.316,0
1555615519.772,97.168,58.105,27.832,15.625,12.695,0
1555615519.776,47.852,49.805,19.531,17.578,73.730,0
1555615519.780,-60.547,24.414,28.809,9.766,0.488,0
1555615519.783,-26.367,22.949,31.250,20.020,-15.137,0
1555615519.787,74.707,38.086,22.949,23.926,-21.973,0
1555615519.791,73.242,32.715,22.949,13.184,-33.203,0
1555615519.795,-11.230,43.457,35.645,12.695,-5.371,0
1555615519.799,-32.715,28.320,26.367,18.066,24.902,0
1555615519.801,59.082,1.953,18.555,15.137,91.309,0
1555615519.805,110.352,22.949,40.039,13.672,72.266,0
1555615519.809,20.020,35.156,49.316,30.273,55.176,0
1555615519.813,-41.016,56.641,37.598,29.785,37.109,0
1555615519.817,41.504,67.383,22.949,21.973,7.812,0
1555615519.821,105.469,61.523,20.996,26.367,50.293,0
1555615519.825,48.340,47.852,28.809,22.949,50.781,0
1555615519.828,-51.758,28.809,34.668,17.578,22.949,0
1555615519.832,-7.812,18.555,28.320,14.648,19.531,0
1555615519.836,99.609,29.297,37.598,26.367,42.480,0
1555615519.840,68.848,56.152,23.926,34.180,81.055,0
1555615519.844,-15.137,64.453,21.484,26.855,96.191,0
1555615519.846,17.578,56.641,63.477,24.902,49.316,0
1555615519.850,82.031,29.297,60.059,23.926,37.109,0
1555615519.854,68.359,21.973,47.363,20.020,36.621,0
1555615519.858,-25.879,30.762,23.926,2.441,-23.438,0
1555615519.862,-44.434,41.016,14.160,2.930,26.855,0
1555615519.866,58.594,65.918,30.273,28.320,8.301,0
1555615519.870,70.312,68.359,35.645,-3.418,20.508,0
1555615519.873,-29.785,56.641,30.273,-43.457,80.566,0
1555615519.877,-63.965,53.223,26.367,-18.555,55.176,0
1555615519.881,29.297,39.062,6.836,4.883,27.832,0
1555615519.885,96.680,29.785,16.113,7.324,35.156,0
1555615519.889,41.992,45.410,42.969,10.254,35.156,0
1555615519.891,-32.715,48.340,20.996,14.648,62.500,0
1555615519.895,8.301,18.066,21.973,22.461,97.168,0
1555615519.899,91.797,14.648,41.016,22.461,74.707,0
1555615519.903,68.359,41.016,28.809,10.742,40.039,0
1555615519.907,-29.297,45.410,15.137,7.812,18.555,0
1555615519.911,-16.113,51.270,10.742,16.113,2.930,0
1555615519.915,87.891,55.664,17.578,30.762,23.926,0
1555615519.918,105.469,26.367,33.691,43.945,60.059,0
1555615519.922,8.789,25.391,29.785,33.691,60.547,0
1555615519.926,-27.344,44.922,30.762,17.090,32.227,0
1555615519.930,67.383,31.738,32.227,28.320,15.625,0
1555615519.934,113.281,39.551,28.320,37.598,13.184,0
1555615519.936,20.508,41.016,39.062,30.762,50.781,0
1555615519.940,-59.082,14.160,28.320,17.578,43.945,0
1555615519.944,22.461,19.531,15.625,19.531,15.625,0
1555615519.948,106.445,41.016,24.902,27.832,24.902,0
1555615519.952,52.246,52.246,40.039,26.855,12.695,0
1555615519.956,-31.738,45.898,20.996,29.785,24.902,0
1555615519.960,15.137,36.133,0.488,45.410,70.312,0
1555615519.963,118.164,25.391,23.438,45.898,74.219,0
1555615519.967,83.496,20.020,39.062,25.879,17.090,0
1555615519.971,-38.574,19.043,37.109,9.766,11.719,0
1555615519.975,-38.086,9.766,24.902,9.766,37.598,0
1555615519.979,75.195,24.414,8.301,35.156,35.156,0
1555615519.981,97.168,40.527,23.438,36.133,64.453,0
1555615519.985,-3.418,37.598,39.062,22.461,51.758,0
1555615519.989,-53.223,37.598,20.020,26.855,34.180,0
1555615519.993,39.551,27.832,19.043,26.367,50.293,0
1555615519.997,95.703,17.090,28.809,18.066,41.992,0
1555615520.001,11.230,14.160,38.086,7.324,-17.578,0
1555615520.005,-70.312,9.277,34.180,-7.324,-32.227,0
1555615520.008,-18.066,31.250,18.555,-1.953,-4.395,0
1555615520.012,89.844,45.410,28.320,23.438,1.465,0
1555615520.016,63.477,32.227,33.203,24.902,-7.812,0
1555615520.020,-58.105,30.273,33.691,0.977,-1.465,0
1555615520.024,-28.809,35.156,37.598,9.277,12.695,0
1555615520.026,82.031,31.738,42.969,23.438,7.324,0
1555615520.030,81.543,41.504,35.645,21.973,6.836,0
1555615520.034,-25.879,39.551,38.574,12.207,4.883,2
1555615520.038,-52.246,32.715,41.016,21.973,11.230,0
1555615520.042,41.504,41.016,28.320,27.344,32.715,0
1555615520.046,77.637,47.852,26.367,18.066,33.691,0
1555615520.050,-3.906,35.645,23.926,9.277,13.672,0
1555615520.053,-55.664,25.879,37.109,13.184,-26.367,0
1555615520.057,36.621,29.785,47.363,18.066,11.719,0
1555615520.061,103.516,28.320,36.621,15.625,36.621,0
1555615520.065,23.438,35.645,36.133,14.648,16.602,0
1555615520.069,-64.941,38.574,25.391,-1.953,48.828,0
1555615520.085,9.277,31.250,23.926,7.324,59.082,0
1555615520.089,114.258,50.781,43.945,48.828,78.125,0
1555615520.093,47.363,54.199,42.480,21.973,54.688,0
1555615520.097,-67.871,28.320,31.250,-12.207,26.855,0
1555615520.101,-30.762,37.598,37.598,4.395,68.848,0
1555615520.105,80.566,52.246,40.039,5.859,57.617,0
1555615520.109,81.055,29.785,29.297,4.395,22.461,0
1555615520.112,-17.578,20.020,20.020,-1.953,38.086,0
1555615520.116,-42.480,22.949,22.949,-0.977,50.781,0
1555615520.120,71.777,32.715,39.062,22.461,60.059,0
1555615520.124,117.676,25.391,30.762,23.438,35.645,0
1555615520.128,18.066,37.598,23.926,27.832,4.395,0
1555615520.131,-45.410,62.500,29.297,31.250,32.715,0
1555615520.135,30.273,38.574,29.297,15.625,22.949,0
1555615520.139,116.211,40.039,31.250,22.949,20.508,0
1555615520.143,51.758,35.156,35.645,24.902,51.270,0
1555615520.147,-27.832,16.113,39.551,33.691,48.340,0
1555615520.151,26.855,32.715,30.762,47.363,26.367,0
1555615520.155,102.539,36.133,24.414,36.133,-12.695,0
1555615520.158,78.125,39.062,29.785,31.250,-7.812,0
1555615520.162,-16.602,63.477,32.227,24.414,-8.301,0
1555615520.166,-4.883,65.430,25.391,22.461,4.883,0
1555615520.170,114.258,38.574,45.898,42.969,58.105,0
1555615520.174,108.887,33.203,48.340,44.434,38.086,0
1555615520.176,-14.160,44.434,26.367,24.902,71.777,0
1555615520.180,-44.922,49.316,23.926,20.020,101.074,0
1555615520.184,52.734,40.039,32.715,13.184,50.293,0
1555615520.188,103.516,30.273,32.715,20.508,63.477,0
1555615520.192,33.691,35.156,32.715,40.039,68.848,0
1555615520.196,-33.691,41.504,41.992,33.203,22.461,0
1555615520.200,21.973,30.762,29.785,22.461,40.527,0
1555615520.203,115.234,31.250,36.621,34.668,17.578,0
1555615520.207,67.871,36.133,44.434,35.645,-14.160,0
1555615520.211,-54.199,41.504,31.250,15.137,-10.742,0
1555615520.215,-3.418,50.781,39.551,29.297,15.137,0
1555615520.219,111.328,41.992,43.945,53.711,35.156,0
1555615520.220,87.402,48.340,29.297,37.598,13.184,0
1555615520.224,-30.762,45.898,27.832,12.207,-6.348,0
1555615520.228,-43.945,35.156,25.879,6.348,-29.297,0
1555615520.232,77.637,35.645,17.578,29.785,-27.344,0
1555615520.236,108.398,16.602,22.461,32.227,11.230,0
1555615520.240,13.184,15.137,15.137,28.809,27.344,0
1555615520.244,-28.809,49.805,8.301,49.316,52.246,0
1555615520.247,52.734,44.434,29.785,43.457,13.184,0
1555615520.251,103.516,35.645,45.410,36.133,21.973,0
1555615520.255,33.691,36.621,42.969,29.785,43.945,0
1555615520.259,-42.969,22.949,31.250,20.996,27.344,0
1555615520.263,24.902,41.504,25.879,34.180,0.977,0
1555615520.266,124.512,53.223,38.574,37.598,51.758,0
1555615520.270,79.102,58.594,40.039,26.367,93.262,0
1555615520.274,-39.551,60.059,38.086,20.996,41.992,0
1555615520.278,-21.484,49.316,37.109,12.207,31.250,0
1555615520.282,84.961,53.223,20.508,20.020,39.551,0
1555615520.286,80.566,50.293,15.137,24.902,26.367,0
1555615520.290,-34.668,34.668,24.414,7.812,18.555,0
1555615520.293,-49.316,33.203,28.809,14.160,81.543,0
1555615520.297,66.895,23.926,29.785,28.809,94.238,0
1555615520.301,103.516,19.043,37.598,31.738,25.391,0
1555615520.305,3.418,39.551,34.668,19.043,-19.043,0
1555615520.309,-53.223,54.199,13.672,-3.906,0.000,0
1555615520.311,43.945,48.828,13.672,9.277,60.059,0
1555615520.315,109.375,41.504,37.598,23.438,44.922,0
1555615520.319,43.945,51.758,51.270,28.320,36.621,0
1555615520.323,-39.062,50.293,58.594,27.344,70.801,0
1555615520.327,-3.906,30.762,50.781,17.578,54.688,0
1555615520.331,100.098,16.602,14.648,27.832,44.922,0
1555615520.335,75.195,28.320,17.578,17.578,20.020,0
1555615520.338,-36.133,45.898,41.992,7.324,-17.578,0
1555615520.342,-14.160,41.504,35.156,30.273,0.488,0
1555615520.346,107.910,32.227,27.344,52.734,32.715,0
1555615520.350,120.605,44.922,38.574,53.711,49.316,0
1555615520.354,1.953,53.711,34.180,27.344,9.766,0
1555615520.356,-42.480,41.504,31.738,10.742,8.789,0
1555615520.360,61.035,40.039,34.668,28.320,65.918,0
1555615520.364,122.070,41.504,26.855,37.598,99.609,0
1555615520.368,29.297,34.180,34.668,28.320,70.312,0
1555615520.372,-43.945,20.508,42.969,21.973,38.086,0
1555615520.376,40.527,40.527,41.016,29.785,35.645,0
1555615520.380,126.953,66.406,32.227,42.480,22.949,0
1555615520.383,69.336,44.434,28.320,40.039,52.734,0
1555615520.387,-32.227,26.855,18.555,27.344,55.176,0
1555615520.391,13.672,38.574,34.668,40.527,40.039,0
1555615520.395,125.000,54.688,44.434,61.035,12.695,0
1555615520.399,92.773,60.547,37.598,52.734,15.625,0
1555615520.416,-20.996,46.387,44.922,47.852,32.715,0
1555615520.420,-14.160,45.410,39.062,33.203,-29.297,0
1555615520.424,98.633,52.734,31.250,34.180,-8.789,0
1555615520.428,119.141,42.480,30.273,48.828,1.953,0
1555615520.432,25.879,26.855,20.996,41.504,39.551,0
1555615520.436,-17.578,32.227,36.621,33.691,64.941,0
1555615520.440,62.988,47.363,41.504,36.133,3.906,0
1555615520.443,128.418,48.828,33.203,51.758,45.410,0
1555615520.447,41.504,42.969,59.082,57.129,48.340,0
1555615520.451,-52.246,31.250,61.523,20.508,11.230,0
1555615520.455,17.578,28.320,45.410,16.113,13.672,0
1555615520.459,114.746,44.922,38.574,34.668,36.621,0
1555615520.461,62.012,34.668,43.457,26.367,-18.555,0
1555615520.465,-49.805,35.645,41.016,26.855,-20.996,0
1555615520.469,-6.348,40.039,29.297,33.203,7.324,0
1555615520.473,110.840,31.250,23.926,34.668,58.105,0
1555615520.477,98.145,46.387,18.066,35.645,81.055,0
1555615520.481,-17.578,46.387,20.508,24.902,48.828,0
1555615520.485,-36.133,22.949,31.738,20.508,76.660,0
1555615520.488,76.172,29.297,32.715,42.969,86.914,0
1555615520.492,113.281,61.523,46.387,49.316,14.160,0
1555615520.496,13.672,48.340,56.152,27.832,-6.836,0
1555615520.500,-47.363,30.762,48.828,16.602,40.527,0
1555615520.504,42.480,45.898,38.086,24.414,4.395,0
1555615520.506,112.305,35.645,20.020,36.621,-25.879,0
1555615520.510,49.316,20.020,14.160,41.992,41.016,0
1555615520.514,-19.531,23.926,29.785,47.363,49.316,0
1555615520.518,34.180,50.293,51.270,40.039,35.645,0
1555615520.522,117.676,56.152,47.363,42.480,34.668,0
1555615520.526,69.336,34.668,34.180,45.898,1.465,0
1555615520.530,-19.043,33.691,25.879,28.809,30.273,0
1555615520.533,9.277,41.992,31.738,20.020,52.246,0
1555615520.537,97.656,54.688,39.062,28.809,36.621,0
1555615520.541,91.797,36.133,30.273,32.227,41.504,0
1555615520.545,-5.859,30.273,32.227,27.832,21.484,0
1555615520.549,-24.414,49.805,36.621,24.414,13.184,0
1555615520.551,62.012,30.273,21.973,22.949,46.875,0
1555615520.555,100.098,13.672,9.766,23.438,36.133,0
1555615520.559,15.137,40.039,31.738,23.926,10.742,0
1555615520.563,-53.711,45.898,43.457,20.020,0.977,0
1555615520.567,34.668,33.203,35.645,23.438,17.578,0
1555615520.571,109.863,35.645,37.109,31.738,33.691,0
1555615520.575,51.758,31.738,28.809,35.645,22.949,0
1555615520.578,-29.785,23.926,18.555,21.484,44.922,0
1555615520.582,16.602,19.043,28.809,18.066,61.035,0
1555615520.586,101.562,18.066,32.715,29.297,52.246,0
1555615520.590,67.871,36.133,39.062,21.484,54.688,0
1555615520.594,-31.738,47.363,32.227,11.719,43.945,0
1555615520.596,-19.531,34.180,11.230,19.531,41.016,0
1555615520.600,72.754,30.273,11.719,23.438,37.598,0
1555615520.604,79.102,39.062,20.996,21.484,-12.695,0
1555615520.608,-23.926,37.109,31.250,19.531,18.066,0
1555615520.612,-43.457,12.207,47.363,16.602,39.551,0
1555615520.616,68.848,3.906,36.133,16.602,32.227,0
1555615520.620,106.934,36.133,30.273,19.043,23.438,0
1555615520.623,24.414,56.641,41.992,19.043,-21.973,0
1555615520.627,-48.340,48.340,14.160,0.488,42.480,0
1555615520.631,17.090,34.180,1.465,-6.348,52.246,0
1555615520.635,84.473,31.738,17.090,7.812,9.277,0
1555615520.639,20.020,26.855,23.926,6.836,19.531,0
1555615520.641,-59.570,28.809,25.879,-1.465,21.973,0
1555615520.645,-9.277,33.203,21.484,5.371,27.344,0
1555615520.649,85.449,11.230,13.184,29.297,32.227,0
1555615520.653,72.266,5.859,16.602,36.621,38.574,0
1555615520.657,-28.320,31.738,6.348,22.461,41.992,0
1555615520.661,-13.672,58.105,19.531,17.090,12.207,0
1555615520.665,91.309,52.246,46.387,28.320,25.879,0
1555615520.668,89.844,40.039,39.062,29.785,51.758,0
1555615520.672,-17.578,40.527,31.738,8.789,35.645,0
1555615520.676,-66.406,32.227,24.902,-2.441,45.898,0
1555615520.680,20.508,13.184,12.695,7.324,67.383,0
1555615520.684,95.703,11.230,15.625,14.160,-3.906,0
1555615520.687,24.902,31.738,26.367,1.465,-20.020,0
1555615520.691,-60.547,51.270,28.809,-2.441,31.250,0
1555615520.695,7.812,51.270,26.367,8.789,22.949,0
1555615520.699,100.098,31.250,29.297,15.625,69.336,0
1555615520.703,57.129,25.391,29.297,31.250,81.055,0
1555615520.707,-47.363,35.645,33.203,15.625,55.176,0
1555615520.711,-11.230,20.020,26.367,12.207,54.688,0
1555615520.714,96.680,-23.926,14.160,24.902,62.500,0
1555615520.718,76.172,6.348,18.555,10.742,49.805,0
1555615520.722,-36.133,63.477,22.461,9.766,41.016,0
1555615520.726,-50.781,63.965,30.762,12.207,64.941,0
1555615520.730,68.848,47.363,39.062,7.812,64.453,0
1555615520.731,90.332,41.016,34.180,13.672,40.527,0
1555615520.735,-27.832,38.574,34.180,3.906,59.082,0
1555615520.739,-54.688,39.551,33.691,15.625,63.477,0
1555615520.743,49.805,14.648,31.250,38.574,56.152,0
1555615520.747,116.699,9.277,39.062,35.156,13.184,0
1555615520.751,58.105,40.527,31.738,30.273,22.461,0
1555615520.755,-34.668,39.551,7.812,12.695,88.379,0
1555615520.758,7.324,41.504,12.207,3.418,25.391,0
1555615520.762,94.238,49.316,30.273,17.090,-60.059,0
1555615520.766,64.453,59.082,25.879,25.879,5.371,0
1555615520.770,-30.762,44.434,18.066,35.645,40.527,0
1555615520.774,-8.301,15.625,18.555,28.809,19.531,0
1555615520.776,104.492,26.367,26.367,21.973,15.625,0
1555615520.780,102.539,43.945,31.738,27.344,36.621,0
1555615520.784,-1.953,47.363,32.715,21.484,65.918,0
1555615520.788,-37.109,42.480,41.992,15.137,46.387,0
1555615520.792,64.453,40.527,34.668,27.344,18.555,0
1555615520.796,111.816,53.711,22.949,30.273,54.688,0
1555615520.800,2.930,58.594,24.902,12.207,35.156,0
1555615520.803,-48.340,41.016,38.086,5.859,-0.977,0
1555615520.807,61.035,26.367,45.898,17.578,20.508,0
1555615520.811,120.117,21.973,31.738,27.344,48.340,0
1555615520.815,40.527,31.738,21.484,18.555,42.969,0
1555615520.819,-52.246,31.738,17.090,12.695,-16.113,0
1555615520.836,1.465,21.484,28.320,15.137,60.059,0
1555615520.840,116.211,35.156,40.527,31.250,92.773,0
1555615520.844,86.914,50.781,30.762,25.879,21.973,0
1555615520.848,-38.086,41.504,31.250,4.395,67.871,0
1555615520.852,-29.297,44.434,25.879,21.973,70.801,0
1555615520.856,82.031,43.945,22.461,32.227,63.477,0
1555615520.860,97.168,29.297,29.785,26.855,52.734,0
1555615520.863,-1.465,34.668,25.879,19.531,47.852,0
1555615520.867,-38.574,42.969,29.297,12.695,41.504,0
1555615520.871,63.965,32.715,42.969,18.066,32.715,0
1555615520.875,124.023,31.738,50.781,38.574,62.012,0
1555615520.879,31.250,40.039,39.551,33.691,-8.789,0
1555615520.881,-52.246,42.480,15.625,8.789,-28.809,0
1555615520.885,24.902,50.293,6.836,0.488,33.203,0
1555615520.889,101.074,47.852,8.789,22.949,24.414,0
1555615520.893,36.621,34.180,17.578,28.320,35.645,0
1555615520.897,-41.992,34.180,20.020,7.324,21.973,0
1555615520.901,-3.906,35.156,21.973,13.672,-17.578,0
1555615520.905,89.844,28.809,31.250,22.949,-14.160,0
1555615520.908,68.848,42.480,32.227,12.695,-38.086,0
1555615520.912,-40.039,58.594,29.297,6.348,-15.137,0
1555615520.916,-33.691,50.293,23.438,16.602,51.758,0
1555615520.920,76.172,35.156,20.508,28.320,65.430,0
1555615520.924,98.633,37.598,22.461,30.762,15.137,0
1555615520.926,-9.277,32.715,24.902,16.602,14.160,0
1555615520.930,-40.527,37.109,34.180,9.277,10.742,0
1555615520.934,56.152,62.012,58.105,34.180,-7.324,0
1555615520.938,94.238,43.945,53.711,39.551,9.277,0
1555615520.942,18.066,22.461,23.438,17.090,84.961,0
1555615520.946,-49.805,30.762,9.766,14.160,66.406,0
1555615520.950,19.043,37.109,17.090,18.066,-12.207,0
1555615520.953,117.676,43.945,15.137,24.902,25.879,0
1555615520.957,88.379,42.969,23.926,30.273,67.871,0
1555615520.961,-24.414,38.574,40.039,14.160,52.734,0
1555615520.965,-16.113,24.414,25.879,14.160,66.406,0
1555615520.969,94.727,22.461,20.508,26.855,92.773,0
1555615520.971,95.703,50.293,36.133,20.996,35.645,0
1555615520.975,-22.461,59.570,41.016,0.488,39.062,0
1555615520.979,-37.109,45.410,34.668,2.441,17.090,0
1555615520.983,62.500,41.504,32.715,20.508,18.066,0
1555615520.987,88.867,41.016,39.551,32.227,41.504,0
1555615520.991,9.277,21.484,49.805,35.156,-9.277,0
1555615520.995,-60.547,19.531,41.016,7.324,4.395,0
1555615520.998,13.672,29.297,24.414,0.000,28.809,0
1555615521.002,83.008,32.227,17.578,7.324,52.734,0
1555615521.006,19.531,42.480,10.254,5.371,29.297,0
1555615521.010,-51.758,46.387,11.719,14.160,48.340,0
1555615521.014,23.438,24.902,36.133,18.066,40.527,0
1555615521.015,125.488,19.043,40.527,22.949,-39.551,0
1555615521.019,74.707,44.922,28.320,28.320,-38.086,0
1555615521.023,-32.227,52.734,39.551,19.531,64.941,0
1555615521.027,-16.113,33.203,44.922,14.160,97.168,0
1555615521.031,90.820,24.902,38.086,27.832,62.988,0
1555615521.035,89.844,29.297,39.551,26.855,54.199,0
1555615521.039,-8.789,30.762,35.156,25.391,78.613,0
1555615521.042,-21.973,12.695,8.789,29.785,56.641,0
1555615521.046,73.242,3.418,6.836,30.273,45.410,0
1555615521.050,105.957,45.898,33.203,35.645,92.773,0
1555615521.054,17.090,56.152,42.969,48.828,102.051,0
1555615521.058,-44.434,38.086,32.715,29.297,61.523,0
1555615521.060,42.969,39.062,32.715,16.602,8.789,0
1555615521.064,126.953,39.551,33.691,38.574,54.688,0
1555615521.068,62.500,55.664,40.039,40.527,45.898,0
1555615521.072,-44.922,46.875,49.316,15.625,8.301,0
1555615521.076,0.000,28.809,37.598,14.648,28.320,0
1555615521.080,99.121,50.781,21.484,27.344,15.137,0
1555615521.084,73.242,54.199,15.625,20.508,-3.418,0
1555615521.087,-40.039,28.809,25.879,7.324,-23.438,0
1555615521.091,-38.086,26.367,33.203,1.465,17.090,0
1555615521.095,76.172,31.250,32.715,20.020,33.691,0
1555615521.099,106.445,31.738,33.691,29.297,-15.625,0
1555615521.103,15.137,29.297,34.180,24.902,26.855,0
1555615521.105,-25.391,22.461,45.410,22.461,74.219,0
1555615521.109,56.152,25.391,39.551,37.109,70.312,0
1555615521.113,96.680,39.062,26.367,28.320,-0.977,0
1555615521.117,21.484,38.574,27.832,11.719,7.324,0
1555615521.121,-43.457,23.926,43.457,19.043,27.344,0
1555615521.125,11.719,31.250,31.250,18.066,-7.324,0
1555615521.129,97.168,37.598,19.043,31.250,-10.742,0
1555615521.132,62.500,51.270,31.738,29.297,5.371,0
1555615521.136,-44.922,52.246,20.020,9.277,23.438,0
1555615521.140,-10.742,46.387,24.414,10.742,27.832,0
1555615521.144,104.492,42.969,37.109,21.973,20.508,0
1555615521.148,97.168,24.414,22.461,21.484,21.973,0
1555615521.165,-34.180,35.645,20.508,7.324,52.734,0
1555615521.169,-43.945,50.293,40.527,1.465,39.551,0
1555615521.173,76.660,42.969,47.363,29.785,43.945,0
1555615521.177,88.867,36.621,40.527,24.414,2.441,0
1555615521.181,-21.973,37.109,46.875,-10.742,-62.500,0
1555615521.185,-64.941,26.367,46.387,-9.766,0.000,0
1555615521.189,37.598,29.297,33.691,18.555,63.965,0
1555615521.192,116.211,21.484,32.227,39.551,41.992,0
1555615521.196,44.922,21.973,45.898,33.203,25.879,0
1555615521.200,-51.270,37.109,35.645,12.207,29.297,0
1555615521.204,-1.465,33.203,11.719,6.348,24.414,0
1555615521.208,92.773,27.344,23.926,26.855,39.062,0
1555615521.210,62.012,29.297,44.922,25.391,75.195,0
1555615521.214,-39.551,39.062,42.969,18.555,45.898,0
1555615521.218,-22.461,32.227,17.578,23.438,45.898,0
1555615521.222,98.633,30.762,13.184,42.969,25.879,0
1555615521.226,94.727,33.203,35.156,38.574,-11.230,2
1555615521.230,-27.344,40.527,52.734,15.137,33.203,0
1555615521.234,-46.875,43.945,45.410,21.484,4.883,0
1555615521.237,74.707,19.043,39.551,39.062,-41.016,0
1555615521.241,119.141,5.859,36.621,31.250,10.254,0
1555615521.245,0.488,29.297,23.438,21.973,44.922,0
1555615521.249,-60.059,56.641,20.996,24.414,31.250,0
1555615521.253,30.762,62.500,11.719,19.531,37.598,0
1555615521.256,84.961,50.293,18.555,21.973,16.113,0
1555615521.260,20.996,33.691,31.738,14.160,49.805,0
1555615521.264,-52.246,26.855,36.621,4.883,54.199,0
1555615521.268,8.789,28.809,37.109,15.137,41.504,0
1555615521.272,106.934,24.414,29.785,29.785,59.570,0
1555615521.276,69.336,24.414,28.809,22.949,76.660,0
1555615521.280,-34.180,39.062,45.410,16.113,49.805,0
1555615521.283,-16.113,60.059,38.086,19.531,28.809,0
1555615521.287,81.543,58.105,18.066,34.668,11.719,0
1555615521.291,92.285,39.551,15.625,43.457,26.855,0
1555615521.295,-6.348,35.645,28.809,24.902,64.453,0
1555615521.299,-33.691,12.695,32.715,21.973,69.824,0
1555615521.301,76.172,-7.812,23.926,25.879,85.449,0
1555615521.305,113.770,19.043,37.109,33.203,14.160,0
1555615521.309,5.859,50.293,42.480,31.250,-23.926,0
1555615521.313,-63.477,58.594,40.039,21.973,25.391,0
1555615521.317,20.996,63.477,15.137,30.762,0.000,0
1555615521.321,106.445,39.551,9.277,39.062,-11.719,0
1555615521.325,52.246,33.203,55.176,31.250,33.203,0
1555615521.328,-45.410,54.199,56.152,15.137,23.926,0
1555615521.332,-5.859,38.574,24.902,15.137,63.965,0
1555615521.336,94.238,28.320,24.902,25.391,128.418,0
1555615521.340,78.125,23.438,25.879,22.949,68.848,0
1555615521.344,-14.160,30.762,24.902,39.062,31.738,0
1555615521.346,-3.418,43.945,30.762,43.945,88.379,0
1555615521.350,91.309,43.457,33.203,24.902,67.383,0
1555615521.354,104.004,23.438,35.156,22.949,10.254,0
1555615521.358,3.906,8.301,35.645,34.180,57.129,0
1555615521.362,-40.039,28.320,40.039,38.086,66.895,0
1555615521.366,58.594,42.969,32.715,41.504,32.227,0
1555615521.370,117.188,34.180,31.738,55.664,39.551,0
1555615521.373,33.691,38.574,40.039,47.852,-28.320,0
1555615521.377,-50.293,56.152,45.410,17.090,-42.480,0
1555615521.381,11.719,61.035,31.738,8.789,5.859,0
1555615521.385,113.770,44.922,22.949,24.902,44.434,0
1555615521.389,74.707,31.738,23.438,31.738,3.418,0
1555615521.391,-35.156,17.578,11.719,32.227,-20.996,0
1555615521.395,-7.812,-0.488,23.926,22.461,32.715,0
1555615521.399,99.609,27.344,49.316,28.320,35.156,0
1555615521.403,81.543,51.758,47.363,25.391,24.902,0
1555615521.407,-35.645,51.758,35.156,9.766,14.160,0
1555615521.411,-35.156,43.945,29.785,18.066,7.812,0
1555615521.415,89.355,36.133,37.598,26.855,-4.883,0
1555615521.418,108.398,38.574,39.551,13.184,39.551,0
1555615521.422,3.418,39.062,15.625,4.883,46.387,0
1555615521.426,-34.668,12.207,23.926,20.020,38.086,0
1555615521.430,51.758,18.555,40.527,28.320,60.547,0
1555615521.434,117.676,52.734,24.902,27.344,18.066,0
1555615521.436,34.668,60.547,38.574,25.879,54.688,0
1555615521.440,-63.477,43.457,39.551,22.461,55.176,0
1555615521.444,2.441,37.598,22.461,26.367,-16.113,0
1555615521.448,117.676,31.738,28.809,49.316,29.297,0
1555615521.452,95.215,16.602,40.527,54.199,47.363,0
1555615521.456,-29.297,9.766,26.367,26.367,51.270,0
1555615521.460,-20.996,23.438,29.297,21.973,38.086,0
1555615521.463,90.820,56.152,24.902,35.156,29.297,0
1555615521.467,84.473,61.035,9.766,34.668,72.266,0
1555615521.471,-21.973,55.664,29.297,21.484,69.336,0
1555615521.475,-35.156,41.504,45.898,22.461,22.461,0
1555615521.479,77.637,15.625,38.086,32.715,33.691,0
1555615521.481,125.488,20.020,44.922,37.598,62.012,0
1555615521.485,31.250,34.668,50.293,35.645,74.707,0
1555615521.489,-53.711,34.180,33.203,26.367,26.367,0
1555615521.493,33.203,41.504,21.484,17.090,49.316,0
1555615521.497,110.352,55.176,26.367,31.250,54.688,0
1555615521.501,42.480,34.180,19.531,38.086,0.488,0
1555615521.505,-34.180,0.000,6.836,17.578,7.324,0
1555615521.508,20.508,16.602,25.391,13.672,1.465,0
1555615521.512,106.445,42.480,28.320,15.625,26.367,0
1555615521.516,65.918,48.340,28.809,14.648,32.715,0
1555615521.520,-44.922,43.945,33.691,7.812,-2.930,0
1555615521.524,-20.996,36.621,23.926,8.789,-17.090,0
1555615521.526,80.078,44.434,20.508,23.438,4.395,0
1555615521.530,71.289,41.992,12.207,16.113,-14.160,0
1555615521.534,-23.438,40.039,10.742,1.465,-20.020,0
1555615521.538,-41.992,36.621,9.766,1.953,33.203,0
1555615521.542,65.430,23.438,3.418,16.602,89.355,0
1555615521.546,117.676,21.484,26.855,41.016,100.098,0
1555615521.550,13.184,37.598,28.320,27.832,35.156,0
1555615521.553,-59.082,50.293,15.137,14.160,-4.395,0
1555615521.557,28.809,49.805,21.484,20.996,53.223,0
1555615521.561,100.098,46.387,15.625,10.254,55.664,0
1555615521.565,39.062,31.250,18.066,8.301,8.301,0
1555615521.569,-37.598,20.508,24.414,5.371,-5.371,0
1555615521.586,19.043,20.508,24.902,20.996,3.418,0
1555615521.590,107.422,22.461,27.832,39.551,27.344,0
1555615521.594,83.984,39.062,34.668,27.832,29.785,0
1555615521.598,-11.230,54.688,34.668,20.508,73.242,0
1555615521.602,-19.043,45.410,29.297,14.160,84.961,0
1555615521.606,69.336,37.109,26.855,11.719,19.531,0
1555615521.610,87.402,51.270,18.066,25.879,58.105,0
1555615521.613,0.488,34.668,26.367,22.461,56.641,0
1555615521.617,-33.691,20.020,15.625,7.324,-23.438,0
1555615521.621,59.570,28.320,3.418,20.508,25.879,0
1555615521.625,108.887,22.461,29.785,38.574,62.500,0
1555615521.629,34.668,27.832,49.316,22.461,12.695,0
1555615521.631,-35.645,45.410,40.527,10.254,-25.879,0
1555615521.635,24.414,55.176,37.598,30.762,27.832,0
1555615521.639,109.375,29.297,43.945,33.203,95.215,0
1555615521.643,63.477,18.066,41.992,18.555,30.273,0
1555615521.647,-39.551,41.504,25.391,15.137,-19.531,0
1555615521.651,-3.906,37.598,11.719,21.973,-9.766,0
1555615521.655,85.938,30.273,26.855,26.855,-4.883,0
1555615521.658,63.477,35.645,39.551,13.672,30.762,0
1555615521.662,-25.879,36.133,24.414,4.883,27.832,0
1555615521.666,-35.645,45.898,21.973,9.277,27.344,0
1555615521.670,62.988,50.293,29.785,7.324,42.969,0
1555615521.674,88.379,37.598,30.273,14.160,46.387,0
1555615521.676,-0.977,25.879,39.551,18.555,30.762,0
1555615521.680,-50.781,26.855,22.949,9.766,13.184,0
1555615521.684,39.551,27.832,17.090,20.020,47.852,0
1555615521.688,117.676,34.180,41.016,28.320,78.125,0
1555615521.692,40.527,37.109,51.758,6.836,6.836,0
1555615521.696,-55.176,14.160,34.180,-6.348,26.855,0
1555615521.700,-0.488,9.766,30.273,6.348,56.641,0
1555615521.703,89.844,44.922,50.781,20.508,33.203,0
1555615521.707,41.504,51.270,45.410,14.648,40.527,0
1555615521.711,-66.406,47.852,32.227,5.371,54.199,0
1555615521.715,-31.250,53.711,48.828,5.371,54.199,0
1555615521.719,77.637,46.387,46.387,26.855,44.434,0
1555615521.721,72.754,37.598,16.113,25.879,50.781,0
1555615521.725,-35.645,11.230,10.254,-9.766,37.109,0
1555615521.729,-53.223,13.184,24.414,-10.742,10.254,0
1555615521.733,62.012,42.969,35.645,17.578,35.156,0
1555615521.737,97.168,42.969,36.133,17.090,36.133,0
1555615521.741,-2.930,36.133,38.574,10.742,33.203,0
1555615521.745,-59.082,47.363,35.156,-2.441,27.832,0
1555615521.748,22.949,33.691,25.879,-0.488,20.996,0
1555615521.752,94.238,21.484,31.738,20.996,26.367,0
1555615521.756,31.250,28.809,35.156,22.461,-2.930,0
1555615521.760,-53.711,21.484,22.461,9.766,60.059,0
1555615521.764,0.488,44.922,20.996,16.602,55.176,0
1555615521.781,91.797,53.711,42.480,27.344,21.484,0
1555615521.785,62.500,33.203,41.992,14.160,57.129,0
1555615521.789,-27.832,37.598,20.020,13.184,20.996,0
1555615521.793,-19.043,32.715,19.043,21.484,28.809,0
1555615521.797,82.520,40.039,31.250,17.578,20.020,0
1555615521.801,97.168,48.828,39.551,16.602,20.508,0
1555615521.805,-4.395,41.504,11.230,16.602,56.641,0
1555615521.808,-49.805,42.969,5.859,12.695,27.832,0
1555615521.812,49.805,46.875,43.457,42.480,0.977,0
1555615521.816,125.000,52.246,49.805,54.688,-10.254,0
1555615521.820,28.809,36.133,36.621,15.137,16.602,0
1555615521.824,-59.082,23.926,20.020,-12.695,63.477,0
1555615521.811,28.320,32.715,2.930,-6.836,46.387,0
1555615521.815,110.840,45.410,19.531,25.391,62.988,0
1555615521.819,49.316,51.270,35.156,26.367,56.641,0
1555615521.823,-37.109,45.898,17.090,16.113,52.246,0
1555615521.827,-1.953,46.387,3.906,19.043,34.668,0
1555615521.831,81.543,45.410,20.508,22.461,19.531,0
1555615521.835,64.941,47.363,41.016,18.066,10.254,0
1555615521.838,-25.391,49.805,36.621,17.090,-10.742,0
1555615521.842,-21.973,40.039,26.855,21.484,63.477,0
1555615521.846,83.008,41.992,25.391,16.602,84.961,0
1555615521.850,103.516,45.898,16.113,29.785,15.625,0
1555615521.854,-0.977,40.039,2.930,20.020,-6.836,0
1555615521.856,-43.945,24.902,16.113,11.230,29.297,0
1555615521.860,50.293,24.902,44.922,29.297,26.855,0
1555615521.864,90.332,34.668,51.270,36.133,-21.484,0
1555615521.868,24.902,27.344,42.969,23.438,13.672,0
1555615521.872,-41.504,3.906,25.391,8.789,30.762,0
1555615521.876,31.250,9.766,20.020,27.344,1.953,0
1555615521.880,121.094,46.387,32.715,39.551,4.883,0
1555615521.883,68.848,44.434,42.969,30.273,58.594,0
1555615521.887,-23.926,39.062,42.969,26.855,54.199,0
1555615521.891,-1.953,47.363,42.480,31.738,80.566,0
1555615521.895,94.238,51.758,52.246,44.434,95.215,0
1555615521.899,91.309,44.922,50.293,50.293,48.340,0
1555615521.901,-0.977,45.410,26.367,49.805,34.668,0
1555615521.905,-18.555,46.387,5.371,41.016,70.801,0
1555615521.909,73.242,31.738,27.344,43.457,61.523,0
1555615521.913,101.562,32.227,46.875,45.410,18.066,0
1555615521.917,5.859,30.762,44.434,34.668,-15.625,0
1555615521.921,-41.504,28.320,47.852,28.320,-11.230,0
1555615521.925,43.945,37.598,43.457,27.344,70.801,0
1555615521.928,105.469,41.504,32.227,35.156,68.359,0
1555615521.932,36.133,30.762,9.277,36.621,3.418,0
1555615521.936,-31.250,19.043,15.625,29.297,-4.883,0
1555615521.940,32.715,30.273,42.480,26.855,-26.855,0
1555615521.944,106.934,37.109,40.039,44.922,15.625,0
1555615521.961,68.848,37.109,41.504,53.711,76.172,0
1555615521.965,-30.273,54.688,41.016,32.227,53.711,0
1555615521.969,-14.648,53.223,35.156,13.672,62.500,0
1555615521.973,93.750,43.945,36.133,22.949,104.492,0
1555615521.977,103.027,47.852,37.598,38.574,98.145,0
1555615521.981,-4.883,43.457,27.832,25.879,38.086,0
1555615521.985,-35.156,40.039,27.344,20.508,29.785,0
1555615521.988,72.754,20.996,40.039,33.203,25.879,0
1555615521.992,104.492,24.414,38.574,29.785,15.137,0
1555615521.996,11.230,56.641,23.926,23.438,32.715,0
1555615522.000,-43.945,64.453,20.508,18.555,8.789,0
1555615522.004,46.875,58.105,27.344,18.066,-13.672,0
1555615522.006,117.188,37.598,30.273,20.020,16.113,0
1555615522.010,39.062,28.809,38.574,31.250,33.203,0
1555615522.014,-42.969,42.969,43.457,24.902,53.711,0
1555615522.018,1.953,49.316,38.574,8.789,66.406,0
1555615522.022,93.262,40.039,30.762,19.043,23.926,0
1555615522.026,64.941,26.367,22.949,20.508,-7.812,0
1555615522.030,-41.016,25.879,27.832,10.742,65.430,0
1555615522.033,-18.066,41.016,22.949,8.301,62.988,0
1555615522.037,86.426,51.270,20.508,24.902,17.090,0
1555615522.041,93.262,48.340,37.598,32.227,60.547,0
1555615522.045,-8.789,27.832,45.410,15.625,2.930,0
1555615522.049,-47.363,23.926,31.738,9.766,-42.480,0
1555615522.051,41.992,41.016,12.695,19.531,-9.766,0
1555615522.055,89.844,37.598,19.531,22.461,-7.812,0
1555615522.059,16.113,28.809,12.207,21.973,-9.277,0
1555615522.063,-44.922,33.691,-3.906,10.742,31.250,0
1555615522.067,12.207,37.598,10.742,14.160,88.379,0
1555615522.071,94.727,46.387,23.926,40.527,34.668,0
1555615522.075,47.363,48.340,16.113,36.621,11.230,0
1555615522.078,-47.363,31.738,24.414,10.742,39.551,0
1555615522.082,0.488,33.691,33.203,6.836,69.336,0
1555615522.086,100.098,32.715,20.508,10.254,72.754,0
1555615522.090,84.473,25.879,27.344,12.207,56.641,0
1555615522.094,-40.527,36.621,25.391,9.766,39.062,0
1555615522.096,-34.668,49.805,15.137,9.277,16.113,0
1555615522.100,79.590,52.734,18.066,19.531,35.645,0
1555615522.104,91.797,53.223,15.625,29.785,51.758,0
1555615522.108,-1.953,51.758,19.531,26.855,27.344,0
1555615522.112,-34.180,41.992,10.742,12.207,-29.297,0
1555615522.116,67.871,25.391,14.160,25.879,-26.367,0
1555615522.120,122.070,11.230,40.527,39.062,67.871,0
1555615522.123,23.438,38.086,48.340,35.645,92.773,0
1555615522.127,-59.082,52.734,31.250,22.461,40.527,0
1555615522.131,19.531,34.668,10.742,6.348,29.785,0
1555615522.135,115.234,32.715,20.508,27.344,28.809,0
1555615522.139,56.152,38.574,23.926,29.297,27.344,0
1555615522.141,-52.246,30.273,22.949,11.230,24.902,0
1555615522.145,-21.484,31.738,38.086,5.859,33.691,0
1555615522.149,83.008,35.156,37.109,16.113,51.758,0
1555615522.153,80.078,16.602,32.227,27.832,65.430,0
1555615522.157,-22.461,18.555,36.621,26.855,70.801,0
1555615522.161,-36.133,29.297,31.738,18.066,57.129,0
1555615522.165,63.965,32.715,22.461,24.414,12.695,0
1555615522.168,96.680,31.738,24.414,24.414,51.270,0
1555615522.172,-11.230,42.969,26.367,17.578,22.949,0
1555615522.176,-56.641,55.664,42.480,23.926,-7.812,0
1555615522.180,43.945,57.129,48.340,15.137,-1.953,0
1555615522.184,97.656,61.035,23.438,12.207,26.367,0
1555615522.186,34.180,51.758,15.137,17.578,47.852,0
1555615522.190,-38.574,37.598,23.438,23.926,25.391,0
1555615522.194,1.953,34.668,20.508,13.672,109.863,0
1555615522.198,90.332,43.945,24.414,14.160,95.703,0
1555615522.202,52.246,41.016,40.527,18.066,63.477,0
1555615522.206,-36.621,23.926,38.574,6.348,49.316,0
1555615522.210,13.184,25.879,24.414,10.742,40.527,0
1555615522.213,106.934,32.715,30.762,19.531,57.129,0
1555615522.217,90.820,45.410,34.180,27.344,53.223,0
1555615522.221,-19.531,50.293,42.480,30.273,17.090,0
1555615522.225,-52.734,39.551,52.734,6.348,17.090,0
1555615522.229,77.637,48.340,42.969,17.578,72.266,0
1555615522.231,117.188,61.035,31.738,27.344,49.805,0
1555615522.235,-6.348,44.434,26.855,5.859,20.996,0
1555615522.239,-55.664,24.414,28.320,5.859,-17.578,0
1555615522.243,34.668,20.508,30.273,19.043,16.602,0
1555615522.247,92.773,41.992,17.578,21.484,36.133,0
1555615522.251,34.668,58.105,17.578,14.160,25.879,0
1555615522.255,-46.875,54.199,34.668,7.324,42.480,0
1555615522.258,-3.906,47.363,30.762,8.789,40.039,0
1555615522.262,101.562,36.133,22.949,16.113,-7.812,0
1555615522.266,72.266,35.645,24.902,14.160,-14.160,0
1555615522.270,-38.086,44.434,24.414,20.020,10.742,0
1555615522.274,-30.273,16.113,26.855,28.809,-24.902,0
1555615522.290,68.359,-5.371,16.113,18.066,-26.855,0
1555615522.294,99.121,36.621,8.789,8.301,4.395,0
1555615522.298,-1.465,64.453,25.391,11.719,38.086,0
1555615522.302,-41.992,43.457,40.039,19.043,80.078,0
1555615522.306,73.242,40.527,35.156,34.180,23.926,0
1555615522.310,128.906,54.688,28.809,54.199,11.719,0
1555615522.314,20.020,51.758,29.297,28.320,68.359,0
1555615522.317,-61.035,39.062,31.738,18.066,45.410,0
1555615522.321,33.203,29.297,33.203,47.363,37.598,0
1555615522.325,114.258,47.852,23.926,50.781,10.254,0
1555615522.329,43.945,49.316,21.973,21.484,28.809,0
1555615522.333,-52.734,41.992,29.785,6.836,41.992,0
1555615522.335,-24.414,35.156,26.855,15.137,31.250,0
1555615522.339,80.566,18.555,28.320,25.391,50.781,0
1555615522.343,83.496,40.527,36.621,31.738,80.566,0
1555615522.347,-19.043,65.918,29.785,24.414,70.312,0
1555615522.351,-26.367,37.109,23.926,10.254,24.902,0
1555615522.355,79.102,10.742,28.809,23.438,2.930,0
1555615522.359,91.797,36.621,30.762,41.016,10.254,0
1555615522.362,0.488,52.246,13.672,25.879,-11.230,0
1555615522.366,-40.527,36.133,20.508,22.461,13.184,2
1555615522.370,43.945,32.715,50.781,30.762,11.230,0
1555615522.374,102.539,52.246,48.340,30.273,38.086,0
1555615522.378,12.695,61.035,44.922,28.320,36.621,0
1555615522.380,-71.289,49.316,28.320,19.531,4.395,0
1555615522.384,12.207,41.504,23.926,21.973,43.945,0
1555615522.388,104.492,31.250,34.668,28.320,46.875,0
1555615522.392,53.711,31.738,30.273,27.832,65.430,0
1555615522.396,-48.340,37.598,31.250,15.625,68.848,0
1555615522.400,-15.137,49.805,38.574,15.625,10.254,0
1555615522.404,89.844,39.551,31.738,25.391,22.949,0
1555615522.407,74.219,25.879,29.785,23.926,68.359,0
1555615522.411,-30.273,31.250,22.949,17.090,5.859,0
1555615522.415,-27.344,29.785,23.438,14.648,40.039,0
1555615522.419,93.750,33.203,24.414,37.598,76.660,0
1555615522.423,104.492,47.363,27.344,33.691,51.758,0
1555615522.425,-0.488,54.199,48.828,21.973,33.691,0
1555615522.429,-48.340,49.316,51.270,29.297,46.387,0
1555615522.433,27.344,44.922,43.945,19.043,18.555,0
1555615522.437,87.402,42.969,32.715,12.695,-3.418,0
1555615522.441,21.484,38.086,23.926,17.090,59.570,0
1555615522.445,-44.922,37.109,28.320,13.672,30.762,0
1555615522.449,15.625,44.922,30.762,20.996,-10.254,0
1555615522.452,103.516,22.461,33.691,24.414,33.691,0
1555615522.456,80.566,12.207,37.598,32.227,38.574,0
1555615522.460,-13.672,54.199,26.855,35.156,-0.488,0
1555615522.464,-12.207,62.012,27.832,21.484,-6.836,0
1555615522.468,83.008,44.434,29.785,27.344,23.438,0
1555615522.470,93.750,31.250,23.926,26.855,45.898,0
1555615522.474,-0.488,28.809,34.668,22.461,32.227,0
1555615522.478,-24.902,50.781,40.039,20.020,-19.043,0
1555615522.482,65.918,43.457,37.598,30.273,-34.668,0
1555615522.486,116.699,29.785,47.363,47.852,-7.324,0
1555615522.490,33.691,45.898,52.734,41.992,-0.488,0
1555615522.494,-41.016,58.105,49.805,26.855,20.996,0
1555615522.497,26.367,42.480,37.598,23.926,30.273,0
1555615522.501,101.074,31.250,21.484,26.855,44.922,0
1555615522.505,53.223,23.926,35.156,25.391,18.555,0
1555615522.509,-41.016,21.973,32.715,24.414,2.930,0
1555615522.513,-0.488,47.852,26.367,23.926,37.598,0
1555615522.515,98.633,54.199,38.086,19.043,57.617,0
1555615522.519,83.008,22.949,31.250,27.832,75.195,0
1555615522.523,-8.301,21.973,31.738,38.574,46.875,0
1555615522.527,-7.812,46.387,31.738,19.531,39.062,0
1555615522.531,85.449,48.828,27.344,17.578,64.941,0
1555615522.535,84.961,46.387,34.180,25.391,97.168,0
1555615522.539,-9.277,37.598,44.434,31.738,70.801,0
1555615522.542,-32.715,39.062,34.668,15.625,9.277,0
1555615522.546,58.105,39.551,7.324,9.277,40.039,0
1555615522.550,112.305,26.367,-0.488,24.902,16.113,0
1555615522.554,22.949,29.297,16.602,11.719,23.926,0
1555615522.558,-40.527,35.645,40.527,2.441,28.320,0
1555615522.561,49.805,45.410,37.109,20.508,9.277,0
1555615522.565,110.352,59.082,37.598,35.156,41.992,0
1555615522.569,44.434,52.734,35.645,23.926,40.527,0
1555615522.573,-36.621,44.434,16.602,16.113,41.504,0
1555615522.577,-5.371,41.992,23.438,14.648,47.852,0
1555615522.581,84.961,39.062,30.273,21.484,58.105,0
1555615522.585,70.801,33.203,23.926,29.297,21.484,0
1555615522.588,-34.180,28.809,25.879,10.742,-27.344,0
1555615522.592,-26.855,45.410,33.691,16.113,15.625,0
1555615522.596,81.543,52.734,27.344,29.785,47.852,0
1555615522.600,100.098,31.250,20.996,21.973,58.594,0
1555615522.604,0.977,32.715,20.996,16.602,63.477,0
1555615522.606,-39.062,44.434,35.645,18.066,44.922,0
1555615522.610,54.199,23.926,43.457,26.367,60.547,0
1555615522.614,112.793,22.949,24.414,31.738,33.203,0
1555615522.618,29.785,55.176,21.484,29.785,22.461,0
1555615522.622,-62.988,51.758,48.828,16.113,59.570,0
1555615522.626,21.484,41.016,53.223,23.926,55.664,0
1555615522.630,107.910,43.945,28.320,33.203,42.480,0
1555615522.633,52.734,38.086,13.184,21.484,39.551,0
1555615522.637,-24.414,24.902,16.602,30.273,15.625,0
1555615522.641,5.371,24.902,31.250,41.992,10.742,0
1555615522.645,102.051,35.156,36.621,37.109,43.945,0
1555615522.649,70.801,30.762,32.715,8.301,16.602,0
1555615522.651,-48.340,30.762,34.668,-0.977,20.996,0
1555615522.655,-51.270,46.875,30.762,12.695,57.617,0
1555615522.659,52.734,37.598,18.066,16.113,45.898,0
1555615522.663,98.633,14.160,7.812,11.230,16.602,0
1555615522.667,19.043,22.461,6.348,21.484,30.273,0
1555615522.671,-38.574,18.555,28.320,30.273,35.156,0
1555615522.675,35.645,31.250,41.016,20.996,41.504,0
1555615522.678,93.262,56.152,38.086,20.020,83.008,0
1555615522.682,22.461,58.594,35.156,23.926,60.547,0
1555615522.686,-62.012,46.387,30.273,15.625,57.617,0
1555615522.690,8.301,24.902,24.902,16.113,4.395,0
1555615522.694,101.562,22.461,17.090,38.574,12.695,0
1555615522.711,60.059,35.645,10.742,34.180,44.922,0
1555615522.715,-41.504,40.039,26.855,30.273,-7.812,0
1555615522.719,-16.602,30.762,40.039,36.621,25.879,0
1555615522.723,90.332,36.133,27.344,36.621,39.062,0
1555615522.727,80.078,51.758,26.855,33.203,44.434,0
1555615522.731,-20.020,45.410,24.414,19.043,44.922,0
1555615522.735,-40.039,28.809,18.555,13.672,14.648,0
1555615522.738,69.336,39.551,42.969,27.344,48.340,0
1555615522.742,120.117,38.574,41.504,41.504,33.691,0
1555615522.746,24.902,35.156,14.648,24.902,-1.953,0
1555615522.750,-55.176,26.855,10.742,16.602,11.719,0
1555615522.754,29.297,23.926,17.090,35.645,56.152,0
1555615522.757,111.816,56.152,26.367,44.922,77.148,0
1555615522.761,34.180,56.641,23.438,26.367,80.566,0
1555615522.765,-55.664,46.875,24.902,10.742,80.078,0
1555615522.769,8.301,47.852,24.902,17.090,35.156,0
1555615522.773,96.680,34.180,1.465,23.438,44.922,0
1555615522.777,51.758,23.926,19.531,18.066,33.691,0
1555615522.781,-41.504,19.531,41.504,12.207,34.180,0
1555615522.784,-25.391,14.160,16.113,16.113,52.734,0
1555615522.788,77.637,13.672,14.160,35.156,38.086,0
1555615522.792,102.539,24.414,31.250,35.645,32.715,0
1555615522.796,9.766,36.133,30.273,9.766,20.508,0
1555615522.800,-27.344,45.898,11.230,2.441,46.875,0
1555615522.801,55.664,42.969,9.766,12.695,48.340,0
1555615522.805,102.539,33.691,32.227,30.762,1.465,0
1555615522.809,15.137,12.207,21.973,20.020,-52.734,0
1555615522.813,-50.781,15.625,22.949,16.113,-4.883,0
1555615522.817,28.320,40.527,36.621,43.457,48.340,0
1555615522.821,105.469,24.902,30.762,33.691,8.301,0
1555615522.825,46.387,21.973,30.273,15.625,0.488,0
1555615522.828,-52.246,45.898,30.273,13.672,25.879,0
1555615522.832,-7.812,50.781,22.461,14.648,8.789,0
1555615522.836,72.266,26.855,5.859,14.648,35.645,0
1555615522.840,57.129,2.441,17.578,14.160,63.965,0
1555615522.844,-22.461,15.625,35.156,14.160,29.785,0
1555615522.846,-36.621,38.086,33.203,4.395,95.215,0
1555615522.850,61.523,49.316,10.742,6.348,55.176,0
1555615522.854,89.355,45.898,7.324,21.973,-15.137,0
1555615522.858,-9.766,26.367,32.715,11.230,64.453,0
1555615522.862,-59.082,23.438,39.551,8.789,66.895,0
1555615522.866,34.180,22.949,42.480,16.602,6.836,0
1555615522.870,95.215,15.625,41.504,16.113,21.484,0
1555615522.873,24.414,30.273,48.340,25.879,73.242,0
1555615522.877,-64.453,41.016,21.973,10.254,26.855,0
1555615522.881,-1.465,35.645,3.906,5.371,25.391,0
1555615522.885,101.074,39.062,32.715,22.949,46.875,0
1555615522.889,63.477,32.227,37.598,27.344,-10.254,0
1555615522.891,-42.480,19.043,26.367,3.418,5.371,0
1555615522.895,-20.996,8.301,29.297,0.488,31.250,0
1555615522.899,79.590,15.625,35.156,20.508,30.762,0
1555615522.903,67.871,39.062,29.297,19.531,37.598,0
1555615522.907,-42.969,47.852,36.621,6.348,3.418,0
1555615522.911,-68.359,43.457,41.504,4.883,-14.648,0
1555615522.915,49.805,24.414,37.598,22.949,29.297,0
1555615522.918,102.539,10.742,37.598,16.602,60.547,0
1555615522.922,0.000,21.484,34.668,7.812,15.625,0
1555615522.926,-57.129,43.457,22.949,23.438,1.465,0
1555615522.930,39.062,48.828,6.836,31.738,24.414,0
1555615522.934,107.422,22.461,13.672,29.785,34.668,0
1555615522.936,41.992,32.715,34.180,25.391,18.555,0
1555615522.940,-34.668,55.176,38.086,19.531,-6.836,0
1555615522.944,15.137,40.527,40.527,21.484,29.297,0
1555615522.948,96.191,20.996,40.527,28.320,108.887,0
1555615522.952,70.312,42.480,41.504,27.832,113.770,0
1555615522.956,-18.555,60.059,51.270,28.809,57.617,0
1555615522.960,-6.836,42.480,29.297,33.203,47.852,0
1555615522.963,108.398,39.551,0.000,34.180,43.457,0
1555615522.967,106.934,44.922,13.672,28.320,48.828,0
1555615522.971,-22.461,46.875,33.691,10.742,31.738,0
1555615522.975,-36.621,30.762,36.621,0.488,46.875,0
1555615522.979,75.195,30.273,43.457,17.578,82.031,0
1555615522.981,115.234,46.387,42.969,35.156,30.273,0
1555615522.985,21.484,40.527,33.203,32.227,14.648,0
1555615522.989,-26.367,33.203,27.344,25.879,38.086,0
1555615522.993,57.617,28.320,40.039,34.180,37.598,0
1555615522.997,106.445,38.574,36.133,30.762,25.879,0
1555615523.001,45.898,60.547,24.902,20.996,15.137,0
1555615523.005,-42.480,53.223,23.926,23.438,-0.488,0
1555615523.008,2.930,32.715,30.762,31.738,-9.766,0
1555615523.012,120.605,40.039,34.180,51.758,19.043,0
1555615523.016,94.238,26.855,23.926,44.434,37.598,0
1555615523.020,-28.320,15.625,30.273,20.996,35.156,0
1555615523.024,-30.273,43.945,41.016,6.348,0.488,0
1555615523.026,70.312,67.871,31.250,0.488,40.527,0
1555615523.030,81.055,52.246,36.621,3.906,59.570,0
1555615523.034,-21.484,38.086,47.363,9.766,29.297,0
1555615523.038,-49.805,39.551,34.668,7.812,10.742,0
1555615523.042,60.059,33.691,38.574,12.695,76.660,0
1555615523.046,111.816,25.391,47.852,26.855,106.934,0
1555615523.050,21.973,7.812,42.480,11.230,38.086,0
1555615523.053,-62.500,-4.883,31.250,2.441,30.762,0
1555615523.057,8.301,27.344,30.762,15.137,56.152,0
1555615523.061,83.984,65.918,23.926,21.484,20.996,0
1555615523.065,31.250,71.777,15.137,20.996,-8.789,0
1555615523.069,-54.199,49.805,39.551,10.254,11.719,0
1555615523.086,-13.184,36.133,52.734,21.973,27.832,0
1555615523.090,95.703,36.133,37.598,38.086,17.090,0
1555615523.094,76.172,17.578,30.762,25.391,35.645,0
1555615523.098,-39.062,20.508,29.785,8.301,104.004,0
1555615523.102,-42.969,37.598,36.133,14.160,104.004,0
1555615523.106,67.871,26.855,34.668,27.832,42.480,0
1555615523.110,104.980,32.227,28.809,32.227,19.043,0
1555615523.113,16.602,43.457,27.344,35.156,60.059,0
1555615523.117,-42.969,21.484,21.973,27.344,41.016,0
1555615523.121,40.039,15.137,32.715,12.695,35.645,0
1555615523.125,95.703,20.020,41.504,12.207,50.781,0
1555615523.129,20.020,19.043,41.504,16.602,8.789,0
1555615523.131,-62.500,25.391,37.598,11.230,12.207,0
1555615523.135,13.184,39.551,23.926,14.160,34.668,0
1555615523.139,123.535,51.270,18.066,36.621,24.414,0
1555615523.143,75.684,50.293,18.066,43.945,19.531,0
1555615523.147,-38.574,42.969,21.484,25.879,5.371,0
1555615523.151,-16.113,38.086,25.391,12.695,4.395,0
1555615523.155,84.961,33.203,41.504,15.137,5.859,0
1555615523.158,74.707,41.504,48.340,24.414,12.207,0
1555615523.162,-19.531,48.340,35.645,20.020,24.902,0
