timestamps,TP9,AF7,AF8,TP10,Right AUX,Marker0
1556291726.056,27.832,16.602,34.668,20.508,9.277,0
1556291726.060,23.438,14.160,30.762,25.879,83.008,0
1556291726.064,23.438,16.602,29.297,38.574,41.992,0
1556291726.068,20.020,12.207,23.926,26.367,-8.789,0
1556291726.072,16.113,13.672,25.391,12.695,46.875,0
1556291726.076,23.926,17.090,27.344,21.484,39.062,0
1556291726.080,34.668,18.066,26.855,34.668,15.137,0
1556291726.083,24.902,20.020,31.250,41.016,6.348,0
1556291726.087,33.691,21.484,32.227,45.898,36.621,0
1556291726.091,61.035,22.949,30.273,40.527,77.148,0
1556291726.095,61.035,22.461,23.438,45.898,17.090,0
1556291726.099,32.715,20.508,22.461,46.387,-5.859,0
1556291726.102,30.273,18.066,27.344,30.273,-26.855,0
1556291726.106,28.320,26.855,28.320,28.809,-46.387,0
1556291726.110,25.879,26.367,29.297,18.555,49.805,0
1556291726.114,30.762,17.090,26.367,16.113,13.672,0
1556291726.118,23.438,26.855,28.320,37.598,13.672,0
1556291726.122,29.785,35.156,30.762,50.781,34.668,0
1556291726.126,29.297,34.668,22.949,26.367,61.523,0
1556291726.129,28.809,34.180,19.043,18.555,76.172,0
1556291726.133,30.273,32.715,25.879,26.855,10.742,0
1556291726.137,23.438,30.273,30.273,20.508,28.809,0
1556291726.141,24.414,25.879,27.832,28.320,11.230,0
1556291726.145,15.137,24.414,29.297,28.320,4.883,0
1556291726.162,9.766,26.367,29.785,14.160,60.059,0
1556291726.166,7.812,24.902,27.344,23.926,92.773,0
1556291726.170,16.602,24.902,25.879,27.832,81.055,0
1556291726.174,23.926,27.344,17.578,23.926,43.945,0
1556291726.178,8.301,25.391,19.531,35.156,23.926,0
1556291726.182,-8.301,24.902,27.832,21.973,35.645,0
1556291726.186,1.953,21.484,31.738,11.230,45.898,0
1556291726.189,19.043,21.484,33.691,13.672,31.738,0
1556291726.193,15.625,22.949,32.715,13.184,43.457,0
1556291726.197,8.301,23.926,31.738,13.184,29.785,0
1556291726.201,24.902,24.414,27.344,34.668,67.871,0
1556291726.205,41.992,24.902,26.855,52.734,92.285,0
1556291726.207,33.691,28.320,25.879,36.621,51.270,0
1556291726.211,3.418,26.367,20.996,21.973,87.891,0
1556291726.215,2.441,22.461,22.949,12.695,66.895,0
1556291726.219,30.273,18.555,24.414,9.277,56.641,0
1556291726.223,22.461,20.508,20.996,13.672,50.781,0
1556291726.227,8.301,24.902,21.973,19.043,9.277,0
1556291726.231,-2.930,23.438,27.344,8.789,24.414,0
1556291726.234,3.418,22.949,25.391,8.789,49.805,0
1556291726.238,2.930,23.438,22.461,9.277,63.477,0
1556291726.242,-5.859,26.367,26.855,14.648,34.668,0
1556291726.246,-3.418,28.320,27.832,28.809,8.789,0
1556291726.250,3.418,25.879,24.902,26.367,70.312,0
1556291726.252,20.020,30.273,22.949,24.902,63.477,0
1556291726.256,14.648,40.039,20.996,31.250,58.594,0
1556291726.260,5.371,36.621,22.461,22.949,25.879,0
1556291726.264,14.160,24.414,22.949,15.625,11.719,0
1556291726.268,22.461,20.508,22.461,15.137,54.199,0
1556291726.272,14.648,32.227,26.855,5.371,21.973,0
1556291726.276,0.977,41.016,22.949,4.883,31.738,0
1556291726.279,7.324,32.715,21.484,21.973,42.969,0
1556291726.283,13.672,20.508,22.949,16.602,25.391,0
1556291726.287,15.625,18.066,21.973,8.789,-30.273,0
1556291726.291,2.930,21.973,20.020,10.254,-8.789,0
1556291726.295,10.742,22.461,20.508,0.488,19.531,0
1556291726.297,30.762,18.555,25.391,1.465,-2.441,0
1556291726.301,27.832,20.020,24.414,11.719,4.883,0
1556291726.305,20.020,31.250,23.926,19.531,54.688,0
1556291726.309,8.301,31.250,20.996,24.902,61.035,0
1556291726.313,-2.441,23.438,20.020,4.883,31.738,0
1556291726.317,18.555,20.996,32.227,-4.883,17.578,0
1556291726.321,20.508,20.020,33.691,-3.906,23.926,0
1556291726.324,-1.953,16.113,27.832,1.465,-1.465,0
1556291726.328,0.488,15.625,23.926,6.836,5.371,0
1556291726.332,2.930,20.508,17.578,-8.301,65.430,0
1556291726.336,10.254,21.484,23.926,-9.766,59.570,0
1556291726.340,14.160,29.297,31.250,3.906,83.496,0
1556291726.342,6.348,29.297,30.273,22.461,84.961,0
1556291726.346,15.137,25.391,26.855,18.555,29.785,0
1556291726.350,17.578,29.297,20.508,11.719,53.711,0
1556291726.354,7.812,31.250,17.578,13.184,31.250,0
1556291726.358,20.508,36.133,19.531,13.672,20.020,0
1556291726.362,18.555,48.828,28.809,14.648,82.031,0
1556291726.366,12.695,54.688,34.180,22.461,79.590,0
1556291726.369,4.395,54.199,30.273,16.113,57.617,0
1556291726.373,15.625,61.035,29.785,5.371,49.805,0
1556291726.377,18.555,64.941,31.250,13.184,5.371,0
1556291726.381,20.996,62.500,30.273,21.973,23.438,0
1556291726.385,32.715,68.848,30.273,13.184,57.617,0
1556291726.387,14.160,71.777,26.367,-1.465,40.527,0
1556291726.391,13.672,70.312,25.879,1.465,83.008,0
1556291726.395,16.602,71.289,28.320,2.441,109.375,0
1556291726.399,11.230,69.824,31.738,10.254,48.828,0
1556291726.403,4.395,67.383,32.715,14.160,29.297,0
1556291726.407,11.230,66.406,34.668,13.672,44.922,0
1556291726.411,18.555,71.777,37.598,3.418,64.453,0
1556291726.414,17.578,72.754,28.320,-1.465,49.805,0
1556291726.418,18.555,63.965,27.344,19.043,30.273,0
1556291726.422,7.812,66.406,32.227,16.602,11.719,0
1556291726.426,-0.488,69.336,22.949,-8.301,3.906,0
1556291726.430,9.277,67.871,15.625,-2.930,20.508,0
1556291726.432,9.766,73.242,18.066,-4.395,-14.160,0
1556291726.436,-0.977,75.684,19.043,-21.973,20.020,0
1556291726.440,0.488,70.801,20.020,-9.766,37.598,0
1556291726.444,13.184,67.871,24.902,-0.977,15.625,0
1556291726.448,9.277,71.289,26.855,-0.488,58.594,0
1556291726.452,-2.930,70.312,23.438,4.395,49.805,0
1556291726.456,9.766,69.336,20.020,7.812,6.836,0
1556291726.459,25.391,66.895,17.578,1.465,16.602,0
1556291726.463,24.902,59.570,13.184,4.883,7.324,0
1556291726.467,8.301,58.105,20.508,10.254,2.930,0
1556291726.471,0.000,59.570,25.391,7.324,37.598,0
1556291726.475,26.855,63.965,21.973,11.230,9.766,0
1556291726.477,34.180,62.500,19.043,18.555,-2.441,0
1556291726.481,10.254,58.594,22.949,6.836,35.156,0
1556291726.485,-1.953,56.641,30.762,3.418,69.336,0
1556291726.489,11.230,54.688,28.320,8.301,43.457,0
1556291726.493,22.949,53.711,24.414,9.766,13.672,0
1556291726.497,22.949,55.176,27.344,15.137,8.789,0
1556291726.501,9.277,60.059,30.273,0.488,-1.465,0
1556291726.504,-2.930,53.711,31.738,-6.836,46.875,0
1556291726.508,3.418,46.387,32.715,-1.953,38.574,0
1556291726.512,4.883,49.316,34.180,-3.906,11.719,0
1556291726.516,8.789,51.270,27.344,-10.742,29.785,0
1556291726.520,17.090,51.270,24.902,-1.953,-14.160,0
1556291726.537,25.879,48.828,27.832,16.113,-4.883,0
1556291726.541,30.273,55.176,20.508,18.066,-17.090,0
1556291726.545,14.648,62.500,16.113,9.766,-38.086,0
1556291726.549,11.230,56.641,22.949,1.953,-7.324,0
1556291726.553,29.297,46.387,28.809,-2.930,4.395,0
1556291726.557,29.297,46.875,27.344,4.395,-1.465,0
1556291726.561,20.020,48.828,27.344,20.020,-34.180,0
1556291726.564,16.602,46.387,29.785,21.484,-27.344,0
1556291726.568,34.668,47.852,30.762,24.414,32.227,0
1556291726.572,32.715,54.199,25.879,0.977,15.137,0
1556291726.576,18.066,51.758,26.855,4.883,-19.531,0
1556291726.580,14.648,47.363,33.691,27.344,-10.254,0
1556291726.582,8.301,47.363,29.785,21.484,-15.625,0
1556291726.586,28.809,52.246,24.902,30.273,-4.883,0
1556291726.590,42.480,56.641,32.227,34.668,-52.734,0
1556291726.594,22.461,44.434,28.809,14.160,9.766,0
1556291726.598,6.836,39.062,28.809,4.883,26.855,0
1556291726.602,25.879,41.016,30.273,10.254,-25.879,0
1556291726.606,37.109,40.527,28.809,18.066,36.621,0
1556291726.609,25.391,39.551,31.738,15.137,21.973,0
1556291726.613,16.602,40.527,32.715,13.184,-27.344,0
1556291726.617,27.344,41.504,29.785,8.301,-16.113,0
1556291726.621,26.367,37.598,31.250,15.137,-7.324,0
1556291726.625,11.230,41.992,39.062,28.809,8.789,0
1556291726.627,9.766,42.969,42.480,21.973,50.293,0
1556291726.631,14.160,39.062,38.086,11.230,36.621,0
1556291726.635,23.438,33.691,32.227,16.113,27.832,0
1556291726.639,3.418,20.996,20.996,16.113,4.883,0
1556291726.643,3.418,21.484,28.809,10.742,-22.461,0
1556291726.647,16.113,25.879,41.016,20.996,-44.922,0
1556291726.651,7.324,12.207,40.527,7.324,-13.672,0
1556291726.654,9.766,-4.395,40.527,5.859,40.039,0
1556291726.658,26.367,0.488,40.527,25.391,9.766,0
1556291726.662,25.879,9.766,35.645,23.926,32.227,0
1556291726.666,16.602,18.066,31.250,21.973,55.664,0
1556291726.670,31.738,20.020,34.668,25.879,-9.277,0
1556291726.672,17.578,27.344,28.809,15.137,-46.875,0
1556291726.676,15.137,39.551,33.203,10.254,-68.359,0
1556291726.680,14.648,33.203,43.945,18.066,0.977,0
1556291726.684,0.000,24.414,30.762,11.719,21.484,0
1556291726.688,0.488,30.273,24.902,-7.324,-3.906,0
1556291726.692,2.441,34.668,33.203,0.977,6.836,0
1556291726.696,14.160,29.297,37.109,12.695,4.883,0
1556291726.699,20.020,25.391,37.109,5.859,38.086,0
1556291726.703,18.555,29.785,36.133,11.230,41.504,0
1556291726.707,17.090,34.668,32.227,11.719,-16.602,0
1556291726.711,29.297,31.250,36.621,15.625,-37.109,0
1556291726.715,47.363,26.855,37.109,23.926,15.625,0
1556291726.717,43.945,40.039,28.320,21.973,19.531,0
1556291726.721,48.340,45.410,30.273,37.109,16.602,0
1556291726.725,42.480,31.738,33.203,35.645,23.438,0
1556291726.729,-3.418,25.391,39.062,-3.418,1.465,0
1556291726.733,-18.066,21.484,47.363,-13.184,-16.113,0
1556291726.737,-6.836,16.113,42.969,-3.418,20.996,0
1556291726.741,-19.043,6.836,40.039,-10.742,74.219,0
1556291726.744,-18.555,10.254,37.598,-24.414,63.477,0
1556291726.748,-7.324,19.043,30.273,-18.555,96.191,0
1556291726.752,-10.254,17.578,28.809,-1.465,87.402,0
1556291726.756,-10.742,22.949,32.227,-10.742,74.707,0
1556291726.760,-4.395,27.832,34.668,-11.230,53.223,0
1556291726.762,2.441,29.785,32.227,-17.090,-15.137,0
1556291726.766,16.113,36.621,29.785,-25.391,4.883,0
1556291726.770,1.465,35.156,35.156,-1.465,44.922,0
1556291726.774,7.324,25.879,40.039,23.926,77.637,0
1556291726.778,29.297,26.367,40.527,31.250,47.852,0
1556291726.782,18.066,32.715,35.645,28.320,25.391,0
1556291726.786,-2.930,22.949,29.297,18.555,3.906,0
1556291726.789,0.977,5.371,30.273,15.137,-12.695,0
1556291726.793,20.508,-1.953,28.809,14.648,18.555,0
1556291726.797,17.578,0.000,24.414,17.578,-7.324,0
1556291726.801,12.695,8.301,23.438,15.137,18.066,0
1556291726.805,9.766,11.719,30.273,13.184,76.660,0
1556291726.807,20.996,15.137,37.598,21.973,59.082,0
1556291726.811,30.762,18.066,37.109,22.461,64.941,0
1556291726.815,17.090,17.578,34.668,11.719,68.359,0
1556291726.819,-1.465,22.949,26.855,5.859,13.184,0
1556291726.823,-3.906,32.715,23.438,8.301,-16.113,0
1556291726.827,22.949,24.902,31.738,16.602,0.488,0
1556291726.831,23.926,17.090,32.227,16.113,51.270,0
1556291726.834,-3.418,23.926,26.367,16.602,41.504,0
1556291726.838,3.418,28.809,34.180,12.695,7.812,0
1556291726.842,23.438,26.855,38.086,6.836,-13.672,0
1556291726.846,0.977,23.926,32.227,0.000,-13.672,0
1556291726.850,-14.648,27.832,35.156,9.277,14.160,0
1556291726.852,7.812,35.645,34.180,10.742,54.688,0
1556291726.856,7.812,36.133,28.809,3.906,82.520,0
1556291726.860,23.438,40.039,28.809,26.367,63.477,0
1556291726.864,47.852,49.805,26.855,35.156,64.453,0
1556291726.868,34.668,41.992,19.043,25.391,76.660,0
1556291726.872,26.367,34.180,27.344,22.949,83.984,0
1556291726.876,37.109,35.645,37.109,26.367,44.434,0
1556291726.879,31.250,35.156,37.598,39.551,32.715,0
1556291726.883,15.137,34.668,40.527,33.203,35.156,0
1556291726.887,16.113,32.227,38.086,20.996,-6.348,0
1556291726.891,21.484,32.715,36.621,21.973,18.555,0
1556291726.895,23.926,44.434,34.180,19.043,76.660,0
1556291726.912,2.441,42.480,26.367,6.348,29.297,0
1556291726.916,-16.113,37.598,25.879,-0.488,-17.578,0
1556291726.920,4.395,36.133,30.762,3.418,26.855,0
1556291726.924,28.809,37.598,31.738,5.859,32.715,0
1556291726.928,29.785,39.062,31.250,7.324,16.113,0
1556291726.932,20.020,36.133,25.391,17.578,-31.250,0
1556291726.936,20.996,39.062,16.602,13.184,26.367,0
1556291726.939,25.879,44.922,20.508,-4.395,66.406,0
1556291726.943,11.719,41.504,27.832,-3.906,37.109,0
1556291726.947,13.184,29.785,31.250,9.277,50.781,0
1556291726.951,12.695,27.832,32.715,-0.488,8.789,0
1556291726.955,-6.836,36.621,29.297,0.000,20.996,0
1556291726.956,-1.465,37.598,27.832,11.230,29.297,0
1556291726.960,-4.395,33.203,23.926,12.207,51.270,0
1556291726.964,-2.441,34.668,20.508,18.555,6.836,0
1556291726.968,6.836,30.762,24.414,27.832,-55.664,0
1556291726.972,14.648,24.414,33.691,22.461,0.488,0
1556291726.976,19.043,30.273,38.086,21.484,-16.113,0
1556291726.980,13.184,28.320,32.715,27.832,18.066,0
1556291726.983,20.508,22.461,29.297,34.180,28.809,0
1556291726.987,25.391,26.367,31.738,30.762,-22.949,0
1556291726.991,-0.488,33.203,33.691,11.719,11.719,0
1556291726.995,-7.324,32.715,30.762,17.090,37.598,0
1556291726.999,19.043,27.832,25.391,28.320,22.461,0
1556291727.001,24.414,35.156,19.043,13.184,-12.207,1
1556291727.005,17.578,45.898,16.602,14.160,15.625,0
1556291727.009,8.301,43.457,16.602,11.719,31.738,0
1556291727.013,11.230,31.250,19.531,7.812,1.953,0
1556291727.017,23.926,27.344,26.367,9.766,-4.395,0
1556291727.021,24.902,26.855,29.785,15.625,20.996,0
1556291727.025,-3.906,23.926,28.809,-0.977,94.727,0
1556291727.028,-13.184,21.484,22.461,-6.348,23.438,0
1556291727.032,3.906,21.484,21.973,5.859,-52.734,0
1556291727.036,12.207,22.461,26.367,3.418,-12.207,0
1556291727.040,5.371,27.832,27.832,6.836,1.465,0
1556291727.044,2.441,36.621,22.949,4.395,18.066,0
1556291727.046,22.949,35.645,16.602,0.000,99.609,0
1556291727.050,31.250,33.691,22.461,12.207,96.191,0
1556291727.054,23.926,29.297,32.227,28.320,9.766,0
1556291727.058,14.648,28.320,28.320,16.113,2.930,0
1556291727.062,30.273,31.738,20.508,-1.465,-4.883,0
1556291727.066,46.875,36.621,20.996,19.043,0.977,0
1556291727.070,38.574,29.785,19.531,16.113,-1.953,0
1556291727.073,13.184,12.695,20.508,-3.906,-7.324,0
1556291727.077,0.000,2.930,18.555,-6.836,3.906,0
1556291727.081,8.301,-15.625,15.137,-1.953,-24.414,0
1556291727.085,17.578,-25.391,17.578,9.766,20.508,0
1556291727.089,15.625,-20.508,18.555,3.418,9.766,0
1556291727.091,3.906,-24.414,20.996,-1.465,-58.105,0
1556291727.095,12.695,-34.180,21.484,11.230,-32.227,0
1556291727.099,25.879,-31.738,22.949,7.812,34.668,0
1556291727.103,3.418,-26.855,31.250,5.371,36.133,0
1556291727.107,-6.836,-19.043,27.832,30.273,-37.598,0
1556291727.111,25.391,-6.348,23.438,36.133,-59.082,0
1556291727.115,34.180,4.395,29.785,25.391,-27.832,0
1556291727.118,17.090,3.418,29.297,29.297,-45.410,0
1556291727.122,-5.371,5.371,23.926,2.930,-4.883,0
1556291727.126,-4.395,13.184,25.879,-8.789,48.828,0
1556291727.130,8.789,20.508,25.879,11.719,44.434,0
1556291727.134,-10.254,26.367,20.508,11.230,53.223,0
1556291727.136,3.906,34.668,23.926,24.414,28.320,0
1556291727.140,32.715,39.062,30.273,29.297,11.719,0
1556291727.144,7.324,26.855,23.926,9.766,30.273,0
1556291727.148,0.488,21.484,25.391,9.277,24.414,0
1556291727.152,17.090,28.809,29.297,17.090,-5.859,0
1556291727.156,26.367,36.133,36.621,22.949,-3.418,0
1556291727.160,31.250,43.945,39.551,29.785,12.207,0
1556291727.163,28.809,36.133,33.203,20.020,11.230,0
1556291727.167,16.602,29.297,27.832,5.859,13.672,0
1556291727.171,-3.418,38.086,28.809,7.812,27.832,0
1556291727.175,-2.441,41.016,31.250,15.137,27.832,0
1556291727.179,35.645,43.945,30.762,20.508,20.508,0
1556291727.181,27.832,48.828,27.832,18.066,35.645,0
1556291727.185,13.672,49.316,28.809,20.020,33.203,0
1556291727.189,29.297,52.246,33.691,22.949,8.301,0
1556291727.193,33.691,46.387,31.250,21.484,0.488,0
1556291727.197,16.602,39.551,21.973,20.996,14.160,0
1556291727.201,-4.883,44.434,21.484,13.184,13.672,0
1556291727.205,8.301,52.246,35.645,9.766,10.742,0
1556291727.208,7.812,52.246,32.715,1.953,-5.371,0
1556291727.212,-2.441,40.039,27.832,-1.953,4.395,0
1556291727.216,-17.090,32.227,28.809,9.277,66.406,0
1556291727.220,-8.301,39.062,19.531,2.930,46.387,0
1556291727.224,26.367,43.457,23.926,11.230,-28.320,0
1556291727.242,23.438,40.527,28.320,14.160,-12.207,0
1556291727.246,4.395,36.133,24.902,18.555,20.996,0
1556291727.250,8.789,35.156,28.320,22.949,25.391,0
1556291727.254,25.391,40.527,24.902,8.301,28.809,0
1556291727.258,29.785,42.480,27.832,20.020,21.973,0
1556291727.262,21.973,48.340,32.715,31.738,36.621,0
1556291727.266,18.066,49.316,27.344,15.137,28.320,0
1556291727.269,25.391,40.039,28.809,8.789,11.230,0
1556291727.273,16.602,34.180,32.227,14.648,41.016,0
1556291727.277,3.906,39.062,31.738,9.277,1.953,0
1556291727.281,0.488,38.574,28.320,10.742,-30.273,0
1556291727.285,14.160,31.250,32.715,20.996,-14.160,0
1556291727.287,24.414,32.715,33.691,19.043,28.809,0
1556291727.291,30.762,41.016,31.738,12.695,79.102,0
1556291727.295,19.043,50.781,30.762,17.578,4.883,0
1556291727.299,17.090,46.387,26.367,10.254,-13.184,0
1556291727.303,35.645,37.109,26.367,8.789,43.457,0
1556291727.307,26.855,41.992,29.785,16.602,9.277,0
1556291727.311,4.395,47.852,31.738,4.883,-7.324,0
1556291727.314,15.625,36.621,26.855,5.371,1.465,0
1556291727.318,30.273,28.809,26.367,22.949,6.836,0
1556291727.322,32.227,29.297,23.926,21.973,0.977,0
1556291727.326,27.344,21.484,18.555,11.719,-9.277,0
1556291727.330,3.906,18.555,28.809,16.602,-25.879,0
1556291727.347,3.418,8.301,33.691,15.625,0.000,0
1556291727.351,14.648,10.254,29.785,6.348,59.082,0
1556291727.355,31.738,20.508,31.250,13.672,73.242,0
1556291727.359,6.836,7.812,24.902,0.977,41.992,0
1556291727.363,-10.742,7.812,21.973,0.000,39.551,0
1556291727.367,20.020,18.555,22.949,14.648,12.695,0
1556291727.371,28.809,13.672,25.391,19.531,-6.836,0
1556291727.374,17.090,14.160,26.855,27.832,36.133,0
1556291727.378,17.090,20.996,29.785,25.391,60.059,0
1556291727.382,14.648,25.391,32.715,16.602,57.129,0
1556291727.386,28.320,20.020,24.414,7.324,22.949,0
1556291727.390,16.602,20.020,20.508,5.859,28.809,0
1556291727.377,-7.324,19.043,22.461,5.859,10.742,0
1556291727.381,10.742,20.020,23.438,15.625,22.949,0
1556291727.385,25.879,27.832,27.344,17.578,45.410,0
1556291727.389,10.742,26.855,31.738,5.859,-2.930,0
1556291727.393,-7.324,23.438,27.832,15.625,-46.875,0
1556291727.397,4.883,26.367,22.949,14.648,-11.230,0
1556291727.401,14.160,20.996,21.484,1.953,31.738,0
1556291727.404,13.184,10.742,23.926,5.371,10.254,0
1556291727.408,3.906,22.461,29.785,8.789,14.648,0
1556291727.412,5.371,33.203,31.738,22.949,-2.930,0
1556291727.416,27.832,24.414,20.508,30.762,-37.109,0
1556291727.420,35.156,28.809,21.973,11.719,-48.828,0
1556291727.422,19.531,27.832,33.203,-2.441,11.230,0
1556291727.426,5.859,18.555,35.156,5.859,29.785,0
1556291727.430,22.461,24.902,31.738,14.160,-26.367,0
1556291727.434,30.273,33.203,30.273,14.648,-38.086,0
1556291727.438,6.348,34.668,25.879,9.766,4.395,0
1556291727.442,22.949,36.133,29.297,19.043,7.324,0
1556291727.446,27.832,34.180,23.438,6.348,27.344,0
1556291727.449,11.719,26.367,20.020,-17.578,39.062,0
1556291727.453,2.930,28.809,30.273,-8.301,-29.785,0
1556291727.457,-7.812,32.715,28.809,-11.230,-14.648,0
1556291727.461,4.883,31.738,30.762,-10.254,5.859,0
1556291727.465,13.184,37.598,27.344,-2.930,-2.441,0
1556291727.467,12.207,35.156,16.602,-11.230,5.371,0
1556291727.471,11.230,34.180,16.113,-3.906,38.574,0
1556291727.475,-3.906,31.738,16.602,-6.348,53.711,0
1556291727.479,21.484,24.902,24.414,-3.906,62.012,0
1556291727.483,30.273,17.578,29.785,3.418,44.434,0
1556291727.487,0.000,7.324,20.508,-1.465,-14.160,0
1556291727.491,-2.930,3.906,20.020,0.488,18.066,0
1556291727.494,5.371,8.301,29.785,4.883,53.711,0
1556291727.498,4.883,13.672,31.250,6.348,32.715,0
1556291727.502,8.789,16.602,32.715,7.324,-1.953,0
1556291727.506,16.113,27.832,32.715,16.113,-5.859,0
1556291727.510,15.625,30.762,22.949,4.395,36.621,0
1556291727.512,15.625,22.949,19.043,1.953,9.766,0
1556291727.516,7.812,30.273,25.391,15.137,22.461,0
1556291727.520,8.789,27.832,30.762,19.043,42.480,0
1556291727.524,7.324,11.230,26.367,20.508,-2.930,0
1556291727.528,14.160,9.766,20.508,7.324,48.340,0
1556291727.532,24.902,17.090,21.973,1.953,81.543,0
1556291727.536,18.066,20.020,18.555,9.766,21.973,0
1556291727.539,11.230,24.414,18.555,5.859,-21.484,0
1556291727.543,-1.465,28.809,21.973,-19.043,-1.465,0
1556291727.547,-20.508,23.438,25.391,-10.742,27.344,0
1556291727.551,9.277,10.742,28.320,15.625,26.855,0
1556291727.555,13.672,4.395,24.414,6.836,14.160,0
1556291727.557,-15.137,3.418,17.578,-1.953,-3.906,0
1556291727.561,0.977,-10.254,16.113,-22.949,2.930,0
1556291727.565,7.324,-13.672,21.973,-13.184,1.465,0
1556291727.569,-16.602,-8.789,26.367,7.324,8.789,0
1556291727.573,-7.324,-15.625,19.043,8.789,54.688,0
1556291727.577,19.043,-15.625,14.648,6.836,19.043,0
1556291727.581,23.438,-16.113,23.438,1.465,-11.230,0
1556291727.584,16.113,-11.230,25.391,10.254,63.965,0
1556291727.588,13.184,-6.348,22.461,18.066,86.426,0
1556291727.592,-0.488,-12.695,15.625,-4.883,37.109,0
1556291727.596,-10.254,-11.719,20.020,-28.809,7.812,0
1556291727.600,-9.277,-9.766,19.043,-8.301,17.090,0
1556291727.602,17.578,-17.090,14.160,10.742,-20.508,0
1556291727.606,84.961,-17.090,24.902,17.578,1.953,0
1556291727.610,63.477,-9.277,20.508,1.465,32.227,0
1556291727.614,27.832,-11.719,16.113,-7.812,29.785,0
1556291727.618,8.789,-11.230,21.484,17.578,68.359,0
1556291727.622,14.648,-6.836,16.602,20.020,70.312,0
1556291727.626,35.645,-5.859,11.230,9.766,53.223,0
1556291727.629,-10.742,1.465,19.531,4.395,80.078,0
1556291727.633,-14.648,8.301,26.367,6.348,51.758,0
1556291727.637,25.879,9.766,24.414,12.695,12.695,0
1556291727.641,37.109,11.230,23.438,9.277,23.926,0
1556291727.645,15.137,8.789,22.461,5.859,0.000,0
1556291727.662,-10.742,6.836,21.973,3.418,47.363,0
1556291727.666,-3.418,13.184,21.973,7.812,36.133,0
1556291727.670,32.227,8.301,19.043,8.301,-0.977,0
1556291727.674,21.973,8.789,14.160,0.977,60.547,0
1556291727.678,-1.953,21.484,18.066,4.395,18.555,0
1556291727.682,27.832,20.996,14.648,7.812,-16.113,0
1556291727.686,43.945,15.137,10.742,9.277,-19.531,0
1556291727.689,12.695,10.254,16.602,-2.930,-7.812,0
1556291727.693,-21.484,11.719,15.625,-15.625,42.480,0
1556291727.697,-0.977,14.648,20.020,-3.418,-12.207,0
1556291727.701,25.879,13.672,24.414,3.418,-14.648,0
1556291727.705,37.109,16.113,24.902,3.418,34.668,0
1556291727.707,23.438,13.672,26.855,16.602,23.438,0
1556291727.711,7.324,9.766,18.066,20.508,63.477,0
1556291727.715,17.578,20.996,19.043,13.672,69.824,0
1556291727.719,15.625,19.531,33.203,8.301,9.277,0
1556291727.723,-8.301,16.602,30.762,-6.348,16.113,0
1556291727.727,-10.254,15.137,25.879,-10.254,23.438,0
1556291727.731,22.949,0.977,32.227,1.465,-27.344,0
1556291727.734,2.930,10.742,24.902,1.953,-0.488,0
1556291727.738,2.930,17.578,19.043,1.953,50.781,0
1556291727.742,21.484,18.555,24.414,0.977,66.406,0
1556291727.746,14.160,18.066,26.855,5.859,52.734,0
1556291727.750,33.691,25.879,27.832,15.137,40.039,0
1556291727.752,21.484,41.504,20.996,7.812,50.781,0
1556291727.756,1.953,51.758,21.484,14.160,45.898,0
1556291727.760,3.418,45.410,28.320,20.020,-1.953,0
1556291727.764,20.508,45.898,23.438,6.836,-13.184,0
1556291727.768,14.160,56.641,20.508,2.930,49.316,0
1556291727.772,14.160,65.918,27.832,10.254,19.043,0
1556291727.776,3.906,64.453,25.879,-0.488,0.977,0
1556291727.779,-4.883,56.152,15.625,-7.324,-5.371,0
1556291727.783,8.789,45.898,19.531,-9.766,-37.598,0
1556291727.787,-1.465,33.691,26.367,-17.090,56.641,0
1556291727.791,-6.348,25.391,29.297,-1.953,97.168,0
1556291727.795,11.719,22.949,34.668,13.184,21.973,0
1556291727.811,26.367,24.414,29.297,2.441,18.555,0
1556291727.815,11.230,17.090,20.020,-11.719,36.133,0
1556291727.819,3.418,7.812,23.438,7.324,41.016,0
1556291727.823,13.672,1.953,32.227,26.367,24.902,0
1556291727.827,36.621,6.836,31.738,21.484,0.488,0
1556291727.831,27.344,10.742,24.414,20.508,9.766,0
1556291727.835,9.277,12.207,29.785,23.438,-10.254,0
1556291727.838,-3.418,17.578,22.949,3.418,-5.859,0
1556291727.842,9.277,19.043,23.926,0.000,30.273,0
1556291727.846,46.387,8.301,34.668,18.555,56.152,0
1556291727.850,25.391,1.465,28.320,2.930,39.551,0
1556291727.854,1.953,9.277,30.762,0.977,29.785,0
1556291727.841,-11.719,11.230,29.785,3.906,20.996,0
1556291727.845,-3.418,16.113,26.855,-14.648,22.949,0
1556291727.849,19.043,17.090,25.879,9.277,38.086,0
1556291727.853,21.973,7.324,26.367,31.250,39.062,0
1556291727.857,23.926,5.859,28.320,21.484,26.367,0
1556291727.861,9.277,12.695,22.949,15.625,14.648,0
1556291727.865,-0.977,15.625,28.320,11.719,6.836,0
1556291727.868,23.438,11.230,31.250,13.184,3.418,0
1556291727.872,7.324,15.137,16.602,15.625,3.906,0
1556291727.876,-6.836,21.484,15.625,13.184,42.480,0
1556291727.880,38.086,18.555,25.879,12.207,62.012,0
1556291727.884,17.090,21.484,27.344,8.301,47.852,0
1556291727.886,-5.859,19.531,25.391,12.695,59.570,0
1556291727.890,6.348,23.926,19.531,8.789,13.672,0
1556291727.894,6.348,35.156,17.578,7.812,5.859,0
1556291727.898,9.277,29.785,29.785,10.742,29.785,0
1556291727.902,12.695,21.484,38.574,5.859,19.043,0
1556291727.906,9.766,21.484,35.645,13.184,39.551,0
1556291727.910,-4.395,29.297,26.367,21.484,60.059,0
1556291727.913,11.719,30.273,24.414,7.324,18.555,0
1556291727.917,47.852,30.762,28.809,7.812,-23.926,0
1556291727.921,6.348,35.156,26.855,9.766,-14.648,0
1556291727.925,-6.836,29.297,22.949,-7.812,-5.371,0
1556291727.929,23.926,28.809,23.926,-5.859,20.020,0
1556291727.931,0.977,23.438,27.344,-2.930,67.383,0
1556291727.935,-7.324,19.043,23.926,0.488,55.176,0
1556291727.939,14.160,23.438,21.973,16.113,21.484,0
1556291727.943,39.551,25.879,26.367,5.859,17.090,0
1556291727.947,29.297,25.879,23.926,1.953,7.324,0
1556291727.951,8.789,27.344,22.461,11.719,22.949,0
1556291727.955,19.531,34.668,29.297,3.418,34.668,0
1556291727.958,37.598,42.480,28.809,11.230,22.949,0
1556291727.962,21.484,35.645,23.438,11.230,-6.836,0
1556291727.966,4.883,35.645,24.902,3.906,-18.066,0
1556291727.970,-5.859,46.387,24.414,3.418,2.930,0
1556291727.974,7.812,37.109,18.555,4.883,20.020,0
1556291727.976,7.812,35.156,15.625,4.883,21.484,0
1556291727.980,0.488,39.062,24.902,2.441,2.930,0
1556291727.984,10.254,30.762,31.250,-10.254,-1.953,0
1556291727.988,26.855,33.203,24.902,7.324,-0.977,0
1556291727.992,36.133,34.668,23.438,25.879,-12.695,0
1556291727.996,3.418,41.992,28.809,9.277,62.500,0
1556291728.000,-19.531,46.387,24.414,10.254,90.332,0
1556291728.003,0.000,37.598,20.508,1.953,-1.953,0
1556291728.007,-0.977,39.551,24.902,-7.324,-2.930,0
1556291728.011,1.953,39.062,26.367,7.324,36.133,0
1556291728.015,43.945,21.484,25.879,14.160,54.688,0
1556291728.019,38.086,16.602,26.367,11.719,69.824,0
1556291728.037,18.066,23.438,28.320,1.465,5.859,0
1556291728.041,20.508,27.832,23.926,12.695,1.953,0
1556291728.045,18.066,24.414,24.902,23.438,52.734,0
1556291728.049,0.000,38.086,25.391,8.789,40.039,0
1556291728.053,0.977,53.223,25.391,-2.441,-12.207,0
1556291728.057,22.461,41.504,25.391,5.371,5.371,0
1556291728.061,26.855,26.855,21.973,14.648,74.707,0
1556291728.064,22.949,28.320,12.207,11.719,54.688,0
1556291728.068,10.742,23.926,12.695,6.836,-13.184,1
1556291728.072,41.504,9.277,30.273,8.789,-19.043,0
1556291728.076,53.711,7.324,35.156,26.855,23.438,0
1556291728.080,32.715,14.160,30.273,29.297,29.297,0
1556291728.081,26.367,14.648,27.832,15.625,-11.719,0
1556291728.085,19.531,11.719,28.809,15.625,60.059,0
1556291728.089,37.109,14.648,27.832,17.090,94.727,0
1556291728.093,28.320,24.902,24.902,27.832,41.992,0
1556291728.097,14.648,19.531,27.344,22.461,27.344,0
1556291728.101,20.020,10.254,26.367,7.324,59.570,0
1556291728.105,7.812,6.836,26.855,3.906,50.781,0
1556291728.108,7.812,7.324,27.832,7.324,-16.602,0
1556291728.112,6.836,11.719,26.367,12.695,-12.207,0
1556291728.116,7.812,12.695,28.320,-2.441,58.105,0
1556291728.120,14.160,13.184,25.879,5.371,82.520,0
1556291728.124,7.812,16.602,24.414,18.555,61.035,0
1556291728.126,21.973,19.531,27.832,12.695,46.875,0
1556291728.130,23.438,13.672,21.973,6.836,3.906,0
1556291728.134,36.133,6.836,24.414,10.254,-22.461,0
1556291728.138,29.297,14.648,32.715,10.742,-36.621,0
1556291728.142,6.836,27.344,32.227,6.348,-22.461,0
1556291728.146,19.043,24.902,31.250,14.648,8.789,0
1556291728.150,27.832,16.113,29.297,10.742,24.414,0
1556291728.153,44.434,17.578,29.297,23.438,-8.301,0
1556291728.157,26.855,20.996,24.414,20.996,-2.930,0
1556291728.161,-12.207,22.949,20.996,-1.465,49.316,0
1556291728.165,0.488,15.137,27.832,-4.883,22.949,0
1556291728.169,25.879,14.648,25.879,5.371,-17.578,0
1556291728.172,20.508,21.484,25.879,17.578,39.551,0
1556291728.176,20.508,16.602,33.203,23.926,20.508,0
1556291728.180,36.133,18.066,23.926,14.648,-61.523,0
1556291728.184,22.461,19.531,18.066,-0.488,-70.312,0
1556291728.188,15.625,22.461,28.809,7.324,22.461,0
1556291728.192,19.043,20.996,27.832,14.160,28.320,0
1556291728.196,-11.719,18.066,22.461,-1.465,29.785,0
1556291728.199,-8.789,25.391,19.043,-4.883,14.160,0
1556291728.203,22.949,19.043,18.555,-0.977,-21.484,0
1556291728.207,20.996,15.137,22.949,7.324,-37.598,0
1556291728.211,12.207,17.090,22.461,12.695,-72.266,0
1556291728.215,29.297,16.602,23.438,5.859,-15.625,0
1556291728.216,33.691,25.879,25.879,5.371,-31.738,0
1556291728.220,23.438,24.414,20.508,17.578,-39.062,0
1556291728.224,11.719,22.461,20.508,15.137,-10.254,0
1556291728.228,22.949,21.973,22.949,18.066,60.547,0
1556291728.232,18.066,20.508,21.484,11.230,105.957,0
1556291728.236,13.184,21.973,35.156,7.812,47.363,0
1556291728.240,21.973,21.973,38.574,29.297,16.113,0
1556291728.243,33.203,28.320,22.949,22.461,4.883,0
1556291728.247,34.180,26.855,21.973,-3.906,31.738,0
1556291728.251,-12.207,16.113,25.391,-25.879,72.266,0
1556291728.255,-17.578,15.625,20.996,3.906,50.781,0
1556291728.259,16.602,11.719,24.902,25.879,31.738,0
1556291728.262,37.598,10.742,23.926,12.207,61.035,0
1556291728.266,20.508,18.066,19.531,1.953,14.648,0
1556291728.270,17.090,25.879,29.785,15.137,-11.230,0
1556291728.274,18.555,25.879,26.367,37.109,8.301,0
1556291728.278,22.461,21.973,21.973,24.414,12.695,0
1556291728.282,18.555,29.785,26.367,8.301,24.414,0
1556291728.286,6.836,27.832,27.344,12.207,16.113,0
1556291728.289,27.832,22.461,27.832,21.973,-11.719,0
1556291728.293,45.898,23.438,25.879,23.438,19.531,0
1556291728.297,47.363,23.926,28.320,23.438,53.223,0
1556291728.301,33.203,31.250,29.297,13.672,28.320,0
1556291728.305,35.645,32.227,28.809,6.348,69.336,0
1556291728.307,37.598,26.855,23.926,12.695,68.848,0
1556291728.311,29.297,26.367,25.879,3.906,43.457,0
1556291728.315,14.648,27.344,29.785,1.953,33.691,0
1556291728.319,7.812,22.949,29.785,15.625,69.824,0
1556291728.323,20.020,23.438,29.297,20.996,79.590,0
1556291728.327,24.414,21.973,31.738,20.508,21.973,0
1556291728.331,22.461,31.738,34.180,13.184,-7.324,0
1556291728.334,4.883,38.086,29.785,16.113,0.977,0
1556291728.338,-5.371,25.391,21.973,21.484,8.789,0
1556291728.342,3.906,21.973,20.020,8.789,26.855,0
1556291728.346,16.113,28.809,27.832,6.836,11.230,0
1556291728.350,5.859,29.785,32.715,9.766,-12.695,0
1556291728.352,5.371,31.738,28.320,15.625,7.812,0
1556291728.356,18.066,27.832,28.320,13.672,-6.348,0
1556291728.360,17.090,23.926,27.832,0.977,-26.855,0
1556291728.364,-8.301,27.344,20.020,0.977,-27.832,0
1556291728.368,-13.672,26.855,19.043,7.324,12.695,0
1556291728.372,5.371,21.973,19.043,-0.488,36.133,0
1556291728.376,13.672,24.414,20.996,-4.883,43.945,0
1556291728.379,3.906,34.668,25.879,0.000,39.551,0
1556291728.383,-18.066,34.180,26.855,-1.953,62.500,0
1556291728.387,3.418,28.320,27.832,-2.441,36.621,0
1556291728.391,17.090,30.273,26.367,0.977,-32.227,0
1556291728.395,3.906,39.062,28.809,9.277,-22.949,0
1556291728.412,9.766,30.273,25.879,6.836,-17.090,0
1556291728.416,4.883,30.273,18.066,5.371,21.973,0
1556291728.420,10.254,38.086,21.973,19.043,2.441,0
1556291728.424,23.926,32.715,25.391,14.648,-18.555,0
1556291728.428,12.207,33.691,20.508,3.418,20.020,0
1556291728.432,-0.488,32.715,20.020,7.812,-9.277,0
1556291728.436,22.461,33.203,23.926,7.812,32.715,0
1556291728.439,51.758,33.203,23.438,13.672,56.641,0
1556291728.443,33.691,33.691,21.973,25.879,13.184,0
1556291728.447,10.254,34.668,23.926,15.625,-21.484,0
1556291728.451,22.949,30.273,18.555,15.137,-15.137,0
1556291728.455,33.691,25.879,18.066,20.996,14.648,0
1556291728.457,20.996,32.715,20.020,25.879,40.527,0
1556291728.461,7.324,31.738,16.602,14.160,60.059,0
1556291728.465,-0.488,27.344,14.648,6.836,22.949,0
1556291728.469,33.203,27.832,14.648,15.137,28.809,0
1556291728.473,36.133,28.809,25.879,11.719,61.035,0
1556291728.477,8.301,22.461,29.785,9.766,16.602,0
1556291728.481,6.348,19.531,23.926,1.953,-15.625,0
1556291728.484,11.719,20.996,22.461,1.465,22.949,0
1556291728.488,26.855,21.973,19.531,6.836,37.598,0
1556291728.492,30.273,26.855,15.625,1.953,11.230,0
1556291728.496,20.996,24.902,18.555,15.137,29.297,0
1556291728.500,18.066,27.344,17.090,13.184,-12.695,0
1556291728.502,20.020,33.691,13.184,6.348,72.754,0
1556291728.506,13.184,30.273,15.625,20.996,51.270,0
1556291728.510,15.625,28.809,24.902,6.348,-44.922,0
1556291728.514,29.297,33.203,23.438,7.324,-7.812,0
1556291728.518,41.504,40.527,13.672,20.996,48.828,0
1556291728.522,29.785,40.527,20.996,12.695,16.602,0
1556291728.526,-2.930,31.738,17.578,6.836,26.855,0
1556291728.529,-14.160,29.785,7.812,-11.719,17.090,0
1556291728.533,28.320,28.320,11.230,-6.348,-18.555,0
1556291728.537,47.363,22.461,13.184,8.301,30.762,0
1556291728.541,11.719,19.043,14.160,-6.836,33.203,0
1556291728.545,-24.414,20.508,22.461,-18.066,76.172,0
1556291728.547,9.277,23.438,19.531,5.859,64.453,0
1556291728.551,31.250,29.297,13.672,11.719,18.066,0
1556291728.555,0.488,42.480,21.973,-0.488,17.090,0
1556291728.559,-6.836,36.133,21.484,3.418,33.203,0
1556291728.563,28.320,21.973,14.648,15.137,68.848,0
1556291728.567,43.945,23.926,23.926,30.273,48.828,0
1556291728.571,20.508,25.879,28.809,21.484,-18.555,0
1556291728.574,9.766,28.320,21.484,5.371,-48.340,0
1556291728.578,17.578,30.273,16.602,10.742,-5.859,0
1556291728.582,29.785,23.926,18.555,15.137,34.668,0
1556291728.586,25.879,26.855,22.461,22.461,46.875,0
1556291728.590,19.043,26.855,21.484,19.531,4.883,0
1556291728.592,7.812,21.484,17.090,15.137,28.809,0
1556291728.596,13.184,19.043,18.066,3.906,79.590,0
1556291728.600,19.531,23.926,13.672,8.789,56.641,0
1556291728.604,20.508,30.273,6.348,22.461,-18.555,0
1556291728.608,3.906,25.879,17.090,10.254,-4.395,0
1556291728.612,4.395,23.438,24.414,-1.465,44.922,0
1556291728.616,26.855,18.555,21.484,5.371,17.578,0
1556291728.619,14.648,23.438,21.484,6.836,-0.488,0
1556291728.623,-7.812,23.926,19.043,-2.930,3.418,0
1556291728.627,10.742,15.625,13.184,-4.883,-6.836,0
1556291728.631,34.180,32.227,26.855,20.996,-11.719,0
1556291728.635,11.230,31.250,28.809,25.391,-18.555,0
1556291728.637,-3.418,20.996,12.207,4.395,4.883,0
1556291728.641,-4.395,26.855,13.672,-0.977,39.551,0
1556291728.645,6.348,21.973,19.043,3.906,16.113,0
1556291728.649,16.113,21.973,14.160,6.836,-26.367,0
1556291728.653,15.137,32.227,8.789,8.301,-53.223,0
1556291728.657,21.973,31.738,15.137,17.090,29.785,0
1556291728.661,20.996,29.297,18.555,12.207,17.090,0
1556291728.664,6.836,29.785,10.742,-3.418,-15.137,0
1556291728.668,8.789,22.949,17.578,1.953,37.109,0
1556291728.672,14.648,19.043,33.203,5.859,26.855,0
1556291728.676,10.742,24.414,27.344,3.906,-15.137,0
1556291728.680,12.207,29.785,17.090,14.160,0.488,0
1556291728.682,5.371,23.926,16.602,13.184,49.316,0
1556291728.686,12.207,23.926,22.949,9.766,53.711,0
1556291728.690,9.766,35.645,21.973,16.113,14.160,0
1556291728.694,14.160,32.227,11.230,20.996,22.949,0
1556291728.698,19.043,24.902,14.648,16.113,85.938,0
1556291728.702,4.395,28.320,24.414,9.766,64.453,0
1556291728.706,16.113,23.438,28.809,10.742,49.805,0
1556291728.709,27.344,20.508,30.273,-3.418,52.246,0
1556291728.713,20.508,23.438,26.855,0.488,24.414,0
1556291728.717,24.414,23.438,22.461,14.648,-6.348,0
1556291728.721,14.648,27.344,23.926,13.672,-13.672,0
1556291728.725,15.137,26.855,25.391,13.184,22.949,0
1556291728.742,36.133,30.762,20.020,17.090,28.320,0
1556291728.746,30.273,35.645,20.996,22.949,6.836,0
1556291728.750,11.719,30.273,20.020,16.602,19.531,0
1556291728.754,19.043,25.879,21.484,14.648,-9.277,0
1556291728.758,20.996,29.785,22.461,18.555,-22.949,0
1556291728.762,13.184,26.855,21.973,20.996,14.648,0
1556291728.766,21.484,33.691,20.020,28.809,20.020,0
1556291728.769,15.625,40.039,13.672,20.020,18.066,0
1556291728.773,0.000,28.320,17.578,5.859,72.266,0
1556291728.777,11.719,27.344,25.879,4.883,11.719,0
1556291728.781,-13.672,35.645,21.484,-4.883,-11.230,0
1556291728.785,-14.160,33.203,20.508,-10.742,22.461,0
1556291728.787,28.809,26.855,20.020,-3.418,3.906,0
1556291728.791,23.438,26.367,19.043,0.488,39.551,0
1556291728.795,4.395,25.391,24.902,4.883,16.113,0
1556291728.799,13.672,26.855,27.344,15.137,17.090,0
1556291728.803,21.484,32.227,22.949,2.930,22.949,0
1556291728.807,9.766,32.227,22.949,-9.766,-5.859,0
1556291728.811,0.488,29.785,23.438,3.906,16.602,0
1556291728.814,-5.371,26.367,21.973,6.348,34.668,0
1556291728.818,12.207,22.461,21.973,5.371,46.875,0
1556291728.822,42.969,25.879,23.926,15.625,64.941,0
1556291728.826,38.086,33.691,31.250,12.207,9.277,0
1556291728.830,16.113,32.227,27.344,21.973,-38.086,0
1556291728.832,12.207,27.344,21.973,27.832,16.113,0
1556291728.836,19.531,29.785,21.973,20.996,8.789,0
1556291728.840,19.043,29.785,17.578,12.695,5.859,0
1556291728.844,-7.324,28.809,23.926,-0.977,8.301,0
1556291728.848,-1.953,25.391,29.297,9.766,25.391,0
1556291728.852,22.949,26.367,31.250,8.789,51.270,0
1556291728.856,22.461,30.762,29.785,1.953,12.207,0
1556291728.859,10.254,27.832,20.020,0.000,37.109,0
1556291728.863,16.113,28.320,22.461,-0.977,20.020,0
1556291728.867,28.320,30.762,27.832,21.973,5.371,0
1556291728.871,13.672,30.762,25.391,12.207,-6.836,0
1556291728.875,19.043,30.273,28.320,-2.441,20.996,0
1556291728.877,19.043,37.109,25.879,12.207,103.027,0
1556291728.881,16.602,35.645,23.438,16.113,79.102,0
1556291728.885,21.973,30.273,26.367,15.137,40.527,0
1556291728.889,6.348,29.785,20.020,9.277,70.801,0
1556291728.893,-3.418,31.738,18.555,2.441,41.016,0
1556291728.897,10.254,26.855,20.996,7.324,31.250,0
1556291728.901,11.719,24.902,23.438,3.906,50.781,0
1556291728.904,7.324,36.621,20.996,2.441,-33.203,0
1556291728.908,14.648,36.133,27.832,12.695,1.953,0
1556291728.912,17.578,32.227,35.645,2.441,41.504,0
1556291728.916,12.695,26.855,25.879,-17.578,-5.371,0
1556291728.920,11.719,20.996,29.297,-7.812,12.695,0
1556291728.921,7.324,28.320,39.551,17.090,59.082,0
1556291728.925,-0.977,29.785,34.668,15.137,62.012,0
1556291728.929,17.578,32.715,22.461,16.113,56.641,0
1556291728.933,25.391,32.227,22.461,18.555,61.035,0
1556291728.937,17.090,28.809,23.438,8.789,17.578,0
1556291728.941,-5.859,27.832,23.926,-0.977,24.414,0
1556291728.945,3.418,32.715,31.250,1.953,36.621,0
1556291728.948,21.484,37.598,26.855,18.066,-3.906,0
1556291728.952,13.184,33.691,19.043,14.648,-7.324,0
1556291728.956,6.348,29.785,22.461,5.859,7.324,0
1556291728.960,6.836,34.668,34.180,6.348,51.270,0
1556291728.964,23.438,37.109,33.691,-2.930,44.434,0
1556291728.967,14.160,33.691,22.949,-8.301,37.109,0
1556291728.971,15.137,33.203,17.090,0.000,80.566,0
1556291728.975,22.949,29.785,14.648,3.418,30.762,0
1556291728.979,13.184,28.809,29.297,-11.719,-7.812,0
1556291728.983,23.438,31.738,35.156,-15.137,-1.465,0
1556291728.987,7.324,35.645,31.738,-16.113,-0.488,0
1556291728.991,-5.371,41.504,33.203,-9.766,-35.645,0
1556291728.994,27.832,37.109,30.273,25.879,-45.898,0
1556291728.998,32.227,28.809,20.996,24.414,51.758,0
1556291729.002,12.207,29.297,22.461,11.719,33.691,0
1556291729.006,-0.488,33.203,31.250,13.184,-3.906,0
1556291729.010,14.648,28.320,27.832,3.418,78.613,0
1556291729.012,22.461,24.902,21.484,-0.488,56.641,0
1556291729.016,11.719,23.926,23.438,1.953,16.113,0
1556291729.020,6.836,22.949,29.785,18.066,12.695,0
1556291729.024,7.324,25.391,29.297,6.836,14.160,0
1556291729.028,22.461,25.879,27.344,-7.324,4.883,0
1556291729.032,15.625,27.832,28.809,0.488,-6.348,0
1556291729.036,31.250,34.668,27.832,5.859,27.344,0
1556291729.039,41.016,34.180,27.344,-1.465,10.742,0
1556291729.043,31.250,32.715,29.297,3.906,23.926,0
1556291729.047,36.133,29.297,28.809,22.949,100.098,0
1556291729.051,12.207,31.250,27.344,11.719,114.258,0
1556291729.055,3.418,34.180,28.809,2.930,17.090,0
1556291729.057,24.414,25.879,28.320,7.812,21.484,0
1556291729.061,23.926,21.484,28.320,1.953,30.273,0
1556291729.065,20.996,22.461,32.715,7.324,-45.410,0
1556291729.069,7.324,27.832,28.809,15.625,-39.551,0
1556291729.073,11.230,27.344,22.461,8.301,-3.906,0
1556291729.077,21.484,24.902,19.531,11.719,-14.160,0
1556291729.081,24.414,27.832,20.508,15.137,14.648,0
1556291729.084,2.930,22.949,37.109,3.418,50.293,0
1556291729.088,-16.602,12.207,40.039,-7.812,41.504,0
1556291729.092,9.277,13.184,28.809,8.789,70.312,0
1556291729.096,37.109,22.949,26.367,19.043,62.500,0
1556291729.100,31.250,31.250,29.785,21.973,28.809,0
1556291729.102,16.113,35.156,32.715,25.391,36.133,0
1556291729.106,27.344,28.809,32.715,20.020,53.223,0
1556291729.110,27.344,25.879,28.809,17.090,23.438,0
1556291729.114,5.371,34.180,28.809,20.020,-1.465,0
1556291729.118,1.953,35.645,28.809,17.578,-31.738,0
1556291729.122,25.879,27.344,26.855,30.762,-29.297,0
1556291729.126,37.109,29.785,27.344,29.297,14.160,0
1556291729.129,25.391,36.621,35.156,12.695,18.066,0
1556291729.133,19.531,33.691,36.133,14.648,-13.184,0
1556291729.137,8.301,27.344,29.785,2.441,77.637,0
1556291729.141,19.043,26.367,27.832,4.883,119.141,0
1556291729.145,35.645,27.344,33.691,17.578,61.523,0
1556291729.162,19.531,31.738,39.551,7.812,52.246,0
1556291729.166,13.184,34.180,33.691,5.859,3.906,0
1556291729.170,40.039,31.250,33.691,13.672,13.184,0
1556291729.174,47.852,33.691,30.273,20.996,36.133,0
1556291729.178,34.180,33.691,31.250,17.090,-13.184,0
1556291729.182,20.020,35.645,37.598,17.090,-24.902,0
1556291729.186,26.367,34.180,35.645,24.414,9.766,0
1556291729.189,29.785,26.367,27.344,21.973,9.766,0
1556291729.193,23.926,24.902,22.949,18.066,-3.906,0
1556291729.197,14.160,36.133,28.809,15.137,59.570,0
1556291729.201,3.906,35.645,28.809,7.812,11.230,0
1556291729.205,32.227,26.855,26.855,12.695,9.277,0
1556291729.206,49.805,30.273,35.156,21.973,72.266,0
1556291729.210,16.602,27.832,39.062,23.438,11.719,0
1556291729.214,2.930,22.461,31.250,11.719,0.000,0
1556291729.218,18.555,31.738,24.414,7.324,51.270,0
1556291729.222,10.254,31.738,24.902,11.719,36.133,0
1556291729.226,4.883,25.391,28.320,10.254,20.996,0
1556291729.230,16.113,21.973,25.391,12.695,28.320,0
1556291729.233,19.531,21.973,25.391,15.625,51.270,0
1556291729.237,11.719,25.391,30.273,3.906,14.160,0
1556291729.241,14.160,24.902,32.227,-1.465,-38.086,0
1556291729.245,22.461,24.414,31.738,1.953,-18.066,0
1556291729.249,22.949,23.438,34.180,-1.953,36.133,0
1556291729.251,41.992,21.973,41.016,8.789,31.738,0
1556291729.255,35.645,29.785,38.574,17.578,-34.668,1
1556291729.259,11.719,36.621,31.250,12.207,-3.906,0
1556291729.263,16.113,31.738,29.785,13.672,52.734,0
1556291729.267,30.762,29.785,32.227,17.578,12.695,0
1556291729.271,40.039,37.598,31.250,20.996,7.812,0
1556291729.275,24.902,45.898,23.926,16.113,17.090,0
1556291729.278,24.414,42.480,21.484,11.719,4.883,0
1556291729.282,23.926,33.203,28.320,12.695,3.906,0
1556291729.286,13.672,32.227,35.156,15.625,42.969,0
1556291729.290,3.418,30.762,34.668,11.719,53.223,0
1556291729.294,-2.930,25.879,41.504,9.277,20.996,0
1556291729.296,6.348,33.691,42.969,16.113,38.086,0
1556291729.300,20.020,36.133,40.039,19.043,13.184,0
1556291729.304,25.879,32.715,38.086,17.090,-12.207,0
1556291729.308,15.137,38.086,33.203,12.695,19.043,0
1556291729.312,20.020,39.551,28.320,9.277,12.695,0
1556291729.316,43.945,29.785,35.645,6.836,1.953,0
1556291729.320,45.410,30.762,36.133,11.719,11.719,0
1556291729.323,24.414,38.574,28.320,13.672,0.488,0
1556291729.327,8.301,41.016,31.250,6.836,9.277,0
1556291729.331,28.809,41.504,36.621,17.090,41.992,0
1556291729.335,36.621,38.574,31.738,16.113,-18.555,0
1556291729.339,12.207,39.551,35.156,5.859,-1.953,0
1556291729.341,6.836,40.527,42.480,1.953,65.918,0
1556291729.345,37.598,34.180,33.691,7.812,47.852,0
1556291729.349,33.203,33.691,27.344,10.742,45.410,0
1556291729.353,0.000,29.785,30.273,10.254,60.059,0
1556291729.357,3.906,28.320,33.691,19.043,37.109,0
1556291729.361,29.297,31.738,31.738,11.719,-16.602,0
1556291729.365,29.297,27.344,37.109,1.953,19.531,0
1556291729.368,-3.906,31.250,40.039,10.254,71.289,0
1556291729.372,1.465,35.645,38.574,11.230,74.219,0
1556291729.376,14.648,32.715,41.016,7.812,83.496,0
1556291729.380,8.301,35.645,45.898,32.715,74.707,0
1556291729.384,28.320,38.086,46.875,43.457,31.738,0
1556291729.386,32.715,32.715,36.133,19.531,8.301,0
1556291729.390,20.508,30.762,35.645,6.836,2.930,0
1556291729.394,7.324,34.668,39.062,4.395,33.691,0
1556291729.398,-10.742,39.062,31.250,-5.859,36.133,0
1556291729.402,-2.441,34.668,33.691,-6.836,-41.016,0
1556291729.406,23.926,31.250,41.016,3.906,-3.906,0
1556291729.410,26.855,29.297,41.016,2.930,1.953,0
1556291729.413,4.883,31.250,39.551,14.648,-54.199,0
1556291729.417,-4.883,31.738,34.668,19.531,-23.926,0
1556291729.421,12.695,29.785,34.668,17.090,-12.207,0
1556291729.425,22.461,37.109,40.039,12.695,-12.695,0
1556291729.429,28.809,25.391,39.551,19.043,-2.441,0
1556291729.431,13.184,14.648,39.551,19.531,-1.465,0
1556291729.435,-2.930,22.461,37.109,17.578,31.250,0
1556291729.439,-1.953,26.367,31.738,20.508,47.363,0
1556291729.443,9.277,32.715,40.039,20.996,40.039,0
1556291729.447,34.180,27.344,43.945,13.672,11.230,0
1556291729.451,16.113,21.973,38.086,9.277,26.855,0
1556291729.455,2.441,23.926,36.621,9.277,-11.230,0
1556291729.458,17.578,21.973,34.668,4.883,24.414,0
1556291729.462,27.832,30.762,23.926,13.672,44.922,0
1556291729.466,18.066,39.551,26.367,16.113,35.156,0
1556291729.470,15.137,38.574,29.297,28.809,56.641,0
1556291729.474,36.133,36.133,28.320,20.996,-9.277,0
1556291729.477,45.898,41.016,34.668,6.836,6.836,0
1556291729.481,40.527,34.668,38.086,16.113,36.133,0
1556291729.485,33.691,23.438,38.086,30.273,3.418,0
1556291729.489,25.879,28.320,36.621,32.715,34.180,0
1556291729.493,32.227,36.621,36.621,22.461,37.598,0
1556291729.497,34.668,32.227,34.668,28.809,30.273,0
1556291729.501,11.230,30.762,31.250,23.438,35.156,0
1556291729.504,20.508,31.250,31.738,30.762,5.371,0
1556291729.508,51.270,26.367,39.551,42.969,31.738,0
1556291729.512,40.039,28.809,38.086,26.367,66.406,0
1556291729.516,14.648,24.902,37.598,13.672,52.246,0
1556291729.520,7.324,29.297,31.738,20.996,34.668,0
1556291729.537,24.902,37.598,36.133,19.043,29.785,0
1556291729.541,23.438,30.273,43.945,11.719,15.625,0
1556291729.545,16.113,26.855,38.574,20.508,14.648,0
1556291729.549,19.043,31.738,38.574,18.066,43.457,0
1556291729.553,30.762,28.809,37.598,9.766,-25.391,0
1556291729.557,38.574,28.809,37.598,9.277,-17.090,0
1556291729.561,27.832,31.738,42.480,2.930,13.672,0
1556291729.564,7.324,25.879,38.574,2.930,-5.371,0
1556291729.568,-2.930,22.461,35.156,5.371,39.062,0
1556291729.572,19.531,26.367,40.527,0.977,28.320,0
1556291729.576,12.207,29.297,42.480,5.859,39.551,0
1556291729.580,19.043,26.367,38.574,10.254,40.527,0
1556291729.582,34.668,33.203,38.086,14.160,44.922,0
1556291729.586,29.297,38.086,38.086,36.621,46.875,0
1556291729.590,18.555,35.156,27.344,32.715,43.457,0
1556291729.594,20.020,34.668,33.203,20.508,15.137,0
1556291729.598,25.879,35.645,42.480,17.090,-31.738,0
1556291729.602,34.668,32.227,42.480,12.695,0.977,0
1556291729.606,31.250,35.645,36.133,7.324,52.734,0
1556291729.609,12.207,40.039,34.668,25.391,69.336,0
1556291729.613,23.926,34.668,44.922,41.992,64.941,0
1556291729.617,32.715,28.320,45.410,27.344,35.645,0
1556291729.621,33.691,23.926,47.852,20.996,20.508,0
1556291729.625,12.695,24.902,50.781,18.555,41.504,0
1556291729.627,-20.020,28.320,53.223,2.930,14.160,0
1556291729.631,5.371,31.738,52.246,3.418,-19.531,0
1556291729.635,25.391,35.645,45.410,31.738,22.949,0
1556291729.639,12.695,34.668,51.758,35.645,29.785,0
1556291729.643,13.184,41.016,53.223,24.902,-27.832,0
1556291729.647,13.184,43.945,46.875,18.555,-40.527,0
1556291729.651,30.273,36.133,45.898,15.137,13.672,0
1556291729.654,39.551,43.457,48.340,36.621,43.457,0
1556291729.658,5.859,48.340,51.758,15.625,52.246,0
1556291729.662,-4.395,39.551,33.691,-5.371,20.020,0
1556291729.666,25.391,35.156,23.926,13.672,-27.832,0
1556291729.670,30.762,32.715,39.551,10.254,7.324,0
1556291729.671,25.879,32.227,47.363,20.020,41.016,0
1556291729.675,40.039,33.203,48.828,31.738,12.695,0
1556291729.679,38.086,27.832,47.852,23.926,-9.277,0
1556291729.683,38.086,31.250,43.945,21.484,-25.391,0
1556291729.687,41.016,44.922,39.062,21.484,18.066,0
1556291729.691,41.016,41.016,39.062,22.461,19.043,0
1556291729.695,30.762,39.551,45.410,35.156,41.504,0
1556291729.698,32.715,41.992,50.293,40.527,79.590,0
1556291729.702,47.852,41.992,43.457,27.832,55.176,0
1556291729.706,32.715,38.574,41.992,31.250,32.715,0
1556291729.710,18.555,36.133,48.340,47.852,-1.465,0
1556291729.714,18.555,36.621,51.270,40.039,19.043,0
1556291729.717,33.691,36.621,48.340,31.738,47.363,0
1556291729.721,35.156,35.156,40.039,32.227,51.758,0
1556291729.725,24.902,31.250,37.598,31.250,23.438,0
1556291729.729,41.504,40.039,41.504,24.414,20.020,0
1556291729.733,38.086,44.434,40.527,16.113,25.391,0
1556291729.737,21.484,39.062,33.203,13.184,-4.883,0
1556291729.741,18.066,36.133,38.086,7.324,-6.348,0
1556291729.744,33.691,37.598,46.875,4.395,-20.020,0
1556291729.748,49.316,36.133,47.363,20.508,31.250,0
1556291729.752,43.457,38.086,41.504,27.344,20.508,0
1556291729.756,17.090,46.387,45.898,20.020,-21.973,0
1556291729.760,14.160,42.480,55.664,21.484,60.547,0
1556291729.762,41.016,32.715,52.734,28.320,106.445,0
1556291729.766,47.363,29.785,48.828,22.949,0.000,0
1556291729.770,26.367,30.273,46.875,32.227,-33.203,0
1556291729.774,4.883,34.668,37.109,35.645,-16.602,0
1556291729.778,11.719,33.691,36.621,20.996,-41.016,0
1556291729.782,10.742,34.668,39.062,31.250,9.766,0
1556291729.786,-0.488,36.621,37.598,28.320,25.391,0
1556291729.789,-4.883,35.156,44.922,21.973,-10.742,0
1556291729.793,-1.465,39.062,43.457,23.926,-9.277,0
1556291729.797,17.578,40.039,42.480,24.414,20.996,0
1556291729.801,9.277,42.969,46.875,19.043,20.020,0
1556291729.805,-4.395,40.527,47.363,23.438,29.785,0
1556291729.807,5.859,40.527,48.340,35.156,87.891,0
1556291729.811,18.066,42.969,45.410,26.855,76.660,0
1556291729.815,26.855,39.551,41.016,24.902,36.621,0
1556291729.819,25.391,44.922,39.551,37.109,-0.488,0
1556291729.823,18.555,43.945,41.992,42.969,18.555,0
1556291729.827,25.879,41.504,37.109,23.926,35.156,0
1556291729.831,45.898,44.434,37.109,23.926,31.738,0
1556291729.834,53.223,41.016,40.039,32.715,22.949,0
1556291729.838,52.734,37.109,36.133,22.461,27.344,0
1556291729.842,55.664,32.715,44.434,23.438,59.570,0
1556291729.846,46.387,35.156,47.363,28.320,7.812,0
1556291729.850,24.902,40.039,45.898,28.809,8.789,0
1556291729.852,32.715,41.016,45.898,20.508,21.484,0
1556291729.856,37.598,38.574,42.480,20.508,-21.484,0
1556291729.860,34.668,37.598,44.434,27.832,-9.277,0
1556291729.864,29.297,39.062,48.828,36.621,22.461,0
1556291729.868,26.855,39.551,43.457,35.156,-1.465,0
1556291729.872,23.926,38.574,40.039,22.949,-26.855,0
1556291729.876,22.461,36.133,46.875,16.113,-18.555,0
1556291729.879,27.832,35.645,49.805,10.742,-7.812,0
1556291729.883,25.879,35.156,42.969,19.043,0.977,0
1556291729.887,25.879,33.691,39.062,22.949,12.695,0
1556291729.891,31.738,31.250,43.945,15.137,29.297,0
1556291729.895,18.555,31.738,44.434,17.090,26.367,0
1556291729.912,12.207,29.297,41.504,23.438,-10.742,0
1556291729.916,22.461,34.668,32.227,25.879,-1.953,0
1556291729.920,20.508,39.062,32.227,18.555,38.086,0
1556291729.924,26.367,32.227,41.016,11.230,41.992,0
1556291729.928,16.113,33.691,42.969,13.672,15.137,0
1556291729.932,-0.488,36.133,43.457,-0.488,30.762,0
1556291729.936,2.441,32.715,33.203,-10.742,24.414,0
1556291729.939,11.719,32.715,28.320,11.230,45.410,0
1556291729.943,31.250,38.086,32.715,22.949,53.223,0
1556291729.947,20.508,38.086,34.180,17.578,36.621,0
1556291729.951,11.719,31.738,32.227,3.906,59.082,0
1556291729.955,25.391,30.273,31.738,5.371,65.430,0
1556291729.957,26.855,31.738,35.156,10.254,51.270,0
1556291729.961,12.207,33.203,35.156,14.648,37.109,0
1556291729.965,11.719,34.668,34.180,13.672,24.902,0
1556291729.969,19.043,36.133,35.645,14.648,1.953,0
1556291729.973,16.602,26.855,33.203,9.766,-10.742,0
1556291729.977,15.137,23.926,36.133,8.301,0.977,0
1556291729.981,16.602,28.320,40.527,18.555,0.000,0
1556291729.984,14.648,29.785,37.109,5.859,4.395,0
1556291729.988,10.254,35.156,32.715,7.324,-13.184,0
1556291729.992,16.602,38.574,25.879,17.578,-37.109,0
1556291729.996,12.207,39.551,28.809,13.184,-14.160,0
1556291730.000,5.859,38.574,41.992,5.371,21.973,0
1556291730.002,12.695,34.180,43.457,11.230,75.684,0
1556291730.006,8.789,34.180,44.922,31.250,52.734,0
1556291730.010,7.812,37.598,45.898,36.133,8.301,0
1556291730.014,11.719,36.133,40.039,22.949,6.348,0
1556291730.018,34.180,29.297,43.945,20.996,42.480,0
1556291730.022,61.523,33.691,47.363,41.992,56.152,0
1556291730.026,43.945,36.621,42.969,41.016,37.598,0
1556291730.029,20.020,28.809,40.039,27.344,22.461,0
1556291730.033,41.504,31.738,37.109,22.461,30.762,0
1556291730.037,47.363,35.156,34.668,21.484,42.480,0
1556291730.041,25.879,38.574,35.156,23.926,42.480,0
1556291730.045,32.715,42.480,30.762,19.531,22.461,0
1556291730.047,44.922,37.598,34.180,9.277,-16.602,0
1556291730.051,22.949,40.527,38.574,9.277,-4.883,0
1556291730.055,13.672,41.504,35.645,15.137,9.766,0
1556291730.059,26.367,36.133,41.016,9.277,42.969,0
1556291730.063,27.344,39.062,37.109,9.277,97.168,0
1556291730.067,28.320,42.480,28.320,26.367,40.039,0
1556291730.071,33.691,38.574,31.250,38.574,1.953,0
1556291730.074,24.902,41.992,30.762,27.344,46.875,0
1556291730.078,26.367,44.922,26.367,8.301,36.133,0
1556291730.082,32.227,33.203,24.902,-6.348,-11.230,0
1556291730.086,20.996,30.762,29.297,10.742,16.113,0
1556291730.090,18.066,35.156,31.250,26.367,37.598,0
1556291730.092,5.371,32.227,38.086,9.277,26.367,0
1556291730.096,16.113,26.367,44.434,7.324,19.043,0
1556291730.100,29.297,28.320,42.969,13.184,26.367,0
1556291730.104,5.371,29.785,42.480,19.043,10.742,0
1556291730.108,8.789,25.391,39.062,13.672,-19.531,0
1556291730.112,19.043,25.391,35.645,1.953,-10.254,0
1556291730.116,32.227,33.203,37.598,17.090,-13.184,0
1556291730.119,41.504,34.668,36.621,36.133,0.488,0
1556291730.123,19.043,25.879,35.156,3.418,1.465,0
1556291730.127,14.160,28.809,30.762,3.906,-14.648,0
1556291730.131,30.273,28.809,28.320,19.531,6.836,0
1556291730.135,34.668,23.926,34.668,10.742,37.109,0
1556291730.137,18.555,29.785,33.203,15.137,52.734,0
1556291730.141,17.578,30.273,33.691,24.414,52.246,0
1556291730.145,38.574,30.273,38.574,24.902,32.715,0
1556291730.149,32.715,28.320,37.109,13.184,0.977,0
1556291730.153,29.785,26.855,37.598,15.625,5.371,0
1556291730.157,28.320,32.227,41.016,18.555,29.785,0
1556291730.161,27.832,32.715,42.969,24.414,47.852,0
1556291730.164,35.156,36.133,34.668,25.879,50.293,0
1556291730.168,25.391,33.203,34.180,13.184,32.715,0
1556291730.172,21.973,26.367,40.527,20.996,40.039,0
1556291730.176,27.832,28.320,36.621,27.344,48.828,0
1556291730.180,20.020,27.344,40.039,18.066,32.715,0
1556291730.182,13.184,30.762,36.133,16.602,47.363,0
1556291730.186,20.020,32.715,30.273,20.020,74.707,0
1556291730.190,28.809,30.762,30.762,18.555,53.711,0
1556291730.194,38.086,30.273,25.879,15.137,47.363,0
1556291730.198,35.645,36.621,29.785,21.973,18.066,0
1556291730.202,20.020,37.598,40.527,33.691,27.344,0
1556291730.206,23.926,27.344,33.691,20.508,42.480,0
1556291730.209,29.297,28.320,28.809,6.836,34.180,0
1556291730.213,12.695,28.320,33.203,10.254,18.066,0
1556291730.217,18.066,28.809,36.621,20.020,-13.184,0
1556291730.221,13.672,31.738,30.762,12.207,5.859,0
1556291730.225,10.742,35.156,27.832,2.930,35.645,0
1556291730.226,20.996,39.551,33.691,15.625,43.945,0
1556291730.230,22.461,37.109,34.180,24.414,19.043,0
1556291730.234,27.344,35.156,38.574,15.625,45.410,0
1556291730.238,30.762,34.180,32.715,1.465,16.602,0
1556291730.242,24.414,31.738,26.367,8.301,-9.277,0
1556291730.246,22.949,31.738,38.574,17.090,8.789,0
1556291730.250,28.320,27.832,45.410,15.137,-1.953,0
1556291730.253,18.066,30.762,34.668,4.395,17.090,0
1556291730.257,25.391,30.762,31.738,8.789,33.203,0
1556291730.261,30.273,29.785,34.668,15.137,57.617,0
1556291730.265,0.977,32.715,34.180,-3.906,0.488,0
1556291730.269,1.953,30.762,31.738,-6.836,0.488,0
1556291730.287,26.367,31.250,31.738,0.977,19.043,0
1556291730.291,17.578,30.273,35.645,8.789,-18.555,0
1556291730.295,11.230,32.227,25.391,18.066,-7.812,0
1556291730.299,4.883,40.527,26.855,10.742,10.742,0
1556291730.303,18.066,41.016,36.133,-1.465,9.766,0
1556291730.307,29.297,29.297,31.738,-2.930,3.418,0
1556291730.311,18.555,27.832,29.297,9.766,26.367,0
1556291730.314,12.695,29.785,26.855,14.160,40.527,0
1556291730.318,16.602,33.691,21.973,16.602,33.203,0
1556291730.322,26.855,34.668,27.344,14.160,41.504,0
1556291730.326,10.742,34.668,27.344,-3.906,45.898,1
1556291730.330,10.742,30.273,28.809,1.465,32.227,0
1556291730.332,23.438,29.785,33.203,20.996,25.391,0
1556291730.336,23.926,32.227,30.762,9.766,23.926,0
1556291730.340,7.812,29.785,33.203,-5.859,17.090,0
1556291730.344,5.371,30.762,33.691,6.348,24.902,0
1556291730.348,27.832,30.762,27.832,20.508,43.457,0
1556291730.352,31.738,27.832,27.832,17.090,40.039,0
1556291730.356,32.715,28.809,30.273,26.367,17.090,0
1556291730.359,25.879,29.785,25.879,15.625,36.133,0
1556291730.363,24.414,23.926,28.809,15.137,58.594,0
1556291730.367,25.879,27.832,30.273,29.297,16.602,0
1556291730.371,13.184,32.715,27.832,12.695,22.949,0
1556291730.375,11.719,34.668,33.203,11.230,57.617,0
1556291730.377,10.742,32.227,33.203,10.254,37.598,0
1556291730.381,10.742,29.297,27.832,5.371,-23.926,0
1556291730.385,13.672,29.297,28.320,8.789,-30.273,0
1556291730.389,16.113,22.461,29.297,13.184,2.930,0
1556291730.393,10.742,26.855,25.879,12.695,27.344,0
1556291730.397,7.812,35.645,22.949,3.418,21.973,0
1556291730.401,23.926,33.203,13.184,6.836,31.250,0
1556291730.404,22.461,28.809,16.113,17.578,5.859,0
1556291730.408,7.812,27.344,28.809,9.277,-2.930,0
1556291730.412,13.672,33.203,30.762,7.324,-21.973,0
1556291730.416,23.926,34.180,25.879,5.371,1.465,0
1556291730.420,28.809,23.438,25.879,7.812,-3.906,0
1556291730.422,7.324,23.438,29.297,7.812,-31.250,0
1556291730.426,-2.930,33.203,28.809,7.324,-20.508,0
1556291730.430,6.836,28.809,29.785,19.043,-0.488,0
1556291730.434,22.461,25.879,26.367,21.973,9.277,0
1556291730.438,20.508,31.738,27.344,22.461,-1.465,0
1556291730.442,13.184,31.250,31.250,21.973,18.555,0
1556291730.446,1.953,35.645,28.809,19.531,31.250,0
1556291730.449,-4.395,31.738,27.344,-0.977,27.344,0
1556291730.453,24.414,34.668,25.391,-2.930,46.387,0
1556291730.457,21.973,39.062,29.785,30.273,38.086,0
1556291730.461,10.254,30.273,30.273,18.066,5.859,0
1556291730.465,31.250,27.344,27.344,9.277,14.160,0
1556291730.467,28.809,29.297,32.227,16.113,-0.488,0
1556291730.471,17.578,34.180,30.762,17.578,-54.688,0
1556291730.475,28.809,41.504,27.832,20.508,-7.324,0
1556291730.479,25.879,40.039,29.785,18.555,46.875,0
1556291730.483,21.973,35.156,32.227,9.277,49.805,0
1556291730.487,21.484,40.039,33.691,6.348,27.832,0
1556291730.491,24.902,40.527,25.879,9.766,-1.465,0
1556291730.494,19.531,42.480,22.949,-1.465,0.977,0
1556291730.498,29.785,42.480,24.902,5.859,-16.113,0
1556291730.502,25.879,37.109,27.344,13.672,1.953,0
1556291730.506,20.508,38.086,37.598,9.766,52.246,0
1556291730.510,30.273,39.551,41.016,15.625,-8.789,0
1556291730.512,35.645,39.062,38.086,9.277,-46.387,0
1556291730.516,25.879,33.203,37.109,11.719,-18.555,0
1556291730.520,6.836,29.785,34.668,23.438,12.207,0
1556291730.524,16.113,41.992,37.598,24.414,35.645,0
1556291730.528,12.207,37.598,40.039,19.043,-5.859,0
1556291730.532,5.859,26.855,38.574,14.648,2.441,0
1556291730.536,32.715,31.250,32.227,30.762,53.223,0
1556291730.539,28.320,31.738,28.320,30.273,82.520,0
1556291730.543,7.812,38.574,31.250,19.043,68.359,0
1556291730.547,14.160,35.645,36.133,27.832,36.621,0
1556291730.551,12.695,22.461,43.457,21.973,-2.930,0
1556291730.555,9.277,24.902,40.527,13.672,-9.766,0
1556291730.557,24.902,31.738,34.180,13.672,46.387,0
1556291730.561,26.367,32.715,27.832,19.531,30.762,0
1556291730.565,12.207,33.691,21.973,17.578,7.812,0
1556291730.569,2.441,37.109,25.391,10.254,17.090,0
1556291730.573,0.977,31.250,31.738,2.441,8.301,0
1556291730.577,5.371,31.738,31.738,-5.859,19.531,0
1556291730.581,3.906,34.668,40.039,-6.348,57.617,0
1556291730.584,15.137,23.926,40.527,0.977,45.898,0
1556291730.588,23.926,23.926,26.367,12.695,40.039,0
1556291730.592,36.621,22.949,25.391,17.090,41.504,0
1556291730.596,38.086,25.879,29.297,8.789,3.418,0
1556291730.600,6.836,26.855,30.762,3.906,0.977,0
1556291730.602,10.254,30.762,31.738,29.297,16.113,0
1556291730.606,41.992,37.109,35.156,35.645,3.418,0
1556291730.610,25.391,24.902,31.250,10.254,20.020,0
1556291730.614,11.230,20.020,24.902,11.230,38.574,0
1556291730.618,12.207,26.855,30.273,18.066,21.973,0
1556291730.622,12.207,23.926,32.715,17.090,54.199,0
1556291730.626,20.020,22.949,33.691,19.531,45.410,0
1556291730.629,18.555,25.391,36.621,8.789,34.668,0
1556291730.633,20.996,26.367,30.273,3.906,69.824,0
1556291730.637,20.020,25.391,31.738,8.301,56.641,0
1556291730.641,15.137,19.531,37.598,-11.230,45.898,0
1556291730.645,15.137,25.391,30.762,-8.301,58.594,0
1556291730.662,11.230,32.715,22.949,9.766,7.324,0
1556291730.666,29.297,27.832,27.344,8.301,-6.348,0
1556291730.670,21.973,21.973,29.297,15.137,7.812,0
1556291730.674,0.488,23.438,33.203,19.043,31.738,0
1556291730.678,13.184,22.949,35.645,14.648,19.043,0
1556291730.682,8.789,24.414,36.133,4.883,27.344,0
1556291730.686,11.230,22.949,37.598,-13.184,48.828,0
1556291730.689,22.949,25.879,32.227,2.441,62.012,0
1556291730.693,17.090,24.902,29.785,20.020,78.125,0
1556291730.697,12.695,15.625,28.809,1.953,36.621,0
1556291730.701,19.531,24.414,28.809,-0.488,7.812,0
1556291730.705,15.625,31.250,27.344,5.859,4.395,0
1556291730.707,11.230,28.320,25.879,4.395,-11.719,0
1556291730.711,13.672,30.273,22.949,4.395,11.230,0
1556291730.715,19.531,23.438,22.949,12.207,16.113,0
1556291730.719,35.156,25.879,36.133,22.949,-29.297,0
1556291730.723,39.062,30.273,37.598,19.531,28.320,0
1556291730.727,10.254,28.320,33.203,16.602,79.102,0
1556291730.731,5.859,30.762,31.250,22.949,61.035,0
1556291730.734,32.227,36.621,27.832,29.297,33.203,0
1556291730.738,37.109,33.203,32.715,26.367,1.465,0
1556291730.742,8.789,25.391,36.133,8.789,-28.320,0
1556291730.746,-11.230,22.949,38.574,-3.418,-18.066,0
1556291730.750,14.648,21.973,35.156,1.465,-14.648,0
1556291730.752,23.438,27.832,26.855,8.301,34.180,0
1556291730.756,4.395,30.762,26.855,11.719,48.340,0
1556291730.760,3.418,33.203,30.273,19.531,-6.348,0
1556291730.764,11.719,30.273,36.133,9.766,-31.738,0
1556291730.768,23.926,16.602,40.527,11.230,-25.879,0
1556291730.772,22.949,21.484,38.086,17.090,22.461,0
1556291730.776,3.418,28.809,37.598,9.277,37.598,0
1556291730.779,-2.441,28.320,37.598,2.930,35.645,0
1556291730.783,7.324,30.273,38.086,12.695,-2.441,0
1556291730.787,29.297,31.250,38.574,24.414,2.441,0
1556291730.791,23.926,29.785,32.715,28.320,34.180,0
1556291730.795,18.555,30.273,32.227,29.297,-7.324,0
1556291730.797,42.480,27.344,38.086,33.203,-22.461,0
1556291730.801,33.691,23.926,44.434,20.996,16.113,0
1556291730.805,15.137,23.438,44.922,22.461,3.906,0
1556291730.809,14.648,31.738,38.086,20.508,2.930,0
1556291730.813,20.508,27.832,33.691,8.301,29.785,0
1556291730.817,20.508,21.484,33.691,4.395,60.059,0
1556291730.821,12.207,26.367,34.180,9.766,49.805,0
1556291730.824,19.043,34.180,28.809,23.926,27.832,0
1556291730.828,13.672,32.227,27.832,19.531,15.137,0
1556291730.832,8.789,26.367,32.227,4.883,8.301,0
1556291730.836,28.809,20.996,36.133,5.859,5.371,0
1556291730.840,15.625,20.508,38.086,15.137,4.883,0
1556291730.842,8.301,26.367,39.062,18.555,42.969,0
1556291730.846,21.484,25.391,33.203,18.066,41.992,0
1556291730.850,25.391,24.902,28.809,18.555,16.113,0
1556291730.854,12.207,25.391,25.391,30.762,30.762,0
1556291730.858,7.812,30.762,29.297,22.461,-2.441,0
1556291730.862,24.902,28.809,37.598,13.672,16.113,0
1556291730.866,32.227,25.879,41.016,4.883,43.457,0
1556291730.869,5.859,27.344,38.574,-4.395,38.086,0
1556291730.873,-4.395,34.180,27.344,-5.371,48.340,0
1556291730.877,3.418,34.668,26.367,-0.977,16.602,0
1556291730.881,23.438,29.785,30.273,8.789,-23.926,0
1556291730.885,12.695,25.879,30.273,6.348,2.930,0
1556291730.887,-24.414,26.367,34.668,-0.977,4.395,0
1556291730.891,6.348,23.438,35.645,5.859,25.391,0
1556291730.895,40.527,18.555,30.762,13.184,31.250,0
1556291730.899,27.832,20.996,35.645,17.090,-11.719,0
1556291730.903,18.066,24.414,38.086,4.883,28.320,0
1556291730.907,2.441,31.250,30.273,3.418,-4.395,0
1556291730.911,0.488,27.344,29.785,24.414,-4.395,0
1556291730.914,8.789,22.461,30.762,18.555,26.855,0
1556291730.918,11.719,20.508,28.320,16.113,-18.066,0
1556291730.922,8.789,26.367,27.344,20.508,13.184,0
1556291730.926,12.207,35.156,27.344,11.230,35.645,0
1556291730.930,26.367,23.438,28.809,12.207,59.082,0
1556291730.932,16.602,24.902,27.832,15.625,73.730,0
1556291730.936,20.508,40.039,29.297,24.414,45.898,0
1556291730.940,24.902,33.691,31.738,19.531,43.945,0
1556291730.944,21.973,20.508,29.785,19.531,5.859,0
1556291730.948,29.785,21.484,27.344,18.555,-20.508,0
1556291730.952,15.137,23.926,28.320,18.555,28.809,0
1556291730.956,27.344,29.785,26.367,28.320,58.105,0
1556291730.959,26.855,29.785,27.344,20.996,11.230,0
1556291730.963,22.461,29.785,29.297,23.438,9.766,0
1556291730.967,14.160,31.250,31.250,10.254,62.500,0
1556291730.971,8.301,30.762,31.250,-0.977,74.707,0
1556291730.975,30.762,30.273,28.809,16.113,63.965,0
1556291730.977,28.809,25.879,28.320,25.879,63.477,0
1556291730.981,13.672,24.902,35.156,17.090,18.066,0
1556291730.985,10.254,24.414,42.969,10.254,-12.207,0
1556291730.989,28.809,22.461,32.715,12.207,-15.625,0
1556291730.993,34.180,24.414,30.762,13.184,-30.273,0
1556291730.997,20.996,30.273,32.715,19.531,-10.254,0
1556291731.001,20.020,29.297,32.227,18.066,-42.480,0
1556291731.004,23.926,26.855,28.809,11.230,1.953,0
1556291731.008,26.367,26.367,25.879,12.207,16.602,0
1556291731.012,20.020,28.809,28.809,10.254,2.930,0
1556291731.016,7.324,25.879,35.156,13.184,47.852,0
1556291731.020,17.090,27.344,32.227,27.832,57.617,0
1556291731.037,27.832,34.180,26.367,25.391,31.738,0
1556291731.041,29.785,34.180,32.715,20.508,18.066,0
1556291731.045,11.719,28.320,34.668,20.020,26.367,0
1556291731.049,0.000,23.926,34.668,11.719,31.738,0
1556291731.053,8.789,23.926,33.203,19.531,52.734,0
1556291731.057,24.902,30.273,27.832,14.648,40.039,0
1556291731.061,24.902,30.273,30.762,13.184,-21.484,0
1556291731.064,6.348,24.902,38.086,22.949,-10.254,0
1556291731.068,14.160,23.438,35.645,6.836,-9.766,0
1556291731.072,25.391,25.391,32.715,4.395,2.441,0
1556291731.076,28.809,24.414,33.691,19.043,18.555,0
1556291731.080,21.484,32.227,32.715,14.648,25.879,0
1556291731.082,17.090,35.645,32.227,19.531,77.637,0
1556291731.086,26.367,28.809,32.227,18.066,78.613,0
1556291731.090,30.762,28.809,33.203,17.090,56.152,0
1556291731.094,18.066,31.250,33.691,32.715,15.625,0
1556291731.098,22.461,30.273,27.344,18.066,7.324,0
1556291731.102,30.273,26.855,19.531,11.230,-20.020,0
1556291731.106,21.484,29.785,23.438,15.137,-29.297,0
1556291731.109,7.324,29.785,31.250,10.254,33.203,0
1556291731.113,21.973,29.785,28.809,22.949,33.691,0
1556291731.117,28.809,22.949,29.297,10.742,-40.039,0
1556291731.121,31.250,23.438,31.738,0.977,-20.020,0
1556291731.125,23.438,31.250,36.621,26.367,36.133,0
1556291731.127,5.371,35.645,30.273,23.926,33.691,0
1556291731.131,23.926,29.297,26.855,1.465,51.270,0
1556291731.135,32.715,23.926,31.738,16.602,43.945,0
1556291731.139,16.602,29.297,31.250,19.043,32.227,0
1556291731.143,10.742,24.414,37.109,2.441,-0.977,0
1556291731.147,-1.953,21.484,41.504,-8.301,-4.883,0
1556291731.151,12.695,31.250,38.574,-7.324,17.090,0
1556291731.154,17.090,34.668,39.062,11.719,-10.254,0
1556291731.158,1.953,37.109,38.086,13.184,-18.555,0
1556291731.162,15.625,40.039,31.250,3.906,3.906,0
1556291731.166,25.391,38.574,32.715,14.160,17.090,0
1556291731.170,32.227,33.203,32.227,16.113,42.480,0
1556291731.174,27.344,28.320,27.832,11.719,43.457,0
1556291731.178,-2.930,30.762,25.391,17.090,48.340,0
1556291731.182,-7.812,33.691,29.785,9.277,41.992,0
1556291731.186,26.367,28.320,33.203,16.113,33.203,0
1556291731.190,30.762,24.414,34.180,28.320,6.836,0
1556291731.194,16.602,27.832,37.598,23.926,1.465,0
1556291731.198,20.508,28.320,38.086,23.438,8.301,0
1556291731.201,23.926,37.598,31.250,7.812,41.992,0
1556291731.205,8.789,40.527,27.832,7.324,72.266,0
1556291731.209,10.254,37.598,25.391,13.184,33.691,0
1556291731.213,1.953,39.551,24.902,4.395,30.762,0
1556291731.217,25.391,36.133,22.461,11.230,35.645,0
1556291731.216,41.504,36.621,20.508,24.902,47.363,0
1556291731.220,13.184,35.645,27.344,16.113,70.312,0
1556291731.224,7.324,34.180,27.344,-6.836,45.410,0
1556291731.228,12.695,36.133,23.438,-18.555,-27.832,0
1556291731.232,27.832,28.809,31.250,-4.883,-4.883,0
1556291731.236,33.691,29.785,37.598,9.277,34.668,0
1556291731.240,15.625,36.133,39.062,-0.977,82.031,0
1556291731.243,5.859,37.598,33.203,-7.324,61.523,0
1556291731.247,11.230,38.086,27.344,2.930,26.855,0
1556291731.251,20.996,37.109,26.367,13.672,-17.090,0
1556291731.255,20.996,31.250,35.156,18.555,-40.527,0
1556291731.259,7.812,32.715,40.039,10.742,-17.090,0
1556291731.261,24.414,45.898,31.250,14.648,-0.488,0
1556291731.265,30.273,45.410,31.250,37.109,2.930,0
1556291731.269,17.090,35.645,38.086,38.086,40.527,0
1556291731.273,19.531,35.645,39.062,32.715,41.016,0
1556291731.277,42.969,39.551,31.250,26.855,35.156,0
1556291731.281,36.133,41.992,25.879,32.715,58.105,0
1556291731.285,8.301,41.016,33.691,33.691,51.270,0
1556291731.288,8.301,36.621,39.551,17.090,37.598,0
1556291731.292,27.344,37.598,31.250,10.742,7.324,0
1556291731.296,33.203,41.016,26.367,14.160,53.223,0
1556291731.300,7.812,37.598,22.949,10.254,11.230,0
1556291731.304,-1.465,34.180,16.113,8.789,-0.977,0
1556291731.306,21.484,34.180,27.832,17.090,32.715,0
1556291731.310,32.715,37.109,34.180,17.578,5.859,0
1556291731.314,11.719,39.551,30.762,17.578,-6.836,0
1556291731.318,6.836,36.621,35.645,18.066,-12.207,0
1556291731.322,15.625,34.668,32.715,8.301,25.879,0
1556291731.326,16.602,36.133,27.832,9.277,20.508,0
1556291731.330,12.207,37.598,27.832,2.441,-22.461,0
1556291731.333,4.883,36.621,27.832,-10.254,8.301,0
1556291731.337,13.184,28.320,27.832,12.695,1.465,0
1556291731.341,28.320,30.762,28.320,19.531,-36.621,0
1556291731.345,15.137,39.062,28.809,16.602,-9.277,0
1556291731.349,5.371,39.551,28.809,7.324,35.156,0
1556291731.351,14.648,40.527,26.855,-2.930,54.199,0
1556291731.355,18.555,35.645,29.785,6.348,25.391,0
1556291731.359,23.926,27.832,33.203,6.348,8.789,0
1556291731.363,14.648,23.926,34.180,-2.930,23.926,0
1556291731.367,-2.441,31.250,28.320,0.977,31.250,0
1556291731.371,15.625,36.133,20.996,16.602,80.566,0
1556291731.375,31.738,32.715,25.879,13.184,55.176,0
1556291731.378,18.555,29.297,31.738,0.977,26.855,0
1556291731.382,10.254,39.062,34.668,15.625,51.270,0
1556291731.386,14.648,47.852,38.086,22.461,45.898,0
1556291731.390,26.367,32.715,29.297,16.113,31.738,0
1556291731.394,36.133,26.855,27.344,23.926,12.207,0
1556291731.411,18.066,33.691,33.691,21.484,31.250,0
1556291731.415,9.277,29.297,34.668,9.766,33.203,0
1556291731.419,22.949,26.855,34.668,18.555,-11.719,0
1556291731.423,22.461,37.109,30.762,10.254,20.508,0
1556291731.427,18.066,35.645,30.273,-0.977,85.938,0
1556291731.431,-0.977,30.273,37.598,-5.859,34.668,0
1556291731.435,10.254,34.668,36.133,-16.113,-13.184,0
1556291731.438,41.016,36.621,28.809,11.719,-0.977,0
1556291731.442,21.484,35.645,31.738,18.555,0.977,0
1556291731.446,3.418,32.715,30.762,12.207,-22.461,2
1556291731.450,17.090,28.809,24.902,19.043,-11.230,0
1556291731.454,33.203,27.344,24.414,25.391,54.688,0
1556291731.456,20.508,30.762,32.227,10.742,28.809,0
1556291731.460,2.930,32.227,34.668,0.000,19.043,0
1556291731.464,2.930,31.250,34.180,-2.930,21.973,0
1556291731.468,7.812,29.297,39.551,1.465,8.301,0
1556291731.472,28.809,31.738,34.668,2.930,46.875,0
1556291731.476,22.461,34.668,32.715,2.441,45.898,0
1556291731.480,14.160,26.855,33.691,7.324,19.043,0
1556291731.483,36.621,20.996,28.809,17.578,32.227,0
1556291731.487,37.598,25.879,29.785,30.273,76.172,0
1556291731.491,27.344,35.156,32.227,33.691,41.504,0
1556291731.495,15.137,33.203,31.738,23.438,4.395,0
1556291731.499,16.602,25.879,29.785,12.695,10.254,0
1556291731.501,23.926,27.344,28.809,14.648,19.043,0
1556291731.505,30.762,23.926,32.715,19.043,47.363,0
1556291731.509,27.344,25.879,34.668,18.555,51.758,0
1556291731.513,21.973,25.391,32.715,9.277,48.340,0
1556291731.517,18.555,26.367,24.902,12.695,37.598,0
1556291731.521,4.395,34.180,30.273,6.836,18.066,0
1556291731.525,8.789,35.156,31.738,9.766,19.043,0
1556291731.528,16.113,30.273,25.879,14.648,-24.902,0
1556291731.532,28.320,23.438,31.250,0.488,-20.508,0
1556291731.536,24.414,22.461,35.645,8.301,17.578,0
1556291731.540,9.277,29.785,32.715,15.137,31.250,0
1556291731.544,-0.488,30.762,30.273,2.930,68.848,0
1556291731.546,-2.930,24.902,33.691,-16.602,43.945,0
1556291731.550,26.367,29.297,32.715,-2.930,15.137,0
1556291731.554,12.695,34.668,29.297,9.277,25.879,0
1556291731.558,-17.090,25.391,28.809,0.977,15.137,0
1556291731.562,-5.859,24.414,34.668,3.906,28.809,0
1556291731.566,21.973,28.320,34.180,3.906,29.297,0
1556291731.570,3.906,17.090,30.762,7.812,-10.742,0
1556291731.573,-7.324,16.602,32.715,13.672,-1.465,0
1556291731.577,18.066,26.855,31.738,3.418,40.527,0
1556291731.581,25.879,27.344,32.715,3.906,-9.277,0
1556291731.585,18.066,19.531,38.086,7.324,11.719,0
1556291731.589,14.160,20.020,38.574,-3.418,59.082,0
1556291731.591,15.625,32.715,31.738,13.184,81.055,0
1556291731.595,20.996,34.180,29.297,15.137,81.055,0
1556291731.599,20.996,35.156,31.250,5.859,28.809,0
1556291731.603,10.742,37.109,30.762,13.672,10.742,0
1556291731.607,27.344,38.574,30.762,16.113,-7.324,0
1556291731.611,33.691,45.898,34.668,24.902,39.062,0
1556291731.615,41.992,41.504,39.062,24.902,93.262,0
1556291731.618,20.996,38.574,35.156,4.883,62.988,0
1556291731.622,2.441,46.875,30.273,9.766,42.969,0
1556291731.626,20.020,51.270,33.203,17.090,9.277,0
1556291731.630,30.273,57.129,41.992,6.348,-84.961,0
1556291731.634,20.020,56.641,44.434,8.789,-39.062,0
1556291731.637,14.160,48.340,34.180,16.113,16.113,0
1556291731.641,27.832,54.688,36.133,15.625,-33.691,0
1556291731.645,25.391,65.430,42.969,16.113,-18.555,0
1556291731.649,24.902,67.871,35.156,22.949,41.504,0
1556291731.653,33.203,64.941,36.133,39.062,-18.555,0
1556291731.657,42.969,68.848,36.621,36.621,-37.598,0
1556291731.661,36.621,69.824,36.621,17.578,1.953,0
1556291731.664,27.344,70.801,35.156,19.043,38.574,0
1556291731.668,25.879,69.336,32.227,31.738,11.230,0
1556291731.672,20.508,68.359,31.738,23.438,-28.809,0
1556291731.676,29.785,62.012,42.969,10.254,-34.668,0
1556291731.680,26.367,64.453,44.922,15.137,-54.688,0
1556291731.682,30.762,69.824,31.738,20.020,1.465,0
1556291731.686,39.551,63.477,29.785,17.578,29.297,0
1556291731.690,13.672,64.453,31.738,12.695,-3.418,0
1556291731.694,6.836,69.336,33.203,8.301,2.930,0
1556291731.698,30.273,68.359,31.250,10.254,5.371,0
1556291731.702,29.785,66.895,35.645,17.578,31.250,0
1556291731.706,23.438,65.918,42.480,18.066,30.273,0
1556291731.709,31.250,57.617,33.691,12.695,-5.371,0
1556291731.713,28.320,58.594,33.691,20.508,40.039,0
1556291731.717,25.879,60.059,41.504,35.645,73.242,0
1556291731.721,33.691,58.105,32.715,38.574,104.004,0
1556291731.725,32.715,59.570,27.344,14.160,37.598,0
1556291731.727,28.320,60.547,38.574,17.090,-8.789,0
1556291731.731,22.461,55.176,37.598,31.250,54.688,0
1556291731.735,17.578,53.711,27.832,8.789,60.547,0
1556291731.739,22.461,57.617,29.785,6.836,45.898,0
1556291731.743,30.762,54.688,29.297,14.648,31.738,0
1556291731.747,24.902,53.711,31.250,20.508,-2.441,0
1556291731.751,22.461,53.711,35.645,20.020,8.301,0
1556291731.754,39.551,57.129,30.762,21.484,18.555,0
1556291731.758,37.109,62.012,31.738,31.250,4.883,0
1556291731.762,17.090,62.500,33.691,25.391,-9.766,0
1556291731.766,10.742,58.594,29.297,11.230,-12.695,0
1556291731.770,14.648,61.035,29.785,18.066,28.320,0
1556291731.787,29.785,54.688,31.250,14.648,38.574,0
1556291731.791,36.133,47.363,28.320,2.441,11.230,0
1556291731.795,26.367,49.805,25.391,10.742,24.414,0
1556291731.799,12.207,52.734,27.344,10.254,59.570,0
1556291731.803,25.879,53.223,24.414,6.348,37.598,0
1556291731.807,23.926,48.828,22.949,-0.488,-12.207,0
1556291731.811,17.090,49.316,29.785,5.859,-1.953,0
1556291731.814,23.926,42.480,30.762,6.348,27.832,0
1556291731.818,1.953,44.922,24.414,-5.859,39.062,0
1556291731.822,10.254,53.223,21.484,9.766,21.973,0
1556291731.826,23.438,49.316,22.461,15.625,6.348,0
1556291731.830,15.625,52.246,26.367,16.113,24.902,0
1556291731.832,11.230,53.223,28.809,11.719,29.297,0
1556291731.836,29.785,47.852,30.273,15.625,36.621,0
1556291731.840,40.527,47.852,34.180,43.945,30.762,0
1556291731.844,33.691,53.223,36.133,43.945,23.438,0
1556291731.848,34.668,55.664,30.273,30.762,6.836,0
1556291731.852,37.598,49.805,23.438,18.555,28.809,0
1556291731.856,34.180,50.293,23.926,21.973,16.113,0
1556291731.859,22.949,48.828,30.762,26.855,4.395,0
1556291731.863,22.461,42.480,38.086,17.578,-1.465,0
1556291731.867,26.367,47.363,35.156,19.043,-27.832,0
1556291731.871,13.672,51.758,33.691,16.113,9.277,0
1556291731.875,20.020,53.223,40.527,17.090,71.777,0
1556291731.877,18.066,56.641,42.480,12.207,52.246,0
1556291731.881,10.742,49.316,35.645,8.789,37.598,0
1556291731.885,41.504,46.387,33.691,14.160,4.883,0
1556291731.889,39.551,47.363,35.645,18.066,-29.785,0
1556291731.893,5.371,49.805,33.691,17.578,-47.852,0
1556291731.897,18.555,48.340,37.598,25.879,-44.434,0
1556291731.901,36.133,49.316,38.086,28.320,-6.836,0
1556291731.904,26.367,46.387,39.062,12.207,31.738,0
1556291731.908,18.066,55.176,40.527,14.160,73.242,0
1556291731.912,25.879,63.965,38.574,25.391,37.109,0
1556291731.916,58.105,57.129,38.086,46.387,12.695,0
1556291731.920,62.500,50.781,38.574,32.227,27.344,0
1556291731.922,48.340,46.875,39.062,28.809,37.598,0
1556291731.926,40.039,54.688,33.203,42.969,3.906,0
1556291731.930,41.504,62.500,35.645,35.645,6.348,0
1556291731.934,39.551,50.781,45.898,25.391,33.203,0
1556291731.938,24.902,44.434,49.316,20.020,28.320,0
1556291731.942,21.973,47.363,44.922,28.320,16.113,0
1556291731.946,19.531,46.387,38.574,29.785,7.324,0
1556291731.949,22.949,52.734,37.109,42.969,20.996,0
1556291731.953,28.809,52.246,32.227,32.227,55.664,0
1556291731.957,12.207,48.828,32.227,10.254,59.570,0
1556291731.961,9.766,43.945,41.504,20.020,20.996,0
1556291731.965,27.832,37.598,40.039,25.391,29.785,0
1556291731.967,26.855,42.969,35.156,20.996,3.906,0
1556291731.971,10.742,54.199,39.062,17.090,-5.859,0
1556291731.975,27.344,46.875,46.875,19.531,47.363,0
1556291731.979,39.062,35.156,37.109,13.184,23.438,0
1556291731.983,36.133,33.203,32.715,2.930,27.344,0
1556291731.987,33.203,37.598,38.574,3.906,20.996,0
1556291731.991,24.902,44.434,35.156,0.977,4.883,0
1556291731.994,30.273,44.922,40.527,3.418,26.367,0
1556291731.998,37.598,45.898,41.016,16.602,-27.832,0
1556291732.002,16.113,47.363,33.691,13.672,-29.297,0
1556291732.006,5.371,43.945,44.434,11.719,33.203,0
1556291732.010,5.371,41.992,41.992,12.207,51.270,0
1556291732.012,-10.742,42.480,25.391,12.695,35.156,0
1556291732.016,13.672,42.969,31.738,24.414,43.945,0
1556291732.020,30.273,36.621,38.574,32.715,35.156,0
1556291732.024,-2.930,32.715,38.574,29.785,19.531,0
1556291732.028,15.137,32.715,42.969,28.809,28.320,0
1556291732.032,33.691,37.598,37.598,24.414,10.254,0
1556291732.036,19.531,36.621,38.086,26.855,8.301,0
1556291732.039,16.113,36.133,43.945,26.855,61.035,0
1556291732.043,22.461,44.434,27.344,21.484,71.289,0
1556291732.047,16.113,47.852,24.414,19.531,60.547,0
1556291732.051,9.766,40.039,33.203,8.301,30.762,0
1556291732.055,9.277,38.574,34.180,7.324,-1.465,0
1556291732.057,11.230,46.387,33.691,16.602,5.859,0
1556291732.061,27.344,48.828,34.668,26.367,-4.395,0
1556291732.065,28.809,48.828,26.855,29.785,8.301,0
1556291732.069,22.461,45.410,25.391,14.160,54.688,0
1556291732.073,25.879,39.551,32.227,12.695,52.734,0
1556291732.077,35.156,38.086,30.762,15.625,31.250,0
1556291732.081,21.484,48.340,26.855,9.766,11.719,0
1556291732.084,6.836,44.434,27.832,-2.930,9.766,0
1556291732.088,-2.930,30.273,28.320,0.488,16.602,0
1556291732.092,4.883,29.785,23.926,2.930,-13.184,0
1556291732.096,26.855,36.621,25.391,11.719,-29.297,0
1556291732.100,12.207,40.527,25.879,19.043,-11.719,0
1556291732.102,-5.371,33.203,31.738,-7.812,-7.812,0
1556291732.106,4.395,22.461,36.621,-18.555,7.812,0
1556291732.110,27.832,28.320,28.809,9.277,-0.488,0
1556291732.114,33.691,37.598,30.273,24.902,-33.203,0
1556291732.118,27.832,33.203,29.297,22.461,18.555,0
1556291732.122,32.227,31.250,23.438,17.578,77.637,0
1556291732.126,30.762,40.039,21.484,-4.395,103.516,0
1556291732.129,13.184,36.621,20.996,-15.137,51.758,0
1556291732.133,20.020,31.738,23.438,2.930,31.738,0
1556291732.137,24.902,36.621,25.879,14.648,19.043,0
1556291732.141,16.602,38.086,26.855,-1.953,-17.578,0
1556291732.145,26.367,39.062,27.344,-5.371,11.719,0
1556291732.162,7.324,35.645,32.227,-0.977,15.625,0
1556291732.166,-2.441,33.691,30.762,2.441,43.457,0
1556291732.170,11.230,31.738,21.484,-1.465,57.617,0
1556291732.174,21.973,33.691,22.461,-11.719,99.121,0
1556291732.178,14.160,36.621,29.297,10.742,24.902,0
1556291732.182,9.277,35.645,33.691,19.531,0.488,0
1556291732.186,13.672,30.762,35.156,6.348,81.543,0
1556291732.189,20.508,30.273,29.785,11.230,2.441,0
1556291732.193,26.855,35.156,32.227,28.320,-0.488,0
1556291732.197,24.902,39.062,31.250,37.598,0.977,0
1556291732.201,20.508,34.180,21.973,14.648,3.418,0
1556291732.205,12.207,28.809,24.414,0.000,75.684,0
1556291732.207,21.484,32.227,28.809,2.930,79.102,0
1556291732.211,18.066,32.715,37.598,3.418,16.113,0
1556291732.215,10.742,31.250,41.504,5.859,6.348,0
1556291732.219,26.855,35.645,34.668,11.719,58.594,0
1556291732.223,17.090,36.133,22.949,19.043,49.805,0
1556291732.227,3.418,35.645,24.414,11.230,33.691,0
1556291732.231,14.648,38.574,37.109,12.207,30.273,0
1556291732.234,31.250,33.691,35.645,27.344,-0.488,0
1556291732.238,38.086,26.855,36.621,20.996,1.953,0
1556291732.242,18.555,29.785,41.504,16.602,55.176,0
1556291732.246,18.555,32.715,30.762,27.832,-6.836,0
1556291732.250,18.066,33.691,23.926,13.184,-44.922,0
1556291732.252,25.391,33.691,32.227,11.719,44.434,0
1556291732.256,-0.488,37.109,28.320,17.090,74.707,0
1556291732.260,-12.207,35.156,19.531,13.672,15.137,0
1556291732.264,23.438,21.973,28.320,27.344,5.371,0
1556291732.268,17.578,23.438,34.668,23.926,9.766,0
1556291732.272,3.906,34.180,33.203,2.930,-42.969,0
1556291732.276,2.441,33.691,36.133,3.906,-10.742,0
1556291732.279,18.066,29.785,35.156,14.648,9.277,0
1556291732.283,15.625,33.691,31.738,7.812,-13.184,0
1556291732.287,6.348,41.992,35.156,-2.930,-1.465,0
1556291732.291,5.859,40.527,35.156,2.441,-2.441,0
1556291732.295,14.160,32.715,31.738,19.531,23.926,0
1556291732.297,26.367,32.227,31.250,19.043,32.227,0
1556291732.301,10.254,37.109,27.832,18.066,13.184,0
1556291732.305,5.371,34.180,24.902,32.227,-8.301,0
1556291732.309,21.484,28.809,34.180,28.320,-28.320,0
1556291732.313,11.719,30.762,40.039,18.066,3.906,0
1556291732.317,14.160,37.109,29.297,6.348,10.742,0
1556291732.321,13.184,36.133,24.414,9.277,12.695,0
1556291732.324,6.348,32.227,28.320,28.320,48.828,0
1556291732.328,5.371,26.855,27.832,19.043,26.855,0
1556291732.332,26.367,21.484,24.902,13.184,-10.742,0
1556291732.336,16.113,29.785,28.809,14.160,-10.742,0
1556291732.340,-0.977,35.645,36.133,3.906,48.828,0
1556291732.342,2.441,29.785,34.668,0.488,56.152,0
1556291732.346,25.391,26.855,30.762,19.043,43.457,0
1556291732.350,39.062,32.715,31.250,34.180,68.848,0
1556291732.354,16.602,32.715,36.621,23.926,34.180,0
1556291732.358,5.371,33.203,40.039,18.555,10.254,0
1556291732.362,25.879,34.180,32.715,27.832,11.719,0
1556291732.366,35.645,33.691,29.297,24.414,16.113,0
1556291732.369,15.625,33.203,34.668,13.672,40.039,0
1556291732.373,0.000,33.691,29.297,15.625,35.156,0
1556291732.377,7.324,32.715,31.250,12.207,62.500,0
1556291732.381,23.926,22.461,35.645,5.371,37.598,0
1556291732.385,25.879,18.555,21.973,6.836,-10.254,0
1556291732.387,14.648,27.344,20.996,11.719,-2.930,0
1556291732.391,8.301,33.203,29.785,3.418,-8.301,0
1556291732.395,20.020,27.344,32.715,2.441,3.418,0
1556291732.399,18.555,21.484,32.227,18.066,42.480,0
1556291732.403,20.508,23.926,34.180,16.602,45.410,0
1556291732.407,17.578,25.391,32.227,14.648,57.129,0
1556291732.411,16.602,20.508,32.227,8.301,20.020,0
1556291732.414,8.301,18.555,32.227,0.488,-27.832,0
1556291732.418,2.930,18.066,26.855,10.254,-11.719,0
1556291732.422,18.555,7.812,26.367,14.648,18.555,0
1556291732.426,8.301,0.977,28.320,5.371,28.320,0
1556291732.430,18.555,-5.371,34.668,0.488,34.668,0
1556291732.432,25.391,-6.836,36.133,4.883,44.922,0
1556291732.436,7.812,-6.836,30.762,13.672,60.059,0
1556291732.440,17.578,-18.066,29.297,12.207,42.480,0
1556291732.444,34.668,-19.043,34.668,5.371,48.828,0
1556291732.448,27.832,-11.230,37.598,15.625,73.730,0
1556291732.452,8.301,-20.020,32.227,20.020,42.969,0
1556291732.456,15.625,-22.461,35.156,17.578,14.160,0
1556291732.459,29.785,-17.090,43.945,5.859,36.133,0
1556291732.463,23.438,-20.508,39.551,2.930,-14.160,0
1556291732.467,16.602,-18.555,31.738,21.484,-33.691,0
1556291732.471,19.531,-9.766,30.762,24.414,50.293,0
1556291732.475,21.973,-8.301,34.180,20.996,56.152,0
1556291732.477,19.531,-11.719,37.598,7.812,-16.602,0
1556291732.481,27.832,-10.742,39.062,4.395,-14.160,0
1556291732.485,11.719,-10.742,36.621,10.254,5.371,0
1556291732.489,15.137,-9.277,29.297,11.719,-13.184,0
1556291732.493,26.855,-11.719,31.250,15.137,27.832,1
1556291732.497,14.160,-15.137,35.156,15.137,13.672,0
1556291732.501,12.207,-10.254,31.250,8.789,3.418,0
1556291732.504,16.602,-6.348,25.879,13.184,13.672,0
1556291732.508,18.066,-6.348,35.645,3.906,-11.230,0
1556291732.512,20.508,-10.742,35.156,-1.953,42.969,0
1556291732.516,18.066,-10.742,26.367,6.836,84.473,0
1556291732.520,17.090,-5.371,29.297,18.555,48.340,0
1556291732.537,23.438,0.000,28.809,19.043,33.203,0
1556291732.541,10.742,4.883,27.832,2.441,40.527,0
1556291732.545,11.230,6.348,32.715,10.254,52.246,0
1556291732.549,19.043,1.465,38.086,23.926,27.832,0
1556291732.553,17.090,-2.930,36.621,23.438,17.578,0
1556291732.557,19.043,-2.930,30.273,11.230,24.902,0
1556291732.561,7.812,-7.324,29.297,5.859,-0.977,0
1556291732.564,-4.395,-6.348,35.645,0.977,27.344,0
1556291732.568,9.277,-3.906,36.133,8.789,20.996,0
1556291732.572,14.648,-2.930,35.156,1.953,53.711,0
1556291732.576,8.789,4.883,35.156,3.418,64.453,0
1556291732.580,16.113,7.324,27.832,22.461,5.859,0
1556291732.582,18.066,10.254,21.973,11.719,28.809,0
1556291732.586,22.461,11.230,24.414,8.301,58.105,0
1556291732.590,20.996,13.184,25.391,11.230,18.555,0
1556291732.594,9.277,13.672,28.320,20.020,0.488,0
1556291732.598,13.184,14.160,25.879,8.789,3.906,0
1556291732.602,26.367,12.207,21.973,-6.836,-4.395,0
1556291732.606,10.254,7.812,32.227,-2.930,15.137,0
1556291732.609,-10.254,7.324,40.527,4.395,10.254,0
1556291732.613,10.254,9.277,39.551,6.836,-2.441,0
1556291732.617,20.996,8.789,32.715,9.766,-18.066,0
1556291732.621,8.301,6.836,20.996,2.930,-13.672,0
1556291732.625,4.395,19.043,20.508,2.930,10.254,0
1556291732.627,11.230,26.855,22.461,20.996,33.691,0
1556291732.631,12.207,17.578,18.555,18.066,51.270,0
1556291732.635,11.230,21.973,23.438,9.766,-2.930,0
1556291732.639,21.973,30.762,31.738,10.742,-14.648,0
1556291732.643,18.555,28.809,31.738,16.113,19.531,0
1556291732.647,14.648,19.043,24.902,16.602,-21.484,0
1556291732.651,6.836,10.254,30.762,14.648,-27.344,0
1556291732.654,-0.977,18.066,31.738,14.160,-27.832,0
1556291732.658,12.207,30.273,25.879,6.836,-46.875,0
1556291732.662,9.277,25.391,29.297,5.371,2.930,0
1556291732.666,27.832,21.973,23.926,5.371,19.043,0
1556291732.670,47.852,26.855,25.391,14.648,7.812,0
1556291732.672,15.625,24.414,29.785,11.719,7.324,0
1556291732.676,3.418,23.926,32.227,-7.324,37.109,0
1556291732.680,33.203,20.508,43.457,10.742,47.852,0
1556291732.684,34.180,14.160,38.574,18.555,20.996,0
1556291732.688,7.324,9.766,29.297,13.184,-25.391,0
1556291732.692,-2.441,5.371,32.715,11.719,-8.301,0
1556291732.696,3.418,8.789,31.738,2.930,6.836,0
1556291732.699,29.297,10.254,21.973,22.461,21.484,0
1556291732.703,23.438,13.672,18.555,24.902,39.551,0
1556291732.707,9.277,20.020,34.668,12.695,42.969,0
1556291732.711,19.531,20.996,40.039,20.020,36.621,0
1556291732.715,19.531,19.043,33.203,16.113,2.930,0
1556291732.717,18.066,13.672,32.227,14.648,41.992,0
1556291732.721,3.418,20.508,31.250,14.648,20.996,0
1556291732.725,0.977,20.508,31.738,12.207,23.926,0
1556291732.729,29.785,16.113,31.250,19.531,36.621,0
1556291732.733,28.809,20.020,30.273,10.742,11.719,0
1556291732.737,23.926,21.484,31.738,6.836,-1.953,0
1556291732.741,34.180,26.367,34.668,19.531,61.035,0
1556291732.744,20.996,21.973,27.832,3.418,61.523,0
1556291732.748,23.438,20.508,13.184,-8.789,16.113,0
1556291732.752,40.527,24.414,13.672,19.043,10.742,0
1556291732.756,27.832,24.414,24.902,15.625,19.043,0
1556291732.760,32.227,20.508,27.832,-3.906,36.133,0
1556291732.762,37.109,17.578,26.367,4.395,2.930,0
1556291732.766,20.020,21.484,25.391,13.184,15.137,0
1556291732.770,4.883,19.043,32.227,24.414,17.578,0
1556291732.774,3.906,17.090,37.109,18.555,16.113,0
1556291732.778,7.812,18.066,34.668,14.160,39.551,0
1556291732.782,14.160,19.043,28.320,24.902,17.090,0
1556291732.786,9.766,19.043,29.297,24.414,18.555,0
1556291732.789,-14.160,23.438,28.320,4.883,75.684,0
1556291732.793,1.953,19.043,22.461,-3.906,54.688,0
1556291732.797,35.156,23.438,25.879,15.137,-1.953,0
1556291732.801,14.648,26.855,33.203,17.090,25.879,0
1556291732.805,-12.695,17.578,31.250,12.695,35.645,0
1556291732.807,0.000,21.484,19.531,19.043,77.637,0
1556291732.811,16.602,16.602,22.949,10.254,57.617,0
1556291732.815,1.953,14.160,27.832,6.836,8.301,0
1556291732.819,-2.930,21.484,32.227,16.602,6.348,0
1556291732.823,15.137,20.020,37.598,9.277,64.941,0
1556291732.827,23.926,24.902,26.367,-2.441,86.426,0
1556291732.831,8.789,26.855,25.879,-8.301,66.406,0
1556291732.834,6.836,24.902,38.574,5.371,85.938,0
1556291732.838,15.625,22.461,35.156,21.484,44.922,0
1556291732.842,19.043,23.438,27.832,12.695,38.574,0
1556291732.846,23.926,28.809,33.203,-5.859,18.555,0
1556291732.850,25.391,25.391,33.203,-4.883,-16.602,0
1556291732.867,16.602,22.461,24.902,0.977,22.461,0
1556291732.871,5.859,28.809,22.461,-1.465,13.672,0
1556291732.875,28.320,21.484,29.785,8.301,16.602,0
1556291732.879,24.414,10.742,23.926,0.000,10.254,0
1556291732.883,6.836,14.648,23.438,12.207,3.418,0
1556291732.887,19.043,20.996,30.762,27.344,59.082,0
1556291732.891,30.273,23.438,26.855,13.184,54.199,0
1556291732.894,7.812,23.926,26.367,8.789,5.859,0
1556291732.898,-14.160,22.461,33.203,15.625,-2.441,0
1556291732.902,5.371,19.043,31.250,10.254,9.277,0
1556291732.906,27.344,18.066,19.043,1.953,32.715,0
1556291732.910,18.066,22.949,19.043,8.301,26.367,0
1556291732.911,19.043,27.344,22.461,15.625,13.672,0
1556291732.915,27.344,25.879,25.879,7.324,75.195,0
1556291732.919,23.926,22.461,28.809,16.113,36.621,0
1556291732.923,41.016,23.926,31.738,16.602,-54.688,0
1556291732.927,42.969,28.809,33.203,21.484,-50.293,0
1556291732.931,29.785,25.391,28.809,24.414,-10.742,0
1556291732.935,36.133,26.367,26.367,17.090,-17.578,0
1556291732.938,33.691,32.227,23.438,3.418,-32.715,0
1556291732.942,27.832,30.762,26.855,6.836,-20.508,0
1556291732.946,22.461,25.391,31.250,12.207,-0.488,0
1556291732.950,16.602,28.320,25.879,-14.160,-30.273,0
1556291732.954,10.254,30.762,21.484,-5.859,-30.762,0
1556291732.957,19.531,29.297,21.484,12.207,21.484,0
1556291732.961,12.207,30.762,24.414,8.301,32.715,0
1556291732.965,-2.441,40.527,20.996,9.766,13.672,0
1556291732.969,3.906,48.340,21.484,8.301,24.414,0
1556291732.973,0.000,48.340,32.227,5.859,52.246,0
1556291732.977,3.906,51.758,34.180,-0.977,30.273,0
1556291732.981,12.207,54.199,31.250,5.859,71.289,0
1556291732.984,19.531,53.223,28.809,24.902,39.551,0
1556291732.988,30.273,55.664,31.250,25.391,-12.207,0
1556291732.992,13.184,60.547,32.227,19.531,13.184,0
1556291732.996,14.160,58.594,33.203,18.555,64.453,0
1556291733.000,42.969,58.105,32.715,22.949,39.551,0
1556291733.002,39.062,56.641,30.273,25.391,30.762,0
1556291733.006,2.441,49.316,33.203,9.277,48.828,0
1556291733.010,-6.348,57.129,31.250,8.301,-19.531,0
1556291733.014,12.207,52.246,33.691,10.742,-20.508,0
1556291733.018,17.578,46.875,34.180,19.531,67.871,0
1556291733.022,23.438,56.152,25.391,21.484,60.547,0
1556291733.026,18.555,54.688,23.438,17.578,24.414,0
1556291733.029,11.719,51.270,29.785,20.020,43.945,0
1556291733.033,26.855,52.734,31.250,6.836,-9.766,0
1556291733.037,26.855,51.270,33.691,9.277,-56.152,0
1556291733.041,12.207,51.758,33.691,29.785,-27.344,0
1556291733.045,19.043,59.082,34.668,29.785,0.977,0
1556291733.047,30.273,55.664,34.180,17.090,31.250,0
1556291733.051,27.832,47.363,27.832,22.461,31.738,0
1556291733.055,11.719,50.781,25.391,-1.953,38.086,0
1556291733.059,3.418,53.711,24.902,-5.859,38.574,0
1556291733.063,16.113,49.316,25.879,10.742,-7.324,0
1556291733.067,22.949,58.594,27.344,10.254,23.926,0
1556291733.071,22.461,60.059,31.738,14.160,38.086,0
1556291733.074,14.648,52.734,29.297,16.602,32.227,0
1556291733.078,28.320,53.223,25.391,10.742,34.180,0
1556291733.082,36.133,52.246,28.809,18.555,-12.207,0
1556291733.086,22.461,52.734,28.320,20.996,0.000,0
1556291733.090,7.812,51.270,22.461,9.277,21.484,0
1556291733.092,1.465,48.828,19.043,20.020,37.109,0
1556291733.096,12.695,49.805,22.949,11.230,53.223,0
1556291733.100,9.766,45.410,24.414,-6.348,38.574,0
1556291733.104,2.441,43.457,27.344,3.418,22.949,0
1556291733.108,7.812,48.340,28.809,14.160,23.438,0
1556291733.112,22.949,47.363,21.973,12.207,56.152,0
1556291733.116,28.320,42.480,24.414,8.301,18.555,0
1556291733.119,26.855,43.945,29.297,17.090,17.578,0
1556291733.123,24.414,43.945,30.273,18.066,-1.953,0
1556291733.127,21.973,38.574,25.879,16.113,-16.113,0
1556291733.131,20.020,45.898,22.461,25.391,21.484,0
1556291733.135,2.441,51.758,21.973,21.484,20.508,0
1556291733.137,-24.902,44.922,23.926,2.930,46.387,0
1556291733.141,-0.977,40.527,23.438,8.789,68.848,0
1556291733.145,18.555,35.645,25.391,20.508,69.336,0
1556291733.149,15.625,38.574,25.391,20.020,53.711,0
1556291733.153,0.977,49.316,20.020,11.230,0.000,0
1556291733.157,-5.371,46.387,24.902,4.395,-28.809,0
1556291733.161,23.926,38.574,26.855,9.277,44.434,0
1556291733.164,22.949,41.016,24.414,11.719,70.801,0
1556291733.168,6.836,49.805,20.508,2.930,49.805,0
1556291733.172,5.371,49.316,20.508,-9.766,-0.977,0
1556291733.176,12.207,41.992,21.973,-10.254,-26.855,0
1556291733.180,21.484,41.992,16.113,7.324,-11.230,0
1556291733.182,30.762,41.992,21.484,23.926,22.949,0
1556291733.186,31.738,43.457,30.273,18.066,83.496,0
1556291733.190,23.438,47.852,26.367,15.137,64.453,0
1556291733.194,32.227,47.852,20.020,21.484,7.812,0
1556291733.198,24.902,45.410,17.090,15.625,43.945,0
1556291733.202,10.254,47.852,18.555,14.160,23.438,0
1556291733.206,16.602,47.363,18.555,10.742,20.508,0
1556291733.209,27.832,41.992,18.066,6.836,2.441,0
1556291733.213,32.227,41.992,27.344,7.812,-44.922,0
1556291733.217,21.973,42.480,32.227,8.789,-20.508,0
1556291733.221,8.789,41.504,20.996,1.953,-3.418,0
1556291733.225,2.930,38.086,17.090,-1.953,0.977,0
1556291733.227,21.484,34.668,21.973,14.648,8.789,0
1556291733.231,14.160,41.504,18.066,22.949,60.059,0
1556291733.235,9.766,45.410,15.625,9.766,95.215,0
1556291733.239,21.973,42.969,25.879,10.742,76.660,0
1556291733.243,22.461,40.039,28.809,0.000,13.672,0
1556291733.247,13.672,37.109,20.996,0.488,-10.254,0
1556291733.251,10.742,40.039,13.672,16.602,-12.207,0
1556291733.254,23.438,40.527,16.113,5.859,8.301,0
1556291733.258,20.020,41.016,21.973,4.883,16.113,0
1556291733.262,-4.883,37.109,19.043,-3.906,7.812,0
1556291733.266,0.488,33.691,21.973,2.930,6.348,0
1556291733.270,25.879,36.621,23.926,21.484,0.977,0
1556291733.287,25.391,37.109,20.020,4.883,21.484,0
1556291733.291,31.738,43.945,19.043,6.348,11.719,0
1556291733.295,30.273,45.898,16.113,17.090,6.836,0
1556291733.299,16.113,45.410,22.461,10.254,-7.812,0
1556291733.303,32.227,38.574,25.879,2.930,13.184,0
1556291733.307,12.207,30.762,19.531,-6.348,50.781,0
1556291733.311,-8.789,36.133,18.555,10.254,49.316,0
1556291733.314,4.883,38.086,18.066,17.578,15.137,0
1556291733.318,8.789,43.457,17.090,9.766,19.043,0
1556291733.322,2.441,35.645,17.578,5.371,52.734,0
1556291733.326,5.859,31.250,15.625,5.859,33.203,0
1556291733.330,12.207,38.086,17.090,23.438,18.555,0
1556291733.332,29.297,35.156,22.949,26.367,24.902,0
1556291733.336,36.621,34.668,20.508,20.508,-10.254,0
1556291733.340,18.555,37.109,20.020,14.648,-8.789,0
1556291733.344,9.766,36.133,17.578,14.160,42.480,0
1556291733.348,6.348,35.156,21.484,12.695,20.996,0
1556291733.352,13.672,37.109,20.996,8.301,25.879,0
1556291733.356,36.133,29.785,19.531,19.043,58.594,0
1556291733.359,38.086,25.391,23.438,22.461,16.602,0
1556291733.363,7.812,27.344,19.531,9.277,13.672,0
1556291733.367,4.395,35.156,21.484,9.766,94.727,0
1556291733.371,19.531,31.738,19.531,11.719,56.641,0
1556291733.375,8.789,18.066,19.043,14.648,14.648,0
1556291733.377,-0.977,21.484,20.996,19.531,43.945,0
1556291733.381,7.812,23.926,20.020,2.930,4.395,0
1556291733.385,24.902,25.879,18.066,2.441,15.137,0
1556291733.389,8.789,25.879,19.531,18.555,1.465,0
1556291733.393,-11.230,24.902,18.555,14.160,-24.902,0
1556291733.397,-4.395,29.297,20.996,0.488,69.824,0
1556291733.401,15.137,30.273,20.996,0.977,61.035,0
1556291733.404,14.648,30.762,15.137,13.672,26.367,0
1556291733.408,-14.160,34.668,20.020,5.859,40.527,0
1556291733.412,-10.254,31.250,24.414,-7.324,-17.090,0
1556291733.416,23.438,25.879,23.438,7.812,-24.414,0
1556291733.420,13.672,25.391,33.691,13.672,21.484,0
1556291733.422,-2.441,29.297,39.551,16.602,7.324,0
1556291733.426,2.441,31.738,32.715,17.578,27.344,0
1556291733.430,12.695,26.367,33.691,1.465,1.465,0
1556291733.434,26.367,28.809,33.691,10.254,-14.160,0
1556291733.438,13.672,35.156,27.344,3.418,32.715,0
1556291733.442,6.836,34.180,30.762,0.977,-20.020,0
1556291733.446,-1.953,36.621,26.367,-2.441,-21.484,0
1556291733.449,16.113,39.551,30.762,9.766,29.785,0
1556291733.453,25.391,42.969,34.668,18.555,19.043,0
1556291733.457,-3.906,40.527,23.438,11.719,-17.578,0
1556291733.461,-3.418,28.809,23.926,18.555,-6.836,0
1556291733.465,6.836,28.809,25.879,12.207,28.809,0
1556291733.466,13.672,29.785,33.203,3.418,38.574,0
1556291733.470,10.254,29.785,31.738,11.230,56.152,0
1556291733.474,11.230,34.668,23.438,24.414,36.133,0
1556291733.478,11.719,34.180,17.090,9.277,11.230,0
1556291733.482,11.230,32.715,12.695,8.301,-6.348,0
1556291733.486,-2.441,34.668,25.391,7.324,14.160,0
1556291733.490,-5.859,30.762,36.621,-1.953,35.645,0
1556291733.493,23.438,32.715,34.180,-13.184,27.832,0
1556291733.497,21.484,37.109,30.273,-13.672,-3.906,0
1556291733.501,-1.465,30.273,29.785,-13.184,8.789,0
1556291733.505,-6.836,33.691,31.738,-5.371,39.551,0
1556291733.509,15.625,33.203,31.738,1.465,8.789,0
1556291733.512,28.320,30.273,31.738,-2.930,20.508,0
1556291733.516,19.043,36.133,25.879,3.418,41.016,0
1556291733.520,19.043,39.062,23.926,7.812,12.695,0
1556291733.524,32.227,42.969,30.273,10.742,27.344,0
1556291733.528,52.246,37.598,35.645,29.297,-3.418,1
1556291733.532,37.109,30.762,34.180,32.715,-8.789,0
1556291733.536,18.066,25.879,34.180,18.555,10.742,0
1556291733.539,17.090,21.484,38.086,17.090,-8.789,0
1556291733.543,23.926,23.438,36.621,21.484,19.043,0
1556291733.547,20.508,30.273,27.344,26.855,30.762,0
1556291733.551,7.324,40.527,20.508,22.949,37.109,0
1556291733.555,23.926,37.109,31.250,27.832,21.973,0
1556291733.556,40.039,29.297,42.969,32.715,43.945,0
1556291733.560,33.691,34.668,34.180,33.203,66.406,0
1556291733.564,20.996,33.203,24.902,37.598,24.414,0
1556291733.568,9.277,27.832,26.367,35.645,31.738,0
1556291733.572,17.090,26.855,28.809,23.438,5.371,0
1556291733.576,28.320,25.879,33.691,10.742,-18.555,0
1556291733.580,19.043,28.809,34.180,2.441,18.555,0
1556291733.583,-2.930,32.227,35.645,-4.395,9.766,0
1556291733.587,-2.441,27.344,33.691,-3.906,-7.324,0
1556291733.591,17.090,28.809,28.320,-2.441,14.160,0
1556291733.595,15.137,32.227,31.250,4.395,3.906,0
1556291733.599,20.508,29.785,32.227,6.836,-51.758,0
1556291733.616,24.414,39.551,30.273,10.254,-49.316,0
1556291733.620,18.066,38.574,31.738,2.930,-14.648,0
1556291733.624,4.395,26.855,24.414,-16.602,24.902,0
1556291733.628,-2.441,27.344,22.461,1.953,43.945,0
1556291733.632,7.812,23.438,29.785,11.230,43.457,0
1556291733.636,9.766,25.879,28.809,7.812,57.617,0
1556291733.640,-1.953,33.691,31.250,9.766,78.613,0
1556291733.643,-6.348,31.250,30.762,0.488,83.496,0
1556291733.647,6.836,25.879,28.809,3.418,57.617,0
1556291733.651,26.367,23.438,28.809,11.719,10.742,0
1556291733.655,17.578,25.879,28.320,10.254,10.254,0
1556291733.659,-2.930,35.156,33.203,13.672,29.297,0
1556291733.661,12.207,36.133,36.621,15.625,21.484,0
1556291733.665,21.973,38.574,37.598,14.648,18.555,0
1556291733.669,31.250,32.227,42.480,15.625,66.895,0
1556291733.673,28.809,27.344,38.574,13.184,67.871,0
1556291733.677,2.441,26.367,32.227,10.742,44.434,0
1556291733.681,15.625,28.320,39.551,19.043,10.254,0
1556291733.685,40.527,30.762,38.086,18.555,27.832,0
1556291733.688,29.785,22.949,33.203,14.160,47.363,0
1556291733.692,1.465,27.344,34.668,6.836,21.484,0
1556291733.696,-5.859,29.297,37.109,-4.883,29.785,0
1556291733.700,18.555,28.320,39.551,-6.348,30.762,0
1556291733.704,24.902,31.250,32.715,4.883,16.113,0
1556291733.706,16.113,33.203,32.715,4.883,-5.859,0
1556291733.710,23.438,33.203,34.668,4.883,-38.574,0
1556291733.714,20.508,31.250,34.180,16.602,5.371,0
1556291733.718,30.762,32.227,34.668,20.020,59.570,0
1556291733.722,39.062,33.691,39.062,25.391,74.707,0
1556291733.726,33.691,36.621,32.715,38.574,36.621,0
1556291733.730,38.574,31.250,29.785,31.250,-24.414,0
1556291733.733,43.457,23.926,33.691,20.020,18.555,0
1556291733.737,41.992,27.832,31.738,25.879,20.996,0
1556291733.741,30.273,33.691,32.715,24.414,-26.367,0
1556291733.745,25.391,34.668,32.227,14.648,-15.137,0
1556291733.749,33.691,39.551,32.715,28.809,20.996,0
1556291733.766,43.457,37.109,47.852,33.691,39.551,0
1556291733.770,34.180,33.203,48.340,11.230,67.383,0
1556291733.774,27.344,32.715,37.598,14.648,31.250,0
1556291733.778,25.879,28.809,33.691,16.113,11.719,0
1556291733.782,41.504,31.250,26.367,18.066,31.738,0
1556291733.786,33.691,28.320,24.414,27.344,29.297,0
1556291733.790,8.301,26.367,27.344,27.344,2.930,0
1556291733.793,13.184,35.156,28.809,24.902,57.617,0
1556291733.797,25.879,35.156,25.391,30.273,73.730,0
1556291733.801,13.184,35.645,31.738,20.996,13.672,0
1556291733.805,11.719,35.156,38.086,22.461,-2.441,0
1556291733.809,37.109,32.227,34.668,24.902,11.719,0
1556291733.796,37.109,31.738,28.320,18.066,13.672,0
1556291733.800,29.785,33.203,32.715,21.484,-2.930,0
1556291733.804,10.742,31.250,40.039,2.441,-17.090,0
1556291733.808,17.090,31.250,27.344,3.906,6.348,0
1556291733.812,29.297,31.738,21.973,23.438,-16.113,0
1556291733.816,18.066,26.367,27.344,14.648,-10.742,0
1556291733.820,12.207,30.273,34.180,18.555,0.000,0
1556291733.823,31.738,38.086,38.086,20.020,12.695,0
1556291733.827,27.832,27.344,37.109,12.695,43.457,0
1556291733.831,17.090,22.949,37.109,15.625,8.789,0
1556291733.835,22.461,28.320,31.250,17.578,17.090,0
1556291733.839,9.277,35.156,27.344,11.719,33.691,0
1556291733.842,5.371,33.203,28.320,10.254,30.762,0
1556291733.846,27.832,24.902,31.738,10.742,-4.883,0
1556291733.850,38.574,32.227,32.715,20.020,-36.133,0
1556291733.854,16.113,26.855,37.598,23.926,5.859,0
1556291733.858,12.207,24.414,34.180,15.137,-3.906,0
1556291733.862,17.090,31.738,24.414,18.066,-7.812,0
1556291733.866,18.066,31.738,26.855,8.301,50.293,0
1556291733.869,22.461,32.227,24.902,7.812,29.785,0
1556291733.873,21.484,32.715,25.391,19.531,10.254,0
1556291733.877,15.625,27.344,37.598,11.230,32.715,0
1556291733.881,23.438,23.926,37.109,1.953,38.574,0
1556291733.885,32.715,24.414,31.250,17.090,17.578,0
1556291733.887,28.320,28.320,34.668,31.738,72.266,0
1556291733.891,31.250,27.832,29.785,24.414,21.484,0
1556291733.895,32.227,26.367,28.320,9.766,-32.715,0
1556291733.899,23.926,26.367,32.715,11.719,44.922,0
1556291733.903,8.789,27.344,28.320,16.113,63.965,0
1556291733.907,21.484,26.855,29.785,15.137,60.059,0
1556291733.911,37.109,25.391,35.645,10.254,70.312,0
1556291733.914,21.484,24.902,40.039,8.301,68.359,0
1556291733.918,-6.836,24.414,37.598,7.812,70.312,0
1556291733.922,9.766,21.484,38.086,19.043,54.688,0
1556291733.926,30.273,22.461,39.062,25.879,28.320,0
1556291733.930,25.391,27.832,33.691,26.367,23.926,0
1556291733.932,15.625,26.367,34.180,29.785,33.691,0
1556291733.936,6.348,30.762,30.273,22.949,48.340,0
1556291733.940,15.625,30.273,26.855,17.578,-6.348,0
1556291733.944,28.320,25.879,33.691,16.113,-17.578,0
1556291733.948,21.973,28.320,40.039,22.949,12.695,0
1556291733.952,15.625,31.738,41.504,33.691,16.113,0
1556291733.956,26.367,31.250,40.039,28.809,62.012,0
1556291733.959,40.039,33.203,38.574,28.320,33.203,0
1556291733.963,42.480,30.273,36.133,26.367,8.789,0
1556291733.967,18.555,26.855,25.391,10.742,-4.883,0
1556291733.971,4.883,23.438,28.320,-0.977,8.301,0
1556291733.975,11.719,24.414,30.762,-3.906,47.363,0
1556291733.977,19.043,29.297,24.902,8.301,21.973,0
1556291733.981,3.418,27.832,29.785,-1.465,37.598,0
1556291733.985,2.441,28.320,33.691,-2.930,32.227,0
1556291733.989,26.855,30.762,34.668,4.395,16.602,0
1556291733.993,27.832,31.250,31.738,5.371,5.371,0
1556291733.997,18.066,24.414,33.691,17.090,14.160,0
1556291734.001,12.695,22.461,37.598,18.555,81.055,0
1556291734.004,5.859,33.691,30.762,20.996,65.918,0
1556291734.008,16.113,34.668,24.414,23.926,-10.254,0
1556291734.012,30.762,29.785,26.367,20.020,38.086,0
1556291734.016,20.508,33.691,29.297,20.508,50.781,0
1556291734.020,13.184,29.785,33.691,18.555,-17.578,0
1556291734.037,24.902,30.273,40.039,18.066,-33.691,0
1556291734.041,23.926,36.621,35.156,16.602,38.086,0
1556291734.045,15.137,31.738,30.273,14.160,33.203,0
1556291734.049,15.625,27.344,26.367,7.812,42.480,0
1556291734.053,37.109,35.156,21.973,17.578,38.086,0
1556291734.057,44.922,42.969,23.438,23.438,7.324,0
1556291734.061,-0.488,32.715,28.809,2.441,41.992,0
1556291734.064,-7.324,23.926,32.227,0.000,20.996,0
1556291734.068,15.137,21.484,35.645,0.488,-24.414,0
1556291734.072,14.648,16.602,37.598,-3.418,35.645,0
1556291734.076,9.277,21.484,27.344,9.766,74.219,0
1556291734.080,3.418,28.320,24.902,1.953,30.273,0
1556291734.082,6.836,29.785,36.621,8.789,11.719,0
1556291734.086,20.996,35.156,36.621,18.066,81.055,0
1556291734.090,14.160,30.762,34.668,5.371,38.086,0
1556291734.094,13.672,26.367,37.109,7.812,-17.090,0
1556291734.098,13.184,33.203,33.203,9.766,5.859,0
1556291734.102,20.996,33.203,36.133,13.672,-23.926,0
1556291734.106,37.598,31.738,39.062,18.066,-69.336,0
1556291734.109,24.414,33.203,33.691,22.949,-52.734,0
1556291734.113,17.090,31.738,33.203,17.090,18.555,0
1556291734.117,30.273,33.203,31.250,14.160,33.691,0
1556291734.121,35.156,31.738,27.344,23.438,17.090,0
1556291734.125,4.883,34.668,27.832,10.254,28.809,0
1556291734.127,-1.953,36.621,33.203,6.836,21.484,0
1556291734.131,34.668,36.133,39.062,19.531,31.738,0
1556291734.135,35.645,30.273,37.109,17.578,-7.324,0
1556291734.139,19.043,25.391,38.086,15.625,22.461,0
1556291734.143,-0.977,34.668,36.133,5.859,41.992,0
1556291734.147,-7.324,37.598,27.344,0.977,8.301,0
1556291734.151,24.414,30.762,27.832,13.672,-1.465,0
1556291734.154,23.926,19.531,36.133,12.207,-14.160,0
1556291734.158,0.488,23.926,32.715,3.418,39.062,0
1556291734.162,4.395,31.250,31.738,3.906,25.391,0
1556291734.166,8.301,27.344,40.527,1.953,7.324,0
1556291734.170,9.277,31.250,34.180,-4.883,51.270,0
1556291734.172,7.812,34.668,30.762,10.254,30.762,0
1556291734.176,17.090,30.762,36.133,20.020,-7.812,0
1556291734.180,21.973,31.250,32.715,11.719,-25.391,0
1556291734.184,29.297,31.250,28.809,8.789,-58.594,0
1556291734.188,19.531,28.809,33.691,5.859,-52.734,0
1556291734.192,14.648,30.762,36.621,10.254,-7.812,0
1556291734.196,30.762,28.320,32.227,23.926,51.758,0
1556291734.199,27.832,29.297,28.809,23.926,24.902,0
1556291734.203,12.207,34.180,28.320,4.395,9.277,0
1556291734.207,1.953,31.738,32.715,-12.695,24.414,0
1556291734.211,6.836,35.645,32.715,4.395,11.719,0
1556291734.215,8.301,38.086,32.715,11.719,-26.367,0
1556291734.217,2.930,28.320,38.086,-2.930,-2.441,0
1556291734.221,1.465,26.855,41.016,3.418,24.902,0
1556291734.225,16.602,27.344,37.598,15.137,-2.930,0
1556291734.229,24.902,28.809,35.645,14.160,39.062,0
1556291734.233,19.043,28.809,38.574,15.137,53.711,0
1556291734.237,11.230,29.785,37.598,11.719,10.254,0
1556291734.241,8.301,33.691,31.250,15.625,-5.859,0
1556291734.244,13.672,33.691,27.344,13.184,18.555,0
1556291734.248,24.902,32.715,31.738,7.812,42.969,0
1556291734.252,21.973,32.227,35.156,16.113,67.871,0
1556291734.256,15.137,30.273,29.785,28.809,67.383,0
1556291734.260,18.555,30.273,31.250,16.113,40.527,0
1556291734.262,18.555,31.250,32.227,9.766,88.379,0
1556291734.266,9.277,25.879,36.133,11.719,26.367,0
1556291734.270,-0.977,21.973,36.621,11.719,-29.297,0
1556291734.274,11.719,25.879,34.180,12.207,41.016,0
1556291734.278,24.414,35.645,29.297,14.160,26.367,0
1556291734.282,31.738,37.598,24.902,20.508,-6.836,0
1556291734.286,21.973,39.062,28.320,8.789,17.578,0
1556291734.289,14.160,37.109,34.180,-3.418,17.578,0
1556291734.293,19.043,32.715,31.738,-16.113,31.250,0
1556291734.297,16.113,31.738,29.785,-11.719,69.336,0
1556291734.301,5.371,35.645,38.574,14.648,86.914,0
1556291734.305,15.137,33.691,32.715,15.137,-13.184,0
1556291734.307,19.531,23.438,24.414,-7.324,5.859,0
1556291734.311,8.301,20.508,29.297,-9.277,88.867,0
1556291734.315,4.395,23.926,31.250,4.883,72.754,0
1556291734.319,6.348,25.391,30.273,11.230,45.898,0
1556291734.323,0.977,18.555,30.273,5.859,-10.742,0
1556291734.327,4.395,20.020,34.180,12.695,-33.203,0
1556291734.331,10.742,6.836,39.551,14.160,-7.812,0
1556291734.334,0.977,-9.277,36.133,2.441,12.695,0
1556291734.338,4.395,-10.742,27.832,8.789,30.273,0
1556291734.342,25.391,-15.625,26.367,21.484,-14.648,0
1556291734.346,17.090,-18.066,28.809,21.973,-18.555,0
1556291734.350,0.000,-18.555,33.203,20.508,30.273,0
1556291734.352,-4.395,-20.508,34.668,12.207,38.086,0
1556291734.356,2.441,-17.090,33.203,20.020,56.152,0
1556291734.360,20.020,-16.113,29.297,21.973,29.297,0
1556291734.364,16.602,-22.461,30.762,15.625,23.438,0
1556291734.368,9.766,-21.973,29.785,12.207,42.480,0
1556291734.372,20.508,-22.461,28.320,13.672,56.641,0
1556291734.376,24.902,-17.578,29.785,23.438,-4.395,0
1556291734.379,28.320,-9.277,25.391,16.113,11.230,0
1556291734.383,28.320,-9.277,31.738,21.484,54.199,0
1556291734.387,14.160,-13.184,37.109,25.391,-2.930,0
1556291734.391,14.648,-16.113,30.762,13.672,35.645,0
1556291734.395,2.930,-14.160,28.320,9.277,67.871,0
1556291734.412,3.418,-15.625,24.902,8.301,47.852,0
1556291734.416,20.020,-16.602,21.484,8.301,14.160,0
1556291734.420,22.461,-11.719,24.902,13.184,-20.020,0
1556291734.424,11.230,-10.742,33.691,2.441,3.906,0
1556291734.428,6.836,-8.789,31.250,1.465,0.488,0
1556291734.432,22.461,-5.859,30.762,11.230,-18.066,0
1556291734.436,29.785,-7.324,32.227,9.766,27.344,0
1556291734.439,26.367,-5.371,30.273,8.789,70.801,0
1556291734.443,28.320,-3.906,27.832,4.395,69.824,0
1556291734.447,18.555,-3.418,25.391,13.672,49.805,0
1556291734.451,10.742,-1.953,25.879,1.465,-15.625,0
1556291734.455,15.137,-3.418,27.832,-12.207,-47.852,0
1556291734.457,20.020,-0.488,25.879,16.113,49.805,0
1556291734.461,6.348,8.789,13.184,13.672,46.387,0
1556291734.465,14.648,5.859,13.672,12.207,3.418,0
1556291734.469,27.832,7.324,36.133,30.762,49.316,0
1556291734.473,21.484,7.812,43.457,16.113,10.254,0
1556291734.477,11.230,3.418,31.250,15.137,20.508,0
1556291734.481,23.438,5.859,25.391,10.742,79.590,0
1556291734.484,33.203,3.418,28.320,0.488,12.695,0
1556291734.488,24.414,2.441,36.133,19.531,1.953,0
1556291734.492,10.742,8.301,38.086,15.137,19.043,0
1556291734.496,3.906,15.137,30.762,10.742,-36.621,0
1556291734.500,15.625,6.348,27.344,14.648,-21.973,0
1556291734.503,22.949,3.906,26.367,4.395,-9.766,0
1556291734.507,21.484,10.254,30.762,0.977,-23.438,0
1556291734.511,17.578,7.324,37.598,-5.859,8.301,0
1556291734.515,19.043,8.301,29.785,18.066,4.883,0
1556291734.519,34.180,12.207,24.414,27.832,-4.883,0
1556291734.523,22.949,17.578,26.855,1.465,8.789,0
1556291734.527,-9.277,15.625,28.809,3.418,65.430,0
1556291734.530,11.719,7.812,34.180,7.324,76.172,0
1556291734.534,30.273,11.719,31.738,2.930,40.527,0
1556291734.538,22.461,13.672,30.273,8.789,76.172,0
1556291734.542,22.461,10.742,29.785,14.160,32.227,0
1556291734.546,34.180,16.602,28.809,20.020,40.527,0
1556291734.547,33.691,16.602,28.809,20.020,55.176,0
1556291734.551,15.137,15.625,21.973,11.719,33.203,0
1556291734.555,17.578,20.996,20.508,4.883,36.621,0
1556291734.559,29.785,17.578,26.855,15.137,20.508,0
1556291734.563,13.184,11.230,35.645,24.902,19.531,0
1556291734.567,10.254,9.766,38.574,21.484,27.832,0
1556291734.571,22.949,16.602,34.668,39.062,36.133,0
1556291734.574,12.695,15.625,29.297,26.855,14.160,0
1556291734.578,20.508,7.324,25.879,14.160,-9.766,0
1556291734.582,30.273,15.137,23.438,19.531,-26.367,0
1556291734.586,18.555,22.949,32.715,12.695,-78.125,0
1556291734.590,-8.789,21.973,38.574,11.230,-22.949,0
1556291734.592,8.789,17.578,36.133,18.066,41.016,0
1556291734.596,46.875,12.695,33.203,23.438,42.480,0
1556291734.600,32.715,14.648,35.645,13.672,64.453,0
1556291734.604,16.113,15.137,34.668,12.695,57.617,0
1556291734.608,15.625,9.277,27.344,14.160,35.645,0
1556291734.612,14.160,10.742,22.949,4.883,8.789,0
1556291734.616,1.953,15.625,26.367,-6.836,-23.438,0
1556291734.619,2.441,13.672,34.180,-13.672,-13.184,0
1556291734.623,19.043,7.324,37.598,-0.488,20.508,0
1556291734.627,29.297,12.207,35.156,20.020,19.043,0
1556291734.631,22.461,19.531,31.738,17.578,-16.113,0
1556291734.635,-2.441,23.438,31.250,11.719,-6.836,0
1556291734.637,4.883,23.926,41.992,19.043,-22.461,0
1556291734.641,26.367,13.184,38.574,19.531,-15.137,0
1556291734.645,34.180,16.602,28.809,24.902,14.160,0
1556291734.649,36.133,22.949,33.691,25.879,-4.395,0
1556291734.653,8.789,13.184,33.691,1.465,13.672,0
1556291734.657,-10.742,19.043,27.832,-4.395,26.367,0
1556291734.661,17.578,24.414,24.902,24.414,8.789,0
1556291734.664,33.691,18.555,30.273,15.137,32.715,0
1556291734.668,21.484,23.926,29.297,0.977,35.156,0
1556291734.672,15.137,23.438,32.715,6.348,67.383,0
1556291734.676,26.855,20.508,36.133,10.254,44.922,0
1556291734.680,24.902,24.902,29.297,12.695,4.883,0
1556291734.682,-1.953,21.973,30.273,8.301,17.578,0
1556291734.686,10.742,19.531,33.691,12.207,35.156,0
1556291734.690,31.738,18.555,30.273,13.184,54.688,0
1556291734.694,12.207,19.043,25.391,11.230,8.301,0
1556291734.698,8.301,23.438,22.461,14.648,-15.137,0
1556291734.702,-11.719,21.484,25.391,3.418,-7.812,0
1556291734.706,-1.465,19.043,33.203,0.977,9.766,0
1556291734.709,14.160,21.973,33.691,5.859,32.227,0
1556291734.713,8.789,20.996,32.227,12.207,60.547,1
1556291734.717,19.043,21.973,32.715,20.996,52.246,0
1556291734.721,10.254,24.902,34.180,22.949,36.133,0
1556291734.725,13.672,22.949,34.180,12.207,64.941,0
1556291734.727,24.414,28.320,33.203,13.184,61.523,0
1556291734.731,18.066,25.391,38.574,20.020,90.820,0
1556291734.735,0.488,11.230,31.250,3.418,67.871,0
1556291734.739,13.184,3.906,24.414,-1.953,-7.324,0
1556291734.743,25.391,13.184,22.949,16.113,-14.648,0
1556291734.747,18.555,20.996,21.484,19.531,0.977,0
1556291734.751,14.648,20.996,25.879,13.184,3.906,0
1556291734.754,13.672,19.043,33.203,6.348,20.996,0
1556291734.758,31.738,20.508,30.762,13.184,57.617,0
1556291734.762,25.879,25.391,23.438,16.113,42.969,0
1556291734.766,-0.977,25.879,20.996,-1.953,4.883,0
1556291734.770,1.465,23.438,22.461,-12.695,-39.062,0
1556291734.787,5.859,19.043,20.996,1.465,-36.621,0
1556291734.791,8.301,24.902,17.578,3.906,-24.902,0
1556291734.795,10.254,26.855,22.461,-0.977,-34.180,0
1556291734.799,10.742,17.578,23.926,6.348,-0.977,0
1556291734.803,26.855,18.555,27.344,7.324,40.039,0
1556291734.807,26.367,20.508,37.598,4.395,21.973,0
1556291734.811,6.348,17.578,30.762,1.465,43.457,0
1556291734.814,11.719,17.578,20.020,19.043,90.332,0
1556291734.818,21.973,31.738,21.484,23.438,40.039,0
1556291734.822,5.371,35.156,20.020,21.973,18.066,0
1556291734.826,-2.441,21.973,19.531,16.113,7.324,0
1556291734.830,5.371,19.531,23.926,5.371,11.719,0
1556291734.832,20.020,18.066,31.738,18.555,16.602,0
1556291734.836,20.020,29.785,30.762,18.555,8.301,0
1556291734.840,20.996,35.645,31.250,20.508,31.250,0
1556291734.844,26.855,25.391,33.691,26.855,46.387,0
1556291734.848,27.832,19.531,29.785,22.461,27.344,0
1556291734.852,42.969,20.020,16.113,9.766,15.137,0
1556291734.856,41.016,23.926,16.113,3.418,34.180,0
1556291734.859,25.879,23.926,33.203,16.113,54.688,0
1556291734.863,30.273,19.531,23.926,29.785,57.617,0
1556291734.867,28.320,26.855,20.508,12.207,43.945,0
1556291734.871,14.648,29.297,30.762,8.789,50.293,0
1556291734.875,12.207,21.484,37.598,33.203,80.566,0
1556291734.877,17.578,26.367,38.086,21.973,62.500,0
1556291734.881,20.508,31.738,29.785,7.812,6.348,0
1556291734.885,10.254,24.902,31.738,8.789,45.410,0
1556291734.889,14.160,22.461,28.320,21.484,0.488,0
1556291734.893,18.555,23.926,20.508,31.250,-23.926,0
1556291734.897,11.230,21.484,24.414,20.996,45.898,0
1556291734.901,21.973,20.996,31.738,15.625,49.805,0
1556291734.904,8.789,21.484,32.715,15.137,10.254,0
1556291734.908,-0.977,23.438,34.668,12.207,9.277,0
1556291734.912,9.766,24.414,30.762,8.301,29.785,0
1556291734.916,6.348,26.367,20.508,13.672,50.781,0
1556291734.920,6.348,35.645,29.297,10.742,68.359,0
1556291734.922,2.441,30.273,26.855,2.930,-10.254,0
1556291734.926,7.324,18.555,19.531,16.113,-14.648,0
1556291734.930,15.625,23.438,27.832,19.531,-23.438,0
1556291734.934,13.184,24.414,34.180,15.137,24.414,0
1556291734.938,15.625,26.367,33.203,29.297,59.082,0
1556291734.942,40.527,31.250,33.691,40.527,20.508,0
1556291734.946,41.016,30.762,32.715,25.391,57.617,0
1556291734.949,26.855,29.297,26.855,14.648,33.691,0
1556291734.953,29.297,28.809,26.855,14.648,37.598,0
1556291734.957,27.832,31.738,19.531,21.973,13.672,0
1556291734.961,11.719,30.273,23.926,20.996,3.906,0
1556291734.965,22.949,31.250,33.691,16.602,67.383,0
1556291734.967,29.297,29.785,36.621,22.461,60.547,0
1556291734.971,9.277,27.344,41.016,34.180,45.898,0
1556291734.975,11.230,30.762,30.762,15.137,44.922,0
1556291734.979,23.926,27.344,25.879,5.859,68.848,0
1556291734.983,22.461,22.949,31.250,27.344,28.809,0
1556291734.987,1.465,26.367,26.367,13.672,-6.348,0
1556291734.991,-0.977,30.762,25.879,3.418,22.949,0
1556291734.994,23.438,31.738,33.691,16.113,-23.438,0
1556291734.998,21.484,31.738,30.762,15.137,-35.645,0
1556291735.002,9.766,29.297,23.926,20.996,10.254,0
1556291735.006,16.113,22.461,29.785,27.344,15.137,0
1556291735.010,30.273,25.879,32.715,33.691,-8.301,0
1556291735.012,37.109,26.367,30.762,25.879,19.043,0
1556291735.016,23.926,32.715,31.250,26.367,0.977,0
1556291735.020,16.113,36.621,29.785,27.344,-34.180,0
1556291735.024,24.414,30.273,28.320,11.719,3.418,0
1556291735.028,21.484,28.320,24.902,11.230,31.738,0
1556291735.032,4.395,24.902,29.297,5.859,0.977,0
1556291735.036,0.977,27.344,31.250,4.395,-11.230,0
1556291735.039,10.742,27.344,27.832,17.578,-17.578,0
1556291735.043,15.625,25.391,30.273,14.648,6.348,0
1556291735.047,14.160,22.461,30.762,9.766,53.711,0
1556291735.051,0.977,29.785,28.809,17.578,26.367,0
1556291735.055,9.766,27.344,35.645,11.719,15.137,0
1556291735.057,29.785,18.555,36.133,3.906,32.715,0
1556291735.061,31.738,27.832,24.902,14.160,16.113,0
1556291735.065,28.320,36.621,20.996,18.555,31.738,0
1556291735.069,10.254,28.809,25.391,-2.441,19.043,0
1556291735.073,17.090,22.949,25.391,-10.742,27.832,0
1556291735.077,41.016,24.902,20.508,-7.324,47.363,0
1556291735.081,35.156,28.320,24.902,-15.137,42.480,0
1556291735.084,12.695,29.297,28.809,-17.090,64.941,0
1556291735.088,12.207,22.461,26.855,-5.371,3.418,0
1556291735.092,22.949,20.020,24.414,4.883,6.836,0
1556291735.096,18.066,25.391,19.043,7.324,99.609,0
1556291735.100,7.324,24.414,32.227,15.137,44.922,0
1556291735.102,-0.488,24.414,37.598,21.484,-8.301,0
1556291735.106,-0.488,22.949,32.715,3.906,-7.324,0
1556291735.110,9.766,23.926,36.133,1.465,-0.977,0
1556291735.114,-3.418,26.367,32.715,12.207,32.227,0
1556291735.118,2.930,22.949,29.297,21.484,-24.902,0
1556291735.122,16.602,20.508,28.320,25.879,-16.602,0
1556291735.126,19.043,21.973,29.785,15.137,39.062,0
1556291735.129,15.137,29.785,30.762,6.836,56.641,0
1556291735.133,3.418,28.320,26.855,3.418,103.516,0
