timestamps,TP9,AF7,AF8,TP10,Right AUX,Marker0
1581638209.921,-48.34,6.836,38.574,-32.715,0.0,0
1581638209.925,7.324,21.97300000000001,49.805,10.742,0.0,0
1581638209.929,22.461,66.406,26.366999999999997,7.812,0.0,0
1581638209.9329998,33.691,95.70299999999999,26.366999999999997,3.418,0.0,0
1581638209.937,38.086,60.059,51.27,29.785,0.0,0
1581638209.941,17.578,10.254000000000001,59.57,18.066,0.0,0
1581638209.945,43.945,3.906,74.219,23.926,0.0,0
1581638209.948,23.438000000000002,34.668,41.504,3.418,0.0,0
1581638209.9520001,-4.395,59.082,4.395,-36.621,0.0,0
1581638209.956,0.0,57.129,-0.488,-20.996,0.0,0
1581638209.96,9.277000000000001,71.289,2.93,-7.812,0.0,0
1581638209.964,10.742,67.87100000000001,28.32,-6.348,0.0,0
1581638209.981,-5.371,51.758,37.598,15.137,0.0,0
1581638209.985,54.688,51.27,36.621,31.25,0.0,0
1581638209.9889998,53.223,53.71100000000001,-0.488,-21.97300000000001,0.0,0
1581638209.9929998,1.465,43.945,-30.761999999999997,-53.71100000000001,0.0,0
1581638209.9970002,-13.184000000000001,39.551,-15.625,-28.809,0.0,0
1581638210.0010002,-2.93,34.18,-14.648,-11.23,0.0,0
1581638210.005,-5.371,37.109,-20.996,-11.719000000000001,0.0,0
1581638210.008,11.719000000000001,20.996,-23.926,-5.859,0.0,0
1581638210.012,44.922,33.203,-34.18,24.901999999999997,0.0,0
1581638210.016,35.645,79.59,-47.363,36.133,0.0,0
1581638210.02,19.043,84.961,-29.296999999999997,23.926,0.0,0
1581638210.024,45.898,52.733999999999995,1.953,44.434,0.0,0
1581638210.026,51.758,20.996,-10.742,31.738000000000003,0.0,0
1581638210.03,18.555,40.527,-32.715,-9.766,0.0,0
1581638210.034,11.23,43.457,-43.945,-12.695,0.0,0
1581638210.0379999,-9.766,33.691,-48.34,-7.812,0.0,0
1581638210.042,5.859,57.129,-34.668,-11.23,0.0,0
1581638210.046,42.968999999999994,60.059,-23.926,12.695,0.0,0
1581638210.05,43.457,71.777,-23.926,25.879,0.0,0
1581638210.053,66.895,70.312,-33.203,26.366999999999997,0.0,0
1581638210.0570002,94.238,40.527,-19.531,62.988,0.0,0
1581638210.061,37.109,25.879,-26.366999999999997,26.366999999999997,0.0,0
1581638210.065,-11.719000000000001,55.663999999999994,-59.57,-26.855,0.0,0
1581638210.069,13.672,52.246,-63.965,-31.25,0.0,0
1581638210.071,61.035,52.733999999999995,-16.602,7.324,0.0,0
1581638210.075,70.312,90.82,10.254000000000001,56.64100000000001,0.0,0
1581638210.079,17.09,61.035,-30.273000000000003,17.578,0.0,0
1581638210.083,24.414,57.617,-13.184000000000001,26.366999999999997,0.0,0
1581638210.0870001,42.48,36.133,5.371,38.574,0.0,0
1581638210.091,5.371,5.859,-16.113,-2.441,0.0,0
1581638210.095,22.949,44.434,-11.23,-34.668,0.0,0
1581638210.0979998,6.348,65.918,-12.207,-29.296999999999997,0.0,0
1581638210.1020002,-6.836,53.71100000000001,-1.465,-11.719000000000001,0.0,0
1581638210.106,53.223,44.922,7.812,-4.395,0.0,0
1581638210.11,72.266,43.945,14.648,38.574,0.0,0
1581638210.1139998,24.414,53.223,24.901999999999997,26.855,0.0,0
1581638210.1160002,1.953,49.805,32.227,9.277000000000001,0.0,0
1581638210.12,34.668,49.316,49.805,59.082,0.0,0
1581638210.1239998,34.18,48.34,36.133,32.715,0.0,0
1581638210.1279998,31.25,35.156,15.137,-4.395,0.0,0
1581638210.1320002,36.133,43.457,-3.906,0.977,0.0,0
1581638210.1360002,-30.761999999999997,41.504,-20.508000000000006,-49.805,0.0,0
1581638210.14,-31.738000000000003,41.01600000000001,2.93,-32.227,0.0,0
1581638210.143,37.109,30.761999999999997,25.391,24.901999999999997,0.0,0
1581638210.147,27.344,40.527,3.418,3.418,0.0,0
1581638210.151,1.465,53.223,21.484,-3.418,0.0,0
1581638210.155,0.977,27.831999999999997,42.968999999999994,0.0,0.0,0
1581638210.159,29.296999999999997,41.992,-8.301,4.883,0.0,0
1581638210.161,35.645,66.406,4.883,29.296999999999997,0.0,0
1581638210.165,20.508000000000006,62.012,29.296999999999997,4.883,0.0,0
1581638210.169,38.574,46.875,-9.277000000000001,-10.742,0.0,0
1581638210.1729999,29.785,43.945,-0.488,6.348,0.0,0
1581638210.177,-9.277000000000001,34.668,5.859,-0.488,0.0,0
1581638210.181,17.578,48.828,16.113,7.324,0.0,0
1581638210.185,13.672,51.27,-2.441,-10.742,0.0,0
1581638210.188,-23.926,43.457,-32.715,-26.855,0.0,0
1581638210.1920002,3.418,56.152,4.395,-19.043,0.0,0
1581638210.196,28.32,46.875,30.273000000000003,11.23,0.0,0
1581638210.2,48.34,65.918,30.761999999999997,35.645,0.0,0
1581638210.204,1.953,68.359,9.766,-11.23,0.0,0
1581638210.207,-44.434,10.742,11.23,-53.223,0.0,0
1581638210.211,4.883,24.901999999999997,1.465,6.348,0.0,0
1581638210.215,-3.906,39.551,3.418,-0.488,0.0,0
1581638210.2189999,-1.953,17.09,24.901999999999997,-39.062,0.0,0
1581638210.2229998,-14.16,41.01600000000001,1.953,-28.809,0.0,0
1581638210.2270002,1.953,62.012,-11.23,39.062,0.0,0
1581638210.231,69.824,95.215,-15.137,97.16799999999999,0.0,0
1581638210.234,5.859,73.242,-0.977,8.789,0.0,0
1581638210.238,-34.18,28.32,13.672,-44.434,0.0,0
1581638210.242,-31.738000000000003,5.371,32.227,-69.824,0.0,0
1581638210.246,-10.742,13.184000000000001,19.043,-66.406,0.0,0
1581638210.25,-7.812,7.812,-17.09,-28.809,0.0,0
1581638210.252,-24.901999999999997,14.16,0.0,-47.852,0.0,0
1581638210.256,30.761999999999997,48.828,22.461,-18.066,0.0,0
1581638210.26,38.574,75.195,15.625,96.191,0.0,0
1581638210.264,2.93,62.988,53.71100000000001,101.074,0.0,0
1581638210.268,0.977,34.668,6.836,-41.992,0.0,0
1581638210.272,8.789,30.761999999999997,-0.488,-71.777,0.0,0
1581638210.276,33.691,43.945,54.199,54.688,0.0,0
1581638210.279,19.043,32.715,3.906,-42.968999999999994,0.0,0
1581638210.283,-33.691,13.672,9.277000000000001,-97.16799999999999,0.0,0
1581638210.2870002,5.859,37.598,25.391,56.152,0.0,0
1581638210.2910001,34.18,62.012,61.523,27.831999999999997,0.0,0
1581638210.295,-11.719000000000001,57.617,49.805,-75.684,0.0,0
1581638210.2970002,18.066,44.922,-2.441,-12.695,0.0,0
1581638210.301,87.402,30.761999999999997,44.922,231.445,0.0,0
1581638210.305,45.41,45.41,30.273000000000003,89.844,0.0,0
1581638210.309,-19.043,61.035,14.16,-62.988,0.0,0
1581638210.313,8.789,69.336,40.039,46.875,0.0,0
1581638210.3170002,6.836,45.898,-27.344,-53.71100000000001,0.0,0
1581638210.321,-4.395,52.733999999999995,-18.555,-74.707,0.0,0
1581638210.324,18.555,70.801,56.152,35.156,0.0,0
1581638210.3279998,8.301,61.035,7.812,56.64100000000001,0.0,0
1581638210.332,59.57,62.012,4.883,79.59,0.0,0
1581638210.336,81.543,36.621,33.203,-51.758,0.0,0
1581638210.34,39.062,48.34,0.0,62.5,0.0,0
1581638210.357,-62.988,49.805,6.348,17.578,0.0,0
1581638210.361,-54.688,39.062,27.831999999999997,-14.648,0.0,0
1581638210.365,95.215,79.102,28.809,156.738,0.0,0
1581638210.369,66.895,81.055,17.09,98.633,0.0,0
1581638210.373,8.789,67.87100000000001,-6.348,13.672,0.0,0
1581638210.377,60.547,82.031,-35.156,94.727,0.0,0
1581638210.381,64.941,66.406,-14.648,192.38299999999998,0.0,0
1581638210.3839998,104.00399999999999,60.547,-1.465,261.719,0.0,0
1581638210.3879998,69.824,63.965,6.836,168.457,0.0,0
1581638210.3920002,50.78100000000001,89.355,-23.926,65.918,0.0,0
1581638210.3960001,148.438,106.445,-49.316,285.156,0.0,0
1581638210.4,54.688,50.293,14.16,122.07,0.0,0
1581638210.4020002,-20.02,67.383,-50.293,-136.719,0.0,0
1581638210.4060001,36.133,75.195,-93.75,61.523,0.0,0
1581638210.41,49.316,34.18,0.488,102.051,0.0,0
1581638210.414,60.547,57.129,-30.761999999999997,117.18799999999999,0.0,0
1581638210.418,44.434,70.312,-50.293,203.125,0.0,0
1581638210.4220002,31.738000000000003,48.34,-25.391,105.95700000000001,0.0,0
1581638210.426,53.71100000000001,84.961,-59.082,79.102,0.0,0
1581638210.429,70.312,80.566,-62.012,120.117,0.0,0
1581638210.4329998,32.227,25.879,-18.066,111.32799999999999,0.0,0
1581638210.437,47.363,45.41,-28.32,-23.926,0.0,0
1581638210.441,55.663999999999994,47.363,-54.199,-52.733999999999995,0.0,0
1581638210.445,56.64100000000001,38.574,-39.551,145.02,0.0,0
1581638210.447,131.836,84.473,-24.901999999999997,295.89799999999997,0.0,0
1581638210.451,114.258,98.145,-25.391,259.277,0.0,0
1581638210.455,-32.227,25.879,-35.156,-25.391,0.0,0
1581638210.4589999,-18.555,-1.953,-37.598,-46.875,0.0,0
1581638210.4629998,94.727,32.227,-23.926,73.242,0.0,0
1581638210.467,119.141,65.918,-35.645,126.95299999999999,0.0,0
1581638210.471,84.961,70.801,-20.508000000000006,131.34799999999998,0.0,0
1581638210.474,76.66,58.593999999999994,-7.812,191.40599999999998,0.0,0
1581638210.478,82.031,41.01600000000001,-20.508000000000006,216.30900000000003,0.0,0
1581638210.482,44.434,33.203,-73.73,57.617,0.0,0
1581638210.486,8.301,20.02,-51.27,84.473,0.0,0
1581638210.49,0.977,12.207,34.668,69.336,0.0,0
1581638210.492,3.906,37.598,-30.761999999999997,-147.461,0.0,0
1581638210.496,47.852,48.828,-44.434,3.906,0.0,0
1581638210.5,46.387,58.105,-40.039,138.672,0.0,0
1581638210.504,86.426,73.242,-9.766,97.656,0.0,0
1581638210.508,73.242,54.688,-10.254000000000001,74.707,0.0,0
1581638210.512,20.508000000000006,50.78100000000001,-5.859,109.863,0.0,0
1581638210.516,58.105,49.805,-3.906,88.867,0.0,0
1581638210.519,61.523,16.113,-59.57,33.691,0.0,0
1581638210.5229998,54.199,15.625,-28.32,85.93799999999996,0.0,0
1581638210.5270002,33.203,34.18,-34.18,105.95700000000001,0.0,0
1581638210.5310001,21.97300000000001,23.926,-31.738000000000003,84.473,0.0,0
1581638210.535,-4.395,14.648,25.391,-36.133,0.0,0
1581638210.5370002,-9.277000000000001,8.789,-9.277000000000001,-53.223,0.0,0
1581638210.5410001,60.547,33.691,-2.441,110.352,0.0,0
1581638210.545,91.309,89.355,12.695,137.695,0.0,0
1581638210.549,59.57,54.688,20.508000000000006,82.031,0.0,0
1581638210.553,-13.184000000000001,8.301,-58.593999999999994,-39.551,0.0,0
1581638210.5570002,-17.578,7.324,-48.828,58.105,0.0,0
1581638210.561,116.211,33.691,-28.32,156.738,0.0,0
1581638210.564,84.961,56.152,-82.031,48.828,0.0,0
1581638210.5679998,20.996,21.484,-29.296999999999997,-36.621,0.0,0
1581638210.572,73.242,29.785,23.438000000000002,73.242,0.0,0
1581638210.576,51.758,70.312,-38.574,56.64100000000001,0.0,0
1581638210.58,45.898,46.875,-16.602,39.062,0.0,0
1581638210.582,41.01600000000001,6.836,20.508000000000006,48.828,0.0,0
1581638210.586,2.441,41.01600000000001,18.066,-27.831999999999997,0.0,0
1581638210.59,13.672,41.504,6.836,70.312,0.0,0
1581638210.5939999,13.672,7.812,20.996,15.625,0.0,0
1581638210.5979998,42.968999999999994,59.082,0.977,49.316,0.0,0
1581638210.6020002,59.57,55.663999999999994,-1.465,115.234,0.0,0
1581638210.606,33.691,37.109,-17.578,72.266,0.0,0
1581638210.609,-13.672,42.48,-42.48,-34.18,0.0,0
1581638210.613,3.906,41.504,0.488,-14.648,0.0,0
1581638210.617,-0.488,45.898,26.855,101.074,0.0,0
1581638210.621,-26.855,27.831999999999997,-6.348,2.441,0.0,0
1581638210.625,38.574,28.32,19.043,32.715,0.0,0
1581638210.6260002,42.968999999999994,61.523,-2.441,-1.465,0.0,0
1581638210.63,18.066,54.688,-13.672,7.812,0.0,0
1581638210.6339998,42.48,22.949,54.199,111.32799999999999,0.0,0
1581638210.6379998,94.727,62.012,19.043,125.0,0.0,0
1581638210.6420002,101.074,76.172,-9.277000000000001,66.406,0.0,0
1581638210.6460001,107.42200000000001,33.203,-6.348,26.366999999999997,0.0,0
1581638210.65,99.609,23.926,12.695,35.645,0.0,0
1581638210.6529999,84.961,47.852,10.254000000000001,39.551,0.0,0
1581638210.657,80.078,29.296999999999997,4.883,67.87100000000001,0.0,0
1581638210.661,89.355,24.901999999999997,26.855,119.141,0.0,0
1581638210.665,66.406,58.105,19.043,114.74600000000001,0.0,0
1581638210.669,22.949,48.828,36.133,34.18,0.0,0
1581638210.671,25.879,31.25,32.715,56.152,0.0,0
1581638210.675,51.27,40.527,38.574,69.824,0.0,0
1581638210.679,79.102,44.922,40.039,79.59,0.0,0
1581638210.6829998,22.461,26.366999999999997,28.809,85.449,0.0,0
1581638210.687,-11.23,31.25,20.996,79.59,0.0,0
1581638210.691,-11.23,20.02,38.574,37.109,0.0,0
1581638210.695,16.113,10.742,46.875,54.199,0.0,0
1581638210.698,42.48,49.316,11.23,112.305,0.0,0
1581638210.7020001,23.926,50.78100000000001,39.551,92.773,0.0,0
1581638210.706,9.766,25.879,21.97300000000001,64.941,0.0,0
1581638210.71,3.418,30.273000000000003,5.859,43.457,0.0,0
1581638210.714,32.715,38.574,20.02,54.199,0.0,0
1581638210.731,41.01600000000001,33.691,30.273000000000003,62.012,0.0,0
1581638210.735,41.504,41.992,34.668,51.27,0.0,0
1581638210.7389998,65.918,42.48,13.184000000000001,58.105,0.0,0
1581638210.7429998,88.37899999999998,49.316,39.551,84.473,0.0,0
1581638210.7470002,112.305,68.848,64.453,95.215,0.0,0
1581638210.7510002,90.82,42.48,31.25,59.57,0.0,0
1581638210.755,59.082,38.086,18.555,34.18,0.0,0
1581638210.758,15.625,34.668,16.602,14.648,0.0,0
1581638210.762,-4.395,35.645,0.0,-5.371,0.0,0
1581638210.766,49.316,41.992,20.996,20.02,0.0,0
1581638210.77,68.848,31.25,41.992,41.504,0.0,0
1581638210.774,62.5,40.527,18.555,49.316,0.0,0
1581638210.7770002,55.176,29.785,35.156,46.387,0.0,0
1581638210.7810001,22.461,39.062,40.039,31.25,0.0,0
1581638210.785,0.0,50.293,6.836,-5.371,0.0,0
1581638210.789,-4.883,26.366999999999997,12.695,-36.133,0.0,0
1581638210.793,7.812,31.738000000000003,34.18,-6.348,0.0,0
1581638210.7970002,30.273000000000003,52.246,43.945,12.695,0.0,0
1581638210.801,19.043,30.761999999999997,53.71100000000001,8.789,0.0,0
1581638210.804,18.066,26.366999999999997,30.761999999999997,18.555,0.0,0
1581638210.8079998,40.039,36.133,11.23,39.062,0.0,0
1581638210.812,41.504,34.668,64.453,45.898,0.0,0
1581638210.816,4.883,42.968999999999994,74.707,15.625,0.0,0
1581638210.82,-19.531,28.809,31.25,-27.831999999999997,0.0,1
1581638210.821,-0.488,27.344,23.438000000000002,-7.812,0.0,0
1581638210.825,31.738000000000003,26.855,25.879,9.766,0.0,0
1581638210.829,32.227,20.02,43.945,5.859,0.0,0
1581638210.833,40.039,54.199,61.523,25.879,0.0,0
1581638210.8370001,55.663999999999994,63.965,49.805,27.344,0.0,0
1581638210.841,76.172,61.035,52.246,40.039,0.0,0
1581638210.845,58.593999999999994,43.457,63.965,35.156,0.0,0
1581638210.8479998,8.301,2.441,36.133,-11.23,0.0,0
1581638210.8520002,13.184000000000001,32.227,25.879,-20.02,0.0,0
1581638210.856,-5.859,33.691,19.531,-17.09,0.0,0
1581638210.86,13.184000000000001,18.555,16.602,-32.227,0.0,0
1581638210.8639998,61.523,45.898,41.01600000000001,-3.906,0.0,0
1581638210.8660002,64.453,40.039,47.363,16.602,0.0,0
1581638210.87,46.875,41.504,37.598,9.277000000000001,0.0,0
1581638210.8739998,34.18,47.852,37.109,14.648,0.0,0
1581638210.8779998,23.438000000000002,23.438000000000002,25.879,-5.859,0.0,0
1581638210.8820002,18.066,44.434,21.484,-29.296999999999997,0.0,0
1581638210.8860002,27.344,49.316,21.484,-18.555,0.0,0
1581638210.89,40.527,41.01600000000001,41.992,12.695,0.0,0
1581638210.893,48.828,44.434,49.805,20.02,0.0,0
1581638210.897,55.663999999999994,20.996,59.57,31.738000000000003,0.0,0
1581638210.901,100.586,42.968999999999994,63.965,74.219,0.0,0
1581638210.905,88.867,56.152,28.809,74.219,0.0,0
1581638210.909,36.133,40.039,25.391,26.855,0.0,0
1581638210.911,-0.488,27.344,31.738000000000003,-10.254000000000001,0.0,0
1581638210.915,6.348,37.598,44.922,15.625,0.0,0
1581638210.919,41.01600000000001,49.316,68.359,31.738000000000003,0.0,0
1581638210.9229999,49.316,33.691,60.547,20.996,0.0,0
1581638210.927,43.457,42.968999999999994,49.316,25.391,0.0,0
1581638210.931,41.992,26.366999999999997,53.223,22.949,0.0,0
1581638210.935,38.086,36.621,41.504,26.366999999999997,0.0,0
1581638210.938,34.18,60.059,44.434,22.949,0.0,0
1581638210.9420002,33.203,47.852,62.012,15.137,0.0,0
1581638210.946,22.461,21.484,37.598,-9.277000000000001,0.0,0
1581638210.95,30.761999999999997,25.879,38.086,-8.301,0.0,0
1581638210.954,20.02,55.663999999999994,49.805,1.953,0.0,0
1581638210.956,12.695,28.32,53.223,-1.953,0.0,0
1581638210.96,41.01600000000001,13.184000000000001,78.613,12.695,0.0,0
1581638210.964,41.992,35.156,57.129,15.625,0.0,0
1581638210.968,1.953,41.992,25.879,-15.137,0.0,0
1581638210.9720001,12.207,42.48,54.199,-0.488,0.0,0
1581638210.976,64.941,32.715,68.359,49.805,0.0,0
1581638210.98,31.738000000000003,23.438000000000002,61.035,22.949,0.0,0
1581638210.9829998,17.578,30.273000000000003,74.219,7.812,0.0,0
1581638210.9870002,70.801,36.621,83.984,49.805,0.0,0
1581638210.9910002,33.203,35.156,66.895,40.527,0.0,0
1581638210.995,15.137,37.598,53.71100000000001,19.043,0.0,0
1581638210.9989998,17.09,43.457,33.691,16.602,0.0,0
1581638211.002,4.395,14.648,37.598,16.113,0.0,0
1581638211.006,45.41,23.438000000000002,68.848,49.805,0.0,0
1581638211.01,101.074,89.844,96.191,89.844,0.0,0
1581638211.014,59.082,66.895,60.059,48.34,0.0,0
1581638211.018,-19.531,-8.301,23.926,-17.578,0.0,0
1581638211.022,-1.465,-10.742,52.733999999999995,-10.742,0.0,0
1581638211.026,3.906,18.066,62.5,2.441,0.0,0
1581638211.029,9.766,42.968999999999994,44.434,7.324,0.0,0
1581638211.033,69.824,62.5,83.008,61.523,0.0,0
1581638211.0370002,71.289,66.406,96.191,61.523,0.0,0
1581638211.0410001,0.977,50.293,32.715,-9.766,0.0,0
1581638211.045,-21.97300000000001,20.02,49.316,-21.484,0.0,0
1581638211.0470002,-11.23,17.09,61.523,-7.324,0.0,0
1581638211.051,-1.465,25.879,45.41,-1.953,0.0,0
1581638211.055,36.621,34.18,62.012,19.043,0.0,0
1581638211.059,43.457,54.688,72.75399999999998,53.71100000000001,0.0,0
1581638211.063,55.176,58.593999999999994,93.75,84.961,0.0,0
1581638211.0670002,93.262,51.758,104.00399999999999,98.145,0.0,0
1581638211.071,41.504,42.968999999999994,53.223,48.828,0.0,0
1581638211.074,-11.719000000000001,47.852,32.715,-20.02,0.0,0
1581638211.0779998,0.977,24.414,46.875,-12.695,0.0,0
1581638211.082,21.484,39.551,73.73,33.203,0.0,0
1581638211.086,-0.488,43.457,57.617,18.555,0.0,0
1581638211.09,1.465,32.715,53.223,19.043,0.0,0
1581638211.107,23.926,40.527,62.5,25.391,0.0,0
1581638211.111,45.41,35.645,72.75399999999998,36.133,0.0,0
1581638211.115,78.125,69.336,98.145,75.195,0.0,0
1581638211.119,27.831999999999997,54.688,57.617,31.25,0.0,0
1581638211.123,-17.09,28.809,35.156,-23.438000000000002,0.0,0
1581638211.127,-8.301,45.41,57.129,-7.324,0.0,0
1581638211.131,12.695,37.598,74.219,9.277000000000001,0.0,0
1581638211.1339998,48.828,21.97300000000001,68.359,22.949,0.0,0
1581638211.1379998,23.926,33.203,49.805,27.344,0.0,0
1581638211.1420002,22.949,58.105,79.102,28.32,0.0,0
1581638211.1460001,31.738000000000003,64.941,91.79700000000001,31.738000000000003,0.0,0
1581638211.15,40.527,69.824,60.547,37.109,0.0,0
1581638211.1520002,57.129,83.008,52.246,35.645,0.0,0
1581638211.1560001,6.348,50.293,54.688,-16.113,0.0,0
1581638211.16,-25.391,2.93,83.984,-12.695,0.0,0
1581638211.164,5.859,23.438000000000002,85.449,4.395,0.0,0
1581638211.168,23.926,57.617,62.012,2.93,0.0,0
1581638211.1720002,40.527,63.477,98.633,42.968999999999994,0.0,0
1581638211.176,31.738000000000003,47.363,115.234,27.344,0.0,0
1581638211.179,-33.691,12.695,79.59,-20.996,0.0,0
1581638211.1829998,-24.901999999999997,27.344,65.918,8.789,0.0,0
1581638211.187,3.418,31.25,78.125,10.742,0.0,0
1581638211.191,0.0,33.691,68.359,0.488,0.0,0
1581638211.195,33.203,41.992,68.359,44.434,0.0,0
1581638211.197,62.988,66.406,92.773,62.012,0.0,0
1581638211.201,25.391,69.824,88.37899999999998,24.901999999999997,0.0,0
1581638211.205,7.812,62.012,69.336,12.695,0.0,0
1581638211.2089999,-7.324,28.32,47.363,-7.324,0.0,0
1581638211.2129998,-18.555,2.441,46.387,-19.531,0.0,0
1581638211.217,26.366999999999997,31.25,61.523,28.809,0.0,0
1581638211.221,77.637,68.359,83.49600000000002,69.336,0.0,0
1581638211.224,42.48,61.035,51.758,21.484,0.0,0
1581638211.228,-1.465,41.504,40.039,-10.742,0.0,0
1581638211.232,13.184000000000001,54.199,58.105,7.812,0.0,0
1581638211.236,31.25,47.363,38.086,6.836,0.0,0
1581638211.24,27.344,26.366999999999997,40.039,2.93,0.0,0
1581638211.242,29.785,31.25,60.059,27.344,0.0,0
1581638211.246,38.574,28.809,53.223,42.968999999999994,0.0,0
1581638211.25,55.663999999999994,62.988,62.012,61.035,0.0,0
1581638211.254,35.156,67.87100000000001,75.684,41.01600000000001,0.0,0
1581638211.258,20.02,44.922,58.105,13.184000000000001,0.0,0
1581638211.262,44.922,57.617,65.43,35.645,0.0,0
1581638211.266,45.898,45.898,78.125,55.176,0.0,0
1581638211.269,11.23,27.344,56.152,21.484,0.0,0
1581638211.2729998,3.418,39.551,46.875,-3.906,0.0,0
1581638211.2770002,33.691,62.012,70.801,34.668,0.0,0
1581638211.2810001,27.831999999999997,36.621,53.71100000000001,29.296999999999997,0.0,0
1581638211.285,25.391,2.441,55.663999999999994,21.484,0.0,0
1581638211.2870002,34.668,41.992,74.707,31.25,0.0,0
1581638211.2910001,21.484,53.223,60.547,7.324,0.0,0
1581638211.295,11.719000000000001,38.086,52.246,4.883,0.0,0
1581638211.299,33.203,51.27,64.941,19.043,0.0,0
1581638211.303,60.059,57.617,58.593999999999994,31.738000000000003,0.0,0
1581638211.3070002,55.176,51.27,63.477,41.504,0.0,0
1581638211.311,54.688,59.57,74.707,56.64100000000001,0.0,0
1581638211.314,41.01600000000001,62.5,47.363,39.551,0.0,0
1581638211.3179998,17.578,38.574,64.453,8.789,0.0,0
1581638211.322,2.93,39.062,84.473,4.883,0.0,0
1581638211.326,9.766,42.48,74.707,13.184000000000001,0.0,0
1581638211.33,23.438000000000002,31.738000000000003,62.988,11.23,0.0,0
1581638211.332,44.922,44.434,62.012,43.945,0.0,0
1581638211.336,59.082,58.105,77.148,67.87100000000001,0.0,0
1581638211.34,37.598,49.805,54.199,42.48,0.0,0
1581638211.3439999,35.156,43.457,45.41,38.086,0.0,0
1581638211.3479998,34.668,32.227,80.566,36.621,0.0,0
1581638211.3520002,3.418,28.809,71.289,-6.348,0.0,0
1581638211.356,9.766,60.547,62.988,-12.695,0.0,0
1581638211.359,52.246,75.195,76.66,33.691,0.0,0
1581638211.363,58.593999999999994,69.824,68.848,57.129,0.0,0
1581638211.367,6.348,46.387,59.082,9.766,0.0,0
1581638211.371,6.348,41.01600000000001,67.383,-0.977,0.0,0
1581638211.375,42.48,45.41,81.543,39.551,0.0,0
1581638211.377,40.527,39.062,70.801,36.621,0.0,0
1581638211.381,52.246,60.059,73.242,24.414,0.0,0
1581638211.385,38.086,58.105,82.031,27.831999999999997,0.0,0
1581638211.389,19.531,43.945,69.336,36.621,0.0,0
1581638211.393,36.621,50.293,56.152,43.457,0.0,0
1581638211.397,20.996,59.082,60.059,23.926,0.0,0
1581638211.401,-13.672,52.246,71.289,8.789,0.0,0
1581638211.404,-0.977,40.527,78.125,31.738000000000003,0.0,0
1581638211.408,22.461,34.18,82.52,41.504,0.0,0
1581638211.4120002,27.344,43.945,86.426,36.133,0.0,0
1581638211.4160001,31.738000000000003,42.48,74.707,30.273000000000003,0.0,0
1581638211.42,27.344,33.203,50.78100000000001,9.766,0.0,0
1581638211.4220002,31.738000000000003,64.941,45.898,2.93,0.0,0
1581638211.426,28.32,71.777,63.965,15.625,0.0,0
1581638211.43,26.366999999999997,61.523,81.055,19.531,0.0,0
1581638211.434,26.855,65.43,81.055,20.02,0.0,0
1581638211.438,41.01600000000001,42.48,75.684,31.25,0.0,0
1581638211.4420002,50.78100000000001,38.086,68.848,41.504,0.0,0
1581638211.446,32.227,23.926,53.223,18.555,0.0,0
1581638211.449,14.648,24.901999999999997,55.663999999999994,-9.766,0.0,0
1581638211.4529998,5.371,44.922,62.012,4.395,0.0,0
1581638211.457,46.387,44.922,83.49600000000002,44.434,0.0,0
1581638211.461,48.828,52.733999999999995,79.59,49.316,0.0,0
1581638211.465,56.152,58.593999999999994,69.336,60.059,0.0,0
1581638211.482,40.527,58.593999999999994,70.312,49.805,0.0,0
1581638211.486,-21.97300000000001,32.227,41.01600000000001,-10.254000000000001,0.0,0
1581638211.49,-14.16,17.578,48.828,-13.184000000000001,0.0,0
1581638211.494,-19.043,30.273000000000003,59.57,9.277000000000001,0.0,0
1581638211.498,2.441,43.457,47.363,39.062,0.0,0
1581638211.502,58.105,62.5,73.242,49.805,0.0,0
1581638211.506,104.00399999999999,78.125,103.516,53.223,0.0,0
1581638211.5089998,70.312,80.078,64.941,41.504,0.0,0
1581638211.5129998,13.672,32.227,23.438000000000002,-24.414,0.0,0
1581638211.5170002,14.16,10.254000000000001,30.761999999999997,-48.34,0.0,0
1581638211.5210001,42.968999999999994,26.855,61.523,-10.254000000000001,0.0,0
1581638211.525,68.359,51.27,78.613,28.32,0.0,0
1581638211.5270002,35.645,58.105,63.477,30.761999999999997,0.0,0
1581638211.5310001,17.578,42.968999999999994,56.64100000000001,21.97300000000001,0.0,0
1581638211.535,41.992,58.593999999999994,72.266,43.945,0.0,0
1581638211.539,59.57,42.48,92.285,44.922,0.0,0
1581638211.543,18.555,21.484,99.609,15.625,0.0,0
1581638211.5470002,-24.414,43.945,92.773,2.441,0.0,0
1581638211.551,-15.625,45.898,108.398,7.812,0.0,0
1581638211.554,17.578,46.387,114.74600000000001,22.949,0.0,0
1581638211.5579998,46.387,43.945,119.62899999999999,48.828,0.0,0
1581638211.562,55.663999999999994,47.363,108.398,47.852,0.0,0
1581638211.566,36.133,53.223,82.52,23.438000000000002,0.0,0
1581638211.57,37.598,44.434,96.68,26.855,0.0,0
1581638211.572,38.086,22.949,115.234,37.109,0.0,0
1581638211.576,16.113,16.602,100.586,19.043,0.0,0
1581638211.58,-9.766,37.598,88.867,-4.883,0.0,0
1581638211.5839999,6.836,51.27,103.027,15.137,0.0,0
1581638211.5879998,9.277000000000001,44.434,105.469,21.97300000000001,0.0,0
1581638211.592,11.719000000000001,16.113,100.586,22.461,0.0,0
1581638211.596,43.945,30.761999999999997,111.32799999999999,40.527,0.0,0
1581638211.599,30.761999999999997,65.43,85.449,28.32,0.0,0
1581638211.603,-3.418,31.738000000000003,65.43,17.09,0.0,0
1581638211.607,36.621,27.344,98.633,27.831999999999997,0.0,0
1581638211.611,62.012,57.617,91.79700000000001,28.32,0.0,0
1581638211.615,-1.465,44.922,70.801,9.766,0.0,0
1581638211.617,21.484,33.691,78.125,36.621,0.0,0
1581638211.621,53.71100000000001,35.156,73.73,55.176,0.0,0
1581638211.625,20.996,41.01600000000001,63.965,9.766,0.0,0
1581638211.629,25.391,27.344,58.593999999999994,14.16,0.0,0
1581638211.633,27.831999999999997,24.901999999999997,55.176,34.668,0.0,0
1581638211.637,4.883,59.57,42.48,7.812,0.0,0
1581638211.641,42.968999999999994,59.082,58.593999999999994,18.555,0.0,0
1581638211.644,56.152,35.645,76.172,30.761999999999997,0.0,0
1581638211.6479998,31.25,53.71100000000001,53.71100000000001,9.766,0.0,0
1581638211.6520002,37.598,53.223,23.926,11.719000000000001,0.0,0
1581638211.6560001,22.949,20.508000000000006,17.578,4.395,0.0,0
1581638211.66,29.296999999999997,16.602,44.434,21.484,0.0,0
1581638211.6620002,55.663999999999994,23.926,31.738000000000003,39.551,0.0,0
1581638211.6660001,34.18,39.551,36.621,19.531,0.0,0
1581638211.67,24.414,76.66,78.613,14.648,0.0,0
1581638211.674,5.371,40.039,52.733999999999995,-3.906,0.0,0
1581638211.678,-2.93,-3.418,33.691,-6.348,0.0,0
1581638211.6820002,40.039,29.296999999999997,42.48,10.254000000000001,0.0,0
1581638211.686,41.992,47.363,44.922,25.879,0.0,0
1581638211.689,8.789,24.901999999999997,32.227,12.695,0.0,0
1581638211.6929998,21.484,-2.441,24.414,19.043,0.0,0
1581638211.697,33.691,34.668,40.039,52.246,0.0,0
1581638211.701,31.738000000000003,69.824,47.363,39.062,0.0,0
1581638211.705,27.344,40.527,51.27,12.207,0.0,0
1581638211.706,15.625,32.227,40.039,7.324,0.0,0
1581638211.71,25.391,25.879,33.203,24.414,0.0,0
1581638211.714,49.316,8.789,49.316,43.945,0.0,0
1581638211.718,59.082,18.066,63.477,54.199,0.0,0
1581638211.7220001,36.621,25.879,49.805,34.18,0.0,0
1581638211.726,-0.977,39.062,26.855,2.93,0.0,0
1581638211.73,7.324,36.621,35.156,2.441,0.0,0
1581638211.7329998,22.461,31.738000000000003,38.086,-0.488,0.0,0
1581638211.7370002,20.508000000000006,32.715,20.02,-0.488,0.0,0
1581638211.7410002,41.504,29.785,32.715,15.625,0.0,0
1581638211.745,48.828,23.438000000000002,45.41,40.527,0.0,0
1581638211.7489998,46.387,28.32,56.152,57.617,0.0,0
1581638211.766,35.645,26.366999999999997,62.5,35.156,0.0,0
1581638211.77,11.23,15.137,42.48,8.301,0.0,0
1581638211.774,30.273000000000003,53.71100000000001,43.457,20.02,0.0,0
1581638211.7779999,22.949,38.574,35.156,19.043,0.0,0
1581638211.782,11.23,7.812,27.831999999999997,17.09,0.0,0
1581638211.786,17.09,38.574,37.109,21.484,0.0,0
1581638211.79,12.207,52.246,32.715,11.23,0.0,0
1581638211.793,28.32,41.504,44.922,30.761999999999997,0.0,0
1581638211.7970002,33.203,18.066,49.316,42.48,0.0,0
1581638211.801,41.504,23.438000000000002,50.78100000000001,51.27,0.0,0
1581638211.805,77.148,71.777,80.566,78.613,0.0,0
1581638211.809,46.875,55.663999999999994,47.363,36.133,0.0,0
1581638211.796,0.977,15.625,23.926,-1.953,0.0,0
1581638211.8,1.465,21.97300000000001,41.992,4.395,0.0,0
1581638211.804,10.742,33.203,38.574,1.465,0.0,0
1581638211.8079998,17.578,41.504,47.363,17.578,0.0,0
1581638211.812,33.203,43.945,51.758,37.598,0.0,0
1581638211.816,44.922,46.387,66.895,32.227,0.0,0
1581638211.82,4.395,7.812,71.777,3.418,0.0,0
1581638211.823,-15.625,-6.348,60.059,-1.465,0.0,0
1581638211.8270001,-7.324,33.691,30.761999999999997,-4.395,0.0,0
1581638211.831,3.418,36.621,37.598,6.836,0.0,0
1581638211.835,13.672,37.598,60.547,11.23,0.0,0
1581638211.839,30.273000000000003,48.34,59.57,7.812,0.0,0
1581638211.841,46.875,45.41,80.566,22.949,0.0,0
1581638211.845,41.504,51.758,74.219,41.992,0.0,0
1581638211.849,30.273000000000003,48.34,60.547,36.621,0.0,0
1581638211.853,25.879,22.461,62.012,32.715,0.0,0
1581638211.857,26.855,25.879,52.733999999999995,39.062,0.0,0
1581638211.861,27.344,36.133,43.945,33.203,0.0,0
1581638211.865,29.785,46.387,43.945,47.363,0.0,0
1581638211.8679998,-3.906,41.01600000000001,50.293,30.273000000000003,0.0,0
1581638211.8720002,-11.719000000000001,11.719000000000001,50.293,-14.16,0.0,0
1581638211.8760002,39.062,28.32,56.64100000000001,13.184000000000001,0.0,0
1581638211.88,42.968999999999994,54.199,68.359,32.715,0.0,0
1581638211.8839998,26.855,37.109,72.266,26.366999999999997,0.0,0
1581638211.901,23.438000000000002,34.668,57.129,23.438000000000002,0.0,1
1581638211.905,39.551,65.43,67.383,35.156,0.0,0
1581638211.909,40.039,62.012,62.5,42.48,0.0,0
1581638211.9129999,12.207,14.648,53.71100000000001,28.32,0.0,0
1581638211.917,11.719000000000001,20.996,55.663999999999994,19.043,0.0,0
1581638211.921,3.418,32.715,31.738000000000003,-5.859,0.0,0
1581638211.925,7.812,28.809,49.316,-3.906,0.0,0
1581638211.928,48.34,41.992,78.125,26.855,0.0,0
1581638211.9320002,32.227,45.898,55.176,4.395,0.0,0
1581638211.936,-3.906,51.27,50.78100000000001,-18.555,0.0,0
1581638211.94,34.668,58.593999999999994,78.613,28.32,0.0,0
1581638211.944,35.156,42.48,52.733999999999995,15.625,0.0,0
1581638211.946,11.719000000000001,39.062,54.199,-9.277000000000001,0.0,0
1581638211.95,27.344,43.945,63.477,24.414,0.0,0
1581638211.954,15.625,33.691,48.828,31.738000000000003,0.0,0
1581638211.958,-4.395,31.738000000000003,76.66,10.742,0.0,0
1581638211.9620001,41.504,45.41,93.75,41.992,0.0,0
1581638211.966,71.777,57.617,81.543,69.824,0.0,0
1581638211.97,33.203,55.663999999999994,50.78100000000001,24.414,0.0,0
1581638211.9729998,32.227,50.78100000000001,40.527,18.555,0.0,0
1581638211.9770002,34.18,30.273000000000003,68.359,27.344,0.0,0
1581638211.981,0.488,18.555,71.777,6.348,0.0,0
1581638211.985,19.531,26.366999999999997,69.824,20.02,0.0,0
1581638211.9889998,58.593999999999994,47.363,77.148,62.5,0.0,0
1581638211.9910002,50.78100000000001,66.895,79.59,58.105,0.0,0
1581638211.995,27.344,63.965,64.941,28.809,0.0,0
1581638211.9989998,0.0,41.992,49.805,11.719000000000001,0.0,0
1581638212.0029998,21.484,37.598,66.895,22.461,0.0,0
1581638212.0070002,31.738000000000003,33.203,76.66,27.344,0.0,0
1581638212.0110002,21.484,33.203,63.477,16.602,0.0,0
1581638212.015,11.719000000000001,47.852,64.941,2.441,0.0,0
1581638212.018,9.766,44.434,70.801,3.906,0.0,0
1581638212.022,30.761999999999997,46.875,76.172,23.438000000000002,0.0,0
1581638212.026,32.227,39.062,56.64100000000001,14.648,0.0,0
1581638212.03,40.039,35.156,49.805,25.391,0.0,0
1581638212.034,40.527,46.387,50.293,40.527,0.0,0
1581638212.036,-1.465,39.062,41.504,17.09,0.0,0
1581638212.04,4.883,50.78100000000001,52.733999999999995,15.137,0.0,0
1581638212.044,26.855,42.48,64.453,31.25,0.0,0
1581638212.0479999,21.484,30.273000000000003,68.359,25.879,0.0,0
1581638212.052,46.387,49.805,82.52,47.852,0.0,0
1581638212.056,55.663999999999994,49.805,70.801,49.805,0.0,0
1581638212.06,22.949,45.898,44.922,32.715,0.0,0
1581638212.063,39.551,53.71100000000001,56.152,48.34,0.0,0
1581638212.0670002,72.75399999999998,39.062,75.195,61.035,0.0,0
1581638212.071,44.922,22.461,64.453,42.48,0.0,0
1581638212.075,25.879,44.434,44.434,29.785,0.0,0
1581638212.079,17.578,33.203,57.617,19.531,0.0,0
1581638212.082,37.598,49.805,72.75399999999998,26.366999999999997,0.0,0
1581638212.086,29.296999999999997,57.617,42.968999999999994,9.766,0.0,0
1581638212.09,30.273000000000003,44.922,38.086,14.16,0.0,0
1581638212.0939999,64.453,47.852,65.918,62.5,0.0,0
1581638212.0979998,42.968999999999994,1.953,32.227,28.32,0.0,0
1581638212.1020002,41.992,6.348,42.968999999999994,19.043,0.0,0
1581638212.106,87.402,61.523,78.613,70.801,0.0,0
1581638212.109,30.273000000000003,47.363,41.992,16.602,0.0,0
1581638212.113,-43.457,17.09,23.926,-50.293,0.0,0
1581638212.117,-0.977,39.551,49.805,-13.184000000000001,0.0,0
1581638212.121,38.574,55.176,62.5,26.855,0.0,0
1581638212.125,38.086,28.809,78.125,33.691,0.0,0
1581638212.127,53.223,22.949,59.57,48.828,0.0,0
1581638212.131,79.59,58.105,48.34,76.66,0.0,0
1581638212.135,39.062,47.363,46.875,36.621,0.0,0
1581638212.139,-6.836,19.043,41.992,-10.742,0.0,0
1581638212.143,9.766,24.414,54.199,0.488,0.0,0
1581638212.147,37.598,52.733999999999995,59.082,29.296999999999997,0.0,0
1581638212.151,34.18,67.87100000000001,72.75399999999998,44.434,0.0,0
1581638212.154,8.301,25.391,49.316,15.625,0.0,0
1581638212.158,12.207,4.883,46.387,12.207,0.0,0
1581638212.1620002,32.715,37.598,73.242,48.34,0.0,0
1581638212.1660001,44.434,33.691,58.105,45.41,0.0,0
1581638212.17,45.41,28.32,35.156,37.109,0.0,0
1581638212.1720002,67.87100000000001,53.223,59.57,65.43,0.0,0
1581638212.176,38.086,52.246,57.129,30.761999999999997,0.0,0
1581638212.18,0.0,33.203,38.086,-8.301,0.0,0
1581638212.184,51.758,59.082,71.289,49.805,0.0,0
1581638212.188,66.895,67.87100000000001,65.43,63.965,0.0,0
1581638212.1920002,34.668,17.578,36.133,18.066,0.0,0
1581638212.196,16.113,9.766,44.434,-0.488,0.0,0
1581638212.199,-22.949,30.761999999999997,24.414,-26.366999999999997,0.0,0
1581638212.2029998,-17.578,51.758,16.602,-15.625,0.0,0
1581638212.207,9.277000000000001,39.062,34.18,-2.441,0.0,0
1581638212.211,27.831999999999997,40.527,53.223,13.672,0.0,0
1581638212.215,31.25,61.523,56.64100000000001,32.227,0.0,0
1581638212.217,35.645,45.898,56.152,24.414,0.0,0
1581638212.221,41.992,35.156,45.898,29.785,0.0,0
1581638212.225,22.461,26.366999999999997,33.691,23.926,0.0,0
1581638212.2289999,-2.93,47.363,33.203,1.465,0.0,0
1581638212.2329998,5.371,65.918,38.574,14.648,0.0,0
1581638212.2370002,20.996,51.27,56.152,28.32,0.0,0
1581638212.2410002,20.508000000000006,37.109,59.57,20.02,0.0,0
1581638212.244,40.039,45.41,78.613,49.316,0.0,0
1581638212.248,49.805,55.176,58.593999999999994,56.152,0.0,0
1581638212.252,36.133,38.574,30.273000000000003,41.01600000000001,0.0,0
1581638212.256,24.901999999999997,33.203,48.34,32.227,0.0,0
1581638212.26,32.715,56.64100000000001,54.688,23.926,0.0,0
1581638212.2770002,15.137,41.504,61.523,28.32,0.0,0
1581638212.2810001,1.465,11.719000000000001,75.684,28.809,0.0,0
1581638212.285,19.531,24.901999999999997,67.383,31.738000000000003,0.0,0
1581638212.289,33.203,63.965,73.73,41.992,0.0,0
1581638212.293,27.344,50.78100000000001,60.059,26.366999999999997,0.0,0
1581638212.2970002,32.715,32.227,45.41,32.227,0.0,0
1581638212.301,42.968999999999994,60.059,68.848,47.852,0.0,0
1581638212.304,26.855,49.805,62.5,24.901999999999997,0.0,0
1581638212.3079998,21.484,25.391,56.64100000000001,17.578,0.0,0
1581638212.312,26.366999999999997,23.438000000000002,45.41,10.254000000000001,0.0,0
1581638212.316,30.273000000000003,37.109,60.059,21.97300000000001,0.0,0
1581638212.32,34.668,49.316,71.777,33.691,0.0,0
1581638212.322,25.391,40.527,72.266,23.438000000000002,0.0,0
1581638212.326,55.663999999999994,18.066,82.52,33.203,0.0,0
1581638212.33,57.129,34.668,55.176,24.414,0.0,0
1581638212.3339999,11.719000000000001,42.48,30.273000000000003,-18.066,0.0,0
1581638212.3379998,65.918,40.039,44.922,12.695,0.0,0
1581638212.342,77.637,53.71100000000001,36.621,33.203,0.0,0
1581638212.346,16.113,42.968999999999994,49.805,-0.488,0.0,0
1581638212.349,14.648,23.438000000000002,79.59,3.906,0.0,0
1581638212.353,16.602,26.366999999999997,71.777,16.113,0.0,0
1581638212.357,9.277000000000001,31.738000000000003,49.316,7.324,0.0,0
1581638212.361,-6.836,20.508000000000006,53.223,3.418,0.0,0
1581638212.365,7.324,15.137,56.64100000000001,6.836,0.0,0
1581638212.367,11.719000000000001,15.137,44.434,20.02,0.0,0
1581638212.371,-2.93,51.27,57.617,33.691,0.0,0
1581638212.375,20.508000000000006,61.523,73.242,39.551,0.0,0
1581638212.379,20.996,21.97300000000001,60.059,29.296999999999997,0.0,0
1581638212.383,22.461,14.648,61.035,30.273000000000003,0.0,0
1581638212.387,26.855,40.039,78.125,37.109,0.0,0
1581638212.391,23.438000000000002,62.988,53.223,39.551,0.0,0
1581638212.394,35.645,53.223,42.48,28.809,0.0,0
1581638212.3979998,5.371,36.621,48.828,1.465,0.0,0
1581638212.4020002,8.789,24.901999999999997,47.363,13.672,0.0,0
1581638212.4060001,45.41,28.32,80.078,51.27,0.0,0
1581638212.41,63.965,65.43,97.16799999999999,58.593999999999994,0.0,0
1581638212.4120002,76.66,34.668,86.914,64.453,0.0,0
1581638212.4160001,60.547,11.719000000000001,85.449,66.406,0.0,0
1581638212.42,19.531,18.555,58.105,12.695,0.0,0
1581638212.424,14.648,23.926,43.457,0.0,0.0,0
1581638212.428,54.199,51.758,57.617,21.97300000000001,0.0,0
1581638212.4320002,23.926,34.668,58.105,14.16,0.0,0
1581638212.436,-7.812,11.23,63.965,13.184000000000001,0.0,0
1581638212.439,31.738000000000003,52.246,79.102,44.922,0.0,0
1581638212.4429998,78.125,68.848,80.566,72.75399999999998,0.0,0
1581638212.447,70.801,36.621,62.012,55.663999999999994,0.0,0
1581638212.451,10.742,42.48,58.593999999999994,14.16,0.0,0
1581638212.455,-4.395,27.831999999999997,40.527,-15.137,0.0,0
1581638212.457,8.301,8.301,42.968999999999994,0.977,0.0,0
1581638212.461,13.184000000000001,31.738000000000003,40.039,4.395,0.0,0
1581638212.465,5.859,40.527,39.551,-0.977,0.0,0
1581638212.4689999,7.324,27.344,73.73,18.555,0.0,0
1581638212.4729998,29.785,37.598,73.73,25.879,0.0,0
1581638212.4770002,41.01600000000001,55.176,66.895,29.296999999999997,0.0,0
1581638212.481,40.039,48.828,66.406,30.761999999999997,0.0,0
1581638212.484,27.831999999999997,30.761999999999997,54.199,24.414,0.0,0
1581638212.488,28.809,24.901999999999997,32.715,8.301,0.0,0
1581638212.492,30.761999999999997,37.109,42.48,3.906,0.0,0
1581638212.496,0.488,29.785,37.109,-0.977,0.0,0
1581638212.5,23.438000000000002,25.879,44.922,17.578,0.0,0
1581638212.502,73.242,45.898,82.031,58.593999999999994,0.0,0
1581638212.506,38.086,40.527,59.57,36.133,0.0,0
1581638212.51,-4.395,27.344,32.227,18.555,0.0,0
1581638212.514,2.93,26.366999999999997,27.344,20.508000000000006,0.0,0
1581638212.518,15.625,34.668,48.34,10.254000000000001,0.0,0
1581638212.522,36.621,70.312,73.242,45.898,0.0,0
1581638212.526,32.227,52.246,46.387,43.945,0.0,0
1581638212.529,22.949,6.836,27.831999999999997,-0.977,0.0,0
1581638212.533,20.508000000000006,29.296999999999997,34.668,3.906,0.0,0
1581638212.5370002,22.949,41.992,30.761999999999997,14.648,0.0,0
1581638212.5410001,12.695,26.855,28.809,0.977,0.0,0
1581638212.545,15.137,27.831999999999997,36.621,0.977,0.0,0
1581638212.5470002,44.434,47.852,66.406,17.09,0.0,0
1581638212.551,61.523,61.523,80.566,37.598,0.0,0
1581638212.555,32.227,22.949,51.758,29.296999999999997,0.0,0
1581638212.559,38.574,12.207,41.992,24.414,0.0,0
1581638212.563,42.48,46.387,39.062,22.461,0.0,0
1581638212.5670002,16.602,42.968999999999994,39.551,12.207,0.0,0
1581638212.571,7.324,28.809,45.41,14.16,0.0,0
1581638212.574,34.668,33.691,77.148,43.945,0.0,0
1581638212.5779998,24.901999999999997,35.156,54.688,18.555,0.0,0
1581638212.582,-4.395,28.32,7.324,-16.113,0.0,0
1581638212.586,23.438000000000002,25.391,43.945,17.09,0.0,0
1581638212.59,24.901999999999997,22.949,58.593999999999994,16.113,0.0,0
1581638212.607,43.945,47.852,51.758,19.043,0.0,0
1581638212.611,26.855,26.366999999999997,48.828,20.996,0.0,0
1581638212.615,-9.766,14.16,49.316,11.719000000000001,0.0,0
1581638212.619,0.977,53.223,48.34,12.695,0.0,0
1581638212.623,5.859,30.761999999999997,36.621,5.859,0.0,0
1581638212.627,18.066,14.16,43.945,10.742,0.0,0
1581638212.631,11.23,28.809,40.039,-2.441,0.0,0
1581638212.6339998,25.391,39.551,53.71100000000001,10.742,0.0,0
1581638212.6379998,55.663999999999994,49.316,70.801,45.41,0.0,0
1581638212.6420002,42.968999999999994,30.761999999999997,59.082,43.945,0.0,0
1581638212.6460001,18.555,19.531,40.527,18.555,0.0,0
1581638212.65,0.0,21.484,34.668,13.184000000000001,0.0,0
1581638212.6520002,3.418,34.668,51.758,18.066,0.0,0
1581638212.6560001,18.066,47.852,56.64100000000001,15.625,0.0,0
1581638212.66,1.465,24.414,40.039,13.184000000000001,0.0,0
1581638212.664,-4.883,19.531,51.27,16.113,0.0,0
1581638212.668,9.766,37.598,66.406,26.366999999999997,0.0,0
1581638212.6720002,20.02,38.574,39.062,11.719000000000001,0.0,0
1581638212.676,51.758,16.602,50.78100000000001,21.97300000000001,0.0,0
1581638212.679,43.945,27.344,52.246,31.25,0.0,0
1581638212.6829998,9.277000000000001,63.965,40.039,13.672,0.0,0
1581638212.687,20.508000000000006,47.363,41.992,16.113,0.0,0
1581638212.691,19.531,17.578,39.551,14.648,0.0,0
1581638212.695,29.785,27.831999999999997,49.805,27.344,0.0,0
1581638212.697,13.672,42.48,52.733999999999995,36.621,0.0,0
1581638212.701,-1.465,51.758,46.387,30.273000000000003,0.0,0
1581638212.705,12.207,42.48,49.805,16.602,0.0,0
1581638212.7089999,17.09,19.531,54.688,10.254000000000001,0.0,0
1581638212.7129998,38.086,36.133,51.27,19.043,0.0,0
1581638212.717,28.809,48.828,42.48,18.555,0.0,0
1581638212.721,15.625,49.805,43.457,10.254000000000001,0.0,0
1581638212.724,19.043,35.156,50.293,17.09,0.0,0
1581638212.728,22.461,19.531,54.199,30.273000000000003,0.0,0
1581638212.732,37.109,34.18,58.105,32.227,0.0,0
1581638212.736,22.949,40.527,50.78100000000001,15.137,0.0,0
1581638212.74,-0.488,16.602,50.293,10.742,0.0,0
1581638212.742,31.25,9.277000000000001,48.34,33.203,0.0,0
1581638212.746,47.363,43.457,41.504,62.5,0.0,0
1581638212.75,12.207,44.922,52.733999999999995,54.199,0.0,0
1581638212.754,4.883,16.602,69.336,31.25,0.0,0
1581638212.758,29.296999999999997,23.438000000000002,69.824,16.113,0.0,0
1581638212.762,15.137,40.039,48.828,-2.93,0.0,0
1581638212.766,-14.648,22.949,43.945,8.301,0.0,0
1581638212.769,1.953,29.785,48.34,19.531,0.0,0
1581638212.7729998,2.441,34.668,41.01600000000001,27.344,0.0,0
1581638212.7770002,11.23,35.156,48.828,47.363,0.0,0
1581638212.7810001,22.949,40.039,57.617,39.062,0.0,0
1581638212.785,10.254000000000001,34.668,45.898,18.555,0.0,0
1581638212.7870002,19.531,39.062,41.992,16.113,0.0,0
1581638212.7910001,7.324,33.691,39.062,-1.465,0.0,0
1581638212.795,0.488,28.809,41.504,-0.977,0.0,0
1581638212.799,5.859,22.461,52.246,11.23,0.0,0
1581638212.803,18.555,14.16,58.105,30.761999999999997,0.0,0
1581638212.8070002,38.086,38.574,67.87100000000001,50.293,0.0,0
1581638212.811,23.438000000000002,45.41,58.105,41.01600000000001,0.0,0
1581638212.814,37.109,28.32,43.457,40.039,0.0,0
1581638212.8179998,38.086,29.785,26.366999999999997,36.621,0.0,0
1581638212.822,11.23,22.461,25.391,23.926,0.0,0
1581638212.826,13.184000000000001,36.133,41.504,10.254000000000001,0.0,0
1581638212.83,18.555,51.758,47.852,17.09,0.0,0
1581638212.831,11.23,20.02,39.062,20.508000000000006,0.0,0
1581638212.835,33.203,26.855,46.875,32.715,0.0,0
1581638212.839,29.296999999999997,21.484,53.223,39.551,0.0,0
1581638212.843,26.366999999999997,-0.488,46.875,32.227,0.0,0
1581638212.8470001,32.227,21.97300000000001,39.551,30.761999999999997,0.0,0
1581638212.851,27.344,28.32,41.01600000000001,22.461,0.0,0
1581638212.855,29.296999999999997,34.668,46.387,13.672,0.0,0
1581638212.8579998,17.578,35.156,33.691,11.23,0.0,0
1581638212.8620002,5.371,29.296999999999997,23.926,2.441,0.0,0
1581638212.8660002,-4.395,15.137,44.434,12.207,0.0,0
1581638212.87,19.531,19.531,61.523,32.227,0.0,0
1581638212.8739998,43.945,37.109,56.64100000000001,35.156,0.0,0
1581638212.8760002,32.227,20.02,47.363,18.555,0.0,0
1581638212.88,56.152,26.855,52.246,13.184000000000001,0.0,0
1581638212.8839998,58.105,29.785,58.105,36.133,0.0,0
1581638212.8879998,33.203,20.996,42.968999999999994,29.785,0.0,0
1581638212.8920002,24.901999999999997,32.715,31.25,6.836,0.0,0
1581638212.8960001,15.625,27.831999999999997,46.387,13.672,0.0,0
1581638212.9,27.344,5.371,63.477,34.18,0.0,0
1581638212.9029999,16.602,10.742,48.828,21.97300000000001,0.0,0
1581638212.907,21.97300000000001,24.414,49.316,31.25,0.0,0
1581638212.911,58.593999999999994,27.344,51.758,55.176,0.0,0
1581638212.915,65.43,47.363,45.41,40.039,0.0,0
1581638212.919,47.363,55.176,49.316,41.992,0.0,0
1581638212.921,46.387,35.645,30.761999999999997,39.551,0.0,0
1581638212.925,52.246,42.48,44.922,30.273000000000003,0.0,0
1581638212.929,53.223,36.621,82.52,41.504,0.0,0
1581638212.9329998,45.898,22.461,50.78100000000001,30.761999999999997,0.0,0
1581638212.937,1.953,32.715,38.574,6.836,0.0,0
1581638212.941,-33.691,21.484,41.01600000000001,-4.883,0.0,0
1581638212.945,20.996,14.648,35.156,10.742,0.0,0
1581638212.948,44.922,32.227,43.457,18.555,0.0,0
1581638212.9520001,18.555,43.457,35.156,14.16,0.0,0
1581638212.956,16.113,47.363,20.508000000000006,12.695,0.0,0
1581638212.96,31.25,37.598,42.968999999999994,42.968999999999994,0.0,0
1581638212.964,2.441,-4.883,48.34,43.945,0.0,0
1581638212.966,18.555,11.719000000000001,48.828,41.992,0.0,0
1581638212.97,41.504,47.363,58.593999999999994,51.27,0.0,0
1581638212.974,46.875,25.391,61.523,50.78100000000001,0.0,0
1581638212.978,60.547,33.203,43.457,38.574,0.0,0
1581638212.982,33.691,46.387,36.621,6.836,0.0,0
1581638212.986,28.809,31.738000000000003,56.152,17.578,0.0,0
1581638212.99,25.879,27.831999999999997,56.152,33.203,0.0,0
1581638212.9929998,45.898,23.438000000000002,38.086,32.715,0.0,0
1581638212.9970002,57.129,13.184000000000001,25.391,24.901999999999997,0.0,0
1581638213.0010002,38.574,4.883,34.18,27.831999999999997,0.0,0
1581638213.005,15.625,29.296999999999997,46.387,49.316,0.0,0
1581638213.0089998,-0.488,71.289,42.968999999999994,33.691,0.0,0
1581638213.026,-1.465,36.133,32.715,13.672,0.0,0
1581638213.03,41.504,23.438000000000002,30.273000000000003,28.32,0.0,0
1581638213.034,63.477,46.875,31.25,36.133,0.0,0
1581638213.0379999,13.184000000000001,22.461,35.645,25.879,0.0,2
1581638213.042,56.152,45.898,23.438000000000002,29.785,0.0,0
1581638213.046,57.129,21.484,41.992,53.223,0.0,0
1581638213.05,43.945,0.0,66.895,52.733999999999995,0.0,0
1581638213.053,113.281,47.852,56.152,60.547,0.0,0
1581638213.0570002,-59.57,12.695,23.926,18.066,0.0,0
1581638213.061,-35.156,38.574,20.02,2.93,0.0,0
1581638213.065,89.355,41.01600000000001,29.785,23.926,0.0,0
1581638213.069,-30.761999999999997,21.97300000000001,36.621,3.906,0.0,0
1581638213.071,-54.199,5.859,42.48,23.926,0.0,0
1581638213.075,81.055,25.879,38.574,53.223,0.0,0
1581638213.079,36.133,22.461,37.109,22.949,0.0,0
1581638213.083,-32.715,7.324,43.945,33.691,0.0,0
1581638213.0870001,37.109,41.01600000000001,57.617,38.574,0.0,0
1581638213.091,-20.508000000000006,59.57,44.922,-1.953,0.0,0
1581638213.095,48.34,89.844,30.273000000000003,7.324,0.0,0
1581638213.0979998,-176.75799999999995,-10.254000000000001,24.901999999999997,-44.434,0.0,0
1581638213.1020002,-120.605,-29.785,48.34,13.184000000000001,0.0,0
1581638213.106,215.82,32.715,64.453,125.977,0.0,0
1581638213.11,165.03900000000004,-17.578,56.64100000000001,97.16799999999999,0.0,0
1581638213.1139998,-10.742,58.593999999999994,20.02,-11.719000000000001,0.0,0
1581638213.131,-343.75,-14.648,6.348,-61.035,0.0,0
1581638213.135,-31.738000000000003,-42.48,26.366999999999997,21.97300000000001,0.0,0
1581638213.139,259.76599999999996,105.95700000000001,36.621,80.078,0.0,0
1581638213.143,118.652,66.406,65.918,63.477,0.0,0
1581638213.147,36.133,37.109,92.773,58.593999999999994,0.0,0
1581638213.151,77.148,25.879,61.035,66.895,0.0,0
1581638213.155,203.125,18.555,25.391,54.199,0.0,0
1581638213.158,3.906,-39.062,38.574,17.09,0.0,0
1581638213.1620002,-235.84,-34.668,17.578,-73.242,0.0,0
1581638213.1660001,33.691,70.801,20.02,-8.789,0.0,0
1581638213.17,324.707,73.242,55.176,96.191,0.0,0
1581638213.174,-72.75399999999998,-0.488,30.273000000000003,4.395,0.0,0
1581638213.161,-284.668,-7.324,38.574,-5.859,0.0,0
1581638213.165,198.24200000000002,64.941,54.688,76.66,0.0,0
1581638213.169,355.957,71.777,58.593999999999994,86.914,0.0,0
1581638213.1729999,187.012,31.738000000000003,92.285,86.426,0.0,0
1581638213.177,208.984,19.043,80.078,77.637,0.0,0
1581638213.181,63.477,-4.395,33.203,14.16,0.0,0
1581638213.185,-235.84,-2.441,39.062,-32.227,0.0,0
1581638213.188,-153.809,31.25,51.758,-6.348,0.0,0
1581638213.1920002,119.62899999999999,8.789,62.5,31.738000000000003,0.0,0
1581638213.196,147.94899999999996,18.555,75.684,63.965,0.0,0
1581638213.2,74.219,35.156,41.992,30.761999999999997,0.0,0
1581638213.204,40.527,43.945,10.742,-3.906,0.0,0
1581638213.206,136.719,44.434,45.898,59.57,0.0,0
1581638213.21,122.07,16.113,56.64100000000001,62.012,0.0,0
1581638213.214,91.309,37.109,40.039,38.574,0.0,0
1581638213.218,200.68400000000003,24.901999999999997,57.617,81.543,0.0,0
1581638213.2220001,38.574,-2.441,59.57,63.965,0.0,0
1581638213.226,-2.93,3.418,39.551,25.879,0.0,0
1581638213.23,140.137,29.785,34.668,56.64100000000001,0.0,0
1581638213.2329998,242.676,70.312,57.617,99.609,0.0,0
1581638213.2370002,177.734,30.761999999999997,34.18,63.477,0.0,0
1581638213.2410002,-11.23,-8.301,14.648,-3.418,0.0,0
1581638213.245,-94.727,-14.648,29.785,-38.086,0.0,0
1581638213.2489998,-1.465,-2.441,20.508000000000006,2.93,0.0,0
1581638213.252,-41.01600000000001,9.277000000000001,23.438000000000002,20.508000000000006,0.0,0
1581638213.256,35.645,47.363,56.152,57.617,0.0,0
1581638213.26,57.129,76.66,42.968999999999994,20.02,0.0,0
1581638213.264,-58.105,57.617,19.043,-20.508000000000006,0.0,0
1581638213.268,166.99200000000005,64.453,25.879,53.71100000000001,0.0,0
1581638213.272,191.40599999999998,5.371,63.965,73.242,0.0,0
1581638213.276,28.32,-13.184000000000001,49.805,54.199,0.0,0
1581638213.279,-69.824,27.344,-3.418,27.831999999999997,0.0,0
1581638213.283,-101.56200000000001,18.555,9.766,7.324,0.0,0
1581638213.2870002,-1.465,15.625,49.316,29.785,0.0,0
1581638213.2910001,213.86700000000002,58.105,39.062,46.387,0.0,0
1581638213.295,104.98,22.949,37.598,30.761999999999997,0.0,0
1581638213.2970002,-33.203,16.113,40.039,39.062,0.0,0
1581638213.301,144.531,70.312,38.086,66.406,0.0,0
1581638213.305,15.625,43.945,49.316,54.688,0.0,0
1581638213.309,-86.426,-25.391,29.785,23.926,0.0,0
1581638213.313,101.074,4.883,20.02,29.296999999999997,0.0,0
1581638213.3170002,112.79299999999999,21.484,38.086,45.41,0.0,0
1581638213.321,62.988,21.484,21.97300000000001,42.48,0.0,0
1581638213.324,56.152,37.109,10.742,1.953,0.0,0
1581638213.3279998,13.184000000000001,-10.742,36.133,42.968999999999994,0.0,0
1581638213.332,-42.968999999999994,11.23,34.668,53.71100000000001,0.0,0
1581638213.336,25.391,80.566,22.949,-7.812,0.0,0
1581638213.34,65.918,10.742,43.457,44.922,0.0,0
1581638213.342,-32.715,-0.488,35.156,22.461,0.0,0
1581638213.346,-4.883,29.296999999999997,22.949,-1.953,0.0,0
1581638213.35,20.996,20.02,23.926,3.906,0.0,0
1581638213.3539999,80.566,16.602,24.901999999999997,30.273000000000003,0.0,0
1581638213.3579998,164.551,-2.441,46.387,73.73,0.0,0
1581638213.3620002,131.34799999999998,41.992,60.547,67.87100000000001,0.0,0
1581638213.3660002,-6.348,31.25,46.875,35.156,0.0,0
1581638213.369,61.035,47.363,23.926,14.16,0.0,0
1581638213.373,100.098,42.48,18.555,31.25,0.0,0
1581638213.377,121.58200000000001,11.719000000000001,44.434,63.477,0.0,0
1581638213.381,-10.254000000000001,-6.836,43.945,45.41,0.0,0
1581638213.385,-25.391,16.602,30.761999999999997,35.156,0.0,0
1581638213.4020002,177.734,31.738000000000003,39.062,77.148,0.0,0
1581638213.4060001,42.968999999999994,-7.812,30.273000000000003,57.617,0.0,0
1581638213.41,7.812,-0.488,29.785,25.391,0.0,0
1581638213.414,54.199,-10.254000000000001,52.246,26.855,0.0,0
1581638213.418,39.551,44.922,45.41,43.945,0.0,0
1581638213.4220002,-7.324,47.363,29.785,26.366999999999997,0.0,0
1581638213.426,79.59,-5.859,41.504,52.733999999999995,0.0,0
1581638213.429,130.859,38.086,24.414,56.64100000000001,0.0,0
1581638213.4329998,-80.078,-4.395,33.691,-3.906,0.0,0
1581638213.437,-68.359,-29.296999999999997,49.805,-0.977,0.0,0
1581638213.441,138.672,66.406,45.898,52.733999999999995,0.0,0
1581638213.445,206.543,58.593999999999994,60.547,79.59,0.0,0
1581638213.447,41.01600000000001,-19.043,42.48,37.598,0.0,0
1581638213.451,-50.78100000000001,-23.438000000000002,35.645,27.344,0.0,0
1581638213.455,87.891,12.695,28.32,40.039,0.0,0
1581638213.4589999,30.761999999999997,16.113,37.598,23.926,0.0,0
1581638213.4629998,33.203,56.152,46.387,39.551,0.0,0
1581638213.467,146.484,18.555,43.945,67.383,0.0,0
1581638213.471,38.086,-49.805,54.688,61.035,0.0,0
1581638213.474,51.27,-6.348,39.062,40.039,0.0,0
1581638213.478,104.00399999999999,38.574,20.508000000000006,44.434,0.0,0
1581638213.482,5.859,20.02,36.621,39.551,0.0,0
1581638213.486,-25.879,40.527,39.551,28.32,0.0,0
1581638213.49,109.863,61.035,32.227,41.992,0.0,0
1581638213.492,126.465,28.32,5.371,63.477,0.0,0
1581638213.496,27.344,-28.809,-30.273000000000003,31.738000000000003,0.0,0
1581638213.5,-33.691,-18.066,-59.082,-13.184000000000001,0.0,0
1581638213.504,-56.152,13.184000000000001,-96.68,-6.348,0.0,0
1581638213.508,12.207,1.953,-87.891,12.207,0.0,0
1581638213.512,127.441,68.848,-59.57,39.551,0.0,0
1581638213.516,9.277000000000001,52.246,-69.824,26.366999999999997,0.0,0
1581638213.519,-15.625,6.836,-54.688,20.02,0.0,0
1581638213.5229998,162.59799999999996,48.34,-57.129,46.875,0.0,0
1581638213.5270002,136.719,49.805,-84.961,22.461,0.0,0
1581638213.5310001,-5.371,18.555,-83.49600000000002,7.324,0.0,0
1581638213.535,-19.531,-11.23,-58.105,30.761999999999997,0.0,0
1581638213.5370002,-53.223,-17.578,-50.78100000000001,12.207,0.0,0
1581638213.5410001,42.48,17.578,-63.965,34.668,0.0,0
1581638213.545,146.97299999999996,13.184000000000001,-32.227,77.148,0.0,0
1581638213.549,135.254,53.71100000000001,-30.761999999999997,52.246,0.0,0
1581638213.553,82.031,32.227,-38.574,40.527,0.0,0
1581638213.5570002,-48.828,-3.906,-30.273000000000003,13.184000000000001,0.0,0
1581638213.561,-38.574,15.137,-27.344,41.504,0.0,0
1581638213.564,16.113,-7.812,-35.645,49.316,0.0,0
1581638213.5679998,20.02,49.805,-59.082,1.465,0.0,0
1581638213.572,58.105,55.176,-27.831999999999997,34.668,0.0,0
1581638213.576,166.016,45.898,-24.414,59.082,0.0,0
1581638213.58,105.95700000000001,63.965,-57.129,0.977,0.0,0
1581638213.583,-93.75,-31.25,-40.039,4.395,0.0,0
1581638213.5870001,-22.949,-26.855,-25.391,20.996,0.0,0
1581638213.591,126.465,53.223,-38.574,26.366999999999997,0.0,0
1581638213.595,146.97299999999996,57.617,-18.066,64.453,0.0,0
1581638213.599,11.23,-5.371,22.461,60.547,0.0,0
1581638213.603,-25.879,-34.18,16.602,52.733999999999995,0.0,0
1581638213.607,15.625,52.246,-7.324,30.761999999999997,0.0,0
1581638213.61,33.203,75.195,-4.883,24.901999999999997,0.0,0
1581638213.6139998,18.066,-13.184000000000001,-11.23,43.945,0.0,0
1581638213.6179998,92.773,15.137,-27.344,7.812,0.0,0
1581638213.6220002,8.789,25.879,-14.16,-22.461,0.0,0
1581638213.6260002,-5.371,15.625,-2.441,-0.488,0.0,0
1581638213.627,10.254000000000001,78.125,-25.879,-21.97300000000001,0.0,0
1581638213.631,73.242,6.348,22.949,38.086,0.0,0
1581638213.635,99.609,12.207,26.855,63.965,0.0,0
1581638213.639,40.039,63.477,8.301,23.926,0.0,0
1581638213.643,57.129,45.41,40.039,20.996,0.0,0
1581638213.647,-42.968999999999994,39.551,37.598,17.578,0.0,0
1581638213.651,-13.184000000000001,2.93,30.273000000000003,26.366999999999997,0.0,0
1581638213.654,31.25,-2.441,35.645,35.645,0.0,0
1581638213.658,-17.578,15.625,47.852,28.32,0.0,0
1581638213.6620002,74.707,28.809,53.223,34.18,0.0,0
1581638213.6660001,44.434,24.901999999999997,27.831999999999997,15.137,0.0,0
1581638213.67,-8.789,8.789,8.789,14.16,0.0,0
1581638213.6720002,86.426,-2.93,21.484,37.109,0.0,0
1581638213.676,110.84,42.48,36.621,16.113,0.0,0
1581638213.68,35.156,50.78100000000001,40.527,21.97300000000001,0.0,0
1581638213.684,-16.113,0.0,44.922,30.761999999999997,0.0,0
1581638213.688,-3.418,18.066,41.01600000000001,44.434,0.0,0
1581638213.6920002,24.414,18.555,42.968999999999994,43.945,0.0,0
1581638213.696,103.027,27.344,53.223,38.086,0.0,0
1581638213.699,120.117,62.988,29.296999999999997,26.366999999999997,0.0,0
1581638213.7029998,17.578,-3.906,30.761999999999997,28.809,0.0,0
1581638213.707,99.609,-28.809,43.945,56.152,0.0,0
1581638213.711,9.277000000000001,18.555,36.621,39.551,0.0,0
1581638213.715,-33.691,13.184000000000001,29.296999999999997,-3.906,0.0,0
1581638213.721,91.79700000000001,52.246,52.246,18.555,0.0,0
1581638213.725,-18.066,32.715,51.27,13.672,0.0,0
1581638213.7289999,-54.199,-19.043,30.761999999999997,-7.324,0.0,0
1581638213.7329998,60.059,46.875,41.992,28.32,0.0,0
1581638213.7370002,91.309,54.199,44.434,19.531,0.0,0
1581638213.7410002,24.414,18.066,42.968999999999994,6.836,0.0,0
1581638213.745,-82.52,-11.23,60.059,19.531,0.0,0
1581638213.748,24.414,-1.953,64.941,43.457,0.0,0
1581638213.752,62.5,63.477,45.41,39.062,0.0,0
1581638213.756,63.477,47.852,46.875,8.789,0.0,0
1581638213.76,20.508000000000006,12.695,83.008,3.418,0.0,0
1581638213.764,9.277000000000001,54.199,83.49600000000002,4.395,0.0,0
1581638213.7770002,77.637,41.992,68.848,34.18,0.0,0
1581638213.7810001,-34.18,3.418,55.176,-9.766,0.0,0
1581638213.785,-67.87100000000001,6.348,47.363,-38.086,0.0,0
1581638213.789,2.93,17.578,65.918,21.484,0.0,0
1581638213.793,96.68,43.457,66.406,20.02,0.0,0
1581638213.7970002,34.668,0.0,74.707,15.625,0.0,0
1581638213.801,32.227,11.719000000000001,74.219,12.695,0.0,0
1581638213.804,87.402,47.852,60.059,2.93,0.0,0
1581638213.8079998,-40.527,4.883,68.359,19.531,0.0,0
1581638213.812,45.898,32.715,85.449,35.156,0.0,0
1581638213.816,114.258,67.383,56.152,13.672,0.0,0
1581638213.82,-94.238,-2.441,29.296999999999997,-18.555,0.0,0
1581638213.822,-21.97300000000001,53.223,46.387,-37.598,0.0,0
1581638213.826,44.434,68.848,84.961,-1.953,0.0,0
1581638213.83,4.883,33.691,95.215,-2.93,0.0,0
1581638213.8339999,-41.504,36.621,76.66,-45.41,0.0,0
1581638213.8379998,-69.824,24.414,55.176,-41.504,0.0,0
1581638213.842,31.738000000000003,26.366999999999997,26.855,-30.273000000000003,0.0,0
1581638213.846,22.461,54.688,39.551,-24.901999999999997,0.0,0
1581638213.849,-25.391,16.602,63.965,-21.97300000000001,0.0,0
1581638213.853,-41.504,-6.348,67.383,-38.086,0.0,0
1581638213.857,-5.859,70.312,35.156,-49.316,0.0,0
1581638213.861,-103.516,61.035,41.992,-32.715,0.0,0
1581638213.865,34.668,51.27,79.102,-8.301,0.0,0
1581638213.8660002,71.289,38.574,49.316,-32.715,0.0,0
1581638213.87,-24.901999999999997,19.531,26.366999999999997,-35.156,0.0,0
1581638213.8739998,10.742,43.945,31.25,-33.691,0.0,0
1581638213.8779998,-16.113,46.387,41.992,-35.645,0.0,0
1581638213.8820002,55.663999999999994,23.438000000000002,81.543,34.18,0.0,0
1581638213.8860002,65.918,5.859,77.637,34.668,0.0,0
1581638213.89,-42.48,9.277000000000001,42.48,-32.715,0.0,0
1581638213.893,-96.191,37.109,41.01600000000001,-20.996,0.0,0
1581638213.897,42.48,44.434,37.598,33.203,0.0,0
1581638213.901,123.04700000000001,99.609,24.901999999999997,24.414,0.0,0
1581638213.905,-0.488,43.457,46.387,8.789,0.0,0
1581638213.909,40.527,3.418,71.777,58.593999999999994,0.0,0
1581638213.911,121.094,21.97300000000001,61.523,72.75399999999998,0.0,0
1581638213.915,122.07,10.742,28.32,50.78100000000001,0.0,0
1581638213.919,66.406,38.086,34.668,17.578,0.0,0
1581638213.9229999,-68.359,48.828,44.434,-19.531,0.0,0
1581638213.927,-15.137,68.359,49.805,-17.09,0.0,0
1581638213.931,38.086,37.598,34.18,0.0,0.0,0
1581638213.935,30.761999999999997,-8.301,37.598,39.062,0.0,0
1581638213.938,71.777,18.066,51.27,25.391,0.0,0
1581638213.9420002,88.37899999999998,23.438000000000002,61.035,20.508000000000006,0.0,0
1581638213.946,26.366999999999997,-13.672,67.87100000000001,43.945,0.0,0
1581638213.95,28.809,7.324,63.477,54.688,0.0,0
1581638213.954,142.09,72.75399999999998,62.012,59.57,0.0,0
1581638213.956,76.172,38.574,37.598,32.715,0.0,0
1581638213.96,50.293,45.898,12.207,20.996,0.0,0
1581638213.964,-20.996,17.578,16.602,27.344,0.0,0
1581638213.968,-37.109,26.855,46.387,57.617,0.0,0
1581638213.9720001,49.316,36.621,58.105,62.5,0.0,0
1581638213.976,129.88299999999998,25.879,33.691,57.617,0.0,0
1581638213.98,141.113,17.09,55.663999999999994,70.312,0.0,0
1581638213.9829998,47.363,-6.348,56.64100000000001,40.039,0.0,0
1581638213.9870002,24.414,13.184000000000001,23.926,27.831999999999997,0.0,0
1581638213.9910002,63.477,25.879,27.344,36.621,0.0,0
1581638213.995,68.359,40.039,38.086,26.366999999999997,0.0,0
1581638213.9989998,30.273000000000003,24.414,56.152,36.621,0.0,0
1581638214.0010002,6.836,33.203,41.01600000000001,45.898,0.0,0
1581638214.005,60.547,54.688,27.831999999999997,23.438000000000002,0.0,0
1581638214.0089998,26.366999999999997,11.719000000000001,63.965,10.742,0.0,0
1581638214.0129998,-23.926,-36.133,66.406,11.23,0.0,0
1581638214.0170002,23.926,-15.625,50.78100000000001,9.766,0.0,0
1581638214.0210001,48.34,46.387,52.246,7.812,0.0,0
1581638214.025,31.25,41.504,41.992,4.883,0.0,0
1581638214.0279999,28.809,4.883,53.71100000000001,21.484,0.0,0
1581638214.032,43.945,33.691,66.406,39.551,0.0,0
1581638214.036,64.453,58.105,59.082,41.01600000000001,0.0,0
1581638214.04,51.758,33.203,56.64100000000001,45.898,0.0,0
1581638214.044,18.555,11.719000000000001,47.852,38.086,0.0,0
1581638214.046,20.996,34.18,27.831999999999997,11.23,0.0,0
1581638214.05,59.57,20.02,25.879,16.602,0.0,0
1581638214.054,7.324,1.953,51.27,23.926,0.0,1
1581638214.0579998,-2.441,27.344,47.852,30.273000000000003,0.0,0
1581638214.062,44.922,22.461,34.668,39.551,0.0,0
1581638214.066,56.64100000000001,25.879,32.227,58.593999999999994,0.0,0
1581638214.07,36.621,44.434,26.855,65.43,0.0,0
1581638214.073,-17.578,26.366999999999997,24.901999999999997,25.391,0.0,0
1581638214.0770001,16.113,40.039,42.968999999999994,32.227,0.0,0
1581638214.081,36.621,40.039,24.414,35.156,0.0,0
1581638214.085,23.926,21.484,10.742,18.066,0.0,0
1581638214.089,4.883,15.137,31.25,19.531,0.0,0
1581638214.106,-7.812,10.254000000000001,16.113,7.812,0.0,0
1581638214.11,7.324,34.668,4.883,2.441,0.0,0
1581638214.1139998,1.465,2.441,23.926,14.648,0.0,0
1581638214.1179998,2.441,9.277000000000001,20.02,12.207,0.0,0
1581638214.1220002,-1.953,83.984,6.348,3.906,0.0,0
1581638214.1260002,-23.438000000000002,62.012,14.16,1.953,0.0,0
1581638214.13,-6.836,19.043,9.277000000000001,0.488,0.0,0
1581638214.133,22.461,43.457,3.418,8.301,0.0,0
1581638214.137,30.273000000000003,47.852,25.391,16.602,0.0,0
1581638214.141,30.273000000000003,27.831999999999997,26.366999999999997,8.301,0.0,0
1581638214.145,43.457,10.254000000000001,31.25,14.648,0.0,0
1581638214.149,33.691,29.785,20.02,20.508000000000006,0.0,0
1581638214.151,31.25,56.64100000000001,11.719000000000001,9.277000000000001,0.0,0
1581638214.155,36.133,29.785,29.296999999999997,6.348,0.0,0
1581638214.159,20.02,17.578,28.809,14.16,0.0,0
1581638214.1629999,21.484,8.789,29.785,32.227,0.0,0
1581638214.167,38.574,29.785,27.344,47.363,0.0,0
1581638214.171,-4.883,39.062,24.414,30.761999999999997,0.0,0
1581638214.175,-48.34,22.461,29.296999999999997,9.766,0.0,0
1581638214.178,-33.203,36.621,19.531,8.789,0.0,0
1581638214.1820002,-20.02,31.25,19.531,4.883,0.0,0
1581638214.186,0.0,43.457,46.387,17.578,0.0,0
1581638214.19,20.996,54.199,47.852,42.968999999999994,0.0,0
1581638214.194,-33.203,12.207,16.602,13.672,0.0,0
1581638214.196,-53.71100000000001,-17.578,28.32,-14.16,0.0,0
1581638214.2,-29.296999999999997,2.441,36.621,-5.859,0.0,0
1581638214.204,-41.01600000000001,33.203,28.809,-4.883,0.0,0
1581638214.208,-22.461,39.551,32.715,16.113,0.0,0
1581638214.2120001,-2.93,41.01600000000001,39.062,41.504,0.0,0
1581638214.216,-31.25,42.48,21.97300000000001,11.23,0.0,0
1581638214.22,-24.901999999999997,35.645,30.273000000000003,13.184000000000001,0.0,0
1581638214.2229998,21.97300000000001,38.086,44.434,45.898,0.0,0
1581638214.2270002,40.039,31.738000000000003,37.109,45.41,0.0,0
1581638214.231,29.296999999999997,28.809,16.602,28.32,0.0,0
1581638214.235,-14.16,6.836,16.602,29.296999999999997,0.0,0
1581638214.2389998,-33.203,9.277000000000001,31.25,20.02,0.0,0
1581638214.242,12.695,47.363,30.273000000000003,17.578,0.0,0
1581638214.246,26.855,44.434,33.691,34.18,0.0,0
1581638214.25,3.906,33.203,17.578,20.02,0.0,0
1581638214.254,4.883,42.48,13.184000000000001,5.371,0.0,0
1581638214.258,17.09,39.062,40.527,18.066,0.0,0
1581638214.262,21.97300000000001,43.945,53.71100000000001,31.738000000000003,0.0,0
1581638214.266,24.414,16.113,44.922,25.391,0.0,0
1581638214.269,7.324,6.836,24.901999999999997,9.277000000000001,0.0,0
1581638214.2729998,-3.906,34.18,23.438000000000002,3.418,0.0,0
1581638214.2770002,-0.488,39.062,52.733999999999995,11.23,0.0,0
1581638214.2810001,-19.043,14.16,52.246,8.301,0.0,0
1581638214.285,-35.645,17.578,38.086,4.395,0.0,0
1581638214.2870002,-14.648,28.809,43.945,21.97300000000001,0.0,0
1581638214.2910001,9.277000000000001,41.504,51.27,39.551,0.0,0
1581638214.295,7.324,46.875,46.875,32.715,0.0,0
1581638214.299,2.93,26.855,32.227,14.16,0.0,0
1581638214.303,2.93,30.273000000000003,12.695,-4.395,0.0,0
1581638214.3070002,2.441,43.457,25.879,4.883,0.0,0
1581638214.311,-18.066,35.645,39.551,-1.465,0.0,0
1581638214.314,-26.855,31.738000000000003,43.457,-10.742,0.0,0
1581638214.3179998,-18.066,29.296999999999997,37.109,-3.906,0.0,0
1581638214.322,-8.789,19.043,37.109,5.859,0.0,0
1581638214.326,2.441,34.668,41.992,20.02,0.0,0
1581638214.33,13.184000000000001,33.203,29.296999999999997,26.855,0.0,0
1581638214.332,20.996,32.715,20.02,26.366999999999997,0.0,0
1581638214.336,30.761999999999997,39.062,33.691,32.715,0.0,0
1581638214.34,15.625,32.227,34.668,21.484,0.0,0
1581638214.3439999,2.441,36.621,24.414,5.859,0.0,0
1581638214.3479998,7.812,37.598,41.504,0.488,0.0,0
1581638214.3520002,2.441,26.855,41.992,5.371,0.0,0
1581638214.356,-3.906,24.901999999999997,23.438000000000002,13.672,0.0,0
1581638214.359,-8.301,37.109,40.039,10.254000000000001,0.0,0
1581638214.363,0.488,44.434,54.688,11.719000000000001,0.0,0
1581638214.367,-6.348,37.109,35.645,11.23,0.0,0
1581638214.371,-3.418,56.64100000000001,23.438000000000002,17.09,0.0,0
1581638214.375,-4.883,57.129,28.809,13.672,0.0,0
1581638214.377,-33.691,30.761999999999997,54.199,-3.418,0.0,0
1581638214.381,-29.296999999999997,27.831999999999997,51.27,-8.789,0.0,0
1581638214.385,6.348,42.48,44.434,8.789,0.0,0
1581638214.389,27.831999999999997,39.062,59.082,36.621,0.0,0
1581638214.393,31.738000000000003,29.785,47.852,35.645,0.0,0
1581638214.397,17.09,46.387,34.668,23.438000000000002,0.0,0
1581638214.401,-11.23,40.527,29.785,8.789,0.0,0
1581638214.404,-23.438000000000002,33.203,20.996,2.93,0.0,0
1581638214.408,-10.254000000000001,25.879,23.926,8.789,0.0,0
1581638214.4120002,24.414,35.156,41.504,22.949,0.0,0
1581638214.4160001,24.414,45.41,52.733999999999995,27.344,0.0,0
1581638214.42,-1.953,28.32,43.457,17.578,0.0,0
1581638214.4220002,-8.789,23.926,33.691,12.695,0.0,0
1581638214.426,-8.301,28.809,19.531,10.254000000000001,0.0,0
1581638214.43,22.949,33.691,42.968999999999994,30.761999999999997,0.0,0
1581638214.434,38.086,46.875,62.012,40.039,0.0,0
1581638214.438,7.812,48.828,55.176,28.32,0.0,0
1581638214.4420002,-27.344,15.137,38.086,-0.977,0.0,0
1581638214.446,-22.949,18.066,35.645,-8.301,0.0,0
1581638214.449,8.789,51.758,59.082,20.996,0.0,0
1581638214.4529998,0.0,48.828,62.012,19.043,0.0,0
1581638214.457,-22.461,29.296999999999997,46.875,7.812,0.0,0
1581638214.461,1.953,15.625,46.875,11.23,0.0,0
1581638214.465,10.742,19.043,49.316,17.09,0.0,0
1581638214.482,4.395,29.785,46.875,35.156,0.0,0
1581638214.486,-8.789,22.949,41.504,23.438000000000002,0.0,0
1581638214.49,20.02,36.621,39.551,24.414,0.0,0
1581638214.494,43.457,36.133,49.316,42.968999999999994,0.0,0
1581638214.498,-7.324,18.555,38.086,8.301,0.0,0
1581638214.502,-2.441,12.695,24.901999999999997,-11.719000000000001,0.0,0
1581638214.506,18.555,24.901999999999997,28.809,0.0,0.0,0
1581638214.5089998,9.277000000000001,29.785,28.809,8.301,0.0,0
1581638214.5129998,27.831999999999997,21.484,13.672,32.227,0.0,0
1581638214.5170002,22.461,31.738000000000003,35.645,29.785,0.0,0
1581638214.5210001,18.555,37.109,63.477,21.97300000000001,0.0,0
1581638214.525,31.738000000000003,33.691,52.246,19.043,0.0,0
1581638214.5270002,24.901999999999997,57.617,42.968999999999994,12.695,0.0,0
1581638214.5310001,21.484,39.551,33.691,1.953,0.0,0
1581638214.535,22.949,16.113,47.852,16.602,0.0,0
1581638214.539,22.949,31.738000000000003,58.593999999999994,42.48,0.0,0
1581638214.543,23.926,29.785,33.203,24.901999999999997,0.0,0
1581638214.5470002,10.742,19.043,15.625,16.113,0.0,0
1581638214.551,10.742,37.109,24.414,14.648,0.0,0
1581638214.554,34.18,30.273000000000003,44.922,6.836,0.0,0
1581638214.5579998,23.926,29.296999999999997,45.41,14.648,0.0,0
1581638214.562,11.23,53.223,49.805,33.203,0.0,0
1581638214.566,13.672,51.27,61.035,35.156,0.0,0
1581638214.57,-8.301,26.366999999999997,49.316,15.137,0.0,0
1581638214.5870001,7.812,23.438000000000002,52.246,22.461,0.0,0
1581638214.591,44.922,42.968999999999994,56.152,38.574,0.0,0
1581638214.595,22.949,22.949,28.809,25.391,0.0,0
1581638214.599,2.441,0.977,20.508000000000006,22.461,0.0,0
1581638214.603,32.715,23.926,38.086,27.831999999999997,0.0,0
1581638214.607,26.366999999999997,34.18,29.296999999999997,6.836,0.0,0
1581638214.611,23.438000000000002,33.203,21.484,9.277000000000001,0.0,0
1581638214.6139998,39.062,36.621,49.805,28.809,0.0,0
1581638214.6179998,30.273000000000003,32.715,57.617,23.438000000000002,0.0,0
1581638214.6220002,15.625,26.855,51.758,4.883,0.0,0
1581638214.6260002,46.875,37.109,54.199,34.18,0.0,0
1581638214.63,61.523,53.223,42.48,42.968999999999994,0.0,0
1581638214.617,17.09,43.945,29.296999999999997,7.812,0.0,0
1581638214.621,24.414,39.551,28.32,20.996,0.0,0
1581638214.625,22.949,16.113,18.555,13.184000000000001,0.0,0
1581638214.629,1.953,6.348,33.203,4.883,0.0,0
1581638214.633,20.996,29.296999999999997,29.785,22.949,0.0,0
1581638214.637,14.16,35.645,24.901999999999997,36.621,0.0,0
1581638214.641,10.742,57.617,56.152,32.227,0.0,0
1581638214.644,15.625,49.805,40.527,20.996,0.0,0
1581638214.6479998,22.461,23.926,43.945,24.901999999999997,0.0,0
1581638214.6520002,30.273000000000003,20.996,50.293,19.043,0.0,0
1581638214.6560001,14.648,32.227,22.949,19.043,0.0,0
1581638214.66,12.207,43.945,13.672,19.043,0.0,0
1581638214.6620002,17.09,38.086,22.949,5.371,0.0,0
1581638214.6660001,22.461,27.344,41.01600000000001,9.277000000000001,0.0,0
1581638214.67,20.508000000000006,34.668,31.25,16.602,0.0,0
1581638214.674,24.414,40.527,20.996,31.25,0.0,0
1581638214.678,36.133,38.086,19.043,30.761999999999997,0.0,0
1581638214.6820002,31.25,24.901999999999997,29.785,13.672,0.0,0
1581638214.686,24.414,19.531,56.64100000000001,15.137,0.0,0
1581638214.689,20.996,43.945,63.965,22.949,0.0,0
1581638214.6929998,20.508000000000006,49.805,55.663999999999994,27.344,0.0,0
1581638214.697,25.391,28.32,42.968999999999994,23.926,0.0,0
1581638214.701,21.97300000000001,23.438000000000002,23.438000000000002,20.02,0.0,0
1581638214.705,12.695,21.484,20.996,9.766,0.0,0
1581638214.707,24.414,32.227,41.504,10.254000000000001,0.0,0
1581638214.711,47.852,33.691,45.898,28.809,0.0,0
1581638214.715,24.901999999999997,23.926,11.719000000000001,23.926,0.0,0
1581638214.7189999,10.254000000000001,32.715,25.391,21.97300000000001,0.0,0
1581638214.7229998,18.555,43.457,64.453,26.855,0.0,0
1581638214.7270002,31.738000000000003,29.785,42.968999999999994,16.113,0.0,0
1581638214.731,44.922,24.414,31.738000000000003,18.555,0.0,0
1581638214.734,24.414,41.01600000000001,45.898,27.344,0.0,0
1581638214.738,35.645,43.457,45.41,40.039,0.0,0
1581638214.742,25.879,26.366999999999997,32.227,31.25,0.0,0
1581638214.746,-1.465,30.273000000000003,20.508000000000006,17.578,0.0,0
1581638214.75,12.207,24.414,25.879,12.695,0.0,0
1581638214.752,35.645,21.97300000000001,50.78100000000001,27.344,0.0,0
1581638214.756,26.366999999999997,36.621,48.34,23.926,0.0,0
1581638214.76,16.113,32.227,11.719000000000001,-4.883,0.0,0
1581638214.764,36.621,36.133,22.461,6.348,0.0,0
1581638214.768,26.366999999999997,22.461,47.852,13.672,0.0,0
1581638214.772,19.043,16.113,44.434,16.602,0.0,0
1581638214.776,35.645,24.414,36.621,31.25,0.0,0
1581638214.779,16.602,25.391,26.855,25.879,0.0,0
1581638214.783,15.137,48.828,41.992,35.156,0.0,0
1581638214.7870002,18.555,41.01600000000001,47.363,43.457,0.0,0
1581638214.7910001,23.926,26.366999999999997,38.574,38.574,0.0,0
1581638214.795,47.363,48.828,34.18,30.761999999999997,0.0,0
1581638214.7970002,45.898,53.223,46.875,29.296999999999997,0.0,0
1581638214.801,28.32,33.203,51.27,26.366999999999997,0.0,0
1581638214.805,37.109,9.766,36.133,37.598,0.0,0
1581638214.809,35.645,13.184000000000001,29.785,39.062,0.0,0
1581638214.813,9.277000000000001,23.438000000000002,31.25,13.184000000000001,0.0,0
1581638214.8170002,-9.766,30.761999999999997,22.461,1.953,0.0,0
1581638214.821,6.836,39.551,25.879,6.836,0.0,0
1581638214.824,23.438000000000002,38.574,31.25,5.859,0.0,0
1581638214.8279998,23.438000000000002,45.41,29.296999999999997,6.836,0.0,0
1581638214.832,27.344,41.01600000000001,32.715,12.207,0.0,0
1581638214.836,24.414,35.156,38.086,20.996,0.0,0
1581638214.84,20.996,48.34,45.898,24.901999999999997,0.0,0
1581638214.857,20.02,34.18,41.504,19.043,0.0,0
1581638214.861,26.855,17.09,40.527,13.672,0.0,0
1581638214.865,12.695,19.531,32.227,6.348,0.0,0
1581638214.869,34.668,34.18,44.922,19.043,0.0,0
1581638214.873,40.039,49.316,58.105,29.785,0.0,0
1581638214.877,5.371,32.715,53.71100000000001,18.066,0.0,0
1581638214.881,25.879,34.18,60.059,22.949,0.0,0
1581638214.8839998,30.761999999999997,39.551,54.199,31.25,0.0,0
1581638214.8879998,22.461,30.761999999999997,36.621,26.366999999999997,0.0,0
1581638214.8920002,28.809,37.598,54.199,26.855,0.0,0
1581638214.8960001,36.621,41.992,59.57,38.574,0.0,0
1581638214.9,34.18,22.949,31.25,30.761999999999997,0.0,0
1581638214.9020002,24.901999999999997,23.438000000000002,45.41,28.809,0.0,0
1581638214.9060001,31.738000000000003,31.25,49.316,24.901999999999997,0.0,0
1581638214.91,35.645,29.296999999999997,30.761999999999997,19.531,0.0,0
1581638214.914,52.246,34.668,45.898,20.508000000000006,0.0,0
1581638214.918,47.363,40.527,67.383,21.97300000000001,0.0,0
1581638214.9220002,0.488,39.062,56.152,22.461,0.0,0
1581638214.926,0.977,35.645,49.316,18.066,0.0,0
1581638214.929,2.93,40.527,38.086,-7.324,0.0,0
1581638214.9329998,-11.23,41.504,26.855,-31.738000000000003,0.0,0
1581638214.937,-4.395,36.133,29.296999999999997,-25.391,0.0,0
1581638214.941,5.859,22.461,38.574,-7.324,0.0,0
1581638214.945,5.859,22.949,53.71100000000001,9.277000000000001,0.0,0
1581638215.061,-1.465,17.578,49.805,10.742,0.0,0
1581638215.065,12.695,32.715,38.574,7.812,0.0,0
1581638215.069,14.16,51.27,49.316,1.465,0.0,0
1581638215.073,-8.789,35.156,60.547,-9.277000000000001,0.0,0
1581638215.0770001,-21.484,26.855,41.01600000000001,-13.184000000000001,0.0,0
1581638215.081,-20.02,21.484,26.366999999999997,-20.02,0.0,0
1581638215.085,4.395,41.504,28.32,-4.395,0.0,0
1581638215.0879998,14.648,48.34,28.32,18.066,0.0,0
1581638215.092,16.602,21.97300000000001,34.668,15.625,0.0,0
1581638215.096,29.785,23.926,32.715,14.648,0.0,0
1581638215.1,33.691,25.391,44.434,28.32,0.0,0
1581638215.1039999,36.133,27.831999999999997,53.223,36.621,0.0,0
1581638215.063,60.547,41.504,55.663999999999994,58.105,0.0,0
1581638215.0670002,60.059,49.316,44.434,52.733999999999995,0.0,0
1581638215.071,19.043,27.831999999999997,22.461,13.184000000000001,0.0,0
1581638215.075,20.508000000000006,7.812,37.598,9.277000000000001,0.0,0
1581638215.079,18.555,26.855,48.34,18.555,0.0,0
1581638215.083,-9.766,34.668,36.133,4.395,0.0,0
1581638215.0870001,19.043,28.32,24.901999999999997,-1.953,0.0,0
1581638215.09,3.906,23.926,18.555,-4.395,0.0,0
1581638215.0939999,-2.441,37.109,37.109,17.09,0.0,0
1581638215.0979998,45.898,52.246,53.71100000000001,42.968999999999994,0.0,0
1581638215.1020002,48.828,45.898,61.035,49.805,0.0,0
1581638215.106,17.09,24.901999999999997,39.062,20.02,0.0,0
1581638215.065,-8.301,11.23,13.184000000000001,-9.766,0.0,0
1581638215.069,1.953,13.184000000000001,17.578,-3.906,0.0,0
1581638215.073,0.0,37.598,19.043,-6.836,0.0,0
1581638215.0770001,-8.301,33.691,33.691,-6.348,0.0,0
1581638215.081,9.766,8.301,34.18,-1.953,0.0,0
1581638215.085,1.953,23.926,27.344,-0.977,0.0,0
1581638215.089,-8.301,41.504,26.366999999999997,9.766,0.0,0
1581638215.092,9.277000000000001,51.27,28.809,21.484,0.0,0
1581638215.096,23.438000000000002,49.805,35.645,32.715,0.0,0
1581638215.1,26.366999999999997,27.344,29.785,44.434,0.0,0
1581638215.1039999,10.742,-1.465,31.738000000000003,29.296999999999997,0.0,0
1581638215.1079998,-3.418,13.184000000000001,28.809,13.184000000000001,0.0,0
1581638215.081,10.742,47.363,29.785,28.32,0.0,0
1581638215.085,30.273000000000003,31.738000000000003,39.062,34.668,0.0,0
1581638215.089,40.527,27.344,33.691,44.434,0.0,0
1581638215.093,38.574,46.387,30.273000000000003,43.945,0.0,0
1581638215.0970001,32.715,38.574,34.18,26.366999999999997,0.0,0
1581638215.101,49.316,44.434,50.78100000000001,48.828,0.0,0
1581638215.105,48.828,29.296999999999997,42.968999999999994,47.852,0.0,0
1581638215.1079998,20.996,7.324,32.715,23.926,0.0,0
1581638215.1120002,38.086,25.879,41.01600000000001,34.18,0.0,0
1581638215.1160002,25.879,27.831999999999997,29.296999999999997,20.996,0.0,0
1581638215.12,-4.395,17.578,14.648,10.254000000000001,0.0,0
1581638215.1239998,10.742,28.32,33.203,15.625,0.0,0
1581638215.1260002,6.348,41.504,39.551,9.277000000000001,0.0,0
1581638215.13,-2.93,31.738000000000003,26.366999999999997,5.859,0.0,0
1581638215.1339998,12.207,15.137,39.062,8.301,0.0,0
1581638215.1379998,25.391,44.434,43.457,14.16,0.0,0
1581638215.1420002,33.203,45.898,28.32,-5.859,0.0,0
1581638215.1460001,50.78100000000001,35.645,34.668,-22.461,0.0,0
1581638215.15,56.152,37.598,50.293,-18.555,0.0,0
1581638215.1529999,51.758,20.996,54.688,-9.277000000000001,0.0,0
1581638215.157,41.01600000000001,24.901999999999997,37.598,-3.418,0.0,0
1581638215.161,39.062,28.32,41.504,13.672,0.0,0
1581638215.165,36.621,30.761999999999997,42.968999999999994,30.761999999999997,0.0,0
1581638215.169,2.93,36.621,16.113,15.625,0.0,0
1581638215.171,-16.113,39.551,21.97300000000001,8.301,0.0,0
1581638215.175,4.395,48.828,42.968999999999994,19.531,0.0,0
1581638215.179,12.695,37.109,49.316,24.901999999999997,0.0,0
1581638215.1829998,7.324,38.086,54.199,31.738000000000003,0.0,0
1581638215.187,23.438000000000002,45.41,56.152,43.945,0.0,0
1581638215.191,33.691,22.949,38.574,42.48,0.0,0
1581638215.195,13.184000000000001,11.719000000000001,26.366999999999997,19.531,0.0,0
1581638215.198,24.414,20.508000000000006,46.387,33.203,0.0,0
1581638215.2020001,31.738000000000003,24.414,59.082,43.457,0.0,0
1581638215.206,21.97300000000001,22.461,45.41,18.555,0.0,0
1581638215.21,21.97300000000001,33.203,38.574,13.672,0.0,0
1581638215.214,19.043,43.945,40.039,10.742,0.0,0
1581638215.217,35.156,39.551,45.898,19.531,0.0,0
1581638215.221,45.41,43.945,57.129,32.227,0.0,0
1581638215.225,38.574,49.805,58.593999999999994,39.551,0.0,0
1581638215.2289999,38.574,34.18,56.64100000000001,41.992,0.0,0
1581638215.2329998,28.809,13.672,54.688,39.551,0.0,0
1581638215.2370002,18.066,8.789,45.41,23.926,0.0,0
1581638215.2410002,12.695,6.348,51.27,22.461,0.0,0
1581638215.244,9.766,16.113,62.012,27.831999999999997,0.0,0
1581638215.248,-5.371,23.926,40.039,3.418,0.0,0
1581638215.252,-18.555,26.855,27.344,1.465,0.0,0
1581638215.256,8.301,49.316,41.992,30.761999999999997,0.0,0
1581638215.26,10.254000000000001,33.691,36.133,18.555,0.0,2
1581638215.276,-4.883,-0.977,31.25,-3.906,0.0,0
1581638215.28,20.996,31.25,55.663999999999994,32.715,0.0,0
1581638215.284,37.109,38.574,52.246,39.062,0.0,0
1581638215.2879999,14.16,16.602,31.738000000000003,0.977,0.0,0
1581638215.292,1.953,24.414,31.738000000000003,-0.977,0.0,0
1581638215.296,14.16,34.668,26.855,-0.488,0.0,0
1581638215.3,28.809,34.668,29.296999999999997,5.371,0.0,0
1581638215.303,43.457,41.01600000000001,41.01600000000001,29.296999999999997,0.0,0
1581638215.3070002,38.086,49.316,39.062,35.156,0.0,0
1581638215.311,39.062,36.621,20.02,30.273000000000003,0.0,0
1581638215.315,60.547,25.879,23.438000000000002,44.922,0.0,0
1581638215.319,68.848,37.109,34.668,58.105,0.0,0
1581638215.321,67.87100000000001,33.203,46.387,61.035,0.0,0
1581638215.325,45.898,22.949,49.805,41.504,0.0,0
1581638215.329,22.461,33.691,28.809,11.719000000000001,0.0,0
1581638215.333,18.066,35.156,34.18,17.09,0.0,0
1581638215.3370001,19.531,30.761999999999997,44.434,24.901999999999997,0.0,0
1581638215.341,16.113,29.296999999999997,34.18,8.789,0.0,0
1581638215.345,-7.324,20.02,10.254000000000001,-10.254000000000001,0.0,0
1581638215.3479998,-2.93,16.602,12.207,9.766,0.0,0
1581638215.3520002,12.695,33.691,26.366999999999997,22.949,0.0,0
1581638215.356,12.695,38.574,43.457,23.438000000000002,0.0,0
1581638215.36,11.719000000000001,33.203,51.27,31.738000000000003,0.0,0
1581638215.3639998,9.766,7.812,37.109,23.926,0.0,0
1581638215.3660002,7.812,-8.789,35.645,17.09,0.0,0
1581638215.37,22.949,34.668,46.875,27.344,0.0,0
1581638215.3739998,40.039,59.57,44.434,42.48,0.0,0
1581638215.3779998,60.059,50.293,45.41,58.105,0.0,0
1581638215.3820002,62.988,33.203,38.574,48.34,0.0,0
1581638215.3860002,52.246,28.32,18.066,27.344,0.0,0
1581638215.39,43.457,34.18,30.761999999999997,31.25,0.0,0
1581638215.393,24.901999999999997,25.391,49.805,29.785,0.0,0
1581638215.397,34.18,24.414,46.387,26.366999999999997,0.0,0
1581638215.401,31.25,17.578,32.227,7.324,0.0,0
1581638215.405,20.508000000000006,27.831999999999997,26.366999999999997,5.859,0.0,0
1581638215.409,28.32,42.48,36.621,22.461,0.0,0
1581638215.411,31.25,40.527,37.598,34.18,0.0,0
1581638215.415,31.738000000000003,46.875,30.761999999999997,28.32,0.0,0
1581638215.419,32.227,37.598,27.831999999999997,31.738000000000003,0.0,0
1581638215.4229999,44.434,32.227,34.668,47.852,0.0,0
1581638215.427,28.809,30.273000000000003,34.18,29.785,0.0,0
1581638215.431,20.02,26.366999999999997,39.062,13.184000000000001,0.0,0
1581638215.435,22.461,41.504,54.688,13.672,0.0,0
1581638215.438,16.602,37.598,53.71100000000001,19.043,0.0,0
1581638215.4420002,9.766,28.809,37.109,14.648,0.0,0
1581638215.446,-15.137,6.836,6.348,-9.766,0.0,0
1581638215.45,-1.465,6.348,15.625,-3.418,0.0,0
1581638215.454,35.156,26.855,41.01600000000001,25.879,0.0,0
1581638215.457,44.922,29.785,41.504,41.992,0.0,0
1581638215.461,36.621,22.461,31.25,43.457,0.0,0
1581638215.465,37.598,28.809,30.761999999999997,38.086,0.0,0
1581638215.4689999,41.992,46.875,41.992,52.733999999999995,0.0,0
1581638215.4729998,45.41,51.27,39.551,58.105,0.0,0
1581638215.4770002,32.715,33.203,31.25,40.039,0.0,0
1581638215.481,29.296999999999997,32.227,34.668,37.598,0.0,0
1581638215.484,34.668,40.527,27.344,33.203,0.0,0
1581638215.488,38.086,41.01600000000001,22.949,30.273000000000003,0.0,0
1581638215.492,41.01600000000001,30.761999999999997,38.574,28.809,0.0,0
1581638215.496,32.227,29.785,32.715,12.695,0.0,0
1581638215.5,33.203,41.504,35.156,17.09,0.0,0
1581638215.502,42.48,42.48,28.809,20.508000000000006,0.0,0
1581638215.506,33.691,40.039,23.926,13.184000000000001,0.0,0
1581638215.51,35.645,44.922,33.691,19.043,0.0,0
1581638215.514,47.852,46.387,31.738000000000003,27.831999999999997,0.0,0
1581638215.518,50.78100000000001,47.852,33.691,34.668,0.0,0
1581638215.522,22.949,51.27,16.602,26.855,0.0,0
1581638215.526,16.113,35.156,27.831999999999997,31.25,0.0,0
1581638215.529,22.949,34.668,51.758,27.344,0.0,0
1581638215.533,7.812,38.086,37.109,10.254000000000001,0.0,0
1581638215.5370002,14.16,19.531,29.785,15.137,0.0,0
1581638215.5410001,22.949,36.621,23.926,15.625,0.0,0
1581638215.545,35.645,54.688,30.761999999999997,28.32,0.0,0
1581638215.5470002,56.152,53.71100000000001,44.434,42.48,0.0,0
1581638215.551,28.32,40.039,32.227,38.086,0.0,0
1581638215.555,1.953,22.949,10.254000000000001,27.344,0.0,0
1581638215.559,6.836,18.555,10.254000000000001,18.555,0.0,0
1581638215.563,2.93,32.227,10.742,9.277000000000001,0.0,0
1581638215.5670002,0.977,44.434,21.97300000000001,13.184000000000001,0.0,0
1581638215.571,20.996,31.738000000000003,36.133,26.366999999999997,0.0,0
1581638215.574,28.809,16.602,27.344,19.531,0.0,0
1581638215.5779998,22.949,33.691,25.879,22.461,0.0,0
1581638215.582,44.922,56.64100000000001,41.504,32.715,0.0,0
1581638215.586,49.805,55.176,47.363,41.992,0.0,0
1581638215.59,34.668,50.293,41.992,45.41,0.0,0
1581638215.592,17.09,26.366999999999997,38.574,26.855,0.0,0
1581638215.596,12.695,12.207,37.598,20.996,0.0,0
1581638215.6,31.25,51.758,50.293,36.133,0.0,0
1581638215.6039999,41.01600000000001,51.758,50.293,44.434,0.0,0
1581638215.6079998,26.366999999999997,22.949,26.366999999999997,28.32,0.0,0
1581638215.6120002,12.207,31.25,25.391,12.695,0.0,0
1581638215.6160002,20.02,42.968999999999994,44.922,15.137,0.0,0
1581638215.619,23.438000000000002,47.852,47.363,22.461,0.0,0
1581638215.623,27.344,59.082,44.434,40.527,0.0,0
1581638215.627,39.551,51.27,47.363,29.296999999999997,0.0,0
1581638215.631,27.831999999999997,21.97300000000001,43.457,4.395,0.0,0
1581638215.635,9.766,4.395,38.086,3.418,0.0,0
1581638215.6520002,24.414,12.207,35.156,6.836,0.0,0
1581638215.6560001,41.01600000000001,43.457,54.688,23.438000000000002,0.0,0
1581638215.66,31.25,56.64100000000001,47.852,22.949,0.0,0
1581638215.664,12.207,32.715,38.574,10.254000000000001,0.0,0
1581638215.668,-8.789,13.184000000000001,52.733999999999995,7.324,0.0,0
1581638215.6720002,19.043,40.039,73.73,15.625,0.0,0
1581638215.676,33.203,47.852,72.266,17.09,0.0,0
1581638215.679,13.672,23.438000000000002,51.27,8.789,0.0,0
1581638215.6829998,0.488,19.531,35.156,-0.977,0.0,0
1581638215.687,0.488,17.09,33.203,5.859,0.0,0
1581638215.691,18.066,24.901999999999997,51.27,22.461,0.0,0
1581638215.695,39.551,37.598,60.547,21.484,0.0,0
1581638215.698,47.363,40.527,46.387,37.598,0.0,0
1581638215.7020001,50.293,37.109,35.156,42.48,0.0,0
1581638215.706,58.593999999999994,49.316,63.477,39.551,0.0,0
1581638215.71,29.785,41.504,52.246,31.738000000000003,0.0,0
1581638215.714,-11.719000000000001,12.695,32.227,3.418,0.0,0
1581638215.718,2.441,7.812,45.41,15.625,0.0,0
1581638215.7220001,30.273000000000003,12.695,43.945,31.25,0.0,0
1581638215.725,32.715,39.551,48.828,22.949,0.0,0
1581638215.7289999,39.551,55.176,62.988,34.668,0.0,0
1581638215.7329998,40.527,49.805,48.828,50.78100000000001,0.0,0
1581638215.7370002,28.32,41.504,40.039,25.879,0.0,0
1581638215.7410002,32.227,37.598,50.78100000000001,17.578,0.0,0
1581638215.7470002,16.602,29.785,41.504,14.648,0.0,0
1581638215.7510002,-1.465,34.18,45.41,9.277000000000001,0.0,0
1581638215.755,21.97300000000001,20.02,54.199,19.531,0.0,0
1581638215.7589998,31.738000000000003,9.277000000000001,49.805,15.137,0.0,0
1581638215.7629998,19.043,30.761999999999997,50.78100000000001,15.625,0.0,0
1581638215.7670002,8.301,36.621,39.062,10.742,0.0,0
1581638215.7710001,12.207,58.593999999999994,43.457,20.996,0.0,0
1581638215.774,25.391,73.73,64.941,29.296999999999997,0.0,0
1581638215.7779999,23.926,34.668,52.733999999999995,6.348,0.0,0
1581638215.782,15.625,13.184000000000001,36.621,1.465,0.0,0
1581638215.786,6.348,20.02,27.831999999999997,9.766,0.0,0
1581638215.79,16.602,15.625,27.831999999999997,14.648,0.0,0
1581638215.7879999,21.484,15.137,47.852,20.996,0.0,0
1581638215.792,25.879,37.109,52.246,26.855,0.0,0
1581638215.796,22.949,52.246,35.645,29.296999999999997,0.0,0
1581638215.8,24.414,48.828,21.97300000000001,20.02,0.0,0
1581638215.804,25.391,38.574,24.414,9.277000000000001,0.0,0
1581638215.8079998,14.648,37.598,42.48,9.277000000000001,0.0,0
1581638215.812,10.254000000000001,34.18,42.48,24.901999999999997,0.0,0
1581638215.815,11.23,17.578,35.156,21.97300000000001,0.0,0
1581638215.819,16.113,13.672,25.391,5.371,0.0,0
1581638215.823,42.968999999999994,31.738000000000003,42.48,42.48,0.0,0
1581638215.8270001,44.434,30.273000000000003,41.992,42.48,0.0,0
1581638215.831,18.555,22.949,9.766,20.996,0.0,0
1581638215.832,20.508000000000006,27.831999999999997,13.184000000000001,20.02,0.0,0
1581638215.836,24.901999999999997,32.715,12.207,4.395,0.0,0
1581638215.84,27.344,39.551,13.184000000000001,16.602,0.0,0
1581638215.8439999,11.719000000000001,31.25,29.296999999999997,15.137,0.0,0
1581638215.8479998,15.137,27.831999999999997,28.809,0.977,0.0,0
1581638215.8520002,28.32,19.531,11.719000000000001,4.883,0.0,0
1581638215.856,20.02,21.484,20.508000000000006,6.348,0.0,0
1581638215.859,9.277000000000001,27.831999999999997,41.992,10.742,0.0,0
1581638215.863,20.996,16.602,37.109,28.809,0.0,0
1581638215.867,20.02,28.809,24.414,18.066,0.0,0
1581638215.871,9.277000000000001,30.273000000000003,28.32,6.836,0.0,0
1581638215.875,10.254000000000001,33.691,39.551,13.184000000000001,0.0,0
1581638215.877,10.254000000000001,40.039,59.082,4.395,0.0,0
1581638215.881,27.344,41.01600000000001,65.918,7.812,0.0,0
1581638215.885,23.926,29.785,42.48,8.789,0.0,0
1581638215.889,-3.906,26.855,39.062,-2.93,0.0,0
1581638215.893,-6.348,14.16,46.387,-6.836,0.0,0
1581638215.897,13.184000000000001,-2.441,53.71100000000001,5.371,0.0,0
1581638215.901,18.555,21.97300000000001,57.129,16.602,0.0,0
1581638215.904,17.578,41.992,59.082,28.809,0.0,0
1581638215.908,34.18,42.48,57.129,41.504,0.0,0
1581638215.9120002,35.156,49.805,53.71100000000001,33.203,0.0,0
1581638215.9160001,25.879,45.41,53.223,28.32,0.0,0
1581638215.92,8.301,26.855,41.01600000000001,10.742,0.0,0
1581638215.9220002,-8.301,28.809,33.691,-6.836,0.0,0
1581638215.926,1.953,20.508000000000006,50.78100000000001,-2.441,0.0,0
1581638215.93,14.16,17.578,53.223,14.16,0.0,0
1581638215.934,22.461,39.062,40.527,29.296999999999997,0.0,0
1581638215.938,31.25,31.738000000000003,39.062,26.855,0.0,0
1581638215.9420002,35.645,16.113,32.715,18.066,0.0,0
1581638215.946,50.293,32.227,34.668,30.273000000000003,0.0,0
1581638215.949,59.57,48.34,53.71100000000001,46.387,0.0,0
1581638215.9529998,21.97300000000001,40.039,45.898,15.625,0.0,0
1581638215.957,-19.043,21.484,33.203,-14.648,0.0,0
1581638215.961,-20.508000000000006,20.02,27.344,-11.719000000000001,0.0,0
1581638215.965,-4.395,25.879,32.227,10.742,0.0,0
1581638215.967,-7.812,27.344,42.48,11.719000000000001,0.0,0
1581638215.971,13.672,25.879,41.992,9.766,0.0,0
1581638215.975,41.01600000000001,27.831999999999997,44.434,32.227,0.0,0
1581638215.9789999,32.227,34.668,39.062,29.785,0.0,0
1581638215.9829998,16.113,29.296999999999997,32.715,12.695,0.0,0
1581638215.9870002,19.043,21.97300000000001,34.18,26.855,0.0,0
1581638215.9910002,27.831999999999997,36.621,48.828,45.898,0.0,0
1581638215.994,41.992,60.547,58.593999999999994,50.78100000000001,0.0,0
1581638215.998,28.809,54.688,48.828,25.879,0.0,0
1581638216.002,-3.906,33.203,45.898,0.0,0.0,0
1581638216.006,-2.441,34.18,39.062,6.836,0.0,0
1581638216.01,10.742,30.273000000000003,40.039,13.184000000000001,0.0,0
1581638216.0270002,28.32,24.901999999999997,58.105,13.672,0.0,0
1581638216.0310001,33.203,23.438000000000002,45.898,6.836,0.0,0
1581638216.035,36.133,23.926,45.41,4.883,0.0,0
1581638216.039,55.663999999999994,56.64100000000001,63.965,17.09,0.0,0
1581638216.043,48.34,45.41,48.828,14.648,0.0,0
1581638216.0470002,42.48,9.766,21.97300000000001,7.812,0.0,0
1581638216.051,60.547,56.64100000000001,32.227,16.602,0.0,0
1581638216.054,47.363,66.406,59.082,13.672,0.0,0
1581638216.0579998,16.602,30.761999999999997,48.828,-0.488,0.0,0
1581638216.062,10.742,33.691,40.039,-0.977,0.0,0
1581638216.066,-4.395,36.133,44.922,8.789,0.0,0
1581638216.07,-11.23,17.09,41.504,10.254000000000001,0.0,0
1581638216.072,12.695,26.366999999999997,66.895,31.738000000000003,0.0,0
1581638216.076,-0.488,46.875,62.5,50.293,0.0,0
1581638216.08,-15.137,46.875,23.926,20.996,0.0,0
1581638216.0839999,4.395,36.133,24.414,9.277000000000001,0.0,0
1581638216.0879998,8.301,20.02,37.109,18.066,0.0,0
1581638216.092,7.324,31.738000000000003,43.457,22.949,0.0,0
1581638216.096,19.531,49.805,51.27,21.97300000000001,0.0,0
1581638216.099,29.785,55.176,55.176,23.438000000000002,0.0,0
1581638216.103,25.879,39.551,41.01600000000001,18.066,0.0,0
1581638216.107,23.926,37.598,47.363,18.066,0.0,0
1581638216.111,16.602,46.875,65.918,32.715,0.0,0
1581638216.115,15.137,43.457,58.105,24.414,0.0,0
1581638216.1160002,10.254000000000001,37.109,49.805,19.043,0.0,0
1581638216.12,6.836,17.09,38.574,11.23,0.0,0
1581638216.1239998,18.555,16.602,35.645,11.719000000000001,0.0,0
1581638216.1279998,23.438000000000002,32.227,48.828,12.207,0.0,0
1581638216.1320002,8.301,39.551,44.922,8.301,0.0,0
1581638216.1360002,10.742,47.852,41.504,18.555,0.0,0
1581638216.14,18.555,44.434,46.387,11.23,0.0,0
1581638216.143,19.043,49.805,45.898,17.09,0.0,0
1581638216.147,21.97300000000001,46.387,39.062,25.879,0.0,0
1581638216.151,19.043,39.551,33.203,14.648,0.0,0
1581638216.155,48.828,55.176,47.363,28.32,0.0,0
1581638216.159,41.01600000000001,39.551,42.48,34.18,0.0,0
1581638216.161,12.695,24.901999999999997,34.18,20.508000000000006,0.0,0
1581638216.165,27.344,31.738000000000003,51.27,26.366999999999997,0.0,0
1581638216.169,18.066,34.18,49.316,20.02,0.0,0
1581638216.1729999,-0.977,33.203,49.316,5.371,0.0,0
1581638216.177,4.883,40.527,52.246,9.277000000000001,0.0,0
1581638216.181,20.02,51.758,59.082,19.531,0.0,0
1581638216.185,13.672,40.527,57.129,4.395,0.0,0
1581638216.188,7.812,28.32,37.109,-3.906,0.0,0
1581638216.1920002,19.043,26.855,31.25,17.578,0.0,0
1581638216.196,33.203,33.203,46.387,34.18,0.0,0
1581638216.2,33.203,50.293,58.105,19.531,0.0,0
1581638216.204,15.625,39.551,43.945,-0.977,0.0,0
1581638216.206,9.766,25.879,42.968999999999994,-6.348,0.0,0
1581638216.21,13.672,39.551,60.059,5.859,0.0,0
1581638216.214,18.555,55.663999999999994,73.242,28.32,0.0,0
1581638216.218,9.766,56.152,56.64100000000001,21.97300000000001,0.0,0
1581638216.2220001,-7.812,39.551,21.97300000000001,11.719000000000001,0.0,0
1581638216.226,-4.883,21.484,18.555,13.184000000000001,0.0,0
1581638216.23,1.953,9.766,32.715,3.418,0.0,0
1581638216.2329998,20.02,23.438000000000002,46.875,22.461,0.0,0
1581638216.2370002,33.203,41.01600000000001,50.293,42.48,0.0,0
1581638216.2410002,19.043,31.25,41.992,22.949,0.0,0
1581638216.245,22.461,28.809,34.668,9.766,0.0,0
1581638216.2489998,33.203,36.621,35.156,20.02,0.0,0
1581638216.2510002,29.296999999999997,47.363,57.129,24.414,0.0,0
1581638216.255,8.301,53.71100000000001,50.293,18.555,0.0,0
1581638216.2589998,10.254000000000001,37.109,34.18,12.207,0.0,0
1581638216.2629998,18.555,24.414,27.831999999999997,4.883,0.0,0
1581638216.2670002,6.348,29.296999999999997,20.508000000000006,3.418,0.0,0
1581638216.2710001,30.273000000000003,40.039,41.992,26.366999999999997,0.0,0
1581638216.275,47.363,22.461,42.48,35.645,0.0,0
1581638216.2779999,50.293,37.109,22.949,30.761999999999997,0.0,0
1581638216.282,50.78100000000001,49.316,26.366999999999997,18.555,0.0,0
1581638216.286,29.785,19.043,41.504,18.555,0.0,0
1581638216.29,42.48,20.508000000000006,47.363,43.457,0.0,0
1581638216.294,45.898,35.156,32.227,38.086,0.0,0
1581638216.296,22.949,43.457,28.32,28.809,0.0,0
1581638216.3,-0.977,44.434,27.831999999999997,18.066,0.0,0
1581638216.304,1.953,50.293,20.02,20.02,0.0,0
1581638216.3079998,11.719000000000001,37.598,13.184000000000001,15.625,0.0,0
1581638216.312,11.23,27.831999999999997,23.926,11.719000000000001,0.0,0
1581638216.316,33.203,47.852,37.598,24.414,0.0,0
1581638216.32,34.18,57.129,41.992,25.879,0.0,2
1581638216.323,15.137,39.062,19.531,9.277000000000001,0.0,0
1581638216.3270001,7.812,32.715,7.812,5.371,0.0,0
1581638216.331,7.812,46.387,15.137,6.836,0.0,0
1581638216.335,9.277000000000001,37.598,20.996,9.766,0.0,0
1581638216.339,11.719000000000001,35.156,33.691,12.207,0.0,0
1581638216.341,19.043,45.898,32.715,17.578,0.0,0
1581638216.345,22.949,43.457,26.855,21.97300000000001,0.0,0
1581638216.349,31.738000000000003,37.598,43.945,26.366999999999997,0.0,0
1581638216.353,31.25,38.574,36.621,29.296999999999997,0.0,0
1581638216.357,38.574,45.898,25.879,33.691,0.0,0
1581638216.361,32.715,41.504,27.831999999999997,20.02,0.0,0
1581638216.365,29.296999999999997,47.363,36.621,12.207,0.0,0
1581638216.3679998,36.133,57.129,54.199,28.809,0.0,0
1581638216.3720002,12.695,39.062,45.898,19.531,0.0,0
1581638216.3760002,7.324,38.574,38.574,18.555,0.0,0
1581638216.38,16.113,25.879,31.738000000000003,24.901999999999997,0.0,0
1581638216.3839998,10.742,19.043,20.508000000000006,22.949,0.0,0
1581638216.401,10.254000000000001,30.761999999999997,19.531,30.273000000000003,0.0,0
1581638216.405,19.043,37.109,36.133,37.109,0.0,0
1581638216.409,37.109,58.105,54.199,42.968999999999994,0.0,0
1581638216.4129999,36.621,44.434,45.41,36.621,0.0,0
1581638216.417,29.785,8.301,36.133,24.414,0.0,0
1581638216.421,23.926,18.555,40.039,24.414,0.0,0
1581638216.425,16.113,50.293,35.645,18.066,0.0,0
1581638216.428,18.066,55.663999999999994,44.434,14.648,0.0,0
1581638216.4320002,13.184000000000001,25.879,57.129,21.484,0.0,0
1581638216.436,8.789,27.831999999999997,42.48,3.418,0.0,0
1581638216.44,13.672,51.27,34.668,9.766,0.0,0
1581638216.444,16.602,41.992,26.366999999999997,26.855,0.0,0
1581638216.446,22.461,38.086,29.785,16.602,0.0,0
1581638216.45,36.133,48.828,52.733999999999995,31.738000000000003,0.0,0
1581638216.454,41.992,41.504,48.34,42.48,0.0,0
1581638216.458,23.926,34.18,38.574,23.926,0.0,0
1581638216.4620001,21.484,39.062,35.645,26.855,0.0,0
1581638216.466,40.527,36.133,37.109,40.527,0.0,0
1581638216.47,19.531,19.531,35.645,21.97300000000001,0.0,0
1581638216.4729998,1.953,22.949,31.25,10.742,0.0,0
1581638216.4770002,21.484,41.992,46.387,24.901999999999997,0.0,0
1581638216.481,31.25,49.805,56.64100000000001,35.645,0.0,0
1581638216.485,19.531,51.27,39.551,30.761999999999997,0.0,0
1581638216.4889998,22.949,47.363,38.086,33.691,0.0,0
1581638216.492,28.32,39.551,41.992,35.156,0.0,0
1581638216.496,16.113,35.156,28.809,24.901999999999997,0.0,0
1581638216.5,31.25,35.645,38.574,36.133,0.0,0
1581638216.504,51.27,38.574,47.852,52.733999999999995,0.0,0
1581638216.508,26.855,46.875,28.809,43.457,0.0,0
1581638216.512,10.254000000000001,46.387,30.761999999999997,30.273000000000003,0.0,0
1581638216.516,34.668,37.598,46.875,25.391,0.0,0
1581638216.519,46.875,38.086,53.223,31.738000000000003,0.0,0
1581638216.5229998,44.922,47.363,57.129,34.18,0.0,0
1581638216.5270002,25.391,12.207,40.039,10.742,0.0,0
1581638216.5310001,15.137,7.324,30.761999999999997,4.883,0.0,0
1581638216.535,11.719000000000001,38.574,31.25,4.395,0.0,0
1581638216.5370002,17.09,38.574,32.227,9.277000000000001,0.0,0
1581638216.5410001,48.828,52.733999999999995,52.246,43.945,0.0,0
1581638216.545,41.992,62.012,51.758,51.758,0.0,0
1581638216.549,20.508000000000006,44.434,42.968999999999994,26.366999999999997,0.0,0
1581638216.553,19.531,38.574,39.062,10.742,0.0,0
1581638216.5570002,31.25,45.898,40.527,27.831999999999997,0.0,0
1581638216.561,44.922,41.992,53.223,42.48,0.0,0
1581638216.564,30.273000000000003,34.668,47.363,31.738000000000003,0.0,0
1581638216.5679998,11.23,33.203,30.761999999999997,8.301,0.0,0
1581638216.572,6.836,23.926,32.227,9.277000000000001,0.0,0
1581638216.576,18.066,22.949,51.758,32.227,0.0,0
1581638216.58,26.855,44.922,60.547,29.785,0.0,0
1581638216.582,26.366999999999997,31.738000000000003,52.733999999999995,24.414,0.0,0
1581638216.586,20.996,20.508000000000006,39.062,31.25,0.0,0
1581638216.59,14.648,33.203,28.809,27.831999999999997,0.0,0
1581638216.5939999,42.48,41.504,50.293,53.71100000000001,0.0,0
1581638216.5979998,59.57,43.457,58.105,71.289,0.0,0
1581638216.6020002,47.363,41.992,35.156,54.199,0.0,0
1581638216.606,14.16,33.203,21.97300000000001,17.578,0.0,0
1581638216.609,-16.113,20.508000000000006,11.719000000000001,-8.789,0.0,0
1581638216.613,-14.648,30.761999999999997,23.926,-5.859,0.0,0
1581638216.617,20.996,53.223,41.01600000000001,20.02,0.0,0
1581638216.621,20.508000000000006,38.086,44.922,25.391,0.0,0
1581638216.625,5.371,10.742,39.551,3.906,0.0,0
1581638216.627,29.296999999999997,33.203,36.621,16.113,0.0,0
1581638216.631,26.855,48.34,39.062,35.156,0.0,0
1581638216.635,30.273000000000003,51.758,48.828,40.527,0.0,0
1581638216.639,46.875,52.246,52.246,50.293,0.0,0
1581638216.643,22.461,36.621,41.992,33.203,0.0,0
1581638216.647,7.812,41.504,42.968999999999994,15.137,0.0,0
1581638216.651,7.324,36.621,44.434,22.461,0.0,0
1581638216.654,2.93,25.391,30.761999999999997,15.137,0.0,0
1581638216.658,13.672,19.531,13.672,10.254000000000001,0.0,0
1581638216.6620002,27.831999999999997,29.785,29.296999999999997,21.97300000000001,0.0,0
1581638216.6660001,27.344,49.316,55.176,22.949,0.0,0
1581638216.67,30.761999999999997,33.691,60.547,40.039,0.0,0
1581638216.6720002,28.809,17.578,60.059,46.875,0.0,0
1581638216.676,21.484,28.809,50.78100000000001,26.366999999999997,0.0,0
1581638216.68,13.184000000000001,46.387,34.668,19.531,0.0,0
1581638216.684,-1.953,41.992,32.227,18.066,0.0,0
1581638216.688,4.395,28.32,31.25,16.113,0.0,0
1581638216.6920002,17.09,29.785,19.531,17.578,0.0,0
1581638216.696,14.648,38.086,23.438000000000002,20.996,0.0,0
1581638216.699,19.531,47.852,25.391,23.438000000000002,0.0,0
1581638216.7029998,22.461,41.504,40.039,21.484,0.0,0
1581638216.707,18.066,31.25,49.316,23.926,0.0,0
1581638216.711,22.461,31.25,53.223,29.785,0.0,0
1581638216.715,17.578,40.527,62.5,31.25,0.0,0
1581638216.717,13.184000000000001,43.945,50.78100000000001,30.761999999999997,0.0,0
1581638216.721,18.555,49.316,37.598,15.137,0.0,0
1581638216.725,9.277000000000001,36.133,21.97300000000001,-0.488,0.0,0
1581638216.7289999,31.25,42.968999999999994,39.551,22.949,0.0,0
1581638216.7329998,31.25,39.551,30.761999999999997,22.461,0.0,0
1581638216.7370002,6.836,27.831999999999997,9.766,2.93,0.0,0
1581638216.7410002,12.207,28.32,32.227,10.742,0.0,0
1581638216.744,33.203,24.414,43.945,23.926,0.0,0
1581638216.748,41.504,34.18,51.758,26.366999999999997,0.0,0
1581638216.752,37.109,47.852,55.176,32.715,0.0,0
1581638216.756,22.949,41.01600000000001,37.598,31.25,0.0,0
1581638216.76,14.16,40.039,27.831999999999997,17.09,0.0,0
1581638216.7770002,15.625,33.203,30.761999999999997,12.207,0.0,0
1581638216.7810001,22.949,27.831999999999997,38.086,20.508000000000006,0.0,0
1581638216.785,41.992,48.828,44.434,35.156,0.0,0
1581638216.789,27.344,30.761999999999997,36.133,24.414,0.0,0
1581638216.793,24.901999999999997,15.137,41.504,18.555,0.0,0
1581638216.7970002,28.809,37.598,49.316,21.97300000000001,0.0,0
1581638216.801,26.855,36.621,35.645,22.461,0.0,0
1581638216.804,16.602,34.18,40.039,19.531,0.0,0
1581638216.8079998,8.789,35.645,45.898,9.766,0.0,0
1581638216.812,8.301,18.555,30.761999999999997,6.348,0.0,0
1581638216.816,13.184000000000001,15.137,42.48,28.809,0.0,0
1581638216.82,25.879,38.086,41.992,45.898,0.0,0
1581638216.823,17.578,49.805,26.366999999999997,32.227,0.0,0
1581638216.8270001,9.766,36.133,33.691,8.789,0.0,0
1581638216.831,5.859,15.137,29.785,2.441,0.0,0
1581638216.835,17.09,27.344,32.715,9.766,0.0,0
1581638216.839,29.296999999999997,47.363,36.133,26.855,0.0,0
1581638216.843,16.113,43.457,25.391,28.32,0.0,0
1581638216.8470001,14.16,24.901999999999997,39.062,25.391,0.0,0
1581638216.85,23.926,30.273000000000003,46.387,31.738000000000003,0.0,0
1581638216.8539999,17.09,33.203,32.715,24.901999999999997,0.0,0
1581638216.8579998,25.879,30.273000000000003,25.391,17.578,0.0,0
1581638216.8620002,40.527,49.805,29.785,19.531,0.0,0
1581638216.8660002,35.156,29.785,44.434,20.02,0.0,0
1581638216.867,20.508000000000006,22.949,41.01600000000001,15.137,0.0,0
1581638216.871,21.97300000000001,46.387,28.809,16.113,0.0,0
1581638216.875,28.809,42.48,27.831999999999997,32.227,0.0,0
1581638216.879,8.301,39.551,32.227,27.831999999999997,0.0,0
1581638216.883,13.672,38.086,33.203,16.602,0.0,0
1581638216.887,27.831999999999997,42.48,36.621,18.555,0.0,0
1581638216.891,11.719000000000001,48.828,26.855,13.184000000000001,0.0,0
1581638216.894,14.648,41.01600000000001,20.508000000000006,17.578,0.0,0
1581638216.8979998,32.227,30.761999999999997,27.831999999999997,13.184000000000001,0.0,0
1581638216.9020002,42.968999999999994,32.227,44.922,10.742,0.0,0
1581638216.9060001,39.551,23.926,48.828,-1.465,0.0,0
1581638216.91,33.691,21.484,35.645,-7.812,0.0,0
1581638216.9129999,41.992,29.296999999999997,32.715,8.789,0.0,0
1581638216.917,33.691,45.898,32.715,17.09,0.0,0
1581638216.921,46.387,48.828,55.176,31.738000000000003,0.0,0
1581638216.925,28.32,29.296999999999997,42.48,22.949,0.0,0
1581638216.929,7.812,26.366999999999997,15.625,16.602,0.0,0
1581638216.9329998,3.418,50.78100000000001,19.043,21.484,0.0,0
1581638216.937,-1.953,41.504,33.691,23.926,0.0,0
1581638216.94,2.441,15.625,32.715,22.461,0.0,0
1581638216.944,0.0,16.113,28.809,17.09,0.0,0
1581638216.948,4.395,15.137,38.086,18.555,0.0,0
1581638216.9520001,11.23,27.344,33.691,15.137,0.0,0
1581638216.956,21.484,50.293,31.738000000000003,18.066,0.0,0
1581638216.957,18.066,52.733999999999995,28.32,24.901999999999997,0.0,0
1581638216.961,25.391,42.48,38.086,24.414,0.0,0
1581638216.965,31.25,47.363,37.109,12.207,0.0,0
1581638216.9689999,14.648,47.363,8.301,-3.906,0.0,0
1581638216.9729998,28.32,44.922,30.273000000000003,22.949,0.0,0
1581638216.9770002,38.574,43.945,59.57,44.922,0.0,0
1581638216.981,23.926,36.133,41.992,25.879,0.0,0
1581638216.984,33.203,37.109,40.039,18.555,0.0,0
1581638216.988,25.879,40.039,56.152,21.97300000000001,0.0,0
1581638216.992,7.324,35.156,46.875,29.785,0.0,0
1581638216.996,-2.441,24.901999999999997,24.414,13.184000000000001,0.0,0
1581638217.0,-8.301,21.97300000000001,26.855,-0.977,0.0,0
1581638217.002,4.883,36.621,32.227,9.277000000000001,0.0,0
1581638217.006,5.859,41.504,38.574,9.766,0.0,0
1581638217.01,12.207,30.273000000000003,49.316,9.277000000000001,0.0,0
1581638217.014,20.508000000000006,28.809,48.34,19.043,0.0,0
1581638217.018,35.156,40.039,66.895,41.01600000000001,0.0,0
1581638217.022,38.086,56.64100000000001,66.406,52.246,0.0,0
1581638217.026,7.324,37.598,32.715,24.414,0.0,0
1581638217.029,4.395,27.831999999999997,31.738000000000003,-0.488,0.0,0
1581638217.033,8.789,25.879,39.551,3.906,0.0,0
1581638217.0370002,19.043,14.16,39.551,16.602,0.0,0
1581638217.0410001,34.668,19.043,42.48,27.831999999999997,0.0,0
1581638217.045,36.133,29.296999999999997,45.898,29.785,0.0,0
1581638217.0479999,28.32,28.32,42.968999999999994,23.438000000000002,0.0,0
1581638217.052,21.484,37.598,37.109,27.344,0.0,0
1581638217.056,19.043,39.062,40.527,36.133,0.0,0
1581638217.06,27.344,32.227,47.852,40.527,0.0,0
1581638217.064,38.574,37.109,46.875,38.574,0.0,0
1581638217.0679998,38.574,23.438000000000002,33.691,26.366999999999997,0.0,0
1581638217.072,27.831999999999997,11.719000000000001,31.738000000000003,22.949,0.0,0
1581638217.075,20.508000000000006,17.578,26.855,9.766,0.0,0
1581638217.079,38.086,24.414,34.18,17.578,0.0,0
1581638217.083,42.968999999999994,38.574,37.109,27.831999999999997,0.0,0
1581638217.0870001,11.23,36.133,22.949,14.648,0.0,0
1581638217.091,0.488,28.809,32.227,5.371,0.0,0
1581638217.092,14.648,45.41,41.504,12.207,0.0,0
1581638217.096,5.371,35.645,30.273000000000003,20.02,0.0,0
1581638217.1,16.113,31.738000000000003,36.133,30.273000000000003,0.0,0
1581638217.1039999,34.668,37.598,49.316,37.598,0.0,0
1581638217.1079998,28.809,14.648,31.738000000000003,24.414,0.0,0
1581638217.1120002,15.137,14.648,22.949,18.555,0.0,0
1581638217.1160002,9.766,11.719000000000001,26.855,16.602,0.0,0
1581638217.119,22.949,14.648,36.621,29.785,0.0,0
1581638217.123,24.414,29.785,48.34,32.227,0.0,0
1581638217.127,22.949,43.457,54.688,38.574,0.0,0
1581638217.131,16.602,45.898,44.434,27.831999999999997,0.0,0
1581638217.135,6.836,46.875,30.273000000000003,7.812,0.0,0
1581638217.1520002,10.742,46.875,45.41,11.23,0.0,0
1581638217.1560001,17.09,30.273000000000003,51.758,16.602,0.0,0
1581638217.16,24.901999999999997,25.879,32.715,15.625,0.0,0
1581638217.164,20.02,20.508000000000006,28.809,9.766,0.0,0
1581638217.168,16.113,13.672,47.852,15.625,0.0,0
1581638217.1720002,20.02,10.254000000000001,49.316,12.695,0.0,0
1581638217.176,35.156,29.785,42.968999999999994,18.066,0.0,0
1581638217.179,52.733999999999995,51.758,48.828,37.109,0.0,0
1581638217.1829998,33.203,53.71100000000001,59.082,31.25,0.0,0
1581638217.187,21.97300000000001,43.457,59.57,30.761999999999997,0.0,0
1581638217.191,19.531,29.296999999999997,42.968999999999994,33.203,0.0,0
1581638217.195,19.043,37.109,37.598,24.414,0.0,0
1581638217.197,41.01600000000001,37.598,46.387,35.645,0.0,0
1581638217.201,56.64100000000001,37.598,53.71100000000001,49.316,0.0,0
1581638217.205,28.809,43.457,47.852,16.113,0.0,0
1581638217.2089999,11.23,35.156,46.875,2.93,0.0,0
1581638217.2129998,20.508000000000006,20.996,41.992,23.926,0.0,0
1581638217.217,7.324,20.996,41.01600000000001,26.366999999999997,0.0,0
1581638217.221,8.789,28.32,55.176,26.366999999999997,0.0,0
1581638217.224,16.113,38.574,50.293,18.555,0.0,0
1581638217.228,0.0,37.109,38.574,10.742,0.0,0
1581638217.232,-4.395,26.366999999999997,34.668,4.883,0.0,0
1581638217.236,12.207,33.691,37.598,8.301,0.0,0
1581638217.24,12.207,44.922,46.387,18.555,0.0,0
1581638217.2410002,-3.418,39.551,41.01600000000001,8.789,0.0,0
1581638217.245,5.859,27.344,39.551,3.906,0.0,0
1581638217.2489998,28.32,28.809,43.945,12.695,0.0,0
1581638217.2529998,28.809,44.922,40.039,19.531,0.0,0
1581638217.2570002,13.184000000000001,25.879,37.109,20.02,0.0,0
1581638217.2610002,14.16,11.23,29.785,18.066,0.0,0
1581638217.265,17.578,36.621,11.23,4.883,0.0,0
1581638217.268,25.879,45.41,22.461,17.578,0.0,0
1581638217.272,29.785,41.01600000000001,37.598,35.156,0.0,0
1581638217.276,29.296999999999997,31.738000000000003,39.551,26.366999999999997,0.0,0
1581638217.28,24.414,31.25,38.574,19.043,0.0,0
1581638217.284,11.719000000000001,27.344,20.996,18.066,0.0,0
1581638217.286,17.09,25.391,21.484,27.831999999999997,0.0,0
1581638217.29,24.414,38.086,35.156,31.25,0.0,0
1581638217.294,15.625,40.527,31.25,28.32,0.0,0
1581638217.2979999,-0.488,40.039,21.484,25.391,0.0,0
1581638217.302,0.977,30.761999999999997,8.301,14.648,0.0,0
1581638217.306,9.766,26.366999999999997,13.184000000000001,18.555,0.0,0
1581638217.31,19.531,29.296999999999997,32.715,40.039,0.0,0
1581638217.313,27.344,32.715,47.852,37.598,0.0,0
1581638217.3170002,15.137,30.273000000000003,46.387,7.324,0.0,0
1581638217.321,19.531,34.18,45.898,6.836,0.0,0
1581638217.325,26.855,39.062,47.363,26.366999999999997,0.0,0
1581638217.329,33.203,37.109,53.71100000000001,38.086,0.0,0
1581638217.331,27.831999999999997,50.78100000000001,57.617,34.668,0.0,0
1581638217.335,11.719000000000001,54.199,43.457,16.602,0.0,0
1581638217.339,10.254000000000001,33.691,37.109,1.953,0.0,0
1581638217.343,16.602,20.02,45.41,7.324,0.0,0
1581638217.3470001,23.438000000000002,37.109,55.176,26.855,0.0,0
1581638217.351,21.484,38.086,53.223,20.02,0.0,0
1581638217.355,23.438000000000002,35.645,49.805,13.672,0.0,0
1581638217.3579998,41.992,43.945,49.316,21.484,0.0,0
1581638217.3620002,41.504,44.922,52.733999999999995,30.761999999999997,0.0,0
1581638217.3660002,24.414,25.879,71.777,31.738000000000003,0.0,0
1581638217.37,35.645,20.996,100.586,39.062,0.0,0
1581638217.3739998,33.691,29.296999999999997,96.68,35.645,0.0,0
1581638217.3760002,9.766,33.203,80.078,14.16,0.0,0
1581638217.38,0.977,31.25,81.543,15.625,0.0,0
1581638217.3839998,3.906,16.602,91.79700000000001,19.043,0.0,0
1581638217.3879998,5.859,23.926,81.055,21.484,0.0,0
1581638217.3920002,12.207,43.945,79.102,33.691,0.0,0
1581638217.3960001,18.555,39.062,80.566,32.227,0.0,0
1581638217.4,12.695,36.621,62.5,28.32,0.0,0
1581638217.4029999,6.836,35.645,76.66,21.484,0.0,0
1581638217.407,15.137,30.273000000000003,69.824,19.531,0.0,1
1581638217.411,25.391,34.668,48.34,24.414,0.0,0
1581638217.415,22.461,49.316,69.336,20.996,0.0,0
1581638217.419,11.719000000000001,51.758,76.66,8.301,0.0,0
1581638217.421,3.418,39.551,65.43,10.254000000000001,0.0,0
1581638217.425,4.883,37.598,64.453,15.137,0.0,0
1581638217.429,-4.883,25.391,51.758,-1.465,0.0,0
1581638217.4329998,-4.883,30.761999999999997,39.062,2.441,0.0,0
1581638217.437,24.414,45.41,54.199,30.273000000000003,0.0,0
1581638217.441,44.434,41.01600000000001,67.87100000000001,37.109,0.0,0
1581638217.445,43.457,31.738000000000003,49.805,32.715,0.0,0
1581638217.448,27.344,29.296999999999997,38.574,27.831999999999997,0.0,0
1581638217.4520001,35.156,48.828,51.758,35.156,0.0,0
1581638217.456,43.457,47.363,66.406,39.062,0.0,0
1581638217.46,41.992,40.527,65.43,20.508000000000006,0.0,0
1581638217.464,22.461,46.387,54.199,7.324,0.0,0
1581638217.466,14.648,45.41,58.105,14.648,0.0,0
1581638217.47,13.184000000000001,32.715,49.805,-2.441,0.0,0
1581638217.474,-12.207,16.602,42.48,-17.09,0.0,0
1581638217.478,-5.371,29.296999999999997,47.363,0.0,0.0,0
1581638217.482,-2.93,33.203,45.41,-0.488,0.0,0
1581638217.486,-5.859,33.203,42.48,3.418,0.0,0
1581638217.49,5.371,30.761999999999997,61.035,21.484,0.0,0
1581638217.4929998,4.883,31.25,61.523,13.184000000000001,0.0,0
1581638217.4970002,12.207,45.41,58.593999999999994,19.531,0.0,0
1581638217.5010002,29.296999999999997,40.527,68.848,34.668,0.0,0
1581638217.505,27.344,19.043,56.152,18.555,0.0,0
1581638217.5089998,17.578,23.438000000000002,37.598,12.207,0.0,0
1581638217.526,32.715,55.176,50.78100000000001,33.203,0.0,0
1581638217.53,48.34,50.293,56.64100000000001,50.78100000000001,0.0,0
1581638217.534,33.203,25.879,39.062,33.203,0.0,0
1581638217.5379999,21.484,23.926,31.738000000000003,21.97300000000001,0.0,0
1581638217.542,47.363,36.621,40.527,47.363,0.0,0
1581638217.546,48.828,34.18,52.246,38.086,0.0,0
1581638217.55,33.203,30.273000000000003,52.246,26.366999999999997,0.0,0
1581638217.553,37.598,42.48,40.527,29.785,0.0,0
1581638217.5570002,38.086,32.715,36.621,24.414,0.0,0
1581638217.561,27.831999999999997,32.715,41.504,22.461,0.0,0
1581638217.565,26.366999999999997,44.434,41.992,31.25,0.0,0
1581638217.569,20.02,40.527,29.785,15.137,0.0,0
1581638217.572,17.578,38.574,25.391,1.465,0.0,0
1581638217.576,18.555,41.504,31.25,14.16,0.0,0
1581638217.58,18.555,39.551,26.855,20.508000000000006,0.0,0
1581638217.5839999,25.879,32.715,24.414,28.32,0.0,0
1581638217.5879998,15.137,30.273000000000003,17.578,15.137,0.0,0
1581638217.592,0.977,38.574,28.32,6.348,0.0,0
1581638217.596,7.324,45.898,38.086,14.16,0.0,0
1581638217.599,30.761999999999997,52.246,33.203,26.855,0.0,0
1581638217.603,22.949,46.875,29.296999999999997,24.901999999999997,0.0,0
1581638217.607,0.0,22.461,21.97300000000001,18.555,0.0,0
1581638217.611,10.254000000000001,30.273000000000003,20.508000000000006,30.761999999999997,0.0,0
1581638217.615,32.227,41.992,22.461,40.039,0.0,0
1581638217.617,36.133,44.922,32.227,43.457,0.0,0
1581638217.621,29.785,34.18,40.527,32.227,0.0,0
1581638217.625,26.366999999999997,43.457,33.203,27.831999999999997,0.0,0
1581638217.629,29.785,61.523,30.273000000000003,28.32,0.0,0
1581638217.633,22.461,40.527,25.879,17.578,0.0,0
1581638217.637,8.301,35.156,16.113,11.23,0.0,0
1581638217.641,10.742,35.156,22.949,13.672,0.0,0
1581638217.644,34.18,41.01600000000001,46.875,33.203,0.0,0
1581638217.6479998,58.593999999999994,56.64100000000001,52.733999999999995,43.945,0.0,0
1581638217.6520002,51.758,56.152,33.203,27.344,0.0,0
1581638217.6560001,34.668,44.434,27.831999999999997,19.531,0.0,0
1581638217.66,21.97300000000001,34.18,36.133,19.043,0.0,0
1581638217.6620002,28.809,32.715,48.34,26.855,0.0,0
1581638217.6660001,37.109,40.039,51.758,29.296999999999997,0.0,0
1581638217.67,30.273000000000003,46.875,44.922,27.831999999999997,0.0,0
1581638217.674,28.32,44.922,36.133,23.926,0.0,0
1581638217.678,38.574,37.109,30.761999999999997,27.344,0.0,0
1581638217.6820002,47.363,36.133,28.32,50.293,0.0,0
1581638217.686,41.504,31.738000000000003,37.598,46.387,0.0,0
1581638217.689,27.344,39.551,47.852,34.18,0.0,0
1581638217.6929998,18.555,47.363,38.574,24.901999999999997,0.0,0
1581638217.697,6.348,27.831999999999997,31.738000000000003,12.207,0.0,0
1581638217.701,6.348,22.461,36.621,7.324,0.0,0
1581638217.705,14.16,25.879,36.133,6.836,0.0,0
1581638217.707,15.625,30.273000000000003,24.901999999999997,11.23,0.0,0
1581638217.711,25.879,31.738000000000003,28.809,21.484,0.0,0
1581638217.715,40.527,22.949,31.25,27.344,0.0,0
1581638217.7189999,49.316,30.273000000000003,25.391,32.227,0.0,0
1581638217.7229998,44.434,46.387,36.133,38.086,0.0,0
1581638217.7270002,16.602,42.968999999999994,33.691,20.996,0.0,0
1581638217.731,8.301,16.113,23.926,-2.93,0.0,0
1581638217.734,39.551,11.23,41.992,10.742,0.0,0
1581638217.738,49.805,36.133,46.387,32.715,0.0,0
1581638217.742,40.039,43.457,43.457,29.296999999999997,0.0,0
1581638217.746,25.879,20.996,34.18,14.16,0.0,0
1581638217.75,21.97300000000001,13.672,23.438000000000002,16.113,0.0,0
1581638217.752,23.926,25.879,27.344,23.438000000000002,0.0,0
1581638217.756,34.18,34.668,27.831999999999997,36.621,0.0,0
1581638217.76,62.012,42.48,31.738000000000003,59.082,0.0,0
1581638217.764,60.547,37.109,55.663999999999994,61.035,0.0,0
1581638217.768,33.203,9.277000000000001,69.824,40.527,0.0,0
1581638217.772,21.484,14.16,74.707,27.831999999999997,0.0,0
1581638217.776,17.578,37.109,63.477,25.391,0.0,0
1581638217.779,2.93,28.32,44.922,10.254000000000001,0.0,0
1581638217.783,-7.324,25.391,48.828,-0.488,0.0,0
1581638217.7870002,0.977,20.508000000000006,54.688,7.812,0.0,0
1581638217.7910001,11.719000000000001,19.531,47.363,19.531,0.0,0
1581638217.795,34.668,34.18,53.223,38.574,0.0,0
1581638217.7970002,54.199,40.039,46.387,47.852,0.0,0
1581638217.801,33.691,32.227,41.504,39.551,0.0,0
1581638217.805,21.484,19.531,62.988,35.156,0.0,0
1581638217.809,22.949,22.461,59.082,23.438000000000002,0.0,0
1581638217.813,-3.418,18.555,42.968999999999994,-4.395,0.0,0
1581638217.8170002,-5.371,21.484,54.688,0.488,0.0,0
1581638217.821,24.901999999999997,30.761999999999997,58.593999999999994,20.02,0.0,0
1581638217.824,27.831999999999997,20.02,48.828,23.438000000000002,0.0,0
1581638217.8279998,27.344,9.766,48.34,31.25,0.0,0
1581638217.832,27.831999999999997,19.043,46.875,32.715,0.0,0
1581638217.836,6.348,23.926,26.855,14.648,0.0,0
1581638217.84,14.648,26.855,41.504,18.555,0.0,0
1581638217.842,27.344,44.434,51.758,35.645,0.0,0
1581638217.846,18.555,30.761999999999997,35.645,27.831999999999997,0.0,0
1581638217.85,23.926,11.719000000000001,44.434,27.831999999999997,0.0,0
1581638217.8539999,21.97300000000001,17.578,55.663999999999994,31.25,0.0,0
1581638217.8579998,29.785,32.227,65.918,22.949,0.0,0
1581638217.8620002,56.64100000000001,29.296999999999997,70.801,22.949,0.0,0
1581638217.8660002,59.57,27.831999999999997,59.082,28.32,0.0,0
1581638217.869,55.176,32.715,50.78100000000001,18.066,0.0,0
1581638217.873,42.968999999999994,21.97300000000001,39.062,2.441,0.0,0
1581638217.877,45.898,39.551,40.039,0.488,0.0,0
1581638217.881,32.227,56.64100000000001,44.434,-6.348,0.0,0
1581638217.885,21.484,41.01600000000001,54.688,11.23,0.0,0
1581638217.9020002,22.461,22.949,51.27,20.02,0.0,0
1581638217.9060001,12.695,20.02,37.598,13.672,0.0,0
1581638217.91,17.09,21.484,44.434,22.949,0.0,0
1581638217.914,16.113,23.926,39.551,33.203,0.0,0
1581638217.918,37.109,40.527,48.828,49.316,0.0,0
1581638217.9220002,52.246,47.363,56.64100000000001,52.246,0.0,0
1581638217.926,41.504,45.898,37.109,50.293,0.0,0
1581638217.929,29.296999999999997,36.133,24.414,42.48,0.0,0
1581638217.9329998,20.996,42.48,34.18,38.574,0.0,0
1581638217.937,16.113,62.5,41.01600000000001,41.992,0.0,0
1581638217.941,3.418,37.109,37.109,22.949,0.0,0
1581638217.945,-7.812,11.719000000000001,26.855,8.301,0.0,0
1581638217.948,-3.906,27.831999999999997,25.391,6.836,0.0,0
1581638217.9520001,15.137,43.457,30.761999999999997,19.043,0.0,0
1581638217.956,19.531,42.968999999999994,24.901999999999997,26.855,0.0,0
1581638217.96,19.043,42.968999999999994,24.414,25.879,0.0,0
1581638217.964,32.715,50.78100000000001,45.898,47.852,0.0,0
1581638217.968,38.574,41.992,42.48,53.223,0.0,0
1581638217.9720001,30.761999999999997,8.301,22.949,27.344,0.0,0
1581638217.975,30.761999999999997,30.273000000000003,48.34,26.855,0.0,0
1581638217.9789999,35.645,61.035,58.593999999999994,35.156,0.0,0
1581638217.9829998,17.09,40.039,24.901999999999997,9.277000000000001,0.0,0
1581638217.9870002,6.836,28.809,8.789,-5.371,0.0,0
1581638217.9910002,21.97300000000001,30.273000000000003,21.97300000000001,10.254000000000001,0.0,0
1581638217.992,28.32,31.738000000000003,17.09,15.137,0.0,0
1581638217.996,20.02,35.156,5.371,9.277000000000001,0.0,0
1581638218.0,29.785,43.945,28.809,22.461,0.0,0
1581638218.004,40.527,40.039,42.968999999999994,34.18,0.0,0
1581638218.008,16.113,27.344,41.01600000000001,22.949,0.0,0
1581638218.012,10.254000000000001,36.621,47.363,14.16,0.0,0
1581638218.016,21.484,27.831999999999997,55.176,24.901999999999997,0.0,0
1581638218.019,-0.488,16.602,51.27,7.812,0.0,0
1581638218.0229998,2.441,38.086,68.848,1.953,0.0,0
1581638218.0270002,19.043,49.316,95.70299999999999,20.508000000000006,0.0,0
1581638218.0310001,10.254000000000001,28.32,90.82,13.672,0.0,0
1581638218.035,16.602,24.414,92.285,8.301,0.0,0
1581638218.0370002,40.527,39.062,118.164,17.09,0.0,0
1581638218.0410001,20.02,38.086,112.79299999999999,0.977,0.0,0
