timestamps,TP9,AF7,AF8,TP10,Marker0
1582734946.535,-35.156,-972.168,13.672,-12.695,0
1582734946.539,-24.414,-972.168,21.973,-6.836,0
1582734946.543,-20.508,-972.168,22.461,-24.414,0
1582734946.547,-33.691,-972.168,24.902,-56.641,0
1582734946.551,-41.992,-972.168,36.621,-60.547,0
1582734946.555,-56.152,-972.168,39.551,-48.828,0
1582734946.559,-78.125,-972.168,41.016,-75.195,0
1582734946.562,-87.891,-972.168,56.641,-98.633,0
1582734946.566,-82.031,-972.168,81.055,-92.773,0
1582734946.570,-121.582,-972.168,84.961,-122.070,0
1582734946.574,-164.062,-972.168,93.262,-144.531,0
1582734946.578,-166.992,-972.168,114.258,-158.691,0
1582734946.595,-190.918,-972.168,138.184,-198.242,0
1582734946.599,-210.938,-972.168,154.785,-216.309,0
1582734946.603,-228.516,-972.168,178.711,-216.309,0
1582734946.607,-257.812,-972.168,211.914,-230.469,0
1582734946.611,-252.441,-972.168,211.426,-255.859,0
1582734946.615,-238.281,-972.168,197.266,-250.000,0
1582734946.619,-246.582,-972.168,206.055,-237.305,0
1582734946.622,-251.465,-972.168,212.891,-239.258,0
1582734946.626,-231.445,-972.168,192.383,-228.027,0
1582734946.630,-200.195,-972.168,166.992,-211.426,0
1582734946.634,-179.199,-971.680,152.344,-187.988,0
1582734946.638,-152.344,-972.168,151.855,-164.551,0
1582734946.640,-120.605,-972.168,139.648,-155.762,0
1582734946.644,-108.398,-972.168,125.977,-138.184,0
1582734946.648,-79.590,-972.168,129.395,-112.305,0
1582734946.652,-45.898,-972.168,125.977,-86.914,0
1582734946.656,-16.113,-972.168,105.469,-63.477,0
1582734946.660,13.184,-972.168,86.914,-36.133,0
1582734946.664,30.762,-972.168,89.844,-6.836,0
1582734946.667,47.852,-972.168,111.816,14.160,0
1582734946.671,61.035,-972.168,125.977,41.504,0
1582734946.675,78.125,-972.168,116.699,54.688,0
1582734946.679,93.750,-972.168,122.070,62.012,0
1582734946.683,97.168,-972.168,139.648,75.684,0
1582734946.685,108.887,-972.168,126.465,86.914,0
1582734946.689,124.512,-972.168,102.051,96.191,0
1582734946.693,124.023,-972.168,91.309,97.656,0
1582734946.697,139.648,-972.168,74.219,108.887,0
1582734946.701,158.691,-972.168,50.781,120.117,0
1582734946.705,152.832,-972.168,33.203,118.652,0
1582734946.709,150.879,-972.168,36.621,135.254,0
1582734946.712,155.762,-972.168,41.504,152.344,0
1582734946.716,169.434,-972.168,15.137,148.438,0
1582734946.720,175.781,-972.168,0.488,145.508,0
1582734946.724,164.062,-972.168,22.949,141.602,0
1582734946.728,147.949,-972.168,18.555,144.043,0
1582734946.730,165.527,-972.168,14.160,157.715,0
1582734946.734,181.641,-972.168,27.832,160.645,0
1582734946.738,170.410,-972.168,31.250,154.785,0
1582734946.742,159.668,-972.168,34.668,152.344,0
1582734946.746,155.273,-972.168,27.832,160.156,0
1582734946.750,170.898,-972.168,25.391,164.062,0
1582734946.754,177.734,-972.168,30.273,146.484,0
1582734946.757,164.551,-972.168,25.879,131.348,0
1582734946.761,157.227,-972.168,16.113,137.695,0
1582734946.765,153.320,-972.168,30.273,133.789,0
1582734946.769,142.090,-972.168,53.711,127.930,0
1582734946.773,133.789,-972.168,49.316,131.836,0
1582734946.775,129.395,-972.168,48.828,127.930,0
1582734946.779,117.676,-972.168,64.453,125.000,0
1582734946.783,107.422,-972.168,65.430,122.559,0
1582734946.787,111.328,-972.168,55.664,118.164,0
1582734946.791,108.887,-972.168,56.641,127.930,0
1582734946.795,113.281,-972.168,56.152,131.348,0
1582734946.799,122.559,-972.168,60.059,119.629,0
1582734946.802,98.633,-972.168,56.641,110.352,0
1582734946.806,102.051,-972.168,54.688,113.281,0
1582734946.810,104.980,-972.168,71.777,108.398,0
1582734946.814,94.727,-972.168,70.312,98.633,0
1582734946.818,85.449,-972.168,68.359,96.680,0
1582734946.820,83.496,-972.168,72.754,101.074,0
1582734946.824,100.098,-972.168,75.684,96.680,0
1582734946.828,100.586,-972.168,78.613,93.750,0
1582734946.832,83.496,-972.168,88.379,87.402,0
1582734946.836,71.289,-972.168,98.145,71.777,0
1582734946.840,69.824,-972.168,95.703,69.336,0
1582734946.844,66.406,-972.168,92.773,69.336,0
1582734946.847,63.965,-972.168,85.449,66.406,0
1582734946.851,63.965,-972.168,96.680,61.035,0
1582734946.855,60.547,-972.168,110.840,64.941,0
1582734946.859,52.734,-972.168,103.516,71.289,0
1582734946.863,53.711,-972.168,100.586,62.012,0
1582734946.865,54.199,-972.168,105.957,43.945,0
1582734946.869,50.293,-972.168,107.422,51.758,0
1582734946.873,52.734,-972.168,101.562,60.059,0
1582734946.877,58.594,-972.168,102.051,54.199,0
1582734946.881,54.199,-972.168,112.793,60.059,0
1582734946.885,41.504,-972.168,107.422,54.688,0
1582734946.889,43.457,-972.168,96.191,43.457,0
1582734946.892,58.105,-972.168,99.121,33.203,0
1582734946.896,63.477,-972.168,123.047,46.875,0
1582734946.900,55.664,-972.168,123.535,60.059,0
1582734946.904,57.617,-972.168,111.816,62.012,0
1582734946.908,63.965,-972.168,107.910,54.688,0
1582734946.910,58.594,-972.168,111.328,41.992,0
1582734946.914,57.129,-972.168,115.723,44.434,0
1582734946.918,43.457,-972.168,103.027,38.574,0
1582734946.922,37.598,-972.168,102.051,39.062,0
1582734946.926,39.551,-972.168,107.422,51.270,0
1582734946.930,38.086,-972.168,105.469,46.875,0
1582734946.934,33.691,-972.168,99.121,26.367,0
1582734946.937,37.109,-972.168,107.910,21.484,0
1582734946.941,43.457,-972.168,126.953,37.598,0
1582734946.945,43.457,-972.168,117.676,35.156,0
1582734946.949,51.758,-972.168,100.586,20.020,0
1582734946.953,43.945,-972.168,107.422,28.320,0
1582734946.970,32.715,-972.168,122.070,29.785,0
1582734946.974,40.039,-972.168,109.863,29.297,0
1582734946.978,42.969,-972.168,103.027,39.551,0
1582734946.982,31.250,-972.168,113.281,33.203,0
1582734946.986,37.598,-972.168,107.910,24.414,0
1582734946.990,41.504,-972.168,95.215,33.203,0
1582734946.994,37.598,-972.168,95.215,33.203,0
1582734946.997,39.062,-972.168,113.770,29.297,0
1582734947.001,33.203,-972.168,121.582,40.039,0
1582734947.005,33.691,-972.168,111.328,37.598,0
1582734947.009,40.039,-972.168,105.957,40.527,0
1582734947.013,40.527,-972.168,121.094,45.898,0
1582734947.015,22.949,-972.168,124.023,17.090,0
1582734947.019,29.297,-972.168,102.051,5.371,0
1582734947.023,31.738,-972.168,97.168,23.438,0
1582734947.027,13.672,-972.168,112.305,24.414,0
1582734947.031,16.602,-972.168,104.980,10.742,0
1582734947.035,14.160,-972.168,95.215,7.812,0
1582734947.039,5.371,-972.168,111.816,4.395,0
1582734947.042,17.090,-972.168,116.211,-4.395,0
1582734947.046,21.484,-972.168,111.816,-6.836,0
1582734947.050,19.531,-972.168,92.773,-3.418,0
1582734947.054,28.809,-972.168,94.238,15.625,0
1582734947.058,35.156,-972.168,107.910,17.090,0
1582734947.060,43.945,-972.168,95.703,14.648,0
1582734947.064,44.434,-972.168,95.703,22.461,0
1582734947.068,37.598,-972.168,98.633,27.832,0
1582734947.072,53.223,-972.168,102.051,31.738,0
1582734947.076,54.688,-972.168,95.703,40.039,0
1582734947.080,37.109,-972.168,82.520,43.457,0
1582734947.084,47.852,-972.168,82.520,37.598,0
1582734947.087,49.805,-972.168,96.191,31.738,0
1582734947.091,35.645,-972.168,87.891,32.227,0
1582734947.095,36.621,-972.168,81.055,29.785,0
1582734947.099,37.598,-972.168,105.469,27.344,0
1582734947.103,41.504,-972.168,106.934,39.062,0
1582734947.105,42.480,-972.168,101.074,39.551,0
1582734947.109,33.203,-972.168,100.098,21.484,0
1582734947.113,30.762,-972.168,99.609,6.836,0
1582734947.117,34.180,-972.168,94.727,15.625,0
1582734947.121,38.574,-972.168,95.215,29.297,0
1582734947.125,37.598,-972.168,85.938,30.762,0
1582734947.129,29.785,-972.168,84.961,29.297,0
1582734947.132,34.180,-972.168,100.586,30.273,0
1582734947.136,35.645,-972.168,81.543,27.832,0
1582734947.140,38.574,-972.168,90.820,32.715,0
1582734947.144,41.016,-972.168,105.469,34.180,0
1582734947.148,37.109,-972.168,89.355,30.273,0
1582734947.150,21.973,-972.168,88.867,29.785,0
1582734947.154,22.949,-972.168,94.727,24.414,0
1582734947.158,43.945,-972.168,99.121,42.480,0
1582734947.162,45.898,-972.168,93.750,50.781,0
1582734947.166,23.926,-972.168,95.215,25.879,0
1582734947.170,4.395,-972.168,103.027,12.207,0
1582734947.174,-1.953,-972.168,116.211,6.348,0
1582734947.177,13.184,-972.168,115.234,0.977,0
1582734947.181,18.555,-972.168,103.516,3.418,0
1582734947.185,-4.883,-972.168,125.000,2.930,0
1582734947.189,-2.930,-972.168,126.953,-6.836,0
1582734947.193,-0.977,-972.168,107.422,-5.371,0
1582734947.195,4.395,-972.168,96.191,6.348,0
1582734947.199,20.508,-972.168,47.363,24.902,0
1582734947.203,22.949,-972.168,-26.367,32.227,0
1582734947.207,25.391,-972.168,-91.309,24.414,0
1582734947.211,23.438,-972.168,-133.301,20.996,0
1582734947.215,13.184,-972.168,-151.367,30.273,0
1582734947.219,17.578,-972.168,-170.898,30.762,0
1582734947.222,38.574,-972.168,-199.219,11.230,0
1582734947.226,32.227,-972.168,-195.312,11.719,0
1582734947.230,15.625,-972.168,-174.805,25.879,0
1582734947.234,12.207,-972.168,-184.570,28.809,0
1582734947.238,13.184,-972.168,-189.453,28.320,0
1582734947.240,21.973,-972.168,-177.734,26.367,0
1582734947.244,20.020,-972.168,-177.246,20.508,0
1582734947.248,8.301,-972.168,-188.477,27.832,0
1582734947.252,12.207,-972.168,-177.734,38.086,0
1582734947.256,14.648,-972.168,-161.133,21.973,0
1582734947.260,20.996,-972.168,-172.363,17.090,0
1582734947.264,22.949,-972.168,-171.875,23.438,0
1582734947.267,12.207,-972.168,-165.039,11.230,0
1582734947.271,10.254,-972.168,-140.625,14.160,0
1582734947.275,23.926,-972.168,-121.582,33.691,0
1582734947.279,43.945,-972.168,-124.023,35.645,0
1582734947.283,44.922,-972.168,-123.535,19.531,0
1582734947.285,23.438,-972.168,-107.910,24.414,0
1582734947.289,23.438,-972.168,-92.285,34.180,0
1582734947.293,48.340,-972.168,-92.773,44.922,0
1582734947.297,32.227,-972.168,-91.309,42.969,0
1582734947.301,17.090,-972.168,-72.754,29.297,0
1582734947.305,25.879,-972.168,-63.477,43.457,0
1582734947.309,26.367,-972.168,-76.172,48.340,0
1582734947.312,32.715,-972.168,-58.594,46.875,0
1582734947.316,31.250,-972.168,-25.879,39.551,0
1582734947.320,32.715,-972.168,-20.020,36.621,0
1582734947.324,34.180,-972.168,-20.020,42.480,0
1582734947.328,25.879,-972.168,0.000,39.551,0
1582734947.345,30.762,-972.168,7.812,41.992,0
1582734947.349,27.832,-972.168,3.906,48.340,0
1582734947.353,29.785,-972.168,-0.977,32.227,0
1582734947.357,30.273,-972.168,5.859,22.949,0
1582734947.361,16.602,-972.168,16.602,30.762,0
1582734947.365,20.508,-972.168,-9.277,29.297,0
1582734947.369,31.738,-972.168,-9.277,22.461,0
1582734947.372,29.785,-972.168,20.996,23.438,0
1582734947.376,24.902,-972.168,19.043,24.902,0
1582734947.380,22.461,-972.168,16.113,28.809,0
1582734947.384,27.832,-972.168,21.484,32.715,0
1582734947.388,34.180,-972.168,24.902,24.902,0
1582734947.390,27.344,-972.168,23.438,14.648,0
1582734947.394,20.020,-972.168,20.020,12.695,0
1582734947.398,23.926,-972.168,26.855,18.066,0
1582734947.402,26.367,-972.168,38.086,26.855,0
1582734947.406,25.391,-972.168,36.133,22.949,0
1582734947.410,10.254,-972.168,33.691,11.230,0
1582734947.414,1.953,-972.168,40.039,12.695,0
1582734947.417,8.789,-972.168,55.176,13.672,0
1582734947.421,12.207,-972.168,46.875,14.160,0
1582734947.425,19.531,-972.168,15.625,15.625,0
1582734947.429,26.855,-972.168,37.109,16.113,0
1582734947.433,25.391,-972.168,68.848,26.855,0
1582734947.435,23.926,-972.168,66.895,38.086,0
1582734947.439,31.250,-972.168,62.500,40.039,0
1582734947.443,38.086,-972.168,52.734,37.109,0
1582734947.447,38.086,-972.168,48.340,31.250,0
1582734947.451,34.668,-972.168,56.152,41.504,0
1582734947.455,29.297,-972.168,43.945,43.945,0
1582734947.459,30.762,-972.168,53.711,28.809,0
1582734947.462,32.227,-972.168,83.008,33.691,0
1582734947.466,38.574,-972.168,58.594,35.156,0
1582734947.470,33.203,-972.168,36.133,23.926,0
1582734947.474,19.043,-972.168,74.707,33.691,0
1582734947.478,26.855,-972.168,77.148,40.527,0
1582734947.480,36.621,-972.168,56.152,25.391,0
1582734947.484,36.133,-972.168,63.477,26.367,0
1582734947.488,29.785,-972.168,60.059,31.738,0
1582734947.492,19.531,-972.168,50.781,31.250,0
1582734947.496,35.156,-972.168,52.734,42.969,0
1582734947.500,28.809,-972.168,51.270,38.574,0
1582734947.504,17.090,-972.168,42.969,21.973,0
1582734947.507,35.156,-972.168,50.293,25.391,0
1582734947.511,41.016,-972.168,36.133,42.480,0
1582734947.515,47.363,-972.168,32.227,51.270,0
1582734947.519,53.223,-972.168,39.551,54.199,0
1582734947.523,57.129,-972.168,12.695,64.453,0
1582734947.525,59.570,-972.168,18.555,71.777,0
1582734947.529,64.453,-972.168,31.250,74.219,0
1582734947.533,69.336,-972.168,27.832,69.824,0
1582734947.537,71.289,-972.168,13.672,66.406,0
1582734947.541,71.777,-972.168,4.883,65.918,0
1582734947.545,63.965,-972.168,8.301,62.012,0
1582734947.549,75.195,-972.168,21.973,60.547,0
1582734947.552,58.594,-972.168,26.367,55.664,0
1582734947.556,38.574,-972.168,20.508,54.199,0
1582734947.560,43.457,-972.168,44.922,59.570,0
1582734947.564,44.922,-972.168,50.781,61.523,0
1582734947.568,47.363,-972.168,39.551,61.523,0
1582734947.571,45.410,-972.168,41.504,65.918,0
1582734947.575,38.086,-972.168,56.152,62.988,0
1582734947.579,41.504,-972.168,58.105,59.570,0
1582734947.583,43.945,-972.168,43.457,49.316,0
1582734947.587,41.992,-972.168,38.574,48.828,0
1582734947.591,51.758,-972.168,29.785,49.805,0
1582734947.595,52.246,-972.168,41.504,49.316,0
1582734947.598,42.480,-972.168,34.180,50.781,0
1582734947.602,35.645,-972.168,43.945,42.969,0
1582734947.606,34.668,-972.168,83.008,49.316,0
1582734947.610,43.945,-972.168,66.406,50.293,0
1582734947.614,45.410,-972.168,55.664,43.457,0
1582734947.615,36.133,-972.168,66.406,39.062,0
1582734947.619,32.715,-972.168,70.312,33.691,0
1582734947.623,28.320,-972.168,68.359,38.086,0
1582734947.627,28.320,-972.168,79.102,40.527,0
1582734947.631,37.598,-972.168,100.098,40.039,0
1582734947.635,37.598,-972.168,103.027,36.621,0
1582734947.639,33.691,-972.168,114.746,37.109,0
1582734947.642,33.691,-972.168,139.160,44.922,0
1582734947.646,27.832,-972.168,181.152,34.668,0
1582734947.650,26.855,-972.168,200.684,36.133,0
1582734947.654,26.855,-972.168,186.523,36.133,27230
1582734947.658,23.926,-972.168,188.477,35.156,0
1582734947.660,26.855,-972.168,212.891,35.645,0
1582734947.664,29.785,-972.168,214.844,33.691,0
1582734947.668,30.762,-972.168,221.191,37.598,0
1582734947.672,27.832,-972.168,230.957,35.156,0
1582734947.676,31.250,-972.168,230.469,39.062,0
1582734947.680,20.996,-972.168,232.910,37.598,0
1582734947.684,10.742,-972.168,222.168,38.086,0
1582734947.687,16.602,-972.168,239.258,30.762,0
1582734947.691,34.180,-972.168,275.879,29.785,0
1582734947.695,37.109,-972.168,266.602,34.180,0
1582734947.699,12.207,-972.168,251.953,25.391,0
1582734947.703,16.602,-972.168,269.531,40.527,0
1582734947.720,34.668,-972.168,287.598,43.457,0
1582734947.724,31.250,-972.168,259.766,17.578,0
1582734947.728,18.555,-972.168,245.117,21.973,0
1582734947.732,17.090,-972.168,262.207,18.066,0
1582734947.736,28.320,-972.168,257.812,14.160,0
1582734947.740,28.809,-972.168,230.957,28.320,0
1582734947.744,26.855,-972.168,225.586,23.926,0
1582734947.747,30.762,-972.168,252.441,23.438,0
1582734947.751,30.762,-972.168,251.465,32.227,0
1582734947.755,29.297,-972.168,226.562,27.832,0
1582734947.759,31.250,-972.168,223.633,25.879,0
1582734947.763,21.973,-972.168,232.910,31.738,0
1582734947.765,15.137,-972.168,224.609,29.785,0
1582734947.769,17.090,-972.168,208.984,31.250,0
1582734947.773,25.391,-972.168,210.938,44.434,0
1582734947.777,39.062,-972.168,219.238,44.434,0
1582734947.781,39.551,-972.168,197.266,33.203,0
1582734947.785,32.715,-972.168,191.895,44.922,0
1582734947.789,41.016,-972.168,207.520,50.781,0
1582734947.792,43.457,-972.168,210.938,38.086,0
1582734947.796,27.344,-972.168,208.008,37.109,0
1582734947.800,20.020,-972.168,174.805,26.855,0
1582734947.804,28.320,-972.168,185.547,14.160,0
1582734947.808,26.855,-972.168,210.938,19.043,0
1582734947.810,31.738,-972.168,186.523,25.879,0
1582734947.814,36.621,-972.168,178.223,29.297,0
1582734947.818,28.809,-972.168,182.617,26.367,0
1582734947.822,22.461,-972.168,169.922,15.137,0
1582734947.826,18.066,-972.168,146.484,18.066,0
1582734947.830,22.949,-972.168,129.883,23.926,0
1582734947.834,38.086,-972.168,150.391,18.555,0
1582734947.837,33.691,-972.168,184.082,20.996,0
1582734947.841,28.809,-972.168,203.613,25.879,0
1582734947.845,39.551,-972.168,234.863,27.344,0
1582734947.849,32.715,-972.168,291.992,24.902,0
1582734947.853,31.738,-972.168,300.293,31.738,0
1582734947.855,33.691,-972.168,287.109,33.691,0
1582734947.859,29.297,-972.168,300.781,19.531,0
1582734947.863,19.043,-972.168,312.500,19.043,0
1582734947.867,4.883,-972.168,315.430,20.996,0
1582734947.871,23.926,-972.168,323.730,10.742,0
1582734947.875,37.109,-972.168,320.801,14.160,0
1582734947.879,23.926,-972.168,334.473,20.996,0
1582734947.882,16.602,-972.168,360.352,16.602,0
1582734947.886,20.996,-972.168,317.383,7.324,0
1582734947.890,20.508,-972.168,324.219,12.695,0
1582734947.894,12.207,-972.168,361.328,26.855,0
1582734947.898,26.367,-972.168,333.496,23.438,0
1582734947.900,34.180,-972.168,337.891,11.230,0
1582734947.904,17.090,-972.168,342.285,15.137,0
1582734947.908,15.625,-972.168,323.242,22.461,0
1582734947.912,33.203,-972.168,310.059,22.949,0
1582734947.916,27.832,-972.168,307.129,13.672,0
1582734947.920,15.625,-972.168,302.734,8.789,0
1582734947.924,22.949,-972.168,308.105,17.578,0
1582734947.927,28.320,-972.168,300.293,26.855,0
1582734947.931,33.691,-972.168,276.855,26.855,0
1582734947.935,31.250,-972.168,313.965,26.855,0
1582734947.939,25.391,-972.168,305.176,33.203,0
1582734947.943,24.414,-972.168,269.531,32.715,0
1582734947.945,19.531,-972.168,293.945,40.527,0
1582734947.949,10.742,-972.168,273.438,40.527,0
1582734947.953,8.301,-972.168,257.324,38.574,0
1582734947.957,4.395,-972.168,269.531,43.945,0
1582734947.961,22.461,-972.168,250.488,30.762,0
1582734947.965,33.203,-972.168,235.352,26.367,0
1582734947.969,18.066,-972.168,239.746,23.926,0
1582734947.972,21.973,-972.168,218.750,23.438,0
1582734947.976,30.273,-972.168,224.609,30.762,0
1582734947.980,13.672,-972.168,244.141,21.484,0
1582734947.984,13.672,-972.168,211.914,17.090,0
1582734947.988,22.461,-972.168,211.426,17.578,0
1582734947.990,15.625,-972.168,219.727,15.137,0
1582734947.994,10.742,-972.168,221.680,19.531,0
1582734947.998,10.742,-972.168,214.355,20.508,0
1582734948.002,13.184,-972.168,199.707,20.508,0
1582734948.006,16.602,-972.168,194.336,29.297,0
1582734948.010,27.832,-972.168,192.871,33.203,0
1582734948.014,43.457,-972.168,185.059,20.508,0
1582734948.017,44.434,-972.168,179.688,18.555,0
1582734948.021,35.645,-972.168,209.473,26.367,0
1582734948.025,31.250,-972.168,208.008,26.367,0
1582734948.029,23.438,-972.168,187.012,35.156,0
1582734948.033,30.273,-972.168,177.246,34.668,0
1582734948.035,45.410,-972.168,183.594,20.020,0
1582734948.039,40.039,-972.168,182.617,19.043,0
1582734948.043,26.855,-972.168,166.992,26.367,0
1582734948.047,20.508,-972.168,164.062,21.973,0
1582734948.051,18.555,-972.168,161.621,16.113,0
1582734948.055,27.344,-972.168,166.504,28.320,0
1582734948.059,27.832,-972.168,138.672,26.367,0
1582734948.062,15.625,-972.168,128.418,21.973,0
1582734948.066,20.508,-972.168,167.969,24.902,0
1582734948.070,24.414,-972.168,174.805,24.902,0
1582734948.074,22.461,-972.168,165.527,28.809,0
1582734948.078,26.855,-972.168,169.434,31.738,0
1582734948.095,31.738,-972.168,168.945,30.273,0
1582734948.099,31.738,-972.168,146.973,34.180,0
1582734948.103,29.297,-972.168,133.301,40.039,0
1582734948.107,22.949,-972.168,142.578,31.250,0
1582734948.111,28.809,-972.168,156.738,22.461,0
1582734948.115,29.297,-972.168,125.000,25.879,0
1582734948.119,29.785,-972.168,110.840,22.461,0
1582734948.122,30.273,-972.168,157.227,20.020,0
1582734948.126,22.461,-972.168,151.855,17.578,0
1582734948.130,28.809,-972.168,134.766,21.484,0
1582734948.134,41.016,-972.168,128.906,22.949,0
1582734948.138,42.969,-972.168,130.371,32.715,0
1582734948.140,25.879,-972.168,135.742,29.785,0
1582734948.144,23.926,-972.168,131.348,17.090,0
1582734948.148,28.320,-972.168,144.531,30.762,0
1582734948.152,17.578,-972.168,150.391,39.551,0
1582734948.156,25.879,-972.168,128.418,29.785,0
1582734948.160,28.320,-972.168,105.957,23.926,0
1582734948.164,19.531,-972.168,123.535,25.391,0
1582734948.167,33.691,-972.168,146.973,44.922,0
1582734948.171,30.762,-972.168,145.508,40.039,0
1582734948.175,29.785,-972.168,106.445,22.461,0
1582734948.179,30.762,-972.168,102.051,23.438,0
1582734948.183,17.578,-972.168,135.742,27.832,0
1582734948.185,37.109,-972.168,125.977,26.367,0
1582734948.189,41.504,-972.168,90.820,18.555,0
1582734948.193,29.297,-972.168,96.680,28.809,0
1582734948.197,21.973,-972.168,129.883,30.273,0
1582734948.201,23.438,-972.168,111.328,24.414,0
1582734948.205,21.484,-972.168,94.238,24.414,0
1582734948.209,17.578,-972.168,120.117,30.273,0
1582734948.212,25.879,-972.168,147.949,35.156,0
1582734948.216,34.180,-972.168,118.164,33.691,0
1582734948.220,21.484,-972.168,93.750,27.344,0
1582734948.224,18.555,-972.168,132.324,17.090,0
1582734948.228,24.414,-972.168,137.695,20.508,0
1582734948.230,23.438,-972.168,119.629,32.227,0
1582734948.234,33.203,-972.168,111.816,23.438,0
1582734948.238,30.273,-972.168,112.305,20.020,0
1582734948.242,22.461,-972.168,114.746,26.367,0
1582734948.246,30.273,-972.168,105.957,22.949,0
1582734948.250,39.062,-972.168,104.492,24.902,0
1582734948.254,31.738,-972.168,120.117,26.855,0
1582734948.257,27.832,-972.168,134.277,28.320,0
1582734948.261,33.203,-972.168,106.445,33.691,0
1582734948.265,27.344,-972.168,108.398,32.227,0
1582734948.269,21.484,-972.168,134.277,21.484,0
1582734948.273,22.949,-972.168,118.164,24.902,0
1582734948.275,23.926,-972.168,120.117,40.527,0
1582734948.279,25.391,-972.168,133.789,38.086,0
1582734948.283,30.762,-972.168,129.395,22.461,0
1582734948.287,35.645,-972.168,111.816,29.297,0
1582734948.291,34.180,-972.168,102.539,35.156,0
1582734948.295,37.109,-972.168,105.469,25.391,0
1582734948.299,25.879,-972.168,117.188,25.391,0
1582734948.302,17.578,-972.168,116.699,29.785,0
1582734948.306,32.227,-972.168,93.262,23.926,0
1582734948.310,33.203,-972.168,105.957,20.508,0
1582734948.314,17.578,-972.168,117.188,21.484,0
1582734948.318,3.906,-972.168,104.492,15.137,0
1582734948.320,8.301,-972.168,108.887,12.695,0
1582734948.324,25.391,-972.168,114.746,19.531,0
1582734948.328,33.203,-972.168,101.074,16.602,0
1582734948.332,29.297,-972.168,98.145,16.113,0
1582734948.336,15.137,-972.168,102.539,18.066,0
1582734948.340,7.324,-972.168,86.426,20.996,0
1582734948.344,17.090,-972.168,96.680,30.762,0
1582734948.347,20.020,-972.168,83.984,27.344,0
1582734948.351,19.043,-972.168,83.984,14.160,0
1582734948.355,21.484,-972.168,130.371,21.484,0
1582734948.359,22.461,-972.168,92.285,33.691,0
1582734948.363,19.043,-972.168,78.613,24.902,0
1582734948.365,12.207,-972.168,113.281,8.301,0
1582734948.369,0.977,-972.168,112.793,18.555,0
1582734948.373,2.441,-972.168,104.492,31.738,0
1582734948.377,23.438,-972.168,97.656,19.043,0
1582734948.381,22.461,-972.168,100.098,7.324,0
1582734948.385,9.766,-972.168,90.332,10.742,0
1582734948.389,2.441,-972.168,74.219,7.812,0
1582734948.392,13.184,-972.168,69.824,-2.930,0
1582734948.396,27.832,-972.168,97.656,-3.418,0
1582734948.400,23.438,-972.168,104.492,10.742,0
1582734948.404,12.695,-972.168,90.332,16.113,0
1582734948.408,11.230,-972.168,99.609,11.230,0
1582734948.410,19.043,-972.168,109.863,9.766,0
1582734948.414,18.066,-972.168,90.820,10.742,0
1582734948.418,24.414,-972.168,86.426,17.578,0
1582734948.422,30.762,-972.168,107.422,22.949,0
1582734948.426,22.461,-972.168,102.539,18.555,0
1582734948.430,23.438,-972.168,97.656,18.555,0
1582734948.434,21.484,-972.168,79.590,17.090,0
1582734948.437,6.348,-972.168,89.355,11.719,0
1582734948.441,4.883,-972.168,135.254,12.207,0
1582734948.445,16.113,-972.168,130.859,15.625,0
1582734948.449,21.973,-972.168,111.816,15.137,0
1582734948.453,27.832,-972.168,110.352,13.672,0
1582734948.455,32.715,-972.168,116.699,20.996,0
1582734948.459,34.180,-972.168,103.027,28.320,0
1582734948.463,34.668,-972.168,80.566,22.461,0
1582734948.467,29.785,-972.168,85.449,23.926,0
1582734948.471,27.832,-972.168,88.379,29.785,0
1582734948.475,33.203,-972.168,88.867,33.691,0
1582734948.479,43.457,-972.168,80.078,28.320,0
1582734948.482,41.504,-972.168,99.121,19.531,0
1582734948.486,35.156,-972.168,119.629,26.367,0
1582734948.490,35.156,-972.168,94.238,30.762,0
1582734948.494,32.715,-972.168,97.656,30.762,0
1582734948.498,39.062,-972.168,111.328,25.391,0
1582734948.515,45.410,-972.168,104.004,22.949,0
1582734948.519,38.086,-972.168,102.051,17.090,0
1582734948.523,27.832,-972.168,99.121,10.254,0
1582734948.527,32.715,-972.168,97.656,20.020,0
1582734948.531,48.340,-972.168,109.375,36.621,0
1582734948.535,42.969,-972.168,105.957,33.691,0
1582734948.539,25.879,-972.168,105.957,10.254,0
1582734948.542,23.926,-972.168,116.699,5.859,0
1582734948.546,27.832,-972.168,114.746,15.625,0
1582734948.550,20.508,-972.168,102.051,24.414,0
1582734948.554,14.160,-972.168,114.258,23.926,0
1582734948.558,19.043,-972.168,128.418,12.695,0
1582734948.560,10.254,-972.168,113.281,7.324,0
1582734948.564,6.836,-972.168,107.910,14.160,0
1582734948.568,14.648,-972.168,106.445,22.949,0
1582734948.572,11.719,-972.168,107.422,16.602,0
1582734948.576,17.578,-972.168,103.516,8.789,0
1582734948.580,22.461,-972.168,85.449,16.113,0
1582734948.584,20.020,-972.168,82.520,14.648,0
1582734948.587,23.438,-972.168,102.539,18.066,0
1582734948.591,38.086,-972.168,92.285,31.250,0
1582734948.595,34.180,-972.168,74.219,30.273,0
1582734948.599,23.926,-972.168,104.492,21.484,0
1582734948.603,28.320,-972.168,109.375,23.926,0
1582734948.605,30.762,-972.168,97.168,25.879,0
1582734948.609,37.109,-972.168,96.191,22.949,0
1582734948.613,38.574,-972.168,100.098,14.648,0
1582734948.617,37.109,-972.168,97.168,12.207,0
1582734948.621,29.785,-972.168,86.914,15.137,0
1582734948.625,21.484,-972.168,81.055,23.438,0
1582734948.629,20.020,-972.168,92.773,27.344,0
1582734948.632,17.578,-972.168,109.375,24.902,0
1582734948.636,11.230,-972.168,79.102,40.039,0
1582734948.640,7.812,-972.168,83.496,37.598,0
1582734948.644,14.648,-972.168,119.141,27.832,0
1582734948.648,20.996,-972.168,103.516,23.926,0
1582734948.650,20.508,-972.168,103.027,20.996,0
1582734948.654,28.320,-972.168,107.422,21.484,0
1582734948.658,29.297,-972.168,103.027,26.367,0
1582734948.662,24.414,-972.168,97.656,31.738,0
1582734948.666,21.484,-972.168,95.703,22.461,0
1582734948.670,16.602,-972.168,96.191,14.160,0
1582734948.674,14.648,-972.168,92.773,17.090,0
1582734948.677,15.625,-972.168,83.008,25.879,0
1582734948.681,21.973,-972.168,69.336,27.832,0
1582734948.685,18.066,-972.168,103.516,23.926,0
1582734948.689,15.625,-972.168,104.492,24.902,0
1582734948.693,29.785,-972.168,80.566,17.578,0
1582734948.695,42.480,-972.168,82.520,17.578,0
1582734948.699,31.738,-972.168,92.285,23.438,0
1582734948.703,20.996,-972.168,93.750,30.273,0
1582734948.707,20.996,-972.168,92.773,32.227,0
1582734948.711,15.625,-972.168,90.820,23.926,0
1582734948.715,23.926,-972.168,85.938,21.484,0
1582734948.719,28.320,-972.168,93.750,20.508,0
1582734948.722,16.113,-972.168,84.961,18.555,0
1582734948.726,10.254,-972.168,100.098,17.090,0
1582734948.730,10.254,-972.168,133.301,10.742,0
1582734948.734,13.184,-972.168,100.586,8.301,0
1582734948.738,17.578,-972.168,89.355,12.695,0
1582734948.740,24.902,-972.168,110.352,26.367,0
1582734948.744,26.855,-972.168,101.562,30.762,0
1582734948.748,20.996,-972.168,79.102,24.902,0
1582734948.752,23.438,-972.168,84.473,34.668,0
1582734948.756,29.785,-972.168,92.285,39.062,0
1582734948.760,27.832,-972.168,79.102,36.133,0
1582734948.764,24.414,-972.168,67.871,36.133,0
1582734948.767,31.250,-972.168,70.312,24.414,0
1582734948.771,36.133,-972.168,115.234,26.367,0
1582734948.775,28.320,-972.168,127.441,34.180,0
1582734948.779,26.367,-972.168,93.750,32.227,0
1582734948.783,21.484,-972.168,88.867,26.855,0
1582734948.785,16.602,-972.168,107.422,20.996,0
1582734948.789,22.461,-972.168,106.934,23.926,0
1582734948.793,20.996,-972.168,92.285,20.508,0
1582734948.797,18.555,-972.168,87.891,20.020,0
1582734948.801,23.926,-972.168,97.168,11.230,0
1582734948.805,33.203,-972.168,88.379,11.230,0
1582734948.809,39.551,-972.168,51.758,22.461,0
1582734948.812,32.715,-972.168,69.824,24.414,0
1582734948.816,34.180,-972.168,108.398,24.414,18021
1582734948.820,31.738,-972.168,94.238,23.926,0
1582734948.824,26.367,-972.168,83.496,17.578,0
1582734948.828,30.762,-972.168,81.543,9.277,0
1582734948.830,39.551,-972.168,92.773,17.578,0
1582734948.834,41.016,-972.168,87.891,31.738,0
1582734948.838,32.227,-972.168,75.195,21.973,0
1582734948.842,31.250,-972.168,102.051,21.484,0
1582734948.846,35.156,-972.168,99.121,27.344,0
1582734948.850,37.109,-972.168,68.848,21.484,0
1582734948.854,28.320,-972.168,65.430,17.578,0
1582734948.857,24.414,-972.168,104.492,10.742,0
1582734948.861,22.461,-972.168,107.910,10.254,0
1582734948.865,21.484,-972.168,84.961,21.973,0
1582734948.869,30.762,-972.168,88.867,23.926,0
1582734948.873,36.133,-972.168,102.539,23.438,0
1582734948.890,35.156,-972.168,97.656,24.902,0
1582734948.894,30.273,-972.168,71.777,20.020,0
1582734948.898,24.414,-972.168,82.031,19.531,0
1582734948.902,28.809,-971.680,100.098,21.973,0
1582734948.906,30.273,-972.168,80.078,13.184,0
1582734948.910,21.973,-972.168,63.965,9.277,0
1582734948.914,15.625,-972.168,78.125,21.973,0
1582734948.917,13.672,-972.168,102.051,24.902,0
1582734948.921,23.438,-972.168,99.121,17.578,0
1582734948.925,23.926,-972.168,64.941,11.719,0
1582734948.929,17.090,-972.168,76.172,18.555,0
1582734948.933,16.113,-972.168,95.215,25.391,0
1582734948.935,10.742,-972.168,80.566,25.879,0
1582734948.939,8.789,-972.168,68.359,21.484,0
1582734948.943,14.648,-972.168,76.172,18.555,0
1582734948.947,20.996,-972.168,78.125,24.414,0
1582734948.951,25.391,-972.168,66.406,30.762,0
1582734948.955,23.926,-972.168,63.477,25.879,0
1582734948.959,24.414,-972.168,65.918,16.113,0
1582734948.962,20.508,-972.168,86.426,18.066,0
1582734948.966,25.879,-972.168,66.406,17.090,0
1582734948.970,26.367,-972.168,50.781,15.625,0
1582734948.974,18.066,-972.168,90.332,20.996,0
1582734948.978,18.066,-971.680,83.008,17.090,0
1582734948.980,16.113,-972.168,64.453,15.137,0
1582734948.984,11.719,-972.168,83.984,24.414,0
1582734948.988,25.391,-972.168,96.191,28.809,0
1582734948.992,39.062,-972.168,88.867,34.668,0
1582734948.996,30.762,-972.168,77.148,30.762,0
1582734949.000,27.832,-972.168,63.477,25.879,0
1582734949.004,20.996,-972.168,74.219,21.484,0
1582734949.007,15.137,-972.168,90.820,20.508,0
1582734949.011,21.484,-972.168,56.641,21.973,0
1582734949.015,23.438,-972.168,66.895,19.531,0
1582734949.019,15.137,-972.168,107.910,28.320,0
1582734949.023,15.137,-972.168,84.961,34.180,0
1582734949.025,18.555,-972.168,77.148,29.785,0
1582734949.029,14.648,-972.168,94.727,25.879,0
1582734949.033,13.672,-972.168,93.262,20.996,0
1582734949.037,4.395,-972.168,74.707,22.461,0
1582734949.041,14.648,-972.168,73.730,26.855,0
1582734949.045,26.367,-972.168,63.965,16.602,0
1582734949.049,23.926,-972.168,74.707,13.672,0
1582734949.052,15.625,-972.168,76.660,16.602,0
1582734949.056,13.672,-972.168,56.152,4.883,0
1582734949.060,23.926,-972.168,91.797,0.977,0
1582734949.064,24.414,-972.168,83.008,12.207,0
1582734949.068,19.043,-972.168,72.754,21.484,0
1582734949.070,12.695,-972.168,75.684,9.277,0
1582734949.074,15.625,-972.168,95.215,10.254,0
1582734949.078,16.113,-972.168,94.238,23.438,0
1582734949.082,11.719,-972.168,75.684,19.531,0
1582734949.086,14.160,-972.168,73.242,20.508,0
1582734949.090,17.578,-972.168,66.895,23.926,0
1582734949.094,28.320,-972.168,87.891,31.250,0
1582734949.097,29.785,-972.168,72.266,20.508,0
1582734949.101,26.367,-972.168,62.500,10.254,0
1582734949.105,28.809,-972.168,101.074,20.020,0
1582734949.109,25.879,-972.168,93.750,26.855,0
1582734949.113,31.250,-972.168,83.984,25.391,0
1582734949.115,33.203,-972.168,85.449,12.695,0
1582734949.119,20.508,-972.168,90.332,12.695,0
1582734949.123,9.766,-972.168,89.355,28.320,0
1582734949.127,17.090,-972.168,76.172,25.879,0
1582734949.131,23.438,-972.168,77.148,14.160,0
1582734949.135,15.625,-972.168,68.359,15.625,0
1582734949.139,15.137,-972.168,64.941,20.996,0
1582734949.142,23.926,-972.168,71.777,16.113,0
1582734949.146,26.855,-972.168,99.121,14.160,0
1582734949.150,27.832,-972.168,96.680,30.762,0
1582734949.154,30.273,-972.168,72.266,30.273,0
1582734949.158,38.086,-972.168,71.777,21.484,0
1582734949.160,39.062,-972.168,77.637,23.926,0
1582734949.164,28.320,-972.168,76.172,22.949,0
1582734949.168,19.043,-972.168,60.547,21.484,0
1582734949.172,31.250,-972.168,54.688,19.043,0
1582734949.176,43.457,-972.168,62.500,21.973,0
1582734949.180,35.645,-972.168,63.965,25.391,0
1582734949.184,22.949,-972.168,41.016,20.996,0
1582734949.187,22.461,-972.168,47.852,20.020,0
1582734949.191,22.949,-972.168,92.285,26.855,0
1582734949.195,28.809,-972.168,79.590,21.973,0
1582734949.199,33.203,-972.168,51.270,18.555,0
1582734949.203,21.973,-972.168,62.500,26.855,0
1582734949.220,19.043,-972.168,75.684,26.855,0
1582734949.224,20.508,-972.168,56.152,24.902,0
1582734949.228,23.438,-972.168,51.758,26.367,0
1582734949.232,23.438,-972.168,72.754,32.227,0
1582734949.236,20.508,-972.168,74.219,39.551,0
1582734949.240,22.461,-972.168,52.734,39.062,0
1582734949.244,26.367,-972.168,46.387,33.203,0
1582734949.247,31.250,-972.168,64.453,23.438,0
1582734949.251,24.902,-972.168,92.773,21.973,0
1582734949.255,15.625,-972.168,84.473,20.020,0
1582734949.259,27.344,-972.168,77.637,15.625,0
1582734949.263,32.715,-972.168,88.379,13.672,0
1582734949.265,4.883,-972.168,83.984,23.438,0
1582734949.269,4.395,-972.168,73.242,28.809,0
1582734949.273,22.461,-972.168,76.172,15.625,0
1582734949.277,22.949,-972.168,82.031,9.766,0
1582734949.281,25.391,-972.168,72.754,20.508,0
1582734949.285,27.344,-972.168,71.777,30.762,0
1582734949.289,26.855,-972.168,72.754,20.996,0
1582734949.292,25.391,-972.168,76.172,10.742,0
1582734949.296,25.391,-972.168,96.680,13.184,0
1582734949.300,36.133,-972.168,70.312,16.602,0
1582734949.304,30.762,-972.168,72.266,17.578,0
1582734949.308,20.508,-972.168,104.492,14.648,0
1582734949.310,19.043,-972.168,89.355,10.254,0
1582734949.314,18.555,-972.168,73.242,5.859,0
1582734949.318,26.367,-972.168,88.379,9.766,0
1582734949.322,27.832,-972.168,101.074,20.020,0
1582734949.326,15.625,-972.168,83.008,16.602,0
1582734949.330,16.602,-972.168,62.988,11.719,0
1582734949.334,26.367,-972.168,76.660,10.742,0
1582734949.337,25.879,-972.168,96.191,10.254,0
1582734949.341,22.949,-972.168,72.754,21.973,0
1582734949.345,18.555,-972.168,62.012,24.902,0
1582734949.349,26.367,-972.168,101.562,23.438,0
1582734949.353,36.133,-972.168,93.750,26.367,0
1582734949.355,34.180,-972.168,58.105,35.645,0
1582734949.359,27.832,-972.168,60.059,42.969,0
1582734949.363,30.762,-972.168,83.984,43.945,0
1582734949.367,31.250,-972.168,72.754,31.738,0
1582734949.371,27.832,-972.168,63.965,20.020,0
1582734949.375,33.691,-972.168,55.176,31.250,0
1582734949.379,32.227,-972.168,63.965,39.062,0
1582734949.382,34.180,-972.168,81.543,34.668,0
1582734949.386,37.598,-972.168,43.457,39.551,0
1582734949.390,29.297,-972.168,46.387,44.434,0
1582734949.394,31.738,-972.168,93.262,37.109,0
1582734949.398,44.922,-972.168,75.195,44.434,0
1582734949.400,43.457,-972.168,69.824,57.129,0
1582734949.404,32.715,-972.168,85.938,48.340,0
1582734949.408,41.504,-972.168,78.613,40.039,0
1582734949.412,44.922,-972.168,64.941,37.598,0
1582734949.416,33.691,-972.168,56.641,30.762,0
1582734949.420,41.016,-972.168,60.059,29.297,0
1582734949.424,46.387,-972.168,71.289,30.762,0
1582734949.427,40.527,-972.168,66.406,32.715,0
1582734949.431,36.621,-972.168,62.012,35.645,0
1582734949.435,34.180,-972.168,106.445,35.645,0
1582734949.439,27.832,-972.168,111.328,37.109,0
1582734949.443,17.090,-972.168,79.590,44.922,0
1582734949.445,21.973,-972.168,79.102,46.387,0
1582734949.449,24.902,-972.168,92.285,29.785,0
1582734949.453,8.789,-972.168,93.750,20.508,0
1582734949.457,10.254,-972.168,84.473,24.414,0
1582734949.461,16.602,-972.168,85.449,23.438,0
1582734949.465,16.602,-972.168,78.613,18.066,0
1582734949.469,20.996,-972.168,60.547,22.949,0
1582734949.472,24.414,-972.168,39.551,22.949,0
1582734949.476,25.879,-972.168,58.594,21.484,0
1582734949.480,25.879,-972.168,106.445,22.949,0
1582734949.484,21.484,-972.168,93.750,19.043,0
1582734949.488,28.320,-972.168,82.031,29.297,0
1582734949.490,31.250,-972.168,89.844,27.344,0
1582734949.494,19.043,-972.168,91.309,18.066,0
1582734949.498,14.160,-972.168,92.285,23.926,0
1582734949.502,30.762,-972.168,86.426,19.043,0
1582734949.506,27.832,-972.168,84.961,8.301,0
1582734949.510,20.508,-972.168,77.148,6.348,0
1582734949.514,13.672,-972.168,57.129,9.277,0
1582734949.517,4.395,-972.168,65.430,10.742,0
1582734949.521,9.766,-972.168,117.188,13.184,0
1582734949.525,25.879,-972.168,112.793,15.625,0
1582734949.529,20.020,-972.168,86.426,6.836,0
1582734949.533,10.742,-972.168,95.215,4.395,0
1582734949.535,20.508,-972.168,107.910,17.578,0
1582734949.539,22.949,-972.168,102.051,20.020,0
1582734949.543,16.602,-972.168,84.961,11.719,0
1582734949.547,10.742,-972.168,87.891,12.207,0
1582734949.551,11.230,-972.168,94.727,10.742,0
1582734949.555,9.766,-972.168,73.730,13.672,0
1582734949.559,19.043,-972.168,48.340,26.367,0
1582734949.562,20.508,-972.168,73.730,17.090,0
1582734949.566,12.207,-972.168,105.469,3.906,0
1582734949.570,5.859,-972.168,93.262,16.113,0
1582734949.574,-0.488,-972.168,87.402,24.414,0
1582734949.578,5.371,-972.168,95.703,11.719,0
1582734949.580,4.883,-972.168,81.055,10.254,0
1582734949.584,-0.977,-972.168,60.547,17.578,0
1582734949.588,7.812,-972.168,75.195,22.949,0
1582734949.592,11.230,-972.168,87.402,17.090,0
1582734949.596,8.301,-972.168,79.590,1.465,0
1582734949.600,7.812,-972.168,54.199,3.906,0
1582734949.604,11.719,-972.168,47.363,9.277,0
1582734949.607,23.438,-972.168,83.008,8.789,0
1582734949.611,20.020,-972.168,92.285,11.230,0
1582734949.615,20.996,-972.168,75.684,14.160,0
1582734949.619,27.344,-972.168,75.684,24.902,0
1582734949.623,32.715,-972.168,82.520,31.250,0
1582734949.640,35.156,-972.168,86.914,28.809,0
1582734949.644,28.809,-972.168,86.914,33.203,0
1582734949.648,22.949,-972.168,82.031,38.086,0
1582734949.652,20.020,-972.168,71.289,31.738,0
1582734949.656,25.391,-972.168,69.336,22.461,0
1582734949.660,36.621,-972.168,72.754,20.020,0
1582734949.664,31.738,-972.168,79.102,17.578,0
1582734949.667,24.414,-972.168,91.797,19.531,0
1582734949.671,31.738,-972.168,89.355,26.367,0
1582734949.675,33.691,-972.168,76.172,25.391,0
1582734949.679,32.227,-972.168,81.055,22.949,0
1582734949.683,31.738,-972.168,95.703,25.391,0
1582734949.685,31.738,-972.168,87.891,33.691,0
1582734949.689,33.203,-972.168,75.684,33.203,0
1582734949.693,29.297,-972.168,82.031,30.762,0
1582734949.697,27.344,-972.168,83.984,41.992,0
1582734949.701,36.621,-972.168,75.195,51.758,0
1582734949.705,33.691,-972.168,67.871,43.945,0
1582734949.709,24.902,-972.168,56.641,33.203,0
1582734949.712,27.344,-972.168,77.148,35.156,0
1582734949.716,31.738,-972.168,81.055,42.969,0
1582734949.720,30.273,-972.168,62.988,38.086,0
1582734949.724,16.113,-972.168,97.656,31.738,0
1582734949.728,18.555,-972.168,101.074,38.086,0
1582734949.730,33.691,-972.168,70.801,37.109,0
1582734949.734,31.738,-972.168,66.895,24.902,0
1582734949.738,22.461,-972.168,80.566,16.602,0
1582734949.742,19.043,-972.168,81.055,18.066,0
1582734949.746,26.855,-972.168,71.289,21.973,0
1582734949.750,28.809,-972.168,61.523,19.531,0
1582734949.754,13.184,-972.168,70.801,19.043,0
1582734949.757,10.742,-972.168,91.309,15.625,0
1582734949.761,20.020,-972.168,55.664,15.625,0
1582734949.765,20.020,-972.168,43.457,19.043,0
1582734949.769,21.484,-972.168,93.262,16.113,0
1582734949.773,23.926,-972.168,88.867,13.672,0
1582734949.775,23.438,-972.168,78.613,20.996,0
1582734949.779,25.391,-972.168,94.238,27.832,0
1582734949.783,32.715,-972.168,86.426,23.438,0
1582734949.787,36.621,-972.168,67.383,20.996,0
1582734949.791,29.297,-972.168,67.871,27.832,0
1582734949.795,28.809,-972.168,73.730,28.809,0
1582734949.799,33.203,-972.168,70.801,24.902,0
1582734949.802,25.391,-972.168,64.941,21.973,0
1582734949.806,22.949,-972.168,48.828,21.484,0
1582734949.810,32.715,-972.168,87.891,33.203,0
1582734949.814,32.227,-972.168,101.562,41.016,0
1582734949.818,23.926,-972.168,64.453,36.133,0
1582734949.820,31.250,-972.168,52.734,28.320,0
1582734949.824,36.621,-972.168,85.938,24.414,0
1582734949.828,27.832,-972.168,93.750,23.438,0
1582734949.832,9.766,-972.168,73.730,21.973,0
1582734949.836,12.207,-972.168,68.359,17.090,0
1582734949.840,25.879,-972.168,51.270,9.766,0
1582734949.844,28.320,-972.168,60.547,18.066,0
1582734949.847,29.785,-972.168,53.711,23.926,0
1582734949.851,30.273,-972.168,67.383,24.902,0
1582734949.855,28.320,-972.168,104.004,34.180,0
1582734949.859,32.227,-972.168,82.520,31.738,0
1582734949.863,35.156,-972.168,69.824,34.180,28500
1582734949.865,28.320,-972.168,87.402,33.691,0
1582734949.869,26.367,-972.168,91.797,25.391,0
1582734949.873,26.855,-972.168,75.684,25.879,0
1582734949.877,23.926,-972.168,58.105,31.250,0
1582734949.881,19.531,-972.168,68.848,28.809,0
1582734949.885,20.020,-972.168,72.754,21.973,0
1582734949.889,16.602,-972.168,57.129,26.855,0
1582734949.892,14.160,-972.168,69.336,39.062,0
1582734949.896,17.090,-972.168,97.656,28.320,0
1582734949.900,17.090,-972.168,95.703,12.695,0
1582734949.904,19.531,-972.168,80.566,16.113,0
1582734949.908,18.555,-972.168,76.660,22.461,0
1582734949.910,22.949,-972.168,83.496,21.973,0
1582734949.914,20.996,-972.168,89.355,20.996,0
1582734949.918,17.090,-972.168,74.707,22.461,0
1582734949.922,23.926,-972.168,69.336,20.996,0
1582734949.926,24.414,-972.168,76.660,21.973,0
1582734949.930,18.555,-972.168,66.406,21.973,0
1582734949.934,15.137,-972.168,39.062,24.414,0
1582734949.937,16.113,-972.168,62.012,23.926,0
1582734949.941,25.391,-972.168,104.004,17.090,0
1582734949.945,31.738,-972.168,81.055,23.926,0
1582734949.949,31.738,-972.168,71.289,28.320,0
1582734949.953,24.902,-972.168,88.379,20.508,0
1582734949.955,20.020,-972.168,96.191,19.531,0
1582734949.959,24.414,-972.168,80.078,20.020,0
1582734949.963,21.484,-972.168,71.289,21.973,0
1582734949.967,18.066,-972.168,89.844,22.949,0
1582734949.971,19.531,-972.168,93.262,18.555,0
1582734949.975,28.809,-972.168,72.266,23.438,0
1582734949.979,22.461,-972.168,68.359,22.461,0
1582734949.982,22.949,-972.168,96.191,13.672,0
1582734949.986,38.574,-972.168,118.164,23.438,0
1582734949.990,34.668,-972.168,113.770,25.391,0
1582734949.994,30.762,-972.168,93.750,17.578,0
1582734949.998,30.762,-972.168,115.234,20.996,0
1582734950.015,28.320,-972.168,123.047,26.367,0
1582734950.019,28.809,-972.168,102.539,30.273,0
1582734950.023,33.203,-972.168,107.422,21.484,0
1582734950.027,31.738,-972.168,117.676,13.184,0
1582734950.031,26.855,-972.168,95.703,25.391,0
1582734950.035,33.203,-972.168,73.730,30.762,0
1582734950.039,33.203,-972.168,93.750,21.484,0
1582734950.042,25.391,-972.168,117.188,15.625,0
1582734950.046,22.461,-972.168,112.305,21.484,0
1582734950.050,20.020,-972.168,102.051,28.320,0
1582734950.054,27.344,-972.168,113.281,26.855,0
1582734950.058,28.809,-972.168,114.258,20.996,0
1582734950.060,29.785,-972.168,99.121,22.461,0
1582734950.064,40.527,-972.168,103.516,21.484,0
1582734950.068,43.945,-972.168,114.258,23.438,0
1582734950.072,26.855,-972.168,125.977,24.902,0
1582734950.076,18.066,-972.168,124.512,19.043,0
1582734950.080,25.879,-972.168,101.074,23.438,0
1582734950.084,26.855,-972.168,107.910,31.738,0
1582734950.087,26.855,-972.168,125.000,25.391,0
1582734950.091,27.832,-972.168,102.539,16.602,0
1582734950.095,24.902,-972.168,89.355,15.625,0
1582734950.099,28.809,-972.168,132.812,25.879,0
1582734950.103,27.344,-972.168,137.207,29.785,0
1582734950.105,22.461,-972.168,110.840,30.762,0
1582734950.109,26.855,-972.168,111.816,31.738,0
1582734950.113,35.156,-972.168,125.488,20.020,0
1582734950.117,37.109,-972.168,114.258,23.438,0
1582734950.121,29.297,-972.168,100.098,30.273,0
1582734950.125,25.879,-972.168,98.145,29.785,0
1582734950.129,26.367,-972.168,108.887,32.715,0
1582734950.132,31.738,-972.168,118.652,34.180,0
1582734950.136,31.250,-972.168,81.543,33.691,0
1582734950.140,30.273,-972.168,76.172,37.109,0
1582734950.144,25.879,-972.168,119.141,40.039,0
1582734950.148,23.438,-972.168,109.863,31.250,0
1582734950.150,32.715,-972.168,101.562,34.180,0
1582734950.154,36.621,-972.168,112.305,34.668,0
1582734950.158,31.738,-972.168,104.004,27.344,0
1582734950.162,33.691,-972.168,102.539,28.809,0
1582734950.166,35.645,-972.168,98.633,32.715,0
1582734950.170,34.180,-972.168,93.750,36.133,0
1582734950.174,36.621,-972.168,95.215,46.387,0
1582734950.177,36.621,-972.168,91.309,43.457,0
1582734950.181,40.527,-972.168,93.750,38.086,0
1582734950.185,32.715,-972.168,125.488,27.832,0
1582734950.189,20.020,-972.168,127.441,26.367,0
1582734950.193,20.508,-972.168,99.121,28.320,0
1582734950.195,20.996,-972.168,86.426,35.156,0
1582734950.199,19.043,-972.168,100.098,32.715,0
1582734950.203,27.832,-972.168,96.191,24.414,0
1582734950.207,27.344,-972.168,86.426,31.738,0
1582734950.211,21.973,-972.168,83.496,30.273,0
1582734950.215,27.344,-972.168,66.895,23.926,0
1582734950.219,35.645,-972.168,82.031,22.461,0
1582734950.222,35.156,-972.168,66.406,30.762,0
1582734950.226,31.738,-972.168,67.383,33.691,0
1582734950.230,31.738,-972.168,102.051,34.180,0
1582734950.234,28.320,-972.168,105.957,39.062,0
1582734950.238,22.461,-972.168,101.074,38.086,0
1582734950.240,27.832,-972.168,96.191,38.574,0
1582734950.244,45.410,-972.168,101.562,42.480,0
1582734950.248,43.945,-972.168,83.984,40.039,0
1582734950.252,43.457,-972.168,73.242,41.504,0
1582734950.256,49.805,-972.168,93.750,37.598,0
1582734950.260,42.480,-972.168,85.938,34.180,0
1582734950.264,35.645,-972.168,68.359,36.621,0
1582734950.267,25.391,-972.168,84.961,41.016,0
1582734950.271,12.695,-972.168,122.070,42.969,0
1582734950.275,19.531,-972.168,117.188,41.504,0
1582734950.279,24.414,-972.168,100.586,39.062,0
1582734950.283,20.996,-972.168,104.492,32.227,0
1582734950.285,23.926,-972.168,105.957,25.391,0
1582734950.289,21.484,-972.168,102.539,24.902,0
1582734950.293,27.832,-972.168,97.168,32.227,0
1582734950.297,24.414,-972.168,95.215,32.715,0
1582734950.301,16.113,-972.168,114.746,33.203,0
1582734950.305,24.414,-972.168,108.398,38.574,0
1582734950.309,24.902,-972.168,82.520,33.691,0
1582734950.312,17.578,-972.168,101.074,21.973,0
1582734950.316,26.367,-972.168,129.883,30.273,0
1582734950.320,34.180,-972.168,119.141,34.668,0
1582734950.324,30.762,-972.168,107.910,25.879,0
1582734950.328,17.578,-972.168,96.680,22.949,0
1582734950.330,13.672,-972.168,106.934,26.367,0
1582734950.334,22.461,-972.168,106.445,25.879,0
1582734950.338,24.902,-972.168,98.633,21.973,0
1582734950.342,25.391,-972.168,100.098,16.113,0
1582734950.346,21.484,-972.168,107.422,13.184,0
1582734950.350,25.879,-972.168,83.008,24.414,0
1582734950.354,35.156,-972.168,73.242,32.227,0
1582734950.357,31.738,-972.168,123.047,24.414,0
1582734950.361,22.461,-972.168,134.277,15.137,0
1582734950.365,22.949,-972.168,109.375,28.320,0
1582734950.369,24.902,-972.168,99.609,28.320,0
1582734950.373,18.555,-972.168,114.746,15.137,0
1582734950.390,16.113,-972.168,108.398,20.508,0
1582734950.394,19.531,-972.168,80.566,32.715,0
1582734950.398,20.020,-972.168,87.402,29.297,0
1582734950.402,27.344,-972.168,109.375,20.508,0
1582734950.406,33.203,-972.168,100.586,20.996,0
1582734950.410,26.855,-972.168,75.684,26.855,0
1582734950.414,19.043,-972.168,71.289,30.762,0
1582734950.417,14.648,-972.168,92.773,30.762,0
1582734950.421,22.949,-972.168,113.281,27.344,0
1582734950.425,35.645,-972.168,84.961,28.320,0
1582734950.429,26.855,-972.168,100.098,29.785,0
1582734950.433,18.555,-972.168,120.605,22.949,0
1582734950.435,30.762,-972.168,101.562,21.484,0
1582734950.439,36.133,-972.168,85.449,23.438,0
1582734950.443,24.902,-972.168,87.891,22.949,0
1582734950.447,18.555,-972.168,100.586,18.066,0
1582734950.451,23.926,-972.168,89.844,20.996,0
1582734950.455,25.879,-972.168,56.152,26.855,0
1582734950.459,16.113,-972.168,72.266,24.902,0
1582734950.462,19.043,-972.168,104.004,15.625,0
1582734950.466,31.250,-972.168,77.148,18.555,0
1582734950.470,31.250,-972.168,59.082,14.648,0
1582734950.474,27.344,-972.168,91.797,11.230,0
1582734950.478,17.578,-972.168,98.145,20.996,0
1582734950.480,23.438,-972.168,92.773,25.391,0
1582734950.484,38.574,-972.168,91.797,27.344,0
1582734950.488,32.715,-972.168,102.051,25.879,0
1582734950.492,31.738,-972.168,96.191,25.879,0
1582734950.496,32.715,-972.168,79.590,30.273,0
1582734950.500,31.250,-972.168,69.824,26.855,0
1582734950.504,27.344,-972.168,81.055,13.184,0
1582734950.507,25.391,-972.168,100.098,7.812,0
1582734950.511,29.785,-972.168,70.312,16.113,0
1582734950.515,20.508,-972.168,77.148,22.949,0
1582734950.519,15.625,-972.168,112.305,17.578,0
1582734950.523,16.113,-972.168,95.703,17.578,0
1582734950.525,12.207,-972.168,86.914,21.973,0
1582734950.529,20.020,-972.168,96.680,27.344,0
1582734950.533,30.273,-972.168,94.238,23.926,0
1582734950.537,29.785,-972.168,82.031,22.949,0
1582734950.541,22.949,-972.168,64.453,25.391,0
1582734950.545,24.414,-972.168,70.312,24.902,0
1582734950.549,33.691,-972.168,106.934,32.227,0
1582734950.552,34.668,-972.168,96.680,37.598,0
1582734950.556,25.391,-972.168,84.961,36.133,0
1582734950.560,26.855,-972.168,131.836,26.855,0
1582734950.564,40.039,-972.168,126.953,26.855,0
1582734950.568,38.574,-972.168,101.562,28.809,0
1582734950.570,33.691,-972.168,104.492,22.949,0
1582734950.574,31.738,-972.168,106.445,25.391,0
1582734950.578,31.250,-972.168,95.215,27.344,0
1582734950.582,36.133,-972.168,100.098,27.344,0
1582734950.586,33.203,-972.168,104.980,25.879,0
1582734950.590,24.414,-972.168,87.402,28.809,0
1582734950.594,24.902,-972.168,106.934,36.133,0
1582734950.597,31.738,-972.168,96.680,32.227,0
1582734950.601,28.320,-972.168,83.496,31.738,0
1582734950.605,31.738,-972.168,123.047,42.480,0
1582734950.609,35.156,-972.168,108.887,35.645,0
1582734950.613,30.762,-972.168,92.773,21.484,0
1582734950.615,25.391,-972.168,87.402,20.020,0
1582734950.619,17.578,-972.168,92.285,24.902,0
1582734950.623,15.137,-972.168,88.867,28.320,0
1582734950.627,21.484,-972.168,83.496,27.344,0
1582734950.631,23.438,-972.168,95.215,27.344,0
1582734950.635,17.578,-972.168,79.102,27.344,0
1582734950.639,20.020,-972.168,60.547,29.785,0
1582734950.642,24.414,-972.168,68.848,29.785,0
1582734950.646,22.949,-972.168,113.770,30.273,0
1582734950.650,26.367,-972.168,111.816,25.879,0
1582734950.654,29.785,-972.168,90.332,20.508,0
1582734950.658,32.715,-972.168,96.680,35.156,0
1582734950.660,27.832,-972.168,98.145,36.133,0
1582734950.664,10.254,-972.168,86.914,16.113,0
1582734950.668,13.184,-972.168,89.844,21.484,0
1582734950.672,5.859,-972.168,101.562,23.438,0
1582734950.676,-3.418,-972.168,98.145,6.348,0
1582734950.680,-10.742,-972.168,85.938,-14.648,0
1582734950.684,-30.762,-972.168,59.082,-29.785,0
1582734950.687,-47.852,-972.168,78.125,-43.945,0
1582734950.691,-72.266,-972.168,122.070,-61.035,0
1582734950.695,-90.820,-972.168,113.770,-76.660,0
1582734950.699,-121.582,-972.168,113.770,-109.375,0
1582734950.703,-167.969,-972.168,120.605,-155.273,0
1582734950.720,-200.684,-972.168,132.812,-188.965,0
1582734950.724,-229.004,-972.168,117.676,-228.516,0
1582734950.728,-264.648,-972.168,116.211,-267.578,0
1582734950.732,-281.738,-972.168,141.113,-279.785,0
1582734950.736,-282.227,-972.168,149.414,-285.645,0
1582734950.740,-283.203,-972.168,134.766,-285.156,0
1582734950.744,-278.320,-972.168,133.301,-284.180,0
1582734950.747,-258.301,-972.168,180.176,-273.926,0
1582734950.751,-236.816,-972.168,184.082,-248.535,0
1582734950.755,-212.402,-972.168,155.273,-225.098,0
1582734950.759,-188.477,-972.168,139.160,-202.637,0
1582734950.763,-160.156,-972.168,138.672,-176.270,0
1582734950.765,-114.258,-972.168,133.789,-145.996,0
1582734950.769,-89.355,-972.168,124.512,-122.070,0
1582734950.773,-73.730,-972.168,122.559,-100.098,0
1582734950.777,-42.969,-972.168,121.582,-69.824,0
1582734950.781,-19.043,-972.168,114.258,-45.410,0
1582734950.785,2.441,-972.168,92.285,-20.508,0
1582734950.789,31.738,-972.168,78.613,3.906,0
1582734950.792,52.246,-972.168,92.285,27.344,0
1582734950.796,52.246,-972.168,101.562,43.457,0
1582734950.800,70.801,-972.168,64.453,57.617,0
1582734950.804,87.891,-972.168,56.152,62.988,0
1582734950.808,93.750,-972.168,90.820,73.242,0
1582734950.810,105.469,-972.168,87.402,92.773,0
1582734950.814,114.258,-972.168,71.289,107.422,0
1582734950.818,124.512,-972.168,64.453,113.770,0
1582734950.822,124.023,-972.168,69.336,115.723,0
1582734950.826,123.535,-972.168,61.035,128.418,0
1582734950.830,141.113,-972.168,40.039,133.789,0
1582734950.834,149.902,-972.168,38.086,136.230,0
1582734950.837,140.625,-972.168,66.895,141.113,0
1582734950.841,133.789,-972.168,36.133,134.277,0
1582734950.845,129.883,-972.168,15.625,129.395,0
1582734950.849,122.070,-972.168,72.754,135.742,0
1582734950.853,123.535,-972.168,55.664,134.766,0
1582734950.855,129.883,-972.168,34.668,127.441,0
1582734950.859,135.742,-972.168,60.059,127.930,0
1582734950.863,127.441,-972.168,62.988,131.836,0
1582734950.867,125.488,-972.168,52.246,134.766,0
1582734950.871,135.254,-972.168,33.203,131.836,0
1582734950.875,132.812,-972.168,19.531,121.094,0
1582734950.879,127.441,-972.168,32.715,126.465,0
1582734950.882,128.418,-972.168,37.598,132.324,0
1582734950.886,124.023,-972.168,6.348,128.906,0
1582734950.890,123.047,-972.168,25.879,126.465,0
1582734950.894,129.395,-972.168,64.941,122.559,0
1582734950.898,128.906,-972.168,38.574,127.441,0
1582734950.900,124.023,-972.168,29.785,120.605,0
1582734950.904,117.188,-972.168,45.410,113.281,0
1582734950.908,107.910,-972.168,62.012,111.816,0
1582734950.912,104.004,-972.168,53.223,110.352,0
1582734950.916,101.562,-972.168,43.457,107.910,0
1582734950.920,94.727,-972.168,41.992,98.633,0
1582734950.924,88.867,-972.168,57.617,102.539,0
1582734950.927,83.496,-972.168,65.918,103.027,0
1582734950.931,85.938,-972.168,45.410,96.191,0
1582734950.935,79.102,-972.168,68.848,88.379,0
1582734950.939,76.172,-972.168,89.844,82.031,0
1582734950.943,80.078,-972.168,67.383,80.566,0
1582734950.960,75.195,-972.168,65.430,77.637,0
1582734950.964,75.195,-972.168,76.660,73.730,0
1582734950.968,74.707,-972.168,66.895,72.266,0
1582734950.972,71.777,-972.168,52.246,67.383,0
1582734950.976,75.195,-972.168,43.945,68.848,0
1582734950.980,71.289,-972.168,40.039,71.777,0
1582734950.984,67.383,-972.168,63.477,65.430,0
1582734950.987,58.105,-972.168,54.688,60.059,0
1582734950.991,63.477,-972.168,42.480,61.035,0
1582734950.995,69.336,-972.168,74.707,59.082,0
1582734950.999,58.594,-972.168,66.406,55.176,0
1582734951.003,55.176,-972.168,58.105,55.664,27038
1582734950.990,57.617,-972.168,55.664,58.105,0
1582734950.994,61.035,-972.168,70.801,60.547,0
1582734950.998,59.082,-972.168,60.547,46.875,0
1582734951.002,54.199,-972.168,50.781,49.316,0
1582734951.006,52.246,-972.168,74.219,54.688,0
1582734951.010,59.082,-972.168,59.082,44.922,0
1582734951.014,62.500,-972.168,45.410,46.875,0
1582734951.017,52.246,-972.168,60.547,47.363,0
1582734951.021,49.805,-972.168,80.078,44.434,0
1582734951.025,50.781,-972.168,83.984,44.434,0
1582734951.029,45.410,-972.168,52.246,40.527,0
1582734951.033,41.504,-972.168,40.527,30.762,0
1582734951.035,38.086,-972.168,79.590,29.297,0
1582734951.039,35.156,-972.168,84.473,33.203,0
1582734951.043,35.645,-972.168,67.871,30.762,0
1582734951.047,30.762,-972.168,64.941,28.320,0
1582734951.051,22.461,-972.168,79.590,26.367,0
1582734951.055,18.555,-972.168,65.918,30.762,0
1582734951.059,20.508,-972.168,34.668,31.738,0
1582734951.062,27.832,-972.168,55.664,20.996,0
1582734951.066,26.855,-972.168,104.492,21.484,0
1582734951.070,26.855,-972.168,91.797,27.832,0
1582734951.074,29.785,-972.168,77.637,26.367,0
1582734951.078,32.715,-972.168,74.707,29.785,0
1582734951.080,30.762,-972.168,78.125,33.203,0
1582734951.084,29.785,-972.168,71.289,35.156,0
1582734951.088,44.922,-972.168,62.988,36.133,0
1582734951.092,47.852,-972.168,80.078,29.297,0
1582734951.096,40.527,-972.168,65.430,24.414,0
1582734951.100,38.086,-972.168,42.969,28.320,0
1582734951.104,32.227,-972.168,48.828,28.809,0
1582734951.107,22.949,-972.168,64.941,32.227,0
1582734951.111,11.230,-972.168,81.055,32.227,0
1582734951.115,8.301,-972.168,59.570,27.832,0
1582734951.119,11.719,-972.168,59.570,28.809,0
1582734951.123,21.484,-972.168,93.262,27.832,0
1582734951.140,26.367,-972.168,81.055,22.461,0
1582734951.144,28.320,-972.168,62.988,22.949,0
1582734951.148,35.156,-972.168,61.523,25.879,0
1582734951.152,38.086,-972.168,73.242,26.367,0
1582734951.156,35.156,-972.168,74.219,21.973,0
1582734951.160,30.762,-972.168,61.035,19.043,0
1582734951.164,25.879,-972.168,64.453,20.996,0
1582734951.167,24.414,-972.168,85.938,23.926,0
1582734951.171,22.461,-972.168,80.078,20.996,0
1582734951.175,20.508,-972.168,52.246,22.461,0
1582734951.179,20.508,-972.168,68.848,27.344,0
1582734951.183,23.438,-972.168,103.516,29.785,0
1582734951.185,26.855,-972.168,85.449,30.762,0
1582734951.189,26.855,-972.168,60.547,33.691,0
1582734951.193,26.367,-972.168,73.730,28.320,0
1582734951.197,21.484,-972.168,90.332,25.391,0
1582734951.201,25.391,-972.168,73.242,20.508,0
1582734951.205,28.320,-972.168,40.039,10.742,0
1582734951.209,21.484,-972.168,57.129,6.348,0
1582734951.212,20.508,-972.168,90.820,11.719,0
1582734951.216,25.879,-972.168,67.383,14.160,0
1582734951.220,22.949,-972.168,42.969,5.859,0
1582734951.224,11.230,-972.168,91.797,3.418,0
1582734951.228,15.625,-972.168,85.449,1.465,0
1582734951.230,21.973,-972.168,51.270,10.254,0
1582734951.234,19.043,-972.168,73.242,16.113,0
1582734951.238,19.043,-972.168,86.914,11.230,0
1582734951.242,24.902,-972.168,82.031,14.648,0
1582734951.246,21.973,-972.168,73.242,13.184,0
1582734951.250,21.973,-972.168,65.918,13.184,0
1582734951.254,29.297,-972.168,60.547,12.695,0
1582734951.257,24.902,-972.168,80.566,12.207,0
1582734951.261,25.391,-972.168,55.176,15.625,0
1582734951.265,28.320,-972.168,60.059,14.160,0
1582734951.269,27.344,-972.168,98.633,16.113,0
1582734951.273,27.344,-972.168,86.914,16.602,0
1582734951.275,28.320,-972.168,73.730,13.672,0
1582734951.279,32.715,-972.168,72.754,12.207,0
1582734951.283,36.133,-972.168,65.430,16.602,0
1582734951.287,29.785,-972.168,56.641,16.113,0
1582734951.291,28.809,-972.168,80.566,10.742,0
1582734951.295,34.180,-972.168,80.566,14.648,0
1582734951.299,36.621,-972.168,86.426,19.043,0
1582734951.302,30.762,-972.168,75.684,14.160,0
1582734951.306,28.320,-972.168,58.105,9.766,0
1582734951.310,29.297,-972.168,98.633,12.695,0
1582734951.314,26.367,-972.168,87.402,13.184,0
1582734951.318,26.367,-972.168,51.270,13.184,0
1582734951.320,25.391,-972.168,60.059,19.043,0
1582734951.324,30.762,-972.168,77.637,17.578,0
1582734951.328,35.645,-972.168,76.172,18.555,0
1582734951.332,34.180,-972.168,62.500,23.438,0
1582734951.336,33.203,-972.168,60.059,19.531,0
1582734951.340,33.691,-972.168,52.246,21.973,0
1582734951.344,33.203,-972.168,63.965,27.832,0
1582734951.347,36.621,-972.168,48.828,19.531,0
1582734951.351,45.410,-972.168,45.898,14.648,0
1582734951.355,39.551,-972.168,98.145,25.391,0
1582734951.359,28.809,-972.168,74.707,22.461,0
1582734951.363,29.297,-972.168,53.711,15.137,0
1582734951.365,29.297,-972.168,69.336,13.672,0
1582734951.369,25.391,-972.168,74.219,16.113,0
1582734951.373,24.902,-972.168,71.777,16.113,0
1582734951.377,28.809,-972.168,69.824,19.043,0
1582734951.381,27.832,-972.168,68.359,20.508,0
1582734951.385,26.855,-972.168,52.734,14.648,0
1582734951.389,20.996,-972.168,46.875,20.996,0
1582734951.392,20.020,-972.168,53.711,24.414,0
1582734951.396,27.344,-972.168,71.289,16.113,0
1582734951.400,25.391,-972.168,81.055,22.461,0
1582734951.404,18.066,-972.168,68.848,14.648,0
1582734951.408,18.066,-972.168,62.012,5.371,0
1582734951.410,26.367,-972.168,79.590,8.301,0
1582734951.414,21.484,-972.168,61.035,6.348,0
1582734951.418,13.672,-972.168,53.223,10.742,0
1582734951.422,12.695,-972.168,75.684,20.020,0
1582734951.426,20.508,-972.168,71.289,21.484,0
1582734951.430,20.508,-972.168,49.805,22.949,0
1582734951.434,17.578,-972.168,24.902,24.902,0
1582734951.437,14.648,-972.168,40.527,20.020,0
1582734951.441,15.625,-972.168,83.008,24.902,0
1582734951.445,27.832,-972.168,76.660,33.203,0
1582734951.449,32.715,-972.168,73.730,34.180,0
1582734951.453,31.738,-972.168,56.152,30.273,0
1582734951.455,30.273,-972.168,62.500,31.250,0
1582734951.459,29.297,-972.168,78.125,29.785,0
1582734951.463,30.273,-972.168,60.059,24.902,0
1582734951.467,34.180,-972.168,75.195,31.250,0
1582734951.471,30.273,-972.168,67.383,33.691,0
1582734951.475,29.297,-972.168,40.527,30.273,0
1582734951.479,25.391,-972.168,34.180,18.066,0
1582734951.482,20.508,-972.168,74.219,15.137,0
1582734951.486,24.902,-972.168,104.004,32.227,0
1582734951.490,25.391,-972.168,70.312,35.645,0
1582734951.494,31.738,-972.168,50.781,22.461,0
1582734951.498,42.969,-972.168,70.312,24.902,0
1582734951.515,39.551,-972.168,76.172,36.133,0
1582734951.519,36.133,-972.168,66.895,37.598,0
1582734951.523,28.320,-972.168,52.734,29.297,0
1582734951.527,18.066,-972.168,72.266,26.855,0
1582734951.531,24.902,-972.168,88.867,33.691,0
1582734951.535,33.203,-972.168,59.570,35.156,0
1582734951.539,37.598,-972.168,57.129,23.926,0
1582734951.542,38.086,-972.168,81.543,20.996,0
1582734951.546,35.156,-972.168,99.609,25.879,0
1582734951.550,35.645,-972.168,62.500,25.391,0
1582734951.554,35.156,-972.168,68.848,17.578,0
1582734951.558,32.715,-972.168,104.492,13.184,0
1582734951.561,39.551,-972.168,77.148,13.184,0
1582734951.565,43.457,-972.168,59.570,20.996,0
1582734951.569,33.691,-972.168,84.473,27.832,0
1582734951.573,22.949,-972.168,95.215,20.020,0
1582734951.577,25.879,-972.168,72.266,11.719,0
1582734951.581,30.273,-972.168,55.176,12.207,0
1582734951.585,33.203,-972.168,53.223,13.672,0
1582734951.588,29.785,-972.168,73.730,16.113,0
1582734951.592,16.113,-972.168,69.824,21.973,0
1582734951.596,12.207,-972.168,54.688,20.020,0
1582734951.600,23.438,-972.168,91.309,20.508,0
1582734951.604,27.344,-972.168,92.285,12.695,0
1582734951.605,29.297,-972.168,70.312,10.254,0
1582734951.609,31.738,-972.168,77.637,20.508,0
1582734951.613,35.156,-972.168,91.797,21.973,0
1582734951.617,28.809,-972.168,83.496,16.602,0
1582734951.621,21.484,-972.168,68.848,13.184,0
1582734951.625,34.668,-972.168,62.012,19.531,0
1582734951.629,40.039,-972.168,72.266,21.973,0
1582734951.632,26.367,-972.168,94.727,21.484,0
1582734951.636,26.367,-972.168,61.035,21.973,0
1582734951.640,32.715,-972.168,57.129,18.555,0
1582734951.644,32.227,-972.168,104.492,31.250,0
1582734951.648,31.738,-972.168,99.609,32.227,0
1582734951.650,26.855,-972.168,82.520,16.602,0
1582734951.654,21.973,-972.168,80.078,20.508,0
1582734951.658,17.578,-972.168,90.332,26.367,0
1582734951.662,19.531,-972.168,82.031,27.832,0
1582734951.666,17.090,-972.168,73.242,20.508,0
1582734951.670,14.648,-972.168,70.801,16.602,0
1582734951.674,16.113,-972.168,79.102,15.137,0
1582734951.677,16.602,-972.168,69.824,12.695,0
1582734951.681,21.484,-972.168,48.828,12.695,0
1582734951.685,18.555,-972.168,89.844,9.766,0
1582734951.689,8.789,-972.168,110.352,7.324,0
1582734951.693,12.695,-972.168,80.566,7.812,0
1582734951.695,18.555,-972.168,68.359,10.254,0
1582734951.699,11.230,-972.168,93.750,3.906,0
1582734951.703,11.719,-972.168,86.914,5.371,0
1582734951.707,18.066,-972.168,67.871,13.672,0
1582734951.711,20.996,-972.168,65.430,15.137,0
1582734951.715,20.996,-972.168,62.988,11.719,0
1582734951.719,20.508,-972.168,67.871,16.602,0
1582734951.722,19.531,-972.168,51.270,26.367,0
1582734951.726,15.137,-972.168,58.105,26.367,0
1582734951.730,17.090,-972.168,104.004,16.602,0
1582734951.734,14.648,-972.168,86.426,14.160,0
1582734951.738,7.812,-972.168,70.801,20.996,0
1582734951.740,13.184,-972.168,83.008,19.531,0
1582734951.744,12.207,-972.168,87.891,19.043,0
1582734951.748,3.418,-972.168,66.406,17.578,0
1582734951.752,0.488,-972.168,67.383,17.090,0
1582734951.756,7.812,-972.168,91.797,25.879,0
1582734951.760,23.926,-972.168,78.125,33.203,0
1582734951.764,28.809,-972.168,64.453,27.832,0
1582734951.767,22.949,-972.168,58.105,19.531,0
1582734951.771,25.879,-972.168,84.473,18.066,0
1582734951.775,20.508,-972.168,99.121,17.578,0
1582734951.779,10.742,-972.168,76.660,14.160,0
1582734951.783,13.184,-972.168,70.801,16.602,0
1582734951.785,10.254,-972.168,83.984,20.020,0
1582734951.789,17.090,-972.168,87.402,21.973,0
1582734951.793,25.879,-972.168,78.613,22.461,0
1582734951.797,30.273,-972.168,75.195,21.973,0
1582734951.801,35.156,-972.168,86.914,24.414,0
1582734951.805,31.250,-972.168,75.684,24.902,0
1582734951.809,30.762,-972.168,36.133,20.996,0
1582734951.812,36.621,-972.168,51.270,12.207,0
1582734951.816,41.992,-972.168,100.586,20.508,0
1582734951.820,40.527,-972.168,89.844,30.273,0
1582734951.824,32.715,-972.168,85.449,26.855,0
1582734951.828,17.090,-972.168,94.727,29.297,0
1582734951.830,9.277,-972.168,82.031,31.250,0
1582734951.834,6.348,-972.168,64.941,26.855,0
1582734951.838,18.066,-972.168,52.734,21.973,0
1582734951.842,21.973,-972.168,62.988,14.648,0
1582734951.846,20.996,-972.168,60.059,18.066,0
1582734951.850,20.020,-972.168,36.621,22.461,0
1582734951.854,12.695,-972.168,33.203,13.672,0
1582734951.857,13.184,-972.168,61.523,5.371,0
1582734951.861,12.695,-972.168,58.594,5.371,0
1582734951.865,17.090,-972.168,43.945,9.766,0
1582734951.869,22.461,-972.168,76.660,16.602,0
1582734951.873,26.855,-972.168,84.473,22.461,0
1582734951.890,29.297,-972.168,71.777,17.578,0
1582734951.894,32.227,-972.168,72.266,20.020,0
1582734951.898,30.762,-972.168,68.359,27.344,0
1582734951.902,31.738,-972.168,78.613,33.691,0
1582734951.906,35.156,-972.168,80.078,27.832,0
1582734951.910,29.785,-972.168,52.734,20.996,0
1582734951.914,21.484,-972.168,60.547,22.461,0
1582734951.917,26.367,-972.168,88.867,26.855,0
1582734951.921,35.645,-972.168,99.609,27.344,0
1582734951.925,38.574,-972.168,72.266,17.090,0
1582734951.929,37.109,-972.168,77.637,16.113,0
1582734951.933,35.156,-972.168,100.098,23.438,0
1582734951.935,33.691,-972.168,84.961,26.855,0
1582734951.939,31.250,-972.168,83.008,29.785,0
1582734951.943,27.832,-972.168,96.680,32.715,0
1582734951.947,31.250,-972.168,95.215,29.297,0
1582734951.951,33.691,-972.168,77.637,37.598,0
1582734951.955,26.367,-972.168,63.965,41.504,0
1582734951.959,22.949,-972.168,70.312,37.109,0
1582734951.962,26.367,-972.168,92.773,40.527,0
1582734951.966,26.367,-972.168,75.195,41.992,0
1582734951.970,18.066,-972.168,50.293,30.762,0
1582734951.974,14.160,-972.168,82.031,27.832,0
1582734951.978,20.996,-972.168,88.379,26.855,0
1582734951.980,32.227,-972.168,66.406,31.250,0
1582734951.984,30.762,-972.168,67.383,33.203,0
1582734951.988,25.879,-972.168,65.430,24.414,0
1582734951.992,24.902,-972.168,62.988,23.926,0
1582734951.996,31.250,-972.168,69.336,28.809,0
1582734952.000,40.039,-972.168,55.176,30.273,0
1582734952.004,33.691,-972.168,68.359,24.414,0
1582734952.007,34.668,-972.168,94.238,25.879,0
1582734952.011,41.016,-972.168,56.641,28.809,0
1582734952.015,38.086,-972.168,55.176,29.785,0
1582734952.019,35.645,-972.168,100.586,36.133,0
1582734952.023,31.250,-972.168,86.426,32.715,0
1582734952.025,27.832,-972.168,83.008,26.367,17040
1582734952.029,29.297,-972.168,89.355,27.832,0
1582734952.033,35.156,-972.168,86.426,26.367,0
1582734952.037,35.645,-972.168,82.031,32.715,0
1582734952.041,30.762,-972.168,67.383,40.039,0
1582734952.045,33.203,-972.168,57.129,36.133,0
1582734952.049,24.902,-972.168,62.500,28.320,0
1582734952.052,24.902,-972.168,59.082,24.902,0
1582734952.056,29.297,-972.168,52.734,28.320,0
1582734952.060,19.043,-972.168,83.984,25.391,0
1582734952.064,23.438,-972.168,85.938,21.973,0
1582734952.068,20.020,-972.168,60.059,26.367,0
1582734952.070,7.812,-972.168,62.500,35.156,0
1582734952.074,5.859,-972.168,76.172,37.598,0
1582734952.078,16.602,-972.168,72.754,36.133,0
1582734952.082,21.973,-972.168,63.477,27.832,0
1582734952.086,9.766,-972.168,57.129,19.531,0
1582734952.090,10.254,-972.168,54.688,26.855,0
1582734952.094,22.461,-972.168,78.125,29.297,0
1582734952.097,21.973,-972.168,52.246,22.949,0
1582734952.101,19.531,-972.168,42.969,21.973,0
1582734952.105,15.137,-972.168,85.938,26.367,0
1582734952.109,17.578,-972.168,74.707,28.809,0
1582734952.113,16.602,-972.168,66.406,29.297,0
1582734952.115,19.531,-972.168,81.543,22.949,0
1582734952.119,25.391,-972.168,74.219,16.113,0
1582734952.123,24.902,-972.168,51.270,30.762,0
1582734952.127,31.738,-972.168,62.988,41.992,0
1582734952.131,27.344,-972.168,71.289,35.645,0
1582734952.135,22.949,-972.168,48.828,41.992,0
1582734952.139,23.438,-972.168,36.133,37.598,0
1582734952.142,25.879,-972.168,41.504,26.855,0
1582734952.146,24.902,-972.168,59.570,23.438,0
1582734952.150,22.949,-972.168,74.219,34.180,0
1582734952.154,26.367,-972.168,62.012,35.156,0
1582734952.158,28.809,-972.168,44.922,29.785,0
1582734952.160,20.508,-972.168,74.707,33.691,0
1582734952.164,18.066,-972.168,65.918,25.391,0
1582734952.168,28.320,-972.168,43.457,25.391,0
1582734952.172,24.414,-972.168,50.293,24.902,0
1582734952.176,15.137,-972.168,56.152,24.414,0
1582734952.180,9.766,-972.168,49.805,20.996,0
1582734952.184,20.020,-972.168,22.949,8.301,0
1582734952.187,27.344,-972.168,42.969,10.742,0
1582734952.191,10.742,-972.168,81.543,14.648,0
1582734952.195,12.695,-972.168,74.707,18.555,0
1582734952.199,16.602,-972.168,66.406,19.531,0
1582734952.203,13.184,-972.168,73.730,10.254,0
1582734952.205,22.461,-972.168,71.289,13.672,0
1582734952.209,23.438,-972.168,63.477,13.184,0
1582734952.213,21.484,-972.168,62.012,12.695,0
1582734952.217,29.297,-972.168,85.938,25.391,0
1582734952.221,39.551,-972.168,93.262,32.715,0
1582734952.225,38.086,-972.168,58.105,29.297,0
1582734952.229,30.273,-972.168,47.363,20.996,0
1582734952.232,31.250,-972.168,81.543,20.996,0
1582734952.236,36.133,-972.168,96.680,26.855,0
1582734952.240,38.086,-972.168,84.961,28.320,0
1582734952.244,22.461,-972.168,74.219,17.578,0
1582734952.248,20.020,-972.168,80.566,10.742,0
1582734952.266,28.320,-972.168,80.566,14.160,0
1582734952.270,33.691,-972.168,71.289,18.066,0
1582734952.274,29.785,-972.168,77.637,15.137,0
1582734952.278,24.902,-972.168,83.496,10.742,0
1582734952.282,24.902,-972.168,65.918,7.324,0
1582734952.286,32.715,-972.168,47.852,7.812,0
1582734952.290,40.527,-972.168,43.945,14.648,0
1582734952.293,29.785,-972.168,64.453,11.230,0
1582734952.297,24.414,-972.168,82.520,9.766,0
1582734952.301,27.344,-972.168,48.340,14.648,0
1582734952.305,24.414,-972.168,58.594,14.160,0
1582734952.309,27.344,-972.168,104.004,24.414,0
1582734952.310,35.645,-972.168,85.938,24.902,0
1582734952.314,33.691,-972.168,58.594,21.484,0
1582734952.318,28.809,-972.168,70.801,21.973,0
1582734952.322,26.855,-972.168,79.590,21.973,0
1582734952.326,26.367,-972.168,72.266,23.926,0
1582734952.330,32.715,-972.168,50.781,24.902,0
1582734952.334,43.945,-972.168,58.594,22.461,0
1582734952.337,35.156,-972.168,86.914,18.066,0
1582734952.341,23.926,-972.168,58.105,20.996,0
1582734952.345,26.855,-972.168,43.945,22.461,0
1582734952.349,25.879,-972.168,87.891,25.391,0
1582734952.353,22.461,-972.168,94.238,21.973,0
1582734952.355,27.832,-972.168,67.383,19.043,0
1582734952.359,30.273,-972.168,68.359,25.391,0
1582734952.363,30.762,-972.168,88.867,18.066,0
1582734952.367,28.809,-972.168,85.449,19.531,0
1582734952.371,23.926,-972.168,70.312,15.137,0
1582734952.375,20.508,-972.168,44.922,13.672,0
1582734952.379,23.438,-972.168,55.176,22.461,0
1582734952.382,27.832,-972.168,88.867,20.508,0
1582734952.386,24.414,-972.168,62.500,17.578,0
1582734952.390,29.785,-972.168,61.523,21.973,0
1582734952.394,35.645,-972.168,107.422,26.855,0
1582734952.398,44.434,-972.168,81.543,32.227,0
1582734952.400,46.387,-972.168,66.406,32.715,0
1582734952.404,33.691,-972.168,83.008,23.438,0
1582734952.408,28.320,-972.168,85.449,18.555,0
1582734952.412,33.691,-972.168,68.848,26.855,0
1582734952.416,35.645,-972.168,65.430,39.062,0
1582734952.420,39.551,-972.168,61.035,32.715,0
1582734952.424,31.738,-972.168,77.148,24.414,0
1582734952.427,27.832,-972.168,76.660,29.297,0
1582734952.431,38.086,-972.168,49.316,26.367,0
1582734952.435,25.879,-972.168,78.613,15.137,0
1582734952.439,10.742,-972.168,84.473,21.973,0
1582734952.443,17.578,-972.168,69.336,34.180,0
1582734952.445,20.508,-972.168,78.125,30.762,0
1582734952.449,11.230,-972.168,75.195,18.555,0
1582734952.453,16.602,-972.168,60.547,18.066,0
1582734952.457,16.113,-972.168,67.383,19.531,0
1582734952.461,7.812,-972.168,77.148,15.137,0
1582734952.465,16.113,-972.168,61.523,13.672,0
1582734952.469,20.996,-972.168,73.730,13.184,0
1582734952.472,26.367,-972.168,54.688,14.648,0
1582734952.476,35.156,-972.168,54.199,20.508,0
1582734952.480,40.039,-972.168,105.957,26.855,0
1582734952.484,45.410,-972.168,77.637,34.180,0
1582734952.488,33.691,-972.168,71.289,35.156,0
1582734952.490,21.484,-972.168,92.285,32.715,0
1582734952.494,28.320,-972.168,89.355,39.551,0
1582734952.498,38.574,-972.168,77.637,41.504,0
1582734952.502,35.645,-972.168,76.172,39.062,0
1582734952.506,26.367,-972.168,85.938,38.574,0
1582734952.510,32.715,-972.168,70.312,35.156,0
1582734952.514,35.645,-972.168,56.641,32.715,0
1582734952.517,29.785,-972.168,57.617,32.715,0
1582734952.521,30.762,-972.168,80.566,31.250,0
1582734952.525,35.645,-972.168,99.121,37.109,0
1582734952.529,31.250,-972.168,84.473,41.504,0
1582734952.533,29.297,-972.168,77.148,39.551,0
1582734952.535,34.668,-972.168,80.078,40.039,0
1582734952.539,41.992,-972.168,75.195,41.992,0
1582734952.543,38.086,-972.168,68.359,37.109,0
1582734952.547,33.691,-972.168,64.453,27.344,0
1582734952.551,36.133,-972.168,59.082,31.250,0
1582734952.555,39.062,-972.168,55.664,39.551,0
1582734952.559,45.898,-972.168,41.504,43.457,0
1582734952.562,39.062,-972.168,52.734,34.180,0
1582734952.566,31.250,-972.168,82.031,31.250,0
1582734952.570,30.762,-972.168,93.262,41.504,0
1582734952.574,30.762,-972.168,79.102,42.480,0
1582734952.578,34.668,-972.168,61.523,33.203,0
1582734952.580,38.574,-972.168,82.520,25.879,0
1582734952.584,40.039,-972.168,81.543,28.320,0
1582734952.588,41.992,-972.168,68.359,36.621,0
1582734952.592,36.133,-972.168,70.312,33.691,0
1582734952.596,32.715,-972.168,63.965,28.809,0
1582734952.600,31.250,-972.168,42.969,29.785,0
1582734952.604,28.809,-972.168,31.250,37.598,0
1582734952.607,31.250,-972.168,65.430,38.086,0
1582734952.611,30.273,-972.168,88.379,31.250,0
1582734952.615,21.973,-972.168,64.453,31.250,0
1582734952.619,20.020,-972.168,58.105,25.391,0
1582734952.623,16.113,-972.168,71.777,26.367,0
1582734952.640,12.695,-972.168,61.035,24.902,0
1582734952.644,18.555,-972.168,47.363,23.438,0
1582734952.648,14.648,-972.168,54.199,26.367,0
1582734952.652,6.836,-972.168,73.730,24.902,0
1582734952.656,3.418,-972.168,71.777,19.531,0
1582734952.660,13.672,-972.168,38.574,28.809,0
1582734952.664,20.508,-972.168,51.270,36.621,0
1582734952.667,11.230,-972.168,80.078,30.762,0
1582734952.671,5.371,-972.168,70.312,23.438,0
1582734952.675,17.578,-972.168,41.016,18.066,0
1582734952.679,20.996,-972.168,60.059,18.066,0
1582734952.683,12.207,-972.168,86.914,20.996,0
1582734952.685,21.973,-972.168,69.336,27.832,0
1582734952.689,22.949,-972.168,56.152,29.785,0
1582734952.693,12.207,-972.168,55.664,31.250,0
1582734952.697,18.066,-972.168,75.684,34.668,0
1582734952.701,23.926,-972.168,63.477,23.926,0
1582734952.705,23.438,-972.168,41.992,26.367,0
1582734952.709,31.738,-972.168,49.316,37.109,0
1582734952.712,33.203,-972.168,68.848,29.785,0
1582734952.716,20.508,-972.168,58.594,19.531,0
1582734952.720,19.043,-972.168,34.180,15.625,0
1582734952.724,21.973,-972.168,74.707,13.184,0
1582734952.728,24.902,-972.168,92.285,16.602,0
1582734952.730,22.461,-972.168,62.500,18.066,0
1582734952.734,23.438,-972.168,61.523,17.090,0
1582734952.738,23.926,-972.168,66.895,13.672,0
1582734952.742,19.043,-972.168,62.988,16.113,0
1582734952.746,21.484,-972.168,56.641,16.602,0
1582734952.750,19.531,-972.168,52.734,15.625,0
1582734952.754,17.578,-972.168,64.453,16.113,0
1582734952.757,23.438,-972.168,70.801,15.625,0
1582734952.761,32.227,-972.168,67.383,20.020,0
1582734952.765,26.855,-972.168,70.312,21.973,0
1582734952.769,16.113,-972.168,91.797,18.066,0
1582734952.773,17.090,-972.168,87.402,22.949,0
1582734952.775,24.414,-972.168,60.059,22.461,0
1582734952.779,27.832,-972.168,71.289,15.625,0
1582734952.783,23.926,-972.168,101.562,18.555,0
1582734952.787,25.879,-972.168,81.543,14.648,0
1582734952.791,25.879,-972.168,52.734,14.648,0
1582734952.795,18.066,-972.168,55.664,19.043,0
1582734952.799,18.066,-972.168,73.242,23.438,0
1582734952.802,20.996,-972.168,67.383,16.113,0
1582734952.806,24.414,-972.168,57.617,10.742,0
1582734952.810,22.949,-972.168,101.074,20.996,0
1582734952.814,17.578,-972.168,101.562,25.879,0
1582734952.818,14.160,-972.168,64.453,19.043,0
1582734952.820,17.090,-972.168,71.289,18.066,0
1582734952.824,26.367,-972.168,84.961,24.414,0
1582734952.828,26.855,-972.168,77.637,28.809,0
1582734952.832,25.391,-972.168,76.172,26.855,0
1582734952.836,25.879,-972.168,80.078,25.391,0
1582734952.840,17.090,-972.168,78.125,25.391,0
1582734952.844,20.508,-972.168,72.266,27.832,0
1582734952.847,25.879,-972.168,44.922,22.949,0
1582734952.851,25.391,-972.168,51.758,18.555,0
1582734952.855,28.809,-972.168,90.820,26.367,0
1582734952.859,31.250,-972.168,81.055,27.344,0
1582734952.863,30.762,-972.168,60.547,27.344,0
1582734952.865,21.484,-972.168,64.453,25.879,0
1582734952.869,19.043,-972.168,78.125,17.578,0
1582734952.873,29.785,-972.168,61.035,17.578,0
1582734952.877,33.203,-972.168,48.828,17.090,0
1582734952.881,22.949,-972.168,58.105,16.602,0
1582734952.885,13.184,-972.168,58.105,26.367,0
1582734952.889,17.578,-972.168,50.781,27.344,0
1582734952.892,35.156,-972.168,54.199,26.367,0
1582734952.896,27.832,-972.168,93.750,25.391,0
1582734952.900,19.043,-972.168,97.168,19.043,0
1582734952.904,27.344,-972.168,63.477,18.555,0
1582734952.908,25.879,-972.168,69.824,17.578,0
1582734952.910,10.254,-972.168,83.496,20.508,0
1582734952.914,9.277,-972.168,80.078,24.902,0
1582734952.918,18.555,-972.168,68.359,26.855,0
1582734952.922,23.438,-972.168,74.219,34.180,0
1582734952.926,35.645,-972.168,78.613,38.086,0
1582734952.930,37.598,-972.168,62.500,34.668,0
1582734952.934,31.250,-972.168,40.039,22.461,0
1582734952.937,29.297,-972.168,45.898,22.461,0
1582734952.941,28.809,-972.168,85.938,29.297,0
1582734952.945,28.809,-972.168,77.148,29.785,0
1582734952.949,28.320,-972.168,68.359,30.273,0
1582734952.953,32.227,-972.168,70.312,24.902,0
1582734952.955,38.574,-972.168,66.406,31.738,0
1582734952.959,32.715,-972.168,52.246,32.227,0
1582734952.963,23.926,-972.168,44.922,23.926,0
1582734952.967,24.902,-972.168,61.523,21.973,0
1582734952.971,30.273,-972.168,68.359,22.461,0
1582734952.975,29.297,-972.168,49.805,25.391,0
1582734952.979,22.949,-972.168,43.457,17.090,0
1582734952.982,15.137,-972.168,71.777,8.301,0
1582734952.986,19.531,-972.168,81.543,6.836,0
1582734952.990,28.809,-972.168,51.758,16.602,0
1582734952.994,16.602,-972.168,40.039,20.508,0
1582734952.998,10.254,-972.168,67.383,17.578,0
1582734953.015,25.391,-972.168,86.426,24.414,0
1582734953.019,35.156,-972.168,67.871,26.855,0
1582734953.023,28.320,-972.168,70.312,20.996,0
1582734953.027,22.949,-972.168,77.148,30.762,0
1582734953.031,26.855,-972.168,66.895,34.668,0
1582734953.035,36.133,-972.168,47.363,29.785,0
1582734953.039,39.062,-972.168,47.852,29.297,0
1582734953.042,34.668,-972.168,71.289,31.738,0
1582734953.046,31.738,-972.168,73.242,32.227,0
1582734953.050,34.180,-972.168,57.129,30.762,0
1582734953.054,35.156,-972.168,62.500,29.785,0
1582734953.058,23.926,-972.168,80.078,23.926,0
1582734953.060,18.066,-972.168,73.730,20.996,0
1582734953.064,24.414,-972.168,65.918,27.832,0
1582734953.068,20.508,-972.168,56.152,20.020,0
1582734953.072,14.648,-972.168,59.570,13.184,0
1582734953.076,15.625,-972.168,49.316,18.066,0
1582734953.080,10.254,-972.168,34.668,16.602,0
1582734953.084,14.160,-972.168,47.852,15.625,0
1582734953.087,18.555,-972.168,75.195,12.207,0
1582734953.091,15.137,-972.168,43.945,19.531,0
1582734953.095,18.555,-972.168,28.320,26.367,0
1582734953.099,25.391,-972.168,62.012,20.508,0
1582734953.103,30.762,-972.168,57.129,19.531,0
1582734953.105,29.297,-972.168,48.340,15.137,0
1582734953.109,27.832,-972.168,62.500,20.996,0
1582734953.113,33.691,-972.168,77.148,26.855,0
1582734953.117,41.016,-972.168,64.453,20.996,0
1582734953.121,40.527,-972.168,48.340,26.367,0
1582734953.125,28.320,-972.168,40.527,30.273,27270
1582734953.129,29.785,-972.168,60.059,30.273,0
1582734953.132,31.738,-972.168,82.031,29.297,0
1582734953.136,28.320,-972.168,42.480,20.020,0
1582734953.140,23.438,-972.168,42.969,24.414,0
1582734953.144,20.508,-972.168,86.914,22.949,0
1582734953.148,20.996,-972.168,70.312,16.113,0
1582734953.150,11.719,-972.168,64.941,14.160,0
1582734953.154,9.766,-972.168,60.059,15.137,0
1582734953.158,17.578,-972.168,64.941,20.020,0
1582734953.162,20.996,-972.168,68.848,24.414,0
1582734953.166,23.926,-972.168,50.781,15.625,0
1582734953.170,30.762,-972.168,44.434,12.695,0
1582734953.174,33.691,-972.168,58.105,16.113,0
1582734953.177,38.086,-972.168,46.387,18.066,0
1582734953.181,36.133,-972.168,33.691,20.020,0
1582734953.185,27.344,-972.168,76.660,24.414,0
1582734953.189,18.555,-972.168,86.426,37.109,0
1582734953.193,13.672,-972.168,44.922,39.062,0
1582734953.195,20.508,-972.168,37.598,34.668,0
1582734953.199,16.113,-972.168,68.848,38.574,0
1582734953.203,17.090,-972.168,64.941,41.504,0
1582734953.207,23.926,-972.168,54.199,33.691,0
1582734953.211,29.785,-972.168,43.945,32.715,0
1582734953.215,28.320,-972.168,33.691,31.738,0
1582734953.219,26.367,-972.168,36.621,27.344,0
1582734953.222,38.086,-972.168,20.020,32.227,0
1582734953.226,42.969,-972.168,34.180,33.691,0
1582734953.230,42.480,-972.168,70.801,27.344,0
1582734953.234,33.203,-972.168,70.312,30.762,0
1582734953.238,23.926,-972.168,71.777,31.250,0
1582734953.240,31.738,-972.168,65.918,27.832,0
1582734953.244,37.109,-972.168,58.594,26.855,0
1582734953.248,41.992,-972.168,53.223,19.531,0
1582734953.252,42.969,-972.168,56.641,31.250,0
1582734953.256,27.344,-972.168,66.406,33.691,0
1582734953.260,22.949,-972.168,49.316,24.902,0
1582734953.264,25.391,-972.168,51.270,28.809,0
1582734953.267,27.344,-972.168,53.711,22.461,0
1582734953.271,34.180,-972.168,69.824,24.414,0
1582734953.275,39.551,-972.168,93.262,28.809,0
1582734953.279,36.621,-972.168,64.453,21.973,0
1582734953.283,32.227,-972.168,65.430,21.973,0
1582734953.285,25.391,-972.168,85.449,24.414,0
1582734953.289,29.785,-971.680,84.473,33.691,0
1582734953.293,36.133,-971.680,83.984,42.969,0
1582734953.297,34.668,-972.168,74.219,40.039,0
1582734953.301,37.598,-972.168,69.824,34.180,0
1582734953.305,40.527,-972.168,62.988,33.203,0
1582734953.309,41.016,-972.168,39.062,26.855,0
1582734953.312,28.809,-972.168,43.457,19.531,0
1582734953.316,30.273,-972.168,87.402,23.926,0
1582734953.320,36.133,-972.168,83.496,31.738,0
1582734953.324,33.691,-970.703,50.293,29.785,0
1582734953.328,32.715,-977.051,51.270,26.855,0
1582734953.330,30.273,-948.730,96.191,25.879,0
1582734953.334,37.109,-940.918,80.078,30.762,0
1582734953.338,38.086,-973.633,57.617,37.109,0
1582734953.342,37.598,-972.168,65.430,31.250,0
1582734953.346,44.434,-971.191,73.242,26.855,0
1582734953.350,39.551,-972.168,47.363,28.809,0
1582734953.354,37.109,-972.168,32.227,31.738,0
1582734953.357,44.434,-972.168,76.660,33.203,0
1582734953.361,40.527,-972.168,102.051,33.691,0
1582734953.365,40.527,-972.168,65.918,39.062,0
1582734953.369,39.551,-972.168,53.711,41.504,0
1582734953.373,40.039,-972.168,76.172,37.109,0
1582734953.390,44.922,-972.168,67.383,34.180,0
1582734953.394,41.504,-972.168,46.875,39.551,0
1582734953.398,35.645,-972.168,43.457,38.086,0
1582734953.402,37.598,-972.168,72.754,32.715,0
1582734953.406,39.062,-972.168,77.148,29.785,0
1582734953.410,40.527,-972.168,58.105,34.180,0
1582734953.414,46.875,-972.168,49.316,30.762,0
1582734953.417,49.316,-972.168,75.195,22.949,0
1582734953.421,43.457,-972.168,89.355,25.879,0
1582734953.425,35.645,-972.168,59.082,21.484,0
1582734953.429,27.832,-972.168,62.988,20.996,0
1582734953.433,32.227,-972.168,83.008,25.391,0
1582734953.435,43.945,-972.168,82.031,27.832,0
1582734953.439,38.086,-972.168,83.496,21.484,0
1582734953.443,30.273,-972.168,84.961,18.066,0
1582734953.447,34.180,-972.168,89.844,23.438,0
1582734953.451,35.645,-972.168,70.312,24.902,0
1582734953.455,33.691,-972.168,54.199,22.949,0
1582734953.459,31.250,-972.168,69.336,19.043,0
1582734953.462,29.785,-972.168,83.984,20.508,0
1582734953.466,31.250,-972.168,79.590,32.715,0
1582734953.470,27.344,-972.168,48.828,34.180,0
1582734953.474,21.484,-972.168,75.684,19.531,0
1582734953.478,27.344,-972.168,85.449,19.531,0
1582734953.480,35.645,-972.168,68.848,29.297,0
1582734953.484,35.645,-972.168,66.406,29.297,0
1582734953.488,34.668,-972.168,68.848,29.785,0
1582734953.492,38.574,-972.168,73.242,31.250,0
1582734953.496,42.480,-972.168,59.570,34.180,0
1582734953.500,40.039,-972.168,55.664,42.969,0
1582734953.504,34.180,-972.168,64.453,34.180,0
1582734953.507,35.156,-972.168,64.941,27.344,0
1582734953.511,41.992,-972.168,43.945,37.109,0
1582734953.515,45.898,-972.168,62.988,42.480,0
1582734953.519,41.016,-972.168,102.051,41.016,0
1582734953.523,37.109,-972.168,76.660,29.297,0
1582734953.525,37.598,-972.168,66.895,32.715,0
1582734953.529,36.621,-972.168,85.449,49.316,0
1582734953.533,27.832,-972.168,82.520,41.504,0
1582734953.537,22.949,-972.168,66.895,30.273,0
1582734953.541,21.484,-972.168,55.664,25.391,0
1582734953.545,24.414,-972.168,41.992,23.926,0
1582734953.549,19.531,-972.168,58.594,18.555,0
1582734953.552,20.996,-972.168,61.523,16.113,0
1582734953.556,28.809,-972.168,42.969,25.391,0
1582734953.560,18.066,-972.168,80.566,22.949,0
1582734953.564,11.230,-972.168,83.008,18.066,0
1582734953.568,13.672,-972.168,65.430,15.625,0
1582734953.570,17.578,-972.168,70.312,4.883,0
1582734953.574,9.766,-972.168,81.543,2.930,0
1582734953.578,4.883,-972.168,81.543,5.859,0
1582734953.582,-9.766,-972.168,68.848,-11.230,0
1582734953.586,-39.062,-972.168,62.012,-33.203,0
1582734953.590,-36.621,-972.168,71.777,-25.391,0
1582734953.594,-52.734,-972.168,90.332,-39.551,0
1582734953.597,-80.566,-972.168,61.523,-71.777,0
1582734953.601,-94.238,-972.168,64.941,-91.309,0
1582734953.605,-138.672,-972.168,116.211,-130.859,0
1582734953.609,-177.734,-972.168,105.957,-162.598,0
1582734953.613,-209.473,-972.168,90.332,-193.359,0
1582734953.616,-242.676,-972.168,94.238,-239.258,0
1582734953.620,-272.461,-972.168,100.586,-273.438,0
1582734953.624,-287.598,-972.168,99.609,-281.250,0
1582734953.628,-275.879,-972.168,113.281,-279.297,0
1582734953.632,-274.414,-972.168,121.582,-293.457,0
1582734953.636,-286.621,-972.168,106.445,-300.781,0
1582734953.640,-274.902,-972.168,92.285,-285.156,0
1582734953.643,-257.324,-972.168,88.867,-273.926,0
1582734953.647,-250.977,-972.168,125.488,-272.949,0
1582734953.651,-246.094,-972.168,148.438,-264.648,0
1582734953.655,-235.352,-972.168,122.559,-241.699,0
1582734953.659,-212.891,-972.168,109.375,-217.773,0
1582734953.660,-185.059,-972.168,118.164,-195.312,0
1582734953.664,-154.785,-972.168,109.863,-171.875,0
1582734953.668,-121.582,-972.168,93.262,-151.855,0
1582734953.672,-82.031,-972.168,92.285,-125.488,0
1582734953.676,-62.500,-972.168,99.609,-92.773,0
1582734953.680,-45.410,-972.168,90.332,-66.406,0
1582734953.684,-10.254,-972.168,67.871,-36.621,0
1582734953.687,12.695,-972.168,75.684,-11.719,0
1582734953.691,32.227,-972.168,101.562,2.441,0
1582734953.695,52.246,-972.168,85.938,16.602,0
1582734953.699,63.477,-972.168,59.082,32.715,0
1582734953.703,69.336,-972.168,62.988,52.734,0
1582734953.705,77.637,-972.168,73.242,65.430,0
1582734953.709,90.332,-972.168,50.293,67.383,0
1582734953.713,101.074,-972.168,31.738,82.520,0
1582734953.717,113.770,-972.168,48.828,103.516,0
1582734953.721,121.582,-972.168,53.711,111.816,0
1582734953.725,119.629,-972.168,16.113,110.840,0
1582734953.729,125.000,-972.168,13.672,116.211,0
1582734953.732,129.883,-972.168,42.969,130.859,0
1582734953.736,133.789,-972.168,46.875,138.672,0
1582734953.740,141.113,-972.168,43.457,138.672,0
1582734953.744,142.090,-972.168,30.273,133.301,0
1582734953.748,145.508,-972.168,36.621,135.254,0
1582734953.765,151.855,-972.168,29.297,143.555,0
1582734953.769,150.879,-972.168,8.789,141.602,0
1582734953.773,145.020,-972.168,10.254,137.207,0
1582734953.777,146.973,-972.168,25.391,139.160,0
1582734953.781,155.762,-972.168,22.949,149.902,0
1582734953.785,153.320,-972.168,3.906,155.762,0
1582734953.789,153.809,-972.168,12.207,149.902,0
1582734953.792,157.715,-972.168,45.410,146.973,0
1582734953.796,153.809,-972.168,51.270,146.973,0
1582734953.800,154.297,-972.168,22.461,145.996,0
1582734953.804,148.926,-972.168,26.855,145.996,0
1582734953.808,137.207,-972.168,48.828,136.719,0
1582734953.810,137.695,-972.168,45.410,131.348,0
1582734953.814,137.207,-972.168,29.785,125.977,0
1582734953.818,128.906,-972.168,37.109,114.258,0
1582734953.822,118.164,-972.168,39.551,112.793,0
1582734953.826,111.816,-972.168,29.297,115.234,0
1582734953.830,110.840,-972.168,23.926,114.746,0
1582734953.834,115.234,-972.168,33.203,117.188,0
1582734953.837,116.699,-972.168,54.199,115.234,0
1582734953.841,113.281,-972.168,42.480,110.352,0
1582734953.845,115.234,-972.168,23.926,112.793,0
1582734953.849,120.117,-972.168,42.969,115.234,0
1582734953.853,116.699,-972.168,46.875,113.281,0
1582734953.855,107.422,-972.168,42.480,104.004,0
1582734953.859,103.516,-972.168,31.250,101.074,0
1582734953.863,100.098,-972.168,42.480,98.145,0
1582734953.867,94.238,-972.168,55.664,93.262,0
1582734953.871,87.891,-972.168,43.945,89.355,0
1582734953.875,89.355,-972.168,44.434,89.844,0
1582734953.879,87.891,-972.168,53.223,94.727,0
1582734953.882,79.590,-972.168,64.941,86.914,0
1582734953.886,77.148,-972.168,47.852,74.707,0
1582734953.890,70.312,-972.168,38.574,74.707,0
1582734953.894,59.082,-972.168,94.238,72.266,0
1582734953.898,67.383,-971.191,82.031,68.848,0
1582734953.900,64.453,-971.680,55.176,73.242,0
1582734953.904,54.688,-972.168,68.359,70.801,0
1582734953.908,50.781,-972.168,73.730,63.477,0
1582734953.912,49.805,-972.168,59.570,62.012,0
1582734953.916,51.270,-972.168,43.457,57.617,0
1582734953.920,49.805,-972.168,48.828,57.129,0
1582734953.924,50.781,-972.168,59.570,53.711,0
1582734953.927,49.316,-972.168,52.734,48.340,0
1582734953.931,45.898,-972.168,53.223,40.527,0
1582734953.935,43.457,-972.168,82.031,32.227,0
1582734953.939,44.434,-972.168,83.984,34.668,0
1582734953.943,45.410,-972.168,61.523,44.434,0
1582734953.945,44.922,-972.168,60.059,49.316,0
1582734953.949,38.574,-972.168,66.406,52.734,0
1582734953.953,37.109,-972.168,52.246,62.012,0
1582734953.957,38.574,-972.168,50.781,60.059,0
1582734953.961,38.574,-972.168,55.664,55.664,0
1582734953.965,35.156,-972.168,42.480,51.758,0
1582734953.969,37.109,-972.168,59.570,46.387,0
1582734953.972,40.039,-972.168,41.992,41.992,0
1582734953.976,33.203,-972.168,36.621,39.062,0
1582734953.980,34.180,-972.168,82.520,43.457,0
1582734953.984,37.598,-972.168,76.172,48.340,0
1582734953.988,36.133,-972.168,69.824,46.387,0
1582734953.990,33.691,-972.168,74.707,47.852,0
1582734953.994,33.691,-971.191,77.637,41.992,0
1582734953.998,32.715,-973.633,52.246,30.273,0
1582734954.002,26.855,-966.797,64.941,33.203,0
1582734954.006,25.391,-961.914,75.684,35.645,0
1582734954.010,32.227,-972.656,47.363,33.691,0
1582734954.014,36.621,-972.168,49.316,35.156,0
1582734954.017,39.062,-971.680,53.223,35.156,0
1582734954.021,38.086,-972.168,83.008,40.039,0
1582734954.025,40.527,-972.168,99.609,46.875,0
1582734954.029,41.992,-972.168,74.707,44.922,0
1582734954.033,37.109,-972.168,73.730,44.434,0
1582734954.035,37.109,-972.168,99.121,42.480,0
1582734954.039,38.574,-972.168,94.727,39.062,0
1582734954.043,32.715,-972.168,68.848,32.715,0
1582734954.047,26.855,-972.168,77.637,29.297,0
1582734954.051,28.320,-972.168,85.449,29.297,0
1582734954.055,33.691,-971.680,87.402,30.762,0
1582734954.059,38.574,-973.145,62.988,31.738,0
1582734954.062,31.250,-969.238,67.871,25.879,0
1582734954.066,36.621,-965.820,113.770,26.855,0
1582734954.070,39.551,-972.168,101.074,27.832,0
1582734954.074,33.203,-972.168,88.379,27.344,0
1582734954.078,28.320,-971.680,66.895,28.809,0
1582734954.095,32.715,-972.168,74.219,28.320,0
1582734954.099,40.527,-972.168,74.707,34.180,0
1582734954.103,37.598,-972.168,68.359,31.250,0
1582734954.107,35.156,-972.168,81.055,14.648,0
1582734954.111,30.762,-972.168,68.848,14.160,0
1582734954.115,31.250,-972.168,45.898,20.508,0
1582734954.119,35.156,-972.168,36.133,19.043,0
1582734954.122,29.785,-972.168,80.566,8.789,0
1582734954.126,25.391,-972.168,100.098,14.648,0
1582734954.130,27.832,-972.168,62.988,20.508,0
1582734954.134,26.855,-972.168,73.730,19.043,0
1582734954.138,26.367,-972.168,88.379,20.020,0
1582734954.140,27.344,-972.168,75.684,13.184,0
1582734954.144,28.809,-972.168,65.918,16.602,0
1582734954.148,29.297,-972.168,67.871,20.020,0
1582734954.152,37.109,-972.168,77.637,19.531,0
1582734954.156,45.410,-972.168,56.641,24.414,0
1582734954.160,46.387,-972.168,37.109,27.832,0
1582734954.164,38.086,-972.168,51.758,25.391,0
1582734954.167,43.457,-972.168,69.824,29.785,0
1582734954.171,40.039,-972.168,87.402,30.762,0
1582734954.175,24.902,-972.168,49.805,22.949,0
1582734954.179,27.832,-972.168,40.039,22.461,0
1582734954.183,30.273,-972.168,98.633,25.391,0
1582734954.185,28.809,-972.168,86.426,25.879,0
1582734954.189,30.273,-972.168,72.754,27.344,0
1582734954.193,26.367,-972.168,73.242,26.855,0
1582734954.197,25.391,-972.168,72.266,26.855,0
1582734954.201,23.438,-972.168,76.660,30.762,0
1582734954.205,15.137,-972.168,63.965,23.926,0
1582734954.209,17.090,-972.168,56.152,19.043,0
1582734954.212,23.926,-972.168,64.941,24.414,0
1582734954.216,31.250,-972.168,65.430,30.273,0
1582734954.220,31.250,-972.168,46.875,29.785,0
1582734954.224,26.367,-972.168,77.637,25.879,0
1582734954.228,27.832,-972.168,96.191,26.855,0
1582734954.230,39.551,-972.168,73.730,32.715,0
1582734954.234,38.574,-972.168,65.918,34.668,0
1582734954.238,27.344,-972.168,82.520,33.203,0
1582734954.242,34.668,-972.168,73.730,36.621,17233
1582734954.246,43.945,-972.168,53.711,40.039,0
1582734954.250,42.969,-972.168,46.387,40.527,0
1582734954.254,36.133,-972.168,50.293,40.527,0
1582734954.257,33.203,-972.168,77.148,42.480,0
1582734954.261,37.598,-972.168,57.129,38.086,0
1582734954.265,34.668,-972.168,59.570,32.227,0
1582734954.269,27.344,-972.168,93.262,40.039,0
1582734954.273,23.926,-972.168,62.500,32.715,0
1582734954.275,18.555,-972.168,58.594,28.809,0
1582734954.279,14.648,-972.168,76.660,34.668,0
1582734954.283,12.207,-972.168,80.078,26.855,0
1582734954.287,9.766,-972.168,74.707,23.438,0
1582734954.291,13.672,-972.168,56.641,29.785,0
1582734954.295,25.879,-972.168,55.664,31.250,0
1582734954.299,24.902,-972.168,80.078,23.926,0
1582734954.302,15.137,-971.680,79.102,23.926,0
1582734954.306,21.973,-972.168,46.387,28.320,0
1582734954.310,29.297,-972.656,78.613,38.574,0
1582734954.314,31.738,-962.891,100.586,41.992,0
1582734954.318,33.203,-966.797,70.801,36.133,0
1582734954.320,31.250,-973.633,64.453,36.621,0
1582734954.324,31.738,-971.191,79.590,40.527,0
1582734954.328,43.945,-972.168,87.891,47.363,0
1582734954.332,52.246,-972.168,63.965,46.387,0
1582734954.336,39.551,-972.168,64.941,43.945,0
1582734954.340,37.598,-972.168,65.918,46.875,0
1582734954.344,41.016,-972.168,75.195,50.781,0
1582734954.347,46.875,-971.680,56.641,48.340,0
1582734954.351,40.527,-972.656,50.293,38.574,0
1582734954.355,27.344,-967.773,88.379,35.156,0
1582734954.359,26.367,-967.285,69.336,33.691,0
1582734954.363,30.762,-972.656,58.594,31.250,0
1582734954.365,33.691,-972.168,76.172,32.227,0
1582734954.369,32.227,-972.168,85.449,30.273,0
1582734954.373,29.297,-972.168,73.242,32.715,0
1582734954.377,23.926,-972.168,65.918,34.180,0
1582734954.381,20.020,-972.168,65.430,25.879,0
1582734954.385,17.578,-972.168,62.012,19.531,0
1582734954.389,23.438,-972.168,64.453,24.902,0
1582734954.392,23.926,-971.191,51.270,23.438,0
1582734954.396,20.020,-975.586,77.637,12.695,0
1582734954.400,20.508,-955.078,106.934,20.508,0
1582734954.404,23.926,-947.754,82.520,38.574,0
1582734954.408,32.227,-972.656,65.430,32.227,0
1582734954.410,35.645,-976.562,76.660,26.367,0
1582734954.414,24.902,-941.895,83.496,21.484,0
1582734954.418,30.762,-948.730,62.500,28.809,0
1582734954.422,45.410,-969.238,78.613,43.945,0
1582734954.426,41.016,-955.078,89.355,30.762,0
1582734954.430,30.273,-972.168,56.641,22.949,0
1582734954.434,38.574,-972.656,36.621,31.250,0
1582734954.437,52.246,-971.191,52.246,35.645,0
1582734954.441,47.363,-974.121,100.098,38.574,0
1582734954.445,30.762,-960.449,94.238,26.367,0
1582734954.449,20.996,-962.402,76.660,20.508,0
1582734954.453,29.297,-974.121,76.172,30.273,0
1582734954.455,36.621,-971.191,83.496,26.367,0
1582734954.459,32.715,-972.168,66.406,22.949,0
1582734954.463,27.344,-972.168,47.363,23.926,0
1582734954.467,39.062,-972.168,67.871,33.691,0
1582734954.471,44.434,-972.168,83.984,35.156,0
1582734954.475,29.297,-971.680,55.664,22.949,0
1582734954.479,29.297,-972.168,31.738,20.020,0
1582734954.482,21.973,-973.633,74.707,21.484,0
1582734954.486,11.719,-953.613,87.891,20.996,0
1582734954.490,19.531,-959.473,55.664,25.879,0
1582734954.494,25.879,-975.586,46.387,32.715,0
1582734954.498,24.414,-970.703,62.500,32.227,0
1582734954.515,27.832,-972.168,69.336,30.762,0
1582734954.519,43.457,-972.168,60.547,32.715,0
1582734954.523,29.785,-972.168,50.781,27.344,0
1582734954.527,9.277,-972.168,57.617,23.926,0
1582734954.531,20.020,-972.168,53.711,31.738,0
1582734954.535,25.391,-969.238,21.973,34.668,0
1582734954.539,20.508,-979.980,44.434,30.762,0
1582734954.542,22.461,-930.176,78.125,18.066,0
1582734954.546,22.949,-899.414,61.035,14.648,0
1582734954.550,19.531,-959.961,21.484,14.160,0
1582734954.554,16.602,-979.004,35.645,7.324,0
1582734954.558,20.996,-958.984,72.754,18.555,0
1582734954.560,14.160,-940.918,54.688,13.184,0
1582734954.564,11.719,-966.309,43.457,5.859,0
1582734954.568,16.602,-974.609,67.383,16.602,0
1582734954.572,15.625,-970.703,73.730,15.137,0
1582734954.576,12.695,-972.168,59.570,15.625,0
1582734954.580,18.066,-972.168,46.387,23.438,0
1582734954.584,27.832,-972.168,57.129,16.602,0
1582734954.587,20.020,-972.168,60.059,8.789,0
1582734954.591,17.578,-972.168,39.551,27.344,0
1582734954.595,15.137,-971.680,25.391,28.320,0
1582734954.599,14.160,-973.633,69.824,11.719,0
1582734954.603,21.484,-968.750,88.867,12.695,0
1582734954.605,21.484,-966.797,64.941,24.414,0
1582734954.609,24.414,-963.867,68.848,29.297,0
1582734954.613,30.762,-912.109,88.867,34.180,0
1582734954.617,35.645,-911.133,73.730,34.668,0
1582734954.621,33.203,-966.309,39.551,28.320,0
1582734954.625,23.438,-974.121,36.133,34.668,0
1582734954.629,24.414,-969.727,54.199,31.250,0
1582734954.632,28.809,-972.656,83.008,26.367,0
1582734954.636,24.414,-969.727,49.316,28.809,0
1582734954.640,11.230,-977.539,40.527,20.996,0
1582734954.644,21.973,-947.754,86.914,27.832,0
1582734954.648,39.551,-912.109,73.242,35.156,0
1582734954.650,28.320,-954.590,51.758,21.973,0
1582734954.654,21.484,-976.562,55.664,22.461,0
1582734954.658,27.832,-970.215,65.918,32.715,0
1582734954.662,38.574,-972.168,52.246,27.832,0
1582734954.666,35.645,-972.168,35.645,14.160,0
1582734954.670,33.203,-972.168,37.109,20.020,0
1582734954.674,33.203,-972.168,56.152,21.484,0
1582734954.677,28.809,-969.727,51.270,20.996,0
1582734954.681,22.949,-978.027,33.691,24.902,0
1582734954.685,14.160,-948.242,71.777,20.508,0
1582734954.689,14.160,-917.480,77.637,22.949,0
1582734954.693,14.160,-962.891,39.551,23.926,0
1582734954.695,20.020,-976.074,39.062,24.902,0
1582734954.699,29.785,-969.727,63.965,31.250,0
1582734954.703,29.297,-972.656,54.688,30.762,0
1582734954.707,19.043,-972.168,33.203,33.691,0
1582734954.711,18.555,-972.168,50.293,32.715,0
1582734954.715,25.879,-972.656,45.898,25.879,0
1582734954.719,27.344,-970.215,49.316,26.367,0
1582734954.722,22.461,-974.609,45.898,20.020,0
1582734954.726,26.855,-966.797,43.457,24.414,0
1582734954.730,28.809,-908.691,77.637,24.902,0
1582734954.734,28.809,-931.152,55.176,21.484,0
1582734954.738,35.156,-982.422,48.828,26.367,0
1582734954.740,39.062,-958.008,62.500,23.438,0
1582734954.744,41.016,-915.039,62.988,21.484,0
1582734954.748,39.551,-927.734,42.480,23.926,0
1582734954.752,35.645,-975.098,24.414,26.855,0
1582734954.756,30.273,-958.008,58.594,29.297,0
1582734954.760,39.062,-958.008,60.059,34.180,0
1582734954.764,45.410,-974.609,41.016,36.621,0
1582734954.767,28.320,-971.191,35.156,25.879,0
1582734954.771,28.320,-971.191,67.383,23.926,0
1582734954.775,47.363,-941.895,87.891,32.715,0
1582734954.779,42.969,-938.965,64.453,35.645,0
1582734954.783,44.434,-972.656,58.594,34.180,0
1582734954.785,45.898,-972.656,47.852,30.762,0
1582734954.789,38.574,-970.703,39.062,28.809,0
1582734954.793,31.250,-972.656,41.504,27.832,0
1582734954.797,23.926,-972.168,45.898,24.414,0
1582734954.801,26.855,-967.285,48.340,26.855,0
1582734954.805,34.668,-969.238,27.832,33.691,0
1582734954.809,36.621,-974.609,5.371,32.715,0
1582734954.812,36.621,-968.262,37.598,31.738,0
1582734954.816,34.180,-957.520,87.891,28.809,0
1582734954.820,30.273,-970.215,68.359,31.738,0
1582734954.824,29.297,-973.145,62.988,24.414,0
1582734954.828,29.785,-973.145,71.289,20.020,0
1582734954.830,21.973,-947.754,78.125,22.461,0
1582734954.834,18.555,-951.172,57.129,19.043,0
1582734954.838,27.832,-976.074,59.082,18.555,0
1582734954.842,25.879,-971.191,55.664,12.695,0
1582734954.846,19.531,-970.703,41.016,12.695,0
1582734954.850,21.484,-971.680,35.156,20.508,0
1582734954.854,23.926,-974.121,49.316,17.578,0
1582734954.857,23.438,-935.059,94.727,11.230,0
1582734954.861,16.602,-911.133,88.379,10.742,0
1582734954.865,12.695,-940.430,63.965,6.348,0
1582734954.869,21.973,-973.633,59.570,13.184,0
1582734954.873,29.785,-966.309,71.777,18.066,0
1582734954.890,20.996,-925.293,70.312,7.812,0
1582734954.894,23.438,-948.730,51.758,17.090,0
1582734954.898,41.016,-977.539,56.641,35.156,0
1582734954.902,38.086,-970.215,78.613,34.180,0
1582734954.906,32.715,-972.168,64.941,24.414,0
1582734954.910,26.367,-972.168,35.645,13.672,0
1582734954.914,23.926,-972.168,51.758,17.090,0
1582734954.917,30.762,-972.168,77.637,23.438,0
1582734954.921,28.320,-972.168,87.402,20.508,0
1582734954.925,34.668,-972.168,63.965,28.320,0
1582734954.929,29.785,-972.168,69.336,30.273,0
1582734954.933,24.414,-972.168,98.145,29.785,0
1582734954.935,29.297,-972.168,82.031,30.762,0
1582734954.939,29.297,-972.168,63.477,31.250,0
1582734954.943,26.855,-972.168,70.312,30.762,0
1582734954.947,27.832,-972.168,80.566,34.668,0
1582734954.951,32.715,-972.168,72.754,35.156,0
1582734954.955,21.973,-972.168,63.477,32.715,0
1582734954.959,15.625,-972.168,58.594,33.691,0
1582734954.962,25.391,-972.168,79.590,35.645,0
1582734954.966,33.691,-972.168,79.102,36.621,0
1582734954.970,34.180,-972.168,31.250,29.297,0
1582734954.974,34.668,-972.168,56.152,24.902,0
1582734954.978,31.738,-972.168,90.820,27.832,0
1582734954.980,32.227,-972.168,61.523,26.367,0
1582734954.984,37.109,-971.191,63.965,28.320,0
1582734954.988,37.598,-971.680,78.125,33.203,0
1582734954.992,36.133,-972.168,68.848,36.621,0
1582734954.996,34.180,-972.168,55.664,29.785,0
1582734955.000,32.715,-972.168,57.129,20.508,0
1582734955.004,29.297,-972.168,65.918,18.066,0
1582734955.007,23.438,-971.191,80.566,21.484,0
1582734955.011,29.297,-972.168,47.852,23.926,0
1582734955.015,36.621,-967.285,47.852,20.996,0
1582734955.019,25.391,-935.059,91.797,15.137,0
1582734955.023,17.578,-892.090,86.426,21.484,0
1582734955.025,23.926,-932.617,66.895,32.227,0
1582734955.029,30.273,-979.004,61.035,31.738,0
1582734955.033,29.297,-969.727,75.684,27.832,0
1582734955.037,22.949,-971.680,63.965,29.785,0
1582734955.041,22.461,-972.168,60.059,35.645,0
1582734955.045,24.414,-972.168,53.711,30.762,0
1582734955.049,21.484,-972.168,71.777,24.414,0
1582734955.052,24.902,-972.168,71.777,24.902,0
1582734955.056,23.926,-971.191,48.340,25.879,0
1582734955.060,29.297,-975.586,83.984,31.250,0
1582734955.064,32.715,-956.055,99.609,25.879,0
1582734955.068,22.949,-950.684,58.105,20.508,0
1582734955.070,21.484,-974.121,56.152,24.902,0
1582734955.074,28.809,-933.594,86.914,31.738,0
1582734955.078,32.715,-900.391,77.637,32.715,0
1582734955.082,28.809,-945.801,53.711,24.414,0
1582734955.086,34.180,-975.586,56.641,22.461,0
1582734955.090,38.574,-970.703,80.078,23.438,0
1582734955.094,32.227,-971.680,64.941,22.461,0
1582734955.097,33.203,-971.680,29.785,19.531,0
1582734955.101,27.832,-972.656,41.992,12.207,0
1582734955.105,13.672,-970.703,80.566,8.301,0
1582734955.109,15.137,-966.309,63.965,8.301,0
1582734955.113,22.949,-967.285,51.758,14.648,0
1582734955.115,22.949,-978.516,58.594,16.602,0
1582734955.119,20.996,-936.523,72.266,16.602,0
1582734955.123,19.531,-887.207,72.266,19.531,0
1582734955.127,18.066,-955.078,53.223,17.090,0
1582734955.131,21.973,-968.750,74.219,20.996,0
1582734955.135,21.484,-958.496,69.336,25.879,0
1582734955.139,17.578,-972.656,26.855,25.391,0
1582734955.142,21.973,-977.539,20.508,25.391,0
1582734955.146,18.555,-941.895,76.172,20.508,0
1582734955.150,19.531,-924.316,83.984,21.484,0
1582734955.154,27.344,-967.773,51.270,28.809,0
1582734955.158,33.691,-962.891,50.293,28.809,0
1582734955.160,28.320,-930.664,62.988,24.902,0
1582734955.164,35.645,-921.875,57.129,25.391,0
1582734955.168,40.527,-958.984,28.320,29.297,0
1582734955.172,36.621,-975.586,35.645,25.879,0
1582734955.176,36.133,-970.215,53.711,21.484,0
1582734955.180,25.879,-972.656,44.434,16.113,0
1582734955.184,23.926,-972.168,17.578,17.090,0
1582734955.187,20.996,-972.168,35.156,19.531,0
1582734955.191,18.066,-972.168,83.008,20.508,0
1582734955.195,21.484,-970.703,62.988,26.367,0
1582734955.199,28.809,-973.633,55.664,27.832,0
1582734955.203,30.273,-969.238,81.543,27.832,0
1582734955.205,25.879,-936.523,90.820,30.762,0
1582734955.209,34.180,-947.266,67.383,25.879,0
1582734955.213,25.879,-975.098,56.641,15.625,0
1582734955.217,17.090,-971.191,72.754,16.113,0
1582734955.221,20.508,-971.680,81.543,24.414,0
1582734955.225,23.926,-972.168,64.453,20.508,0
1582734955.229,17.090,-972.168,41.504,16.113,0
1582734955.232,13.184,-972.168,80.566,17.578,0
1582734955.236,23.926,-972.168,102.539,16.602,0
1582734955.240,33.203,-972.168,73.730,18.066,0
1582734955.244,30.762,-972.168,71.777,22.949,0
1582734955.248,26.367,-972.168,91.797,27.344,18501
1582734955.265,32.715,-971.680,75.684,29.785,0
1582734955.269,39.551,-971.680,58.594,31.738,0
1582734955.273,35.156,-973.145,84.961,25.879,0
1582734955.277,30.762,-958.008,92.285,24.902,0
1582734955.281,31.738,-955.078,81.543,30.762,0
1582734955.285,31.738,-977.539,47.363,29.297,0
1582734955.289,33.691,-958.496,62.500,22.949,0
1582734955.292,30.273,-949.707,91.309,22.949,0
1582734955.296,20.996,-973.633,81.543,28.320,0
1582734955.300,26.855,-972.168,61.035,29.297,0
1582734955.304,30.762,-971.191,61.523,22.461,0
1582734955.308,21.973,-972.168,90.820,19.531,0
1582734955.310,25.879,-971.680,80.566,26.855,0
1582734955.314,28.809,-971.680,58.594,29.785,0
1582734955.318,27.832,-972.168,66.406,22.461,0
1582734955.322,27.832,-972.168,59.570,22.949,0
1582734955.326,26.367,-972.168,51.758,25.391,0
1582734955.330,28.320,-972.168,62.500,26.367,0
1582734955.334,31.738,-972.168,60.547,29.297,0
1582734955.337,30.762,-972.168,74.219,24.414,0
1582734955.341,32.715,-972.168,64.941,26.367,0
1582734955.345,36.621,-972.168,40.039,26.855,0
1582734955.349,30.762,-972.168,68.848,17.578,0
1582734955.353,26.855,-972.168,71.777,9.766,0
1582734955.355,40.039,-972.168,51.758,15.137,0
1582734955.359,38.086,-972.168,58.105,19.043,0
1582734955.363,25.879,-972.168,72.754,16.113,0
1582734955.367,34.180,-972.168,79.102,20.996,0
1582734955.371,32.227,-972.168,60.547,28.320,0
1582734955.375,19.531,-972.168,52.734,31.738,0
1582734955.379,22.461,-972.168,62.988,38.086,0
1582734955.382,31.250,-972.168,62.988,40.527,0
1582734955.386,32.227,-972.168,36.133,31.738,0
1582734955.390,26.855,-972.168,28.809,25.879,0
1582734955.394,27.344,-972.168,62.988,22.461,0
1582734955.398,30.273,-970.703,57.129,20.020,0
1582734955.400,23.926,-971.191,37.598,14.648,0
1582734955.404,23.926,-972.168,52.734,17.090,0
1582734955.408,28.809,-972.168,66.895,21.973,0
1582734955.412,26.367,-972.168,65.918,23.926,0
1582734955.416,26.855,-972.168,58.105,23.926,0
1582734955.420,31.250,-972.168,54.199,29.297,0
1582734955.424,30.273,-972.168,75.195,35.645,0
1582734955.427,31.738,-972.168,83.008,36.621,0
1582734955.431,42.480,-972.168,63.477,30.762,0
1582734955.435,43.457,-972.168,73.730,31.738,0
1582734955.439,30.762,-972.168,96.191,44.922,0
1582734955.443,21.484,-972.168,87.402,41.504,0
1582734955.445,26.367,-970.703,72.266,32.227,0
1582734955.449,20.996,-975.098,82.520,26.855,0
1582734955.453,16.113,-963.379,88.867,28.809,0
1582734955.457,28.320,-954.590,74.707,34.180,0
1582734955.461,25.879,-972.168,69.824,27.832,0
1582734955.465,20.020,-973.145,55.176,17.090,0
1582734955.469,17.578,-969.238,68.359,16.602,0
1582734955.472,18.555,-977.539,55.664,20.996,0
1582734955.476,27.832,-951.660,53.711,25.391,0
1582734955.480,24.902,-937.012,91.309,25.879,0
1582734955.484,16.602,-937.500,78.125,24.414,0
1582734955.488,12.695,-944.336,70.801,26.855,0
1582734955.490,20.996,-976.074,69.824,27.344,0
1582734955.494,26.367,-970.703,78.613,23.926,0
1582734955.498,21.484,-971.680,81.543,21.484,0
1582734955.502,21.973,-972.168,67.383,24.414,0
1582734955.506,24.902,-972.168,70.801,30.273,0
1582734955.510,29.297,-972.168,64.941,35.645,0
1582734955.514,33.203,-972.168,49.805,33.203,0
1582734955.517,27.832,-972.168,50.293,31.250,0
1582734955.521,25.879,-972.656,89.355,30.762,0
1582734955.525,31.738,-961.914,97.168,27.344,0
1582734955.529,29.785,-961.914,67.871,27.832,0
1582734955.533,28.809,-973.145,55.664,24.902,0
1582734955.535,28.320,-972.168,65.918,22.949,0
1582734955.539,22.461,-971.680,75.684,24.902,0
1582734955.543,20.020,-972.168,64.941,22.949,0
1582734955.547,21.973,-972.168,52.734,16.602,0
1582734955.551,14.648,-972.168,56.152,11.719,0
1582734955.555,17.090,-970.703,54.199,14.648,0
1582734955.559,13.184,-973.633,32.715,8.301,0
1582734955.562,4.395,-970.703,44.922,1.953,0
1582734955.566,13.184,-948.730,86.914,7.324,0
1582734955.570,14.648,-963.379,66.406,7.324,0
1582734955.574,15.625,-975.586,63.965,6.836,0
1582734955.578,16.602,-970.215,79.590,7.812,0
1582734955.580,13.672,-972.656,80.566,13.184,0
1582734955.584,21.484,-972.168,70.312,16.113,0
1582734955.588,25.391,-972.168,67.871,19.531,0
1582734955.592,16.113,-972.168,82.031,17.090,0
1582734955.596,14.160,-972.168,75.684,6.348,0
1582734955.600,18.555,-972.168,45.410,10.742,0
1582734955.604,20.508,-972.168,35.156,11.719,0
1582734955.607,18.555,-971.680,67.871,11.719,0
1582734955.611,19.043,-970.703,84.473,13.184,0
1582734955.615,21.484,-970.703,68.848,17.090,0
1582734955.619,24.902,-973.145,68.359,24.902,0
1582734955.623,32.715,-966.309,82.520,21.973,0
1582734955.640,25.879,-920.410,84.961,13.672,0
1582734955.644,19.531,-926.758,56.641,15.625,0
1582734955.648,26.855,-972.656,49.316,22.461,0
1582734955.652,30.273,-963.867,66.406,22.949,0
1582734955.656,24.902,-966.309,66.895,26.855,0
1582734955.660,21.484,-971.680,30.273,22.949,0
1582734955.664,21.484,-977.051,27.832,21.973,0
1582734955.667,20.996,-947.754,87.891,28.320,0
1582734955.671,26.855,-933.105,83.496,31.250,0
1582734955.675,29.785,-970.703,39.551,27.344,0
1582734955.679,26.367,-973.633,47.363,25.879,0
1582734955.683,30.762,-969.238,71.289,28.809,0
1582734955.686,35.156,-971.191,51.270,24.414,0
1582734955.690,30.273,-971.191,41.992,25.391,0
1582734955.694,35.156,-974.609,53.223,30.762,0
1582734955.698,37.109,-961.914,63.477,36.133,0
1582734955.702,34.180,-948.242,54.199,35.645,0
1582734955.706,33.691,-969.727,35.156,32.227,0
1582734955.710,28.320,-973.633,47.852,34.668,0
1582734955.713,29.297,-971.191,71.289,37.109,0
1582734955.717,29.785,-972.168,58.105,38.086,0
1582734955.721,25.391,-972.168,33.203,33.203,0
1582734955.725,22.461,-972.168,63.477,35.645,0
1582734955.729,26.855,-972.168,78.613,39.551,0
1582734955.730,32.715,-972.168,50.781,41.504,0
1582734955.734,33.691,-972.168,59.570,47.363,0
1582734955.738,33.203,-972.168,76.660,50.293,0
1582734955.742,36.621,-971.680,77.637,50.293,0
1582734955.746,31.250,-971.680,56.641,44.922,0
1582734955.750,24.414,-972.168,34.180,33.203,0
1582734955.754,26.367,-972.168,59.082,32.715,0
1582734955.757,29.785,-972.168,79.590,41.992,0
1582734955.761,36.621,-972.168,40.039,43.457,0
1582734955.765,43.457,-972.168,33.203,40.039,0
1582734955.769,41.504,-972.168,75.195,37.598,0
1582734955.773,31.250,-972.168,63.477,37.598,0
1582734955.775,35.156,-972.168,58.105,45.410,0
1582734955.779,47.852,-972.168,55.664,45.898,0
1582734955.783,36.133,-972.168,55.176,36.133,0
1582734955.787,26.367,-972.168,53.223,37.109,0
1582734955.791,25.391,-972.168,45.898,37.598,0
1582734955.795,29.297,-972.168,54.199,35.645,0
1582734955.799,30.273,-972.168,64.941,39.062,0
1582734955.802,20.996,-972.168,65.918,33.691,0
1582734955.806,18.066,-970.215,40.039,26.855,0
1582734955.810,20.508,-976.562,59.082,38.086,0
1582734955.814,14.648,-957.031,84.961,30.762,0
1582734955.818,12.695,-942.383,61.523,25.391,0
1582734955.820,20.020,-969.238,53.711,30.762,0
1582734955.824,16.602,-980.469,70.801,26.855,0
1582734955.828,15.137,-937.500,77.637,28.320,0
1582734955.832,16.602,-928.711,61.523,27.344,0
1582734955.836,18.066,-975.586,58.594,26.855,0
1582734955.840,21.484,-972.168,59.082,27.344,0
1582734955.844,24.414,-970.215,56.641,32.715,0
1582734955.847,23.438,-971.191,48.340,29.785,0
1582734955.851,18.555,-968.750,61.035,24.414,0
1582734955.855,15.137,-925.781,96.680,23.926,0
1582734955.859,22.949,-871.582,85.938,21.484,0
1582734955.863,23.926,-932.617,62.500,25.391,0
1582734955.865,22.949,-961.426,66.895,28.320,0
1582734955.869,26.367,-893.555,82.031,27.832,0
1582734955.873,27.344,-884.766,64.941,28.809,0
1582734955.877,31.738,-954.102,43.945,26.367,0
1582734955.881,33.203,-972.168,57.129,21.484,0
1582734955.885,32.715,-963.867,58.105,26.855,0
1582734955.889,31.738,-973.145,43.945,28.809,0
1582734955.892,31.250,-974.609,27.832,19.531,0
1582734955.896,21.973,-960.449,67.383,18.066,0
1582734955.900,9.277,-955.566,81.543,18.555,0
1582734955.904,11.230,-974.121,51.758,20.020,0
1582734955.908,15.137,-972.168,63.477,21.484,0
1582734955.910,9.766,-968.750,70.801,20.996,0
1582734955.914,18.555,-970.215,64.453,24.902,0
1582734955.918,28.809,-973.145,61.035,32.227,0
1582734955.922,19.531,-969.238,62.012,35.156,0
1582734955.926,13.672,-963.867,61.523,26.855,0
1582734955.930,11.230,-971.680,45.410,16.113,0
1582734955.934,7.324,-971.191,33.203,9.766,0
1582734955.937,13.184,-974.121,49.805,17.090,0
1582734955.941,14.648,-962.891,83.984,17.090,0
1582734955.945,2.930,-933.105,78.125,11.230,0
1582734955.949,7.812,-958.008,56.152,17.578,0
1582734955.953,18.066,-963.867,61.523,24.414,0
1582734955.955,14.160,-955.078,70.312,23.438,0
1582734955.959,15.625,-972.656,61.523,21.973,0
1582734955.963,19.043,-973.633,56.152,26.367,0
1582734955.967,16.602,-969.238,65.430,26.367,0
1582734955.971,17.578,-938.477,80.078,23.438,0
1582734955.975,22.461,-956.055,52.734,21.973,0
1582734955.979,22.461,-978.516,31.738,25.391,0
1582734955.982,17.090,-963.379,73.730,25.879,0
1582734955.986,25.879,-956.055,97.656,25.879,0
1582734955.990,31.738,-958.496,78.125,26.855,0
1582734955.994,31.250,-967.773,65.918,26.855,0
1582734955.998,27.344,-975.586,76.172,30.762,0
1582734956.015,29.297,-958.496,87.891,36.621,0
1582734956.019,40.039,-960.449,62.988,38.086,0
1582734956.023,35.645,-968.262,67.383,27.344,0
1582734956.027,37.109,-959.961,84.473,32.715,0
1582734956.031,48.340,-971.680,74.707,35.156,0
1582734956.035,49.316,-972.656,42.480,30.762,0
1582734956.039,40.039,-971.680,42.480,33.203,0
1582734956.042,33.691,-972.168,81.543,27.344,0
1582734956.046,23.438,-972.168,81.055,26.367,0
1582734956.050,20.020,-972.168,65.430,26.367,0
1582734956.054,23.438,-972.168,65.918,27.344,0
1582734956.058,21.484,-972.168,70.312,29.785,0
1582734956.060,21.484,-972.168,67.383,22.949,0
1582734956.064,15.137,-971.680,61.035,12.207,0
1582734956.068,11.719,-972.656,60.547,6.348,0
1582734956.072,12.207,-973.145,70.801,5.859,0
1582734956.076,10.742,-952.148,73.730,13.184,0
1582734956.080,9.277,-960.449,56.641,17.090,0
1582734956.084,13.184,-975.586,58.594,13.184,0
1582734956.087,12.207,-971.191,83.008,11.719,0
1582734956.091,13.672,-968.262,62.012,15.137,0
1582734956.095,26.367,-981.445,28.320,24.902,0
1582734956.099,36.133,-942.383,72.754,31.250,0
1582734956.103,34.180,-884.277,82.520,29.297,0
1582734956.105,38.574,-949.219,34.668,32.227,0
1582734956.109,46.387,-978.027,42.969,41.016,0
1582734956.113,43.945,-964.844,68.359,43.457,0
1582734956.117,43.457,-971.680,63.477,39.551,0
1582734956.121,44.922,-972.656,59.082,42.480,0
1582734956.125,44.434,-971.191,49.805,44.434,0
1582734956.129,45.898,-974.121,58.105,42.480,0
1582734956.132,43.457,-965.820,85.449,37.598,0
1582734956.136,43.457,-962.402,54.688,33.691,0
1582734956.140,41.016,-972.656,35.645,33.203,0
1582734956.144,31.250,-970.703,75.684,28.320,0
1582734956.148,31.738,-970.215,65.918,23.438,0
1582734956.150,29.297,-977.051,59.082,26.855,0
1582734956.154,27.344,-940.918,70.801,29.297,0
1582734956.158,27.832,-919.434,62.988,29.297,0
1582734956.162,27.344,-963.867,46.387,31.250,0
1582734956.166,27.832,-974.609,47.852,32.227,0
1582734956.170,21.973,-970.215,51.758,31.250,0
1582734956.174,11.719,-973.145,65.430,38.086,0
1582734956.177,8.789,-968.750,81.543,42.480,0
1582734956.181,12.207,-977.539,50.781,29.297,0
1582734956.185,17.090,-954.590,80.078,29.297,0
1582734956.189,17.090,-878.906,110.352,36.133,0
1582734956.193,19.531,-918.945,65.430,30.273,0
1582734956.195,30.273,-983.887,47.852,30.762,0
1582734956.199,26.855,-958.984,77.148,28.320,0
1582734956.203,20.508,-907.227,79.590,27.832,0
1582734956.207,27.832,-940.430,47.852,30.762,0
1582734956.211,35.156,-968.750,60.059,26.855,0
1582734956.215,34.668,-958.984,67.871,30.273,0
1582734956.219,36.133,-972.656,71.777,40.039,0
1582734956.222,35.156,-973.633,64.453,34.668,0
1582734956.226,34.180,-967.773,65.430,31.738,0
1582734956.230,32.227,-937.500,103.516,33.691,0
1582734956.234,29.297,-944.824,89.355,29.297,0
1582734956.238,24.414,-975.098,83.984,27.344,0
1582734956.240,24.414,-945.312,93.262,21.973,0
1582734956.244,22.461,-897.461,83.984,19.043,0
1582734956.248,16.113,-920.410,62.012,18.555,0
1582734956.252,16.113,-963.867,55.176,23.926,0
1582734956.256,13.184,-973.633,71.777,23.926,0
1582734956.260,13.672,-970.703,63.965,18.555,0
1582734956.264,11.719,-972.168,62.500,13.184,0
1582734956.267,9.277,-971.191,59.082,10.742,0
1582734956.271,16.602,-976.562,82.520,14.160,0
1582734956.275,16.602,-942.871,102.051,12.207,0
1582734956.279,19.043,-935.059,66.895,10.742,0
1582734956.283,28.809,-984.863,64.453,19.043,0
1582734956.285,29.297,-931.641,93.750,22.949,0
1582734956.289,33.203,-880.859,89.844,27.344,0
1582734956.293,41.504,-946.777,60.547,33.691,0
1582734956.297,34.668,-975.098,66.895,36.133,0
1582734956.301,26.855,-957.031,72.754,30.762,0
1582734956.305,27.344,-964.355,59.570,27.832,0
1582734956.309,19.043,-973.633,38.086,24.414,0
1582734956.312,16.113,-973.145,43.457,18.555,0
1582734956.316,13.184,-965.332,91.309,17.090,0
1582734956.320,15.625,-951.660,77.148,21.973,0
1582734956.324,21.484,-969.238,65.430,21.484,0
1582734956.328,20.020,-970.703,78.613,18.555,0
1582734956.330,20.996,-967.285,76.660,25.391,0
1582734956.334,16.113,-964.355,75.195,27.832,0
1582734956.338,20.020,-966.797,71.777,23.438,0
1582734956.342,23.438,-964.355,78.613,20.508,0
1582734956.346,23.438,-945.801,77.637,23.926,0
1582734956.350,25.391,-959.473,53.711,32.227,0
1582734956.354,22.949,-982.910,39.551,25.879,0
1582734956.357,20.996,-942.383,79.102,20.996,0
1582734956.361,27.344,-899.902,82.031,23.438,0
1582734956.365,30.762,-959.961,46.387,24.902,0
1582734956.369,29.785,-972.656,57.617,28.320,0
1582734956.373,34.180,-962.402,64.453,25.391,0
1582734956.390,30.762,-966.797,55.664,23.926,0
1582734956.394,26.367,-971.680,40.527,24.902,0
1582734956.398,25.391,-972.168,53.223,25.391,0
1582734956.402,22.461,-970.703,58.594,22.949,0
1582734956.406,21.484,-972.168,54.199,18.066,0
1582734956.410,31.738,-972.168,29.785,27.832,27187
1582734956.414,25.391,-972.168,44.922,32.715,0
1582734956.417,13.184,-972.168,77.637,24.414,0
1582734956.421,14.160,-972.168,47.852,17.578,0
1582734956.425,3.906,-970.703,37.109,11.719,0
1582734956.429,-0.488,-976.074,51.270,15.625,0
1582734956.433,5.371,-953.125,66.406,18.555,0
1582734956.435,11.719,-951.660,57.129,13.672,0
