timestamps,TP9,AF7,AF8,TP10,Right AUX,Marker0
1555957448.955,150.391,66.895,-4.883,-972.168,228.516,0
1555957448.959,125.977,63.477,-160.645,-972.168,253.906,0
1555957448.963,123.535,63.965,-161.133,-972.168,276.855,0
1555957448.967,137.207,61.035,-111.328,-972.168,244.141,0
1555957448.971,139.160,52.246,-115.234,-972.168,230.469,0
1555957448.975,106.445,56.152,-222.168,-972.168,246.094,0
1555957448.979,81.543,60.547,-265.625,-972.168,270.508,0
1555957448.982,118.164,60.059,-85.938,-972.168,268.555,0
1555957448.986,129.883,62.012,-69.336,-972.168,231.934,0
1555957448.990,111.816,62.988,-307.617,-972.168,235.840,0
1555957448.994,101.562,62.500,-164.062,-972.168,275.879,0
1555957448.998,110.352,62.988,41.016,-972.168,293.457,0
1555957449.000,134.766,62.500,-84.473,-972.168,260.254,0
1555957449.004,119.141,62.500,-148.438,-972.168,262.695,0
1555957449.008,83.496,64.941,-100.586,-972.168,298.340,0
1555957449.012,91.797,68.848,-170.410,-972.168,288.086,0
1555957449.016,120.117,70.312,-238.281,-972.168,258.789,0
1555957449.020,110.840,62.988,-332.520,-972.168,221.191,0
1555957449.024,91.309,65.430,-408.203,-972.168,212.402,0
1555957449.027,88.867,68.359,-255.859,-972.168,243.652,0
1555957449.031,125.977,67.383,-350.098,-972.168,196.289,0
1555957449.035,143.555,75.684,-413.574,-972.168,167.480,0
1555957449.039,117.188,73.242,-77.148,-972.168,248.535,0
1555957449.043,105.957,75.195,-119.629,-972.168,289.551,0
1555957449.045,125.977,79.590,-235.840,-972.168,295.898,0
1555957449.049,137.695,73.730,-150.879,-972.168,306.152,0
1555957449.053,98.145,67.383,-184.570,-972.168,303.711,0
1555957449.057,88.379,66.895,-351.562,-972.168,342.773,0
1555957449.061,107.910,71.289,-360.840,-972.168,368.652,0
1555957449.065,119.141,67.383,-354.492,-972.168,315.918,0
1555957449.069,114.746,68.359,-369.141,-972.168,262.695,0
1555957449.072,77.148,65.430,-291.992,-972.168,298.340,0
1555957449.076,93.262,63.477,-437.988,-972.168,317.383,0
1555957449.080,131.348,71.777,-333.496,-972.168,260.254,0
1555957449.084,132.812,73.730,-98.633,-972.168,227.051,0
1555957449.088,112.793,74.707,-248.535,-972.168,210.938,0
1555957449.090,111.816,73.730,-310.059,-972.168,225.098,0
1555957449.094,132.812,70.801,-184.082,-972.168,225.586,0
1555957449.098,124.512,66.406,-205.566,-972.168,180.176,0
1555957449.102,105.469,64.453,-343.750,-972.168,163.574,0
1555957449.106,89.355,75.684,-352.539,-972.168,194.824,0
1555957449.110,100.586,76.172,-374.512,-972.168,152.832,0
1555957449.114,131.836,65.918,-345.703,-972.168,86.914,0
1555957449.117,125.000,63.965,-454.102,-972.168,20.508,0
1555957449.121,84.961,69.336,-461.914,-972.168,-2.441,0
1555957449.125,103.516,69.824,-183.594,-971.680,-41.992,0
1555957449.129,130.371,67.871,-172.363,-972.168,-145.020,0
1555957449.133,116.211,68.359,-319.824,-969.238,-237.793,0
1555957449.135,100.586,65.430,-385.742,-952.148,-288.086,0
1555957449.139,91.797,66.406,-270.996,-938.965,-272.461,0
1555957449.143,94.727,62.988,-237.305,-927.734,-305.664,0
1555957449.147,107.910,53.711,-307.617,-919.434,-362.305,0
1555957449.151,100.586,54.199,-298.828,-915.039,-361.816,0
1555957449.155,84.961,52.246,-324.707,-895.508,-323.242,0
1555957449.159,108.887,49.316,-312.500,-886.719,-323.730,0
1555957449.162,125.000,55.176,-391.113,-890.137,-368.652,0
1555957449.166,93.262,62.500,-269.043,-886.230,-375.977,0
1555957449.170,73.242,62.500,-133.789,-869.141,-354.492,0
1555957449.174,104.004,60.547,-270.020,-854.980,-354.980,0
1555957449.178,125.000,60.059,-194.824,-849.121,-374.023,0
1555957449.195,114.258,54.199,-115.234,-834.473,-362.305,0
1555957449.199,111.816,46.875,-161.133,-823.242,-305.176,0
1555957449.203,102.051,44.922,-255.859,-821.777,-274.902,0
1555957449.207,109.375,42.480,-171.387,-818.359,-248.535,0
1555957449.211,113.281,43.945,-102.539,-813.477,-237.305,0
1555957449.215,97.656,41.992,-272.949,-802.246,-225.098,0
1555957449.219,104.004,35.156,-464.844,-792.969,-195.801,0
1555957449.222,112.793,24.902,-404.785,-800.293,-227.539,0
1555957449.226,108.887,21.973,-27.344,-793.945,-204.590,0
1555957449.230,93.750,32.715,-53.223,-771.973,-189.453,0
1555957449.234,83.984,31.738,-215.820,-758.301,-159.180,0
1555957449.238,99.121,26.367,-122.070,-764.648,-122.070,0
1555957449.225,133.789,25.391,-84.961,-746.582,-122.559,0
1555957449.229,107.422,25.879,-234.375,-727.539,-133.789,0
1555957449.233,85.449,30.273,-229.492,-734.863,-92.773,0
1555957449.237,102.539,30.762,-154.297,-734.863,-86.426,0
1555957449.241,117.188,27.344,-97.168,-722.168,-104.004,0
1555957449.245,106.445,25.879,-203.125,-715.820,-83.496,0
1555957449.249,83.984,25.391,-291.992,-706.055,-61.035,0
1555957449.252,86.914,19.531,-170.898,-700.195,-55.176,0
1555957449.256,97.168,16.602,-21.484,-701.660,-39.062,0
1555957449.260,103.027,23.438,-75.684,-701.660,-15.625,0
1555957449.264,77.637,29.297,-381.348,-688.477,-23.438,0
1555957449.268,62.012,26.855,-238.281,-663.086,3.906,0
1555957449.285,72.266,17.578,-59.082,-667.480,-16.602,0
1555957449.289,88.379,12.695,-116.211,-676.758,-28.320,0
1555957449.293,79.590,15.625,-177.246,-658.203,-12.695,0
1555957449.297,57.617,5.371,-277.832,-639.160,6.836,0
1555957449.301,71.777,-3.906,-245.117,-644.531,-1.953,0
1555957449.305,82.520,1.953,-231.445,-644.043,-1.953,0
1555957449.309,65.430,13.672,-261.230,-626.953,8.789,0
1555957449.312,61.523,22.461,-66.895,-614.258,35.156,0
1555957449.316,76.660,21.973,-57.617,-611.816,53.223,0
1555957449.320,96.191,16.113,-174.805,-611.816,9.277,0
1555957449.324,85.449,14.160,-168.457,-603.027,-2.930,0
1555957449.328,62.012,20.508,-149.414,-589.844,32.715,0
1555957449.330,79.102,20.996,-201.172,-578.125,54.688,0
1555957449.334,105.957,20.996,-233.398,-579.102,23.926,0
1555957449.338,106.445,23.438,-126.953,-569.336,27.344,0
1555957449.342,80.078,22.461,-106.934,-545.410,55.176,0
1555957449.346,68.359,24.902,-245.117,-542.969,56.152,0
1555957449.350,83.008,28.809,-317.871,-546.387,34.668,0
1555957449.354,90.820,25.879,-252.930,-553.223,29.785,0
1555957449.357,73.242,16.113,-223.633,-550.293,35.156,0
1555957449.361,58.105,16.113,-244.629,-534.668,63.965,0
1555957449.365,77.148,19.043,-405.273,-538.574,36.621,0
1555957449.369,92.773,17.090,-206.055,-538.574,17.578,0
1555957449.373,89.355,18.066,-13.184,-520.020,40.527,0
1555957449.375,75.684,18.555,-204.590,-515.625,62.500,0
1555957449.379,81.543,20.508,-289.551,-518.555,53.711,0
1555957449.383,133.789,26.367,-156.738,-503.418,39.062,0
1555957449.387,125.000,15.625,-105.469,-492.188,49.805,0
1555957449.391,56.152,4.395,-266.602,-510.742,62.012,0
1555957449.395,33.203,3.906,-355.469,-516.113,81.543,0
1555957449.399,59.570,8.789,-307.617,-523.438,60.059,0
1555957449.402,80.566,16.113,-112.793,-512.207,56.641,0
1555957449.406,46.875,8.789,-260.254,-502.441,57.617,0
1555957449.410,49.805,1.465,-496.582,-500.488,41.992,0
1555957449.414,62.500,3.418,-161.621,-507.812,53.223,0
1555957449.418,62.988,1.953,47.363,-515.625,58.594,0
1555957449.421,52.246,7.812,-126.465,-494.141,30.762,0
1555957449.425,10.742,0.000,-208.984,-504.883,46.875,0
1555957449.429,35.645,-9.277,-140.625,-507.324,61.523,0
1555957449.433,52.734,-7.324,-115.723,-503.906,49.805,0
1555957449.437,29.297,-10.742,-181.641,-495.605,43.457,0
1555957449.441,34.180,-10.742,-263.184,-467.773,80.566,0
1555957449.445,61.523,-5.371,-201.172,-462.891,106.445,0
1555957449.448,81.543,-5.859,-107.422,-469.238,82.031,0
1555957449.452,71.777,-9.766,-317.383,-474.121,47.852,0
1555957449.456,41.992,-7.324,-294.434,-467.285,33.691,0
1555957449.460,29.297,-8.301,-115.723,-462.402,52.734,0
1555957449.464,78.613,-10.254,-135.742,-454.590,51.758,0
1555957449.465,97.656,-11.719,-182.129,-436.523,31.250,0
1555957449.469,67.871,-11.230,-158.691,-422.363,36.621,0
1555957449.473,50.293,-2.441,-107.422,-418.457,77.637,0
1555957449.477,38.086,-3.906,-182.129,-439.453,61.035,0
1555957449.481,64.941,-9.277,-168.945,-429.199,39.062,0
1555957449.485,60.547,-5.371,-215.332,-407.715,47.363,0
1555957449.489,44.434,-2.441,-324.707,-398.438,63.477,0
1555957449.492,65.918,-0.488,-376.465,-400.391,71.289,0
1555957449.496,84.961,-4.395,-357.910,-402.344,19.531,0
1555957449.500,65.918,-6.836,-151.367,-394.043,-3.418,0
1555957449.504,41.504,-7.324,-80.078,-391.113,50.781,0
1555957449.508,37.109,-7.812,-143.555,-387.207,81.543,0
1555957449.510,53.711,-15.625,-173.340,-387.207,34.668,0
1555957449.514,81.543,-20.996,-125.000,-382.324,26.855,0
1555957449.518,44.922,-23.926,-197.266,-375.977,56.152,0
1555957449.522,32.715,-27.832,-401.855,-371.094,45.898,0
1555957449.526,59.082,-27.344,-334.961,-364.258,24.902,0
1555957449.530,55.664,-20.996,-201.660,-368.164,13.184,0
1555957449.534,36.133,-17.578,-248.047,-365.234,30.762,0
1555957449.537,22.949,-17.578,-356.934,-342.773,63.965,0
1555957449.541,34.668,-13.184,-207.520,-345.703,48.340,0
1555957449.545,50.781,-19.531,18.555,-356.934,20.508,0
1555957449.549,39.551,-24.414,-92.773,-340.820,36.133,0
1555957449.553,5.859,-20.020,-192.871,-330.566,76.172,0
1555957449.556,18.066,-13.672,-165.039,-327.637,72.754,0
1555957449.560,56.152,-8.789,-90.332,-331.543,57.129,0
1555957449.564,31.738,-6.348,-194.824,-333.008,34.180,0
1555957449.568,8.789,-11.230,-282.715,-323.242,43.457,0
1555957449.572,20.996,-11.230,-188.965,-311.523,74.219,0
1555957449.576,47.363,-6.348,-200.195,-313.965,58.594,0
1555957449.580,43.945,-11.230,-388.672,-323.730,11.719,0
1555957449.583,9.277,-10.742,-357.910,-313.477,23.926,0
1555957449.587,3.906,-2.441,-6.348,-302.246,94.238,0
1555957449.591,28.320,-2.441,33.691,-302.734,74.707,0
1555957449.595,49.316,-9.766,-105.469,-311.523,27.832,0
1555957449.599,23.926,-12.207,-110.352,-305.664,55.664,0
1555957449.601,0.977,-10.742,-38.574,-295.898,131.836,0
1555957449.605,-13.672,-15.625,-126.953,-315.430,123.047,0
1555957449.609,14.160,-17.090,-210.449,-309.082,75.684,0
1555957449.613,16.113,-21.484,-142.578,-291.992,91.797,0
1555957449.617,-21.973,-24.414,-109.863,-298.828,149.902,0
1555957449.621,-10.254,-18.066,-232.422,-298.828,167.480,0
1555957449.625,9.277,-15.625,-384.766,-307.617,127.441,0
1555957449.628,9.277,-15.625,-136.230,-311.035,136.230,0
1555957449.632,-6.348,-12.207,12.695,-298.340,145.996,0
1555957449.636,-20.020,-18.555,-168.457,-297.852,156.738,0
1555957449.640,-0.488,-21.484,-195.312,-295.898,139.648,0
1555957449.644,9.277,-13.672,-71.289,-292.480,112.305,0
1555957449.661,-31.738,-13.184,-121.582,-293.457,113.770,0
1555957449.665,-40.527,-12.695,-261.230,-283.203,124.023,0
1555957449.669,-4.395,-6.348,-193.848,-284.668,124.512,0
1555957449.673,11.719,-4.883,2.930,-280.762,130.371,0
1555957449.677,-15.625,0.488,-28.320,-275.391,116.699,0
1555957449.681,-28.809,-0.977,-313.965,-273.438,125.977,0
1555957449.685,-21.973,-5.371,-332.031,-272.461,126.953,0
1555957449.688,-1.465,1.465,80.566,-276.367,130.371,0
1555957449.692,6.348,6.836,101.074,-277.832,115.723,0
1555957449.696,-12.695,9.277,-132.812,-270.020,95.215,0
1555957449.700,1.465,15.625,-56.641,-270.508,136.719,0
1555957449.704,27.344,16.602,56.641,-268.555,105.469,0
1555957449.705,23.438,16.602,-61.523,-264.648,70.312,0
1555957449.709,-3.906,18.066,-145.996,-278.320,83.008,0
1555957449.713,-14.648,18.066,-69.336,-268.066,92.773,0
1555957449.717,15.137,21.484,10.254,-256.836,84.473,0
1555957449.721,13.672,27.832,59.082,-277.344,71.777,0
1555957449.725,4.883,31.738,-88.379,-276.855,55.664,0
1555957449.729,7.812,28.320,-122.070,-248.047,82.031,0
1555957449.732,32.227,33.691,53.223,-249.023,70.312,0
1555957449.736,54.199,39.062,43.945,-255.371,14.648,0
1555957449.740,43.457,35.156,-200.195,-255.859,-8.789,0
1555957449.744,27.832,35.156,-80.566,-250.488,5.371,0
1555957449.748,38.086,40.039,138.672,-249.023,5.859,0
1555957449.751,51.758,41.504,82.031,-247.559,-28.809,0
1555957449.755,32.715,37.598,39.551,-243.652,-50.293,0
1555957449.759,14.648,31.738,79.102,-244.629,-23.438,0
1555957449.763,11.719,30.762,-46.387,-245.605,-41.504,0
1555957449.767,32.227,30.273,-104.980,-247.559,-83.008,0
1555957449.771,39.551,29.297,-56.641,-240.234,-102.051,0
1555957449.775,6.836,31.250,-79.590,-235.352,-103.027,0
1555957449.778,9.277,31.250,106.934,-234.863,-48.340,0
1555957449.782,41.992,25.391,-23.438,-240.723,-85.449,0
1555957449.786,36.621,21.484,-167.480,-242.188,-154.297,0
1555957449.790,27.344,26.855,98.145,-234.375,-139.160,0
1555957449.794,21.484,20.996,116.699,-236.328,-86.914,0
1555957449.796,24.902,9.766,16.602,-245.117,-81.543,0
1555957449.800,29.785,9.277,85.449,-250.000,-93.262,0
1555957449.804,21.973,10.254,73.242,-249.512,-109.863,0
1555957449.808,-14.648,9.766,-64.941,-247.070,-96.191,0
1555957449.812,-7.324,-1.465,-100.098,-248.535,-82.520,0
1555957449.816,34.180,-5.371,-69.336,-258.789,-105.957,0
1555957449.820,18.066,-4.395,-38.086,-267.090,-112.793,0
1555957449.823,-0.977,-6.836,-58.594,-261.230,-109.375,0
1555957449.827,1.953,-1.465,-194.336,-260.742,-95.703,0
1555957449.831,33.203,0.000,3.418,-263.184,-100.098,0
1555957449.835,47.363,-7.812,262.695,-262.207,-88.867,0
1555957449.839,17.090,-2.930,38.574,-253.906,-94.727,0
1555957449.841,-1.953,0.000,-76.660,-250.488,-82.031,0
1555957449.845,20.020,-7.324,10.254,-260.254,-98.633,0
1555957449.849,49.316,-14.160,77.148,-260.742,-107.910,0
1555957449.853,30.762,-12.695,18.066,-253.906,-82.520,0
1555957449.857,-4.883,-10.742,-55.176,-246.094,-66.406,0
1555957449.861,6.348,-10.742,-66.895,-254.883,-57.617,0
1555957449.865,38.574,-3.418,-21.973,-266.113,-96.680,0
1555957449.868,20.020,-1.953,-130.859,-272.949,-134.277,0
1555957449.872,-11.230,-10.254,-188.965,-271.973,-97.656,0
1555957449.876,-17.090,-16.113,42.480,-270.508,-80.078,0
1555957449.880,5.371,-16.602,158.691,-271.484,-84.961,0
1555957449.884,15.625,-12.695,93.750,-269.043,-104.004,0
1555957449.886,-3.906,-9.766,-29.785,-263.184,-117.188,0
1555957449.890,-17.578,-9.277,12.695,-270.020,-74.219,0
1555957449.894,-5.859,-12.695,17.578,-266.602,-75.684,0
1555957449.898,2.930,-11.230,-13.184,-264.160,-88.867,0
1555957449.902,-25.391,-7.324,-39.551,-271.973,-89.844,0
1555957449.906,-22.949,-11.230,-129.883,-255.371,-80.566,0
1555957449.910,17.090,-11.719,-166.016,-247.070,-94.238,0
1555957449.913,17.090,-6.836,-195.312,-265.625,-131.348,0
1555957449.917,-10.742,-8.789,-55.176,-269.043,-129.883,0
1555957449.921,-17.578,-7.812,106.934,-255.371,-72.754,0
1555957449.925,-16.113,-2.930,27.344,-260.254,-67.871,0
1555957449.929,9.766,-4.883,48.340,-253.418,-77.148,0
1555957449.931,16.602,-2.441,45.898,-244.141,-78.125,0
1555957449.935,-10.254,1.465,-28.809,-231.445,-79.590,0
1555957449.939,-14.648,6.348,-35.156,-230.469,-44.922,0
1555957449.943,11.719,5.371,-52.734,-248.047,-84.473,0
1555957449.947,16.602,4.883,-4.883,-251.465,-124.512,0
1555957449.951,-11.719,11.719,-64.453,-236.328,-87.402,0
1555957449.955,-1.953,18.066,-258.789,-236.816,-67.383,0
1555957449.958,20.508,10.742,-195.312,-252.930,-83.984,0
1555957449.962,31.250,3.418,166.016,-266.602,-67.871,0
1555957449.966,8.789,2.930,111.816,-254.883,-80.566,0
1555957449.970,-18.066,4.883,-25.879,-232.422,-45.898,0
1555957449.974,9.766,10.254,29.297,-235.840,-28.809,0
1555957449.975,35.645,13.672,68.359,-235.840,-71.289,0
1555957449.979,14.160,20.996,-30.762,-240.234,-86.426,0
1555957449.983,-8.789,22.461,-131.836,-234.375,-48.340,0
1555957449.987,-3.418,17.578,-83.984,-237.305,-16.113,0
1555957449.991,26.855,17.578,-33.203,-236.816,-92.773,0
1555957449.995,39.062,13.672,-138.184,-229.980,-137.207,0
1555957449.999,8.301,7.812,-370.605,-231.934,-119.141,0
1555957450.002,2.441,9.277,-168.945,-237.305,-103.027,0
1555957450.006,25.879,11.719,131.348,-248.047,-116.211,0
1555957450.010,35.156,11.719,66.406,-247.070,-99.121,0
1555957450.014,12.695,9.277,-48.340,-246.094,-69.336,0
1555957450.018,4.395,8.789,-33.203,-244.141,-62.012,0
1555957450.035,29.297,3.906,12.207,-247.559,-48.340,0
1555957450.039,38.574,0.000,-50.781,-249.023,-61.523,0
1555957450.043,10.742,3.418,-131.836,-247.070,-84.473,0
1555957450.047,0.977,4.883,-130.859,-239.746,-110.352,0
1555957450.051,36.621,8.789,-45.410,-247.559,-77.637,0
1555957450.055,49.805,11.230,-148.926,-254.883,-43.945,0
1555957450.059,21.973,13.672,-257.812,-248.047,-34.668,0
1555957450.062,16.602,13.672,-59.570,-236.816,-19.531,0
1555957450.066,42.480,11.719,19.531,-228.027,-57.129,0
1555957450.070,71.777,13.184,-89.844,-228.027,-85.449,0
1555957450.074,61.523,8.789,-63.965,-233.398,-63.965,0
1555957450.078,30.762,9.277,-12.695,-232.422,-69.824,0
1555957450.080,24.414,6.836,-83.008,-240.723,-72.754,0
1555957450.084,42.969,0.000,-49.805,-234.375,-17.090,0
1555957450.088,56.641,3.418,26.367,-222.168,-5.859,0
1555957450.092,31.250,3.418,-49.805,-225.586,-51.758,0
1555957450.096,28.320,0.000,-172.363,-222.168,-63.965,0
1555957450.100,52.246,1.953,-178.223,-225.098,-18.066,1
1555957450.104,60.059,5.859,-124.023,-231.934,-18.066,0
1555957450.107,38.086,7.324,-46.387,-227.539,-20.996,0
1555957450.111,23.926,9.277,-68.359,-220.215,7.812,0
1555957450.115,40.039,9.766,-283.203,-222.656,1.953,0
1555957450.119,57.129,5.371,0.488,-220.215,56.152,0
1555957450.123,43.945,6.836,175.293,-223.145,36.621,0
1555957450.125,6.348,4.883,-114.258,-217.285,-23.926,0
1555957450.129,13.672,6.836,-184.570,-210.449,-36.133,0
1555957450.133,36.133,6.836,-30.762,-213.379,-8.301,0
1555957450.137,23.926,5.859,-60.059,-206.543,-20.020,0
1555957450.141,-1.953,7.812,-178.223,-198.242,-39.062,0
1555957450.145,4.395,-1.953,-243.652,-188.965,-22.949,0
1555957450.149,35.645,-3.906,-130.859,-187.988,28.320,0
1555957450.152,40.039,-0.977,83.984,-200.195,30.762,0
1555957450.156,16.602,2.930,-171.387,-189.453,-18.555,0
1555957450.160,-8.301,4.395,-311.035,-187.012,2.441,0
1555957450.164,8.301,7.324,49.316,-200.195,24.414,0
1555957450.168,45.898,11.230,137.695,-199.219,50.293,0
1555957450.170,27.832,11.230,-56.641,-197.754,41.016,0
1555957450.174,-3.418,19.531,-129.883,-192.383,18.555,0
1555957450.178,-0.488,21.973,-70.801,-186.035,8.789,0
1555957450.182,25.391,13.184,-100.098,-195.312,-18.066,0
1555957450.186,12.207,17.090,-115.723,-206.055,20.996,0
1555957450.190,-26.367,16.602,-194.824,-182.129,39.062,0
1555957450.194,-22.461,6.348,-223.633,-179.199,10.254,0
1555957450.197,7.812,11.230,-88.867,-186.035,11.719,0
1555957450.201,11.230,18.555,-166.992,-187.988,42.480,0
1555957450.205,-4.395,18.555,-139.648,-192.383,16.602,0
1555957450.209,-21.973,14.160,53.711,-187.988,24.414,0
1555957450.213,-0.977,12.207,-62.500,-185.059,13.672,0
1555957450.215,13.184,8.301,-129.883,-194.336,-28.320,0
1555957450.219,-9.766,8.301,-9.766,-201.660,12.207,0
1555957450.223,-46.875,4.883,-25.391,-196.777,63.965,0
1555957450.227,-33.203,3.906,-115.234,-204.590,86.914,0
1555957450.231,6.348,6.348,-86.914,-195.312,38.574,0
1555957450.235,-18.066,6.836,-146.484,-195.312,4.395,0
1555957450.239,-55.176,10.742,-111.816,-191.895,51.270,0
1555957450.242,-28.320,8.301,-164.062,-174.805,63.965,0
1555957450.246,-3.418,4.395,-257.324,-184.082,6.348,0
1555957450.250,-28.320,2.441,18.066,-187.988,-30.273,0
1555957450.254,-59.082,-0.488,43.945,-175.293,5.371,0
1555957450.258,-60.059,0.488,-51.758,-172.852,44.434,0
1555957450.260,-25.391,4.883,-96.191,-177.734,-27.344,0
1555957450.264,-12.695,12.695,0.000,-164.062,-18.555,0
1555957450.268,-58.105,12.207,-96.191,-158.203,-17.090,0
1555957450.272,-71.777,6.836,-171.387,-153.320,13.184,0
1555957450.276,-32.715,-3.906,-23.926,-155.273,73.730,0
1555957450.280,-14.160,-10.742,-62.012,-159.180,54.688,0
1555957450.284,-33.203,-2.441,-186.035,-152.344,54.199,0
1555957450.287,-52.734,2.441,-323.242,-148.926,52.734,0
1555957450.291,-35.645,7.812,-118.164,-149.902,40.039,0
1555957450.295,-14.648,3.906,191.895,-158.203,30.273,0
1555957450.299,-30.762,-4.395,47.363,-151.855,20.020,0
1555957450.303,-42.969,4.883,-90.820,-128.418,19.531,0
1555957450.305,-18.066,8.301,0.977,-114.746,28.809,0
1555957450.309,-27.832,1.953,82.031,-120.117,47.852,0
1555957450.313,-49.316,-1.465,-19.043,-126.465,36.133,0
1555957450.317,-56.641,-2.441,-111.328,-117.676,31.250,0
1555957450.321,-62.012,2.930,-55.664,-125.488,41.504,0
1555957450.325,-41.992,3.906,-96.191,-126.465,15.137,0
1555957450.329,-51.758,0.977,-189.941,-124.023,41.504,0
1555957450.332,-63.965,1.465,-211.914,-129.883,32.227,0
1555957450.336,-69.824,6.348,51.270,-118.164,26.367,0
1555957450.340,-59.570,9.277,64.941,-112.793,43.945,0
1555957450.344,-48.828,1.953,-11.230,-123.535,8.301,0
1555957450.348,-65.918,3.418,65.918,-131.836,11.719,0
1555957450.350,-96.191,2.930,30.762,-118.652,29.785,0
1555957450.354,-81.543,-3.906,-71.777,-119.141,10.254,0
1555957450.358,-34.180,-2.441,-98.633,-126.953,9.766,0
1555957450.362,-48.340,-1.465,-44.922,-125.488,17.090,0
1555957450.366,-74.219,-2.930,-91.309,-118.164,4.395,0
1555957450.370,-60.059,0.000,-208.496,-112.793,22.949,0
1555957450.374,-40.527,0.000,-310.059,-113.770,45.898,0
1555957450.377,-43.945,2.441,-108.887,-110.352,22.461,0
1555957450.381,-63.477,3.418,82.520,-109.863,14.648,0
1555957450.385,-69.824,0.977,-31.738,-103.027,44.922,0
1555957450.389,-53.711,-1.953,-60.059,-104.492,53.711,0
1555957450.393,-62.500,-6.836,26.855,-117.188,54.688,0
1555957450.410,-86.914,-2.441,-77.148,-115.723,69.824,0
1555957450.414,-75.195,1.465,-221.191,-107.422,45.898,0
1555957450.418,-55.176,3.906,-166.992,-101.562,17.578,0
1555957450.422,-47.363,8.789,-34.180,-108.398,7.812,0
1555957450.426,-62.988,8.789,-1.465,-111.328,48.828,0
1555957450.430,-81.543,9.277,-208.008,-99.609,50.781,0
1555957450.434,-68.359,5.859,-288.574,-96.191,31.738,0
1555957450.437,-62.500,12.207,-23.438,-109.863,52.246,0
1555957450.441,-64.941,19.043,61.523,-100.098,27.832,0
1555957450.445,-79.102,22.949,-187.988,-93.750,79.590,0
1555957450.449,-83.496,32.715,-226.074,-101.074,114.746,0
1555957450.453,-71.289,30.273,24.902,-104.492,44.922,0
1555957450.455,-77.148,24.414,-7.324,-105.469,-4.395,0
1555957450.459,-87.402,27.832,-137.695,-112.793,-4.395,0
1555957450.463,-117.676,32.715,-178.711,-108.887,-6.836,0
1555957450.467,-93.750,31.738,-125.977,-85.449,-12.695,0
1555957450.471,-54.199,29.297,-19.531,-84.473,-7.812,0
1555957450.475,-89.844,29.785,-94.727,-79.590,6.348,0
1555957450.479,-111.328,31.250,-116.699,-61.035,71.777,0
1555957450.482,-81.543,29.785,10.742,-71.289,67.871,0
1555957450.486,-75.195,23.926,26.367,-91.309,23.926,0
1555957450.490,-79.590,30.273,-222.168,-78.613,21.973,0
1555957450.494,-100.098,37.598,-32.715,-52.734,99.609,0
1555957450.498,-83.008,36.621,171.875,-56.641,109.375,0
1555957450.501,-49.316,34.180,34.180,-67.871,68.848,0
1555957450.505,-81.055,34.180,-0.488,-57.129,68.359,0
1555957450.509,-106.445,34.180,-45.410,-58.105,51.758,0
1555957450.513,-95.703,32.715,-11.230,-60.547,102.539,0
1555957450.517,-73.242,31.250,19.531,-64.941,131.836,0
1555957450.521,-68.848,35.156,-99.609,-57.129,91.309,0
1555957450.525,-99.121,38.086,-136.230,-51.270,104.492,0
1555957450.528,-98.633,33.691,-8.301,-60.059,140.137,0
1555957450.532,-80.078,29.297,-157.227,-68.848,73.730,0
1555957450.536,-70.312,28.809,-150.391,-64.941,73.242,0
1555957450.540,-89.355,34.668,111.816,-68.359,97.656,0
1555957450.544,-109.375,33.691,12.207,-67.871,91.797,0
1555957450.545,-85.938,32.227,-90.820,-67.383,87.402,0
1555957450.549,-64.941,37.109,-26.367,-68.359,48.340,0
1555957450.553,-79.102,35.156,62.988,-55.176,72.754,0
1555957450.557,-103.027,34.668,-74.219,-43.945,100.586,0
1555957450.561,-91.797,35.645,-115.723,-50.781,102.539,0
1555957450.565,-82.031,38.086,-48.828,-64.453,86.914,0
1555957450.569,-67.383,39.062,-42.480,-48.828,69.336,0
1555957450.572,-89.844,37.598,-89.844,-42.969,61.035,0
1555957450.576,-100.098,35.645,-267.090,-54.199,61.035,0
1555957450.580,-68.359,36.621,-113.770,-53.711,68.848,0
1555957450.584,-67.871,33.203,187.500,-33.691,63.477,0
1555957450.588,-86.426,31.738,90.332,-26.367,62.988,0
1555957450.590,-96.680,34.668,-16.602,-38.086,92.285,0
1555957450.594,-74.707,32.715,93.262,-33.691,105.469,0
1555957450.598,-56.152,28.320,117.188,-20.508,82.031,0
1555957450.602,-67.871,33.691,-6.348,-23.926,77.637,0
1555957450.606,-91.797,35.156,-40.039,-22.461,114.746,0
1555957450.610,-85.449,30.273,-120.605,-21.484,92.773,0
1555957450.614,-70.312,25.391,-35.156,-31.738,68.359,0
1555957450.617,-68.359,26.855,-77.148,-25.391,49.805,0
1555957450.621,-89.844,32.715,-175.781,-16.602,72.266,0
1555957450.625,-99.609,35.156,82.520,-20.996,92.773,0
1555957450.629,-73.730,30.273,163.574,-21.484,70.801,0
1555957450.633,-66.895,25.391,74.219,-18.555,88.867,0
1555957450.635,-91.309,25.879,-53.223,-25.879,98.145,0
1555957450.639,-83.984,30.762,-25.879,-20.508,93.750,0
1555957450.643,-61.035,37.109,-12.207,-12.207,76.172,0
1555957450.647,-68.848,35.645,-67.871,-8.301,42.480,0
1555957450.651,-83.984,33.203,-78.613,-7.812,36.133,0
1555957450.655,-91.309,29.785,-129.883,-14.648,76.660,0
1555957450.659,-78.125,32.715,-154.297,-16.602,80.566,0
1555957450.662,-59.082,32.227,-201.172,-21.973,46.875,0
1555957450.666,-71.289,25.879,-116.699,-22.949,23.438,0
1555957450.670,-89.844,26.367,29.785,-12.695,39.551,0
1555957450.674,-79.590,29.297,-52.246,-6.836,55.664,0
1555957450.678,-55.664,30.762,-35.156,-9.277,43.457,0
1555957450.680,-66.895,24.414,15.137,-11.719,31.738,0
1555957450.684,-85.938,22.461,-37.598,-8.789,60.547,0
1555957450.688,-80.566,24.902,-185.059,-8.301,56.152,0
1555957450.692,-48.340,31.738,-266.602,-14.648,9.766,0
1555957450.696,-50.781,34.180,-18.555,-5.859,44.434,0
1555957450.700,-95.215,26.367,-32.715,8.301,65.430,0
1555957450.704,-101.074,23.926,-323.730,10.254,43.945,0
1555957450.707,-79.590,22.461,-280.762,-8.301,22.461,0
1555957450.711,-70.801,22.461,43.457,-16.113,6.836,0
1555957450.715,-89.844,28.809,61.523,-10.254,17.090,0
1555957450.719,-116.699,27.344,-104.004,-14.160,46.387,0
1555957450.723,-98.145,33.691,-121.094,-4.395,42.480,0
1555957450.726,-67.871,53.711,-74.707,0.000,2.930,0
1555957450.730,-97.656,56.641,-107.422,-5.859,4.883,0
1555957450.734,-126.953,50.781,-193.359,-14.160,33.203,0
1555957450.738,-121.582,55.176,-195.312,-23.926,11.230,0
1555957450.742,-121.094,55.176,-40.039,-36.133,11.719,0
1555957450.746,-147.461,60.547,-114.746,-54.688,3.906,0
1555957450.750,-187.988,68.359,-400.391,-60.547,-8.301,0
1555957450.753,-198.242,78.125,-146.973,-63.965,43.945,0
1555957450.757,-167.480,83.496,179.688,-70.801,34.180,0
1555957450.761,-171.875,76.660,30.273,-85.938,-13.672,0
1555957450.765,-204.590,72.266,-45.410,-76.660,-10.254,0
1555957450.769,-205.078,75.684,40.039,-83.496,20.996,0
1555957450.785,-200.195,75.684,86.426,-89.355,21.484,0
1555957450.789,-182.129,73.242,39.062,-70.312,-3.418,0
1555957450.793,-191.895,75.195,-19.043,-78.125,-5.859,0
1555957450.797,-222.168,76.660,-14.160,-80.078,6.836,0
1555957450.801,-190.430,78.125,31.738,-75.684,8.301,0
1555957450.805,-166.504,89.844,-75.684,-72.266,10.254,0
1555957450.809,-179.199,93.262,-155.273,-68.848,-6.348,0
1555957450.812,-191.406,80.566,67.871,-48.340,9.277,0
1555957450.816,-167.480,75.684,66.406,-38.574,29.297,0
1555957450.820,-128.418,77.637,-63.965,-41.992,4.883,0
1555957450.824,-115.234,69.824,8.789,-21.484,-31.738,0
1555957450.828,-139.648,56.641,117.188,-2.930,-10.254,0
1555957450.830,-142.578,57.129,65.918,8.301,8.301,0
1555957450.834,-80.078,52.734,17.578,19.043,-26.367,0
1555957450.838,-63.477,43.945,121.582,31.250,-28.809,0
1555957450.842,-87.402,38.574,93.750,48.828,-49.316,0
1555957450.846,-87.402,25.879,-13.672,62.500,-38.574,0
1555957450.850,-55.664,19.043,-19.043,67.871,-6.836,0
1555957450.854,-20.996,23.438,29.785,62.988,-21.484,0
1555957450.857,-45.410,20.020,96.680,76.660,-31.738,0
1555957450.861,-59.082,11.230,33.691,102.051,-40.039,0
1555957450.865,-21.973,13.184,-162.598,83.496,-42.969,0
1555957450.869,10.742,13.184,46.387,84.961,-71.777,0
1555957450.873,2.930,12.695,192.383,103.027,-77.637,0
1555957450.876,-29.785,11.719,-20.996,109.863,-59.082,0
1555957450.880,-21.484,12.695,34.668,107.910,-46.875,0
1555957450.884,3.906,16.602,162.598,100.586,-82.031,0
1555957450.888,7.812,12.207,156.738,105.469,-96.680,0
1555957450.892,-24.902,7.812,-12.207,106.934,-73.730,0
1555957450.896,-28.320,13.184,-181.152,104.004,-98.145,0
1555957450.900,2.930,18.555,-104.980,94.238,-95.215,0
1555957450.903,11.230,21.973,139.160,86.914,-95.215,0
1555957450.907,-6.836,25.391,11.719,89.355,-87.402,0
1555957450.911,-26.367,22.461,-110.840,87.402,-33.203,0
1555957450.915,4.883,24.414,254.395,91.309,17.090,0
1555957450.919,29.297,24.414,271.484,80.078,-39.551,0
1555957450.920,-8.789,22.949,67.383,78.125,-88.379,0
1555957450.924,-30.273,22.461,37.109,96.680,-80.566,0
1555957450.928,-21.973,19.043,35.645,80.078,-56.641,0
1555957450.932,-0.977,22.461,89.844,54.688,21.973,0
1555957450.936,0.488,27.344,116.211,52.734,5.371,0
1555957450.940,-27.344,31.738,-69.336,60.547,-44.922,0
1555957450.944,-23.438,32.715,-57.129,58.105,-23.926,0
1555957450.947,-15.625,35.156,79.590,41.016,4.883,0
1555957450.951,-22.461,40.039,-168.945,38.086,-44.922,0
1555957450.955,-41.016,42.480,-174.805,50.293,-108.887,0
1555957450.959,-47.852,41.992,76.172,51.270,-79.102,0
1555957450.963,-30.762,43.457,51.758,39.551,-28.320,0
1555957450.965,-22.949,43.457,4.883,22.949,-46.387,0
1555957450.969,-31.738,42.480,39.062,22.949,-44.434,0
1555957450.973,-42.969,42.969,-29.297,33.203,-39.062,0
1555957450.977,-25.391,41.504,-157.227,22.461,-70.801,0
1555957450.981,0.488,42.969,-63.965,9.766,-85.449,0
1555957450.985,-8.301,42.969,-33.691,8.301,-74.219,0
1555957450.989,-41.992,43.457,-83.496,13.672,-32.227,0
1555957450.992,-23.438,48.340,-133.301,14.160,-3.906,0
1555957450.996,-4.395,52.734,-114.746,0.977,-41.992,0
1555957451.000,-4.883,58.594,274.414,2.930,11.719,0
1555957451.004,4.883,57.617,245.605,6.836,-8.301,0
1555957451.008,-18.066,50.293,-5.859,1.465,-79.590,0
1555957451.010,-16.113,52.246,89.844,-2.441,-25.391,0
1555957451.014,-5.371,53.711,182.617,-0.488,-0.977,0
1555957451.018,-46.875,54.199,101.074,5.859,50.781,0
1555957451.022,-63.965,55.664,-39.062,12.207,54.688,0
1555957451.026,-22.949,53.711,-53.711,9.766,-18.066,0
1555957451.030,-7.324,53.223,-27.832,1.953,-9.766,0
1555957451.034,-37.598,54.199,-122.070,-3.418,-24.414,0
1555957451.037,-57.617,54.688,-244.629,6.348,-13.672,0
1555957451.041,-39.062,53.223,-126.465,8.301,-15.625,0
1555957451.045,-12.695,56.152,154.297,-7.324,-41.504,0
1555957451.049,-9.766,55.664,134.766,-6.348,-2.930,0
1555957451.053,-36.133,62.988,-50.293,9.766,-28.320,0
1555957451.055,-48.340,62.988,-9.277,11.719,-17.578,0
1555957451.059,-18.066,48.340,73.242,-2.441,43.457,0
1555957451.063,-17.090,51.270,-68.359,0.000,9.766,0
1555957451.067,-35.645,50.781,-194.336,6.348,-24.902,0
1555957451.071,-42.969,47.363,-105.469,-0.977,16.602,0
1555957451.075,-14.648,57.129,-119.141,4.883,40.039,0
1555957451.079,9.766,59.082,-312.012,6.348,-13.672,0
1555957451.082,-20.020,61.035,-344.238,0.000,-46.387,0
1555957451.086,-41.992,65.430,-21.484,2.441,-1.465,0
1555957451.090,-14.160,67.871,86.914,7.324,28.320,0
1555957451.094,-6.348,66.895,-6.836,1.465,4.395,0
1555957451.098,-32.227,65.918,-118.652,-2.930,9.277,0
1555957451.100,-70.312,65.918,-187.988,2.930,8.789,0
1555957451.104,-67.871,61.035,-113.770,9.766,7.812,0
1555957451.108,-33.203,57.129,-81.055,10.254,11.719,0
1555957451.112,-36.621,57.617,-50.293,6.348,10.254,0
1555957451.116,-62.012,59.082,-66.895,2.930,23.926,0
1555957451.120,-62.012,54.688,-209.961,20.020,15.137,0
1555957451.124,-28.809,49.316,-339.844,24.902,37.598,0
1555957451.127,-28.809,51.758,-150.391,12.207,14.160,0
1555957451.131,-60.547,51.270,59.082,18.555,9.766,0
1555957451.135,-63.965,54.199,-80.566,22.949,15.625,0
1555957451.139,-43.457,53.711,-128.906,10.254,2.930,0
1555957451.143,-35.645,55.176,15.625,13.672,22.461,0
1555957451.160,-47.852,59.570,-23.438,23.926,26.367,0
1555957451.164,-66.895,57.617,-134.766,19.043,60.547,0
1555957451.168,-56.641,55.664,-195.801,24.902,62.988,0
1555957451.172,-40.527,52.734,-141.602,18.555,11.719,0
1555957451.176,-39.551,46.875,-31.250,14.648,-10.742,0
1555957451.180,-52.734,43.457,-224.609,22.949,20.020,1
1555957451.184,-50.293,44.922,-287.598,19.531,11.230,0
1555957451.187,-31.250,41.992,41.016,8.789,-9.277,0
1555957451.191,-29.297,40.527,83.984,9.766,-16.113,0
1555957451.195,-52.246,40.527,-153.320,0.000,-15.137,0
1555957451.199,-51.758,39.551,-115.723,-3.418,20.020,0
1555957451.203,-31.250,40.039,47.363,20.020,-9.766,0
1555957451.205,-27.344,37.109,71.289,21.484,17.090,0
1555957451.209,-56.152,34.180,-21.973,22.949,57.129,0
1555957451.213,-63.965,37.598,-63.477,26.855,36.621,0
1555957451.217,-27.344,39.551,-18.555,10.742,4.395,0
1555957451.221,-7.324,40.039,-8.789,8.789,15.137,0
1555957451.225,-22.461,37.598,-123.535,12.695,45.898,0
1555957451.229,-50.293,29.785,-248.535,7.812,15.137,0
1555957451.232,-41.992,29.297,-103.027,2.441,27.344,0
1555957451.236,-16.602,27.344,70.801,-5.371,76.172,0
1555957451.240,-19.531,22.461,-170.410,-9.766,54.688,0
1555957451.244,-49.805,24.414,-132.324,-1.953,32.227,0
1555957451.248,-62.988,25.879,119.629,4.883,61.035,0
1555957451.250,-31.250,20.996,40.039,-4.395,52.734,0
1555957451.254,-21.484,16.113,-12.207,-9.766,35.156,0
1555957451.258,-36.621,19.531,-8.789,6.836,31.738,0
1555957451.262,-20.020,24.902,-39.062,2.441,29.785,0
1555957451.266,2.930,29.785,-60.059,-7.324,44.434,0
1555957451.270,4.883,27.344,-88.867,12.695,58.105,0
1555957451.274,-21.484,24.414,-168.945,28.320,21.484,0
1555957451.277,-33.691,22.949,-35.645,17.090,71.777,0
1555957451.281,-21.484,19.043,-87.402,6.348,115.234,0
1555957451.285,-8.789,21.973,-234.863,13.672,20.508,0
1555957451.289,-29.785,22.461,48.828,14.160,22.949,0
1555957451.293,-58.594,21.973,34.668,12.207,29.297,0
1555957451.295,-47.363,24.902,-109.375,14.160,-0.488,0
1555957451.299,-32.227,21.484,21.484,12.207,67.871,0
1555957451.303,-40.039,22.461,7.812,7.812,28.809,0
1555957451.307,-50.781,29.297,-139.160,16.602,19.531,0
1555957451.311,-53.711,27.344,-189.453,15.137,45.898,0
1555957451.315,-29.785,29.785,-232.910,2.930,-5.371,0
1555957451.319,-19.043,34.180,-127.441,-3.906,11.719,0
1555957451.322,-44.922,31.250,-80.566,9.277,28.320,0
1555957451.326,-56.641,26.855,-338.379,2.930,7.812,0
1555957451.330,-40.039,28.320,-167.480,-12.695,23.438,0
1555957451.334,-16.113,35.645,143.066,-9.766,35.156,0
1555957451.338,-36.133,35.645,-76.660,-1.953,9.766,0
1555957451.340,-68.848,30.273,-234.863,6.348,12.207,0
1555957451.344,-46.875,25.879,-45.410,-4.883,51.758,0
1555957451.348,-7.812,26.855,44.434,-14.160,58.105,0
1555957451.352,-27.344,28.809,-96.191,-8.789,65.918,0
1555957451.356,-65.918,34.180,-188.965,-6.348,70.801,0
1555957451.360,-48.828,32.715,-263.184,-3.418,40.527,0
1555957451.364,-12.695,21.484,-185.547,-11.230,15.137,0
1555957451.367,-33.203,25.391,-249.512,-19.531,-18.066,0
1555957451.371,-58.105,35.645,-389.160,-14.160,-19.531,0
1555957451.375,-51.758,34.668,-35.645,-7.812,40.039,0
1555957451.379,-11.719,31.250,78.613,-10.254,35.156,0
1555957451.383,2.441,31.738,-18.066,-16.602,27.832,0
1555957451.385,-28.320,31.738,-76.660,-15.625,46.387,0
1555957451.389,-49.805,32.227,-36.133,-26.367,90.332,0
1555957451.393,-26.367,32.715,-117.188,-28.320,101.074,0
1555957451.397,-6.836,28.320,-219.727,-20.996,18.555,0
1555957451.401,-30.273,28.320,-101.074,-14.160,22.949,0
1555957451.405,-41.992,35.645,-131.348,-0.977,84.961,0
1555957451.409,-25.879,34.668,-200.684,-8.301,78.613,0
1555957451.412,15.625,38.574,-259.766,1.465,54.199,0
1555957451.416,-13.184,38.086,-159.668,1.953,11.719,0
1555957451.420,-58.594,27.832,12.695,-7.812,13.672,0
1555957451.424,-31.250,28.320,-40.039,2.930,77.637,0
1555957451.428,-2.441,28.320,-63.965,0.000,78.613,0
1555957451.430,-16.113,31.738,-59.082,-20.020,20.020,0
1555957451.434,-41.504,34.668,-145.996,-17.090,2.930,0
1555957451.438,-37.598,34.180,-203.613,-5.859,46.387,0
1555957451.442,-4.395,33.203,-158.691,-5.371,44.434,0
1555957451.446,0.488,29.785,-62.988,-9.277,35.156,0
1555957451.450,-32.227,26.855,-168.457,-15.625,40.527,0
1555957451.454,-44.434,25.391,-383.789,-20.996,59.570,0
1555957451.457,-23.926,30.762,-354.492,-20.996,57.617,0
1555957451.461,-6.348,29.297,16.113,-22.461,46.387,0
1555957451.465,-18.066,30.762,31.250,-28.809,26.367,0
1555957451.469,-37.109,36.133,-131.836,-16.113,40.527,0
1555957451.473,-16.602,33.691,-72.754,-2.930,75.195,0
1555957451.476,4.395,29.297,6.836,-14.160,49.805,0
1555957451.480,-15.625,29.785,-70.801,-16.602,30.273,0
1555957451.484,-36.133,34.668,-198.242,-14.648,50.293,0
1555957451.488,-21.484,37.598,-154.785,-17.578,55.664,0
1555957451.492,0.000,38.086,-50.293,-21.484,36.621,0
1555957451.496,-12.207,35.645,-142.578,-18.066,29.297,0
1555957451.500,-35.645,33.691,-403.809,-13.184,34.180,0
1555957451.503,-32.227,33.203,-232.910,-14.648,45.898,0
1555957451.507,-16.113,32.227,-14.648,-17.090,6.348,0
1555957451.511,-8.301,37.109,-52.246,-22.949,1.465,0
1555957451.515,-29.785,36.621,-35.645,-17.578,41.992,0
1555957451.519,-46.875,30.273,-32.715,-12.207,48.340,0
1555957451.536,-34.668,30.762,-14.160,-28.320,53.223,0
1555957451.540,-13.672,31.738,-111.328,-16.113,16.602,0
1555957451.544,-21.484,34.180,-153.320,-8.789,26.855,0
1555957451.548,-37.109,39.551,-97.656,-3.418,63.477,0
1555957451.552,-16.113,39.551,-121.094,-10.254,30.273,0
1555957451.556,-2.441,39.062,-307.129,-15.625,8.301,0
1555957451.560,-8.789,41.504,-327.637,-9.277,21.973,0
1555957451.563,-29.297,44.434,-84.473,-4.395,26.367,0
1555957451.567,-33.203,40.527,-40.039,4.883,38.574,0
1555957451.571,-4.395,37.109,-197.266,-13.184,12.695,0
1555957451.575,-10.254,41.016,-170.898,-31.738,0.977,0
1555957451.579,-31.738,39.551,-123.535,-24.902,17.578,0
1555957451.581,-34.180,40.527,-201.660,-10.742,31.738,0
1555957451.585,-11.230,43.457,-178.711,-15.137,-1.953,0
1555957451.589,8.789,42.480,-91.309,-24.414,-20.508,0
1555957451.593,-18.555,41.992,-51.270,-19.531,22.461,0
1555957451.597,-40.039,39.062,-176.758,-20.996,27.344,0
1555957451.601,-8.789,41.016,-281.250,-21.973,21.484,0
1555957451.605,14.160,40.527,-254.883,-17.578,10.254,0
1555957451.608,-11.230,45.898,-95.703,-16.602,44.434,0
1555957451.612,-34.180,46.875,-98.633,-4.883,61.035,0
1555957451.616,-20.020,44.434,-357.422,-1.953,20.020,0
1555957451.620,-1.953,48.828,-139.648,-5.859,16.113,0
1555957451.624,-14.648,51.758,88.379,-7.324,-3.906,0
1555957451.626,-25.391,48.340,-67.383,3.418,21.973,0
1555957451.630,-23.438,47.852,-116.211,2.441,52.246,0
1555957451.634,6.348,59.082,-84.961,-9.766,33.203,0
1555957451.638,12.207,53.223,-24.902,-2.441,32.715,0
1555957451.642,-10.742,43.945,-71.289,18.555,60.547,0
1555957451.646,-16.602,48.828,-247.070,18.555,50.293,0
1555957451.650,-6.348,48.828,-254.883,2.930,31.250,0
1555957451.653,6.348,44.922,-57.129,2.930,11.719,0
1555957451.657,-11.230,46.875,-181.641,16.113,9.766,0
1555957451.661,-23.438,41.504,-337.402,26.855,26.855,0
1555957451.665,-3.906,37.109,-5.371,10.742,43.457,0
1555957451.669,11.719,41.992,41.016,11.230,-0.488,0
1555957451.670,2.441,41.016,-113.281,28.320,-21.973,0
1555957451.674,-7.812,40.527,-153.809,36.621,-8.301,0
1555957451.678,-15.137,48.340,-112.305,27.344,-12.207,0
1555957451.682,0.488,45.898,-109.375,21.484,-23.438,0
1555957451.686,11.230,41.016,-115.234,28.320,19.531,0
1555957451.690,-19.531,41.504,-202.148,31.250,44.434,0
1555957451.694,-28.320,37.598,-272.461,29.785,17.578,0
1555957451.697,-16.602,35.645,-181.641,22.949,26.855,0
1555957451.701,-9.277,35.645,-209.961,32.227,58.594,0
1555957451.705,-26.367,39.062,-125.488,39.062,58.105,0
1555957451.709,-40.527,41.016,-2.930,40.039,20.996,0
1555957451.713,-26.367,40.039,-158.691,47.852,-40.039,0
1555957451.715,-5.371,40.039,-95.215,41.504,6.836,0
1555957451.719,-15.625,42.480,-18.555,30.273,42.969,0
1555957451.723,-17.578,43.945,-102.539,48.340,53.223,0
1555957451.727,-2.930,43.457,-184.082,58.105,66.406,0
1555957451.731,1.465,36.621,-223.145,37.598,-2.930,0
1555957451.735,0.000,34.668,-236.816,38.086,1.465,0
1555957451.739,-21.484,34.668,-249.023,43.945,48.340,0
1555957451.742,-10.742,35.156,-332.520,33.203,61.035,0
1555957451.746,17.090,37.109,-389.648,22.949,4.883,0
1555957451.750,18.555,40.039,-81.543,20.996,-10.742,0
1555957451.754,-9.766,43.945,-101.074,33.203,-26.367,0
1555957451.758,-15.625,43.457,-236.816,34.180,-14.648,0
1555957451.760,15.137,42.969,-135.742,26.367,27.344,0
1555957451.764,6.836,44.922,-65.430,20.020,-3.418,0
1555957451.768,-16.113,42.969,-155.762,14.648,-7.812,0
1555957451.772,-14.648,44.434,-277.832,18.066,-13.184,0
1555957451.776,-0.977,48.828,-202.637,14.160,-26.367,0
1555957451.780,1.953,48.340,-130.371,12.695,7.812,0
1555957451.784,-21.484,45.410,-187.988,5.859,28.320,0
1555957451.787,-17.578,47.852,-387.695,8.789,3.906,0
1555957451.791,3.418,51.758,-187.012,6.348,53.711,0
1555957451.795,10.254,49.316,124.023,-6.348,40.039,0
1555957451.799,9.766,48.340,-30.762,-8.789,0.000,0
1555957451.803,-6.348,52.246,-164.551,-3.906,56.152,0
1555957451.806,-19.043,51.270,-120.117,-12.695,26.367,0
1555957451.810,25.879,51.758,-17.090,-9.277,6.348,0
1555957451.814,20.020,54.199,-72.266,-8.301,20.020,0
1555957451.818,-21.484,51.270,-166.504,-25.879,40.527,0
1555957451.822,-22.949,48.340,-94.238,-25.391,47.363,0
1555957451.826,3.906,49.316,-112.305,-27.832,45.410,0
1555957451.830,18.066,54.199,-237.305,-29.785,66.895,0
1555957451.833,-13.184,54.199,-287.598,-33.691,67.383,0
1555957451.837,-23.926,57.129,-144.043,-42.480,26.855,0
1555957451.841,-15.625,55.176,-102.539,-51.758,13.184,0
1555957451.845,-1.465,44.922,-135.254,-58.105,39.062,0
1555957451.849,3.418,46.875,-204.590,-55.176,1.953,0
1555957451.851,-19.043,45.898,-247.070,-48.340,-20.508,0
1555957451.855,-22.461,43.945,-245.605,-53.223,16.113,0
1555957451.859,12.207,44.434,-316.406,-67.871,-16.602,0
1555957451.863,0.977,41.016,-249.512,-72.754,-28.320,0
1555957451.867,-35.645,39.551,-136.230,-66.895,51.758,0
1555957451.871,-24.414,41.016,-260.742,-75.684,66.406,0
1555957451.875,4.883,41.992,-467.285,-84.473,49.316,0
1555957451.878,9.277,41.016,-249.512,-78.613,62.012,0
1555957451.882,-14.648,43.457,-50.781,-83.008,20.996,0
1555957451.886,-26.855,38.574,-207.520,-81.543,5.859,0
1555957451.890,-6.836,38.086,-207.031,-83.496,35.645,0
1555957451.894,19.043,37.598,-110.352,-85.449,12.695,0
1555957451.911,-10.254,33.203,-144.043,-88.379,-0.488,0
1555957451.915,-37.598,37.598,-254.883,-91.797,18.555,0
1555957451.919,-19.043,36.621,-257.324,-111.328,26.367,0
1555957451.923,1.465,35.645,-152.832,-116.211,-5.371,0
1555957451.927,-16.113,33.203,-149.902,-110.840,-8.789,0
1555957451.931,-46.387,30.762,-292.480,-117.676,39.062,0
1555957451.935,-35.645,33.203,-373.535,-112.305,53.711,0
1555957451.938,-2.441,33.691,-254.395,-113.770,-10.742,0
1555957451.942,5.859,36.621,-51.270,-117.676,-21.484,0
1555957451.946,-39.062,38.574,-264.648,-122.070,12.695,0
1555957451.950,-52.734,43.945,-368.164,-123.047,20.020,0
1555957451.954,-20.508,42.969,-28.809,-117.676,24.414,0
1555957451.956,-8.301,35.156,22.461,-118.652,28.809,0
1555957451.960,-23.438,36.621,-135.254,-133.301,21.484,0
1555957451.964,-38.574,37.598,-162.598,-137.695,15.625,0
1555957451.968,-14.160,41.016,-51.270,-134.277,34.668,0
1555957451.972,-0.977,43.457,-2.441,-140.137,57.617,0
1555957451.976,-15.137,47.852,-162.598,-132.324,33.203,0
1555957451.980,-51.758,48.340,-298.340,-126.953,-18.555,0
1555957451.983,-41.016,44.434,-102.539,-139.648,39.062,0
1555957451.987,10.254,46.875,-27.344,-157.715,41.992,0
1555957451.991,9.277,49.316,-265.137,-155.762,-15.137,0
1555957451.995,-22.949,49.805,-150.391,-146.973,-3.906,0
1555957451.999,-27.344,54.199,84.961,-144.043,23.438,0
1555957452.001,1.465,49.316,23.438,-148.438,51.270,0
1555957452.005,7.324,40.039,-51.758,-145.020,30.273,0
1555957452.009,-18.555,47.852,-89.355,-141.602,-10.742,0
1555957452.013,-28.320,54.199,-111.328,-139.648,-7.812,0
1555957452.017,-9.766,49.805,-153.809,-147.461,-6.348,0
1555957452.021,0.000,49.805,-182.129,-162.109,11.230,0
1555957452.025,-23.438,48.340,-179.199,-159.668,28.320,0
1555957452.028,-33.203,53.223,-78.125,-144.043,8.301,0
1555957452.032,-16.602,55.664,-217.285,-152.344,-38.086,0
1555957452.036,-19.043,53.223,-301.270,-165.039,-29.785,0
1555957452.040,-41.016,51.270,49.316,-168.945,21.484,0
1555957452.044,-36.133,54.688,6.348,-164.551,2.441,0
1555957452.046,-7.812,56.641,-59.082,-152.832,19.043,0
1555957452.050,17.578,51.758,80.078,-154.297,43.457,0
1555957452.054,-2.441,53.223,96.191,-157.227,48.828,0
1555957452.058,-24.414,54.199,-71.289,-153.809,39.551,0
1555957452.062,-11.719,56.641,-158.691,-149.902,44.434,0
1555957452.066,17.090,59.082,-181.152,-152.344,17.578,0
1555957452.070,8.789,56.152,-126.953,-159.668,-27.832,0
1555957452.073,-18.555,56.641,-20.020,-161.621,27.344,0
1555957452.077,-26.367,57.617,-275.391,-148.926,52.734,0
1555957452.081,-3.906,55.664,-200.684,-152.832,6.836,0
1555957452.085,6.348,51.270,160.156,-161.621,3.418,0
1555957452.089,-20.996,54.199,-40.527,-149.414,-6.836,0
1555957452.090,-23.926,61.523,-208.008,-133.789,3.418,0
1555957452.094,0.000,56.641,-13.672,-142.578,21.973,0
1555957452.098,9.766,60.547,-16.113,-138.184,-20.508,0
1555957452.102,9.766,63.965,-48.828,-138.672,20.508,0
1555957452.106,-29.297,60.547,-68.848,-141.113,17.578,0
1555957452.110,-16.113,61.523,-159.180,-133.301,-5.859,0
1555957452.114,32.715,60.059,-38.086,-145.508,20.996,0
1555957452.117,18.066,59.082,-107.910,-148.926,-22.461,0
1555957452.121,-13.672,59.570,-261.230,-137.695,-30.273,0
1555957452.125,-14.160,65.918,83.984,-131.836,43.457,0
1555957452.129,18.555,65.918,167.969,-147.461,34.180,0
1555957452.133,18.555,64.941,38.086,-157.227,7.812,0
1555957452.135,-18.555,67.383,0.000,-150.391,29.785,0
1555957452.139,-25.391,65.430,-4.395,-145.020,25.879,0
1555957452.143,12.207,70.801,-84.961,-152.344,-27.344,0
1555957452.147,23.926,66.406,-91.797,-159.668,-25.879,0
1555957452.151,-6.836,55.664,-24.414,-164.062,11.230,0
1555957452.155,-23.438,59.082,-118.652,-154.785,6.348,0
1555957452.159,6.348,61.523,-191.895,-161.621,13.184,0
1555957452.162,29.297,58.594,-255.371,-167.480,-4.395,0
1555957452.166,0.488,54.199,-79.102,-162.109,-1.465,0
1555957452.170,-37.598,50.781,155.762,-161.621,58.594,0
1555957452.174,-15.625,53.223,-6.836,-164.551,46.387,0
1555957452.178,20.020,56.152,-60.547,-170.898,26.855,0
1555957452.180,0.488,52.246,29.785,-178.223,36.621,0
1555957452.184,-23.926,42.480,-34.180,-170.898,43.945,0
1555957452.188,-19.531,42.480,-190.430,-153.320,28.809,0
1555957452.192,3.418,45.410,-190.918,-161.133,4.395,0
1555957452.196,24.414,49.805,-68.848,-165.039,-14.648,0
1555957452.200,-1.465,49.805,-136.719,-163.086,22.461,0
1555957452.204,-16.113,48.828,-339.844,-161.621,36.621,0
1555957452.207,8.789,50.781,-326.660,-165.039,7.812,0
1555957452.211,30.762,50.781,30.762,-158.691,52.246,0
1555957452.215,23.926,51.270,95.703,-153.809,35.645,0
1555957452.219,-4.395,48.340,-11.230,-153.809,59.570,0
1555957452.223,2.930,43.945,-54.199,-150.391,56.641,0
1555957452.225,22.949,43.945,-54.199,-157.227,-17.578,0
1555957452.229,9.766,45.410,-111.328,-148.438,-48.828,0
1555957452.233,-2.930,46.875,-182.129,-135.742,12.207,0
1555957452.237,25.391,51.270,-158.691,-134.766,37.598,0
1555957452.241,49.316,52.734,-38.574,-139.160,21.973,0
1555957452.245,35.156,46.875,-113.770,-144.043,9.766,0
1555957452.249,-3.906,43.945,-413.086,-138.184,-9.766,0
1555957452.252,10.254,47.363,-238.770,-128.906,19.531,0
1555957452.256,36.621,54.199,96.680,-127.930,29.785,0
1555957452.260,37.109,59.570,33.203,-128.906,27.344,0
1555957452.264,16.113,54.688,-94.238,-129.883,43.457,0
1555957452.268,-12.207,49.805,-127.441,-128.906,63.965,0
1555957452.285,8.789,57.129,-117.188,-132.324,22.949,0
1555957452.289,30.762,57.617,-108.398,-131.836,2.930,0
1555957452.293,13.184,56.641,-111.328,-140.625,40.039,0
1555957452.297,-3.418,55.176,-120.605,-140.137,20.996,0
1555957452.301,2.441,44.922,-81.543,-136.230,35.156,0
1555957452.305,25.391,47.852,-253.418,-145.996,22.461,0
1555957452.309,34.180,51.758,-323.730,-149.902,-11.230,0
1555957452.312,11.230,55.176,-38.086,-154.297,38.086,0
1555957452.316,-5.371,54.199,-37.598,-137.207,19.531,0
1555957452.320,20.508,51.758,-216.797,-140.625,-27.344,0
1555957452.324,46.387,55.176,-143.066,-155.762,1.465,0
1555957452.328,17.578,51.758,-37.598,-135.254,11.230,0
1555957452.331,-12.695,43.457,-95.215,-118.652,11.230,0
1555957452.335,1.465,39.062,-165.039,-120.605,25.879,0
1555957452.339,12.695,40.527,-172.852,-115.723,13.184,0
1555957452.343,-3.906,45.898,-45.898,-112.793,42.480,0
1555957452.347,-1.953,50.293,-89.844,-108.398,51.758,0
1555957452.351,27.344,49.805,-252.930,-97.168,-0.977,0
1555957452.355,47.852,53.711,-224.609,-101.562,26.855,0
1555957452.358,25.391,46.387,-48.828,-105.469,70.312,0
1555957452.362,6.836,40.039,-42.480,-94.238,59.082,0
1555957452.366,18.555,45.410,-351.562,-92.285,14.648,0
1555957452.370,33.203,46.387,-201.172,-96.680,-8.301,0
1555957452.374,31.250,43.457,88.379,-105.469,12.207,0
1555957452.375,-0.488,44.922,-79.102,-89.844,19.043,2
1555957452.379,-10.742,53.223,-122.559,-81.055,51.270,0
1555957452.383,33.691,49.805,-16.113,-83.496,51.758,0
1555957452.387,48.828,47.852,-15.137,-70.801,23.926,0
1555957452.391,10.254,52.246,-156.738,-77.637,25.879,0
1555957452.395,-8.789,49.316,-297.852,-70.801,10.742,0
1555957452.399,19.531,46.875,-251.465,-69.336,21.484,0
1555957452.402,37.598,50.293,-63.477,-69.336,43.457,0
1555957452.406,23.438,52.246,-152.832,-63.965,52.734,0
1555957452.410,18.066,50.781,-287.598,-55.176,56.641,0
1555957452.414,19.531,47.363,-22.461,-55.664,22.949,0
1555957452.418,30.762,45.898,63.477,-62.012,-2.441,0
1555957452.420,20.020,42.969,-52.246,-61.523,8.789,0
1555957452.424,-2.930,45.898,-118.652,-49.805,13.672,0
1555957452.428,4.883,45.898,-100.098,-48.340,8.301,0
1555957452.432,22.949,41.504,-108.398,-60.547,-8.301,0
1555957452.436,14.160,36.621,-132.324,-58.105,-4.883,0
1555957452.440,-8.301,31.738,-296.875,-55.664,-51.758,0
1555957452.444,-8.789,35.156,-243.164,-43.457,-12.207,0
1555957452.447,22.461,39.062,-53.711,-29.785,29.297,0
1555957452.451,32.715,42.969,-255.859,-41.992,-8.301,0
1555957452.455,-2.930,42.480,-212.402,-40.527,7.324,0
1555957452.459,-26.855,35.156,52.734,-48.828,19.531,0
1555957452.463,7.324,42.969,-49.316,-55.176,-12.207,0
1555957452.465,36.133,46.875,-63.965,-43.457,2.441,0
1555957452.469,11.230,43.945,-1.953,-53.223,14.648,0
1555957452.473,0.488,50.293,-60.059,-53.223,23.926,0
1555957452.477,17.090,55.176,-131.836,-56.152,58.105,0
1555957452.481,27.344,52.734,-118.652,-63.477,37.598,0
1555957452.485,17.578,50.293,-185.547,-55.664,9.766,0
1555957452.489,8.301,51.758,-232.910,-42.969,2.441,0
1555957452.492,15.625,51.270,-219.238,-42.480,44.922,0
1555957452.496,39.062,48.340,-226.562,-48.340,61.035,0
1555957452.500,30.762,49.316,24.414,-48.828,4.395,0
1555957452.504,8.301,52.734,23.926,-45.898,9.277,0
1555957452.508,15.137,51.270,-121.582,-38.574,36.133,0
1555957452.510,37.109,49.316,-78.613,-27.832,33.203,0
1555957452.514,59.082,53.223,-13.184,-11.230,-3.906,0
1555957452.518,23.926,55.664,-72.754,-11.719,33.203,0
1555957452.522,2.441,55.664,-147.461,-21.973,96.680,0
1555957452.526,16.602,55.176,-172.363,-27.344,17.578,0
1555957452.530,25.391,53.223,-149.902,-34.668,32.227,0
1555957452.534,1.953,54.199,-221.680,-31.738,27.344,0
1555957452.537,-16.113,51.758,-411.621,-14.160,-17.090,0
1555957452.541,14.648,56.641,-204.590,-11.719,26.855,0
1555957452.545,27.344,55.664,108.398,-24.902,6.348,0
1555957452.549,23.926,51.270,13.672,-24.414,3.418,0
1555957452.553,12.207,54.688,-126.953,-16.113,13.184,0
1555957452.555,6.348,55.176,-51.758,-9.277,33.203,0
1555957452.559,34.668,54.199,-85.938,-20.020,26.367,0
1555957452.563,40.527,52.734,-230.957,-22.949,-2.441,0
1555957452.567,10.254,49.316,-151.367,-7.812,44.922,0
1555957452.571,-1.953,50.781,-99.609,-2.930,42.480,0
1555957452.575,37.598,60.547,-239.258,-8.789,-23.438,0
1555957452.579,60.059,49.316,-332.520,-16.602,15.625,0
1555957452.582,28.809,44.922,-273.438,-14.160,93.262,0
1555957452.586,11.230,53.223,-66.895,-1.465,59.570,0
1555957452.590,25.879,48.340,9.766,-7.812,48.828,0
1555957452.594,54.199,48.828,-63.477,-7.324,44.922,0
1555957452.598,41.016,49.316,-88.379,-7.324,50.781,0
1555957452.601,13.672,48.828,-70.312,-11.719,86.426,0
1555957452.605,20.508,52.246,-135.742,-13.672,66.406,0
1555957452.609,40.039,48.828,-181.152,-29.785,48.340,0
1555957452.613,47.852,48.340,-148.438,-31.738,18.555,0
1555957452.617,16.113,60.059,-170.898,-35.156,-2.441,0
1555957452.621,-7.812,65.430,-283.203,-34.668,8.301,0
1555957452.625,3.418,64.453,-447.266,-52.734,16.602,0
1555957452.628,-6.348,68.848,-240.723,-84.961,5.371,0
1555957452.632,-35.156,76.172,49.316,-92.285,35.645,0
1555957452.636,-54.199,85.938,-73.730,-94.727,69.336,0
1555957452.640,-59.570,93.262,-202.637,-110.352,9.766,0
1555957452.644,-23.438,100.098,-99.121,-115.234,-15.625,0
1555957452.661,-53.711,104.004,-113.770,-116.211,-21.973,0
1555957452.665,-108.887,106.445,-279.297,-127.930,-41.504,0
1555957452.669,-97.168,104.492,-270.020,-151.367,-10.742,0
1555957452.673,-77.637,103.027,-160.156,-155.762,-16.113,0
1555957452.677,-93.750,104.980,-87.891,-145.996,-23.926,0
1555957452.681,-130.371,104.980,-303.223,-153.809,15.625,0
1555957452.685,-125.977,101.562,-318.359,-154.785,80.566,0
1555957452.688,-91.797,102.051,-64.453,-156.738,72.754,0
1555957452.692,-88.867,98.145,-76.660,-153.809,9.766,0
1555957452.696,-108.398,91.309,-183.594,-138.672,18.555,0
1555957452.700,-104.492,81.543,-191.406,-124.023,23.926,0
1555957452.704,-54.688,71.777,-28.809,-106.934,14.160,0
1555957452.706,-32.715,64.941,4.883,-87.402,37.109,0
1555957452.710,-47.852,53.711,-111.816,-83.008,48.828,0
1555957452.714,-38.086,49.805,-180.176,-65.918,4.883,0
1555957452.718,-17.578,44.922,-66.895,-42.480,37.598,0
1555957452.722,12.695,38.086,-22.461,-31.738,70.312,0
1555957452.726,10.742,29.785,-213.379,-25.879,21.973,0
1555957452.730,-8.789,21.973,-335.449,-11.230,-0.977,0
1555957452.733,9.277,19.043,-148.926,9.766,11.719,0
1555957452.737,38.574,17.090,-28.809,13.672,23.438,0
1555957452.741,56.152,11.230,-259.277,22.461,25.879,0
1555957452.745,41.016,7.324,-217.285,35.645,58.594,0
1555957452.749,40.527,5.859,-72.754,40.039,12.695,0
1555957452.750,64.941,2.930,-114.746,37.598,-57.617,0
1555957452.754,87.891,0.488,-62.012,45.410,-20.020,0
1555957452.758,64.941,1.953,-42.480,57.617,1.465,0
1555957452.762,49.805,5.371,-66.406,53.223,29.297,0
1555957452.766,81.543,6.836,-110.840,39.551,61.035,0
1555957452.770,92.773,7.324,-217.285,51.758,9.277,0
1555957452.774,78.125,5.859,-256.348,60.059,-9.277,0
1555957452.777,63.965,6.348,-110.352,74.219,48.828,0
1555957452.781,63.965,7.324,-182.617,75.684,58.105,0
1555957452.785,82.031,7.324,-278.809,54.199,20.508,0
1555957452.789,91.797,7.812,-18.066,67.383,-10.742,0
1555957452.793,66.406,9.766,-16.113,80.078,-7.812,0
1555957452.796,67.383,10.742,-82.520,80.078,35.156,0
1555957452.800,100.098,3.418,-100.586,84.961,40.527,0
1555957452.804,97.656,-6.348,-170.410,85.449,-26.855,0
1555957452.808,69.336,-13.184,-115.723,85.449,31.250,0
1555957452.812,68.359,-23.438,-142.090,81.543,70.801,0
1555957452.816,80.566,-25.391,-235.840,81.543,-5.371,0
1555957452.820,83.496,-20.996,-166.504,86.426,11.719,0
1555957452.823,73.730,-27.344,-125.977,75.195,35.645,0
1555957452.827,59.082,-31.738,-367.188,65.918,1.953,0
1555957452.831,71.777,-33.203,-236.328,81.543,-0.488,0
1555957452.835,104.492,-29.297,84.473,86.914,4.395,0
1555957452.839,82.031,-21.973,-66.406,86.426,12.207,0
1555957452.841,63.477,-20.996,-143.555,100.098,73.242,0
1555957452.845,93.262,-15.137,-86.914,92.285,65.430,0
1555957452.849,114.258,-10.742,-57.617,80.078,59.570,0
1555957452.853,80.078,-14.648,-151.367,79.102,67.383,0
1555957452.857,38.086,-21.484,-310.547,66.406,45.410,0
1555957452.861,36.133,-20.020,-393.066,74.707,-5.371,0
1555957452.865,63.965,-13.184,-237.793,80.566,-11.719,0
1555957452.868,75.195,-14.160,-183.594,74.219,37.598,0
1555957452.872,29.785,-15.625,-335.938,72.266,48.340,0
1555957452.876,22.949,-12.695,-138.184,77.637,23.438,0
1555957452.880,64.941,-8.301,9.277,82.031,15.137,0
1555957452.884,68.848,-9.277,-46.387,83.496,14.160,0
1555957452.886,36.621,-11.230,-125.000,83.984,9.277,0
1555957452.890,22.461,-11.719,-117.676,75.195,31.250,0
1555957452.894,46.387,-11.719,-106.934,63.477,73.242,0
1555957452.898,57.129,-10.742,-148.926,69.336,55.176,0
1555957452.902,28.809,-7.812,-160.156,70.312,21.484,0
1555957452.906,17.578,-6.348,-265.625,73.242,19.531,0
1555957452.910,38.086,-5.859,-327.637,80.078,8.301,0
1555957452.913,61.035,-0.488,-336.914,72.266,44.922,0
1555957452.917,46.387,4.883,-194.336,68.359,41.504,0
1555957452.921,29.785,4.883,36.621,67.871,55.176,0
1555957452.925,32.227,4.883,-81.543,70.801,72.266,0
1555957452.929,50.781,0.977,-214.355,66.406,-3.418,0
1555957452.930,77.637,3.418,-157.227,62.988,-56.641,0
1555957452.934,44.922,5.371,-107.910,63.477,5.859,0
1555957452.938,17.090,7.812,-219.238,56.152,20.020,0
1555957452.942,56.641,11.230,-240.234,59.570,-10.742,0
1555957452.946,75.684,11.719,-79.590,72.754,24.414,0
1555957452.950,45.898,14.648,-150.879,75.195,58.594,0
1555957452.954,21.484,19.043,-391.113,80.566,55.664,0
1555957452.957,30.762,18.555,-380.859,77.637,51.758,0
1555957452.961,58.105,8.789,-25.879,64.941,30.762,0
1555957452.965,43.457,7.324,52.246,72.266,19.043,0
1555957452.969,17.578,11.230,-201.660,91.797,-31.738,0
1555957452.973,29.785,13.672,-229.492,94.727,-59.082,0
1555957452.976,36.621,12.207,10.254,89.844,15.625,0
1555957452.980,24.902,10.742,10.742,95.703,42.480,0
1555957452.984,0.977,13.672,-181.641,89.844,21.484,0
1555957452.988,-1.465,16.113,-213.379,82.031,-0.977,0
1555957452.992,20.020,16.113,-115.234,86.914,-11.230,0
1555957452.996,20.996,16.113,-122.070,96.191,39.551,0
1555957453.000,1.465,19.531,-373.047,86.914,66.406,0
1555957453.003,-20.020,15.137,-302.246,75.684,27.344,0
1555957453.007,15.137,10.254,14.160,76.660,8.789,0
1555957453.011,33.203,12.207,14.160,73.730,32.715,0
1555957453.015,3.418,10.742,-93.262,73.730,38.086,0
1555957453.019,-4.395,10.254,-114.258,80.078,8.789,0
1555957453.035,8.789,15.625,-95.703,80.078,-0.488,0
1555957453.039,31.250,16.602,-98.145,74.219,45.898,0
1555957453.043,27.832,15.137,-193.848,80.566,22.461,0
1555957453.047,5.371,14.648,-162.598,83.984,-10.742,0
1555957453.051,7.812,11.719,-69.336,67.383,10.254,0
1555957453.055,38.574,13.184,-226.074,65.430,29.297,0
1555957453.059,40.039,15.625,-321.289,78.125,-16.602,0
1555957453.062,13.672,17.578,-60.059,80.078,9.277,0
1555957453.066,13.672,15.625,34.668,76.660,61.523,0
1555957453.070,35.156,12.207,-143.066,78.613,20.996,0
1555957453.074,47.363,19.531,-153.320,79.102,-1.465,0
1555957453.078,30.273,17.578,-76.660,80.078,-24.414,0
1555957453.080,0.488,5.859,-138.672,87.891,-29.297,0
1555957453.084,15.137,11.230,-190.430,72.266,-42.480,0
1555957453.088,51.758,13.672,-106.445,65.430,-16.602,0
1555957453.092,37.109,13.672,-84.473,80.078,14.648,0
1555957453.096,5.371,16.113,-172.852,86.914,28.809,0
1555957453.100,12.207,12.695,-270.996,90.332,8.789,0
1555957453.104,41.016,17.090,-224.121,87.891,-3.418,0
1555957453.107,23.926,16.602,-32.227,79.102,38.574,0
1555957453.111,-0.977,11.719,-50.781,94.727,54.688,0
1555957453.115,0.000,17.090,-362.793,98.633,37.598,0
1555957453.119,8.789,17.578,-193.359,87.402,47.363,0
1555957453.123,24.902,16.113,77.637,80.078,42.969,0
1555957453.125,8.789,14.648,-127.441,82.031,16.602,0
1555957453.129,4.883,16.113,-242.188,95.215,0.977,0
1555957453.133,41.992,20.020,-146.484,93.262,-17.090,0
1555957453.137,62.500,17.090,-99.121,79.590,-39.062,0
1555957453.141,35.645,19.043,-204.102,76.660,-18.555,0
1555957453.145,30.273,23.926,-286.621,93.262,41.992,0
1555957453.149,38.574,27.344,-266.602,93.262,23.926,0
1555957453.152,55.176,24.902,-140.137,97.656,3.418,0
1555957453.156,63.965,23.926,-219.727,98.145,53.711,0
1555957453.160,35.156,21.484,-291.504,93.750,82.031,0
1555957453.164,41.504,20.508,-41.992,96.680,26.367,0
1555957453.168,51.270,20.996,50.293,96.191,13.672,0
1555957453.171,39.062,20.508,-31.250,93.750,51.758,0
1555957453.175,20.996,26.855,-142.578,88.867,11.230,0
1555957453.179,21.973,25.879,-105.957,90.820,20.020,0
1555957453.183,48.340,20.508,-86.426,90.332,36.621,0
1555957453.187,45.410,19.043,-133.789,82.520,41.992,0
1555957453.191,24.414,20.508,-236.816,87.891,52.246,0
1555957453.195,19.043,22.461,-316.406,96.680,5.371,0
1555957453.198,26.855,24.414,-233.398,97.656,20.996,0
1555957453.202,53.223,27.344,-275.391,102.051,52.246,0
1555957453.206,49.805,31.250,-173.340,111.816,31.250,0
1555957453.210,38.574,31.738,-67.871,119.141,-10.254,0
1555957453.214,52.734,27.344,-116.699,103.027,18.555,0
1555957453.216,58.105,22.949,-39.551,93.750,18.555,0
1555957453.220,46.875,24.414,24.902,97.656,30.762,0
1555957453.224,25.879,24.902,-72.266,100.098,24.902,0
1555957453.228,30.762,21.484,-243.652,95.215,-27.832,0
1555957453.232,62.988,23.438,-181.641,86.426,-17.090,0
1555957453.236,43.945,21.973,-188.477,83.496,-19.531,0
1555957453.240,15.137,19.043,-174.805,87.402,20.996,0
1555957453.243,21.973,19.531,-228.027,94.238,42.969,0
1555957453.247,39.062,19.043,-291.504,87.891,40.039,0
1555957453.251,37.109,19.043,19.531,73.242,26.855,0
1555957453.255,13.672,19.531,50.781,73.730,35.645,0
1555957453.259,19.531,23.438,-111.328,90.820,47.852,0
1555957453.261,41.504,24.414,-151.367,88.867,-11.230,0
1555957453.265,54.688,23.926,-106.445,79.590,3.418,0
1555957453.269,30.273,20.508,-140.625,86.914,82.031,0
1555957453.273,3.418,18.066,-194.824,86.914,60.059,0
1555957453.277,19.043,21.973,-171.387,88.867,15.625,0
1555957453.281,39.551,25.879,-137.207,97.168,65.430,0
1555957453.285,38.086,26.855,-185.547,91.797,88.867,0
1555957453.288,35.645,27.344,-442.383,99.609,-9.766,0
1555957453.292,31.738,26.855,-366.699,98.633,-66.406,0
1555957453.296,58.594,29.297,7.324,87.891,-4.883,0
1555957453.300,72.754,27.344,21.973,84.961,48.340,0
1555957453.304,38.574,23.926,-94.727,85.938,56.641,0
1555957453.305,36.621,29.785,-90.332,99.121,39.551,0
1555957453.309,56.641,33.691,-51.270,84.961,40.527,0
1555957453.313,61.523,28.809,-87.891,71.289,73.242,0
1555957453.317,28.320,28.320,-162.109,74.707,87.891,0
1555957453.321,10.254,26.855,-255.859,80.566,38.086,0
1555957453.325,29.297,26.855,-291.992,75.195,-9.766,0
1555957453.329,45.410,27.832,-293.457,58.105,12.207,0
1555957453.332,21.973,21.973,-313.965,54.199,25.879,0
1555957453.336,-0.977,20.508,-39.062,63.477,49.805,0
1555957453.340,22.949,23.926,43.945,65.918,28.320,0
1555957453.344,36.621,25.879,-30.762,58.105,14.648,0
1555957453.348,25.879,21.484,-40.039,57.617,37.598,0
1555957453.350,12.207,19.531,-85.938,63.965,25.391,0
1555957453.354,11.719,22.461,-145.996,53.223,30.762,0
1555957453.358,30.273,28.320,-192.871,50.781,23.438,0
1555957453.362,30.762,26.855,-172.363,54.688,-18.555,0
1555957453.366,22.949,21.973,-151.367,62.012,0.977,0
1555957453.370,20.020,24.414,-262.695,68.848,14.648,0
1555957453.374,36.621,26.367,-459.473,62.012,-23.438,0
1555957453.377,50.293,22.461,-270.996,65.430,7.324,0
1555957453.381,38.574,20.508,-21.973,70.801,21.973,0
1555957453.385,19.531,21.484,-58.105,65.918,41.504,0
1555957453.389,37.109,20.020,-125.488,58.105,22.949,0
1555957453.393,59.570,17.578,-22.949,52.246,33.691,0
1555957453.410,30.273,17.090,-41.504,41.504,33.203,0
1555957453.414,24.414,14.160,-210.449,51.758,33.691,0
1555957453.418,29.785,14.160,-291.504,57.129,-9.277,0
1555957453.422,38.086,16.113,-185.059,54.199,-49.316,0
1555957453.426,40.039,18.555,-106.445,51.270,-27.344,0
1555957453.430,10.742,20.020,-362.305,44.434,-13.672,1
1555957453.434,0.977,21.973,-449.707,40.039,-38.574,0
1555957453.437,31.738,21.973,-75.684,27.832,-13.672,0
1555957453.441,18.555,23.926,91.309,23.926,53.711,0
1555957453.445,-1.465,26.367,-185.059,21.973,31.738,0
1555957453.449,3.418,27.832,-328.125,23.438,28.320,0
1555957453.453,2.930,25.391,-96.680,11.719,50.781,0
1555957453.455,32.227,21.484,-50.293,2.441,-4.883,0
1555957453.459,21.484,24.414,-201.660,-0.977,-33.691,0
1555957453.463,-6.348,26.367,-202.637,7.324,16.602,0
1555957453.467,13.184,25.879,-169.434,5.859,-9.277,0
1555957453.471,44.434,27.832,-103.027,-4.395,25.391,0
1555957453.475,28.809,29.297,-206.543,-5.371,46.875,0
1555957453.479,12.695,29.297,-293.457,3.418,69.336,0
1555957453.482,27.344,30.273,-159.668,-2.930,72.754,0
1555957453.486,51.758,34.180,-108.887,-13.672,53.711,0
1555957453.490,45.410,34.180,-370.605,-16.113,34.180,0
1555957453.494,6.836,28.320,-356.934,-21.484,-11.230,0
1555957453.498,9.277,25.391,-46.875,-23.926,37.109,0
1555957453.500,41.016,24.414,-95.703,-32.715,53.223,0
1555957453.504,32.227,26.367,-206.543,-31.250,15.137,0
1555957453.508,-1.465,27.832,-134.766,-31.250,43.945,0
1555957453.512,3.906,27.344,-126.465,-20.508,60.059,0
1555957453.516,25.879,22.949,-156.250,-27.832,67.871,0
1555957453.520,32.227,20.996,-164.062,-42.969,85.938,0
1555957453.524,21.484,25.391,-240.234,-43.457,28.320,0
1555957453.527,9.277,25.879,-158.203,-30.273,5.859,0
1555957453.531,11.719,26.855,-247.559,-30.762,12.207,0
1555957453.535,33.203,30.762,-321.289,-31.738,17.578,0
1555957453.539,26.855,29.785,-9.766,-33.691,40.039,0
1555957453.543,0.000,24.414,-21.484,-43.457,32.715,0
1555957453.545,-1.953,22.949,-169.434,-43.945,25.391,0
1555957453.549,36.621,26.367,-155.762,-41.992,6.348,0
1555957453.553,40.039,28.320,-96.680,-40.527,-0.977,0
1555957453.557,-0.977,22.461,-195.801,-31.250,8.301,0
1555957453.561,-1.953,23.438,-312.500,-20.020,35.156,0
1555957453.565,36.133,30.762,-297.363,-21.484,49.805,0
1555957453.569,58.105,32.715,-192.871,-25.879,20.020,0
1555957453.572,39.551,39.062,-149.414,-13.184,18.555,0
1555957453.576,16.113,39.062,-393.555,3.418,31.738,0
1555957453.580,40.039,33.203,-292.969,-0.977,28.809,0
1555957453.584,68.848,37.109,38.574,-3.418,20.996,0
1555957453.588,42.480,36.133,-51.270,-7.324,64.453,0
1555957453.606,18.066,35.645,-216.797,-21.484,53.223,0
1555957453.610,39.062,37.598,-207.520,-16.113,-4.883,0
1555957453.614,53.711,35.645,-120.605,-18.555,12.207,0
1555957453.618,53.223,33.691,-161.133,-20.020,45.410,0
1555957453.622,29.297,32.715,-256.348,-15.137,38.574,0
1555957453.626,36.621,33.691,-362.305,-25.879,-17.578,0
1555957453.630,41.016,37.598,-279.297,-41.504,-28.320,0
1555957453.633,29.785,41.016,-251.953,-36.621,22.461,0
1555957453.637,22.949,41.504,-394.531,-19.531,15.137,0
1555957453.641,12.207,34.668,-132.324,-17.090,9.277,0
1555957453.645,33.203,27.344,3.418,-30.762,28.809,0
1555957453.649,40.527,29.297,-65.430,-37.109,43.457,0
1555957453.635,28.320,30.762,-74.707,-26.367,102.051,0
1555957453.639,6.836,33.203,-110.352,-25.879,79.590,0
1555957453.643,13.184,36.133,-202.637,-37.109,24.414,0
1555957453.647,36.133,35.645,-209.961,-48.340,40.527,0
1555957453.651,33.691,38.574,-142.090,-36.621,68.359,0
1555957453.655,21.484,43.945,-243.652,-22.949,54.688,0
1555957453.659,32.715,41.016,-417.480,-36.133,-11.230,0
1555957453.662,53.711,32.227,-318.848,-42.969,-43.457,0
1555957453.666,40.527,34.180,-70.312,-38.086,5.371,0
1555957453.670,40.527,37.598,-55.664,-27.832,25.391,0
1555957453.674,38.086,38.086,-219.727,-21.973,53.223,0
1555957453.678,47.852,37.598,-416.992,-13.184,34.180,0
1555957453.681,65.430,39.062,-186.035,-12.695,32.227,0
1555957453.685,36.133,39.062,-24.414,-13.672,31.250,0
1555957453.689,20.020,38.086,-244.629,-18.066,-20.020,0
1555957453.693,37.598,36.621,-237.305,-24.902,8.789,0
1555957453.697,51.270,36.133,-81.055,-26.367,40.527,0
1555957453.701,50.293,37.598,-242.188,-28.320,-20.996,0
1555957453.705,35.645,40.527,-496.582,-26.855,-47.852,0
1555957453.708,42.969,45.410,-429.199,-34.668,2.930,0
1555957453.712,67.383,44.922,-80.566,-25.391,-1.953,0
1555957453.716,48.340,41.016,-23.926,-24.902,-5.859,0
1555957453.720,15.137,42.969,-141.113,-35.645,29.785,0
1555957453.724,22.461,42.969,-125.977,-25.391,53.711,0
1555957453.726,44.922,42.969,-75.195,-27.832,29.785,0
1555957453.730,31.250,43.945,-193.359,-35.645,22.461,0
1555957453.734,24.414,45.410,-288.574,-33.203,44.922,0
1555957453.738,36.621,47.363,-167.480,-40.039,64.453,0
1555957453.742,61.035,41.504,-153.320,-40.527,-2.441,0
1555957453.746,54.199,45.410,-203.125,-23.926,17.578,0
1555957453.750,8.789,39.551,-445.801,-31.738,45.898,0
1555957453.753,-3.906,36.133,-388.672,-32.227,-5.859,0
1555957453.757,16.113,38.574,-70.312,-33.203,-41.992,0
1555957453.761,22.949,33.691,-71.289,-45.898,-32.715,0
1555957453.765,2.930,35.645,-120.605,-45.410,20.020,0
1555957453.769,-17.578,38.086,-131.348,-46.875,5.859,0
1555957453.786,-10.742,42.969,-87.891,-48.828,38.086,0
1555957453.790,16.113,44.922,-139.648,-56.641,50.781,0
1555957453.794,-9.766,42.969,-161.621,-71.777,84.473,0
1555957453.798,-36.621,44.922,-174.316,-76.660,71.289,0
1555957453.802,-38.574,42.969,-269.043,-79.590,20.996,0
1555957453.806,-20.508,50.293,-391.113,-93.750,20.508,0
1555957453.810,-20.020,66.895,-368.164,-110.352,10.254,0
1555957453.813,-59.570,72.754,-177.246,-119.141,-20.020,0
1555957453.817,-60.059,75.195,-68.848,-130.371,58.594,0
1555957453.821,-43.945,77.148,-182.129,-148.438,98.633,0
1555957453.825,-59.570,83.008,-223.633,-156.738,42.969,0
1555957453.829,-77.637,88.379,-170.898,-159.668,-18.555,0
1555957453.831,-107.910,90.332,-203.613,-178.223,6.348,0
1555957453.835,-101.074,91.309,-234.863,-189.453,40.039,0
1555957453.839,-71.777,92.285,-217.773,-190.430,-8.301,0
1555957453.843,-106.445,94.238,-137.695,-199.707,15.137,0
1555957453.847,-138.184,97.168,-231.445,-206.055,17.090,0
1555957453.851,-110.352,98.633,-403.809,-206.543,-4.395,0
1555957453.855,-82.031,101.562,-397.461,-217.285,20.020,0
1555957453.858,-94.238,110.352,-282.227,-213.379,26.367,0
1555957453.862,-110.352,109.375,-241.211,-205.566,48.340,0
1555957453.866,-112.305,103.516,-432.617,-206.055,75.195,0
1555957453.870,-105.957,96.680,-315.430,-214.844,55.176,0
1555957453.874,-99.609,93.262,-67.871,-216.309,15.137,0
1555957453.876,-108.887,97.168,-254.395,-198.730,-8.789,0
1555957453.880,-113.770,97.168,-271.484,-188.477,58.594,0
1555957453.884,-97.656,92.285,-190.918,-196.289,32.227,0
1555957453.888,-82.031,87.891,-190.430,-199.219,-10.254,0
1555957453.892,-82.520,86.914,-271.484,-196.777,26.367,0
1555957453.896,-106.934,82.520,-408.691,-192.383,32.715,0
1555957453.900,-81.055,78.125,-395.996,-178.711,0.977,0
1555957453.903,-45.410,76.172,-114.258,-169.434,25.879,0
1555957453.907,-44.434,77.148,-208.984,-163.086,54.199,0
1555957453.911,-59.082,75.195,-496.094,-155.762,21.484,0
1555957453.915,-58.594,68.359,-288.086,-153.320,12.207,0
1555957453.919,-21.973,56.641,-131.348,-142.090,-14.160,0
1555957453.921,-8.789,51.270,-125.488,-127.441,-1.953,0
1555957453.925,-30.762,51.270,-137.695,-110.840,49.805,0
1555957453.929,-15.137,43.945,-145.020,-87.891,41.992,0
1555957453.933,22.461,39.062,-226.074,-73.730,10.742,0
1555957453.937,32.227,31.250,-241.211,-68.359,-5.371,0
1555957453.941,11.230,22.461,-286.133,-59.082,-2.930,0
1555957453.945,0.977,19.531,-334.961,-41.016,-17.090,0
1555957453.948,22.461,11.230,-185.547,-32.715,20.996,0
1555957453.952,64.453,3.418,-268.066,-18.555,49.316,0
1555957453.956,68.359,2.441,-222.656,-7.812,42.969,0
1555957453.960,48.340,5.859,8.301,2.930,70.801,0
1555957453.964,60.059,1.953,-108.887,12.695,63.477,0
1555957453.966,81.543,-7.812,-158.203,11.719,44.434,0
1555957453.970,84.961,-7.324,-141.602,22.461,41.504,0
1555957453.974,79.102,-6.836,-191.406,37.598,17.578,0
1555957453.978,75.684,-9.766,-268.066,32.715,-18.555,0
1555957453.982,106.445,-9.277,-213.379,32.715,0.000,0
1555957453.986,130.371,-8.789,-226.562,41.016,-0.977,0
1555957453.990,98.633,-6.348,-270.508,43.945,-21.484,0
1555957453.993,80.566,-4.883,-289.062,51.270,14.648,0
1555957453.997,125.000,-13.184,-359.375,39.062,15.625,0
1555957454.001,145.996,-11.719,-57.617,43.945,-7.812,0
1555957454.005,123.047,-5.859,2.441,58.594,0.488,0
1555957454.009,104.004,-10.742,-146.973,47.363,12.695,0
1555957454.011,111.328,-9.766,-151.855,33.691,-2.441,0
1555957454.015,129.883,-8.789,-26.855,39.551,25.391,0
1555957454.019,109.375,-5.371,-95.703,42.969,21.484,0
1555957454.023,86.914,-2.441,-204.590,42.480,58.105,0
1555957454.027,102.539,-2.441,-221.680,36.133,59.082,0
1555957454.031,119.141,-2.930,-213.867,27.344,24.902,0
1555957454.035,116.699,-1.953,-204.590,30.273,7.324,0
1555957454.038,95.215,4.883,-386.719,31.250,-15.137,0
1555957454.042,85.449,13.672,-228.516,40.527,15.137,0
1555957454.046,120.605,9.766,126.953,32.227,19.043,0
1555957454.050,138.184,8.301,53.223,20.996,10.742,0
1555957454.054,99.121,10.742,-122.070,15.137,-8.789,0
1555957454.056,86.426,12.207,-93.262,10.254,-6.836,0
1555957454.060,106.934,16.113,-49.805,4.883,-6.836,0
1555957454.064,112.305,14.648,-71.289,-3.418,31.250,0
1555957454.068,85.449,12.207,-147.949,5.859,27.832,0
1555957454.072,74.219,16.602,-152.344,12.695,-7.812,0
1555957454.076,93.750,17.090,-168.457,8.789,15.625,0
1555957454.080,118.164,18.066,-289.062,-1.465,24.414,0
1555957454.083,104.492,19.043,-316.895,-17.578,29.785,0
1555957454.087,87.891,18.555,-55.664,-5.371,31.738,0
1555957454.091,98.145,22.949,70.801,-3.418,47.363,0
1555957454.095,108.398,19.043,-1.953,-13.184,44.922,0
1555957454.099,106.445,20.996,-67.871,-11.230,-6.836,0
1555957454.101,76.172,20.996,-29.785,-12.207,36.133,0
1555957454.105,73.730,16.113,-58.105,-15.625,50.781,0
1555957454.109,102.051,19.043,-169.922,-22.949,-29.785,0
1555957454.113,100.098,24.414,-51.270,-30.273,18.555,0
1555957454.117,75.195,27.832,10.254,-26.855,75.684,0
1555957454.121,60.547,20.996,-145.508,-15.137,58.105,0
1555957454.125,79.590,17.090,-371.094,-13.184,47.852,0
1555957454.128,93.750,18.555,-156.738,-26.367,74.219,0
1555957454.132,74.219,19.043,100.586,-31.250,66.406,0
1555957454.136,62.500,19.531,-144.043,-29.297,19.043,0
1555957454.140,81.543,18.555,-187.500,-34.180,10.254,0
1555957454.144,104.492,18.066,20.020,-33.691,9.277,0
1555957454.161,91.309,16.602,51.758,-40.527,20.020,0
1555957454.165,66.895,16.602,-136.719,-39.062,19.531,0
1555957454.169,84.473,16.602,-202.148,-47.363,15.137,0
1555957454.173,100.586,11.719,-23.438,-63.477,55.176,0
1555957454.177,83.984,8.301,21.973,-57.617,43.457,0
1555957454.181,60.547,6.836,-352.051,-52.246,-41.992,0
1555957454.185,51.758,5.371,-419.922,-57.129,4.883,0
1555957454.188,76.172,3.418,-27.832,-58.594,26.855,0
1555957454.192,83.008,4.395,71.289,-65.430,-19.531,0
1555957454.196,52.246,6.836,-105.469,-72.266,-9.277,0
1555957454.200,33.203,1.953,-177.246,-62.988,-14.160,0
1555957454.204,69.824,5.859,-35.645,-60.547,6.836,0
1555957454.205,98.145,5.859,-4.395,-63.477,12.207,0
1555957454.209,61.035,4.395,-130.371,-58.594,26.855,0
1555957454.213,51.758,11.719,-130.859,-41.504,58.105,0
1555957454.217,75.684,10.742,-39.062,-42.969,50.781,0
1555957454.221,92.285,10.254,-54.199,-61.523,17.578,0
1555957454.225,76.172,11.230,-211.914,-63.965,7.324,0
1555957454.229,54.199,8.789,-283.691,-53.711,11.230,0
1555957454.232,81.543,12.207,-81.543,-58.594,40.527,0
1555957454.236,113.281,12.695,-9.277,-64.453,51.758,0
1555957454.240,101.562,9.277,-312.988,-65.430,-3.418,0
1555957454.244,70.312,9.766,-280.273,-62.500,-10.742,0
1555957454.248,56.152,13.672,-47.852,-63.477,-24.414,0
1555957454.250,75.195,18.066,-68.848,-75.684,17.578,0
1555957454.254,91.309,20.508,-78.125,-81.055,33.691,0
1555957454.258,68.848,19.043,-72.266,-75.195,4.395,0
1555957454.262,62.500,23.926,-145.508,-74.707,32.227,0
1555957454.266,90.332,28.320,-263.672,-79.102,31.250,0
1555957454.270,103.516,29.785,-264.160,-74.707,-16.113,0
1555957454.274,82.520,29.297,-176.270,-74.707,30.273,0
1555957454.277,59.082,27.344,-91.797,-71.289,10.742,0
1555957454.281,65.918,30.762,-280.762,-73.730,-59.570,0
1555957454.285,97.168,27.832,-312.988,-81.543,1.465,0
1555957454.289,84.473,25.391,46.875,-76.660,53.223,0
1555957454.293,47.363,30.273,40.039,-73.730,38.086,0
1555957454.296,62.500,28.809,-154.297,-77.637,27.344,0
1555957454.300,95.215,25.391,-137.207,-79.590,16.113,0
1555957454.304,97.656,26.367,-38.086,-74.219,-2.930,0
1555957454.308,76.172,28.809,-119.629,-77.148,1.953,0
1555957454.312,72.266,31.738,-206.543,-71.289,21.973,0
1555957454.316,85.449,30.273,-275.391,-82.520,-29.785,0
1555957454.320,93.262,23.926,-200.684,-105.957,-12.695,0
1555957454.323,72.754,23.926,-136.230,-84.473,44.922,0
1555957454.327,70.312,27.344,-348.145,-76.660,7.324,0
1555957454.331,82.520,21.484,-208.984,-91.309,-4.883,0
1555957454.335,102.539,24.414,153.809,-90.820,30.273,0
1555957454.339,86.914,25.391,4.883,-95.215,9.277,0
1555957454.340,50.781,22.461,-153.809,-100.586,14.160,0
1555957454.344,62.012,20.996,-84.473,-114.258,17.578,0
1555957454.348,90.820,17.578,-38.086,-115.723,28.809,0
1555957454.352,93.750,17.090,-161.133,-110.840,37.109,0
1555957454.356,63.965,21.484,-258.789,-114.746,-12.695,0
1555957454.360,59.082,18.555,-274.414,-112.305,-3.906,0
1555957454.364,81.055,11.719,-179.688,-112.793,1.465,0
1555957454.367,86.426,10.742,-208.008,-116.699,-34.668,0
1555957454.371,72.754,3.418,-339.844,-111.328,-13.184,0
1555957454.375,65.430,-0.977,-154.297,-104.980,-3.906,0
1555957454.379,95.703,1.953,-58.105,-117.188,-11.719,0
1555957454.383,109.863,0.488,4.883,-104.980,20.996,0
1555957454.385,76.660,-0.977,-6.348,-109.863,32.715,0
1555957454.389,68.848,0.977,-44.922,-119.141,12.207,0
1555957454.393,99.121,-0.977,-73.730,-110.352,41.504,0
1555957454.397,114.258,-5.859,-105.469,-110.840,47.363,0
1555957454.401,98.145,-7.812,-133.789,-119.141,12.695,0
1555957454.405,66.895,-6.348,-246.094,-113.281,-3.418,0
1555957454.409,64.453,-6.348,-272.461,-106.934,28.320,0
1555957454.412,93.262,-9.766,-348.145,-120.605,28.809,0
1555957454.416,101.562,-3.418,-238.770,-117.676,-21.973,0
1555957454.420,69.824,-0.488,63.965,-112.305,43.945,0
1555957454.424,58.105,-7.812,-47.363,-120.605,59.082,0
1555957454.428,90.332,-10.742,-104.004,-129.883,47.852,0
1555957454.445,108.398,-10.254,-61.523,-133.789,52.734,0
1555957454.449,83.008,-7.324,-134.766,-135.742,59.570,0
1555957454.453,60.547,-5.371,-228.516,-141.602,18.066,0
1555957454.457,62.988,-6.348,-219.238,-146.973,-3.418,0
1555957454.461,74.707,-5.859,-51.758,-157.227,34.668,0
1555957454.465,72.266,-2.930,-148.926,-166.992,15.137,0
1555957454.469,51.758,4.883,-380.859,-166.992,16.113,0
1555957454.472,67.871,1.465,-395.020,-161.621,22.949,0
1555957454.476,117.676,-8.301,-48.340,-154.297,0.488,0
1555957454.480,102.539,-6.836,80.566,-153.320,3.418,0
1555957454.484,67.383,-7.812,-62.500,-151.855,41.992,0
1555957454.488,89.844,-7.812,-121.582,-145.020,31.738,0
1555957454.475,115.723,-10.254,-62.500,-138.672,-3.906,0
1555957454.479,106.934,-8.301,-35.645,-139.648,28.809,0
1555957454.483,74.707,-6.348,-137.695,-130.859,50.781,0
1555957454.487,66.895,-11.230,-191.406,-128.418,76.172,0
1555957454.491,86.426,-13.672,-184.570,-136.719,37.109,0
1555957454.495,102.051,-16.113,-175.293,-143.555,18.555,0
1555957454.499,78.613,-18.555,-187.500,-141.602,53.223,0
1555957454.502,56.152,-20.508,-95.215,-143.555,32.715,0
1555957454.506,83.496,-19.531,-17.578,-149.414,16.602,0
1555957454.510,99.121,-21.484,-33.691,-159.668,27.832,0
1555957454.514,86.914,-18.066,-334.961,-159.180,0.000,0
1555957454.518,61.523,-12.695,-325.195,-157.227,-58.594,0
1555957454.535,58.105,-14.160,-39.551,-171.387,-47.852,0
1555957454.539,101.562,-14.648,-17.578,-170.410,9.277,0
1555957454.543,81.055,-16.113,-85.449,-171.875,-7.324,0
1555957454.547,39.062,-19.531,-128.418,-167.969,-34.668,2
1555957454.551,51.270,-21.973,-75.195,-172.363,35.156,0
1555957454.555,76.660,-27.344,-223.633,-181.641,65.430,0
1555957454.559,94.727,-25.391,-405.762,-168.457,22.949,0
1555957454.562,85.449,-22.949,-200.684,-168.457,16.602,0
1555957454.566,66.406,-25.391,-20.508,-161.621,48.828,0
1555957454.570,83.984,-28.809,-104.980,-166.016,44.922,0
1555957454.574,105.469,-23.926,-51.758,-177.246,57.129,0
1555957454.578,95.215,-23.438,-10.742,-162.109,53.223,0
1555957454.580,77.637,-31.738,-137.695,-144.043,21.973,0
1555957454.584,97.168,-29.785,-188.965,-148.438,38.086,0
1555957454.588,112.305,-28.809,-109.375,-154.297,41.504,0
1555957454.592,91.309,-31.738,-72.754,-155.762,23.438,0
1555957454.596,64.453,-34.668,-203.613,-147.949,-16.602,0
1555957454.600,69.824,-34.180,-279.297,-146.484,25.879,0
1555957454.604,92.285,-36.133,-219.727,-151.855,52.734,0
1555957454.607,62.012,-41.992,-81.543,-156.250,11.230,0
1555957454.611,28.320,-41.992,-79.590,-158.691,39.062,0
1555957454.615,23.438,-40.527,-353.027,-159.668,71.777,0
1555957454.619,47.363,-40.039,-270.996,-167.480,12.695,0
1555957454.623,70.312,-38.086,7.812,-174.805,-49.316,0
1555957454.625,44.922,-37.109,-93.262,-182.129,-6.348,0
1555957454.629,39.062,-36.133,-149.902,-181.641,49.805,0
1555957454.633,51.758,-33.691,-62.500,-182.617,51.270,0
1555957454.637,50.293,-28.809,-16.602,-179.199,44.434,0
1555957454.641,62.012,-31.250,-156.250,-178.711,28.809,0
1555957454.645,61.035,-37.598,-373.047,-170.898,-24.902,0
1555957454.649,55.176,-37.109,-329.102,-171.387,3.906,0
1555957454.652,84.473,-41.016,-61.523,-181.152,32.715,0
1555957454.656,79.102,-38.574,-106.445,-178.711,59.082,0
1555957454.660,45.410,-33.691,-359.375,-172.363,31.250,0
1555957454.664,56.641,-35.645,-105.469,-182.617,16.602,0
1555957454.668,85.938,-37.109,41.504,-186.035,6.348,0
1555957454.670,87.891,-28.809,-64.941,-179.199,11.719,0
1555957454.674,63.965,-25.391,-112.305,-178.223,42.480,0
1555957454.678,47.363,-29.297,-70.801,-187.012,31.738,0
1555957454.682,78.125,-31.738,-81.055,-192.383,20.508,0
1555957454.686,99.609,-32.227,-89.844,-182.129,44.434,0
1555957454.690,62.500,-37.109,-211.914,-186.035,35.156,0
1555957454.694,42.969,-43.457,-338.867,-188.477,-32.715,0
1555957454.697,56.641,-41.016,-236.816,-201.660,-28.809,0
1555957454.701,87.891,-35.156,-231.445,-202.637,39.062,0
1555957454.705,81.543,-34.668,-144.043,-193.848,47.852,0
1555957454.709,50.781,-35.645,11.230,-209.473,5.371,0
1555957454.713,57.617,-37.109,-69.824,-204.102,23.438,0
1555957454.715,83.984,-39.062,-78.125,-196.289,28.809,0
1555957454.719,77.637,-38.086,-5.859,-203.613,28.320,0
1555957454.723,60.059,-32.715,-99.609,-207.520,4.395,0
1555957454.727,64.941,-32.227,-241.211,-211.914,-22.461,0
1555957454.731,81.055,-41.992,-178.711,-211.426,-1.465,0
1555957454.735,72.266,-44.922,-177.246,-226.074,-12.207,0
1555957454.739,46.875,-37.109,-192.871,-215.332,-1.465,0
1555957454.742,49.805,-34.180,-230.469,-189.941,41.992,0
1555957454.746,78.125,-35.645,-302.246,-198.730,57.129,0
1555957454.750,94.727,-35.645,49.316,-203.613,83.984,0
1555957454.754,69.824,-30.762,113.281,-204.590,87.402,0
1555957454.758,63.965,-25.391,-138.184,-204.590,13.184,0
1555957454.760,70.312,-26.367,-145.996,-218.750,5.859,0
1555957454.764,95.215,-27.344,-18.555,-229.980,22.461,0
1555957454.768,99.121,-25.879,-69.336,-227.539,16.113,0
1555957454.772,67.383,-25.391,-204.102,-219.727,18.555,0
1555957454.776,75.684,-22.461,-135.742,-216.309,50.781,0
1555957454.780,97.656,-24.902,-114.746,-228.516,58.594,0
1555957454.784,94.727,-31.738,-185.547,-233.887,31.250,0
1555957454.787,72.266,-30.273,-401.855,-229.004,18.066,0
1555957454.791,81.055,-27.344,-321.289,-224.609,19.531,0
1555957454.795,104.492,-27.832,97.168,-229.492,33.203,0
1555957454.799,108.398,-29.297,50.781,-237.305,17.090,0
1555957454.803,84.473,-25.879,-107.910,-235.352,23.926,0
1555957454.805,55.664,-25.879,-62.500,-243.652,52.734,0
1555957454.809,67.871,-28.320,-45.410,-247.559,37.598,0
1555957454.813,100.098,-26.367,-140.137,-242.188,8.301,0
1555957454.817,87.402,-28.809,-177.734,-241.211,34.668,0
1555957454.821,68.359,-31.738,-159.668,-238.281,18.555,0
1555957454.825,89.844,-28.320,-232.422,-248.535,-17.578,0
1555957454.829,100.586,-32.227,-332.520,-262.207,-20.020,0
1555957454.832,72.754,-33.203,-294.434,-256.836,33.691,0
1555957454.836,52.246,-32.715,-45.898,-239.746,25.391,0
1555957454.840,73.242,-36.621,-25.391,-254.395,15.137,0
1555957454.844,99.121,-32.227,-113.770,-270.020,13.672,0
1555957454.848,67.871,-33.203,-57.617,-273.438,-25.391,0
1555957454.851,32.227,-32.715,-77.148,-273.926,-35.156,0
1555957454.855,50.293,-25.391,-165.039,-275.879,-58.594,0
1555957454.859,69.336,-26.367,-155.762,-289.062,-9.766,0
1555957454.863,69.336,-28.809,-37.598,-287.598,39.062,0
1555957454.867,46.875,-29.297,-53.711,-287.109,29.297,0
1555957454.871,16.113,-33.691,-169.922,-295.898,75.684,0
1555957454.875,32.715,-31.738,-359.375,-299.316,108.398,0
1555957454.878,44.434,-30.273,-258.301,-303.711,41.504,0
1555957454.882,21.973,-28.320,41.016,-294.434,31.250,0
1555957454.886,4.883,-24.414,-43.945,-282.227,62.988,0
1555957454.890,33.203,-21.973,-166.016,-295.410,39.551,0
1555957454.894,51.270,-24.414,-31.738,-299.805,39.062,0
1555957454.896,30.762,-24.902,-77.637,-292.969,30.273,0
1555957454.900,18.066,-25.391,-301.758,-294.922,5.859,0
1555957454.904,36.621,-26.855,-215.332,-298.340,20.020,0
1555957454.908,57.129,-20.996,-47.363,-298.340,5.371,0
1555957454.912,58.105,-17.578,22.949,-296.875,31.738,0
1555957454.916,42.969,-14.648,-205.078,-290.527,91.309,0
1555957454.920,38.574,-11.230,-346.680,-282.715,70.801,0
1555957454.923,63.965,-9.766,-72.754,-287.109,28.809,0
1555957454.927,71.777,-2.930,59.570,-298.828,35.156,0
1555957454.931,45.898,-0.977,-175.781,-302.734,20.996,0
1555957454.935,27.832,-10.254,-286.621,-299.316,-13.672,0
1555957454.939,40.039,-11.719,-24.414,-304.688,47.363,0
1555957454.956,65.918,-6.836,43.945,-300.293,61.523,0
1555957454.960,54.688,-3.418,-97.656,-299.316,37.109,0
1555957454.964,21.484,0.977,-161.133,-302.734,32.227,0
1555957454.968,29.297,6.348,-190.430,-293.457,9.277,0
1555957454.972,74.707,5.859,-112.305,-309.082,46.387,0
1555957454.976,76.172,7.324,-159.180,-312.500,40.527,0
1555957454.980,47.852,9.277,-325.195,-298.828,-20.020,0
1555957454.983,45.410,6.348,-172.363,-300.293,-28.809,0
1555957454.987,61.523,4.395,-20.996,-311.035,36.621,0
1555957454.991,71.777,16.113,-171.875,-314.941,72.266,0
1555957454.995,41.504,17.090,-178.223,-307.129,27.344,0
1555957454.999,28.809,8.301,-40.039,-309.570,17.090,0
1555957455.000,60.059,13.672,-94.727,-318.848,55.176,0
1555957455.004,68.359,13.672,-131.836,-318.359,40.039,0
1555957455.008,52.734,14.648,-95.703,-310.547,24.902,0
1555957455.012,37.109,17.578,-102.539,-311.035,48.828,0
1555957455.016,47.852,17.578,-204.590,-320.312,17.578,0
1555957455.020,63.965,19.531,-222.168,-322.266,31.738,0
1555957455.024,51.270,20.996,-184.082,-325.684,58.594,0
1555957455.027,27.832,18.555,-197.754,-324.219,4.395,0
1555957455.031,39.062,20.020,-229.492,-322.266,31.738,0
1555957455.035,66.406,28.320,-256.348,-321.777,7.812,0
1555957455.039,58.105,37.109,28.320,-319.824,-15.137,0
1555957455.043,29.297,40.039,128.906,-318.359,61.523,0
1555957455.045,26.855,36.133,-35.156,-317.871,35.645,0
1555957455.049,40.527,30.762,-39.551,-327.148,10.254,0
1555957455.053,47.852,33.691,25.391,-332.520,7.812,0
1555957455.057,28.809,39.062,-86.426,-327.637,4.883,0
1555957455.061,11.719,35.156,-187.988,-329.590,27.344,0
1555957455.065,29.785,37.598,-277.832,-336.914,-28.320,0
1555957455.069,53.223,40.527,-191.406,-336.426,-47.363,0
1555957455.072,36.621,35.645,-35.156,-343.262,1.953,0
1555957455.076,14.160,39.551,-289.062,-349.609,-3.906,0
1555957455.080,25.879,38.574,-257.812,-348.145,18.555,0
1555957455.084,49.805,33.203,55.664,-350.098,17.090,0
1555957455.088,39.062,41.504,49.805,-352.539,20.020,0
1555957455.090,23.438,48.828,-90.820,-348.145,-5.859,0
1555957455.094,31.250,48.340,-2.930,-347.168,33.203,0
1555957455.098,51.758,49.805,99.121,-354.004,83.496,0
1555957455.102,44.922,54.688,-83.496,-362.305,-6.348,0
1555957455.106,21.973,54.688,-155.273,-357.422,20.508,0
1555957455.110,18.555,49.316,-144.531,-353.516,66.406,0
1555957455.114,44.434,54.688,-145.996,-355.957,26.855,0
1555957455.117,57.129,58.105,-145.508,-356.445,35.645,0
1555957455.121,32.227,55.176,-229.004,-365.723,59.570,0
1555957455.125,21.484,54.688,12.695,-365.234,78.613,0
1555957455.129,32.715,62.012,36.133,-362.793,-28.809,0
1555957455.133,39.551,61.035,16.113,-363.770,-3.418,0
1555957455.136,28.320,54.688,-9.277,-366.699,84.473,0
1555957455.140,6.836,52.246,-101.074,-374.023,11.230,0
1555957455.144,17.578,49.316,-59.082,-381.348,16.602,0
1555957455.148,45.898,51.270,-12.207,-377.930,79.590,0
1555957455.152,26.367,55.664,-57.617,-375.488,5.371,0
1555957455.156,1.953,57.617,-178.711,-375.488,7.812,0
1555957455.160,10.742,61.523,-152.344,-377.441,54.688,0
1555957455.163,23.438,63.477,-210.938,-385.254,50.293,0
1555957455.167,25.879,59.570,-137.207,-385.742,14.160,0
1555957455.171,14.160,57.129,68.359,-385.742,-27.832,0
1555957455.175,22.949,55.664,0.977,-378.906,7.812,0
1555957455.179,44.922,56.152,-38.086,-384.766,8.301,0
1555957455.181,45.410,61.523,55.176,-385.742,-9.766,0
1555957455.185,39.551,60.059,38.086,-372.559,2.930,0
1555957455.189,24.902,57.129,-97.168,-368.652,36.133,0
1555957455.193,39.062,63.477,-231.934,-378.418,8.789,0
1555957455.197,70.312,70.801,-76.172,-388.184,19.531,0
1555957455.201,61.523,76.660,-20.996,-390.625,25.391,0
1555957455.205,37.109,79.590,-230.957,-378.906,19.531,0
1555957455.208,32.715,82.520,-271.484,-372.559,72.266,0
1555957455.212,68.848,83.984,21.484,-373.535,27.832,0
1555957455.216,72.754,83.008,192.383,-375.488,21.484,0
1555957455.220,38.086,86.426,-11.230,-378.418,6.836,0
1555957455.224,36.133,87.891,-139.648,-378.906,-64.941,0
1555957455.226,64.453,83.496,8.301,-397.949,-5.859,0
1555957455.230,55.176,86.426,64.453,-412.109,41.016,0
1555957455.234,29.785,93.262,-109.375,-397.461,33.203,0
1555957455.238,14.648,93.750,-146.484,-386.230,12.207,0
1555957455.242,28.809,89.844,-41.992,-392.578,-5.859,0
1555957455.246,55.664,85.449,-80.078,-390.625,2.930,0
1555957455.250,32.715,88.867,-349.121,-396.484,-8.789,0
1555957455.253,18.555,95.703,-231.445,-396.484,10.742,0
1555957455.257,32.227,100.098,160.645,-395.020,51.758,0
1555957455.261,42.480,104.492,140.625,-413.086,55.664,0
1555957455.265,43.457,100.098,11.230,-409.668,49.316,0
1555957455.269,35.645,95.215,-7.812,-385.254,45.898,0
1555957455.285,36.621,98.145,24.902,-385.742,64.941,0
1555957455.289,54.199,97.656,-53.223,-401.367,36.621,0
1555957455.293,58.105,96.680,-113.770,-400.879,-3.418,0
1555957455.297,46.387,95.215,-110.352,-390.625,-38.574,0
1555957455.301,25.391,91.309,-57.617,-398.438,-22.461,0
1555957455.305,38.574,87.891,-147.949,-404.297,29.297,0
1555957455.309,46.875,88.867,-208.008,-403.809,65.430,0
1555957455.312,20.996,87.891,34.180,-420.898,59.570,0
1555957455.316,11.230,86.914,71.289,-421.387,15.625,0
1555957455.320,43.457,88.379,-37.598,-406.738,10.254,0
1555957455.324,56.152,91.309,20.020,-414.062,18.066,0
1555957455.328,39.551,96.191,110.352,-412.598,55.664,0
1555957455.330,24.414,91.309,13.672,-420.410,47.852,0
1555957455.334,19.531,84.961,-92.285,-431.641,24.902,0
1555957455.338,53.711,83.984,-31.738,-421.387,15.137,0
1555957455.342,55.176,80.566,-1.953,-417.480,-25.391,0
1555957455.346,27.344,81.055,-44.922,-416.016,9.766,0
1555957455.350,27.344,83.984,-186.035,-427.246,24.414,0
1555957455.354,48.340,82.031,-136.719,-430.664,20.996,0
1555957455.357,47.852,83.008,65.430,-415.039,9.277,0
1555957455.361,29.785,84.961,-21.484,-406.738,-25.391,0
1555957455.365,20.020,85.938,-258.301,-414.062,35.645,0
1555957455.369,37.598,83.496,-100.586,-426.758,61.523,0
1555957455.373,50.781,80.566,182.129,-416.992,28.809,0
1555957455.375,26.855,84.473,17.090,-419.434,59.082,0
1555957455.379,19.531,90.820,-72.754,-416.016,60.547,0
1555957455.383,44.434,91.797,-1.953,-409.180,-3.418,0
1555957455.387,47.363,87.891,68.359,-425.293,12.207,0
1555957455.391,33.203,82.031,-25.391,-424.805,33.691,0
1555957455.395,25.879,78.613,-238.770,-416.016,-5.859,0
1555957455.399,23.438,78.613,-184.082,-417.969,31.738,0
1555957455.402,52.734,78.125,48.828,-419.434,18.555,0
1555957455.406,51.758,82.031,-101.074,-419.922,-43.945,0
1555957455.410,19.531,90.820,-291.504,-416.992,-5.859,0
1555957455.414,22.949,92.773,37.109,-413.574,46.387,0
1555957455.418,49.316,85.449,182.617,-429.688,52.246,0
1555957455.421,50.293,84.473,104.004,-428.711,75.195,0
1555957455.425,41.016,84.961,-3.418,-411.133,52.246,0
1555957455.429,30.762,82.031,-41.016,-416.016,12.695,0
1555957455.433,43.457,83.008,-84.473,-422.852,46.387,0
1555957455.437,45.410,79.590,-108.887,-420.898,0.000,0
1555957455.441,28.809,78.613,-115.234,-415.527,-1.465,0
1555957455.445,24.414,75.195,-93.262,-409.180,21.973,0
1555957455.448,34.668,67.871,30.762,-410.645,0.977,0
1555957455.452,61.523,70.312,-120.117,-414.062,57.617,0
1555957455.456,43.457,74.707,-138.672,-411.621,41.992,0
1555957455.460,12.695,73.730,116.211,-397.949,17.090,0
1555957455.464,25.391,66.895,34.180,-396.484,16.602,0
1555957455.466,49.805,61.523,29.785,-402.832,52.246,0
1555957455.470,52.246,63.965,131.348,-402.832,72.754,0
1555957455.474,20.020,67.871,15.137,-396.973,16.602,0
1555957455.478,10.254,67.383,-96.680,-407.227,25.879,0
1555957455.482,48.340,68.848,-62.988,-404.785,49.805,0
1555957455.486,54.688,68.848,-23.926,-400.391,61.035,0
1555957455.490,24.414,64.453,-139.160,-402.832,1.953,0
1555957455.493,8.301,64.941,-273.438,-397.461,-13.184,0
1555957455.497,35.645,63.477,-233.887,-403.320,16.113,0
1555957455.501,60.059,59.082,116.211,-403.809,12.695,0
1555957455.505,25.391,59.082,215.332,-403.320,63.965,0
1555957455.509,14.160,62.012,35.156,-395.020,76.172,0
1555957455.511,39.062,60.547,-48.828,-396.973,23.926,0
1555957455.515,48.828,62.988,-11.230,-399.414,-34.668,0
1555957455.519,49.805,67.383,-59.570,-399.902,-58.594,0
1555957455.523,24.902,66.406,-147.949,-389.160,-15.137,0
1555957455.527,26.855,61.035,-82.520,-387.695,20.508,0
1555957455.531,52.246,59.082,-94.238,-396.484,-5.859,0
1555957455.535,41.992,58.105,-124.512,-394.043,-43.457,0
1555957455.538,18.555,58.594,-244.629,-387.695,5.371,0
1555957455.542,11.230,60.059,-146.484,-385.254,52.246,0
1555957455.546,35.645,58.594,141.113,-391.113,55.664,0
1555957455.550,50.293,58.105,118.652,-391.602,51.270,0
1555957455.554,13.184,58.594,-19.043,-379.395,-4.395,0
1555957455.556,1.953,62.988,29.297,-367.188,32.715,0
1555957455.560,31.738,68.359,55.664,-380.859,22.461,0
1555957455.564,33.203,70.312,-68.848,-391.113,-50.781,0
1555957455.568,10.254,72.266,-41.016,-392.578,21.484,0
1555957455.572,-3.906,71.289,-5.859,-395.996,32.715,0
1555957455.576,17.578,68.359,-99.121,-390.625,3.906,0
1555957455.580,31.250,68.848,-177.246,-393.066,36.133,0
1555957455.583,16.113,72.754,-217.285,-397.461,17.090,0
1555957455.587,2.930,76.172,26.367,-395.020,38.086,0
1555957455.591,22.949,79.590,137.207,-377.441,44.434,0
1555957455.595,65.918,82.031,60.547,-362.305,30.273,0
1555957455.599,60.547,80.566,92.773,-365.723,63.477,0
1555957455.600,28.320,78.613,22.461,-375.488,71.289,0
1555957455.604,25.879,77.148,-45.898,-365.234,31.738,0
1555957455.608,40.039,77.148,-48.828,-367.188,7.812,0
1555957455.612,48.828,81.055,-41.016,-366.211,-11.230,0
1555957455.616,27.344,80.566,65.430,-358.398,39.062,0
1555957455.620,10.742,80.566,-16.113,-360.352,49.805,0
1555957455.624,28.809,84.473,-308.594,-363.770,12.207,0
1555957455.627,40.039,83.496,-146.973,-361.328,38.086,0
1555957455.631,-4.395,83.496,165.039,-363.770,-12.207,0
1555957455.635,-45.898,92.773,57.617,-367.676,-16.113,0
1555957455.639,-30.762,93.262,-4.395,-368.652,23.926,0
1555957455.643,-7.812,88.867,138.672,-381.348,45.410,0
1555957455.645,-29.297,91.797,173.828,-381.348,61.523,0
1555957455.649,-42.480,95.215,-31.738,-361.816,30.273,0
1555957455.653,-52.246,98.633,-89.844,-350.098,36.133,0
1555957455.657,-27.344,96.191,8.789,-354.492,57.617,0
1555957455.661,-0.488,96.191,100.586,-357.422,39.551,0
1555957455.665,-44.434,93.750,-162.598,-353.027,-35.156,0
1555957455.669,-45.410,95.703,-347.656,-346.680,1.465,0
1555957455.672,-5.859,94.238,-60.547,-351.074,31.250,0
1555957455.676,9.277,95.215,43.457,-340.820,12.695,0
1555957455.680,-12.695,98.145,-117.188,-329.590,39.551,0
1555957455.684,-33.203,93.262,-244.629,-332.031,16.602,0
1555957455.688,-14.648,95.215,-175.293,-330.078,31.738,0
1555957455.705,23.926,91.797,-91.797,-328.125,83.496,0
1555957455.709,24.414,88.867,-194.824,-321.289,63.965,0
1555957455.713,-5.371,90.820,-283.691,-317.383,20.020,0
1555957455.717,-0.977,91.797,-249.512,-319.824,-23.926,1
1555957455.721,32.715,103.027,-164.062,-315.918,-3.418,0
1555957455.725,16.113,104.004,-202.148,-323.730,63.965,0
1555957455.729,-7.324,96.191,-293.457,-331.543,45.898,0
1555957455.732,9.766,94.727,-145.996,-320.801,25.391,0
1555957455.736,37.598,95.703,-53.223,-321.777,49.805,0
1555957455.740,36.133,95.703,-208.008,-331.543,85.938,0
1555957455.744,17.578,92.773,-156.250,-320.801,96.680,0
1555957455.748,11.719,87.402,-62.012,-312.012,5.371,0
1555957455.750,39.062,93.750,-109.863,-323.730,1.465,0
1555957455.754,45.410,93.262,-13.672,-316.895,80.078,0
1555957455.758,18.555,86.914,-33.691,-316.895,4.883,0
1555957455.762,3.418,83.008,-29.785,-324.219,56.152,0
1555957455.766,13.184,77.637,-74.219,-332.520,89.844,0
1555957455.770,38.086,78.613,-176.758,-338.379,34.668,0
1555957455.774,39.062,75.684,-148.926,-329.590,34.180,0
1555957455.777,13.672,74.707,-86.426,-327.637,-29.785,0
1555957455.781,15.137,76.660,-146.973,-328.613,15.625,0
1555957455.785,42.480,71.289,-275.879,-310.547,0.977,0
1555957455.789,47.852,66.895,50.293,-298.340,-1.953,0
1555957455.793,27.832,72.266,160.156,-292.969,45.898,0
1555957455.810,17.090,70.312,-0.977,-288.086,35.645,0
1555957455.814,51.758,67.383,12.207,-292.969,33.203,0
1555957455.818,70.312,66.895,55.176,-293.945,-11.719,0
1555957455.822,43.457,63.965,13.672,-289.551,22.949,0
1555957455.826,30.273,64.941,-79.590,-282.227,52.246,0
1555957455.830,53.711,60.059,-145.996,-277.832,14.648,0
1555957455.834,73.730,55.664,-43.945,-279.297,48.828,0
1555957455.837,61.035,50.781,22.461,-271.973,20.508,0
1555957455.841,32.715,44.922,-240.234,-267.578,-7.812,0
1555957455.845,18.555,41.016,-160.645,-277.832,35.156,0
1555957455.849,38.086,34.668,223.145,-290.039,40.039,0
1555957455.853,46.875,32.227,134.277,-292.969,31.738,0
1555957455.840,19.531,35.156,-82.031,-282.227,3.906,0
1555957455.844,19.531,34.180,-18.066,-280.273,-20.996,0
1555957455.848,38.086,28.320,111.328,-284.668,-3.906,0
1555957455.852,33.691,30.762,61.523,-280.273,18.066,0
1555957455.856,22.461,34.668,-13.184,-281.250,31.738,0
1555957455.860,26.367,24.414,-99.609,-278.809,-6.836,0
1555957455.864,35.645,16.602,-69.336,-274.902,7.812,0
1555957455.867,53.711,20.020,40.527,-277.832,41.504,0
1555957455.871,16.113,23.438,24.414,-274.414,20.508,0
1555957455.875,-5.859,23.926,67.871,-263.184,24.902,0
1555957455.879,29.785,22.461,154.297,-270.020,59.570,0
1555957455.883,40.527,23.926,-17.090,-258.301,68.848,0
1555957455.885,39.551,23.926,-202.148,-243.652,21.973,0
1555957455.889,33.691,26.855,85.938,-234.863,42.969,0
1555957455.893,30.273,32.715,137.695,-232.910,25.879,0
1555957455.897,51.270,29.785,43.457,-241.211,-6.836,0
1555957455.901,47.852,25.391,88.867,-227.051,9.277,0
1555957455.905,13.672,27.344,-14.160,-223.145,15.625,0
1555957455.909,24.902,32.715,-86.426,-231.934,-19.043,0
1555957455.912,26.855,25.391,-103.027,-234.863,30.762,0
1555957455.916,26.855,20.020,45.410,-233.398,75.684,0
1555957455.920,29.297,20.508,208.496,-228.516,-1.953,0
1555957455.924,18.066,22.461,78.613,-228.516,2.930,0
1555957455.928,37.598,27.344,5.859,-229.004,-4.395,0
1555957455.931,38.086,25.391,135.254,-243.164,16.602,0
1555957455.935,10.742,20.508,147.949,-232.910,37.598,0
1555957455.939,-9.766,20.508,-46.387,-216.797,-16.113,0
1555957455.943,9.277,23.926,-54.199,-231.934,-9.766,0
1555957455.947,27.344,24.414,110.840,-246.094,-1.465,0
1555957455.951,1.465,23.926,71.289,-246.582,39.062,0
1555957455.955,-4.883,26.367,-149.414,-223.145,64.941,0
1555957455.958,-4.883,36.621,-154.297,-211.426,59.082,0
1555957455.962,17.090,35.645,233.398,-221.680,96.191,0
1555957455.966,16.602,32.227,338.867,-223.145,73.730,0
1555957455.970,-20.508,39.551,110.352,-207.031,31.250,0
1555957455.974,-14.648,37.598,13.672,-212.891,-19.531,0
1555957455.976,11.230,34.668,118.652,-227.051,-22.949,0
1555957455.980,16.113,33.691,200.195,-218.750,23.926,0
1555957455.984,-0.977,31.738,55.176,-211.426,12.695,0
1555957455.988,-23.438,27.344,41.504,-211.426,50.293,0
1555957455.992,2.441,27.832,105.957,-215.332,42.969,0
1555957455.996,41.992,30.762,59.082,-214.355,30.273,0
1555957456.000,10.254,33.203,-180.664,-210.938,47.363,0
1555957456.003,-17.090,35.156,-67.871,-205.078,96.191,0
1555957456.007,4.395,37.109,243.652,-202.148,90.332,0
1555957456.011,38.574,35.156,119.141,-195.801,33.691,0
1555957456.015,12.207,35.156,70.801,-200.195,24.414,0
1555957456.019,-42.480,32.715,109.375,-195.801,-0.977,0
1555957456.036,-30.762,26.855,106.934,-187.500,-1.465,0
1555957456.040,8.301,26.855,70.801,-197.754,9.277,0
1555957456.044,18.066,28.809,61.035,-200.684,23.926,0
1555957456.048,-3.418,29.785,8.301,-187.988,-21.484,0
1555957456.052,-24.414,22.949,74.707,-193.359,-1.953,0
1555957456.056,4.395,17.090,13.184,-190.430,68.359,0
1555957456.060,21.484,20.996,-135.254,-181.152,34.668,0
1555957456.063,-2.930,21.973,118.652,-180.176,32.715,0
1555957456.067,-26.855,22.949,237.793,-173.828,52.734,0
1555957456.071,-16.113,24.414,93.262,-178.711,14.648,0
1555957456.075,23.926,28.320,145.996,-177.734,30.273,0
1555957456.079,17.090,28.809,148.438,-174.805,53.223,0
1555957456.081,-16.602,17.090,-8.301,-180.176,23.438,0
1555957456.085,-7.812,13.184,-55.664,-179.688,-56.641,0
1555957456.089,15.137,15.137,79.590,-183.105,-36.621,0
1555957456.093,20.020,16.113,208.008,-173.340,21.484,0
1555957456.097,-8.789,15.625,87.891,-162.109,-3.906,0
1555957456.101,-17.090,9.766,-58.105,-172.363,-6.348,0
1555957456.105,13.184,7.812,-33.691,-180.176,16.113,0
1555957456.108,15.137,8.301,158.203,-168.457,26.367,0
1555957456.112,-17.090,7.812,173.340,-155.762,46.387,0
1555957456.116,-25.879,13.184,-153.320,-161.621,43.457,0
1555957456.120,13.184,15.137,-88.379,-167.969,2.930,0
1555957456.124,35.645,16.602,247.559,-161.133,-7.324,0
1555957456.126,12.207,19.531,127.441,-161.133,11.230,0
1555957456.130,-10.742,14.160,50.293,-151.367,43.945,0
1555957456.134,2.441,6.836,126.953,-137.695,94.238,0
1555957456.138,20.996,5.371,109.375,-147.949,55.664,0
1555957456.142,14.160,7.324,79.590,-140.625,45.410,0
1555957456.146,-5.371,8.789,-106.445,-126.953,2.930,0
1555957456.150,10.742,0.977,-83.008,-127.441,20.020,0
1555957456.153,33.203,1.465,144.531,-130.859,52.246,0
1555957456.157,17.090,4.883,83.984,-134.766,37.598,0
1555957456.161,-21.484,-2.441,-116.699,-129.395,30.273,0
1555957456.165,-8.789,-4.395,160.645,-122.559,62.988,0
1555957456.169,17.578,0.488,273.926,-126.465,36.133,0
1555957456.171,20.020,-3.418,133.301,-120.117,-23.926,0
1555957456.175,7.812,-6.348,87.402,-110.352,-8.301,0
1555957456.179,1.465,-5.859,140.625,-112.793,32.227,0
1555957456.183,12.695,-0.977,118.164,-121.094,16.113,0
1555957456.187,25.879,-0.977,97.168,-121.582,21.484,0
1555957456.191,2.930,-8.789,14.648,-111.816,43.457,0
1555957456.195,-25.391,-5.859,-77.148,-110.840,16.602,0
1555957456.198,-20.508,-5.859,94.238,-113.281,72.754,0
1555957456.202,5.371,-3.418,6.836,-104.492,88.867,0
1555957456.206,-0.488,2.930,-21.484,-102.051,22.461,0
1555957456.210,-23.438,9.277,221.680,-99.609,3.418,0
1555957456.214,-17.578,6.348,136.230,-95.703,20.020,0
1555957456.216,4.395,0.977,33.691,-103.516,14.648,0
1555957456.220,13.672,1.465,197.754,-101.562,27.832,0
1555957456.224,-4.883,3.906,169.434,-91.797,1.953,0
1555957456.228,-11.719,5.859,12.695,-85.938,-12.207,0
1555957456.232,9.277,7.324,77.148,-84.961,31.250,0
1555957456.236,24.414,10.254,87.891,-85.449,26.367,0
1555957456.240,0.000,13.672,74.219,-86.914,31.738,0
1555957456.243,-13.184,9.766,11.230,-78.125,41.016,0
1555957456.247,20.508,3.906,-178.223,-79.590,14.648,0
1555957456.251,40.527,1.953,56.641,-96.191,17.090,0
1555957456.255,19.043,2.930,278.809,-94.238,41.992,0
1555957456.259,0.488,1.953,180.664,-81.543,41.504,0
1555957456.261,7.812,5.371,132.812,-86.426,40.527,0
1555957456.265,39.551,8.301,192.383,-85.938,7.324,0
1555957456.269,28.809,-0.488,184.082,-79.102,34.180,0
1555957456.273,-11.230,-1.953,40.039,-86.426,31.250,0
1555957456.277,-3.906,4.395,2.441,-83.984,-17.578,0
1555957456.281,15.625,0.000,48.340,-85.449,29.297,0
1555957456.285,14.160,-0.977,62.988,-84.961,36.133,0
1555957456.288,15.137,8.789,-164.551,-77.148,-11.719,0
1555957456.292,-20.508,7.812,-97.656,-81.543,17.090,0
1555957456.296,13.672,5.371,289.062,-86.914,55.176,0
1555957456.300,41.016,5.859,241.211,-95.703,19.043,0
1555957456.304,0.488,5.859,34.668,-88.867,20.508,0
1555957456.305,-16.602,6.836,14.648,-67.383,21.973,0
1555957456.309,-11.719,6.348,134.277,-74.219,-2.441,0
1555957456.313,26.367,7.812,103.027,-77.148,-26.855,0
1555957456.317,25.879,7.812,128.906,-76.172,45.898,0
1555957456.321,-2.441,8.301,156.250,-77.637,71.777,0
1555957456.325,8.789,8.301,11.230,-77.637,-17.578,0
1555957456.329,33.203,7.812,-83.008,-84.961,-19.531,0
1555957456.332,12.695,6.836,-62.012,-93.262,20.020,0
1555957456.336,-3.906,6.836,165.039,-83.008,14.648,0
1555957456.340,0.977,8.789,250.977,-74.707,-5.371,0
1555957456.344,20.996,5.371,141.113,-90.820,-41.504,0
1555957456.348,32.715,3.906,196.777,-92.773,12.695,0
1555957456.350,-8.789,6.348,235.352,-93.750,70.801,0
1555957456.354,-21.973,10.254,187.988,-91.797,91.797,0
1555957456.358,8.789,13.184,67.383,-95.215,102.539,0
1555957456.362,32.227,10.742,-25.879,-104.980,-6.348,0
1555957456.366,11.230,14.648,73.730,-106.934,-42.480,0
1555957456.370,6.836,20.020,33.691,-92.285,4.883,0
1555957456.374,33.203,15.625,-192.871,-87.891,-0.977,0
1555957456.377,41.992,19.043,-31.250,-92.285,-10.254,0
1555957456.381,23.438,22.461,327.148,-89.844,26.367,0
1555957456.385,7.812,29.297,202.637,-86.426,30.762,0
1555957456.389,21.973,29.785,86.914,-75.195,24.902,0
1555957456.393,44.922,20.508,194.824,-76.172,23.926,0
1555957456.410,48.340,18.066,209.961,-83.984,9.277,0
1555957456.414,22.461,15.137,29.785,-79.102,-2.930,0
1555957456.418,13.672,16.602,-53.711,-66.895,-23.926,0
1555957456.422,44.434,19.531,162.598,-76.172,51.758,0
1555957456.426,55.176,19.531,212.891,-83.496,32.715,0
1555957456.430,28.809,20.996,-66.895,-82.031,10.742,0
1555957456.434,2.441,24.414,-232.910,-80.566,9.277,0
1555957456.437,28.809,26.367,41.992,-85.938,3.906,0
1555957456.441,61.035,24.902,355.957,-84.961,81.543,0
1555957456.445,42.969,27.344,173.828,-81.055,77.637,0
1555957456.449,24.414,26.855,23.926,-62.988,52.246,0
1555957456.453,31.250,23.438,190.918,-63.477,62.988,0
1555957456.455,50.293,20.996,191.406,-76.660,25.879,0
1555957456.459,36.621,15.137,96.191,-73.730,24.902,0
1555957456.463,3.906,12.207,-19.531,-63.477,23.438,0
1555957456.467,4.883,17.090,-104.980,-62.500,-35.645,0
1555957456.471,26.855,23.926,-0.977,-68.848,-16.113,0
1555957456.475,21.484,19.531,-23.438,-69.824,24.414,0
1555957456.479,0.000,18.555,-118.652,-72.754,20.508,0
1555957456.482,3.906,19.531,-8.301,-75.684,7.812,0
1555957456.486,15.625,14.160,69.824,-58.594,73.730,0
1555957456.490,22.949,10.254,-163.574,-53.711,41.016,0
1555957456.494,13.184,14.648,-139.160,-64.453,-27.344,0
1555957456.498,-4.883,20.996,189.941,-58.594,33.203,0
1555957456.500,6.348,17.090,143.555,-52.734,51.758,0
1555957456.504,20.020,13.184,47.852,-54.688,-12.695,0
1555957456.508,23.438,16.602,139.648,-47.852,27.344,0
1555957456.512,8.301,18.555,184.082,-41.016,118.652,0
1555957456.516,13.184,19.531,-10.742,-40.039,32.227,0
1555957456.520,29.297,20.996,-73.242,-46.875,27.832,0
1555957456.524,18.066,18.555,-17.090,-48.828,59.082,0
1555957456.527,-3.418,16.113,-8.789,-38.574,-5.859,0
1555957456.531,-7.812,15.137,-41.992,-42.480,19.043,0
1555957456.535,5.859,15.137,-89.844,-48.340,43.945,0
1555957456.539,13.184,18.066,236.328,-44.922,57.617,0
1555957456.543,-7.324,13.184,213.867,-37.598,77.148,0
1555957456.546,-17.090,13.672,-21.484,-38.086,24.902,0
1555957456.550,5.859,20.508,49.316,-38.086,-16.113,0
1555957456.554,17.578,20.996,169.922,-34.668,-6.836,0
1555957456.558,-8.301,18.066,125.488,-39.062,26.367,0
1555957456.562,-21.973,18.066,39.551,-34.668,84.473,0
1555957456.566,-3.418,23.926,-79.590,-30.273,45.410,0
1555957456.570,23.438,26.367,-6.836,-26.855,12.695,0
1555957456.573,14.648,22.461,134.277,-32.227,23.926,0
1555957456.577,-12.695,24.902,-167.480,-33.203,13.184,0
1555957456.581,1.953,28.320,-140.137,-24.902,5.859,0
1555957456.585,24.414,25.391,270.996,-29.297,47.363,0
1555957456.589,7.812,27.344,218.262,-30.273,62.988,0
1555957456.590,-17.090,32.227,29.785,-16.113,31.250,0
1555957456.594,-26.367,33.203,90.332,-15.137,28.809,0
1555957456.598,-13.672,30.273,79.590,-30.762,26.855,0
1555957456.602,3.906,28.809,-22.949,-20.508,17.578,0
1555957456.606,-9.766,33.203,25.391,-16.602,27.344,0
1555957456.610,0.000,39.551,-15.625,-16.602,18.066,0
1555957456.614,26.855,35.645,16.602,-17.578,-2.930,0
1555957456.617,31.738,32.715,37.598,-20.020,-0.488,0
1555957456.621,-4.395,34.668,-131.836,-8.301,-19.043,0
1555957456.625,-27.832,37.598,77.637,-1.953,-30.762,0
1555957456.629,-9.766,32.715,251.465,-15.137,-1.465,0
1555957456.633,-4.883,26.855,251.953,-27.344,65.430,0
1555957456.636,-17.578,25.879,206.543,-29.785,66.895,0
1555957456.640,-46.387,27.344,132.324,-27.832,10.254,0
1555957456.644,-33.691,30.273,55.664,-23.438,-29.785,0
1555957456.648,-5.371,25.879,47.363,-31.250,-21.484,0
1555957456.652,-4.883,26.367,148.926,-23.438,35.156,0
1555957456.656,-25.879,32.715,31.250,-13.672,31.738,0
1555957456.660,-33.691,35.645,-61.523,-15.625,36.133,0
1555957456.663,-0.977,38.086,-111.328,-21.484,62.500,0
1555957456.667,4.883,34.180,14.160,-35.645,42.480,0
1555957456.671,-25.879,31.738,237.305,-32.715,53.223,0
1555957456.675,-32.227,41.504,196.777,-21.973,104.492,0
1555957456.679,-31.738,38.086,88.379,-21.484,41.016,0
1555957456.681,-23.438,30.762,134.277,-24.902,-14.160,0
1555957456.685,-33.691,28.809,164.062,-38.574,21.484,0
1555957456.689,-43.457,27.344,-54.688,-33.691,-30.762,0
1555957456.693,-46.875,23.926,-90.820,-30.273,-37.598,0
1555957456.697,-25.391,24.414,69.336,-38.574,-34.668,0
1555957456.701,-14.160,31.250,23.926,-31.250,-40.039,0
1555957456.705,-49.805,33.203,-166.992,-26.367,-8.789,0
1555957456.708,-49.805,32.227,-191.895,-34.668,-12.207,0
1555957456.712,-25.391,33.691,104.004,-42.969,3.906,0
1555957456.716,-30.762,28.809,262.695,-30.273,58.105,0
1555957456.720,-49.805,25.879,169.922,-32.227,55.664,0
1555957456.724,-48.828,33.203,104.980,-36.133,30.273,0
1555957456.725,-22.949,38.086,188.965,-28.320,54.688,0
1555957456.729,-9.277,34.668,145.020,-41.992,-2.930,0
1555957456.733,-36.621,32.715,-33.691,-54.688,-64.453,0
1555957456.737,-57.129,28.320,20.020,-54.688,15.137,0
1555957456.741,-20.508,27.832,148.926,-55.664,70.801,0
1555957456.745,-6.836,29.785,74.707,-59.082,40.527,0
1555957456.749,-30.762,31.738,-189.453,-59.082,33.691,0
1555957456.752,-39.551,33.691,-129.883,-56.152,44.922,0
1555957456.756,-30.273,32.227,201.172,-59.082,36.133,0
1555957456.760,-21.973,39.062,173.340,-69.824,15.625,0
1555957456.764,-23.438,39.062,57.617,-76.660,-22.461,0
1555957456.768,-65.430,34.180,20.020,-76.660,0.000,0
1555957456.786,-69.336,36.621,39.062,-76.172,41.992,0
1555957456.790,1.465,41.016,71.289,-70.312,16.602,0
1555957456.794,4.395,42.480,89.355,-69.824,7.812,0
1555957456.798,-41.992,42.969,120.605,-76.172,31.250,0
1555957456.802,-49.316,45.898,122.559,-76.660,56.152,0
1555957456.806,-52.734,41.992,-104.492,-76.660,12.207,0
1555957456.810,-32.715,46.387,-218.750,-79.102,-12.695,0
1555957456.813,-26.855,54.688,92.285,-83.496,17.090,0
1555957456.817,-56.152,49.316,205.078,-88.379,27.832,0
1555957456.821,-43.457,49.805,112.793,-87.891,32.715,0
1555957456.825,-37.598,58.105,131.836,-85.938,15.625,0
1555957456.829,-52.734,54.688,176.270,-81.543,15.625,0
1555957456.830,-71.289,50.781,53.223,-69.824,-32.227,0
1555957456.834,-62.012,53.711,-13.184,-69.336,-35.156,0
1555957456.838,-47.852,61.035,75.195,-74.707,56.152,0
1555957456.842,-49.316,62.012,124.512,-68.848,31.250,0
1555957456.846,-52.734,60.059,82.031,-60.059,1.953,0
1555957456.850,-53.711,62.988,-5.371,-59.082,59.570,0
1555957456.854,-31.738,60.547,-2.441,-66.895,77.637,0
1555957456.857,-24.414,62.012,120.605,-67.871,11.230,0
1555957456.861,-49.316,65.918,156.250,-62.988,27.344,0
1555957456.865,-75.684,59.570,-143.555,-70.312,41.504,0
1555957456.869,-70.312,56.152,-140.625,-84.961,-41.504,0
1555957456.873,-40.039,64.453,253.418,-83.984,7.324,0
1555957456.875,-50.293,66.895,154.785,-80.566,25.391,0
1555957456.879,-68.359,62.012,-3.418,-76.660,-20.020,0
1555957456.883,-41.504,62.012,90.820,-91.797,-6.836,0
1555957456.887,-23.438,60.059,111.328,-94.238,-17.578,0
1555957456.891,-50.781,62.500,122.559,-86.914,65.918,0
1555957456.895,-73.242,61.523,5.371,-85.938,99.609,0
1555957456.899,-69.824,62.012,-60.547,-86.426,64.453,0
1555957456.902,-39.062,66.895,82.520,-95.215,49.316,2
1555957456.906,-33.203,67.383,26.367,-91.309,1.953,0
1555957456.910,-67.871,67.383,-114.746,-78.613,29.785,0
1555957456.914,-75.195,63.965,122.559,-76.660,35.156,0
1555957456.918,-53.711,58.594,250.977,-84.961,24.414,0
1555957456.920,-31.250,60.059,227.539,-84.473,79.590,0
1555957456.924,-57.617,57.617,140.625,-73.730,75.195,0
1555957456.928,-64.941,52.734,48.828,-70.801,5.859,0
1555957456.932,-32.715,55.176,31.250,-86.426,1.953,0
1555957456.936,-22.949,58.594,71.777,-93.262,48.828,0
1555957456.940,-30.762,62.500,-34.180,-80.566,19.043,0
1555957456.944,-50.293,58.594,-42.969,-83.984,63.477,0
1555957456.947,-40.527,57.129,106.934,-90.332,96.680,0
1555957456.951,-15.625,57.617,-32.227,-93.262,98.145,0
1555957456.955,-27.832,54.688,-28.809,-90.820,72.266,0
1555957456.959,-56.152,54.688,161.133,-83.496,16.113,0
1555957456.963,-54.199,55.664,39.062,-83.008,-15.137,0
1555957456.965,-34.668,56.152,-10.742,-98.145,-40.527,0
1555957456.969,-35.156,52.246,154.297,-103.516,10.254,0
1555957456.973,-58.594,50.781,116.211,-98.145,8.789,0
1555957456.977,-50.293,51.270,-2.930,-94.727,26.367,0
1555957456.981,-13.184,48.828,0.488,-102.539,29.297,0
1555957456.985,-7.812,51.270,-20.020,-111.328,-9.766,0
1555957456.989,-37.598,53.711,1.465,-102.051,8.789,0
1555957456.992,-62.500,53.711,-41.504,-101.562,39.551,0
1555957456.996,-38.574,50.293,-159.668,-105.469,36.621,0
1555957457.000,-10.742,48.340,112.793,-85.449,0.977,0
1555957457.004,-36.621,48.340,244.141,-79.590,26.367,0
1555957457.008,-58.105,42.480,49.316,-81.055,39.062,0
1555957457.010,-30.273,45.898,8.301,-63.477,22.949,0
1555957457.014,9.766,54.199,100.586,-52.734,-32.715,0
1555957457.018,-5.371,47.363,81.055,-61.523,-44.434,0
1555957457.022,-34.668,42.969,-18.066,-50.293,2.930,0
1555957457.026,-34.668,46.387,9.766,-45.410,32.715,0
1555957457.030,-12.207,42.969,-18.066,-54.688,5.859,0
1555957457.034,0.977,42.480,42.969,-51.758,40.039,0
1555957457.037,-31.738,38.086,-134.766,-46.387,40.039,0
1555957457.041,-67.871,31.250,-162.598,-49.805,1.953,0
1555957457.045,-49.316,28.320,220.215,-58.594,36.133,0
1555957457.049,-22.461,25.391,232.422,-54.688,54.199,0
1555957457.053,-40.039,23.926,79.590,-62.012,34.180,0
1555957457.055,-48.340,26.855,41.504,-65.918,-6.836,0
1555957457.059,-38.086,28.809,95.703,-71.289,11.230,0
1555957457.063,-14.648,26.855,56.152,-77.637,55.176,0
1555957457.067,-35.645,26.367,-5.859,-75.195,16.602,0
1555957457.071,-57.129,25.391,97.168,-78.125,57.617,0
1555957457.075,-36.133,23.926,94.238,-77.148,132.324,0
1555957457.079,-12.695,23.926,-71.289,-74.707,92.285,0
1555957457.082,-18.066,26.367,-148.438,-75.684,25.879,0
1555957457.086,-31.250,29.785,67.871,-57.617,15.137,0
1555957457.090,-44.922,24.902,128.906,-60.547,-2.930,0
1555957457.094,-35.645,26.855,40.039,-72.754,-67.383,0
1555957457.098,6.836,33.203,159.180,-61.035,-4.395,0
1555957457.100,-26.855,28.809,183.105,-57.129,35.156,0
1555957457.104,-40.527,28.809,73.242,-44.434,2.441,0
1555957457.108,4.883,29.297,1.953,-36.133,-9.277,0
1555957457.112,12.207,27.344,66.895,-31.250,-2.930,0
1555957457.116,-9.766,25.879,192.871,-28.809,85.449,0
1555957457.120,-23.438,23.926,25.391,-21.973,52.246,0
1555957457.124,-8.789,26.367,-261.230,-24.414,4.883,0
1555957457.127,-0.488,24.414,-67.871,-31.738,28.809,0
1555957457.131,-16.113,19.043,314.453,-39.551,65.918,0
1555957457.135,-26.855,20.020,181.641,-35.156,57.129,0
1555957457.139,-25.879,21.484,-9.277,-35.156,-12.695,0
1555957457.143,-7.324,17.090,117.676,-56.641,-2.441,0
1555957457.160,-6.836,21.484,172.363,-53.223,-19.531,0
1555957457.164,-20.020,22.949,10.254,-42.969,-30.273,0
1555957457.168,-26.367,23.438,-59.082,-42.480,-16.113,0
1555957457.172,-9.766,24.414,108.398,-48.340,35.156,0
1555957457.176,0.977,21.973,195.312,-54.199,35.156,0
1555957457.180,-31.250,18.555,-98.633,-43.457,-4.883,0
1555957457.184,-39.062,19.043,-300.781,-28.809,-0.977,0
1555957457.187,-8.789,24.414,22.461,-45.410,-5.859,0
1555957457.191,5.859,24.902,188.477,-57.129,-4.883,0
1555957457.195,-8.789,23.926,129.395,-39.062,34.180,0
1555957457.199,-31.250,23.926,127.930,-33.691,57.617,0
1555957457.203,-25.391,23.926,189.453,-43.457,94.238,0
1555957457.205,-0.488,20.508,205.566,-45.898,110.352,0
1555957457.209,0.977,18.066,65.430,-47.852,57.617,0
1555957457.213,-33.203,16.602,-37.109,-45.898,17.578,0
1555957457.217,-47.363,14.160,38.086,-40.527,48.340,0
1555957457.221,-17.578,16.113,62.012,-53.223,36.133,0
1555957457.225,-8.301,19.043,-30.273,-51.758,20.020,0
1555957457.229,-18.555,23.926,-125.488,-38.574,3.418,0
1555957457.232,-44.434,24.902,-18.555,-45.898,-7.812,0
1555957457.236,-26.367,21.973,75.684,-46.875,-4.395,0
1555957457.240,9.277,22.461,-130.371,-50.781,2.930,0
1555957457.244,-19.531,22.461,-74.707,-55.176,44.922,0
1555957457.248,-25.391,23.438,86.426,-46.387,20.020,0
1555957457.251,-3.906,21.973,44.434,-52.246,16.602,0
1555957457.255,8.301,20.996,85.938,-65.430,13.184,0
1555957457.259,5.859,26.855,108.398,-56.152,-11.230,0
1555957457.263,-18.066,29.297,43.457,-33.203,-7.812,0
1555957457.267,-18.555,27.344,-70.312,-41.016,0.488,0
1555957457.271,23.438,28.809,-150.879,-57.617,-18.555,0
1555957457.275,21.484,29.297,-104.492,-53.223,0.488,0
1555957457.278,-17.090,28.809,-31.250,-47.852,0.488,0
1555957457.282,-22.461,30.273,-107.910,-50.293,17.578,0
1555957457.286,3.418,38.574,-222.168,-49.805,3.906,0
1555957457.290,18.066,38.574,79.590,-44.922,1.465,0
1555957457.294,0.977,34.180,187.500,-36.133,62.012,0
1555957457.296,-30.273,38.574,1.953,-37.109,42.969,0
1555957457.300,-2.441,35.156,-51.758,-43.945,-11.230,0
1555957457.304,35.645,38.086,-46.387,-37.598,-36.133,0
1555957457.308,18.555,42.480,-114.258,-36.133,-58.105,0
1555957457.312,2.930,40.527,-94.238,-29.297,-30.762,0
1555957457.316,-10.254,38.574,-37.598,-23.438,59.082,0
1555957457.320,-9.277,36.621,6.836,-34.668,73.730,0
1555957457.323,-2.441,39.551,52.246,-45.410,26.855,0
1555957457.327,-26.855,42.969,-193.359,-47.852,35.156,0
1555957457.331,-39.551,34.180,-208.984,-38.086,15.137,0
1555957457.335,-13.672,30.762,142.578,-38.086,6.348,0
1555957457.339,-1.953,36.133,133.789,-44.434,55.664,0
1555957457.341,-28.320,39.062,3.418,-43.945,86.914,0
1555957457.345,-35.156,44.922,14.648,-37.598,62.988,0
1555957457.349,-2.930,47.363,29.785,-23.438,29.785,0
1555957457.353,19.043,47.852,-17.578,-25.879,49.805,0
1555957457.357,-7.324,48.340,-112.793,-41.992,42.480,0
1555957457.361,-34.180,46.387,-174.316,-52.246,38.086,0
1555957457.365,-16.602,49.316,-173.340,-46.387,45.898,0
1555957457.368,22.461,53.223,-205.566,-29.785,4.395,0
1555957457.372,6.348,58.105,-218.262,-33.691,29.785,0
1555957457.376,-19.043,62.988,71.777,-36.133,99.121,0
1555957457.380,2.930,58.105,145.996,-25.391,62.500,0
1555957457.384,10.254,55.176,29.785,-35.156,4.883,0
1555957457.386,3.418,53.223,8.301,-40.527,-3.418,0
1555957457.390,-7.812,54.688,-7.324,-35.156,-10.742,0
1555957457.394,-8.789,55.664,-20.996,-42.480,16.602,0
1555957457.398,22.461,52.246,-20.020,-44.434,40.039,0
1555957457.402,24.414,51.270,24.902,-46.387,41.016,0
1555957457.406,-10.254,53.711,-100.098,-53.223,17.090,0
1555957457.410,-6.836,54.199,-163.086,-38.574,29.297,0
1555957457.413,26.855,54.688,-247.559,-40.527,49.805,0
1555957457.417,27.344,55.664,-133.789,-57.129,48.828,0
1555957457.421,1.953,61.523,179.199,-46.387,55.664,0
1555957457.425,-20.020,64.941,94.238,-41.992,62.500,0
1555957457.429,-24.902,60.547,-26.855,-61.523,45.898,0
1555957457.430,-5.859,65.918,49.805,-70.801,34.668,0
1555957457.434,-8.789,72.266,31.738,-61.035,16.602,0
1555957457.438,-56.641,70.801,-168.945,-74.219,-23.438,0
1555957457.442,-65.918,66.895,-221.680,-91.309,-36.133,0
1555957457.446,-37.109,71.289,-35.156,-88.379,6.348,0
1555957457.450,-53.223,80.078,-46.875,-90.820,41.504,0
1555957457.454,-82.031,89.355,-303.711,-114.746,26.367,0
1555957457.457,-84.961,99.609,-423.340,-128.418,22.461,0
1555957457.461,-81.055,103.027,-145.020,-125.000,16.602,0
1555957457.465,-71.777,104.980,32.715,-129.395,21.484,0
