timestamps,TP9,AF7,AF8,TP10,Right AUX,Marker0
1581444812.958,-20.996,1.953,28.809,25.391,0.0,0
1581444812.9620001,-36.133,10.742,12.207,26.366999999999997,0.0,0
1581444812.966,-36.621,27.831999999999997,4.883,28.32,0.0,0
1581444812.97,-21.97300000000001,20.996,11.719000000000001,26.366999999999997,0.0,0
1581444812.974,-17.578,26.366999999999997,28.32,27.831999999999997,0.0,0
1581444812.978,-22.461,26.366999999999997,37.598,41.01600000000001,0.0,0
1581444812.982,-22.949,15.137,26.366999999999997,46.875,0.0,0
1581444812.985,-13.672,11.23,6.836,41.01600000000001,0.0,0
1581444812.9889998,-2.441,8.789,12.207,33.691,0.0,0
1581444812.9929998,-6.348,12.207,26.366999999999997,40.527,0.0,0
1581444812.9970002,-21.484,15.625,35.156,35.156,0.0,0
1581444813.0010002,-19.043,38.086,40.039,25.879,0.0,0
1581444813.0029998,-5.859,52.246,29.785,24.901999999999997,0.0,0
1581444813.0070002,-5.371,29.785,32.715,30.761999999999997,0.0,0
1581444813.0110002,-10.254000000000001,11.23,36.133,47.363,0.0,0
1581444813.015,-9.277000000000001,18.066,17.578,42.968999999999994,0.0,0
1581444813.019,-1.953,25.391,0.0,25.879,0.0,0
1581444813.0229998,1.953,24.414,9.766,28.809,0.0,0
1581444813.0270002,-9.277000000000001,13.184000000000001,30.273000000000003,28.32,0.0,0
1581444813.03,-18.555,-11.719000000000001,38.574,23.926,0.0,0
1581444813.034,-6.348,-8.301,37.109,24.414,0.0,0
1581444813.0379999,3.418,20.996,25.391,22.949,0.0,0
1581444813.042,-7.812,34.668,19.043,27.344,0.0,0
1581444813.046,-14.16,21.484,25.391,36.621,0.0,0
1581444813.0479999,-2.93,17.578,15.625,37.598,0.0,0
1581444813.052,3.418,24.414,25.391,25.879,0.0,0
1581444813.056,-3.418,28.32,41.992,20.02,0.0,0
1581444813.06,-9.277000000000001,22.949,38.574,26.366999999999997,0.0,0
1581444813.064,2.441,2.93,33.203,28.809,0.0,0
1581444813.0679998,14.16,-7.812,18.066,22.461,0.0,0
1581444813.072,21.484,10.742,8.789,37.109,0.0,0
1581444813.075,11.719000000000001,20.996,0.488,46.387,0.0,0
1581444813.079,1.953,13.184000000000001,7.812,29.785,0.0,0
1581444813.083,14.648,16.113,26.855,25.391,0.0,0
1581444813.0870001,10.742,32.227,32.227,21.97300000000001,0.0,0
1581444813.091,-6.348,41.01600000000001,25.879,23.926,0.0,0
1581444813.093,-8.789,31.25,20.02,26.366999999999997,0.0,0
1581444813.0970001,2.93,15.137,12.695,23.926,0.0,0
1581444813.101,4.883,8.789,12.695,22.461,0.0,0
1581444813.105,0.977,-10.254000000000001,23.926,31.25,0.0,0
1581444813.109,-6.836,-16.602,24.901999999999997,37.109,0.0,0
1581444813.113,-1.465,13.184000000000001,8.301,33.691,0.0,0
1581444813.117,6.348,30.761999999999997,1.953,32.227,0.0,0
1581444813.12,-15.625,27.831999999999997,11.719000000000001,32.715,0.0,0
1581444813.1239998,-29.785,36.133,29.296999999999997,32.227,0.0,0
1581444813.1279998,-21.97300000000001,31.738000000000003,29.785,31.738000000000003,0.0,0
1581444813.1320002,-7.324,29.785,22.949,33.691,0.0,0
1581444813.1360002,-4.883,31.25,23.438000000000002,31.738000000000003,0.0,0
1581444813.1379998,-17.578,15.137,22.949,27.344,0.0,0
1581444813.1420002,-16.602,-3.906,26.366999999999997,27.344,0.0,0
1581444813.1460001,0.488,-8.301,23.926,32.715,0.0,0
1581444813.15,1.953,13.672,13.672,29.296999999999997,0.0,0
1581444813.154,-16.113,27.344,17.09,27.344,0.0,0
1581444813.158,-15.625,33.691,26.855,40.527,0.0,0
1581444813.1620002,-1.465,38.086,28.809,39.551,0.0,0
1581444813.165,-6.836,23.926,13.672,26.855,0.0,0
1581444813.169,-29.296999999999997,7.324,-7.812,26.366999999999997,0.0,0
1581444813.1729999,-38.574,18.555,-0.977,34.668,0.0,0
1581444813.177,-24.414,34.668,11.719000000000001,37.598,0.0,0
1581444813.181,-23.926,30.761999999999997,17.09,24.901999999999997,0.0,0
1581444813.198,-33.203,7.812,26.366999999999997,19.531,0.0,0
1581444813.2020001,-38.086,-6.836,20.996,27.344,0.0,0
1581444813.206,-23.438000000000002,18.066,17.09,32.227,0.0,0
1581444813.21,-4.883,31.25,20.508000000000006,27.831999999999997,0.0,0
1581444813.214,-6.836,25.391,20.996,23.926,0.0,0
1581444813.218,-17.578,20.02,24.901999999999997,28.32,0.0,0
1581444813.2220001,-13.184000000000001,-4.395,25.879,32.715,0.0,0
1581444813.225,6.836,-11.23,11.719000000000001,29.785,0.0,0
1581444813.2289999,14.16,8.301,12.207,28.809,0.0,0
1581444813.2329998,2.93,18.066,20.508000000000006,30.273000000000003,0.0,0
1581444813.2370002,4.883,10.742,12.695,29.785,0.0,0
1581444813.2410002,29.296999999999997,9.766,18.555,33.203,0.0,0
1581444813.2429998,30.273000000000003,23.926,12.695,33.203,0.0,0
1581444813.2470002,16.602,31.738000000000003,6.348,29.785,0.0,0
1581444813.2510002,13.672,19.531,11.719000000000001,31.738000000000003,0.0,0
1581444813.255,20.02,-28.32,18.066,31.738000000000003,0.0,0
1581444813.2589998,26.366999999999997,-27.831999999999997,25.391,28.32,0.0,0
1581444813.2629998,22.461,16.113,22.461,29.296999999999997,0.0,0
1581444813.2670002,16.602,35.156,23.438000000000002,32.227,0.0,0
1581444813.27,26.855,35.645,18.555,43.457,0.0,0
1581444813.274,40.039,26.855,11.719000000000001,38.574,0.0,0
1581444813.2779999,34.668,29.296999999999997,10.742,25.391,0.0,0
1581444813.282,23.438000000000002,37.598,3.418,29.785,0.0,0
1581444813.286,23.926,31.25,-5.371,34.18,0.0,0
1581444813.2879999,39.062,9.766,7.812,29.785,0.0,0
1581444813.292,44.922,-11.23,21.484,26.366999999999997,0.0,0
1581444813.296,32.227,-5.859,23.926,26.366999999999997,0.0,0
1581444813.3,27.831999999999997,17.09,12.695,35.156,0.0,0
1581444813.304,41.992,40.527,-4.395,40.527,0.0,0
1581444813.3079998,46.387,47.852,6.836,23.926,0.0,0
1581444813.312,39.551,31.738000000000003,24.414,22.461,0.0,0
1581444813.315,41.01600000000001,8.301,22.461,38.574,0.0,0
1581444813.319,40.039,-3.906,3.906,30.273000000000003,0.0,0
1581444813.323,45.41,3.906,8.301,16.113,0.0,0
1581444813.3270001,44.434,36.621,28.809,21.484,0.0,0
1581444813.331,29.296999999999997,53.71100000000001,23.438000000000002,22.461,0.0,0
1581444813.333,35.645,47.363,12.207,22.949,0.0,0
1581444813.3370001,52.733999999999995,43.457,18.066,19.043,0.0,0
1581444813.341,54.199,17.578,22.949,21.484,0.0,0
1581444813.345,41.992,2.441,22.461,35.156,0.0,0
1581444813.349,40.527,-5.371,16.602,38.574,0.0,0
1581444813.353,56.64100000000001,-4.883,6.348,36.133,0.0,0
1581444813.357,59.082,35.156,12.207,38.574,0.0,0
1581444813.36,40.527,49.805,27.344,35.645,0.0,0
1581444813.3639998,31.738000000000003,41.01600000000001,25.879,33.203,0.0,0
1581444813.3679998,48.34,24.901999999999997,20.02,37.109,0.0,0
1581444813.3720002,59.57,-11.23,24.901999999999997,37.109,0.0,0
1581444813.3760002,48.34,-17.578,22.949,39.551,0.0,0
1581444813.3779998,39.551,24.414,10.742,39.551,0.0,0
1581444813.3820002,42.48,40.039,4.395,34.18,0.0,0
1581444813.3860002,53.71100000000001,27.831999999999997,12.695,32.715,0.0,0
1581444813.39,57.617,30.761999999999997,13.184000000000001,45.898,0.0,0
1581444813.394,41.504,33.203,2.441,47.852,0.0,0
1581444813.3979998,37.109,3.418,2.93,33.691,0.0,0
1581444813.4020002,55.176,-6.836,17.578,37.109,0.0,0
1581444813.405,51.27,17.09,31.738000000000003,36.621,0.0,0
1581444813.409,30.273000000000003,3.906,16.602,32.227,0.0,0
1581444813.4129999,26.366999999999997,-2.93,9.766,33.691,0.0,0
1581444813.417,31.25,30.761999999999997,20.02,26.366999999999997,0.0,0
1581444813.421,36.133,43.457,30.273000000000003,27.344,0.0,0
1581444813.4229999,30.761999999999997,29.296999999999997,32.715,33.691,0.0,0
1581444813.427,32.715,-5.859,22.461,41.504,0.0,0
1581444813.431,37.109,-18.555,8.301,45.898,0.0,0
1581444813.435,33.203,20.02,-10.742,36.621,0.0,0
1581444813.439,23.438000000000002,43.945,-7.324,28.809,0.0,0
1581444813.4429998,12.695,24.901999999999997,7.812,29.296999999999997,0.0,0
1581444813.447,18.555,14.16,32.715,33.203,0.0,0
1581444813.45,23.926,39.062,49.316,29.785,0.0,0
1581444813.454,19.531,44.922,37.109,25.391,0.0,0
1581444813.458,13.672,33.203,10.254000000000001,33.203,0.0,0
1581444813.4620001,15.625,26.366999999999997,2.441,35.645,0.0,0
1581444813.466,31.738000000000003,5.371,20.508000000000006,31.738000000000003,0.0,0
1581444813.468,36.133,-3.906,33.691,33.203,0.0,0
1581444813.4720001,19.043,23.438000000000002,28.32,29.785,0.0,0
1581444813.476,2.93,38.086,17.578,34.668,0.0,0
1581444813.48,11.23,14.16,21.484,33.691,0.0,0
1581444813.484,30.273000000000003,11.23,25.879,32.227,0.0,0
1581444813.488,20.996,26.855,22.949,43.945,0.0,0
1581444813.492,4.395,35.156,10.742,43.457,0.0,0
1581444813.495,12.695,41.992,24.414,40.039,0.0,0
1581444813.4989998,23.438000000000002,29.785,39.062,35.645,0.0,0
1581444813.5029998,24.901999999999997,15.137,27.831999999999997,36.133,0.0,0
1581444813.5070002,15.625,20.02,30.273000000000003,43.945,0.0,0
1581444813.5110002,12.207,20.02,36.621,41.01600000000001,0.0,0
1581444813.5279999,19.043,14.648,31.25,34.18,0.0,0
1581444813.532,13.672,34.668,16.602,26.366999999999997,0.0,0
1581444813.536,0.977,50.293,16.602,28.809,0.0,0
1581444813.54,8.301,39.062,19.043,37.598,0.0,0
1581444813.544,17.578,17.09,10.254000000000001,36.133,0.0,0
1581444813.5479999,18.555,11.719000000000001,17.09,41.992,0.0,0
1581444813.552,10.254000000000001,-7.324,32.715,42.968999999999994,0.0,0
1581444813.555,13.184000000000001,-20.02,46.387,41.992,0.0,0
1581444813.559,22.461,20.508000000000006,39.551,43.945,0.0,0
1581444813.563,12.695,32.227,15.625,30.273000000000003,0.0,0
1581444813.5670002,-1.953,41.01600000000001,6.836,29.296999999999997,0.0,0
1581444813.571,-9.277000000000001,34.18,7.324,41.504,0.0,0
1581444813.573,0.488,4.395,16.602,42.968999999999994,0.0,0
1581444813.5770001,17.578,25.391,34.668,42.968999999999994,0.0,0
1581444813.581,7.812,42.48,40.039,30.273000000000003,0.0,0
1581444813.585,0.488,24.901999999999997,48.34,28.32,0.0,0
1581444813.589,12.207,-9.277000000000001,50.293,45.41,0.0,0
1581444813.593,17.09,0.0,15.137,49.805,0.0,0
1581444813.5970001,8.301,24.414,-5.859,45.41,0.0,0
1581444813.6,-14.16,36.621,20.02,37.109,0.0,0
1581444813.6039999,-23.438000000000002,40.039,38.086,29.785,0.0,0
1581444813.6079998,-19.531,35.156,27.831999999999997,24.901999999999997,0.0,0
1581444813.6120002,-13.672,23.926,27.344,17.578,0.0,0
1581444813.6160002,-13.184000000000001,8.301,42.48,37.109,0.0,0
1581444813.6179998,-25.879,-0.488,31.25,41.992,0.0,0
1581444813.6220002,-15.625,-0.977,19.043,29.296999999999997,0.0,0
1581444813.6260002,-4.395,-5.859,25.391,31.25,0.0,0
1581444813.63,-20.02,20.508000000000006,22.461,34.18,0.0,0
1581444813.6339998,-35.645,40.039,33.691,42.968999999999994,0.0,0
1581444813.6379998,-37.598,9.277000000000001,34.18,38.086,0.0,0
1581444813.6420002,-10.254000000000001,29.296999999999997,31.738000000000003,26.855,0.0,0
1581444813.645,2.93,53.71100000000001,30.273000000000003,29.785,0.0,0
1581444813.649,-22.949,33.691,20.02,28.809,0.0,0
1581444813.6529999,-23.926,26.366999999999997,30.273000000000003,37.598,0.0,0
1581444813.657,-3.906,22.949,12.695,37.598,0.0,0
1581444813.661,0.977,2.93,-4.395,24.901999999999997,0.0,0
1581444813.6629999,-0.977,-0.977,23.438000000000002,32.227,0.0,0
1581444813.667,-5.859,15.137,34.18,37.109,0.0,0
1581444813.671,8.789,19.531,27.831999999999997,36.133,0.0,0
1581444813.675,11.719000000000001,12.207,29.296999999999997,28.809,0.0,0
1581444813.679,-8.301,18.555,29.785,20.996,0.0,0
1581444813.6829998,-21.484,46.387,26.366999999999997,29.785,0.0,0
1581444813.687,-6.836,40.527,13.184000000000001,32.715,0.0,0
1581444813.69,16.113,-3.418,16.113,34.18,0.0,0
1581444813.694,7.324,-7.812,28.809,42.968999999999994,0.0,0
1581444813.698,-8.789,8.789,9.277000000000001,36.621,0.0,0
1581444813.7020001,-0.488,-1.953,-2.93,36.133,0.0,0
1581444813.706,13.184000000000001,4.395,16.602,37.598,0.0,0
1581444813.708,16.113,-13.184000000000001,17.09,35.645,0.0,0
1581444813.7120001,5.859,-14.648,3.418,39.062,0.0,0
1581444813.716,1.465,26.366999999999997,20.02,31.25,0.0,0
1581444813.72,17.09,8.301,46.387,26.855,0.0,0
1581444813.724,20.996,3.418,23.438000000000002,34.668,0.0,0
1581444813.728,1.953,17.578,-8.789,31.25,0.0,0
1581444813.732,3.906,-0.977,0.488,36.133,0.0,0
1581444813.735,17.09,14.16,7.324,37.109,0.0,0
1581444813.7389998,22.461,35.156,22.461,20.996,0.0,0
1581444813.7429998,16.602,15.625,39.551,22.949,0.0,0
1581444813.7470002,-1.465,23.438000000000002,37.109,30.273000000000003,0.0,0
1581444813.7510002,5.371,46.875,34.18,37.109,0.0,0
1581444813.7529998,29.785,39.551,11.23,41.504,0.0,0
1581444813.7570002,32.227,14.16,-15.625,40.527,0.0,0
1581444813.7610002,14.648,8.301,1.465,41.504,0.0,0
1581444813.765,11.23,26.855,28.32,37.109,0.0,0
1581444813.769,26.366999999999997,8.301,49.316,33.203,0.0,0
1581444813.7729998,32.227,-15.137,37.598,39.551,0.0,0
1581444813.7770002,18.555,19.531,18.555,41.504,0.0,0
1581444813.78,13.672,34.18,14.16,35.645,0.0,0
1581444813.784,23.438000000000002,22.461,15.137,29.296999999999997,0.0,0
1581444813.7879999,29.785,32.715,22.461,26.366999999999997,0.0,0
1581444813.792,25.879,26.855,19.043,32.227,0.0,0
1581444813.796,23.438000000000002,12.207,10.742,37.598,0.0,0
1581444813.7979999,41.01600000000001,25.391,19.531,47.852,0.0,0
1581444813.802,45.41,28.32,28.809,52.246,0.0,0
1581444813.806,22.949,20.02,26.855,40.527,0.0,0
1581444813.81,11.23,23.926,32.227,40.039,0.0,0
1581444813.814,20.996,28.809,24.414,41.01600000000001,0.0,0
1581444813.8179998,41.01600000000001,19.043,15.137,38.574,0.0,0
1581444813.822,38.574,16.602,18.555,34.18,0.0,0
1581444813.825,23.438000000000002,36.133,22.461,41.01600000000001,0.0,0
1581444813.829,27.831999999999997,49.805,27.344,46.387,0.0,0
1581444813.833,40.039,48.34,35.645,38.086,0.0,0
1581444813.8370001,38.574,38.574,39.551,35.645,0.0,0
1581444813.841,30.273000000000003,13.184000000000001,33.203,33.203,0.0,0
1581444813.843,26.855,9.766,20.02,36.621,0.0,0
1581444813.8470001,32.227,29.296999999999997,2.93,38.086,0.0,0
1581444813.851,39.551,43.457,8.789,32.227,0.0,0
1581444813.855,31.25,27.344,18.555,39.062,0.0,0
1581444813.859,20.996,6.836,20.508000000000006,47.363,0.0,0
1581444813.863,27.831999999999997,21.484,27.831999999999997,41.504,0.0,0
1581444813.867,38.574,19.531,27.344,42.48,0.0,0
1581444813.87,33.691,12.695,24.901999999999997,46.875,0.0,0
1581444813.8739998,20.508000000000006,20.02,35.645,41.504,0.0,0
1581444813.8779998,11.23,26.366999999999997,21.484,30.761999999999997,0.0,0
1581444813.8820002,19.043,18.066,-5.859,28.32,0.0,0
1581444813.8860002,24.414,5.859,-5.371,47.363,0.0,0
1581444813.8879998,20.02,11.23,14.16,54.688,0.0,0
1581444813.8920002,20.508000000000006,27.344,33.203,38.086,0.0,0
1581444813.8960001,17.09,41.504,33.691,20.996,0.0,0
1581444813.9,13.672,23.926,18.555,21.97300000000001,0.0,0
1581444813.904,7.812,6.836,18.555,36.621,0.0,0
1581444813.908,2.441,15.625,22.949,37.109,0.0,0
1581444813.9120002,10.742,25.391,14.16,32.715,0.0,0
1581444813.915,25.879,20.996,13.672,34.18,0.0,0
1581444813.919,17.578,5.371,24.901999999999997,30.273000000000003,0.0,0
1581444813.9229999,7.324,18.066,32.227,29.296999999999997,0.0,0
1581444813.927,17.09,39.551,28.32,26.855,0.0,0
1581444813.931,29.785,26.366999999999997,26.366999999999997,32.227,0.0,0
1581444813.948,25.391,-8.301,23.926,36.133,0.0,0
1581444813.9520001,7.812,1.465,32.227,33.691,0.0,0
1581444813.956,7.812,36.133,31.25,34.668,0.0,0
1581444813.96,20.02,39.062,20.508000000000006,27.831999999999997,0.0,0
1581444813.964,22.949,22.949,26.366999999999997,27.344,0.0,0
1581444813.968,11.23,9.766,17.578,38.086,0.0,0
1581444813.9720001,12.695,5.859,20.508000000000006,42.968999999999994,0.0,0
1581444813.975,34.18,8.789,36.133,41.01600000000001,0.0,0
1581444813.9789999,24.901999999999997,15.625,24.414,22.949,0.0,0
1581444813.9829998,10.742,9.766,19.531,18.555,0.0,0
1581444813.9870002,7.324,-0.977,18.555,29.785,0.0,0
1581444813.9910002,16.602,-2.441,18.555,28.809,0.0,0
1581444813.9929998,30.761999999999997,-0.977,20.02,35.645,0.0,0
1581444813.9970002,18.555,3.418,20.02,37.109,0.0,0
1581444814.0010002,4.883,-13.672,27.344,27.831999999999997,0.0,0
1581444814.005,17.578,-15.625,37.598,35.645,0.0,0
1581444814.0089998,25.879,9.766,39.551,35.156,0.0,0
1581444814.0129998,16.602,5.371,29.785,27.831999999999997,0.0,0
1581444814.0170002,6.836,-12.207,27.831999999999997,29.785,0.0,0
1581444814.02,9.277000000000001,-10.742,27.831999999999997,34.668,0.0,0
1581444814.024,16.602,12.695,23.438000000000002,31.738000000000003,0.0,0
1581444814.0279999,13.672,24.414,28.809,22.949,0.0,0
1581444814.032,7.324,15.625,19.531,29.296999999999997,0.0,0
1581444814.036,7.324,14.16,9.277000000000001,36.133,0.0,0
1581444814.0379999,19.531,9.766,34.668,36.621,0.0,0
1581444814.042,35.645,-8.789,49.316,39.551,0.0,0
1581444814.046,24.901999999999997,-15.625,40.039,36.621,0.0,0
1581444814.05,9.766,-5.859,31.738000000000003,25.391,0.0,0
1581444814.054,21.97300000000001,-7.324,37.109,23.926,0.0,0
1581444814.0579998,23.438000000000002,-3.418,33.691,25.879,0.0,0
1581444814.062,13.672,16.113,23.438000000000002,28.809,0.0,0
1581444814.065,11.719000000000001,23.438000000000002,21.484,35.645,0.0,0
1581444814.069,6.836,15.137,17.578,26.366999999999997,0.0,0
1581444814.073,16.602,6.836,38.574,19.043,0.0,0
1581444814.0770001,22.949,8.789,48.34,23.926,0.0,0
1581444814.081,9.277000000000001,0.488,43.457,28.32,0.0,0
1581444814.083,5.859,-23.438000000000002,37.109,31.25,0.0,0
1581444814.0870001,17.09,-12.207,15.137,29.296999999999997,0.0,0
1581444814.091,20.02,18.066,18.066,28.32,0.0,0
1581444814.095,6.836,24.414,37.109,35.156,0.0,0
1581444814.099,3.418,22.949,35.156,40.039,0.0,0
1581444814.103,21.484,14.16,31.738000000000003,38.086,0.0,0
1581444814.107,28.809,11.23,30.273000000000003,35.645,0.0,0
1581444814.11,13.672,21.97300000000001,30.273000000000003,32.715,0.0,0
1581444814.1139998,-1.953,21.484,30.273000000000003,31.25,0.0,0
1581444814.1179998,12.207,23.926,31.738000000000003,37.598,0.0,0
1581444814.1220002,27.831999999999997,32.227,14.16,47.363,0.0,0
1581444814.1260002,27.344,24.414,4.395,50.78100000000001,0.0,0
1581444814.1279998,19.531,-13.184000000000001,34.18,46.875,0.0,0
1581444814.1320002,19.531,-4.883,38.086,41.01600000000001,0.0,0
1581444814.1360002,26.366999999999997,41.992,24.901999999999997,27.344,0.0,0
1581444814.14,15.625,59.57,26.855,14.16,0.0,0
1581444814.144,-0.977,44.434,32.227,19.531,0.0,0
1581444814.1479998,-1.465,20.02,29.785,23.926,0.0,0
1581444814.1520002,19.043,12.207,18.066,30.761999999999997,0.0,0
1581444814.155,41.01600000000001,1.953,11.23,46.387,0.0,0
1581444814.159,22.949,7.812,15.137,41.504,0.0,0
1581444814.1629999,4.883,42.968999999999994,18.066,28.32,0.0,0
1581444814.167,21.484,58.593999999999994,20.02,31.738000000000003,0.0,0
1581444814.171,30.761999999999997,49.805,21.97300000000001,29.785,0.0,0
1581444814.1729999,25.391,24.414,29.296999999999997,25.391,0.0,0
1581444814.177,17.09,2.93,34.18,36.621,0.0,0
1581444814.181,11.23,7.812,16.113,23.926,0.0,0
1581444814.185,23.926,10.742,13.184000000000001,14.16,0.0,0
1581444814.189,27.831999999999997,24.901999999999997,27.831999999999997,29.296999999999997,0.0,0
1581444814.1929998,3.906,40.039,22.949,27.344,0.0,0
1581444814.197,-11.719000000000001,38.086,19.043,14.648,0.0,0
1581444814.2,-4.883,34.668,18.066,-1.465,0.0,0
1581444814.204,-5.859,34.668,18.066,-3.418,0.0,0
1581444814.208,-24.901999999999997,24.414,25.391,0.0,0.0,0
1581444814.2120001,-41.504,6.348,33.691,-11.23,0.0,0
1581444814.216,-52.246,11.719000000000001,45.41,-29.296999999999997,0.0,0
1581444814.218,-75.684,7.812,60.059,-62.5,0.0,0
1581444814.2220001,-100.586,9.766,52.733999999999995,-79.59,0.0,0
1581444814.226,-112.79299999999999,35.156,48.828,-81.055,0.0,0
1581444814.23,-114.258,49.805,63.965,-103.027,0.0,0
1581444814.234,-135.74200000000002,38.086,71.289,-127.93,0.0,0
1581444814.238,-169.922,37.109,66.406,-148.438,0.0,0
1581444814.242,-192.38299999999998,24.414,50.293,-164.062,0.0,0
1581444814.245,-187.5,-3.418,72.75399999999998,-169.43400000000003,0.0,0
1581444814.2489998,-181.641,14.648,94.727,-180.66400000000002,0.0,0
1581444814.2529998,-190.918,20.508000000000006,99.12100000000001,-168.945,0.0,0
1581444814.2570002,-210.938,16.602,104.492,-178.71099999999996,0.0,0
1581444814.2610002,-203.125,28.809,98.633,-182.12900000000002,0.0,0
1581444814.2629998,-181.15200000000002,28.809,80.078,-164.062,0.0,0
1581444814.2670002,-177.24599999999995,7.812,71.777,-158.203,0.0,0
1581444814.2710001,-177.24599999999995,7.812,83.008,-146.484,0.0,0
1581444814.275,-169.922,29.785,76.66,-135.254,0.0,0
1581444814.279,-129.88299999999998,13.184000000000001,55.663999999999994,-112.305,0.0,0
1581444814.283,-99.12100000000001,11.719000000000001,48.34,-85.449,0.0,0
1581444814.2870002,-95.215,47.363,45.898,-68.848,0.0,0
1581444814.29,-74.707,53.71100000000001,52.733999999999995,-44.922,0.0,0
1581444814.294,-43.945,41.01600000000001,38.574,-21.97300000000001,0.0,0
1581444814.2979999,-15.137,8.301,25.879,-11.719000000000001,0.0,0
1581444814.302,10.254000000000001,-10.742,35.645,21.97300000000001,0.0,0
1581444814.306,1.953,17.578,30.761999999999997,38.574,0.0,0
1581444814.323,20.996,33.203,18.066,44.434,0.0,0
1581444814.3270001,53.71100000000001,14.16,15.137,55.663999999999994,0.0,0
1581444814.331,48.34,9.277000000000001,18.555,52.246,0.0,0
1581444814.335,53.223,20.996,-0.488,76.66,0.0,0
1581444814.339,57.129,18.555,-8.789,85.449,0.0,0
1581444814.343,60.547,18.066,-1.465,75.684,0.0,0
1581444814.3470001,81.055,9.277000000000001,-2.93,93.75,0.0,0
1581444814.35,78.125,-20.02,-2.93,107.91,0.0,0
1581444814.3539999,68.359,-6.348,-15.137,106.445,0.0,0
1581444814.3579998,81.055,30.273000000000003,-9.277000000000001,97.656,0.0,0
1581444814.3620002,95.70299999999999,25.879,15.137,89.844,0.0,0
1581444814.3660002,99.609,7.812,5.859,112.305,0.0,0
1581444814.3679998,95.70299999999999,-4.395,-6.348,125.977,0.0,0
1581444814.3720002,100.098,0.0,-2.93,114.74600000000001,0.0,0
1581444814.3760002,104.98,14.648,3.418,107.42200000000001,0.0,0
1581444814.38,93.262,28.809,-7.812,109.863,0.0,0
1581444814.3839998,80.078,32.715,-10.742,118.652,0.0,0
1581444814.3879998,94.727,9.277000000000001,-11.23,119.62899999999999,0.0,0
1581444814.3920002,109.863,5.859,-3.906,110.84,0.0,0
1581444814.395,100.098,21.484,15.137,107.42200000000001,0.0,0
1581444814.399,89.844,8.789,8.789,113.77,0.0,0
1581444814.4029999,85.93799999999996,5.859,-7.812,116.211,0.0,0
1581444814.407,100.586,27.344,-8.301,119.62899999999999,0.0,0
1581444814.411,101.56200000000001,27.344,8.789,116.211,0.0,0
1581444814.4129999,78.613,22.949,22.461,114.74600000000001,0.0,0
1581444814.417,74.219,25.391,13.672,113.77,0.0,0
1581444814.421,93.75,9.277000000000001,-8.789,108.887,0.0,0
1581444814.425,109.375,6.348,-6.348,111.816,0.0,0
1581444814.429,85.93799999999996,19.531,11.23,105.95700000000001,0.0,0
1581444814.4329998,55.663999999999994,31.25,18.555,99.12100000000001,0.0,0
1581444814.437,65.918,29.785,8.301,103.516,0.0,0
1581444814.44,87.402,21.97300000000001,-3.418,103.027,0.0,0
1581444814.444,75.684,17.578,9.277000000000001,98.145,0.0,0
1581444814.448,57.129,18.066,20.02,90.33200000000001,0.0,0
1581444814.4520001,54.688,23.926,15.625,79.59,0.0,0
1581444814.456,63.965,24.901999999999997,12.695,78.125,0.0,0
1581444814.458,67.383,5.371,13.672,81.543,0.0,0
1581444814.4620001,56.64100000000001,9.766,4.395,86.914,0.0,0
1581444814.466,58.105,26.855,-8.789,88.867,0.0,0
1581444814.47,61.035,19.531,-5.371,81.055,0.0,0
1581444814.474,52.733999999999995,30.273000000000003,1.953,70.801,0.0,0
1581444814.478,40.039,33.691,7.324,81.055,0.0,0
1581444814.482,34.18,22.949,16.113,87.891,0.0,0
1581444814.485,38.086,7.324,21.97300000000001,72.75399999999998,0.0,0
1581444814.4889998,39.551,8.301,14.16,62.988,0.0,0
1581444814.4929998,36.621,14.16,10.254000000000001,68.359,0.0,0
1581444814.4970002,33.691,-2.93,20.508000000000006,75.195,0.0,0
1581444814.5010002,39.062,-10.254000000000001,26.855,71.777,0.0,0
1581444814.5029998,52.246,11.23,16.113,66.406,0.0,0
1581444814.5070002,57.129,31.25,4.883,68.359,0.0,0
1581444814.5110002,45.898,31.738000000000003,10.254000000000001,81.543,0.0,0
1581444814.515,39.551,36.621,22.461,78.613,0.0,0
1581444814.519,49.316,36.621,30.273000000000003,62.5,0.0,0
1581444814.5229998,55.663999999999994,22.949,34.668,57.617,0.0,0
1581444814.5270002,48.828,10.254000000000001,37.598,59.082,0.0,0
1581444814.53,33.691,2.441,31.25,57.129,0.0,0
1581444814.534,39.551,6.348,25.879,55.663999999999994,0.0,0
1581444814.5379999,43.457,9.766,23.926,53.71100000000001,0.0,0
1581444814.542,23.926,-0.977,18.555,58.593999999999994,0.0,0
1581444814.546,26.366999999999997,5.859,7.324,62.012,0.0,0
1581444814.5479999,31.25,17.578,-7.324,51.27,0.0,0
1581444814.552,28.32,10.254000000000001,-4.883,52.246,0.0,0
1581444814.556,21.484,8.301,11.23,58.105,0.0,0
1581444814.56,21.97300000000001,16.113,32.715,55.663999999999994,0.0,0
1581444814.564,27.344,13.672,41.504,49.805,0.0,0
1581444814.5679998,19.531,13.672,30.273000000000003,38.086,0.0,0
1581444814.572,16.602,5.371,29.785,39.551,0.0,0
1581444814.575,13.672,-20.02,31.25,51.758,0.0,0
1581444814.579,27.831999999999997,-0.488,15.137,60.547,0.0,0
1581444814.583,41.992,40.527,4.395,56.64100000000001,0.0,0
1581444814.5870001,40.039,54.199,6.836,45.41,0.0,0
1581444814.591,28.32,54.688,16.113,41.504,0.0,0
1581444814.593,21.97300000000001,39.062,20.996,43.457,0.0,0
1581444814.5970001,41.504,10.254000000000001,17.578,51.27,0.0,0
1581444814.601,50.78100000000001,-8.301,21.484,56.152,0.0,0
1581444814.605,44.922,0.0,28.32,62.012,0.0,0
1581444814.609,22.461,15.137,28.809,61.035,0.0,0
1581444814.613,8.789,33.203,27.344,44.922,0.0,0
1581444814.617,22.949,41.992,32.715,35.156,0.0,0
1581444814.62,9.277000000000001,40.039,24.414,31.738000000000003,0.0,0
1581444814.6239998,-8.301,20.02,5.859,44.922,0.0,0
1581444814.6279998,4.395,3.418,11.23,44.434,0.0,0
1581444814.6320002,20.508000000000006,1.953,30.761999999999997,32.715,0.0,0
1581444814.6360002,24.414,5.371,34.668,39.551,0.0,0
1581444814.6379998,13.672,16.602,23.926,45.41,0.0,0
1581444814.6420002,12.207,17.09,21.97300000000001,47.363,0.0,0
1581444814.6460001,20.02,24.414,19.531,35.156,0.0,0
1581444814.65,39.062,31.738000000000003,10.254000000000001,31.738000000000003,0.0,0
1581444814.654,31.738000000000003,31.738000000000003,13.184000000000001,41.992,0.0,0
1581444814.658,-0.488,21.484,20.996,32.715,0.0,0
1581444814.6620002,5.859,6.836,31.738000000000003,21.97300000000001,0.0,0
1581444814.665,37.598,1.953,26.855,32.227,0.0,0
1581444814.669,29.785,14.648,10.742,39.062,0.0,0
1581444814.6729999,5.859,26.366999999999997,14.16,35.645,0.0,0
1581444814.677,17.09,26.855,18.555,34.18,0.0,0
1581444814.681,36.621,23.438000000000002,18.066,35.156,0.0,0
1581444814.699,33.203,22.949,20.996,43.945,0.0,0
1581444814.7029998,12.207,23.926,18.066,49.316,0.0,0
1581444814.707,14.16,23.926,7.324,45.41,0.0,0
1581444814.711,39.062,7.324,-1.953,50.293,0.0,0
1581444814.715,30.273000000000003,22.461,11.719000000000001,52.246,0.0,0
1581444814.7189999,12.695,49.316,19.531,45.898,0.0,0
1581444814.7229998,23.926,17.09,24.414,42.48,0.0,0
1581444814.726,25.391,-6.836,38.574,35.645,0.0,0
1581444814.73,14.648,23.438000000000002,33.203,31.25,0.0,0
1581444814.734,6.348,41.01600000000001,26.366999999999997,35.156,0.0,0
1581444814.738,7.324,24.901999999999997,20.02,46.875,0.0,0
1581444814.742,16.602,19.043,16.602,45.898,0.0,0
1581444814.7429998,22.461,23.438000000000002,20.508000000000006,31.25,0.0,0
1581444814.7470002,20.508000000000006,3.906,20.02,36.621,0.0,0
1581444814.7510002,15.625,-11.23,26.366999999999997,38.086,0.0,0
1581444814.755,11.23,-1.953,34.18,32.227,0.0,0
1581444814.7589998,25.391,10.254000000000001,27.344,34.18,0.0,0
1581444814.7629998,32.715,29.785,21.97300000000001,36.133,0.0,0
1581444814.7670002,11.719000000000001,40.039,18.066,33.691,0.0,0
1581444814.77,13.672,29.785,8.301,33.691,0.0,0
1581444814.774,25.879,23.438000000000002,13.672,40.039,0.0,0
1581444814.7779999,20.508000000000006,19.043,26.366999999999997,45.898,0.0,0
1581444814.782,13.184000000000001,7.812,28.32,44.922,0.0,0
1581444814.786,8.789,-2.441,22.949,37.598,0.0,0
1581444814.7879999,22.461,9.766,26.855,30.761999999999997,0.0,0
1581444814.792,31.25,22.949,35.156,39.062,0.0,0
1581444814.796,15.625,15.137,28.809,42.48,0.0,0
1581444814.8,17.09,15.625,26.855,36.133,0.0,0
1581444814.804,30.761999999999997,29.785,20.996,38.086,0.0,0
1581444814.8079998,37.109,35.156,16.602,37.598,0.0,0
1581444814.812,25.879,9.766,37.109,43.457,0.0,0
1581444814.815,25.391,-17.09,45.41,51.27,0.0,0
1581444814.819,18.555,-14.16,26.855,40.039,0.0,0
1581444814.823,15.137,13.184000000000001,22.461,28.32,0.0,0
1581444814.8270001,18.555,37.109,30.761999999999997,27.344,0.0,0
1581444814.831,4.395,57.129,28.32,32.715,0.0,0
1581444814.8339999,0.488,51.27,19.043,35.645,0.0,0
1581444814.8379998,8.301,26.855,18.555,29.785,0.0,0
1581444814.842,10.742,19.043,25.879,35.645,0.0,0
1581444814.846,7.324,19.043,18.555,52.733999999999995,0.0,0
1581444814.85,8.301,-6.348,11.23,63.477,0.0,0
1581444814.8539999,8.789,-15.137,25.879,58.593999999999994,0.0,0
1581444814.8579998,14.648,5.859,41.504,41.992,0.0,0
1581444814.861,5.859,26.366999999999997,32.227,25.391,0.0,0
1581444814.865,-10.254000000000001,51.27,6.836,21.484,0.0,0
1581444814.869,0.488,40.527,-8.301,24.901999999999997,0.0,0
1581444814.873,5.859,8.789,8.789,20.508000000000006,0.0,0
1581444814.877,2.93,15.137,25.391,20.02,0.0,0
1581444814.879,3.906,18.555,15.625,29.296999999999997,0.0,0
1581444814.883,5.371,-0.488,14.648,30.273000000000003,0.0,0
1581444814.887,-2.93,16.602,25.879,20.02,0.0,0
1581444814.891,-10.742,35.645,25.879,20.996,0.0,0
1581444814.895,-4.395,13.184000000000001,23.926,30.761999999999997,0.0,0
1581444814.899,0.0,-0.977,20.02,31.738000000000003,0.0,0
1581444814.9029999,-0.488,30.761999999999997,18.555,25.391,0.0,0
1581444814.9060001,-1.953,33.691,20.508000000000006,26.855,0.0,0
1581444814.91,-17.578,-15.625,13.672,40.039,0.0,0
1581444814.914,-17.09,-23.926,11.23,48.34,0.0,0
1581444814.918,10.254000000000001,19.531,7.812,37.598,0.0,0
1581444814.9220002,20.02,27.831999999999997,5.371,30.273000000000003,0.0,0
1581444814.924,15.625,5.371,19.043,49.805,0.0,0
1581444814.928,18.066,-26.366999999999997,24.901999999999997,59.57,0.0,0
1581444814.9320002,28.809,-42.968999999999994,35.156,47.363,0.0,0
1581444814.936,32.715,-29.296999999999997,41.504,41.992,0.0,0
1581444814.94,14.16,0.0,22.949,28.809,0.0,0
1581444814.944,-2.441,28.32,23.926,25.391,0.0,0
1581444814.948,2.93,14.648,31.25,35.156,0.0,0
1581444814.951,30.273000000000003,5.859,23.438000000000002,27.831999999999997,0.0,0
1581444814.955,29.785,-0.977,14.16,23.926,0.0,0
1581444814.9589999,16.113,-30.761999999999997,12.695,35.645,0.0,0
1581444814.9629998,16.602,-31.25,21.97300000000001,40.527,0.0,0
1581444814.967,23.926,-16.113,35.156,33.203,0.0,0
1581444814.9689999,38.574,-36.133,27.344,31.738000000000003,0.0,0
1581444814.9729998,28.32,-19.531,15.137,39.062,0.0,0
1581444814.9770002,5.371,3.418,24.901999999999997,41.992,0.0,0
1581444814.981,7.812,-10.254000000000001,24.414,34.18,0.0,0
1581444814.985,9.277000000000001,-11.719000000000001,21.484,19.043,0.0,0
1581444814.9889998,8.301,-15.137,32.227,24.414,0.0,0
1581444814.9929998,3.418,-29.296999999999997,32.227,38.574,0.0,0
1581444814.996,7.324,-54.199,30.273000000000003,47.363,0.0,0
1581444815.0,26.855,-62.012,30.761999999999997,41.01600000000001,0.0,0
1581444815.004,12.695,-14.16,22.949,37.109,0.0,0
1581444815.008,-4.395,20.508000000000006,9.766,41.992,0.0,0
1581444815.012,-3.418,-5.859,10.254000000000001,40.527,0.0,0
1581444815.014,6.348,-15.625,28.809,34.668,0.0,0
1581444815.018,12.207,-0.488,33.691,35.645,0.0,0
1581444815.022,6.836,-11.719000000000001,28.32,46.875,0.0,0
1581444815.026,4.883,-10.742,31.25,43.945,0.0,0
1581444815.03,11.719000000000001,2.93,38.086,30.761999999999997,0.0,0
1581444815.034,14.16,-0.488,29.785,29.785,0.0,0
1581444815.0379999,0.488,3.906,8.789,41.992,0.0,0
1581444815.0410001,5.371,4.883,19.043,50.78100000000001,0.0,0
1581444815.045,19.531,-13.672,49.316,47.852,0.0,0
1581444815.049,31.738000000000003,-1.465,47.852,42.48,0.0,0
1581444815.053,21.97300000000001,13.184000000000001,33.203,38.574,0.0,0
1581444815.0570002,-0.488,4.395,37.109,35.645,0.0,0
1581444815.076,15.625,-10.254000000000001,40.527,35.645,0.0,0
1581444815.08,32.715,-13.672,37.109,49.316,0.0,0
1581444815.0839999,20.02,5.859,25.391,64.941,0.0,0
1581444815.0879998,-0.488,19.043,5.371,59.57,0.0,0
1581444815.092,6.348,7.324,6.836,50.293,0.0,0
1581444815.096,24.414,-13.184000000000001,32.715,44.434,0.0,0
1581444815.1,25.391,-9.277000000000001,38.574,46.875,0.0,0
1581444815.103,12.695,-7.324,41.01600000000001,53.223,0.0,0
1581444815.107,10.742,-10.742,44.434,55.663999999999994,0.0,0
1581444815.111,22.461,8.789,30.761999999999997,47.363,0.0,0
1581444815.115,25.391,9.766,28.32,33.203,0.0,0
1581444815.119,20.508000000000006,-12.207,32.715,42.968999999999994,0.0,0
1581444815.119,18.066,-5.859,29.296999999999997,50.78100000000001,0.0,0
1581444815.123,19.043,14.648,23.926,33.203,0.0,0
1581444815.127,30.761999999999997,33.203,32.715,35.645,0.0,0
1581444815.131,13.672,20.02,40.527,44.434,0.0,0
1581444815.135,-7.812,0.488,31.738000000000003,41.01600000000001,0.0,0
1581444815.139,4.395,-2.441,26.366999999999997,44.922,0.0,0
1581444815.143,16.602,-15.625,20.996,41.504,0.0,0
1581444815.1460001,18.555,-5.859,22.949,34.668,0.0,0
1581444815.15,-10.254000000000001,6.836,29.296999999999997,34.668,0.0,0
1581444815.154,-7.812,8.789,17.578,34.668,0.0,0
1581444815.158,18.555,3.418,12.207,35.156,0.0,0
1581444815.1620002,26.366999999999997,-8.789,26.366999999999997,52.246,0.0,0
1581444815.164,30.761999999999997,12.207,20.508000000000006,65.43,0.0,0
1581444815.168,13.184000000000001,46.875,24.901999999999997,50.293,0.0,0
1581444815.1720002,13.672,62.5,47.852,44.434,0.0,0
1581444815.176,20.508000000000006,54.199,40.527,41.01600000000001,0.0,0
1581444815.18,3.906,38.086,22.949,38.086,0.0,0
1581444815.184,-3.906,22.461,31.25,39.062,0.0,0
1581444815.188,5.371,23.438000000000002,37.109,37.598,0.0,0
1581444815.191,18.066,-8.789,25.879,44.922,0.0,0
1581444815.195,17.578,-26.366999999999997,11.719000000000001,51.758,0.0,0
1581444815.199,5.371,26.366999999999997,20.02,43.945,0.0,0
1581444815.2029998,19.043,39.062,23.438000000000002,36.133,0.0,0
1581444815.207,22.949,31.25,11.719000000000001,24.414,0.0,0
1581444815.2089999,10.742,29.785,26.366999999999997,25.879,0.0,0
1581444815.2129998,1.953,31.738000000000003,43.457,35.645,0.0,0
1581444815.217,1.953,38.574,35.156,30.761999999999997,0.0,0
1581444815.221,13.672,19.531,20.996,32.227,0.0,0
1581444815.225,11.719000000000001,3.418,19.043,37.598,0.0,0
1581444815.2289999,0.488,11.719000000000001,19.043,38.086,0.0,0
1581444815.2329998,0.977,28.32,10.742,37.598,0.0,0
1581444815.236,13.672,31.25,10.254000000000001,38.086,0.0,0
1581444815.24,20.996,23.926,14.16,42.968999999999994,0.0,0
1581444815.244,21.97300000000001,34.18,12.207,47.363,0.0,0
1581444815.248,10.742,29.785,20.02,46.387,0.0,0
1581444815.252,16.113,0.977,31.738000000000003,44.922,0.0,0
1581444815.254,24.414,2.441,26.855,38.574,0.0,0
1581444815.258,-5.371,34.18,26.366999999999997,40.039,0.0,0
1581444815.262,-16.602,36.133,34.18,45.898,0.0,0
1581444815.266,6.348,14.16,23.438000000000002,44.434,0.0,0
1581444815.27,11.23,1.953,18.066,41.504,0.0,0
1581444815.274,1.953,17.578,24.414,33.203,0.0,0
1581444815.2779999,-7.324,38.574,27.831999999999997,31.25,0.0,0
1581444815.2810001,-11.719000000000001,34.668,21.97300000000001,33.691,0.0,0
1581444815.285,1.465,36.133,22.949,33.691,0.0,0
1581444815.289,8.789,33.691,32.227,33.691,0.0,0
1581444815.293,-3.906,34.668,15.625,38.086,0.0,0
1581444815.2970002,-8.301,45.898,-0.977,39.551,0.0,0
1581444815.2979999,2.441,36.621,7.324,25.391,0.0,0
1581444815.302,17.09,20.996,22.461,24.901999999999997,0.0,0
1581444815.306,0.0,-8.301,27.831999999999997,27.831999999999997,0.0,0
1581444815.31,-11.719000000000001,-14.16,27.344,31.25,0.0,0
1581444815.314,-3.906,16.113,16.602,36.133,0.0,0
1581444815.3179998,-0.977,37.598,12.207,21.484,0.0,0
1581444815.322,-5.371,37.598,31.738000000000003,19.531,0.0,0
1581444815.325,-16.113,37.598,21.97300000000001,22.949,0.0,0
1581444815.329,-8.789,44.434,14.648,24.414,0.0,0
1581444815.333,1.465,27.344,22.461,29.785,0.0,0
1581444815.3370001,2.93,-3.418,19.043,32.227,0.0,0
1581444815.341,-6.836,5.371,14.648,37.109,0.0,0
1581444815.3439999,-16.602,41.992,9.766,29.785,0.0,0
1581444815.3479998,-10.254000000000001,43.945,14.16,24.414,0.0,0
1581444815.3520002,1.465,29.296999999999997,17.09,26.855,0.0,0
1581444815.356,-5.371,21.484,16.113,28.32,0.0,0
1581444815.36,-11.23,20.02,25.391,34.668,0.0,0
1581444815.3639998,-5.371,27.344,28.32,30.761999999999997,0.0,0
1581444815.3679998,2.441,-2.93,27.344,33.203,0.0,0
1581444815.371,-4.395,-25.391,29.296999999999997,40.039,0.0,0
1581444815.375,-16.602,29.785,19.531,30.761999999999997,0.0,0
1581444815.379,-13.672,67.383,8.789,23.926,0.0,0
1581444815.383,-7.812,62.5,5.371,20.508000000000006,0.0,0
1581444815.387,-12.207,48.828,-2.93,29.785,0.0,0
1581444815.3879998,-20.996,28.32,4.395,37.109,0.0,0
1581444815.3920002,-13.672,24.901999999999997,19.043,27.344,0.0,0
1581444815.3960001,3.906,17.09,25.391,24.414,0.0,0
1581444815.4,11.719000000000001,8.789,15.137,23.926,0.0,0
1581444815.404,0.0,13.184000000000001,8.301,22.949,0.0,0
1581444815.408,-2.441,16.113,24.414,21.97300000000001,0.0,0
1581444815.4120002,16.113,36.621,33.691,20.508000000000006,0.0,0
1581444815.415,5.859,49.805,33.203,16.602,0.0,0
1581444815.419,-22.949,45.898,26.366999999999997,22.949,0.0,0
1581444815.4229999,-45.41,34.668,11.719000000000001,32.715,0.0,0
1581444815.427,-40.039,16.113,1.465,33.691,0.0,0
1581444815.431,-19.043,11.23,8.789,17.578,0.0,0
1581444815.448,-17.578,24.414,28.809,16.602,0.0,0
1581444815.4520001,-24.414,30.273000000000003,29.785,28.32,0.0,0
1581444815.456,-20.508000000000006,34.668,16.602,20.508000000000006,0.0,0
1581444815.46,-3.906,51.27,24.414,11.719000000000001,0.0,0
1581444815.464,-4.883,56.152,22.949,13.672,0.0,0
1581444815.468,-16.602,25.391,21.484,26.366999999999997,0.0,0
1581444815.4720001,-12.695,1.953,24.414,24.901999999999997,0.0,0
1581444815.475,-2.441,16.602,14.16,20.996,0.0,0
1581444815.4789999,1.465,31.25,14.648,20.508000000000006,0.0,0
1581444815.4829998,-12.695,32.227,20.996,21.484,0.0,0
1581444815.4870002,-20.996,20.508000000000006,17.578,33.203,0.0,0
1581444815.4910002,-8.301,21.484,26.366999999999997,27.344,0.0,0
1581444815.4929998,4.395,23.438000000000002,31.738000000000003,24.414,0.0,0
1581444815.4970002,-2.93,23.926,24.414,27.831999999999997,0.0,0
1581444815.5010002,-11.23,35.156,19.531,29.296999999999997,0.0,0
1581444815.505,-13.184000000000001,41.01600000000001,20.996,24.414,0.0,0
1581444815.5089998,-3.906,27.831999999999997,24.901999999999997,21.484,0.0,0
1581444815.5129998,2.441,15.625,24.414,29.785,0.0,0
1581444815.5170002,-8.301,13.184000000000001,26.366999999999997,31.738000000000003,0.0,0
1581444815.52,-11.23,17.09,26.366999999999997,24.901999999999997,0.0,0
1581444815.524,-12.207,16.113,33.203,23.926,0.0,0
1581444815.5279999,-12.695,5.371,40.039,18.555,0.0,0
1581444815.532,-18.066,20.996,27.831999999999997,19.043,0.0,0
1581444815.536,-23.438000000000002,37.598,19.531,23.926,0.0,0
1581444815.5379999,-7.324,26.855,12.695,19.531,0.0,0
1581444815.542,2.441,14.648,8.301,19.531,0.0,0
1581444815.546,-21.484,33.691,14.648,18.066,0.0,0
1581444815.55,-36.621,45.898,21.484,24.414,0.0,0
1581444815.554,-18.555,38.574,24.901999999999997,31.738000000000003,0.0,0
1581444815.5579998,-6.836,26.855,20.996,28.809,0.0,0
1581444815.562,-9.277000000000001,15.137,6.348,41.504,0.0,0
1581444815.565,-21.97300000000001,32.227,17.09,38.086,0.0,0
1581444815.569,-16.602,55.176,33.691,25.879,0.0,0
1581444815.573,9.277000000000001,61.523,14.16,35.156,0.0,0
1581444815.5770001,-1.953,51.27,8.789,39.551,0.0,0
1581444815.581,-23.438000000000002,35.645,23.438000000000002,31.25,0.0,0
1581444815.583,-16.113,60.059,25.879,30.761999999999997,0.0,0
1581444815.5870001,3.906,40.039,31.738000000000003,31.25,0.0,0
1581444815.591,4.883,6.348,32.715,29.296999999999997,0.0,0
1581444815.595,-18.066,52.733999999999995,29.296999999999997,32.227,0.0,0
1581444815.599,-29.296999999999997,82.031,24.901999999999997,30.273000000000003,0.0,0
1581444815.603,-15.625,82.031,17.578,25.879,0.0,0
1581444815.607,-4.395,78.613,16.602,39.551,0.0,0
1581444815.61,-20.508000000000006,54.199,12.207,45.898,0.0,0
1581444815.6139998,-29.785,29.785,18.555,30.761999999999997,0.0,0
1581444815.6179998,-15.137,25.391,33.203,19.531,0.0,2
1581444815.6220002,-7.324,25.391,19.531,13.184000000000001,0.0,0
1581444815.6260002,-8.301,25.391,12.207,20.508000000000006,0.0,0
1581444815.6279998,-9.277000000000001,20.508000000000006,28.32,31.738000000000003,0.0,0
1581444815.6320002,-5.371,30.273000000000003,35.645,30.273000000000003,0.0,0
1581444815.6360002,5.371,60.547,30.761999999999997,24.901999999999997,0.0,0
1581444815.64,4.395,69.336,23.438000000000002,31.738000000000003,0.0,0
1581444815.644,-2.93,52.733999999999995,3.906,42.48,0.0,0
1581444815.6479998,1.953,33.691,-1.465,46.387,0.0,0
1581444815.6520002,12.695,21.484,30.273000000000003,38.574,0.0,0
1581444815.655,9.277000000000001,20.996,44.922,31.25,0.0,0
1581444815.659,4.883,27.831999999999997,38.086,29.785,0.0,0
1581444815.6629999,2.441,24.901999999999997,42.968999999999994,28.32,0.0,0
1581444815.667,4.395,33.691,36.621,29.785,0.0,0
1581444815.671,10.742,46.387,20.02,33.691,0.0,0
1581444815.6729999,16.602,30.273000000000003,24.901999999999997,34.18,0.0,0
1581444815.677,25.879,22.949,22.949,37.598,0.0,0
1581444815.681,20.508000000000006,32.715,12.695,42.48,0.0,0
1581444815.685,25.879,14.16,3.418,47.852,0.0,0
1581444815.689,27.831999999999997,0.0,7.324,42.48,0.0,0
1581444815.6929998,3.418,15.137,24.414,41.992,0.0,0
1581444815.697,3.418,47.363,31.738000000000003,38.086,0.0,0
1581444815.7,2.441,54.199,41.992,20.996,0.0,0
1581444815.704,-5.859,25.391,45.898,24.414,0.0,0
1581444815.708,-16.113,19.043,24.414,39.062,0.0,0
1581444815.7120001,-20.996,39.551,4.395,33.203,0.0,0
1581444815.716,-6.348,42.968999999999994,27.344,22.949,0.0,0
1581444815.718,-0.977,14.648,36.621,20.508000000000006,0.0,0
1581444815.7220001,-2.441,0.488,19.043,33.691,0.0,0
1581444815.726,2.93,9.766,11.23,44.922,0.0,0
1581444815.73,13.184000000000001,22.461,22.949,35.156,0.0,0
1581444815.734,13.672,26.366999999999997,29.785,31.738000000000003,0.0,0
1581444815.738,-0.977,22.949,28.809,45.898,0.0,0
1581444815.742,1.953,20.508000000000006,24.901999999999997,51.27,0.0,0
1581444815.745,3.906,23.438000000000002,21.484,39.062,0.0,0
1581444815.7489998,5.859,37.598,41.504,29.785,0.0,0
1581444815.7529998,7.812,38.574,39.062,36.621,0.0,0
1581444815.7570002,-3.906,21.484,28.809,40.527,0.0,0
1581444815.7610002,2.93,26.366999999999997,44.434,40.527,0.0,0
1581444815.7629998,17.578,32.227,52.246,38.086,0.0,0
1581444815.7670002,15.137,26.366999999999997,39.551,36.133,0.0,0
1581444815.7710001,1.465,9.766,15.137,43.945,0.0,0
1581444815.775,0.488,-3.906,12.695,45.898,0.0,0
1581444815.779,16.602,4.883,35.645,43.457,0.0,0
1581444815.783,15.137,18.555,55.663999999999994,34.668,0.0,0
1581444815.7870002,-5.859,34.668,58.105,35.645,0.0,0
1581444815.79,-10.742,41.01600000000001,49.316,43.945,0.0,0
1581444815.794,-1.465,34.668,44.922,35.645,0.0,0
1581444815.7979999,4.883,30.273000000000003,41.01600000000001,25.391,0.0,0
1581444815.802,-0.488,6.348,36.621,29.296999999999997,0.0,0
1581444815.806,-1.953,-12.695,24.414,43.457,0.0,0
1581444815.824,13.672,-14.16,9.766,43.945,0.0,0
1581444815.8279998,25.391,-8.789,12.207,47.363,0.0,0
1581444815.832,20.508000000000006,32.715,8.301,48.34,0.0,0
1581444815.836,3.906,53.223,20.02,35.645,0.0,0
1581444815.84,4.883,50.293,44.434,36.621,0.0,0
1581444815.8439999,8.301,36.133,45.898,33.203,0.0,0
1581444815.8479998,-6.836,22.461,29.296999999999997,26.366999999999997,0.0,0
1581444815.851,-7.812,20.996,13.184000000000001,39.551,0.0,0
1581444815.855,-2.93,11.719000000000001,12.207,48.34,0.0,0
1581444815.859,0.488,7.812,28.809,33.691,0.0,0
1581444815.863,10.742,21.484,44.434,28.809,0.0,0
1581444815.867,5.371,31.25,33.691,41.01600000000001,0.0,0
1581444815.8679998,-7.324,27.831999999999997,23.438000000000002,50.293,0.0,0
1581444815.8720002,-1.953,24.901999999999997,23.438000000000002,46.875,0.0,0
1581444815.8760002,7.812,37.598,26.855,39.551,0.0,0
1581444815.88,0.0,33.203,26.366999999999997,47.363,0.0,0
1581444815.8839998,-10.742,15.137,26.855,52.733999999999995,0.0,0
1581444815.8879998,-5.371,0.0,34.668,43.457,0.0,0
1581444815.8920002,3.418,2.93,29.296999999999997,36.621,0.0,0
1581444815.895,9.277000000000001,28.32,19.531,44.434,0.0,0
1581444815.899,15.625,24.901999999999997,29.296999999999997,70.801,0.0,0
1581444815.9029999,-8.789,17.578,39.551,54.199,0.0,0
1581444815.907,-36.621,30.761999999999997,32.227,3.906,0.0,0
1581444815.911,-15.625,34.668,28.32,14.16,0.0,0
1581444815.914,-9.277000000000001,16.602,51.758,41.01600000000001,0.0,0
1581444815.918,-21.97300000000001,-4.395,63.477,38.574,0.0,0
1581444815.9220002,-6.836,7.324,44.434,36.133,0.0,0
1581444815.926,5.859,26.855,43.945,35.645,0.0,0
1581444815.93,2.441,13.672,38.086,43.457,0.0,0
1581444815.934,-4.395,-1.465,20.996,47.852,0.0,0
1581444815.938,0.488,10.742,27.344,40.527,0.0,0
1581444815.941,5.859,16.602,36.621,33.691,0.0,0
1581444815.945,-6.348,27.344,26.366999999999997,36.621,0.0,0
1581444815.949,-13.184000000000001,36.133,27.344,42.968999999999994,0.0,0
1581444815.9529998,-0.488,22.461,41.992,40.527,0.0,0
1581444815.957,9.766,16.602,32.715,38.574,0.0,0
1581444815.9589999,5.859,23.438000000000002,23.438000000000002,39.062,0.0,0
1581444815.9629998,-0.977,22.461,30.761999999999997,35.645,0.0,0
1581444815.967,2.93,13.184000000000001,37.109,41.01600000000001,0.0,0
1581444815.971,11.719000000000001,11.23,35.156,38.574,0.0,0
1581444815.975,12.207,-3.906,33.203,35.645,0.0,0
1581444815.9789999,11.23,-11.23,32.715,53.223,0.0,0
1581444815.9829998,4.883,19.531,23.926,43.945,0.0,0
1581444815.986,7.812,23.926,34.668,26.855,0.0,0
1581444815.99,7.812,9.766,40.527,28.32,0.0,0
1581444815.994,-1.465,1.953,33.691,39.062,0.0,0
1581444815.998,-4.395,6.836,31.738000000000003,50.78100000000001,0.0,0
1581444816.002,2.441,13.672,24.901999999999997,41.504,0.0,0
1581444816.0029998,7.812,3.418,23.926,29.296999999999997,0.0,0
1581444816.0070002,4.395,-9.277000000000001,25.879,39.551,0.0,0
1581444816.0110002,-3.906,-5.371,14.16,48.34,0.0,0
1581444816.015,1.953,15.137,12.695,43.945,0.0,0
1581444816.019,10.742,39.062,28.809,33.203,0.0,0
1581444816.0229998,0.977,43.945,40.527,31.738000000000003,0.0,0
1581444816.0270002,-7.812,25.391,31.738000000000003,40.527,0.0,0
1581444816.03,-2.441,8.789,22.461,40.039,0.0,0
1581444816.034,14.16,-5.371,26.855,36.133,0.0,0
1581444816.0379999,24.414,-8.301,35.645,35.156,0.0,0
1581444816.042,15.137,-4.883,34.18,39.062,0.0,0
1581444816.046,8.301,10.254000000000001,22.461,46.875,0.0,0
1581444816.049,9.766,33.691,20.02,39.062,0.0,0
1581444816.053,12.695,32.715,22.949,29.296999999999997,0.0,0
1581444816.0570002,3.418,38.574,33.203,30.761999999999997,0.0,0
1581444816.061,-9.766,37.109,36.133,35.156,0.0,0
1581444816.065,3.906,17.09,40.527,36.133,0.0,0
1581444816.069,13.672,-1.953,46.875,30.273000000000003,0.0,0
1581444816.073,9.277000000000001,-11.23,33.203,31.25,0.0,0
1581444816.076,3.906,-9.277000000000001,21.484,35.156,0.0,0
1581444816.08,7.324,-2.441,24.901999999999997,29.785,0.0,0
1581444816.0839999,15.137,19.043,12.207,23.926,0.0,0
1581444816.0879998,10.254000000000001,37.598,8.301,25.879,0.0,0
1581444816.092,-7.324,35.156,25.879,25.879,0.0,0
1581444816.0939999,-7.812,21.484,23.438000000000002,32.227,0.0,0
1581444816.0979998,3.418,7.812,17.578,32.715,0.0,0
1581444816.1020002,-3.418,6.836,25.391,12.207,0.0,0
1581444816.106,-10.254000000000001,13.184000000000001,32.227,13.184000000000001,0.0,0
1581444816.11,-16.602,6.348,32.227,23.438000000000002,0.0,0
1581444816.1139998,-2.441,-14.648,22.461,23.438000000000002,0.0,0
1581444816.1179998,23.438000000000002,-14.648,4.395,32.715,0.0,0
1581444816.121,11.23,13.184000000000001,-5.371,31.25,0.0,0
1581444816.125,-2.441,37.598,7.812,25.391,0.0,0
1581444816.129,0.488,33.691,23.926,25.391,0.0,0
1581444816.133,10.742,23.926,25.391,23.438000000000002,0.0,0
1581444816.137,14.16,19.043,24.901999999999997,31.25,0.0,0
1581444816.1379998,5.371,16.602,27.831999999999997,34.668,0.0,0
1581444816.1420002,3.906,17.09,21.484,26.855,0.0,0
1581444816.1460001,14.16,2.93,19.043,23.438000000000002,0.0,0
1581444816.15,20.508000000000006,-11.23,20.02,32.227,0.0,0
1581444816.154,12.207,1.953,5.859,40.039,0.0,0
1581444816.158,3.906,13.184000000000001,-0.977,36.133,0.0,0
1581444816.1620002,11.719000000000001,24.901999999999997,12.207,26.366999999999997,0.0,0
1581444816.165,16.113,26.855,28.32,26.855,0.0,0
1581444816.169,3.418,25.391,32.715,30.273000000000003,0.0,0
1581444816.1729999,-4.883,23.438000000000002,29.296999999999997,35.645,0.0,0
1581444816.177,1.953,16.602,17.578,38.086,0.0,0
1581444816.181,15.137,19.531,11.719000000000001,28.809,0.0,0
1581444816.199,8.789,6.836,18.066,22.949,0.0,0
1581444816.2029998,-4.883,0.488,12.207,25.879,0.0,0
1581444816.207,0.0,28.32,16.602,25.391,0.0,0
1581444816.211,10.742,41.992,35.156,20.996,0.0,0
1581444816.215,-3.418,31.738000000000003,41.992,22.949,0.0,0
1581444816.2189999,-19.043,15.137,33.203,33.203,0.0,0
1581444816.2229998,-10.254000000000001,2.93,26.855,39.551,0.0,0
1581444816.226,8.301,0.0,29.296999999999997,40.527,0.0,0
1581444816.23,12.207,-0.488,22.461,37.109,0.0,0
1581444816.234,1.953,-4.883,15.137,36.621,0.0,0
1581444816.238,2.441,-9.766,12.207,33.203,0.0,0
1581444816.242,14.16,10.742,9.766,26.366999999999997,0.0,0
1581444816.244,12.695,23.926,25.391,22.949,0.0,0
1581444816.248,-1.953,11.23,35.156,19.043,0.0,0
1581444816.252,-4.395,29.296999999999997,36.621,21.484,0.0,0
1581444816.256,6.348,34.668,31.25,20.508000000000006,0.0,0
1581444816.26,10.742,-5.859,23.438000000000002,20.02,0.0,0
1581444816.264,3.906,-3.906,20.02,31.25,0.0,0
1581444816.268,-1.953,18.066,0.488,33.203,0.0,0
1581444816.2710001,1.953,29.785,-4.395,28.32,0.0,0
1581444816.275,4.395,42.48,16.602,21.484,0.0,0
1581444816.279,-4.883,31.738000000000003,40.039,17.578,0.0,0
1581444816.283,-5.371,4.395,49.805,30.761999999999997,0.0,0
1581444816.2870002,4.395,-10.254000000000001,37.598,41.01600000000001,0.0,0
1581444816.289,9.277000000000001,-22.949,20.508000000000006,30.273000000000003,0.0,0
1581444816.293,5.371,-25.879,20.02,22.461,0.0,0
1581444816.2970002,-5.371,23.438000000000002,6.348,27.344,0.0,0
1581444816.301,-4.883,56.152,1.953,31.25,0.0,0
1581444816.305,5.371,41.504,28.32,25.879,0.0,0
1581444816.309,10.742,19.531,43.457,24.901999999999997,0.0,0
1581444816.313,-0.977,13.672,36.621,27.831999999999997,0.0,0
1581444816.316,-10.254000000000001,17.09,20.508000000000006,31.25,0.0,0
1581444816.32,-4.395,-2.441,21.484,30.273000000000003,0.0,0
1581444816.324,7.324,-19.043,17.09,27.344,0.0,0
1581444816.3279998,-1.953,-18.555,12.695,29.296999999999997,0.0,0
1581444816.332,-12.207,-5.859,26.855,35.645,0.0,0
1581444816.3339999,-2.93,12.695,14.648,39.551,0.0,0
1581444816.3379998,8.789,2.441,4.395,34.668,0.0,0
1581444816.342,6.348,0.0,32.227,32.227,0.0,0
1581444816.346,-7.812,15.625,45.41,34.668,0.0,0
1581444816.35,-4.883,18.066,43.945,37.598,0.0,0
1581444816.3539999,5.859,-6.348,39.551,30.273000000000003,0.0,0
1581444816.3579998,9.277000000000001,-12.695,29.296999999999997,26.366999999999997,0.0,0
1581444816.361,4.395,11.23,19.043,37.598,0.0,0
1581444816.365,3.906,11.719000000000001,3.418,38.086,0.0,0
1581444816.369,14.648,12.207,0.0,27.831999999999997,0.0,0
1581444816.373,11.719000000000001,18.066,23.926,20.02,0.0,0
1581444816.377,-2.93,6.836,33.691,20.996,0.0,0
1581444816.379,-11.719000000000001,-2.441,21.97300000000001,29.296999999999997,0.0,0
1581444816.383,2.441,-24.901999999999997,33.203,33.203,0.0,0
1581444816.387,12.695,-35.645,35.156,30.761999999999997,0.0,0
1581444816.391,2.441,-4.395,27.344,25.391,0.0,0
1581444816.395,-1.465,27.831999999999997,32.227,34.18,0.0,0
1581444816.399,2.93,30.273000000000003,16.113,41.01600000000001,0.0,0
1581444816.4029999,6.836,11.719000000000001,10.742,33.691,0.0,0
1581444816.4060001,11.23,-4.395,28.809,34.18,0.0,0
1581444816.41,6.836,-10.254000000000001,41.01600000000001,40.527,0.0,0
1581444816.414,3.906,4.883,38.086,38.574,0.0,0
1581444816.418,18.555,6.348,30.273000000000003,35.156,0.0,0
1581444816.4220002,23.438000000000002,-12.207,29.785,39.062,0.0,0
1581444816.4229999,5.371,-12.695,29.785,39.062,0.0,0
1581444816.427,-2.93,3.906,23.438000000000002,30.761999999999997,0.0,0
1581444816.431,2.93,21.484,27.831999999999997,27.344,0.0,0
1581444816.435,15.137,21.97300000000001,44.434,29.785,0.0,0
1581444816.439,14.16,-0.488,26.855,31.738000000000003,0.0,0
1581444816.4429998,1.953,-4.395,14.648,34.18,0.0,0
1581444816.447,0.977,6.348,20.508000000000006,32.715,0.0,0
1581444816.45,8.789,-6.836,22.949,32.715,0.0,0
1581444816.454,4.395,-21.484,20.996,30.761999999999997,0.0,0
1581444816.458,-10.742,-17.09,13.672,34.18,0.0,0
1581444816.4620001,-5.859,-19.043,25.879,41.992,0.0,0
1581444816.466,7.812,-5.859,41.504,34.668,0.0,0
1581444816.4689999,5.371,24.414,26.855,24.414,0.0,0
1581444816.4729998,4.883,30.273000000000003,14.648,34.18,0.0,0
1581444816.4770002,1.465,22.461,19.043,39.062,0.0,0
1581444816.481,4.395,31.25,19.043,25.879,0.0,0
1581444816.485,14.16,35.645,24.414,21.97300000000001,0.0,0
1581444816.4889998,0.977,14.648,30.761999999999997,26.855,0.0,0
1581444816.4929998,-15.625,0.488,42.968999999999994,27.831999999999997,0.0,0
1581444816.496,-1.465,17.578,50.293,31.738000000000003,0.0,0
1581444816.5,16.602,18.555,42.48,29.785,0.0,0
1581444816.504,10.254000000000001,4.395,27.344,29.785,0.0,0
1581444816.508,-2.441,4.395,20.996,38.574,0.0,0
1581444816.512,1.465,17.09,22.461,41.504,0.0,0
1581444816.5129998,17.578,31.738000000000003,17.578,36.133,0.0,0
1581444816.5170002,15.137,30.273000000000003,21.484,33.691,0.0,0
1581444816.5210001,4.883,21.97300000000001,23.926,43.457,0.0,0
1581444816.525,14.16,-2.93,27.344,48.34,0.0,0
1581444816.529,15.625,10.742,31.738000000000003,36.621,0.0,0
1581444816.533,4.883,39.062,33.203,34.18,0.0,0
1581444816.5370002,-0.977,32.715,29.296999999999997,40.527,0.0,0
1581444816.54,-1.465,24.414,18.066,33.691,0.0,0
1581444816.544,12.207,28.809,13.672,32.227,0.0,0
1581444816.5479999,20.02,22.461,15.137,35.156,0.0,0
1581444816.552,15.137,13.184000000000001,20.02,39.062,0.0,0
1581444816.556,15.137,11.23,16.602,42.48,0.0,0
1581444816.573,20.508000000000006,20.02,16.602,33.691,0.0,0
1581444816.5770001,29.785,21.484,28.809,30.273000000000003,0.0,0
1581444816.581,24.901999999999997,13.672,32.227,37.598,0.0,0
1581444816.585,10.254000000000001,19.531,27.831999999999997,39.551,0.0,0
1581444816.589,10.254000000000001,31.738000000000003,28.32,35.645,0.0,0
1581444816.593,20.508000000000006,43.457,29.296999999999997,33.203,0.0,0
1581444816.5970001,17.09,38.086,22.461,32.715,0.0,0
1581444816.6,0.488,13.672,17.578,35.156,0.0,0
1581444816.6039999,2.93,-0.488,21.484,34.668,0.0,0
1581444816.6079998,16.602,5.859,24.901999999999997,25.879,0.0,0
1581444816.6120002,16.602,10.254000000000001,23.438000000000002,23.438000000000002,0.0,0
1581444816.6160002,4.395,31.25,21.484,25.391,0.0,0
1581444816.6179998,4.883,41.992,14.648,28.809,0.0,0
1581444816.6220002,23.438000000000002,34.668,16.113,40.039,0.0,0
1581444816.6260002,39.062,29.296999999999997,26.366999999999997,38.086,0.0,0
1581444816.63,34.18,32.715,26.366999999999997,39.062,0.0,0
1581444816.6339998,18.555,31.25,16.602,41.504,0.0,0
1581444816.6379998,21.484,4.395,21.484,37.598,0.0,0
1581444816.6420002,25.391,-10.254000000000001,28.32,26.855,0.0,0
1581444816.645,18.555,10.742,22.461,20.996,0.0,0
1581444816.649,16.113,20.508000000000006,19.043,33.203,0.0,0
1581444816.6529999,11.719000000000001,16.113,24.414,37.598,0.0,0
1581444816.657,22.949,32.715,23.438000000000002,28.809,0.0,0
1581444816.661,26.855,40.039,14.16,30.273000000000003,0.0,0
1581444816.6629999,10.254000000000001,21.484,7.324,40.527,0.0,0
1581444816.667,12.207,7.812,17.578,45.898,0.0,0
1581444816.671,26.855,12.695,37.109,37.598,0.0,0
1581444816.675,33.203,33.203,34.18,36.133,0.0,0
1581444816.679,20.996,35.156,19.043,43.457,0.0,0
1581444816.6829998,7.812,24.414,29.296999999999997,39.062,0.0,0
1581444816.687,10.254000000000001,30.273000000000003,42.48,27.344,0.0,0
1581444816.69,20.996,32.715,20.996,21.97300000000001,0.0,0
1581444816.694,12.695,26.366999999999997,11.719000000000001,25.879,0.0,0
1581444816.698,-3.906,22.461,30.761999999999997,26.366999999999997,0.0,0
1581444816.7020001,5.859,20.508000000000006,39.551,27.344,0.0,0
1581444816.706,23.926,15.625,22.949,30.761999999999997,0.0,0
1581444816.708,24.901999999999997,-2.93,14.16,41.01600000000001,0.0,0
1581444816.7120001,18.066,-3.906,34.668,56.64100000000001,0.0,0
1581444816.716,18.066,26.366999999999997,34.18,48.828,0.0,0
1581444816.72,22.461,45.898,23.926,29.785,0.0,2
1581444816.724,15.625,38.574,31.738000000000003,26.855,0.0,0
1581444816.728,1.953,29.785,40.527,35.156,0.0,0
1581444816.732,4.883,27.831999999999997,41.992,40.039,0.0,0
1581444816.735,19.531,10.742,34.18,35.156,0.0,0
1581444816.7389998,22.461,2.93,20.02,29.296999999999997,0.0,0
1581444816.7429998,11.23,10.254000000000001,15.137,25.391,0.0,0
1581444816.7470002,3.418,15.625,32.715,24.414,0.0,0
1581444816.7510002,10.742,21.484,41.01600000000001,24.901999999999997,0.0,0
1581444816.7529998,23.438000000000002,24.901999999999997,25.391,28.32,0.0,0
1581444816.7570002,21.97300000000001,22.949,21.97300000000001,41.504,0.0,0
1581444816.7610002,6.348,24.901999999999997,31.738000000000003,45.41,0.0,0
1581444816.765,7.324,34.18,21.97300000000001,31.25,0.0,0
1581444816.769,18.555,30.761999999999997,8.789,27.831999999999997,0.0,0
1581444816.7729998,17.578,14.648,16.602,35.156,0.0,0
1581444816.7770002,9.766,1.465,29.296999999999997,43.457,0.0,0
1581444816.78,6.348,0.977,29.785,40.527,0.0,0
1581444816.784,14.648,7.324,18.066,23.926,0.0,0
1581444816.7879999,19.531,2.93,23.926,21.97300000000001,0.0,0
1581444816.792,8.301,14.648,35.156,30.761999999999997,0.0,0
1581444816.796,-2.441,21.97300000000001,27.344,33.691,0.0,0
1581444816.7979999,2.93,17.578,20.996,27.344,0.0,0
1581444816.802,8.789,19.531,23.438000000000002,23.438000000000002,0.0,0
1581444816.806,5.859,15.137,21.484,30.273000000000003,0.0,0
1581444816.81,9.766,10.742,11.719000000000001,37.598,0.0,0
1581444816.814,23.438000000000002,20.508000000000006,8.789,45.41,0.0,0
1581444816.8179998,27.344,27.831999999999997,21.97300000000001,40.039,0.0,0
1581444816.822,17.09,17.578,39.551,29.296999999999997,0.0,0
1581444816.825,10.254000000000001,20.508000000000006,43.945,36.621,0.0,0
1581444816.829,13.184000000000001,30.273000000000003,30.761999999999997,47.363,0.0,0
1581444816.833,24.901999999999997,12.695,-1.953,48.828,0.0,0
1581444816.8370001,31.738000000000003,3.906,-14.648,54.199,0.0,0
1581444816.841,15.137,20.02,15.137,49.316,0.0,0
1581444816.843,3.906,37.598,41.01600000000001,34.668,0.0,0
1581444816.8470001,22.461,39.062,39.062,39.551,0.0,0
1581444816.851,29.785,29.296999999999997,32.715,41.01600000000001,0.0,0
1581444816.855,9.277000000000001,37.598,26.855,33.691,0.0,0
1581444816.859,-4.883,41.992,19.043,31.25,0.0,0
1581444816.863,5.371,32.715,11.23,29.296999999999997,0.0,0
1581444816.867,17.09,23.438000000000002,-5.371,37.598,0.0,0
1581444816.87,10.254000000000001,16.113,-5.859,41.504,0.0,0
1581444816.8739998,3.906,7.812,20.02,41.504,0.0,0
1581444816.8779998,14.16,19.043,33.203,39.062,0.0,0
1581444816.8820002,16.113,23.438000000000002,21.97300000000001,25.391,0.0,0
1581444816.8860002,9.277000000000001,15.137,21.97300000000001,26.366999999999997,0.0,0
1581444816.8879998,0.488,25.879,27.831999999999997,29.296999999999997,0.0,0
1581444816.8920002,0.488,24.414,2.441,31.25,0.0,0
1581444816.8960001,17.578,27.344,-18.066,37.109,0.0,0
1581444816.9,18.066,33.203,13.184000000000001,34.18,0.0,0
1581444816.904,4.883,26.366999999999997,34.18,36.621,0.0,0
1581444816.908,2.93,25.879,27.344,39.062,0.0,0
1581444816.9120002,18.555,30.761999999999997,25.879,34.18,0.0,0
1581444816.915,25.879,33.203,19.531,33.203,0.0,0
1581444816.919,15.137,20.508000000000006,1.953,38.574,0.0,0
1581444816.9229999,6.348,7.812,-2.441,39.551,0.0,0
1581444816.927,15.625,15.625,1.465,38.086,0.0,0
1581444816.931,30.761999999999997,9.766,1.953,41.504,0.0,0
1581444816.949,21.484,-9.766,22.949,47.363,0.0,0
1581444816.9529998,5.859,6.836,42.968999999999994,49.316,0.0,0
1581444816.957,9.766,28.809,37.109,49.316,0.0,0
1581444816.961,16.113,33.203,29.785,39.062,0.0,0
1581444816.965,7.324,36.133,23.438000000000002,32.715,0.0,0
1581444816.9689999,4.883,18.066,17.578,41.992,0.0,0
1581444816.9729998,18.066,-0.977,19.531,49.316,0.0,0
1581444816.976,16.602,20.996,16.602,41.992,0.0,0
1581444816.98,6.348,39.062,6.836,32.715,0.0,0
1581444816.984,1.953,37.109,16.602,39.062,0.0,0
1581444816.988,4.883,28.32,26.855,44.434,0.0,0
1581444816.992,19.043,22.461,16.113,44.434,0.0,0
1581444816.994,26.855,13.672,20.02,48.34,0.0,0
1581444816.998,16.113,-6.348,30.273000000000003,47.363,0.0,0
1581444817.002,2.93,-6.348,29.785,41.504,0.0,0
1581444817.006,11.719000000000001,30.761999999999997,35.645,38.574,0.0,0
1581444817.01,22.461,46.875,30.273000000000003,41.01600000000001,0.0,0
1581444817.014,9.277000000000001,41.01600000000001,20.508000000000006,42.968999999999994,0.0,0
1581444817.018,-2.93,39.062,22.949,42.968999999999994,0.0,0
1581444817.0210001,4.883,30.761999999999997,24.901999999999997,41.504,0.0,0
1581444817.025,18.555,21.97300000000001,19.531,37.109,0.0,0
1581444817.029,14.16,20.02,8.301,40.039,0.0,0
1581444817.033,12.695,19.531,8.789,46.875,0.0,0
1581444817.0370002,24.901999999999997,12.207,23.926,53.223,0.0,0
1581444817.039,26.366999999999997,-16.113,34.18,48.828,0.0,0
1581444817.043,8.301,0.0,32.715,31.25,0.0,0
1581444817.0470002,-9.766,52.246,30.273000000000003,25.879,0.0,0
1581444817.051,-9.277000000000001,53.71100000000001,21.484,28.809,0.0,0
1581444817.055,21.484,34.18,17.09,41.01600000000001,0.0,0
1581444817.059,34.18,23.926,20.508000000000006,46.387,0.0,0
1581444817.063,12.207,14.648,19.043,31.25,0.0,0
1581444817.066,2.93,25.391,16.113,28.32,0.0,0
1581444817.07,3.906,47.852,8.789,16.602,0.0,0
1581444817.074,9.277000000000001,52.246,-12.695,7.324,0.0,0
1581444817.0779998,16.113,53.223,-26.366999999999997,25.391,0.0,0
1581444817.082,2.441,30.273000000000003,-0.488,26.366999999999997,0.0,0
1581444817.0839999,7.324,0.488,17.09,23.926,0.0,0
1581444817.0879998,20.02,9.277000000000001,9.277000000000001,24.901999999999997,0.0,0
1581444817.092,15.625,38.086,9.766,24.901999999999997,0.0,0
1581444817.096,6.836,43.945,18.555,31.738000000000003,0.0,0
1581444817.1,5.371,42.48,9.277000000000001,26.366999999999997,0.0,0
1581444817.1039999,17.09,55.176,-3.906,23.438000000000002,0.0,0
1581444817.1079998,23.438000000000002,52.246,1.465,28.32,0.0,0
1581444817.111,9.277000000000001,44.434,10.742,28.809,0.0,0
1581444817.115,4.883,33.691,4.883,33.203,0.0,0
1581444817.119,14.648,4.395,8.301,32.715,0.0,0
1581444817.123,16.602,-4.883,16.602,32.715,0.0,0
1581444817.127,9.277000000000001,24.901999999999997,20.02,37.598,0.0,0
1581444817.129,-0.977,52.246,24.901999999999997,39.062,0.0,0
1581444817.133,0.0,52.733999999999995,26.855,31.738000000000003,0.0,0
1581444817.137,3.418,36.621,19.043,22.461,0.0,0
1581444817.141,-0.488,25.879,12.695,24.414,0.0,0
1581444817.145,-8.789,31.25,8.789,35.645,0.0,0
1581444817.149,4.395,26.366999999999997,6.348,42.48,0.0,0
1581444817.1529999,19.531,17.09,15.137,33.691,0.0,0
1581444817.1560001,14.16,4.883,8.789,32.227,0.0,0
1581444817.16,0.488,2.93,5.859,35.156,0.0,0
1581444817.164,-6.836,31.738000000000003,16.602,25.879,0.0,0
1581444817.168,1.953,35.645,21.484,16.113,0.0,0
1581444817.1720002,4.395,24.901999999999997,18.555,12.207,0.0,0
1581444817.174,-0.488,35.156,13.672,21.484,0.0,0
1581444817.178,-0.488,27.831999999999997,4.395,32.715,0.0,0
1581444817.1820002,10.254000000000001,8.301,3.906,38.574,0.0,0
1581444817.186,8.789,12.207,10.254000000000001,28.809,0.0,0
1581444817.19,-9.277000000000001,27.344,8.789,22.461,0.0,0
1581444817.194,-13.672,30.273000000000003,18.555,35.645,0.0,0
1581444817.198,-5.371,16.113,18.555,39.551,0.0,0
1581444817.201,1.465,6.836,16.602,29.296999999999997,0.0,0
1581444817.205,0.0,19.043,25.879,27.831999999999997,0.0,0
1581444817.2089999,-14.16,25.879,24.901999999999997,29.785,0.0,0
1581444817.2129998,-12.695,17.578,24.901999999999997,28.32,0.0,0
1581444817.217,9.277000000000001,5.859,7.812,31.738000000000003,0.0,0
1581444817.2189999,16.113,-0.977,0.977,33.203,0.0,0
1581444817.2229998,5.859,14.16,16.602,38.086,0.0,0
1581444817.2270002,2.93,40.039,28.32,41.504,0.0,0
1581444817.231,13.672,38.574,30.761999999999997,34.18,0.0,0
1581444817.235,19.043,20.996,27.831999999999997,32.715,0.0,0
1581444817.2389998,12.207,19.043,24.414,36.133,0.0,0
1581444817.2429998,0.977,20.02,20.996,35.156,0.0,0
1581444817.246,7.324,26.366999999999997,18.066,35.645,0.0,0
1581444817.25,15.625,26.366999999999997,16.113,31.738000000000003,0.0,0
1581444817.254,18.555,16.113,13.184000000000001,43.457,0.0,0
1581444817.258,19.043,22.949,23.438000000000002,58.593999999999994,0.0,0
1581444817.262,12.695,26.855,38.086,48.34,0.0,0
1581444817.264,17.09,33.203,35.645,35.645,0.0,0
1581444817.268,12.207,34.668,25.879,39.551,0.0,0
1581444817.272,-4.395,30.273000000000003,19.531,43.945,0.0,0
1581444817.276,-1.465,34.668,15.625,36.621,0.0,0
1581444817.28,14.16,32.227,17.09,26.855,0.0,0
1581444817.284,19.531,18.555,33.203,31.25,0.0,0
1581444817.2879999,20.02,10.254000000000001,41.992,49.805,0.0,0
1581444817.2910001,18.555,14.648,15.137,49.316,0.0,0
1581444817.295,21.484,20.02,5.859,41.01600000000001,0.0,0
1581444817.299,25.879,21.97300000000001,27.831999999999997,40.039,0.0,0
1581444817.303,14.648,22.461,37.109,41.504,0.0,0
1581444817.3070002,2.93,22.461,20.508000000000006,37.598,0.0,0
1581444817.323,10.742,31.25,15.137,29.785,0.0,0
1581444817.3270001,20.02,17.578,15.137,24.414,0.0,0
1581444817.331,14.16,10.742,5.371,24.901999999999997,0.0,0
1581444817.335,13.184000000000001,26.366999999999997,7.812,29.785,0.0,0
1581444817.339,14.648,25.879,22.949,22.461,0.0,0
1581444817.343,19.043,26.366999999999997,32.715,15.625,0.0,0
1581444817.3470001,29.785,23.926,43.945,29.296999999999997,0.0,0
1581444817.35,15.625,20.02,38.086,37.598,0.0,0
1581444817.3539999,6.348,21.484,21.484,30.761999999999997,0.0,0
1581444817.3579998,12.207,2.441,13.184000000000001,24.414,0.0,0
1581444817.3620002,12.695,-7.812,3.906,27.831999999999997,0.0,0
1581444817.3660002,8.789,14.648,10.254000000000001,39.062,0.0,0
1581444817.3679998,2.441,15.625,13.672,38.574,0.0,0
1581444817.3720002,11.23,4.395,10.742,34.18,0.0,0
1581444817.3760002,22.461,11.719000000000001,26.366999999999997,30.761999999999997,0.0,0
1581444817.38,17.09,5.371,38.086,25.391,0.0,0
1581444817.3839998,10.742,-6.348,30.761999999999997,30.761999999999997,0.0,0
1581444817.3879998,16.113,-4.395,26.855,34.668,0.0,0
1581444817.3920002,21.97300000000001,2.441,20.02,18.555,0.0,0
1581444817.395,12.207,5.371,13.672,9.766,0.0,0
1581444817.399,4.883,-2.93,17.09,21.97300000000001,0.0,0
1581444817.4029999,17.578,-20.508000000000006,9.277000000000001,20.508000000000006,0.0,0
1581444817.407,21.484,-17.09,-4.395,10.742,0.0,0
1581444817.411,10.254000000000001,-5.859,6.836,15.625,0.0,0
1581444817.4129999,2.93,9.277000000000001,25.391,30.761999999999997,0.0,0
1581444817.417,5.859,16.602,23.926,34.18,0.0,0
1581444817.421,19.531,-0.488,21.97300000000001,28.32,0.0,0
1581444817.425,18.555,-11.719000000000001,21.484,28.809,0.0,0
1581444817.429,3.418,-13.672,17.09,28.809,0.0,0
1581444817.4329998,-0.977,-13.184000000000001,15.625,24.414,0.0,0
1581444817.437,15.137,1.953,14.648,29.296999999999997,0.0,0
1581444817.44,26.366999999999997,2.441,5.371,33.691,0.0,0
1581444817.444,10.742,-14.16,3.418,29.785,0.0,0
1581444817.448,0.977,-15.137,18.066,27.831999999999997,0.0,0
1581444817.4520001,19.531,-11.719000000000001,24.414,37.109,0.0,0
1581444817.456,32.227,-3.906,32.227,49.805,0.0,0
1581444817.458,16.602,7.324,36.621,43.945,0.0,0
1581444817.4620001,-1.465,15.625,33.691,36.133,0.0,0
1581444817.466,0.0,21.484,34.668,35.645,0.0,0
1581444817.47,4.883,25.391,30.761999999999997,30.273000000000003,0.0,0
1581444817.474,7.812,15.625,12.207,39.062,0.0,0
1581444817.478,8.789,-19.043,12.695,48.828,0.0,0
1581444817.482,2.441,-15.137,41.504,38.086,0.0,0
1581444817.485,6.348,15.625,44.922,26.366999999999997,0.0,0
1581444817.4889998,20.02,19.043,26.855,32.227,0.0,0
1581444817.4929998,4.395,2.93,21.97300000000001,36.133,0.0,0
1581444817.4970002,-2.93,1.465,15.625,35.645,0.0,0
1581444817.5010002,17.09,16.113,8.789,35.156,0.0,0
1581444817.5029998,19.531,22.461,20.508000000000006,24.414,0.0,0
1581444817.5070002,0.488,24.414,21.484,18.066,0.0,0
1581444817.5110002,-10.254000000000001,16.113,15.625,21.484,0.0,0
1581444817.515,2.441,11.719000000000001,21.97300000000001,20.996,0.0,0
1581444817.519,16.602,16.113,29.296999999999997,25.879,0.0,0
1581444817.5229998,13.672,8.789,31.738000000000003,32.715,0.0,0
1581444817.5270002,5.371,-7.812,19.043,37.109,0.0,0
1581444817.53,8.789,-3.906,4.883,42.48,0.0,0
1581444817.534,14.648,19.043,7.324,32.227,0.0,0
1581444817.5379999,15.625,19.531,31.738000000000003,30.273000000000003,0.0,0
1581444817.542,7.324,8.789,46.875,35.156,0.0,0
1581444817.546,3.418,17.09,42.48,34.668,0.0,0
1581444817.5479999,9.766,28.809,35.156,29.296999999999997,0.0,0
1581444817.552,11.23,21.97300000000001,32.715,20.02,0.0,0
1581444817.556,-1.465,18.066,24.901999999999997,22.461,0.0,0
1581444817.56,-2.441,18.555,11.719000000000001,33.203,0.0,0
1581444817.564,13.184000000000001,-1.465,11.719000000000001,28.809,0.0,0
1581444817.5679998,18.555,-10.254000000000001,4.883,18.555,0.0,0
1581444817.572,13.672,6.348,-0.977,20.02,0.0,0
1581444817.575,7.324,24.414,18.066,29.296999999999997,0.0,0
1581444817.579,14.648,7.812,27.344,29.296999999999997,0.0,0
1581444817.583,39.551,-21.484,32.715,26.366999999999997,0.0,0
1581444817.5870001,33.203,-0.977,35.156,24.414,0.0,0
1581444817.591,10.254000000000001,17.09,26.366999999999997,27.344,0.0,0
1581444817.593,19.531,17.09,20.508000000000006,41.01600000000001,0.0,0
1581444817.5970001,34.18,21.97300000000001,18.555,42.48,0.0,0
1581444817.601,27.831999999999997,28.809,9.277000000000001,35.645,0.0,0
1581444817.605,9.766,28.809,-0.488,35.645,0.0,0
1581444817.609,4.883,23.926,7.812,32.715,0.0,0
1581444817.613,17.09,11.719000000000001,18.555,30.761999999999997,0.0,0
1581444817.617,18.555,-2.93,13.672,23.926,0.0,0
1581444817.62,14.648,1.465,11.23,27.831999999999997,0.0,0
1581444817.6239998,13.184000000000001,7.812,9.766,34.18,0.0,0
1581444817.6279998,13.672,23.438000000000002,3.906,32.715,0.0,0
1581444817.6320002,25.879,33.691,19.043,30.761999999999997,0.0,0
1581444817.6360002,18.555,18.066,17.09,30.761999999999997,0.0,0
1581444817.6379998,11.23,3.418,-13.672,36.133,0.0,0
1581444817.6420002,21.484,-6.836,1.953,36.133,0.0,0
1581444817.6460001,25.391,1.465,28.32,28.809,0.0,0
1581444817.65,25.879,27.831999999999997,18.555,30.761999999999997,0.0,0
1581444817.654,5.859,29.296999999999997,9.766,26.366999999999997,0.0,0
1581444817.658,-6.348,30.273000000000003,8.301,21.97300000000001,0.0,0
1581444817.6620002,9.766,36.133,1.465,24.901999999999997,0.0,0
1581444817.665,25.391,45.898,-3.906,33.203,0.0,0
1581444817.669,22.461,50.293,-2.441,43.945,0.0,0
1581444817.6729999,8.301,28.809,14.648,37.109,0.0,0
1581444817.677,8.301,7.324,19.043,26.366999999999997,0.0,0
1581444817.681,6.348,5.371,7.324,14.16,0.0,0
1581444817.698,1.953,20.996,16.113,22.461,0.0,0
1581444817.7020001,1.465,17.578,14.16,39.062,0.0,0
1581444817.706,13.672,-5.859,6.348,37.109,0.0,0
1581444817.71,26.855,-1.465,13.184000000000001,30.273000000000003,0.0,0
1581444817.714,17.578,15.137,20.996,28.32,0.0,0
1581444817.718,6.348,12.695,12.695,41.992,0.0,0
1581444817.7220001,19.043,22.949,3.906,50.78100000000001,0.0,0
1581444817.725,34.668,34.18,21.484,41.504,0.0,0
1581444817.7289999,27.344,27.344,33.691,32.227,0.0,0
1581444817.7329998,5.371,27.344,25.879,26.855,0.0,0
1581444817.7370002,0.488,26.366999999999997,34.18,28.32,0.0,0
1581444817.7410002,19.531,32.715,38.086,30.273000000000003,0.0,0
1581444817.7429998,18.066,28.809,11.719000000000001,23.438000000000002,0.0,0
1581444817.7470002,3.906,15.625,8.789,26.366999999999997,0.0,0
1581444817.7510002,7.812,19.531,18.066,39.551,0.0,0
1581444817.755,13.672,23.926,10.742,33.691,0.0,0
1581444817.7589998,19.531,27.344,14.648,19.531,0.0,0
1581444817.7629998,19.043,19.531,25.879,27.344,0.0,0
1581444817.7670002,8.789,2.93,38.086,40.527,0.0,2
1581444817.77,7.812,12.207,34.18,40.039,0.0,0
1581444817.774,15.137,22.461,24.414,38.574,0.0,0
1581444817.7779999,12.207,14.16,20.508000000000006,35.645,0.0,0
1581444817.782,7.812,21.97300000000001,22.461,42.968999999999994,0.0,0
1581444817.786,12.695,29.296999999999997,16.113,48.34,0.0,0
1581444817.7879999,23.926,19.531,9.766,40.527,0.0,0
1581444817.792,34.18,8.789,28.32,41.01600000000001,0.0,0
1581444817.796,21.97300000000001,17.09,32.715,45.41,0.0,0
1581444817.8,9.766,7.812,15.137,45.41,0.0,0
1581444817.804,22.949,1.953,15.625,43.945,0.0,0
1581444817.8079998,24.901999999999997,22.949,22.461,37.598,0.0,0
1581444817.812,11.23,29.785,17.578,38.574,0.0,0
1581444817.815,2.441,33.203,10.742,38.086,0.0,0
1581444817.819,-1.465,33.691,8.301,28.32,0.0,0
1581444817.823,12.207,18.555,15.137,30.761999999999997,0.0,0
1581444817.8270001,13.672,4.395,15.625,42.968999999999994,0.0,0
1581444817.831,4.395,13.184000000000001,19.531,47.363,0.0,0
1581444817.833,19.531,12.695,21.484,47.363,0.0,0
1581444817.8370001,34.18,6.836,19.531,45.898,0.0,0
1581444817.841,19.043,14.648,29.296999999999997,36.133,0.0,0
1581444817.845,-3.906,22.949,26.855,31.25,0.0,0
1581444817.849,-3.418,37.109,15.625,35.645,0.0,0
1581444817.853,8.789,48.34,16.113,37.598,0.0,0
1581444817.857,13.184000000000001,33.691,23.926,35.156,0.0,0
1581444817.86,10.742,15.625,23.438000000000002,40.039,0.0,0
1581444817.8639998,6.836,19.531,1.465,47.363,0.0,0
1581444817.8679998,15.625,19.043,-11.719000000000001,37.598,0.0,0
1581444817.8720002,18.555,21.484,16.602,26.366999999999997,0.0,0
1581444817.8760002,6.348,19.043,36.621,29.296999999999997,0.0,0
1581444817.8779998,-2.93,17.578,32.715,34.18,0.0,0
1581444817.8820002,9.766,38.574,28.809,36.621,0.0,0
1581444817.8860002,24.414,44.922,27.344,37.598,0.0,0
1581444817.89,13.672,39.062,22.949,33.203,0.0,0
1581444817.894,-6.348,28.809,13.184000000000001,28.809,0.0,0
1581444817.8979998,-4.883,22.461,5.371,30.273000000000003,0.0,0
1581444817.9020002,14.648,19.531,16.113,28.809,0.0,0
1581444817.905,15.137,15.137,20.508000000000006,29.785,0.0,0
1581444817.909,1.465,19.043,13.672,30.761999999999997,0.0,0
1581444817.9129999,5.371,23.926,14.16,29.296999999999997,0.0,0
1581444817.917,24.901999999999997,29.296999999999997,18.555,34.668,0.0,0
1581444817.921,22.949,35.156,19.043,31.738000000000003,0.0,0
1581444817.9229999,11.23,21.484,20.996,40.039,0.0,0
1581444817.927,17.09,15.625,21.484,51.758,0.0,0
1581444817.931,11.719000000000001,22.461,13.184000000000001,38.086,0.0,0
1581444817.935,13.672,20.02,8.301,34.668,0.0,0
1581444817.939,16.113,13.672,11.23,40.039,0.0,0
1581444817.9429998,7.812,0.488,23.926,41.504,0.0,0
1581444817.947,12.695,-4.883,20.996,41.992,0.0,0
1581444817.95,25.391,6.836,12.695,38.086,0.0,0
1581444817.954,20.508000000000006,20.02,13.672,34.18,0.0,0
1581444817.958,1.465,26.855,11.23,37.598,0.0,0
1581444817.9620001,-2.441,15.137,10.254000000000001,40.039,0.0,0
1581444817.966,14.16,-4.883,6.348,36.133,0.0,0
1581444817.968,19.531,-7.324,2.441,39.062,0.0,0
1581444817.9720001,8.789,3.418,4.395,42.968999999999994,0.0,0
1581444817.976,13.672,-0.488,20.508000000000006,43.457,0.0,0
1581444817.98,26.855,-11.719000000000001,25.391,41.504,0.0,0
1581444817.984,28.32,6.348,16.602,39.062,0.0,0
1581444817.988,13.184000000000001,28.809,24.414,40.039,0.0,0
1581444817.992,5.859,19.043,29.785,37.109,0.0,0
1581444817.995,18.066,-5.371,21.484,27.344,0.0,0
1581444817.9989998,21.97300000000001,-0.488,12.695,31.738000000000003,0.0,0
1581444818.0029998,13.672,2.93,5.859,40.527,0.0,0
1581444818.0070002,5.371,-3.418,4.395,41.504,0.0,0
1581444818.0110002,12.695,6.836,5.859,43.945,0.0,0
1581444818.014,24.901999999999997,-2.93,1.465,44.922,0.0,0
1581444818.018,21.97300000000001,-18.555,12.695,45.898,0.0,0
1581444818.022,12.207,1.953,26.366999999999997,46.875,0.0,0
1581444818.026,8.301,16.113,21.484,41.01600000000001,0.0,0
1581444818.03,18.066,8.301,21.484,38.086,0.0,0
1581444818.034,29.296999999999997,-1.465,22.461,46.387,0.0,0
1581444818.0379999,14.16,-4.395,19.531,47.363,0.0,0
1581444818.0410001,-1.465,0.488,20.508000000000006,35.156,0.0,0
1581444818.045,6.348,4.883,23.926,23.438000000000002,0.0,0
1581444818.049,15.137,1.953,18.066,28.32,0.0,0
1581444818.053,9.277000000000001,-7.812,-2.93,37.109,0.0,0
1581444818.0570002,3.906,-18.066,-0.488,39.062,0.0,0
1581444818.074,8.301,-27.831999999999997,14.16,33.691,0.0,0
1581444818.0779998,11.23,-1.953,16.602,31.738000000000003,0.0,0
1581444818.082,6.836,18.555,17.09,35.645,0.0,0
1581444818.086,1.953,0.488,3.906,37.109,0.0,0
1581444818.09,9.277000000000001,0.977,-2.441,31.738000000000003,0.0,0
1581444818.0939999,23.438000000000002,19.531,16.602,29.296999999999997,0.0,0
1581444818.0979998,19.043,19.531,33.691,40.527,0.0,0
1581444818.101,-11.23,8.301,31.738000000000003,33.691,0.0,0
1581444818.105,-17.578,-3.906,28.809,32.715,0.0,0
1581444818.109,2.441,-1.953,17.09,37.109,0.0,0
1581444818.113,6.348,1.953,4.883,26.855,0.0,0
1581444818.117,2.441,-7.324,10.742,32.715,0.0,0
1581444818.119,1.465,-3.418,15.137,44.434,0.0,0
1581444818.123,14.16,-15.137,16.113,45.898,0.0,0
1581444818.127,24.901999999999997,-18.555,19.531,43.457,0.0,0
1581444818.131,14.648,8.789,16.602,39.551,0.0,0
1581444818.135,2.441,21.484,5.371,36.621,0.0,0
1581444818.139,7.812,18.555,3.906,36.133,0.0,0
1581444818.143,20.508000000000006,7.812,10.254000000000001,34.668,0.0,0
1581444818.1460001,21.97300000000001,9.277000000000001,18.066,40.039,0.0,0
1581444818.15,6.836,10.742,26.855,44.922,0.0,0
1581444818.154,-1.953,10.254000000000001,19.531,41.504,0.0,0
1581444818.158,11.719000000000001,11.23,10.254000000000001,43.457,0.0,0
1581444818.1620002,14.16,-6.348,13.672,48.34,0.0,0
1581444818.164,15.625,-7.812,25.879,58.593999999999994,0.0,0
1581444818.168,16.113,15.625,31.738000000000003,56.64100000000001,0.0,0
1581444818.1720002,10.254000000000001,21.97300000000001,25.391,38.086,0.0,0
1581444818.176,18.555,2.441,28.32,40.039,0.0,0
1581444818.18,16.602,-2.441,20.02,45.41,0.0,0
1581444818.184,13.672,16.113,12.695,42.968999999999994,0.0,0
1581444818.188,30.761999999999997,14.16,14.16,42.968999999999994,0.0,0
1581444818.191,34.18,16.602,19.043,34.668,0.0,0
1581444818.195,20.996,22.949,18.555,37.109,0.0,0
1581444818.199,9.766,24.901999999999997,6.348,41.504,0.0,0
1581444818.2029998,16.113,31.738000000000003,5.371,40.527,0.0,0
1581444818.207,29.296999999999997,30.761999999999997,18.066,38.574,0.0,0
1581444818.2089999,17.578,24.901999999999997,25.879,35.645,0.0,0
1581444818.2129998,1.953,18.555,25.879,41.504,0.0,0
1581444818.217,6.348,8.789,19.531,45.41,0.0,0
1581444818.221,21.484,0.0,16.113,41.504,0.0,0
1581444818.225,22.949,10.742,14.648,45.898,0.0,0
1581444818.2289999,8.301,24.901999999999997,13.184000000000001,45.898,0.0,0
1581444818.2329998,-3.906,24.901999999999997,15.137,35.645,0.0,0
1581444818.236,7.812,19.043,12.207,38.574,0.0,0
1581444818.24,17.578,22.461,10.742,44.434,0.0,0
1581444818.244,8.301,29.785,7.812,39.062,0.0,0
1581444818.248,13.184000000000001,23.438000000000002,5.371,42.968999999999994,0.0,0
1581444818.252,25.879,8.789,18.066,44.922,0.0,0
1581444818.254,32.715,12.207,27.344,35.645,0.0,0
1581444818.258,27.831999999999997,9.766,23.438000000000002,38.574,0.0,0
1581444818.262,14.648,6.348,12.207,40.527,0.0,0
1581444818.266,20.508000000000006,16.602,3.906,37.598,0.0,0
1581444818.27,39.062,6.836,10.254000000000001,38.574,0.0,0
1581444818.274,28.809,-1.465,7.812,35.645,0.0,0
1581444818.2779999,18.066,13.672,7.812,43.457,0.0,0
1581444818.2810001,21.97300000000001,23.438000000000002,3.906,40.527,0.0,0
1581444818.285,22.949,23.438000000000002,2.93,26.366999999999997,0.0,0
1581444818.289,14.16,21.484,21.97300000000001,23.926,0.0,0
1581444818.293,-0.977,7.324,22.461,33.203,0.0,0
1581444818.2970002,-1.953,-5.859,18.555,33.691,0.0,0
1581444818.299,8.301,-0.488,21.484,22.461,0.0,0
1581444818.303,12.695,12.695,23.438000000000002,22.949,0.0,0
1581444818.3070002,8.301,-0.977,10.742,30.761999999999997,0.0,0
1581444818.311,9.277000000000001,-15.625,-4.883,39.551,0.0,0
1581444818.315,13.672,2.93,-1.953,35.156,0.0,0
1581444818.319,17.578,28.32,10.254000000000001,26.366999999999997,0.0,0
1581444818.323,9.766,32.227,20.996,28.32,0.0,0
1581444818.326,-0.977,27.344,13.184000000000001,31.738000000000003,0.0,0
1581444818.33,10.254000000000001,26.855,11.719000000000001,29.296999999999997,0.0,0
1581444818.3339999,22.949,16.113,22.461,24.414,0.0,0
1581444818.3379998,18.066,-3.418,22.949,23.438000000000002,0.0,0
1581444818.342,3.418,-0.977,23.438000000000002,29.785,0.0,0
1581444818.3439999,3.418,9.277000000000001,10.254000000000001,35.645,0.0,0
1581444818.3479998,19.531,5.371,0.977,29.296999999999997,0.0,0
1581444818.3520002,24.901999999999997,3.906,10.742,25.391,0.0,0
1581444818.356,10.742,2.93,14.16,24.901999999999997,0.0,0
1581444818.36,5.859,5.371,5.859,29.296999999999997,0.0,0
1581444818.3639998,15.625,10.254000000000001,1.953,21.484,0.0,0
1581444818.3679998,18.066,11.719000000000001,9.766,16.113,0.0,0
1581444818.371,10.254000000000001,9.766,13.184000000000001,31.25,0.0,0
1581444818.375,2.441,14.648,9.766,34.668,0.0,0
1581444818.379,4.395,19.531,7.324,28.32,0.0,0
1581444818.383,13.184000000000001,14.16,5.859,20.02,0.0,0
1581444818.387,9.277000000000001,5.859,2.441,15.625,0.0,0
1581444818.389,-6.348,7.324,7.812,27.831999999999997,0.0,0
1581444818.393,-1.465,21.484,15.625,32.227,0.0,0
1581444818.397,18.066,20.996,13.184000000000001,22.949,0.0,0
1581444818.401,16.602,7.812,8.789,22.949,0.0,0
1581444818.405,3.906,7.324,18.066,30.273000000000003,0.0,0
1581444818.409,3.418,9.277000000000001,30.273000000000003,34.18,0.0,0
1581444818.4129999,12.207,10.254000000000001,28.32,28.32,0.0,0
1581444818.4160001,14.648,14.648,32.227,22.461,0.0,0
1581444818.42,0.488,22.461,30.273000000000003,21.484,0.0,0
1581444818.424,-3.906,20.02,18.066,18.066,0.0,0
1581444818.428,11.23,13.184000000000001,16.602,18.555,0.0,0
1581444818.4320002,16.113,14.648,11.23,20.996,0.0,0
1581444818.449,5.371,7.812,13.184000000000001,25.391,0.0,0
1581444818.4529998,4.395,2.93,15.137,39.551,0.0,0
1581444818.457,5.371,-3.418,5.859,35.156,0.0,0
1581444818.461,5.859,-5.371,4.883,16.113,0.0,0
1581444818.465,2.441,-2.441,10.742,17.09,0.0,0
1581444818.4689999,-18.555,-2.93,10.742,14.648,0.0,0
1581444818.4729998,-16.602,14.16,8.789,12.695,0.0,0
1581444818.476,3.906,18.555,17.578,20.02,0.0,0
1581444818.48,-1.953,4.395,18.066,19.531,0.0,0
1581444818.484,-18.066,6.348,17.09,22.949,0.0,0
1581444818.488,-13.184000000000001,9.766,5.371,21.484,0.0,0
1581444818.492,10.742,-5.859,2.93,22.461,0.0,0
1581444818.4929998,17.09,-1.953,20.508000000000006,26.855,0.0,0
1581444818.4970002,-2.441,14.648,24.414,21.484,0.0,0
1581444818.5010002,-2.441,17.578,22.461,25.391,0.0,0
1581444818.505,16.602,20.02,17.09,25.391,0.0,0
1581444818.5089998,18.555,23.926,12.207,16.113,0.0,0
1581444818.5129998,4.395,26.855,6.836,19.043,0.0,0
1581444818.5170002,-2.441,20.508000000000006,8.789,24.901999999999997,0.0,0
1581444818.52,7.812,20.02,10.254000000000001,24.901999999999997,0.0,0
1581444818.524,22.461,10.742,9.277000000000001,28.32,0.0,0
1581444818.5279999,20.508000000000006,-7.812,3.906,31.738000000000003,0.0,0
1581444818.532,7.324,7.324,-1.953,33.203,0.0,0
1581444818.536,2.93,26.366999999999997,-4.883,28.32,0.0,0
1581444818.539,10.742,10.742,3.906,23.926,0.0,0
1581444818.543,6.836,-8.301,10.742,25.879,0.0,0
1581444818.5470002,-2.441,14.648,10.742,29.785,0.0,0
1581444818.551,-2.93,42.48,14.16,29.785,0.0,0
1581444818.555,6.348,36.621,15.625,21.97300000000001,0.0,0
1581444818.559,18.066,11.719000000000001,26.855,25.879,0.0,0
1581444818.563,4.883,-2.93,29.785,31.25,0.0,0
1581444818.566,-13.672,13.672,15.137,22.461,0.0,0
1581444818.57,-11.23,21.97300000000001,0.977,12.695,0.0,0
1581444818.574,5.371,18.555,10.742,14.16,0.0,0
1581444818.5779998,13.672,0.0,10.254000000000001,26.366999999999997,0.0,0
1581444818.582,5.859,-7.812,2.93,36.621,0.0,0
1581444818.5839999,2.441,22.461,12.207,28.32,0.0,0
1581444818.5879998,12.207,36.133,20.508000000000006,20.996,0.0,0
1581444818.592,11.719000000000001,20.996,18.555,30.273000000000003,0.0,0
1581444818.596,3.418,11.719000000000001,10.742,35.645,0.0,0
1581444818.6,4.395,22.949,18.066,38.086,0.0,0
1581444818.6039999,2.441,33.203,21.484,35.645,0.0,0
1581444818.6079998,-2.93,34.668,9.766,27.344,0.0,0
1581444818.611,-9.766,28.809,13.672,29.296999999999997,0.0,0
1581444818.615,-7.324,11.23,20.02,31.25,0.0,0
1581444818.619,8.789,13.184000000000001,7.324,34.668,0.0,0
1581444818.623,17.578,29.296999999999997,3.906,41.504,0.0,0
1581444818.627,3.418,21.97300000000001,3.418,41.992,0.0,0
1581444818.629,-2.93,15.137,5.371,39.551,0.0,0
1581444818.633,22.949,32.227,11.719000000000001,49.316,0.0,0
1581444818.637,27.831999999999997,34.668,12.207,50.293,0.0,0
1581444818.641,3.418,31.25,20.508000000000006,37.109,0.0,0
1581444818.645,-11.719000000000001,45.41,25.879,31.25,0.0,0
1581444818.649,-7.812,49.805,17.09,27.344,0.0,0
1581444818.6529999,9.277000000000001,41.992,9.766,22.461,0.0,0
1581444818.6560001,10.742,35.156,3.418,24.414,0.0,0
1581444818.66,2.93,28.32,4.883,31.25,0.0,0
1581444818.664,7.812,20.996,6.836,34.668,0.0,0
1581444818.668,21.484,25.391,7.324,33.691,0.0,0
1581444818.6720002,27.344,28.809,19.043,29.785,0.0,0
1581444818.674,16.113,29.296999999999997,21.484,35.156,0.0,0
1581444818.678,5.859,41.504,14.16,40.527,0.0,0
1581444818.6820002,5.371,48.828,11.23,30.273000000000003,0.0,0
1581444818.686,9.766,39.551,7.812,29.296999999999997,0.0,0
1581444818.69,-1.953,30.761999999999997,9.277000000000001,36.621,0.0,0
1581444818.694,-11.719000000000001,6.348,8.301,41.01600000000001,0.0,0
1581444818.698,3.906,-0.977,3.906,46.387,0.0,0
1581444818.701,7.324,40.039,13.184000000000001,36.621,0.0,0
1581444818.705,2.441,48.828,35.156,27.831999999999997,0.0,0
1581444818.7089999,-3.906,35.156,38.086,43.945,0.0,0
1581444818.7129998,-0.977,40.527,17.578,51.27,0.0,0
1581444818.717,16.602,43.457,14.648,32.715,0.0,0
1581444818.718,17.09,35.156,20.02,27.831999999999997,0.0,0
1581444818.7220001,7.324,27.344,17.578,31.25,0.0,0
1581444818.726,4.883,33.691,14.648,29.296999999999997,0.0,0
1581444818.73,13.672,21.484,16.602,26.366999999999997,0.0,0
1581444818.734,26.366999999999997,0.488,9.277000000000001,30.273000000000003,0.0,0
1581444818.738,12.207,19.531,-7.324,37.109,0.0,0
1581444818.742,-0.488,25.391,5.371,34.668,0.0,0
1581444818.745,8.789,17.09,26.855,32.715,0.0,0
1581444818.7489998,10.742,37.598,28.809,28.32,0.0,0
1581444818.7529998,-3.906,48.828,25.879,32.227,0.0,0
1581444818.7570002,-10.742,41.992,19.531,44.922,0.0,0
1581444818.7610002,-2.441,29.785,16.602,41.01600000000001,0.0,0
1581444818.7629998,8.301,12.695,27.831999999999997,31.738000000000003,0.0,0
1581444818.7670002,0.0,-8.789,32.715,37.598,0.0,0
1581444818.7710001,-10.254000000000001,-6.348,26.855,48.34,0.0,0
1581444818.775,5.859,11.23,19.531,50.293,0.0,0
1581444818.779,17.09,-3.418,19.531,42.48,0.0,0
1581444818.783,19.531,-3.906,20.508000000000006,41.01600000000001,0.0,0
1581444818.7870002,5.859,24.901999999999997,25.879,41.504,0.0,0
1581444818.79,-4.395,40.527,18.066,42.48,0.0,0
1581444818.794,9.277000000000001,30.273000000000003,0.488,37.598,0.0,0
1581444818.7979999,13.184000000000001,7.812,14.16,25.391,0.0,0
1581444818.802,7.324,2.93,29.785,32.227,0.0,0
1581444818.806,-0.977,7.812,29.296999999999997,40.039,0.0,0
1581444818.823,-4.395,12.695,15.137,33.691,0.0,0
1581444818.8270001,0.977,23.438000000000002,7.812,33.203,0.0,0
1581444818.831,3.418,26.366999999999997,16.113,34.18,0.0,0
1581444818.835,-2.93,21.484,5.859,37.109,0.0,0
1581444818.839,-4.395,15.625,-5.371,33.691,0.0,0
1581444818.843,5.859,6.836,-1.953,26.366999999999997,0.0,0
1581444818.8470001,7.812,2.93,12.695,30.761999999999997,0.0,0
1581444818.85,2.93,-0.488,20.996,39.062,0.0,0
1581444818.8539999,9.766,-7.812,7.324,41.504,0.0,0
1581444818.8579998,16.602,-3.906,8.789,34.18,0.0,0
1581444818.8620002,14.16,19.531,14.16,29.296999999999997,0.0,0
1581444818.8660002,5.371,36.133,16.113,37.598,0.0,0
1581444818.8679998,-0.488,30.761999999999997,17.578,33.203,0.0,0
1581444818.8720002,7.812,32.715,25.391,22.949,0.0,0
1581444818.8760002,15.137,20.996,19.043,21.97300000000001,0.0,0
1581444818.88,13.672,0.977,-2.441,30.761999999999997,0.0,0
1581444818.8839998,13.672,7.812,11.23,40.527,0.0,0
1581444818.8879998,18.066,10.742,20.996,38.086,0.0,0
1581444818.8920002,20.996,10.254000000000001,15.625,30.273000000000003,0.0,0
1581444818.895,6.836,15.137,23.926,26.366999999999997,0.0,0
1581444818.899,-10.254000000000001,22.461,25.391,26.855,0.0,0
1581444818.9029999,-0.488,40.527,22.461,30.761999999999997,0.0,0
1581444818.907,15.137,41.992,20.996,28.809,0.0,0
1581444818.911,14.16,19.043,11.719000000000001,35.156,0.0,0
1581444818.9129999,5.859,8.301,8.789,45.898,0.0,0
1581444818.917,7.812,2.441,4.395,51.758,0.0,0
1581444818.921,22.461,6.348,-2.441,48.34,0.0,0
1581444818.925,20.996,32.227,17.578,31.738000000000003,0.0,0
1581444818.929,3.906,34.668,38.574,30.761999999999997,0.0,0
1581444818.9329998,2.441,30.273000000000003,41.992,41.01600000000001,0.0,0
1581444818.937,13.672,20.508000000000006,47.363,37.109,0.0,2
1581444818.94,16.602,11.719000000000001,40.039,32.227,0.0,0
1581444818.944,15.137,30.761999999999997,25.879,39.062,0.0,0
1581444818.948,15.137,19.043,23.438000000000002,47.852,0.0,0
1581444818.9520001,19.531,2.441,-6.836,43.945,0.0,0
1581444818.956,28.809,17.09,-33.691,35.645,0.0,0
1581444818.958,25.879,13.184000000000001,2.441,36.621,0.0,0
1581444818.9620001,12.695,-3.418,43.945,39.551,0.0,0
1581444818.966,12.207,7.324,47.363,31.738000000000003,0.0,0
1581444818.97,30.761999999999997,24.414,38.086,34.18,0.0,0
1581444818.974,32.715,18.066,23.438000000000002,41.01600000000001,0.0,0
1581444818.978,20.02,8.789,12.207,44.922,0.0,0
1581444818.982,23.926,14.648,8.789,51.758,0.0,0
1581444818.985,31.738000000000003,32.715,10.254000000000001,38.574,0.0,0
1581444818.9889998,18.555,29.785,18.555,22.949,0.0,0
1581444818.9929998,2.93,20.996,21.484,22.461,0.0,0
1581444818.9970002,0.0,12.207,22.949,30.273000000000003,0.0,0
1581444819.0010002,10.742,10.742,16.113,37.109,0.0,0
1581444819.0029998,24.901999999999997,0.977,-4.395,42.48,0.0,0
1581444819.0070002,16.602,-7.324,-4.883,45.41,0.0,0
1581444819.0110002,-3.906,6.836,13.672,38.086,0.0,0
1581444819.015,-2.441,3.418,15.137,41.992,0.0,0
1581444819.019,14.16,-3.906,14.16,46.387,0.0,0
1581444819.0229998,15.625,8.789,16.113,46.875,0.0,0
1581444819.0270002,0.0,19.531,12.207,48.34,0.0,0
1581444819.03,-7.324,17.578,20.996,39.551,0.0,0
1581444819.034,6.836,0.977,21.484,29.785,0.0,0
1581444819.0379999,11.23,-7.812,3.418,31.25,0.0,0
1581444819.042,1.953,-4.395,0.0,38.574,0.0,0
1581444819.046,-2.441,11.719000000000001,9.766,40.039,0.0,0
1581444819.0479999,0.0,32.715,17.578,36.133,0.0,0
1581444819.052,10.742,22.949,19.043,41.504,0.0,0
1581444819.056,5.859,19.531,26.855,42.48,0.0,0
1581444819.06,-5.371,23.438000000000002,30.761999999999997,38.086,0.0,0
1581444819.064,0.488,23.926,17.578,40.039,0.0,0
1581444819.0679998,18.066,19.043,15.625,45.41,0.0,0
1581444819.072,14.16,1.953,11.23,45.41,0.0,0
1581444819.075,-9.766,-17.09,7.324,36.621,0.0,0
1581444819.079,-0.488,-3.418,11.719000000000001,33.691,0.0,0
1581444819.083,16.602,21.97300000000001,13.672,28.32,0.0,0
1581444819.0870001,8.789,16.113,14.648,27.831999999999997,0.0,0
1581444819.091,0.488,0.977,14.16,36.621,0.0,0
1581444819.093,4.395,5.371,20.02,37.109,0.0,0
1581444819.0970001,20.508000000000006,20.02,22.949,36.621,0.0,0
1581444819.101,27.344,11.23,21.97300000000001,39.062,0.0,0
1581444819.105,18.555,0.0,23.926,44.922,0.0,0
1581444819.109,9.277000000000001,8.789,11.23,51.27,0.0,0
1581444819.113,15.625,26.855,-11.23,50.293,0.0,0
1581444819.117,16.113,27.831999999999997,-0.488,39.062,0.0,0
1581444819.12,0.977,16.113,26.366999999999997,30.273000000000003,0.0,0
1581444819.1239998,-3.418,16.602,36.133,32.715,0.0,0
1581444819.1279998,7.812,5.859,24.901999999999997,34.668,0.0,0
1581444819.1320002,30.273000000000003,-5.859,8.789,44.434,0.0,0
1581444819.1360002,21.97300000000001,15.137,13.672,48.34,0.0,0
1581444819.1379998,3.418,35.156,21.484,43.945,0.0,0
1581444819.1420002,12.695,29.785,15.625,44.922,0.0,0
1581444819.1460001,24.901999999999997,14.648,13.672,38.574,0.0,0
1581444819.15,24.414,4.883,16.113,39.062,0.0,0
1581444819.154,16.113,1.953,11.719000000000001,51.27,0.0,0
1581444819.158,11.23,-2.441,17.09,48.34,0.0,0
1581444819.1620002,23.438000000000002,5.859,33.203,40.527,0.0,0
1581444819.165,27.344,29.296999999999997,35.645,39.062,0.0,0
1581444819.169,16.113,30.761999999999997,16.602,50.78100000000001,0.0,0
1581444819.1729999,16.113,26.855,9.277000000000001,63.965,0.0,0
1581444819.177,25.879,13.672,22.949,56.152,0.0,0
1581444819.181,26.366999999999997,0.977,16.113,44.434,0.0,0
1581444819.199,14.16,20.996,20.508000000000006,48.828,0.0,0
1581444819.2029998,3.418,35.645,33.203,54.199,0.0,0
1581444819.207,6.836,34.668,30.761999999999997,48.34,0.0,0
1581444819.211,15.137,27.344,35.645,40.039,0.0,0
1581444819.215,10.742,25.879,37.109,39.551,0.0,0
1581444819.2189999,0.977,24.414,32.227,47.363,0.0,0
1581444819.2229998,9.766,16.602,26.855,47.852,0.0,0
1581444819.226,27.831999999999997,8.789,25.391,37.109,0.0,0
1581444819.23,26.855,18.066,24.414,35.645,0.0,0
1581444819.234,8.789,38.574,15.137,40.039,0.0,0
1581444819.238,7.324,41.992,17.09,45.41,0.0,0
1581444819.242,23.926,32.715,24.901999999999997,46.875,0.0,0
1581444819.244,24.414,36.621,25.391,35.645,0.0,0
1581444819.248,13.672,39.062,31.738000000000003,36.621,0.0,0
1581444819.252,9.277000000000001,26.366999999999997,35.645,39.551,0.0,0
1581444819.256,17.09,14.16,26.855,36.621,0.0,0
1581444819.26,25.391,20.508000000000006,21.484,42.968999999999994,0.0,0
1581444819.264,18.555,20.996,24.414,56.64100000000001,0.0,0
1581444819.268,1.465,4.395,27.831999999999997,51.758,0.0,0
1581444819.2710001,2.441,19.531,37.598,38.574,0.0,0
1581444819.275,14.648,31.738000000000003,32.715,38.086,0.0,0
1581444819.279,7.324,33.691,26.366999999999997,38.086,0.0,0
1581444819.283,-7.324,37.598,32.227,41.992,0.0,0
1581444819.2870002,-1.465,33.203,37.598,45.41,0.0,0
1581444819.289,18.066,39.551,35.156,47.363,0.0,0
1581444819.293,24.901999999999997,40.527,23.438000000000002,47.363,0.0,0
1581444819.2970002,15.625,15.625,22.949,49.316,0.0,0
1581444819.301,13.672,16.113,31.25,55.176,0.0,0
1581444819.305,19.043,38.086,24.414,44.434,0.0,0
1581444819.309,20.508000000000006,37.109,24.414,42.48,0.0,0
1581444819.313,10.254000000000001,37.598,36.621,47.852,0.0,0
1581444819.316,5.371,42.48,38.574,44.434,0.0,0
1581444819.32,23.926,30.761999999999997,34.18,41.504,0.0,0
1581444819.324,30.273000000000003,20.02,30.761999999999997,44.434,0.0,0
1581444819.3279998,22.949,16.602,25.879,62.012,0.0,0
1581444819.332,15.137,33.203,26.366999999999997,60.547,0.0,0
1581444819.3339999,16.602,51.27,29.296999999999997,49.805,0.0,0
1581444819.3379998,27.344,52.246,16.602,56.152,0.0,0
1581444819.342,28.809,48.828,9.766,58.593999999999994,0.0,0
1581444819.346,8.301,38.574,21.97300000000001,48.34,0.0,0
1581444819.35,-3.418,30.273000000000003,34.18,40.527,0.0,0
1581444819.3539999,9.766,39.062,36.133,36.133,0.0,0
1581444819.3579998,15.625,43.457,22.949,39.062,0.0,0
1581444819.361,8.789,18.555,11.719000000000001,49.316,0.0,0
1581444819.365,1.465,12.207,14.16,51.758,0.0,0
1581444819.369,8.789,23.438000000000002,18.555,38.574,0.0,0
1581444819.373,16.113,24.901999999999997,26.366999999999997,34.18,0.0,0
1581444819.377,3.906,22.461,17.578,38.574,0.0,0
1581444819.379,3.906,11.23,8.789,43.945,0.0,0
1581444819.383,19.531,12.207,25.879,51.27,0.0,0
1581444819.387,13.672,33.691,30.273000000000003,39.062,0.0,0
1581444819.391,-2.93,35.645,27.831999999999997,30.273000000000003,0.0,0
1581444819.395,-8.301,13.672,18.066,43.457,0.0,0
1581444819.399,0.488,12.695,9.766,42.48,0.0,0
1581444819.4029999,9.766,22.949,19.531,28.809,0.0,0
1581444819.4060001,3.906,24.901999999999997,27.344,25.391,0.0,0
1581444819.41,-3.906,23.926,35.645,28.32,0.0,0
1581444819.414,0.977,20.02,38.574,30.761999999999997,0.0,0
1581444819.418,7.812,19.531,25.391,27.344,0.0,0
1581444819.4220002,11.23,18.066,15.137,22.949,0.0,0
1581444819.424,1.465,17.09,12.207,23.438000000000002,0.0,0
1581444819.428,-1.953,20.508000000000006,9.766,32.227,0.0,0
1581444819.4320002,16.113,14.16,14.16,42.968999999999994,0.0,0
1581444819.436,29.296999999999997,3.906,27.344,36.621,0.0,0
1581444819.44,13.184000000000001,13.672,38.574,23.438000000000002,0.0,0
1581444819.444,-2.93,28.809,41.01600000000001,23.438000000000002,0.0,0
1581444819.448,3.906,29.296999999999997,36.621,20.508000000000006,0.0,0
1581444819.451,14.16,22.949,32.715,20.508000000000006,0.0,0
1581444819.455,19.043,16.113,25.879,33.203,0.0,0
1581444819.4589999,13.672,0.488,17.578,46.387,0.0,0
1581444819.4629998,11.719000000000001,-13.672,16.602,41.01600000000001,0.0,0
1581444819.467,20.996,-2.93,18.066,32.715,0.0,0
1581444819.468,19.043,19.531,20.02,29.785,0.0,0
1581444819.4720001,5.859,32.715,20.02,26.855,0.0,0
1581444819.476,8.301,31.738000000000003,29.785,34.668,0.0,0
1581444819.48,16.602,38.574,33.691,28.32,0.0,0
1581444819.484,15.625,27.344,36.133,18.555,0.0,0
1581444819.488,8.301,4.883,35.645,21.97300000000001,0.0,0
1581444819.492,3.906,20.996,26.855,21.97300000000001,0.0,0
1581444819.495,14.648,35.645,20.508000000000006,26.366999999999997,0.0,0
1581444819.4989998,22.949,26.855,16.113,28.32,0.0,0
1581444819.5029998,22.949,26.855,17.09,33.203,0.0,0
1581444819.5070002,15.137,25.879,18.066,37.109,0.0,0
1581444819.5110002,10.742,15.137,13.184000000000001,24.414,0.0,0
1581444819.514,14.648,18.066,5.859,19.043,0.0,0
1581444819.518,3.906,19.043,8.301,24.901999999999997,0.0,0
1581444819.522,-3.906,20.508000000000006,26.366999999999997,32.715,0.0,0
1581444819.526,9.277000000000001,18.066,20.02,38.574,0.0,0
1581444819.53,20.508000000000006,15.625,16.602,32.715,0.0,0
1581444819.534,6.348,23.438000000000002,31.738000000000003,22.949,0.0,0
1581444819.5379999,-11.719000000000001,22.461,35.645,30.761999999999997,0.0,0
1581444819.5410001,-3.418,3.906,22.461,41.504,0.0,0
1581444819.545,14.648,-11.719000000000001,11.23,36.621,0.0,0
1581444819.549,18.066,14.16,20.996,30.273000000000003,0.0,0
1581444819.553,12.207,43.457,21.484,41.01600000000001,0.0,0
1581444819.5570002,6.348,33.691,20.508000000000006,40.527,0.0,0
1581444819.574,11.719000000000001,28.32,16.113,31.738000000000003,0.0,0
1581444819.5779998,13.672,29.296999999999997,1.465,27.831999999999997,0.0,0
1581444819.582,9.766,26.855,24.414,30.273000000000003,0.0,0
1581444819.586,8.301,24.414,28.809,41.504,0.0,0
1581444819.59,5.859,16.113,6.836,33.203,0.0,0
1581444819.5939999,11.719000000000001,19.043,10.742,20.02,0.0,0
1581444819.5979998,6.348,25.879,17.578,21.97300000000001,0.0,0
1581444819.601,-0.977,20.02,15.625,30.273000000000003,0.0,0
1581444819.605,5.859,5.859,20.02,34.668,0.0,0
1581444819.609,17.578,7.324,20.996,33.691,0.0,0
1581444819.613,24.901999999999997,18.555,11.23,36.621,0.0,0
1581444819.617,10.254000000000001,23.438000000000002,2.93,36.621,0.0,0
1581444819.619,2.93,10.254000000000001,6.836,40.527,0.0,0
1581444819.623,20.996,9.766,17.09,45.41,0.0,0
1581444819.627,25.879,29.296999999999997,19.043,41.992,0.0,0
1581444819.631,10.254000000000001,39.062,23.926,38.574,0.0,0
1581444819.635,-4.883,39.062,30.761999999999997,32.715,0.0,0
1581444819.639,1.465,27.831999999999997,31.738000000000003,29.785,0.0,0
1581444819.643,16.602,27.344,26.366999999999997,30.761999999999997,0.0,0
1581444819.6460001,9.277000000000001,12.695,24.901999999999997,31.738000000000003,0.0,0
1581444819.65,4.883,-7.324,13.184000000000001,47.363,0.0,0
1581444819.654,18.555,15.137,9.766,53.223,0.0,0
1581444819.658,21.484,39.551,30.761999999999997,37.109,0.0,0
1581444819.6620002,18.555,35.156,40.527,34.668,0.0,0
1581444819.679,12.207,26.855,35.645,39.551,0.0,0
1581444819.6829998,10.742,33.691,27.344,36.621,0.0,0
1581444819.687,30.761999999999997,20.996,8.789,42.968999999999994,0.0,0
1581444819.691,38.574,3.906,0.488,47.363,0.0,0
1581444819.695,17.09,18.066,16.602,38.574,0.0,0
1581444819.699,7.324,25.879,27.344,41.504,0.0,0
1581444819.7029998,13.184000000000001,26.366999999999997,21.484,36.621,0.0,0
1581444819.706,15.625,13.672,25.879,27.344,0.0,0
1581444819.71,19.043,0.977,39.062,37.598,0.0,0
1581444819.714,10.254000000000001,12.695,41.01600000000001,43.457,0.0,0
1581444819.718,7.324,27.831999999999997,24.901999999999997,30.761999999999997,0.0,0
1581444819.7220001,14.16,37.598,4.883,18.555,0.0,0
1581444819.7089999,8.301,32.227,9.277000000000001,24.414,0.0,0
1581444819.7129998,2.441,9.766,26.366999999999997,34.668,0.0,0
1581444819.717,4.883,13.184000000000001,17.09,31.738000000000003,0.0,0
1581444819.721,12.207,24.414,18.555,25.879,0.0,0
1581444819.725,13.184000000000001,15.137,26.366999999999997,29.785,0.0,0
1581444819.7289999,2.93,9.766,19.531,40.039,0.0,0
1581444819.7329998,1.953,8.789,13.184000000000001,40.527,0.0,0
1581444819.736,12.695,6.836,-2.93,31.25,0.0,0
1581444819.74,22.461,15.625,13.184000000000001,32.715,0.0,0
1581444819.744,12.695,17.09,41.504,41.504,0.0,0
1581444819.748,8.789,6.348,25.391,52.246,0.0,0
1581444819.752,16.602,10.254000000000001,17.09,45.898,0.0,0
1581444819.754,6.836,17.578,30.761999999999997,26.855,0.0,0
1581444819.758,-2.93,33.203,23.926,25.391,0.0,0
1581444819.762,-11.719000000000001,40.527,-4.395,22.461,0.0,0
1581444819.766,-4.395,34.668,3.418,18.555,0.0,0
1581444819.77,8.789,23.926,27.344,23.438000000000002,0.0,0
1581444819.774,5.371,9.277000000000001,25.391,22.949,0.0,0
1581444819.7779999,0.0,-9.277000000000001,18.555,30.273000000000003,0.0,0
1581444819.7810001,10.742,-12.207,2.93,42.968999999999994,0.0,0
1581444819.785,20.996,8.789,-0.977,42.48,0.0,0
1581444819.789,15.625,27.831999999999997,14.648,41.992,0.0,0
1581444819.793,15.625,32.715,-5.371,64.941,0.0,0
1581444819.7970002,31.738000000000003,39.551,-5.371,80.566,0.0,0
1581444819.799,23.438000000000002,37.109,20.02,53.71100000000001,0.0,0
1581444819.803,9.277000000000001,19.531,4.883,37.109,0.0,0
1581444819.8070002,3.906,14.16,16.113,41.01600000000001,0.0,0
1581444819.811,-5.371,13.184000000000001,30.273000000000003,39.551,0.0,0
1581444819.815,10.254000000000001,11.23,26.366999999999997,45.41,0.0,0
1581444819.819,27.831999999999997,22.949,21.97300000000001,48.828,0.0,0
1581444819.823,8.789,15.625,18.066,40.039,0.0,0
1581444819.826,-2.441,5.371,18.066,43.945,0.0,0
1581444819.83,13.184000000000001,20.996,20.996,44.922,0.0,0
1581444819.8339999,13.184000000000001,27.344,24.414,28.32,0.0,0
1581444819.8379998,3.418,23.438000000000002,24.901999999999997,26.855,0.0,0
1581444819.842,-3.906,16.602,23.926,32.227,0.0,0
1581444819.8439999,6.836,7.812,19.531,40.527,0.0,0
1581444819.8479998,25.879,12.695,12.207,41.504,0.0,0
1581444819.8520002,26.366999999999997,18.555,7.324,36.133,0.0,0
1581444819.856,16.602,16.113,18.066,41.992,0.0,0
1581444819.86,12.207,20.996,27.344,47.852,0.0,0
1581444819.8639998,21.97300000000001,17.09,22.949,49.805,0.0,0
1581444819.8679998,27.831999999999997,-4.883,15.137,51.758,0.0,0
1581444819.871,19.043,-1.953,15.625,49.316,0.0,0
1581444819.875,7.812,18.066,18.066,39.062,0.0,0
1581444819.879,10.742,27.831999999999997,21.97300000000001,30.273000000000003,0.0,0
1581444819.883,16.602,28.809,24.414,31.25,0.0,0
1581444819.887,5.371,23.438000000000002,21.97300000000001,31.25,0.0,0
1581444819.8879998,0.977,24.414,24.901999999999997,34.668,0.0,0
1581444819.8920002,7.324,20.508000000000006,26.366999999999997,35.645,0.0,0
1581444819.8960001,16.602,7.324,8.789,33.691,0.0,0
1581444819.9,16.602,4.395,7.324,42.968999999999994,0.0,0
1581444819.904,4.395,12.207,16.602,41.992,0.0,0
1581444819.908,0.0,24.414,15.625,29.296999999999997,0.0,0
1581444819.9120002,6.348,21.97300000000001,18.066,20.996,0.0,0
1581444819.915,17.09,14.648,19.531,24.901999999999997,0.0,0
1581444819.919,7.812,20.508000000000006,15.137,28.809,0.0,0
1581444819.9229999,-0.488,21.484,17.09,28.32,0.0,0
1581444819.927,8.789,21.484,20.02,24.901999999999997,0.0,0
1581444819.931,12.695,25.879,10.742,22.949,0.0,0
1581444819.948,4.395,11.719000000000001,5.371,34.668,0.0,0
1581444819.9520001,-3.906,-3.418,4.395,41.01600000000001,0.0,0
1581444819.956,0.0,2.93,2.93,35.156,0.0,0
1581444819.96,10.742,7.812,8.789,30.273000000000003,0.0,0
1581444819.964,6.348,16.113,24.901999999999997,32.715,0.0,0
1581444819.968,-4.883,17.578,31.25,38.086,0.0,0
1581444819.9720001,4.395,20.508000000000006,28.32,33.691,0.0,0
1581444819.975,21.484,37.598,33.203,30.761999999999997,0.0,0
1581444819.9789999,13.672,35.156,32.227,38.086,0.0,0
1581444819.9829998,-0.488,31.25,25.879,37.109,0.0,0
1581444819.9870002,0.977,41.504,15.137,36.621,0.0,0
1581444819.9910002,13.184000000000001,35.645,2.93,41.992,0.0,0
1581444819.9929998,20.02,15.625,13.184000000000001,41.504,0.0,0
1581444819.9970002,4.883,18.555,29.785,40.527,0.0,0
1581444820.0010002,-6.348,24.414,26.366999999999997,34.18,0.0,0
1581444820.005,7.812,22.949,20.996,33.691,0.0,0
1581444820.0089998,11.23,37.109,24.414,32.715,0.0,0
1581444820.0129998,-2.441,39.551,20.996,26.855,0.0,0
1581444820.0170002,-1.953,31.738000000000003,10.742,35.156,0.0,0
1581444820.02,2.441,27.831999999999997,16.602,35.156,0.0,0
1581444820.024,4.883,20.02,29.785,25.879,0.0,0
1581444820.0279999,-2.441,22.949,25.879,27.344,0.0,0
1581444820.032,-12.695,16.602,19.043,32.715,0.0,0
1581444820.036,-2.441,11.23,21.484,41.01600000000001,0.0,0
1581444820.0379999,10.742,29.785,23.438000000000002,41.504,0.0,0
1581444820.042,6.836,27.831999999999997,33.203,26.366999999999997,0.0,0
1581444820.046,-8.789,22.461,25.391,16.602,0.0,0
1581444820.05,-2.441,28.32,18.066,25.879,0.0,0
1581444820.054,8.301,17.578,28.809,27.344,0.0,0
1581444820.0579998,3.906,10.742,30.273000000000003,21.484,0.0,0
1581444820.062,-0.977,20.996,26.366999999999997,25.391,0.0,0
1581444820.065,-4.883,19.531,13.184000000000001,28.32,0.0,0
1581444820.069,8.789,3.418,7.812,25.391,0.0,0
1581444820.073,25.879,6.836,21.97300000000001,29.296999999999997,0.0,0
1581444820.0770001,24.901999999999997,19.531,33.691,47.363,0.0,0
1581444820.081,4.395,20.996,23.926,35.156,0.0,0
1581444820.083,0.488,31.25,17.578,16.113,0.0,0
1581444820.0870001,11.719000000000001,33.203,20.02,18.066,0.0,0
1581444820.091,8.789,29.785,10.742,19.043,0.0,0
1581444820.095,-4.395,7.812,14.648,31.25,0.0,0
1581444820.099,0.977,-26.366999999999997,22.949,39.551,0.0,0
1581444820.103,18.555,-21.97300000000001,8.789,35.645,0.0,0
1581444820.107,15.625,18.555,6.348,28.809,0.0,0
1581444820.11,0.977,38.086,27.831999999999997,27.831999999999997,0.0,0
1581444820.1139998,-1.465,22.461,31.25,33.203,0.0,0
1581444820.1179998,14.16,25.879,26.366999999999997,33.203,0.0,0
1581444820.1220002,25.391,31.25,31.738000000000003,33.691,0.0,0
1581444820.1260002,8.301,18.066,27.831999999999997,31.738000000000003,0.0,0
1581444820.1279998,1.465,21.484,23.438000000000002,39.551,0.0,0
1581444820.1320002,10.254000000000001,17.09,27.831999999999997,32.227,0.0,2
1581444820.1360002,15.625,1.465,17.578,20.02,0.0,0
1581444820.14,14.648,-3.418,14.648,38.086,0.0,0
1581444820.144,4.883,-13.672,20.996,49.316,0.0,0
1581444820.1479998,9.277000000000001,-19.531,9.766,47.363,0.0,0
1581444820.1520002,23.926,-11.719000000000001,9.766,44.434,0.0,0
1581444820.155,17.578,4.883,20.02,39.551,0.0,0
1581444820.159,0.488,26.366999999999997,34.668,38.574,0.0,0
1581444820.1629999,-1.465,22.461,43.457,32.227,0.0,0
1581444820.167,11.23,7.324,41.992,29.296999999999997,0.0,0
1581444820.171,12.695,8.789,29.785,31.738000000000003,0.0,0
1581444820.1729999,1.953,5.859,7.324,32.227,0.0,0
1581444820.177,2.93,2.93,0.488,36.133,0.0,0
1581444820.181,12.695,17.578,-2.441,39.062,0.0,0
1581444820.185,17.578,29.296999999999997,1.465,37.598,0.0,0
1581444820.189,12.207,27.344,14.16,40.527,0.0,0
1581444820.1929998,3.906,25.391,20.508000000000006,41.01600000000001,0.0,0
1581444820.197,12.207,21.97300000000001,28.32,40.039,0.0,0
1581444820.2,23.926,18.066,22.949,41.992,0.0,0
1581444820.204,20.508000000000006,9.766,23.438000000000002,43.457,0.0,0
1581444820.208,12.695,-3.418,21.97300000000001,43.457,0.0,0
1581444820.2120001,17.09,-5.371,15.625,41.504,0.0,0
1581444820.216,34.18,-6.348,24.414,41.992,0.0,0
1581444820.218,37.109,-1.465,17.09,41.01600000000001,0.0,0
1581444820.2220001,20.996,22.949,4.395,39.062,0.0,0
1581444820.226,7.324,38.086,9.766,34.18,0.0,0
1581444820.23,10.254000000000001,41.992,25.391,25.879,0.0,0
1581444820.234,15.625,35.645,35.645,31.25,0.0,0
1581444820.238,4.395,15.625,31.25,36.133,0.0,0
1581444820.242,-8.301,4.395,10.254000000000001,28.32,0.0,0
1581444820.245,3.906,2.441,-3.418,28.32,0.0,0
1581444820.2489998,23.438000000000002,1.953,16.602,29.785,0.0,0
1581444820.2529998,13.672,5.371,23.926,31.25,0.0,0
1581444820.2570002,3.906,11.23,1.953,38.086,0.0,0
1581444820.2610002,13.672,9.277000000000001,1.953,36.621,0.0,0
1581444820.2629998,18.066,7.812,22.949,30.761999999999997,0.0,0
1581444820.2670002,11.719000000000001,8.301,32.227,30.761999999999997,0.0,0
1581444820.2710001,0.0,17.09,30.761999999999997,31.25,0.0,0
1581444820.275,-0.488,29.785,18.066,29.296999999999997,0.0,0
1581444820.279,12.695,19.531,6.836,24.414,0.0,0
1581444820.283,12.207,-0.977,-4.395,31.25,0.0,0
1581444820.2870002,-4.883,3.418,-7.324,33.203,0.0,0
1581444820.29,-11.23,16.602,7.812,27.344,0.0,0
1581444820.294,-4.395,11.719000000000001,16.113,25.391,0.0,0
1581444820.2979999,-4.883,6.348,15.625,32.715,0.0,0
1581444820.302,-12.207,0.0,10.742,33.203,0.0,0
1581444820.306,-13.672,-0.488,17.09,31.738000000000003,0.0,0
1581444820.323,4.395,14.16,31.738000000000003,42.48,0.0,0
1581444820.3270001,12.695,6.348,24.414,40.527,0.0,0
1581444820.331,1.465,5.859,16.602,33.691,0.0,0
1581444820.335,-1.953,12.207,19.043,36.621,0.0,0
1581444820.339,4.883,9.277000000000001,25.879,34.668,0.0,0
1581444820.343,13.672,20.508000000000006,28.32,28.32,0.0,0
1581444820.3470001,10.742,20.02,31.738000000000003,31.25,0.0,0
1581444820.35,6.836,11.23,30.761999999999997,40.039,0.0,0
1581444820.3539999,12.695,14.648,17.09,48.828,0.0,0
1581444820.3579998,28.32,15.625,24.901999999999997,50.293,0.0,0
1581444820.3620002,27.344,16.113,27.831999999999997,43.945,0.0,0
1581444820.3660002,2.93,17.578,14.16,39.062,0.0,0
1581444820.3679998,-3.418,21.484,12.695,38.574,0.0,0
1581444820.3720002,6.348,20.996,14.648,32.715,0.0,0
1581444820.3760002,7.812,8.789,20.02,27.831999999999997,0.0,0
1581444820.38,3.418,-4.883,18.555,38.086,0.0,0
1581444820.3839998,-0.488,-3.418,13.672,43.457,0.0,0
1581444820.3879998,3.418,7.324,7.324,38.086,0.0,0
1581444820.3920002,14.648,9.277000000000001,-2.93,38.086,0.0,0
1581444820.395,11.719000000000001,1.465,12.207,38.574,0.0,0
1581444820.399,-0.977,-2.441,31.738000000000003,43.457,0.0,0
1581444820.4029999,7.324,12.695,27.831999999999997,45.41,0.0,0
1581444820.407,20.02,18.555,21.97300000000001,42.48,0.0,0
1581444820.411,22.461,4.883,13.672,47.852,0.0,0
1581444820.414,22.461,4.395,12.207,53.223,0.0,0
1581444820.418,20.508000000000006,11.23,5.371,46.387,0.0,0
1581444820.4220002,25.391,15.137,0.488,35.645,0.0,0
1581444820.426,26.855,26.366999999999997,9.277000000000001,32.715,0.0,0
1581444820.43,12.695,22.949,3.418,33.691,0.0,0
1581444820.434,8.301,8.789,2.441,40.527,0.0,0
1581444820.438,21.484,13.184000000000001,13.184000000000001,28.32,0.0,0
1581444820.441,24.414,28.809,26.855,13.672,0.0,0
1581444820.445,19.043,38.574,28.32,21.97300000000001,0.0,0
1581444820.449,12.695,23.438000000000002,22.949,28.809,0.0,0
1581444820.4529998,19.043,5.371,13.672,27.831999999999997,0.0,0
1581444820.457,23.926,9.766,8.301,27.344,0.0,0
1581444820.458,12.695,24.901999999999997,7.324,29.785,0.0,0
1581444820.4620001,3.418,24.414,7.812,32.227,0.0,0
1581444820.466,7.324,16.602,13.672,35.156,0.0,0
1581444820.47,16.602,20.508000000000006,11.719000000000001,30.761999999999997,0.0,0
1581444820.474,20.508000000000006,24.414,6.836,27.344,0.0,0
1581444820.478,17.09,28.32,14.16,37.598,0.0,0
1581444820.482,10.742,27.831999999999997,25.879,37.109,0.0,0
1581444820.485,16.113,15.137,22.461,27.831999999999997,0.0,0
1581444820.4889998,23.438000000000002,19.043,18.066,27.831999999999997,0.0,0
1581444820.4929998,17.09,38.574,13.672,31.25,0.0,0
1581444820.4970002,10.254000000000001,37.109,4.883,31.25,0.0,0
1581444820.5010002,20.02,26.366999999999997,8.789,31.738000000000003,0.0,0
1581444820.504,20.508000000000006,16.602,17.578,20.996,0.0,0
1581444820.508,3.418,14.648,17.578,24.414,0.0,0
1581444820.512,-6.348,17.578,17.09,31.25,0.0,0
1581444820.516,5.371,2.441,22.949,25.879,0.0,0
1581444820.52,22.461,-8.301,29.296999999999997,30.273000000000003,0.0,0
1581444820.524,11.719000000000001,9.277000000000001,27.831999999999997,29.785,0.0,0
1581444820.5279999,-6.348,27.831999999999997,20.02,28.809,0.0,0
1581444820.5310001,-1.953,32.715,11.719000000000001,32.715,0.0,0
1581444820.535,9.277000000000001,23.926,20.996,24.414,0.0,0
1581444820.539,5.371,13.184000000000001,25.879,14.16,0.0,0
1581444820.543,-3.418,11.719000000000001,15.625,24.414,0.0,0
1581444820.5470002,-0.977,8.301,16.113,31.738000000000003,0.0,0
1581444820.5479999,13.672,10.742,11.719000000000001,31.25,0.0,0
1581444820.552,24.414,0.488,4.883,31.25,0.0,0
1581444820.556,11.719000000000001,-0.488,22.949,33.203,0.0,0
1581444820.56,-3.418,13.672,38.086,33.203,0.0,0
1581444820.564,0.488,17.578,25.391,23.926,0.0,0
1581444820.5679998,8.789,24.901999999999997,15.137,19.043,0.0,0
1581444820.572,4.395,20.508000000000006,22.949,29.785,0.0,0
1581444820.575,-3.418,7.324,24.901999999999997,33.691,0.0,0
1581444820.579,8.301,2.441,19.531,29.296999999999997,0.0,0
1581444820.583,23.438000000000002,5.859,20.996,31.738000000000003,0.0,0
1581444820.5870001,5.859,18.555,21.97300000000001,24.414,0.0,0
1581444820.591,-9.277000000000001,31.738000000000003,12.695,22.461,0.0,0
1581444820.5939999,0.0,24.414,9.277000000000001,26.366999999999997,0.0,0
1581444820.5979998,6.348,8.301,19.043,18.066,0.0,0
1581444820.6020002,6.348,19.531,22.461,16.113,0.0,0
1581444820.606,-1.465,27.344,24.414,22.949,0.0,0
1581444820.61,-2.93,8.789,19.531,24.901999999999997,0.0,0
1581444820.6139998,8.789,-1.953,22.461,23.926,0.0,0
1581444820.6179998,11.23,9.766,11.23,24.901999999999997,0.0,0
1581444820.621,1.953,14.648,0.0,25.391,0.0,0
1581444820.625,4.395,15.625,23.926,26.366999999999997,0.0,0
1581444820.629,13.184000000000001,18.066,36.621,22.949,0.0,0
1581444820.633,21.484,14.648,28.809,19.531,0.0,0
1581444820.637,14.648,20.02,15.625,25.879,0.0,0
1581444820.639,-2.441,30.761999999999997,16.113,28.809,0.0,0
1581444820.643,0.0,29.296999999999997,24.414,21.484,0.0,0
1581444820.647,4.395,15.625,29.785,7.324,0.0,0
1581444820.651,-0.488,8.301,26.366999999999997,6.348,0.0,0
1581444820.655,-2.93,12.207,19.043,15.625,0.0,0
1581444820.659,-1.465,12.207,13.672,17.09,0.0,0
1581444820.6629999,15.137,-5.371,8.301,13.672,0.0,0
1581444820.6660001,17.578,-1.953,17.578,10.742,0.0,0
1581444820.67,6.348,22.949,27.831999999999997,16.113,0.0,0
1581444820.674,1.465,31.25,30.273000000000003,15.625,0.0,0
1581444820.678,10.742,23.926,30.273000000000003,15.137,0.0,0
1581444820.6820002,21.97300000000001,4.395,24.414,19.043,0.0,0
1581444820.698,11.23,-2.441,18.555,23.438000000000002,0.0,0
1581444820.7020001,4.883,10.742,26.366999999999997,28.809,0.0,0
1581444820.706,10.254000000000001,13.184000000000001,27.831999999999997,18.555,0.0,0
1581444820.71,14.648,10.254000000000001,19.043,9.277000000000001,0.0,0
1581444820.714,11.719000000000001,7.324,4.395,18.555,0.0,0
1581444820.718,3.418,-13.184000000000001,-3.906,24.901999999999997,0.0,0
1581444820.7220001,16.602,-26.855,-7.324,32.227,0.0,0
1581444820.725,25.391,-12.207,-9.277000000000001,24.901999999999997,0.0,0
1581444820.7289999,16.113,10.742,12.695,11.719000000000001,0.0,0
1581444820.7329998,9.766,22.461,30.273000000000003,18.066,0.0,0
1581444820.7370002,9.766,22.949,36.621,22.461,0.0,0
1581444820.7410002,20.508000000000006,14.16,31.25,25.879,0.0,0
1581444820.744,19.043,13.672,24.414,22.461,0.0,0
1581444820.748,8.789,10.254000000000001,24.901999999999997,30.761999999999997,0.0,0
1581444820.752,11.23,1.465,9.766,38.574,0.0,0
1581444820.756,20.508000000000006,3.418,3.906,33.691,0.0,0
1581444820.76,26.855,6.348,4.883,35.645,0.0,0
1581444820.764,20.02,8.301,0.488,43.457,0.0,0
1581444820.768,13.672,-1.465,15.625,48.34,0.0,0
1581444820.7710001,20.508000000000006,-10.254000000000001,36.621,41.504,0.0,0
1581444820.775,21.97300000000001,10.742,35.156,31.25,0.0,0
1581444820.779,10.254000000000001,21.97300000000001,25.391,28.809,0.0,0
1581444820.783,-6.348,5.371,23.438000000000002,28.32,0.0,0
1581444820.7870002,-0.488,-0.488,25.879,30.273000000000003,0.0,0
1581444820.789,20.508000000000006,15.625,13.184000000000001,44.922,0.0,0
1581444820.793,17.578,30.273000000000003,-7.324,41.504,0.0,0
1581444820.7970002,1.465,28.32,9.277000000000001,30.273000000000003,0.0,0
1581444820.801,-2.93,11.719000000000001,32.227,28.32,0.0,0
1581444820.805,5.371,4.395,35.645,25.879,0.0,0
1581444820.809,6.348,9.766,36.621,23.926,0.0,0
1581444820.813,-4.883,8.789,40.039,24.901999999999997,0.0,0
1581444820.816,-7.324,5.371,29.785,29.785,0.0,0
1581444820.82,-4.395,-4.883,26.855,30.761999999999997,0.0,0
1581444820.824,2.93,9.766,25.879,33.691,0.0,0
1581444820.8279998,9.766,24.414,-9.766,39.551,0.0,0
1581444820.832,-1.465,12.695,-9.766,35.645,0.0,0
1581444820.833,0.0,11.719000000000001,29.785,26.366999999999997,0.0,0
1581444820.8370001,20.02,10.742,38.086,29.785,0.0,0
1581444820.841,20.508000000000006,2.441,33.691,40.039,0.0,0
1581444820.845,1.953,1.465,35.645,42.968999999999994,0.0,0
1581444820.849,1.465,15.625,34.668,34.668,0.0,0
1581444820.853,12.207,12.695,30.273000000000003,25.879,0.0,0
1581444820.857,16.602,5.859,13.184000000000001,29.785,0.0,0
1581444820.86,14.16,23.438000000000002,-3.418,41.01600000000001,0.0,0
1581444820.8639998,11.719000000000001,20.996,-2.93,41.504,0.0,0
1581444820.8679998,21.484,6.836,16.113,37.109,0.0,0
1581444820.8720002,24.414,16.113,37.109,35.645,0.0,0
1581444820.8760002,9.766,15.137,46.387,37.598,0.0,0
1581444820.879,1.465,17.09,45.898,42.48,0.0,0
1581444820.883,11.23,10.742,35.156,35.645,0.0,0
1581444820.887,23.926,1.953,24.414,36.133,0.0,0
1581444820.891,20.508000000000006,15.137,18.066,47.363,0.0,0
1581444820.895,14.648,30.761999999999997,14.648,46.387,0.0,0
1581444820.899,21.484,40.039,7.812,43.457,0.0,0
1581444820.9029999,29.785,36.621,25.391,40.039,0.0,0
1581444820.9060001,23.926,25.879,46.875,37.109,0.0,0
1581444820.91,5.859,14.648,41.504,35.645,0.0,0
1581444820.914,1.953,15.625,34.668,33.691,0.0,0
1581444820.918,8.301,19.531,30.761999999999997,30.761999999999997,0.0,0
1581444820.9220002,3.418,18.066,28.32,27.831999999999997,0.0,0
1581444820.924,-3.906,19.043,25.391,33.203,0.0,0
1581444820.928,2.93,11.719000000000001,11.23,44.434,0.0,0
1581444820.9320002,18.555,-1.465,6.348,46.875,0.0,0
1581444820.936,22.461,3.906,15.137,39.551,0.0,0
1581444820.94,10.742,15.625,27.831999999999997,34.668,0.0,0
1581444820.944,2.93,5.859,41.504,32.715,0.0,0
1581444820.948,7.812,-0.977,42.48,29.296999999999997,0.0,0
1581444820.951,9.277000000000001,9.277000000000001,36.133,28.32,0.0,0
1581444820.955,4.395,6.836,31.25,34.668,0.0,0
1581444820.9589999,-1.465,7.324,17.09,42.48,0.0,0
1581444820.9629998,5.371,17.578,-2.441,45.41,0.0,0
1581444820.967,18.555,17.09,-2.441,41.504,0.0,0
1581444820.9689999,20.996,11.23,19.043,40.039,0.0,0
1581444820.9729998,13.672,-11.23,34.18,42.48,0.0,0
1581444820.9770002,2.93,-14.648,40.039,30.273000000000003,0.0,0
1581444820.981,11.23,5.371,33.203,24.414,0.0,0
1581444820.985,24.414,4.883,17.578,38.574,0.0,0
1581444820.9889998,13.672,3.906,5.859,48.828,0.0,0
1581444820.9929998,-0.977,2.93,5.371,37.109,0.0,0
1581444820.996,8.301,5.371,3.418,26.855,0.0,0
1581444821.0,18.555,10.254000000000001,-1.953,30.761999999999997,0.0,0
1581444821.004,2.93,3.418,12.207,34.18,0.0,0
1581444821.008,-11.23,-8.789,27.344,31.738000000000003,0.0,0
1581444821.012,-3.906,-1.953,36.621,30.761999999999997,0.0,0
1581444821.0129998,4.883,9.766,31.738000000000003,27.831999999999997,0.0,0
1581444821.0170002,-0.488,11.23,28.809,31.25,0.0,0
1581444821.0210001,-4.883,18.066,18.555,41.504,0.0,0
1581444821.025,13.672,16.113,-14.16,58.105,0.0,0
1581444821.029,27.831999999999997,7.812,-2.93,55.663999999999994,0.0,0
1581444821.033,17.578,5.859,30.761999999999997,36.621,0.0,0
1581444821.0370002,-1.465,3.418,32.227,32.715,0.0,0
1581444821.04,2.93,10.254000000000001,34.18,37.109,0.0,0
