timestamps,TP9,AF7,AF8,TP10,Marker0
1582059271.453,-7.812,-955.078,28.320,10.742,0
1582059271.457,10.254,-829.590,28.320,18.066,0
1582059271.461,21.484,-664.062,24.902,11.719,0
1582059271.465,-0.977,-768.555,29.785,-7.812,0
1582059271.469,-13.672,-883.301,28.320,9.277,0
1582059271.473,1.953,-906.250,20.508,16.602,0
1582059271.477,6.836,-973.145,22.949,13.184,0
1582059271.480,-4.395,-968.750,24.414,10.742,0
1582059271.484,-14.160,-974.609,27.344,10.742,0
1582059271.488,-9.277,-935.547,25.879,10.254,0
1582059271.492,3.418,-759.277,19.043,10.742,0
1582059271.496,-2.930,-789.062,16.113,16.602,0
1582059271.498,-8.789,-927.734,11.719,9.766,0
1582059271.502,-6.348,-901.367,16.113,0.977,0
1582059271.506,-2.441,-950.195,23.438,-3.418,0
1582059271.510,-2.930,-970.703,15.625,7.812,0
1582059271.514,2.930,-946.777,11.230,15.137,0
1582059271.518,12.207,-958.984,15.625,13.184,0
1582059271.522,12.695,-970.703,14.648,13.184,0
1582059271.525,7.324,-976.562,14.648,0.977,0
1582059271.529,9.277,-935.547,20.508,16.602,0
1582059271.533,22.461,-793.945,21.484,43.945,0
1582059271.537,22.949,-712.891,17.578,30.273,0
1582059271.541,24.414,-797.852,19.531,15.137,0
1582059271.543,16.113,-795.410,23.438,10.254,0
1582059271.547,13.184,-774.902,23.438,15.625,0
1582059271.551,11.719,-896.484,23.926,19.043,0
1582059271.555,15.137,-927.734,7.812,16.113,0
1582059271.559,19.043,-880.859,7.324,5.859,0
1582059271.563,5.859,-899.902,21.484,7.324,0
1582059271.567,8.789,-937.012,22.461,17.578,0
1582059271.570,17.578,-983.398,20.020,7.324,0
1582059271.574,13.672,-883.789,8.301,6.348,0
1582059271.578,3.906,-776.855,12.207,5.371,0
1582059271.582,-2.930,-888.184,23.438,-3.418,0
1582059271.586,-0.977,-960.449,20.996,2.930,0
1582059271.588,0.488,-835.449,19.043,6.836,0
1582059271.592,-0.977,-791.992,14.648,6.348,0
1582059271.596,-5.371,-909.668,12.207,15.137,0
1582059271.600,-3.418,-981.445,22.949,19.043,0
1582059271.604,1.465,-944.824,26.367,-1.465,0
1582059271.608,0.000,-950.684,22.461,-13.672,0
1582059271.612,-4.395,-969.727,18.555,-12.695,0
1582059271.615,-10.254,-987.305,8.789,-15.625,0
1582059271.619,5.371,-901.855,14.160,7.324,0
1582059271.623,26.855,-753.418,24.414,23.926,0
1582059271.627,16.113,-881.348,23.926,13.672,0
1582059271.631,10.254,-922.363,26.855,6.348,0
1582059271.633,8.789,-787.109,24.902,-0.977,0
1582059271.637,2.930,-685.059,19.531,-2.441,0
1582059271.641,4.395,-772.461,8.301,2.441,0
1582059271.645,-3.418,-906.738,5.371,-0.488,0
1582059271.649,-3.418,-832.031,18.066,-9.277,0
1582059271.653,5.859,-867.676,26.855,-4.395,0
1582059271.657,-3.418,-970.703,21.484,6.348,0
1582059271.660,-14.648,-928.711,15.137,3.906,0
1582059271.664,-3.418,-793.457,20.020,-0.977,0
1582059271.668,4.883,-754.395,18.555,6.348,0
1582059271.672,-3.906,-926.758,15.137,-0.488,0
1582059271.676,-6.836,-958.496,20.996,-4.395,0
1582059271.693,0.000,-829.590,29.297,2.930,0
1582059271.697,4.395,-876.953,27.344,10.254,0
1582059271.701,9.277,-905.762,17.090,4.395,0
1582059271.705,11.230,-773.438,7.812,-0.977,0
1582059271.709,2.930,-799.805,14.160,9.277,0
1582059271.713,0.000,-931.152,21.973,18.066,0
1582059271.717,4.395,-973.633,16.113,25.879,0
1582059271.720,-2.441,-841.309,17.578,17.578,0
1582059271.724,-10.254,-751.953,20.508,-4.883,0
1582059271.728,2.930,-889.648,15.137,-3.418,0
1582059271.732,2.441,-886.719,10.254,-2.930,0
1582059271.736,-4.395,-735.352,2.441,-10.742,0
1582059271.739,0.977,-771.973,1.465,-3.418,0
1582059271.743,12.207,-924.316,2.930,1.953,0
1582059271.747,15.137,-953.125,16.113,4.395,0
1582059271.751,23.438,-773.438,20.996,-3.418,0
1582059271.755,32.227,-771.484,15.137,-2.441,0
1582059271.759,20.996,-942.383,20.996,0.488,0
1582059271.763,5.859,-1000.000,19.531,-6.836,0
1582059271.766,7.324,-864.746,14.160,-0.488,0
1582059271.770,12.695,-781.738,13.672,-5.859,0
1582059271.774,15.137,-978.027,13.184,-7.324,0
1582059271.778,15.625,-880.371,9.766,10.254,0
1582059271.782,13.672,-646.973,11.719,14.648,0
1582059271.784,17.578,-744.629,10.742,-4.883,0
1582059271.788,20.020,-863.770,6.836,1.465,0
1582059271.792,19.043,-812.500,15.137,14.160,0
1582059271.796,10.254,-747.070,21.973,15.137,0
1582059271.800,3.906,-810.059,12.207,11.719,0
1582059271.804,2.441,-965.820,6.836,2.930,0
1582059271.808,-6.836,-990.234,11.719,-5.859,0
1582059271.811,-3.906,-889.160,13.184,-5.371,0
1582059271.815,8.789,-866.211,13.672,-5.371,0
1582059271.819,3.418,-989.746,10.742,-2.441,0
1582059271.823,7.812,-924.805,11.230,-0.977,0
1582059271.827,20.508,-735.840,7.324,5.859,0
1582059271.829,21.484,-742.188,-2.441,15.625,0
1582059271.833,10.254,-747.559,0.488,-3.906,0
1582059271.837,-5.859,-711.426,7.812,-7.324,0
1582059271.841,16.602,-832.031,5.371,0.488,0
1582059271.845,41.504,-869.141,10.254,6.836,0
1582059271.849,33.691,-878.906,28.809,20.020,0
1582059271.853,20.508,-870.117,26.367,18.066,0
1582059271.856,10.742,-893.066,18.066,7.812,0
1582059271.860,14.648,-969.238,22.949,8.301,0
1582059271.864,17.578,-854.004,20.020,11.230,0
1582059271.868,18.555,-748.535,11.230,9.766,0
1582059271.872,33.203,-835.938,7.812,17.578,0
1582059271.874,30.273,-885.742,12.695,17.090,0
1582059271.878,-2.930,-815.918,16.113,-12.207,0
1582059271.882,-4.395,-784.180,17.578,-9.277,0
1582059271.886,11.719,-854.980,18.555,5.859,0
1582059271.890,3.418,-886.230,15.625,-8.789,0
1582059271.894,-0.488,-925.293,11.719,-21.484,0
1582059271.898,-2.441,-974.121,5.371,-13.672,0
1582059271.901,7.812,-981.445,10.742,-2.930,0
1582059271.905,16.113,-922.363,11.230,-3.906,0
1582059271.909,23.438,-740.234,6.836,6.348,0
1582059271.913,25.879,-831.543,9.277,3.418,0
1582059271.917,15.137,-991.699,7.324,-4.883,0
1582059271.919,19.531,-940.430,2.441,3.418,0
1582059271.923,58.594,-855.469,0.977,8.301,0
1582059271.927,63.477,-864.746,10.742,-0.977,0
1582059271.931,41.504,-954.102,17.090,2.441,0
1582059271.935,45.410,-978.027,20.020,17.578,0
1582059271.939,52.246,-968.262,20.020,15.625,0
1582059271.943,47.852,-967.773,17.578,11.719,0
1582059271.946,30.762,-981.445,20.996,-0.488,0
1582059271.950,29.297,-924.805,20.508,-3.418,0
1582059271.954,35.156,-777.344,14.648,2.930,0
1582059271.958,42.480,-784.180,15.137,10.742,0
1582059271.962,40.527,-803.711,11.719,4.883,0
1582059271.964,22.949,-775.879,11.719,7.324,0
1582059271.968,34.180,-888.184,14.160,21.973,0
1582059271.972,39.551,-989.746,9.766,15.625,0
1582059271.976,30.762,-918.945,9.766,8.301,0
1582059271.980,27.344,-850.098,7.812,15.137,0
1582059271.984,22.949,-935.547,8.789,6.348,0
1582059271.988,20.508,-983.398,12.695,-14.648,0
1582059271.991,30.273,-946.777,1.953,-2.441,0
1582059271.995,46.875,-838.867,1.953,17.090,0
1582059271.999,30.762,-829.590,20.020,5.371,0
1582059272.003,-4.395,-965.820,14.648,-7.324,0
1582059272.007,-2.441,-860.840,7.812,-18.555,0
1582059272.009,14.648,-756.836,9.766,-26.855,0
1582059272.013,-10.742,-874.023,10.742,-9.277,0
1582059272.017,-2.441,-966.797,13.184,-5.859,0
1582059272.021,26.367,-934.570,13.184,-9.766,0
1582059272.025,14.648,-914.062,14.160,-3.418,0
1582059272.029,0.977,-967.773,12.207,0.000,0
1582059272.033,4.883,-984.863,12.207,-5.859,0
1582059272.036,-0.488,-909.668,19.043,-7.324,0
1582059272.040,3.418,-760.254,22.949,13.672,0
1582059272.044,15.625,-833.008,5.371,22.949,0
1582059272.048,24.902,-988.281,-5.859,19.043,0
1582059272.052,-2.441,-937.988,10.742,-11.230,0
1582059272.069,-11.719,-779.785,26.367,-36.621,0
1582059272.073,-4.883,-860.352,11.719,-26.367,0
1582059272.077,-23.438,-986.328,1.465,-21.973,0
1582059272.081,-31.738,-890.137,12.695,-39.062,0
1582059272.085,-44.922,-756.348,16.113,-62.012,0
1582059272.089,-72.266,-860.840,9.766,-74.219,0
1582059272.093,-59.570,-979.004,10.254,-76.660,0
1582059272.096,-44.922,-957.520,14.160,-71.777,0
1582059272.100,-47.363,-867.188,20.996,-66.895,0
1582059272.104,-54.199,-881.836,23.926,-68.848,0
1582059272.108,-62.500,-967.773,11.230,-65.918,0
1582059272.112,-65.918,-902.832,5.371,-71.777,0
1582059272.115,-63.477,-873.047,13.672,-82.031,0
1582059272.119,-52.734,-917.969,13.184,-80.566,0
1582059272.123,-68.359,-971.680,5.371,-90.332,0
1582059272.127,-69.336,-944.824,13.184,-94.727,0
1582059272.131,-57.129,-880.371,13.184,-83.008,0
1582059272.135,-56.641,-940.918,7.812,-70.801,0
1582059272.139,-51.758,-1000.000,9.766,-67.871,0
1582059272.142,-60.059,-898.438,7.324,-73.730,0
1582059272.146,-38.086,-839.355,6.348,-66.406,0
1582059272.150,-13.184,-942.383,-0.488,-60.059,0
1582059272.154,-22.949,-929.199,3.418,-48.340,0
1582059272.158,-29.785,-954.102,20.020,-25.879,0
1582059272.160,-17.578,-958.008,31.250,-28.320,0
1582059272.164,-7.812,-813.477,34.668,-34.180,0
1582059272.168,-18.555,-698.730,25.879,-24.414,0
1582059272.172,4.395,-740.234,16.113,-20.996,0
1582059272.176,15.625,-833.008,14.648,-13.672,0
1582059272.180,-1.465,-898.438,9.277,-27.344,0
1582059272.184,2.930,-946.289,9.766,-46.875,0
1582059272.187,-6.348,-907.715,12.695,-21.973,0
1582059272.191,-9.766,-920.410,5.371,-6.836,0
1582059272.195,6.348,-954.590,19.043,-15.137,0
1582059272.199,11.719,-799.316,32.715,-13.184,0
1582059272.203,6.836,-781.250,28.320,-14.648,0
1582059272.204,15.625,-924.316,19.531,-5.859,0
1582059272.208,24.902,-995.117,10.254,8.301,0
1582059272.212,27.832,-894.043,15.625,1.465,0
1582059272.216,26.855,-861.328,20.508,-13.184,0
1582059272.220,23.438,-939.453,11.230,-5.371,0
1582059272.224,25.391,-934.082,11.719,-2.930,0
1582059272.228,8.301,-970.703,20.020,-13.672,0
1582059272.231,14.160,-971.680,19.043,-6.348,0
1582059272.235,30.762,-964.844,20.508,0.977,0
1582059272.239,10.742,-988.281,23.926,2.930,0
1582059272.243,24.414,-905.273,18.555,9.277,0
1582059272.247,50.293,-875.488,7.324,9.766,0
1582059272.249,30.762,-979.980,21.484,2.930,0
1582059272.253,15.625,-942.383,36.621,-4.395,0
1582059272.257,22.949,-854.980,28.320,10.742,0
1582059272.261,22.461,-895.996,23.926,10.254,0
1582059272.265,15.625,-979.004,28.809,-2.441,0
1582059272.269,2.930,-971.191,16.113,-17.090,0
1582059272.273,-4.883,-968.262,13.184,-23.438,0
1582059272.276,15.625,-974.121,17.090,-13.672,0
1582059272.280,30.273,-961.426,7.812,-15.625,0
1582059272.284,12.207,-878.418,14.160,-0.488,0
1582059272.288,-8.301,-871.582,14.160,8.301,0
1582059272.292,4.395,-931.641,4.395,-12.695,0
1582059272.293,19.531,-867.188,8.301,-9.277,0
1582059272.297,23.438,-833.008,18.555,12.207,0
1582059272.301,26.855,-900.391,31.250,8.301,0
1582059272.305,2.930,-969.238,32.715,-12.207,0
1582059272.309,-12.207,-963.379,24.902,-20.508,0
1582059272.313,-2.441,-965.332,27.344,-8.301,0
1582059272.317,12.695,-970.215,20.996,8.789,0
1582059272.320,9.277,-982.422,12.207,20.508,0
1582059272.324,19.531,-895.996,17.578,2.930,0
1582059272.328,43.945,-778.809,19.043,0.488,0
1582059272.332,39.551,-895.996,16.602,24.902,0
1582059272.336,42.480,-952.148,20.020,16.602,0
1582059272.338,42.969,-833.496,20.508,14.648,0
1582059272.342,20.020,-810.059,15.625,18.555,0
1582059272.346,14.648,-898.926,21.484,6.348,0
1582059272.350,7.812,-949.219,29.785,7.812,0
1582059272.354,9.766,-788.574,19.043,12.207,0
1582059272.358,22.461,-838.867,20.996,12.695,0
1582059272.362,19.531,-990.723,23.926,18.555,0
1582059272.365,18.555,-963.867,15.137,4.395,0
1582059272.369,19.531,-802.734,17.578,10.742,0
1582059272.373,21.973,-733.887,9.277,3.418,0
1582059272.377,19.043,-911.133,9.766,-12.207,0
1582059272.381,20.020,-922.363,22.461,2.930,0
1582059272.399,18.066,-788.574,24.902,12.207,0
1582059272.403,15.137,-780.762,19.043,6.836,0
1582059272.407,20.996,-833.496,12.695,-7.324,0
1582059272.411,9.277,-823.242,17.090,-7.324,0
1582059272.415,1.465,-767.578,21.484,3.906,0
1582059272.419,15.625,-857.422,20.508,4.395,0
1582059272.423,24.414,-975.586,8.789,7.324,0
1582059272.426,21.973,-958.008,12.207,-1.465,0
1582059272.430,22.461,-765.625,20.508,12.207,0
1582059272.434,28.320,-729.980,9.766,23.926,0
1582059272.438,29.297,-825.195,9.766,1.465,17161
1582059272.442,7.324,-702.637,16.113,-1.953,0
1582059272.444,4.883,-683.594,14.648,5.371,0
1582059272.448,13.184,-858.887,9.277,0.977,0
1582059272.452,14.648,-794.922,10.254,-18.066,0
1582059272.456,17.090,-711.426,10.254,-13.184,0
1582059272.460,6.836,-804.199,4.395,-1.953,0
1582059272.464,-0.488,-879.883,14.648,-4.883,0
1582059272.468,14.160,-910.645,18.555,-4.395,0
1582059272.471,25.879,-765.137,4.883,-4.395,0
1582059272.475,16.602,-680.664,9.766,2.441,0
1582059272.479,10.254,-859.863,15.625,-1.465,0
1582059272.483,20.508,-917.480,18.066,-13.184,0
1582059272.487,27.832,-700.684,21.484,7.812,0
1582059272.488,23.438,-627.930,20.996,19.531,0
1582059272.492,6.836,-729.980,22.461,-10.742,0
1582059272.496,6.836,-656.250,10.742,-9.766,0
1582059272.500,17.090,-542.969,3.418,-17.090,0
1582059272.504,22.461,-781.250,7.324,-25.391,0
1582059272.508,18.066,-981.445,13.184,-11.719,0
1582059272.512,16.113,-964.355,8.789,-3.418,0
1582059272.515,25.879,-732.422,-1.953,0.977,0
1582059272.519,29.297,-678.223,-2.930,-15.137,0
1582059272.523,13.672,-937.988,6.836,-19.043,0
1582059272.527,18.555,-794.434,14.160,-5.859,0
1582059272.531,29.785,-580.566,11.230,-1.953,0
1582059272.533,29.785,-653.320,22.461,6.348,0
1582059272.537,23.438,-740.723,21.973,-2.441,0
1582059272.541,30.273,-669.434,7.812,5.859,0
1582059272.545,29.297,-623.535,15.625,30.762,0
1582059272.549,16.113,-727.539,23.926,6.348,0
1582059272.553,6.836,-903.320,20.020,-5.371,0
1582059272.557,7.812,-922.852,16.113,5.859,0
1582059272.560,15.625,-836.426,12.695,4.883,0
1582059272.564,23.926,-905.273,17.090,4.395,0
1582059272.568,26.367,-908.203,11.230,-1.953,0
1582059272.572,7.324,-673.340,3.418,0.000,0
1582059272.576,1.953,-605.957,21.484,15.625,0
1582059272.578,13.184,-718.262,38.574,16.602,0
1582059272.582,12.695,-705.566,27.832,0.488,0
1582059272.586,0.000,-647.949,19.043,12.207,0
1582059272.590,5.371,-678.223,20.020,17.090,0
1582059272.594,11.719,-759.766,11.719,-17.578,0
1582059272.598,5.371,-850.098,14.160,-4.883,0
1582059272.602,6.348,-933.105,24.902,16.602,0
1582059272.605,7.324,-916.016,33.203,6.836,0
1582059272.609,12.207,-958.496,30.273,11.230,0
1582059272.613,8.301,-876.465,24.414,17.090,0
1582059272.617,-22.949,-783.203,24.902,-2.930,0
1582059272.621,10.254,-892.090,23.438,11.719,0
1582059272.624,48.340,-848.633,16.602,23.438,0
1582059272.628,31.250,-624.023,11.230,9.277,0
1582059272.632,11.230,-604.980,22.461,16.113,0
1582059272.636,4.883,-819.824,26.367,11.719,0
1582059272.640,16.113,-835.938,19.531,2.441,0
1582059272.644,19.531,-819.824,28.320,11.230,0
1582059272.648,31.738,-915.527,31.250,28.320,0
1582059272.651,21.973,-952.637,23.926,28.809,0
1582059272.655,10.742,-918.945,18.066,30.762,0
1582059272.659,14.160,-824.707,14.160,33.691,0
1582059272.663,20.508,-846.191,18.066,19.531,0
1582059272.667,27.344,-866.699,13.672,28.809,0
1582059272.669,30.273,-846.680,17.578,51.758,0
1582059272.673,42.480,-861.328,22.461,45.410,0
1582059272.677,41.504,-793.457,14.648,42.969,0
1582059272.681,31.738,-844.727,10.254,36.133,0
1582059272.685,30.273,-907.227,1.953,48.340,0
1582059272.689,47.363,-922.852,3.906,51.270,0
1582059272.693,48.828,-976.562,22.461,33.691,0
1582059272.696,41.016,-973.145,35.156,25.391,0
1582059272.700,35.645,-918.457,34.668,20.996,0
1582059272.704,29.297,-771.484,32.715,27.344,0
1582059272.708,33.203,-794.922,19.043,18.555,0
1582059272.712,39.062,-848.633,4.395,7.812,0
1582059272.714,16.602,-789.062,19.531,17.090,0
1582059272.718,16.602,-776.855,33.203,18.066,0
1582059272.722,46.875,-800.293,29.297,25.879,0
1582059272.726,34.668,-838.379,22.461,29.785,0
1582059272.730,26.367,-908.691,15.137,21.484,0
1582059272.734,43.457,-976.074,16.602,28.809,0
1582059272.738,40.039,-977.051,19.531,30.273,0
1582059272.741,34.668,-933.105,17.090,35.156,0
1582059272.745,37.598,-853.027,16.602,21.973,0
1582059272.749,20.508,-857.910,23.926,11.719,0
1582059272.753,27.344,-902.832,21.973,35.645,0
1582059272.757,46.387,-848.145,8.789,40.039,0
1582059272.774,31.738,-747.559,7.324,30.273,0
1582059272.778,24.414,-785.156,19.043,21.973,0
1582059272.782,26.855,-816.895,16.113,9.766,0
1582059272.786,31.738,-720.215,17.090,3.906,0
1582059272.790,36.621,-742.676,31.738,12.695,0
1582059272.794,5.371,-920.898,31.250,4.883,0
1582059272.798,6.348,-981.445,25.879,6.836,0
1582059272.801,33.691,-970.215,23.438,15.625,0
1582059272.805,26.367,-824.219,14.160,4.883,0
1582059272.809,12.207,-829.102,15.625,11.719,0
1582059272.813,-1.953,-972.656,20.996,12.207,0
1582059272.817,13.184,-835.938,19.043,0.488,0
1582059272.819,28.320,-722.656,21.484,-10.742,0
1582059272.823,21.484,-853.027,22.461,1.465,0
1582059272.827,29.785,-974.609,17.578,10.742,0
1582059272.831,35.156,-848.633,15.625,13.184,0
1582059272.835,40.039,-739.746,10.254,15.625,0
1582059272.839,39.551,-871.094,4.883,17.578,0
1582059272.843,30.762,-986.328,5.371,11.719,0
1582059272.846,27.344,-971.191,16.113,-6.348,0
1582059272.850,19.043,-907.227,20.020,5.371,0
1582059272.854,5.859,-911.133,18.066,8.301,0
1582059272.858,0.977,-988.770,20.508,-1.953,0
1582059272.862,1.953,-939.453,9.277,-5.859,0
1582059272.864,4.883,-811.035,10.254,-1.953,0
1582059272.868,13.184,-845.215,20.996,2.930,0
1582059272.872,21.973,-891.113,23.438,12.695,0
1582059272.876,20.508,-907.227,24.414,32.227,0
1582059272.880,21.973,-889.160,19.531,19.043,0
1582059272.884,32.715,-925.781,18.555,10.742,0
1582059272.888,25.391,-993.164,22.949,20.996,0
1582059272.891,15.625,-943.359,23.926,17.090,0
1582059272.895,11.719,-899.414,20.020,21.973,0
1582059272.899,17.578,-964.844,15.625,32.227,0
1582059272.903,22.461,-917.969,5.371,5.859,0
1582059272.907,11.719,-796.875,11.230,-2.441,0
1582059272.909,6.836,-873.535,21.973,1.953,0
1582059272.913,10.254,-904.297,24.414,-4.395,0
1582059272.917,17.090,-758.789,27.344,-5.371,0
1582059272.921,10.742,-715.820,16.113,-0.977,0
1582059272.925,13.184,-836.426,11.230,12.207,0
1582059272.929,15.137,-977.539,29.297,5.859,0
1582059272.933,14.648,-973.145,33.203,9.277,0
1582059272.936,20.996,-876.465,15.625,13.672,0
1582059272.940,2.930,-918.945,-0.488,2.930,0
1582059272.944,0.977,-917.969,13.184,15.137,0
1582059272.948,17.090,-760.742,27.832,-7.812,0
1582059272.952,-3.418,-714.844,12.695,-14.648,0
1582059272.954,-2.441,-757.324,15.625,11.230,0
1582059272.958,26.367,-785.645,25.391,-7.324,0
1582059272.962,16.602,-636.719,19.531,-11.230,0
1582059272.966,6.348,-663.086,21.973,0.000,0
1582059272.970,-1.465,-921.875,19.043,-2.930,0
1582059272.974,-4.395,-981.445,10.254,-11.719,0
1582059272.978,1.465,-883.301,8.301,-1.953,0
1582059272.981,5.371,-853.516,11.719,0.488,0
1582059272.985,16.602,-970.703,17.578,-1.953,0
1582059272.989,16.602,-916.016,23.438,23.438,0
1582059272.993,24.414,-651.855,21.973,27.832,0
1582059272.997,29.785,-709.961,10.742,4.883,0
1582059272.999,14.160,-867.188,13.184,11.230,0
1582059273.003,-0.488,-771.484,22.461,16.113,0
1582059273.007,-6.348,-720.703,15.137,6.348,0
1582059273.011,5.371,-722.656,16.602,19.531,0
1582059273.015,3.906,-727.051,12.207,5.859,0
1582059273.019,4.883,-863.770,3.418,-7.812,0
1582059273.023,18.555,-971.680,4.883,15.137,0
1582059273.026,21.973,-952.148,12.695,16.113,0
1582059273.030,26.367,-921.875,25.391,2.930,0
1582059273.034,18.066,-757.812,25.391,14.648,0
1582059273.038,16.602,-701.660,17.090,23.926,0
1582059273.042,25.391,-705.566,23.926,26.855,0
1582059273.044,28.809,-684.570,32.715,22.461,0
1582059273.048,5.859,-684.082,23.438,4.395,0
1582059273.052,6.348,-743.652,11.719,20.020,0
1582059273.056,21.973,-821.777,18.066,29.785,0
1582059273.060,22.949,-723.145,15.625,15.625,0
1582059273.064,17.090,-808.594,14.160,2.441,0
1582059273.068,9.766,-943.359,14.648,-1.465,0
1582059273.071,11.719,-958.496,5.859,14.648,0
1582059273.075,25.879,-831.055,15.137,18.555,0
1582059273.079,21.484,-764.648,21.484,7.324,0
1582059273.083,10.254,-918.945,17.578,8.301,0
1582059273.087,3.418,-879.883,17.578,2.441,0
1582059273.090,6.348,-648.926,16.602,-13.672,0
1582059273.094,-6.836,-641.113,19.043,-8.301,0
1582059273.098,-7.324,-797.363,19.531,-9.277,0
1582059273.102,25.391,-796.875,11.719,-9.277,0
1582059273.106,27.344,-667.969,11.719,7.812,0
1582059273.110,13.184,-716.797,18.555,-0.488,0
1582059273.114,-4.883,-913.086,17.578,-12.207,0
1582059273.117,0.000,-928.711,17.578,-9.277,0
1582059273.121,-1.953,-799.316,13.184,-4.395,0
1582059273.125,3.906,-697.266,8.301,-5.859,0
1582059273.129,6.348,-750.000,13.672,-8.789,0
1582059273.133,2.930,-791.992,16.602,-16.113,0
1582059273.134,8.789,-790.039,27.344,-7.812,0
1582059273.138,1.953,-862.305,28.809,9.766,0
1582059273.142,10.254,-903.320,15.625,15.625,0
1582059273.146,9.277,-856.934,7.324,11.719,0
1582059273.150,0.977,-743.164,10.742,8.789,0
1582059273.154,-0.977,-854.004,24.902,0.488,0
1582059273.158,-10.254,-975.098,28.320,-3.418,0
1582059273.161,-7.812,-851.562,18.555,0.488,0
1582059273.165,6.836,-735.840,18.555,4.883,0
1582059273.169,13.184,-761.719,22.949,1.465,0
1582059273.173,0.000,-801.758,19.043,-11.719,0
1582059273.177,9.277,-774.414,18.066,1.953,0
1582059273.194,18.066,-763.672,18.555,10.742,0
1582059273.198,7.324,-785.156,15.137,-2.441,0
1582059273.202,4.883,-738.281,8.789,-7.812,0
1582059273.206,0.488,-740.234,7.324,-2.441,0
1582059273.210,3.418,-874.023,10.254,-1.465,0
1582059273.214,8.789,-938.477,8.301,0.000,0
1582059273.218,5.371,-974.609,19.043,3.906,0
1582059273.221,0.977,-845.215,24.902,3.418,0
1582059273.225,5.371,-756.836,11.230,1.465,0
1582059273.229,4.883,-926.270,4.395,-5.859,0
1582059273.233,-9.766,-892.578,16.113,-0.488,0
1582059273.237,-4.883,-610.352,23.438,1.953,0
1582059273.239,8.789,-593.750,18.066,6.348,0
1582059273.243,2.441,-783.691,23.926,15.625,0
1582059273.247,2.441,-744.629,26.855,20.996,0
1582059273.251,6.836,-644.531,19.531,14.160,0
1582059273.255,0.488,-714.844,20.508,3.906,0
1582059273.259,-2.441,-892.578,22.949,-7.812,0
1582059273.263,3.906,-1000.000,16.602,-12.695,0
1582059273.266,9.766,-904.297,17.578,0.488,0
1582059273.270,-8.789,-840.332,15.137,-1.465,0
1582059273.274,-16.602,-953.125,9.766,1.465,0
1582059273.278,-7.324,-797.852,8.301,16.113,0
1582059273.282,14.648,-554.688,1.953,15.625,0
1582059273.284,7.812,-665.527,6.348,13.184,0
1582059273.288,-8.301,-781.250,11.230,13.672,0
1582059273.292,-3.418,-679.688,19.043,-0.977,0
1582059273.296,-0.488,-632.812,27.832,-8.789,0
1582059273.300,3.906,-708.496,25.879,-4.395,0
1582059273.304,-3.906,-886.230,20.508,8.789,0
1582059273.308,1.465,-997.070,23.438,22.949,0
1582059273.311,13.184,-845.703,25.391,22.461,0
1582059273.315,5.859,-824.707,22.461,3.906,0
1582059273.319,-0.977,-1000.000,22.461,4.395,0
1582059273.323,-6.348,-869.629,16.602,15.625,0
1582059273.327,11.719,-661.621,11.230,10.254,0
1582059273.328,26.855,-689.453,19.531,16.602,0
1582059273.332,0.977,-687.500,19.531,10.742,0
1582059273.336,-5.371,-678.711,7.812,-3.906,0
1582059273.340,-1.465,-714.844,9.766,-0.977,0
1582059273.344,-0.488,-700.195,12.207,2.441,0
1582059273.348,5.859,-778.320,18.555,-5.371,0
1582059273.352,-3.418,-869.629,22.461,-12.207,0
1582059273.355,-18.066,-811.523,20.020,-18.555,0
1582059273.359,-16.113,-874.023,19.043,-7.812,0
1582059273.363,0.000,-732.910,18.066,4.395,0
1582059273.367,5.371,-587.891,17.090,16.602,0
1582059273.371,-2.930,-741.699,15.137,17.090,0
1582059273.373,4.883,-823.730,15.625,6.836,0
1582059273.377,10.742,-777.344,15.137,-9.766,0
1582059273.381,25.879,-674.316,16.602,-6.836,0
1582059273.385,13.184,-712.891,15.625,-4.883,0
1582059273.389,11.719,-753.418,8.301,-3.906,0
1582059273.393,18.555,-743.164,6.836,4.395,0
1582059273.397,-1.953,-791.016,10.742,2.930,0
1582059273.400,6.836,-895.508,6.348,-3.906,0
1582059273.404,15.137,-917.480,-0.977,-9.277,0
1582059273.408,2.930,-679.199,11.719,4.883,0
1582059273.412,9.277,-585.449,23.438,10.254,0
1582059273.416,6.348,-678.711,20.508,2.930,0
1582059273.419,-7.812,-708.008,14.648,-5.371,0
1582059273.423,18.555,-643.555,19.043,-15.137,0
1582059273.427,22.461,-640.625,23.926,-15.625,0
1582059273.431,-4.883,-818.359,22.461,-12.207,0
1582059273.435,2.930,-868.652,17.090,-6.836,0
1582059273.439,12.207,-790.039,13.672,-0.977,0
1582059273.443,10.254,-852.539,14.160,3.906,0
1582059273.446,7.812,-958.984,11.230,-4.395,0
1582059273.450,-4.395,-850.586,17.578,-22.949,0
1582059273.454,11.719,-666.016,24.414,-9.766,0
1582059273.458,30.762,-734.863,17.090,1.953,0
1582059273.462,20.020,-810.547,15.137,-10.742,0
1582059273.463,0.000,-745.605,16.602,-2.930,0
1582059273.467,3.906,-708.984,18.066,-0.977,0
1582059273.471,21.973,-729.980,16.602,-5.371,0
1582059273.475,23.926,-744.629,11.719,-4.883,0
1582059273.479,3.906,-658.203,12.207,-4.395,0
1582059273.483,-16.602,-806.641,11.719,-18.066,0
1582059273.487,-19.043,-996.582,10.254,-30.762,0
1582059273.490,-1.465,-921.387,12.207,-28.320,0
1582059273.494,-9.766,-720.703,12.695,-16.602,0
1582059273.498,-21.484,-728.516,14.648,-26.367,0
1582059273.502,-17.090,-853.516,16.113,-28.809,17010
1582059273.506,0.977,-685.547,14.648,-27.832,0
1582059273.508,7.812,-577.637,12.695,-20.996,0
1582059273.512,-14.648,-724.121,14.160,-19.043,0
1582059273.516,-23.926,-821.777,13.184,-36.621,0
1582059273.520,1.953,-657.227,9.766,-29.297,0
1582059273.524,4.883,-542.969,8.789,-16.602,0
1582059273.528,-12.695,-773.926,8.301,-8.301,0
1582059273.532,-8.301,-988.281,6.836,-5.859,0
1582059273.535,-0.977,-840.332,6.836,-15.625,0
1582059273.539,8.789,-557.129,9.766,-11.719,0
1582059273.543,9.277,-687.988,18.066,2.441,0
1582059273.547,10.254,-845.215,23.926,8.789,0
1582059273.551,9.277,-676.270,20.508,4.395,0
1582059273.568,-2.930,-555.176,19.043,-6.836,0
1582059273.572,-18.066,-681.152,13.184,-4.883,0
1582059273.576,-7.324,-803.223,7.812,-5.859,0
1582059273.580,-0.977,-674.316,12.695,-7.324,0
1582059273.584,-10.742,-620.605,12.207,-1.953,0
1582059273.588,-12.695,-814.941,5.859,-20.996,0
1582059273.592,-26.855,-1000.000,9.277,-38.574,0
1582059273.595,-6.836,-895.508,13.184,-21.484,0
1582059273.599,-2.441,-708.984,6.836,-10.254,0
1582059273.603,-11.230,-828.613,8.301,-8.789,0
1582059273.607,7.812,-961.914,11.230,-5.859,0
1582059273.611,-3.418,-788.086,6.836,-20.020,0
1582059273.613,-7.812,-790.527,5.371,-25.879,0
1582059273.617,-6.348,-875.977,10.254,-42.969,0
1582059273.621,-25.879,-840.820,3.906,-70.312,0
1582059273.625,-22.949,-812.012,-3.906,-53.711,0
1582059273.629,-26.855,-799.805,3.906,-49.805,0
1582059273.633,-20.508,-896.973,9.277,-15.137,0
1582059273.637,-18.555,-993.652,8.789,-4.395,0
1582059273.640,-29.785,-905.762,6.348,-40.039,0
1582059273.644,-19.043,-810.059,6.836,-35.156,0
1582059273.648,3.418,-946.777,4.395,-27.344,0
1582059273.652,11.230,-903.320,2.441,-18.066,0
1582059273.656,-3.418,-767.090,4.395,-6.348,0
1582059273.658,-6.836,-892.090,6.836,-18.066,0
1582059273.662,5.859,-919.434,7.324,-8.301,0
1582059273.666,10.254,-714.355,2.930,-2.930,0
1582059273.670,5.371,-763.184,-2.930,-20.020,0
1582059273.674,-5.371,-953.125,-6.348,-30.762,0
1582059273.678,-11.230,-952.148,-4.395,-26.367,0
1582059273.682,4.395,-948.242,2.441,-19.043,0
1582059273.685,0.977,-913.574,-3.906,-40.039,0
1582059273.689,-19.531,-922.363,-10.254,-43.945,0
1582059273.693,-1.465,-928.223,-3.906,-25.391,0
1582059273.697,0.488,-708.008,0.000,-16.602,0
1582059273.701,-3.906,-657.715,-5.859,-19.043,0
1582059273.704,-11.719,-834.473,-8.301,-17.578,0
1582059273.708,-17.090,-840.820,-1.465,-4.395,0
1582059273.712,5.371,-699.219,-0.488,-14.160,0
1582059273.716,6.836,-785.645,-0.977,-27.832,0
1582059273.720,-19.043,-965.820,-1.465,-35.645,0
1582059273.724,-22.461,-972.656,-0.977,-39.551,0
1582059273.728,2.930,-967.773,-3.418,-27.832,0
1582059273.731,-3.906,-968.750,-3.418,-13.184,0
1582059273.735,-7.812,-975.586,-2.441,-12.695,0
1582059273.739,5.371,-945.312,-4.395,-1.465,0
1582059273.743,-1.953,-771.484,-4.395,-10.254,0
1582059273.747,-14.648,-787.109,-4.395,-32.715,0
1582059273.749,-2.441,-932.617,-4.395,-2.441,0
1582059273.753,-0.977,-866.211,-3.418,13.672,0
1582059273.757,2.441,-815.430,-0.488,9.277,0
1582059273.761,24.414,-835.938,-2.930,18.066,0
1582059273.765,20.508,-888.184,-2.930,3.906,0
1582059273.769,8.789,-956.055,0.977,-11.719,0
1582059273.773,5.859,-969.238,2.441,-7.812,0
1582059273.776,4.395,-974.121,1.953,-11.230,0
1582059273.780,-0.488,-909.668,0.000,-18.066,0
1582059273.784,3.418,-899.902,-1.953,-14.648,0
1582059273.788,3.418,-900.879,-2.930,6.348,0
1582059273.792,-3.418,-822.754,2.441,21.484,0
1582059273.794,-22.461,-769.043,6.836,0.488,0
1582059273.798,-21.484,-756.348,0.977,-16.113,0
1582059273.802,-11.719,-904.785,1.465,-2.441,0
1582059273.806,-8.301,-940.918,0.000,15.137,0
1582059273.810,-2.930,-870.605,-10.742,16.602,0
1582059273.814,0.977,-943.359,-5.859,-1.465,0
1582059273.818,0.977,-976.562,6.348,-14.160,0
1582059273.821,0.488,-981.445,7.324,-9.766,0
1582059273.825,0.000,-842.773,2.930,-4.883,0
1582059273.829,-12.207,-719.727,5.859,-14.160,0
1582059273.833,-9.766,-861.816,6.836,-25.391,0
1582059273.837,-0.977,-869.141,-0.977,-10.254,0
1582059273.854,-2.441,-865.723,-1.465,0.977,0
1582059273.858,3.418,-919.922,0.000,-7.812,0
1582059273.862,-1.465,-937.988,-0.977,-20.508,0
1582059273.866,-14.648,-916.504,1.953,0.000,0
1582059273.870,-9.277,-718.750,1.953,1.953,0
1582059273.874,9.766,-836.914,-1.953,-25.391,0
1582059273.878,5.371,-997.070,-0.977,-29.297,0
1582059273.881,-12.695,-940.430,3.906,-24.902,0
1582059273.885,-3.906,-784.180,9.277,-5.371,0
1582059273.889,11.719,-659.668,2.930,-14.160,0
1582059273.893,9.766,-747.559,-4.883,-6.348,0
1582059273.897,-3.906,-871.582,1.465,0.977,0
1582059273.884,5.371,-807.617,6.348,-11.230,0
1582059273.888,20.020,-777.832,5.859,-15.625,0
1582059273.892,9.277,-892.578,2.930,-19.531,0
1582059273.896,-2.441,-961.914,2.930,-6.836,0
1582059273.900,0.488,-965.332,4.883,6.348,0
1582059273.904,17.578,-966.797,2.441,-2.441,0
1582059273.908,11.719,-972.656,3.906,-6.348,0
1582059273.911,-16.113,-964.844,5.371,9.277,0
1582059273.915,-3.906,-866.699,4.883,16.113,0
1582059273.919,7.324,-854.980,10.254,-12.695,0
1582059273.923,-0.977,-977.051,17.578,-22.949,0
1582059273.927,-8.789,-936.035,18.555,-12.695,0
1582059273.944,-16.113,-807.129,17.578,-4.395,0
1582059273.948,-7.324,-830.566,16.602,-3.906,0
1582059273.952,6.836,-806.641,16.602,-0.488,0
1582059273.956,1.465,-684.570,13.672,-5.859,0
1582059273.960,-8.301,-795.898,13.672,-2.930,0
1582059273.964,-3.418,-946.289,18.066,-14.160,0
1582059273.968,4.395,-970.703,16.602,-14.648,0
1582059273.971,4.883,-981.934,15.625,1.953,0
1582059273.975,-15.625,-892.090,12.695,-4.883,0
1582059273.979,-14.160,-902.344,7.324,-13.184,0
1582059273.983,-6.836,-886.230,9.277,-22.461,0
1582059273.987,-25.391,-680.176,12.695,-9.766,0
1582059273.989,-19.043,-736.328,9.766,0.977,0
1582059273.993,-13.184,-877.441,6.348,-4.395,0
1582059273.997,-12.207,-818.848,9.766,-12.207,0
1582059274.001,-11.719,-712.402,10.742,-10.254,0
1582059274.005,-9.766,-735.840,6.836,-3.906,0
1582059274.009,-5.371,-907.227,8.301,3.906,0
1582059274.013,4.883,-1000.000,12.207,11.719,0
1582059274.016,9.277,-910.156,11.719,5.371,0
1582059274.020,-1.953,-846.680,10.742,7.812,0
1582059274.024,1.465,-972.168,10.742,-1.465,0
1582059274.028,1.953,-944.824,10.742,-11.719,0
1582059274.032,5.371,-758.789,4.883,3.418,0
1582059274.034,10.254,-820.801,6.348,12.695,0
1582059274.038,2.930,-907.715,14.160,4.395,0
1582059274.042,7.324,-775.391,10.742,-4.395,0
1582059274.046,14.160,-683.105,10.742,-5.859,0
1582059274.050,2.441,-787.109,13.184,-22.949,0
1582059274.054,-2.441,-954.590,14.160,-27.832,0
1582059274.058,6.836,-991.699,11.230,-4.395,0
1582059274.061,16.602,-894.531,1.465,5.371,0
1582059274.065,0.977,-884.277,0.977,3.418,0
1582059274.069,-6.348,-910.156,10.254,10.254,0
1582059274.073,1.953,-705.078,12.207,3.418,0
1582059274.077,-5.859,-628.418,7.812,-16.113,0
1582059274.079,2.930,-720.703,8.301,-15.137,0
1582059274.083,17.090,-746.094,9.766,0.000,0
1582059274.087,0.977,-714.355,8.301,-5.371,0
1582059274.091,-3.906,-787.109,5.371,-11.719,0
1582059274.095,13.184,-788.574,9.766,-5.371,0
1582059274.099,3.418,-835.449,14.160,-8.301,0
1582059274.103,-6.836,-945.801,13.184,-20.996,0
1582059274.106,2.930,-912.598,11.230,-9.766,0
1582059274.110,2.930,-948.730,15.137,-3.418,0
1582059274.114,13.672,-848.145,19.531,-19.043,0
1582059274.118,6.348,-674.805,14.648,-8.789,0
1582059274.122,-8.789,-763.184,11.719,0.488,0
1582059274.124,8.789,-791.504,14.648,-11.719,0
1582059274.128,8.789,-660.645,13.672,-2.930,0
1582059274.132,0.488,-742.676,10.742,-1.465,0
1582059274.136,4.883,-900.879,10.742,-5.859,0
1582059274.140,15.137,-857.422,11.719,0.977,0
1582059274.144,10.254,-837.891,10.742,-7.812,0
1582059274.148,-4.883,-846.191,11.719,-9.766,0
1582059274.151,0.977,-865.723,14.160,-15.137,0
1582059274.155,9.277,-968.750,14.160,-26.855,0
1582059274.159,9.766,-742.188,8.301,-11.230,0
1582059274.163,-2.930,-577.148,6.836,-1.953,0
1582059274.167,-8.301,-765.137,12.207,-15.137,0
1582059274.169,-4.395,-828.613,14.648,-32.227,0
1582059274.173,2.930,-746.582,13.184,-35.645,0
1582059274.177,-2.930,-729.004,12.695,-16.113,0
1582059274.181,-17.578,-854.004,14.648,2.441,0
1582059274.185,-8.789,-794.922,11.230,-16.113,0
1582059274.189,12.207,-773.926,6.836,-26.367,0
1582059274.193,16.113,-918.945,10.742,-18.066,0
1582059274.196,1.465,-974.121,14.648,-10.742,0
1582059274.200,-5.859,-940.430,14.160,-1.953,0
1582059274.204,-3.418,-774.902,15.625,3.418,0
1582059274.208,8.301,-783.203,17.578,-20.996,0
1582059274.212,0.977,-865.234,14.160,-37.109,0
1582059274.214,-8.789,-791.992,11.230,-13.184,0
1582059274.218,0.488,-728.027,12.207,-15.137,0
1582059274.222,-1.465,-746.094,11.230,-9.277,0
1582059274.226,-16.602,-737.793,11.719,-20.020,0
1582059274.230,-11.230,-739.258,14.648,-39.551,0
1582059274.234,0.977,-917.480,10.742,-18.555,0
1582059274.238,0.977,-996.094,7.324,-18.066,0
1582059274.241,8.789,-912.109,10.742,0.000,0
1582059274.245,8.789,-760.742,9.277,8.301,0
1582059274.249,6.836,-842.773,8.789,-15.137,0
1582059274.253,14.160,-937.500,9.277,-3.418,0
1582059274.257,20.996,-754.395,8.301,0.000,0
1582059274.259,19.531,-672.852,10.742,-12.207,0
1582059274.263,8.789,-753.418,7.812,3.906,0
1582059274.267,17.090,-828.125,10.742,8.789,0
1582059274.271,19.531,-791.992,10.742,-3.906,0
1582059274.275,-2.441,-719.238,5.859,4.883,0
1582059274.279,-12.695,-855.957,7.324,-0.488,0
1582059274.283,9.277,-999.023,9.766,-23.438,0
1582059274.286,12.695,-834.473,9.766,-17.090,0
1582059274.290,5.859,-617.188,11.230,-2.930,0
1582059274.294,10.254,-760.254,9.766,-17.090,0
1582059274.298,0.488,-898.438,12.695,-15.137,0
1582059274.302,0.977,-790.039,11.719,-11.719,0
1582059274.319,-2.441,-727.539,4.883,-13.184,0
1582059274.323,-9.277,-806.641,7.812,-1.465,0
1582059274.327,-19.531,-875.488,10.254,1.953,0
1582059274.331,-13.672,-784.668,15.137,3.418,0
1582059274.335,-11.719,-700.195,15.625,-14.160,0
1582059274.339,-28.320,-832.031,9.766,-28.809,0
1582059274.343,-20.020,-998.535,11.230,-31.250,0
1582059274.346,-17.578,-922.363,16.113,-20.020,0
1582059274.350,-27.344,-730.469,15.625,-10.742,0
1582059274.354,-22.461,-829.590,12.695,-34.668,0
1582059274.358,0.000,-960.449,13.672,-35.645,0
1582059274.362,-2.441,-848.145,13.184,-10.742,0
1582059274.364,3.418,-802.734,11.230,-12.207,0
1582059274.368,15.625,-829.102,14.160,-10.742,0
1582059274.372,2.930,-793.457,14.648,0.000,0
1582059274.376,-0.488,-866.211,14.160,-8.789,0
1582059274.380,3.906,-877.441,15.625,1.465,0
1582059274.384,1.953,-903.809,13.184,8.789,0
1582059274.388,3.418,-982.910,17.578,23.438,0
1582059274.391,20.020,-963.867,23.926,23.926,0
1582059274.395,17.578,-928.711,25.879,6.348,0
1582059274.399,17.090,-953.125,24.414,12.207,0
1582059274.403,6.836,-820.801,22.949,0.977,0
1582059274.407,5.859,-657.715,26.367,13.184,0
1582059274.409,20.508,-809.570,25.879,14.648,0
1582059274.413,0.000,-902.832,25.391,3.906,0
1582059274.417,5.859,-750.488,28.809,17.578,0
1582059274.421,23.438,-740.723,25.391,21.973,0
1582059274.425,9.766,-854.004,20.996,25.879,0
1582059274.429,10.742,-887.207,22.949,12.695,0
1582059274.433,10.254,-883.301,23.438,-0.488,0
1582059274.436,0.000,-959.473,19.531,11.719,0
1582059274.440,6.348,-973.633,18.066,23.438,0
1582059274.444,7.812,-937.012,15.137,30.762,0
1582059274.448,14.160,-792.969,14.160,17.578,0
1582059274.452,11.719,-729.004,11.719,11.719,0
1582059274.453,8.789,-878.906,11.719,10.254,0
1582059274.457,15.137,-841.797,14.160,5.859,0
1582059274.461,15.137,-639.160,14.160,0.977,0
1582059274.465,9.277,-647.461,19.531,-6.348,0
1582059274.469,3.418,-842.285,22.461,-0.488,0
1582059274.473,8.789,-952.637,23.438,0.000,0
1582059274.477,25.879,-949.219,24.414,7.812,0
1582059274.480,6.348,-873.535,20.508,9.277,0
1582059274.484,-10.254,-938.965,23.438,3.906,0
1582059274.488,-5.371,-955.566,24.414,-0.488,0
1582059274.492,-2.930,-740.234,20.508,-8.789,0
1582059274.496,0.488,-704.102,16.602,3.906,0
1582059274.498,-8.789,-782.715,14.160,13.184,0
1582059274.502,-13.184,-772.461,17.578,-5.859,0
1582059274.506,-2.930,-748.047,23.926,-9.766,0
1582059274.510,14.160,-790.039,21.484,20.508,0
1582059274.514,1.465,-802.734,19.531,0.000,0
1582059274.518,-16.602,-835.449,22.949,-13.184,0
1582059274.522,-7.812,-972.168,22.461,9.766,0
1582059274.525,-1.953,-971.191,21.484,-9.277,0
1582059274.529,7.324,-920.410,22.949,-17.578,0
1582059274.533,6.836,-799.316,22.461,5.371,0
1582059274.537,4.395,-713.867,22.461,6.836,0
1582059274.541,13.184,-760.254,19.531,-8.789,0
1582059274.543,14.160,-856.934,18.066,-5.859,0
1582059274.547,37.109,-804.688,20.020,32.227,0
1582059274.551,34.180,-818.359,17.578,20.020,0
1582059274.555,6.348,-948.242,17.090,-4.395,0
1582059274.559,26.367,-846.191,13.184,5.371,0
1582059274.563,23.438,-882.324,6.348,-7.324,0
1582059274.567,4.395,-988.770,8.301,-16.113,0
1582059274.570,0.000,-966.309,13.184,-16.113,0
1582059274.574,-4.395,-821.289,11.719,-9.277,0
1582059274.578,4.883,-663.574,11.719,-12.695,0
1582059274.582,20.020,-808.594,15.137,-11.719,0
1582059274.586,16.602,-888.184,15.137,1.953,0
1582059274.588,15.625,-700.684,12.695,-15.625,0
1582059274.592,14.160,-614.746,16.113,-16.602,0
1582059274.596,15.137,-798.340,17.578,0.488,0
1582059274.600,8.789,-965.820,14.160,-2.930,0
1582059274.604,30.273,-841.797,9.766,-8.301,0
1582059274.608,31.250,-877.441,6.836,-21.484,0
1582059274.612,3.906,-982.422,7.324,-16.602,0
1582059274.615,12.207,-956.543,14.648,4.883,0
1582059274.619,25.879,-795.898,20.020,-2.930,0
1582059274.623,10.742,-626.953,18.066,-19.531,0
1582059274.627,3.906,-749.023,18.066,-18.555,0
1582059274.631,9.277,-838.867,15.137,-13.184,0
1582059274.633,15.137,-772.461,15.137,-14.648,0
1582059274.637,16.602,-719.727,18.555,-1.953,17705
1582059274.641,7.324,-825.195,19.531,3.418,0
1582059274.645,-2.441,-850.586,15.137,-15.625,0
1582059274.649,-1.953,-812.012,11.719,-8.301,0
1582059274.653,22.461,-922.852,14.648,2.441,0
1582059274.657,12.207,-981.934,16.602,-18.555,0
1582059274.660,-15.625,-941.895,11.719,-14.160,0
1582059274.664,-2.930,-832.520,9.277,-14.160,0
1582059274.668,15.137,-794.434,10.254,-19.531,0
1582059274.672,3.906,-808.594,10.742,-6.348,0
1582059274.676,-22.461,-753.906,8.789,-2.441,0
1582059274.693,-5.859,-724.609,12.695,10.254,0
1582059274.697,0.000,-812.988,14.160,-2.441,0
1582059274.701,-4.395,-840.332,6.348,-30.273,0
1582059274.705,2.441,-791.016,8.301,-28.809,0
1582059274.709,-4.395,-823.242,11.230,-21.973,0
1582059274.713,-4.883,-900.879,9.277,-11.230,0
1582059274.717,16.602,-993.652,10.254,-3.418,0
1582059274.720,3.906,-905.762,10.254,-7.812,0
1582059274.724,-7.812,-779.785,9.766,-9.277,0
1582059274.728,0.000,-902.832,11.230,-5.371,0
1582059274.732,16.113,-942.871,9.766,3.418,0
1582059274.736,8.789,-763.672,10.254,-16.113,0
1582059274.738,10.742,-755.371,12.695,-8.789,0
1582059274.742,15.625,-901.855,15.137,12.695,0
1582059274.746,0.977,-813.965,13.672,4.883,0
1582059274.750,-5.859,-651.855,5.371,-14.648,0
1582059274.754,-2.441,-712.402,7.324,-20.996,0
1582059274.758,1.953,-886.719,9.277,-18.066,0
1582059274.762,-4.883,-966.797,7.812,-2.441,0
1582059274.765,-3.418,-884.766,10.254,7.324,0
1582059274.769,2.930,-836.914,11.230,-3.418,0
1582059274.773,0.977,-977.539,15.137,7.812,0
1582059274.777,-6.348,-896.973,19.043,4.395,0
1582059274.781,2.930,-750.977,15.625,-31.250,0
1582059274.783,13.184,-908.203,15.625,-16.602,0
1582059274.787,3.418,-983.887,16.113,3.906,0
1582059274.791,-8.301,-971.191,10.254,-5.859,0
1582059274.795,1.953,-943.848,7.324,-4.395,0
1582059274.799,7.324,-936.035,10.254,-14.648,0
1582059274.803,-11.719,-971.191,10.254,-17.090,0
1582059274.807,-3.906,-983.398,15.625,1.953,0
1582059274.810,17.090,-935.059,17.578,11.230,0
1582059274.814,14.648,-911.133,15.137,2.930,0
1582059274.818,8.789,-972.168,19.531,-14.648,0
1582059274.822,12.695,-904.297,19.531,-14.160,0
1582059274.826,17.090,-842.285,14.160,-10.254,0
1582059274.828,22.461,-901.855,13.184,-8.789,0
1582059274.832,16.602,-858.398,20.508,8.301,0
1582059274.836,19.531,-839.355,20.996,6.836,0
1582059274.840,26.855,-969.238,16.113,14.160,0
1582059274.844,19.531,-923.340,11.719,22.461,0
1582059274.848,22.949,-892.090,11.230,4.395,0
1582059274.852,17.578,-961.914,9.277,9.766,0
1582059274.855,23.926,-962.891,11.719,7.812,0
1582059274.859,24.902,-963.379,15.137,-4.395,0
1582059274.863,17.578,-938.477,14.648,9.766,0
1582059274.867,20.996,-797.852,15.625,20.996,0
1582059274.871,18.066,-807.617,14.160,7.324,0
1582059274.874,39.551,-871.582,13.672,2.930,0
1582059274.878,49.316,-687.988,15.625,13.184,0
1582059274.882,14.160,-708.984,17.090,5.859,0
1582059274.886,11.719,-902.832,16.113,9.766,0
1582059274.890,17.090,-878.906,15.137,14.160,0
1582059274.894,27.832,-894.531,14.648,5.859,0
1582059274.898,39.062,-977.051,11.719,16.113,0
1582059274.901,24.902,-976.562,16.113,9.277,0
1582059274.905,11.719,-937.012,20.996,-20.508,0
1582059274.909,6.348,-734.863,18.066,-4.395,0
1582059274.913,7.324,-653.320,17.578,7.324,0
1582059274.917,3.906,-852.051,19.043,8.789,0
1582059274.919,-7.324,-903.809,14.648,13.672,0
1582059274.923,-0.977,-719.727,14.160,-10.254,0
1582059274.927,11.719,-675.293,13.672,-17.578,0
1582059274.931,-8.789,-819.336,11.719,-12.695,0
1582059274.935,-12.207,-795.410,9.766,-13.184,0
1582059274.939,7.324,-833.008,8.789,-4.883,0
1582059274.943,9.766,-934.570,10.254,-3.418,0
1582059274.946,6.836,-951.660,9.766,-5.371,0
1582059274.950,0.000,-952.148,12.695,0.488,0
1582059274.954,-7.812,-845.703,11.230,-15.137,0
1582059274.958,4.395,-760.254,7.812,-14.648,0
1582059274.962,8.301,-814.453,9.766,-3.906,0
1582059274.964,-20.020,-763.672,10.254,-10.254,0
1582059274.968,-8.789,-691.895,13.184,-6.836,0
1582059274.972,14.648,-780.273,15.625,2.930,0
1582059274.976,13.672,-791.016,11.719,2.441,0
1582059274.980,18.066,-731.445,7.812,-12.695,0
1582059274.984,2.441,-886.230,9.277,-14.648,0
1582059274.988,11.230,-990.234,15.137,-11.719,0
1582059274.991,24.902,-924.805,15.137,-5.859,0
1582059274.995,15.625,-812.500,11.719,0.000,0
1582059274.999,8.301,-793.945,14.160,3.906,0
1582059275.003,3.906,-853.027,16.602,18.555,0
1582059275.007,22.461,-811.523,16.113,0.977,0
1582059275.009,9.277,-800.781,15.625,3.906,0
1582059275.013,3.418,-804.688,8.789,-1.953,0
1582059275.017,12.207,-828.125,6.348,-17.090,0
1582059275.021,12.207,-752.930,10.742,-12.207,0
1582059275.025,19.043,-729.492,14.648,-6.348,0
1582059275.029,8.301,-912.598,13.672,-5.859,0
1582059275.033,-1.953,-987.305,10.254,-8.301,0
1582059275.036,14.648,-873.535,7.812,0.977,0
1582059275.040,25.391,-695.801,7.812,11.719,0
1582059275.044,10.742,-709.473,11.719,3.418,0
1582059275.048,5.859,-798.828,12.207,-2.930,0
1582059275.052,9.766,-717.285,10.742,3.906,0
1582059275.069,19.043,-675.781,9.277,-2.441,0
1582059275.073,18.066,-800.293,11.719,-3.906,0
1582059275.077,18.555,-948.242,12.695,10.254,0
1582059275.081,22.949,-878.906,12.695,22.949,0
1582059275.085,23.438,-683.105,12.207,7.812,0
1582059275.089,17.090,-801.270,8.301,-0.977,0
1582059275.093,9.766,-999.512,12.207,3.418,0
1582059275.096,18.066,-941.895,15.625,-0.488,0
1582059275.100,42.969,-780.762,10.254,8.789,0
1582059275.104,33.691,-838.867,8.789,8.301,0
1582059275.108,9.766,-944.336,10.742,7.324,0
1582059275.112,10.254,-784.180,14.648,2.930,0
1582059275.114,19.043,-703.613,13.672,4.395,0
1582059275.118,31.738,-751.953,13.672,8.789,0
1582059275.122,25.879,-742.676,17.578,6.836,0
1582059275.126,22.949,-689.453,18.066,-6.836,0
1582059275.130,14.160,-676.758,19.043,-8.789,0
1582059275.134,16.602,-801.758,16.602,-10.742,0
1582059275.138,9.277,-958.496,13.184,-21.973,0
1582059275.141,6.836,-968.262,10.254,-13.184,0
1582059275.145,13.672,-913.086,11.230,-4.395,0
1582059275.149,10.742,-952.148,18.066,-3.418,0
1582059275.153,8.789,-869.141,19.043,0.000,0
1582059275.157,0.000,-703.613,16.602,-2.930,0
1582059275.159,0.488,-786.133,15.137,-13.184,0
1582059275.163,19.043,-766.602,14.648,-5.371,0
1582059275.167,8.789,-599.609,11.719,-10.254,0
1582059275.171,-6.348,-602.539,11.719,-18.066,0
1582059275.175,10.742,-791.016,18.066,6.348,0
1582059275.179,8.789,-904.297,21.484,20.996,0
1582059275.183,1.465,-930.176,18.555,12.207,0
1582059275.186,6.836,-907.715,17.578,-12.207,0
1582059275.190,16.113,-876.953,21.484,-10.254,0
1582059275.194,10.742,-975.586,20.020,3.906,0
1582059275.198,-8.301,-845.215,16.602,-7.812,0
1582059275.202,-0.488,-693.848,20.996,7.324,0
1582059275.204,3.418,-771.973,16.602,13.672,0
1582059275.208,5.859,-748.535,13.672,5.859,0
1582059275.212,6.836,-622.070,19.531,3.418,0
1582059275.216,7.812,-664.551,18.555,-18.066,0
1582059275.220,7.812,-841.797,15.625,-16.602,0
1582059275.224,-9.277,-946.777,18.066,-1.953,0
1582059275.228,7.812,-919.922,16.602,4.395,0
1582059275.231,9.766,-934.082,14.160,6.348,0
1582059275.235,7.324,-958.496,13.672,-0.977,0
1582059275.239,10.254,-848.633,13.672,-2.930,0
1582059275.243,-7.812,-676.270,13.672,-19.531,0
1582059275.247,-2.930,-724.121,8.789,-23.926,0
1582059275.249,12.695,-875.977,12.207,-12.207,0
1582059275.253,4.395,-787.598,14.160,-4.395,0
1582059275.257,2.441,-732.422,12.207,7.812,0
1582059275.261,-0.977,-795.898,11.719,12.207,0
1582059275.265,-0.488,-784.668,8.301,-0.977,0
1582059275.269,7.324,-859.863,9.766,-3.906,0
1582059275.273,16.602,-913.086,12.695,7.324,0
1582059275.276,25.879,-894.043,19.043,16.113,0
1582059275.280,17.090,-925.781,19.531,14.648,0
1582059275.284,1.465,-799.805,16.113,-0.488,0
1582059275.288,3.906,-768.066,18.555,2.930,0
1582059275.292,4.883,-771.973,12.695,6.348,0
1582059275.294,14.160,-721.191,14.648,-2.930,0
1582059275.298,12.207,-676.270,17.090,0.977,0
1582059275.302,-11.230,-861.816,16.602,8.301,0
1582059275.306,6.348,-908.203,17.578,5.859,0
1582059275.310,3.418,-668.945,16.113,1.465,0
1582059275.314,14.160,-776.367,11.719,-3.418,0
1582059275.318,18.555,-960.449,10.742,-7.324,0
1582059275.321,6.348,-971.191,11.719,-10.254,0
1582059275.325,12.695,-805.664,8.789,-7.324,0
1582059275.329,2.441,-599.121,13.672,1.953,0
1582059275.333,-1.465,-725.586,18.066,7.812,0
1582059275.337,6.348,-808.105,19.531,11.230,0
1582059275.339,3.418,-676.758,15.625,12.695,0
1582059275.343,23.926,-664.551,13.672,4.395,0
1582059275.347,23.926,-790.527,18.066,3.418,0
1582059275.351,19.531,-815.430,18.066,16.602,0
1582059275.355,35.645,-633.301,10.742,2.930,0
1582059275.359,10.742,-723.633,11.230,-14.160,0
1582059275.363,-1.953,-944.824,15.137,-8.789,0
1582059275.366,-3.906,-944.824,15.625,-8.789,0
1582059275.370,-5.371,-760.254,17.090,0.977,0
1582059275.374,4.883,-576.172,17.578,10.254,0
1582059275.378,8.301,-671.875,19.043,-6.348,0
1582059275.382,-6.348,-771.484,18.066,-5.371,0
1582059275.384,5.371,-709.961,21.973,12.695,0
1582059275.388,26.855,-668.457,23.926,8.789,0
1582059275.392,22.949,-739.746,22.461,20.996,0
1582059275.396,20.020,-848.633,20.996,23.438,0
1582059275.400,19.043,-791.504,16.602,15.137,0
1582059275.404,15.625,-796.875,18.555,10.254,0
1582059275.408,10.742,-946.777,20.996,-26.855,0
1582059275.411,-7.812,-904.785,18.066,-32.227,0
1582059275.415,-24.902,-821.289,18.066,-11.719,0
1582059275.419,-22.461,-886.719,17.578,-17.578,0
1582059275.423,-12.695,-801.758,13.672,-31.250,0
1582059275.427,-18.066,-700.195,16.113,-22.461,0
1582059275.444,-20.020,-752.441,18.066,-2.930,0
1582059275.448,-0.488,-787.598,14.648,-10.742,0
1582059275.452,13.184,-795.898,17.090,-3.418,0
1582059275.456,-2.930,-694.824,21.484,-2.930,0
1582059275.460,-20.508,-670.410,23.438,-8.789,0
1582059275.464,-7.324,-829.102,24.902,6.836,0
1582059275.468,15.137,-880.859,25.391,11.230,0
1582059275.471,18.555,-717.773,24.414,-5.859,0
1582059275.475,-5.859,-690.430,17.578,-20.508,0
1582059275.479,-1.953,-898.438,15.137,-22.461,0
1582059275.483,13.184,-920.410,20.508,-28.809,0
1582059275.487,10.254,-789.551,22.949,-18.555,0
1582059275.489,13.184,-877.441,21.973,-7.324,0
1582059275.493,19.043,-910.645,13.184,-19.531,0
1582059275.497,16.602,-771.973,7.812,-18.555,0
1582059275.501,21.973,-679.688,8.301,-15.625,0
1582059275.505,12.207,-790.039,9.766,-14.160,0
1582059275.509,3.418,-945.801,10.742,-10.254,0
1582059275.513,17.578,-992.676,11.719,-22.461,0
1582059275.516,15.137,-913.086,14.160,-16.602,0
1582059275.520,6.348,-834.473,11.719,-6.348,0
1582059275.524,4.395,-966.797,9.766,-11.719,0
1582059275.528,17.090,-908.691,13.672,4.883,0
1582059275.532,27.832,-669.434,13.672,14.160,0
1582059275.533,11.719,-719.727,10.254,-12.207,0
1582059275.537,-5.371,-800.781,13.184,-32.227,0
1582059275.541,-0.977,-805.664,19.531,-11.719,0
1582059275.545,7.812,-793.945,20.020,6.348,0
1582059275.549,16.602,-803.711,21.973,8.789,0
1582059275.553,9.277,-954.102,21.484,14.160,0
1582059275.557,1.465,-987.793,17.090,-3.906,0
1582059275.560,15.137,-917.969,17.090,-5.371,0
1582059275.564,30.762,-909.180,19.043,5.371,0
1582059275.568,14.160,-946.777,20.996,-21.484,0
1582059275.572,2.441,-849.121,21.973,-5.859,0
1582059275.576,22.949,-708.496,21.973,5.371,0
1582059275.578,32.715,-703.125,23.438,-12.207,0
1582059275.582,3.418,-796.875,25.879,5.859,0
1582059275.586,-6.348,-750.488,24.902,8.301,0
1582059275.590,5.371,-749.023,21.484,-10.742,0
1582059275.594,6.348,-811.035,17.090,-20.020,0
1582059275.598,14.648,-846.191,16.113,-28.320,0
1582059275.602,14.648,-937.500,18.066,-21.973,0
1582059275.605,-3.418,-977.051,18.066,9.766,0
1582059275.609,-6.348,-965.820,16.113,8.789,0
1582059275.613,2.930,-930.176,14.160,-3.418,0
1582059275.617,13.184,-771.484,15.137,21.973,0
1582059275.621,12.695,-790.527,16.113,2.930,0
1582059275.623,8.789,-838.867,16.113,-25.879,0
1582059275.627,15.625,-686.035,22.949,5.859,0
1582059275.631,7.324,-674.316,26.367,19.531,0
1582059275.635,-2.930,-849.609,24.414,16.113,0
1582059275.639,10.742,-878.418,22.461,11.230,0
1582059275.643,19.531,-839.844,19.043,2.441,0
1582059275.647,17.090,-909.668,18.555,17.090,0
1582059275.650,14.160,-919.922,25.879,21.973,0
1582059275.654,10.742,-993.652,32.715,19.043,0
1582059275.658,11.230,-832.031,26.367,29.297,0
1582059275.662,10.742,-642.090,17.090,17.578,0
1582059275.666,16.113,-776.367,14.160,5.371,0
1582059275.668,15.625,-832.031,18.066,15.625,0
1582059275.672,17.090,-672.852,25.391,19.531,0
1582059275.676,13.184,-629.883,23.926,15.137,0
1582059275.680,14.648,-834.961,21.973,26.367,0
1582059275.684,11.230,-845.215,27.344,33.203,0
1582059275.688,19.531,-848.633,23.438,16.113,0
1582059275.692,29.785,-940.430,15.137,9.277,0
1582059275.695,13.184,-969.238,9.766,7.812,0
1582059275.699,3.906,-917.480,10.742,0.977,0
1582059275.703,15.137,-722.656,17.090,7.324,17040
1582059275.707,17.090,-638.672,15.137,11.719,0
1582059275.711,16.602,-799.316,10.254,5.371,0
1582059275.713,5.859,-780.762,9.277,5.859,0
1582059275.717,8.789,-702.637,7.324,7.812,0
1582059275.721,4.883,-716.309,7.812,7.324,0
1582059275.725,-2.930,-704.102,14.160,10.742,0
1582059275.729,12.207,-710.938,27.344,-5.859,0
1582059275.733,7.324,-827.148,24.902,-4.883,0
1582059275.737,0.977,-959.961,21.484,-8.789,0
1582059275.740,16.113,-924.316,21.973,-15.625,0
1582059275.744,17.578,-768.555,16.602,-5.371,0
1582059275.748,14.648,-720.215,21.484,-4.883,0
1582059275.752,19.043,-748.535,23.438,-3.418,0
1582059275.756,18.555,-686.523,18.555,-5.371,0
1582059275.758,4.395,-626.953,9.277,-17.578,0
1582059275.762,-2.930,-667.480,6.348,-28.320,0
1582059275.766,6.348,-805.176,9.766,-18.555,0
1582059275.770,11.719,-727.539,11.230,2.930,0
1582059275.774,10.254,-578.125,15.137,4.883,0
1582059275.778,5.859,-780.273,20.508,-8.301,0
1582059275.782,1.953,-994.629,21.973,-8.789,0
1582059275.785,14.160,-817.383,31.250,15.625,0
1582059275.789,11.230,-564.941,28.320,3.906,0
1582059275.793,4.395,-640.137,21.973,-5.371,0
1582059275.797,13.672,-762.207,33.203,1.953,0
1582059275.801,23.438,-708.008,38.574,-17.578,0
1582059275.818,30.762,-587.402,36.621,-12.695,0
1582059275.822,17.578,-684.082,37.598,-0.488,0
1582059275.826,9.277,-828.613,35.156,-2.930,0
1582059275.830,15.137,-757.812,40.039,0.000,0
1582059275.834,27.832,-631.348,76.660,5.859,0
1582059275.838,13.672,-725.098,73.242,-14.648,0
1582059275.842,-2.930,-990.723,51.270,-18.555,0
1582059275.845,8.301,-808.594,77.637,-5.371,0
1582059275.849,16.113,-414.062,83.496,-16.113,0
1582059275.853,2.441,-558.594,96.191,-31.738,0
1582059275.857,-16.113,-726.074,152.832,-53.223,0
1582059275.861,-17.090,-446.777,224.609,-51.270,0
1582059275.863,2.930,-327.148,287.598,-37.109,0
1582059275.867,9.766,-443.359,343.262,-39.551,0
1582059275.871,-10.742,-359.863,394.043,-47.363,0
1582059275.875,-13.672,-583.984,428.711,-43.945,0
1582059275.879,-15.137,-997.070,437.500,-41.992,0
1582059275.883,-29.785,-967.285,419.922,-60.547,0
1582059275.887,-19.531,-963.379,383.301,-58.594,0
1582059275.890,-14.160,-974.121,347.168,-37.598,0
1582059275.894,-19.043,-972.168,311.035,-33.691,0
1582059275.898,-20.508,-972.168,263.184,-43.945,0
1582059275.902,-38.086,-972.168,211.914,-46.387,0
1582059275.906,-48.340,-972.168,177.246,-35.156,0
1582059275.909,-52.734,-972.168,151.855,-41.016,0
1582059275.913,-34.180,-972.168,126.465,-42.480,0
1582059275.917,-24.414,-972.168,118.652,-32.227,0
1582059275.921,-46.387,-972.168,109.863,-22.949,0
1582059275.925,-41.992,-972.168,96.680,-29.297,0
1582059275.929,-28.809,-972.168,84.473,-38.086,0
1582059275.933,-24.414,-972.168,63.965,-35.156,0
1582059275.936,-30.762,-972.168,49.316,-33.203,0
1582059275.940,-47.363,-972.168,40.039,-30.273,0
1582059275.944,-43.457,-972.168,29.297,-26.855,0
1582059275.948,-35.645,-972.168,20.020,-18.066,0
1582059275.952,-42.969,-972.168,13.184,-22.461,0
1582059275.954,-35.645,-972.168,9.277,-25.391,0
1582059275.958,-9.277,-972.168,7.324,-2.441,0
1582059275.962,-28.809,-972.168,5.371,9.766,0
1582059275.966,-46.875,-972.168,-1.953,-14.160,0
1582059275.970,-26.855,-972.168,-9.277,-13.184,0
1582059275.974,-13.672,-972.168,-9.277,-5.371,0
1582059275.978,-5.859,-972.168,-13.672,-11.230,0
1582059275.981,-16.113,-972.168,-19.043,-5.371,0
1582059275.985,-29.785,-972.168,-16.602,-14.648,0
1582059275.989,-22.949,-972.168,-19.043,-7.812,0
1582059275.993,1.465,-972.168,-24.902,9.277,0
1582059275.997,0.488,-972.168,-20.996,18.555,0
1582059275.999,1.465,-972.168,-20.020,15.137,0
1582059276.003,3.418,-972.168,-24.902,1.465,0
1582059276.007,1.465,-972.168,-19.043,0.977,0
1582059276.011,24.414,-972.168,-18.555,19.531,0
1582059276.015,14.160,-972.168,-23.926,20.020,0
1582059276.019,10.742,-972.168,-20.996,15.137,0
1582059276.023,14.648,-972.168,-18.066,19.531,0
1582059276.026,16.113,-972.168,-18.066,23.438,0
1582059276.030,22.461,-972.168,-25.879,16.113,0
1582059276.034,7.324,-972.168,-32.227,14.648,0
1582059276.038,3.906,-972.168,-18.555,16.113,0
1582059276.042,8.301,-972.168,-9.277,15.137,0
1582059276.044,11.230,-972.168,-7.324,20.508,0
1582059276.048,5.859,-972.168,-3.906,16.113,0
1582059276.052,15.137,-972.168,-11.719,19.043,0
1582059276.056,19.043,-972.168,-8.789,22.461,0
1582059276.060,5.371,-972.168,10.742,2.930,0
1582059276.064,2.441,-971.191,0.000,-5.859,0
1582059276.068,1.953,-969.727,-12.695,8.789,0
1582059276.071,9.277,-979.980,-2.441,11.230,0
1582059276.075,9.277,-921.387,-4.883,-4.395,0
1582059276.079,0.977,-890.625,-10.254,-7.812,0
1582059276.083,2.441,-950.684,-6.836,-1.953,0
1582059276.087,-2.441,-995.117,-6.348,0.488,0
1582059276.089,0.000,-862.793,0.488,10.742,0
1582059276.093,-6.836,-731.934,6.348,-0.977,0
1582059276.097,-10.742,-889.648,2.441,-10.742,0
1582059276.101,3.906,-961.914,3.906,0.000,0
1582059276.105,0.488,-839.355,3.906,-1.953,0
1582059276.109,-5.859,-889.160,8.301,0.977,0
1582059276.113,-3.418,-982.422,14.648,0.977,0
1582059276.116,-13.672,-967.285,19.043,-10.742,0
1582059276.120,-6.836,-943.848,21.484,-18.066,0
1582059276.124,-3.906,-811.035,8.301,-10.254,0
1582059276.128,-19.531,-826.660,1.953,-0.977,0
1582059276.132,-7.812,-899.414,15.137,10.254,0
1582059276.134,-4.883,-803.711,25.879,8.301,0
1582059276.138,-19.043,-781.738,21.973,-4.883,0
1582059276.142,-8.789,-830.566,16.602,-5.371,0
1582059276.146,-8.789,-859.375,13.672,0.977,0
1582059276.150,-8.301,-839.355,13.672,6.348,0
1582059276.154,4.883,-872.070,20.508,-0.488,0
1582059276.158,3.906,-980.957,28.809,-24.414,0
1582059276.161,-9.277,-919.922,37.109,-16.602,0
1582059276.165,-5.859,-768.066,35.156,2.441,0
1582059276.169,10.254,-736.816,26.367,0.488,0
1582059276.173,14.160,-769.531,32.227,-7.324,0
1582059276.177,10.742,-878.418,36.621,-13.672,0
1582059276.194,8.789,-884.277,31.250,2.930,0
1582059276.198,25.879,-858.398,30.762,10.742,0
1582059276.202,26.855,-860.840,34.668,-5.859,0
1582059276.206,5.371,-655.762,40.527,-13.184,0
1582059276.210,0.000,-664.062,47.363,-12.695,0
1582059276.214,13.672,-881.348,42.480,-6.836,0
1582059276.218,25.879,-979.492,39.062,-10.742,0
1582059276.221,24.902,-855.469,44.434,-4.883,0
1582059276.225,20.996,-696.777,41.992,-7.324,0
1582059276.229,6.348,-815.918,45.898,-7.324,0
1582059276.233,14.160,-885.254,47.363,-1.953,0
1582059276.237,20.020,-652.832,42.969,-3.906,0
1582059276.239,13.672,-617.676,41.504,12.695,0
1582059276.243,2.930,-666.504,38.574,12.695,0
1582059276.247,6.348,-702.637,44.434,-8.301,0
1582059276.251,19.531,-668.945,57.129,-4.395,0
1582059276.255,8.789,-549.316,53.711,-10.254,0
1582059276.259,-13.672,-620.605,48.828,-33.203,0
1582059276.263,1.953,-795.410,65.918,-34.180,0
1582059276.266,20.996,-674.805,76.172,-17.090,0
1582059276.270,14.648,-435.547,82.520,-16.602,0
1582059276.274,0.000,-696.777,103.027,-24.902,0
1582059276.278,-6.348,-705.566,120.117,-16.113,0
1582059276.282,10.254,-353.027,122.559,-13.672,0
1582059276.284,1.465,-363.770,120.117,-25.879,0
1582059276.288,-13.672,-436.523,114.746,-28.320,0
1582059276.292,-6.836,-427.246,110.840,-38.086,0
1582059276.296,-19.531,-339.355,119.141,-50.781,0
1582059276.300,-21.484,-295.410,143.555,-45.410,0
1582059276.304,-17.578,-445.801,165.527,-53.711,0
1582059276.308,-31.250,-490.723,176.758,-48.828,0
1582059276.311,-38.574,-406.738,193.359,-48.340,0
1582059276.315,-30.273,-634.766,216.797,-72.266,0
1582059276.319,-38.574,-924.316,227.051,-71.289,0
1582059276.323,-40.527,-728.027,241.211,-53.711,0
1582059276.327,-31.250,-579.590,254.395,-50.781,0
1582059276.329,-30.762,-559.570,259.277,-50.781,0
1582059276.333,-38.086,-629.395,272.461,-58.594,0
1582059276.337,-58.105,-656.738,278.809,-72.266,0
1582059276.341,-53.711,-665.039,287.109,-67.383,0
1582059276.345,-51.758,-684.570,293.945,-56.152,0
1582059276.349,-75.195,-841.797,293.457,-70.801,0
1582059276.353,-71.777,-972.656,289.062,-69.824,0
1582059276.356,-62.500,-893.066,280.762,-56.641,0
1582059276.360,-57.129,-934.082,274.414,-48.340,0
1582059276.364,-46.387,-897.461,265.625,-45.898,0
1582059276.368,-56.641,-850.098,261.719,-60.547,0
1582059276.372,-64.941,-931.152,254.883,-54.688,0
1582059276.374,-45.898,-947.266,242.188,-28.320,0
1582059276.378,-38.086,-877.930,232.422,-40.039,0
1582059276.382,-62.012,-923.340,221.680,-54.688,0
1582059276.386,-58.594,-979.492,214.355,-39.062,0
1582059276.390,-44.434,-968.750,200.195,-26.367,0
1582059276.394,-37.109,-971.191,190.430,-29.297,0
1582059276.398,-37.109,-972.656,179.688,-36.133,0
1582059276.401,-51.270,-969.727,168.945,-33.691,0
1582059276.405,-45.410,-978.027,166.016,-27.344,0
1582059276.409,-20.996,-948.730,164.551,-24.414,0
1582059276.413,-15.625,-936.523,163.086,-28.320,0
1582059276.417,-28.809,-973.633,155.762,-25.879,0
1582059276.419,-41.992,-972.656,156.250,-24.902,0
1582059276.423,-37.598,-971.191,150.391,-23.926,0
1582059276.427,-26.367,-972.168,142.578,-25.879,0
1582059276.431,-42.969,-972.168,141.602,-41.016,0
1582059276.435,-41.504,-972.168,143.066,-33.691,0
1582059276.439,-25.391,-972.168,141.113,-9.766,0
1582059276.443,-22.949,-972.168,133.301,-10.742,0
1582059276.446,-30.762,-972.168,128.906,-11.719,0
1582059276.450,-43.945,-972.168,125.000,-27.344,0
1582059276.454,-32.227,-972.168,119.141,-19.043,0
1582059276.458,-14.160,-972.168,114.258,5.371,0
1582059276.462,-13.184,-972.168,107.910,4.395,0
1582059276.464,-1.953,-972.168,111.816,-4.883,0
1582059276.468,0.000,-971.680,106.445,-4.883,0
1582059276.472,-10.254,-972.656,95.703,-8.301,0
1582059276.476,-4.883,-968.750,101.562,-5.859,0
1582059276.480,-2.930,-968.750,104.004,11.719,0
1582059276.484,-17.578,-972.656,96.191,3.906,0
1582059276.488,5.371,-971.680,96.680,-1.465,0
1582059276.491,18.555,-972.168,98.633,-4.883,0
1582059276.495,8.301,-971.680,87.891,-5.859,0
1582059276.499,-5.859,-970.703,81.055,-1.465,0
1582059276.503,-10.742,-977.051,88.867,3.906,0
1582059276.507,10.254,-933.594,95.703,21.484,0
1582059276.509,14.160,-900.879,91.797,20.020,0
1582059276.513,5.371,-919.434,94.238,-3.418,0
1582059276.517,-5.371,-973.633,96.680,-10.742,0
1582059276.521,-1.465,-901.855,87.402,-0.488,0
1582059276.525,-11.230,-846.191,84.473,-14.648,0
1582059276.529,-18.066,-957.520,77.148,-15.625,0
1582059276.533,-14.160,-981.934,71.777,0.977,0
1582059276.536,-10.742,-957.520,78.125,-9.277,0
1582059276.540,-2.930,-878.906,79.102,-12.695,0
1582059276.544,10.254,-905.273,72.266,0.000,0
1582059276.548,1.953,-980.469,70.801,-15.137,0
1582059276.552,-5.859,-967.773,69.824,-13.184,0
1582059276.569,12.207,-864.746,76.172,3.906,0
1582059276.573,2.441,-880.371,77.637,-12.695,0
1582059276.577,-11.719,-980.957,66.406,-25.391,0
1582059276.581,-0.977,-967.773,68.848,-2.930,0
1582059276.585,-5.859,-881.836,75.684,-9.277,0
1582059276.589,-17.578,-903.320,74.219,-19.531,0
1582059276.593,-2.930,-977.539,76.660,-6.348,0
1582059276.596,4.883,-975.586,71.777,-11.230,0
1582059276.600,11.719,-898.926,64.941,-7.324,0
1582059276.604,10.742,-893.066,71.289,-4.395,0
1582059276.608,-1.465,-943.848,74.219,-2.441,0
1582059276.612,3.906,-889.648,76.172,3.418,0
1582059276.614,18.066,-832.520,81.543,-2.930,0
1582059276.618,8.789,-794.922,76.660,-1.465,0
1582059276.622,8.789,-867.188,73.730,16.113,0
1582059276.626,20.020,-823.242,85.449,12.207,0
1582059276.630,23.926,-795.898,90.820,-0.488,0
1582059276.634,20.996,-930.176,91.309,3.418,0
1582059276.638,1.465,-982.910,90.332,5.371,0
1582059276.641,-3.418,-963.867,92.773,11.230,0
1582059276.645,2.441,-954.590,102.539,2.441,0
1582059276.649,9.277,-936.523,96.680,-1.465,0
1582059276.653,2.441,-909.180,86.426,1.465,0
1582059276.657,-7.324,-886.230,88.867,0.488,0
1582059276.659,-4.395,-906.250,91.797,-0.977,0
1582059276.663,-0.488,-891.113,92.773,0.000,0
1582059276.667,0.000,-772.949,88.867,0.000,0
1582059276.671,-1.953,-810.547,87.402,-3.418,0
1582059276.675,-5.371,-911.621,87.402,0.977,0
1582059276.679,-9.277,-970.215,82.031,3.418,0
1582059276.683,-18.066,-981.445,78.125,-4.395,0
1582059276.686,-8.789,-925.293,78.125,-9.766,0
1582059276.690,-11.230,-921.387,85.449,-6.836,0
1582059276.694,-14.648,-913.574,89.844,15.137,0
1582059276.698,2.441,-751.953,88.379,20.508,0
1582059276.702,9.277,-714.844,84.961,0.000,0
1582059276.703,8.789,-747.559,86.426,-9.766,0
1582059276.707,2.441,-837.891,90.332,-4.883,0
1582059276.711,7.324,-889.648,81.543,6.836,0
1582059276.715,12.695,-777.832,77.148,3.906,0
1582059276.719,3.418,-829.590,83.008,12.695,0
1582059276.723,9.766,-938.477,86.426,19.043,0
1582059276.727,17.578,-893.555,98.633,19.043,0
1582059276.730,21.973,-855.469,85.449,14.648,0
1582059276.734,19.531,-945.801,70.801,6.836,0
1582059276.738,4.395,-886.719,72.754,6.348,0
1582059276.742,18.066,-666.504,66.406,13.184,0
1582059276.746,31.250,-665.527,61.523,9.277,0
1582059276.748,6.836,-757.324,68.848,-1.953,0
1582059276.752,8.789,-667.480,69.336,12.207,0
1582059276.756,14.160,-574.707,65.430,14.160,0
1582059276.760,-6.836,-640.137,67.871,-19.531,0
1582059276.764,-9.766,-795.898,66.895,-25.879,0
1582059276.768,-5.859,-930.176,63.965,-9.277,0
1582059276.772,-7.324,-915.039,63.477,-8.301,0
1582059276.775,1.465,-912.598,61.035,-11.230,0
1582059276.779,3.418,-904.785,61.035,-17.090,0
1582059276.783,-2.441,-695.801,60.059,-18.555,0
1582059276.787,-5.371,-619.629,58.594,-6.836,0
1582059276.791,-14.648,-670.898,60.059,-16.602,0
1582059276.793,-2.930,-650.879,61.523,-19.531,0
1582059276.797,-11.230,-592.285,62.500,-19.043,0
1582059276.801,-25.879,-657.715,63.477,-20.508,0
1582059276.805,-7.324,-750.000,63.965,-4.395,0
1582059276.809,1.953,-753.418,69.824,5.371,0
1582059276.813,-8.301,-871.094,71.289,9.766,0
1582059276.817,-21.973,-978.516,66.895,-1.953,0
1582059276.820,-25.391,-980.469,70.312,-10.254,0
1582059276.824,-9.766,-866.211,75.195,-1.953,0
1582059276.828,-5.371,-741.699,72.266,3.906,0
1582059276.832,-28.320,-872.559,69.824,-1.953,0
1582059276.836,-15.625,-928.711,72.754,6.836,0
1582059276.853,16.113,-828.125,71.289,13.184,0
1582059276.857,7.324,-781.250,69.336,3.418,0
1582059276.861,0.977,-867.676,69.336,2.930,17004
1582059276.865,9.277,-931.152,69.336,7.324,0
1582059276.869,17.090,-815.430,71.289,20.996,0
1582059276.873,10.254,-850.098,71.777,8.301,0
1582059276.877,7.812,-952.637,75.684,-15.137,0
1582059276.880,20.020,-961.914,77.637,0.977,0
1582059276.884,18.066,-829.590,75.684,14.160,0
1582059276.888,23.438,-797.363,80.078,11.719,0
1582059276.892,23.926,-919.434,82.031,16.113,0
1582059276.896,18.066,-946.777,83.008,11.230,0
1582059276.883,30.762,-778.320,82.031,13.672,0
1582059276.887,33.691,-609.863,81.055,12.207,0
1582059276.891,19.531,-727.539,79.590,8.301,0
1582059276.895,10.254,-870.605,73.242,9.766,0
1582059276.899,12.207,-861.816,70.801,6.836,0
1582059276.903,25.879,-917.480,75.195,4.883,0
1582059276.907,28.320,-975.586,78.125,-5.859,0
1582059276.910,17.090,-948.242,77.148,-5.371,0
1582059276.914,6.836,-834.961,73.730,7.812,0
1582059276.918,12.207,-802.734,73.730,11.719,0
1582059276.922,20.996,-949.219,69.824,8.301,0
1582059276.926,15.137,-872.559,66.895,5.371,0
1582059276.943,21.973,-743.652,69.336,21.484,0
1582059276.947,27.344,-875.488,67.383,11.719,0
1582059276.951,28.320,-958.496,63.965,13.672,0
1582059276.955,25.879,-828.613,65.918,31.250,0
1582059276.959,28.809,-793.457,68.359,18.555,0
1582059276.963,33.203,-912.598,66.406,15.137,0
1582059276.967,38.574,-990.723,61.523,13.184,0
1582059276.970,29.785,-871.582,57.617,16.113,0
1582059276.974,26.855,-777.344,58.105,29.785,0
1582059276.978,32.227,-914.551,60.059,21.484,0
1582059276.982,20.996,-950.195,59.570,15.625,0
1582059276.986,15.625,-773.926,59.570,16.113,0
1582059276.988,21.973,-741.211,56.152,9.277,0
1582059276.992,20.020,-894.043,56.641,17.090,0
1582059276.996,19.531,-793.945,58.105,34.180,0
1582059277.000,36.621,-583.984,54.688,20.508,0
1582059277.004,24.414,-664.551,54.199,-5.371,0
1582059277.008,6.836,-847.656,54.688,-3.418,0
1582059277.012,6.348,-895.508,54.688,3.418,0
1582059277.015,17.090,-711.914,57.617,6.348,0
1582059277.019,2.441,-644.043,55.176,-7.324,0
1582059277.023,-13.184,-929.199,57.129,-9.766,0
1582059277.027,0.000,-852.539,57.129,-3.906,0
1582059277.031,1.465,-587.402,50.293,-5.371,0
1582059277.034,-2.441,-650.391,50.781,-1.465,0
1582059277.038,1.953,-757.324,52.246,5.859,0
1582059277.042,1.953,-712.891,50.781,4.883,0
1582059277.046,-4.395,-636.719,47.363,-1.953,0
1582059277.050,2.441,-731.445,41.992,-5.371,0
1582059277.054,7.812,-929.199,41.504,4.395,0
1582059277.058,-7.324,-969.727,48.340,7.812,0
1582059277.061,-6.836,-892.578,57.617,4.395,0
1582059277.065,1.953,-894.531,56.641,-4.883,0
1582059277.069,4.395,-929.199,50.293,2.930,0
1582059277.073,-8.789,-785.645,50.293,10.742,0
1582059277.077,-2.930,-700.684,52.246,9.766,0
1582059277.079,27.344,-741.699,51.758,9.277,0
1582059277.083,24.902,-747.070,50.293,9.277,0
1582059277.087,16.602,-715.332,46.387,26.367,0
1582059277.091,27.832,-815.918,44.434,32.715,0
1582059277.095,35.156,-839.844,47.363,24.414,0
1582059277.099,29.297,-806.641,48.340,27.832,0
1582059277.103,29.785,-912.598,45.898,24.902,0
1582059277.106,28.809,-950.195,41.992,19.531,0
1582059277.110,29.785,-979.492,44.434,21.484,0
1582059277.114,30.762,-835.449,45.898,17.090,0
1582059277.118,22.949,-733.398,38.086,25.391,0
1582059277.122,17.090,-917.480,39.551,29.785,0
1582059277.124,13.184,-851.562,42.480,16.113,0
1582059277.128,17.090,-635.742,40.527,0.977,0
1582059277.132,17.090,-576.660,38.086,-1.953,0
1582059277.136,20.508,-725.586,36.133,1.465,0
1582059277.140,14.648,-785.156,38.574,13.184,0
1582059277.144,13.672,-712.891,37.109,10.742,0
1582059277.148,11.719,-729.980,33.691,-0.977,0
1582059277.151,9.766,-853.516,36.133,-11.230,0
1582059277.155,23.926,-964.355,30.273,-13.672,0
1582059277.159,30.762,-817.871,25.391,0.000,0
1582059277.163,20.020,-610.840,30.762,-4.395,0
1582059277.167,2.930,-657.227,40.039,-9.766,0
1582059277.169,7.324,-750.000,38.086,-14.160,0
1582059277.173,18.066,-751.953,30.762,-25.391,0
1582059277.177,23.438,-743.164,34.668,-1.465,0
1582059277.181,15.137,-721.680,33.691,22.461,0
1582059277.185,9.766,-810.059,35.645,-0.488,0
1582059277.189,6.836,-913.086,39.551,-13.672,0
1582059277.193,8.789,-956.543,37.109,-5.371,0
1582059277.196,5.859,-969.727,38.574,6.348,0
1582059277.200,-9.766,-945.312,39.062,-9.277,0
1582059277.204,-6.348,-787.109,40.039,-3.906,0
1582059277.208,15.625,-727.051,40.527,17.090,0
1582059277.212,26.855,-812.988,33.691,7.812,0
1582059277.215,3.906,-762.207,28.809,7.324,0
1582059277.219,3.906,-693.848,28.809,18.066,0
1582059277.223,29.785,-748.535,27.344,15.137,0
1582059277.227,23.438,-700.684,24.414,7.812,0
1582059277.231,11.719,-743.164,26.367,8.301,0
1582059277.235,19.531,-934.570,29.297,9.277,0
1582059277.239,32.227,-980.957,27.832,12.695,0
1582059277.242,36.621,-927.246,29.297,18.066,0
1582059277.246,22.461,-774.414,33.203,3.418,0
1582059277.250,19.043,-641.602,32.715,5.371,0
1582059277.254,34.668,-706.055,27.832,21.973,0
1582059277.258,26.367,-761.230,30.273,20.020,0
1582059277.259,17.578,-686.523,35.156,11.719,0
1582059277.263,33.203,-692.871,29.297,15.137,0
1582059277.267,29.785,-750.488,29.297,14.648,0
1582059277.271,12.207,-656.738,35.156,10.254,0
1582059277.275,7.324,-599.121,37.598,20.996,0
1582059277.279,18.066,-810.059,37.109,19.043,0
1582059277.283,16.113,-978.516,35.645,11.719,0
1582059277.286,20.020,-892.090,36.133,18.555,0
1582059277.290,13.184,-674.316,30.273,18.555,0
1582059277.294,-1.465,-762.207,25.879,18.555,0
1582059277.298,2.930,-922.852,29.297,20.508,0
1582059277.302,10.254,-756.836,27.344,-5.371,0
1582059277.319,4.883,-618.164,22.949,-14.160,0
1582059277.323,2.930,-737.793,25.391,10.254,0
1582059277.327,-2.930,-848.633,29.297,11.719,0
1582059277.331,-10.742,-770.996,29.785,14.160,0
1582059277.335,10.742,-692.871,27.344,29.785,0
1582059277.339,0.488,-837.402,26.855,6.836,0
1582059277.343,2.441,-948.242,22.461,-0.977,0
1582059277.346,15.625,-831.543,21.484,6.348,0
1582059277.350,9.766,-657.715,21.973,-3.906,0
1582059277.354,10.742,-763.184,19.043,-2.930,0
1582059277.358,10.254,-991.699,21.484,-0.977,0
1582059277.362,21.484,-914.551,26.855,5.859,0
1582059277.364,37.598,-798.340,30.273,5.371,0
1582059277.368,36.621,-813.965,27.832,3.418,0
1582059277.372,35.645,-807.129,25.879,19.043,0
1582059277.376,23.926,-753.906,26.855,22.949,0
1582059277.380,20.508,-751.953,27.832,4.883,0
1582059277.384,21.484,-819.824,24.414,-9.766,0
1582059277.388,20.996,-933.105,23.438,2.930,0
1582059277.391,18.555,-975.098,26.367,9.766,0
1582059277.395,8.301,-946.777,28.320,-7.324,0
1582059277.399,13.184,-974.121,29.297,-2.930,0
1582059277.403,19.531,-872.070,29.785,-1.953,0
1582059277.407,5.371,-698.242,28.320,-11.230,0
1582059277.409,25.391,-772.461,26.855,0.000,0
1582059277.413,38.086,-904.785,25.879,6.348,0
1582059277.417,13.184,-912.598,26.367,-1.953,0
1582059277.421,10.254,-808.594,22.461,-1.953,0
1582059277.425,8.789,-854.980,19.531,-1.465,0
1582059277.429,7.324,-962.402,25.391,1.953,0
1582059277.433,19.043,-967.773,27.832,2.441,0
1582059277.436,20.996,-925.293,24.414,15.625,0
1582059277.440,11.230,-913.086,22.949,18.066,0
1582059277.444,12.207,-959.961,24.414,-6.348,0
1582059277.448,16.113,-817.871,21.973,-13.184,0
1582059277.452,13.184,-745.605,18.555,-10.254,0
1582059277.454,5.859,-867.676,21.484,-8.301,0
1582059277.458,4.395,-847.168,21.973,-0.488,0
1582059277.462,16.113,-699.219,25.879,4.395,0
1582059277.466,36.621,-640.625,26.367,7.812,0
1582059277.470,24.414,-783.203,16.602,18.066,0
1582059277.474,3.418,-952.637,16.602,16.602,0
1582059277.478,-0.977,-976.562,23.438,13.672,0
1582059277.481,2.441,-927.734,20.508,5.371,0
1582059277.485,0.000,-954.102,19.043,-17.090,0
1582059277.489,2.441,-926.270,21.484,-4.883,0
1582059277.493,12.695,-698.730,19.531,17.578,0
1582059277.497,30.273,-726.562,20.020,11.719,0
1582059277.499,29.297,-817.383,20.508,-12.207,0
1582059277.503,1.465,-745.117,19.531,-25.391,0
1582059277.507,-10.254,-733.887,22.461,-20.996,0
1582059277.511,-11.719,-762.207,21.973,-11.230,0
1582059277.515,-14.160,-745.117,19.531,-21.484,0
1582059277.519,-20.508,-826.660,18.066,-34.180,0
1582059277.523,-16.113,-921.387,16.113,-29.785,0
1582059277.526,4.883,-910.645,18.066,-22.461,0
1582059277.530,9.277,-937.012,15.137,-17.090,0
1582059277.534,-7.812,-824.707,16.113,-5.859,0
1582059277.538,3.418,-706.543,17.090,-0.488,0
1582059277.542,14.160,-690.918,18.555,-18.066,0
1582059277.559,12.207,-698.730,18.555,-1.465,0
1582059277.563,10.254,-659.180,17.578,10.254,0
1582059277.567,0.488,-663.574,20.020,-0.488,0
1582059277.571,0.488,-725.098,21.973,-3.418,0
1582059277.575,11.719,-692.383,20.508,-10.742,0
1582059277.579,5.371,-824.219,18.555,-23.926,0
1582059277.583,7.324,-985.352,20.508,-20.996,0
1582059277.586,19.043,-977.539,22.949,-9.766,0
1582059277.590,22.461,-828.125,23.926,0.488,0
1582059277.594,12.207,-634.277,21.484,8.301,0
1582059277.598,7.812,-826.660,21.484,3.906,0
1582059277.602,19.531,-870.117,20.996,1.465,0
1582059277.589,21.484,-618.652,20.020,0.000,0
1582059277.593,18.066,-593.750,16.602,-2.930,0
1582059277.597,2.930,-776.367,16.602,-8.789,0
1582059277.601,-10.742,-895.508,24.902,-5.371,0
1582059277.605,-9.277,-749.512,30.273,1.465,0
1582059277.609,2.441,-750.000,31.250,-9.277,0
1582059277.613,2.441,-928.711,29.297,2.930,0
1582059277.616,-15.137,-947.266,26.367,-11.230,0
1582059277.620,-14.160,-813.477,20.996,-17.090,0
1582059277.624,-0.488,-670.898,21.973,17.578,0
1582059277.628,4.883,-818.848,23.438,-3.906,0
1582059277.632,-10.254,-966.797,15.137,-29.297,0
1582059277.634,-12.207,-769.531,13.672,-22.461,0
1582059277.638,-6.348,-741.211,17.578,-11.230,0
1582059277.642,4.395,-790.527,14.160,-6.348,0
1582059277.646,8.789,-712.402,17.578,-0.488,0
1582059277.650,-9.766,-743.652,19.531,4.883,0
1582059277.654,10.742,-880.371,13.672,6.348,0
1582059277.658,28.809,-976.074,13.672,6.836,0
1582059277.661,0.000,-938.965,19.531,5.371,0
1582059277.665,-14.648,-771.484,22.461,-3.418,0
1582059277.669,9.766,-763.672,19.043,-5.859,0
1582059277.673,28.320,-855.469,15.137,12.695,0
1582059277.677,25.879,-786.621,15.625,10.254,0
1582059277.694,2.930,-769.531,19.043,11.719,0
1582059277.698,11.230,-862.793,20.508,6.836,0
1582059277.702,25.391,-889.160,22.461,11.719,0
1582059277.706,-7.324,-784.668,20.996,11.230,0
1582059277.710,-14.648,-877.441,16.602,1.465,0
1582059277.714,18.066,-1000.000,20.508,-8.301,0
1582059277.718,26.855,-873.047,20.020,-2.441,0
1582059277.721,21.973,-724.121,20.020,12.695,0
1582059277.725,16.113,-733.398,22.949,-0.977,0
1582059277.729,13.672,-855.469,22.461,4.883,0
1582059277.733,20.020,-881.836,16.602,20.996,0
1582059277.737,12.207,-749.023,16.113,15.137,0
1582059277.739,5.859,-763.672,19.531,7.324,0
1582059277.743,16.602,-897.949,20.020,3.906,0
1582059277.747,28.320,-875.488,21.484,6.348,0
1582059277.751,21.973,-745.117,21.484,6.836,0
1582059277.755,1.953,-764.160,23.438,-1.953,0
1582059277.759,13.184,-917.480,24.414,-6.348,0
1582059277.763,7.812,-975.098,25.391,0.977,0
1582059277.766,-7.812,-947.754,23.926,1.465,0
1582059277.770,9.277,-924.316,18.555,20.508,0
1582059277.774,19.531,-959.473,18.555,22.949,0
1582059277.778,22.461,-946.777,17.578,-7.324,0
1582059277.782,10.742,-806.641,19.043,-5.859,0
1582059277.783,4.883,-806.152,24.902,5.371,0
1582059277.787,24.902,-880.859,21.484,16.602,0
1582059277.791,15.137,-886.230,22.461,3.906,0
1582059277.795,-8.789,-753.418,25.391,-1.953,0
1582059277.799,4.395,-781.738,20.996,6.836,0
1582059277.803,16.602,-964.844,19.531,-1.465,0
1582059277.807,6.348,-991.211,22.461,2.930,0
1582059277.810,16.113,-866.211,20.996,21.973,0
1582059277.814,-0.977,-849.121,20.020,10.254,0
1582059277.818,-31.250,-978.516,21.484,1.953,0
1582059277.822,-15.625,-982.910,16.602,2.930,0
1582059277.826,12.695,-904.297,14.160,16.113,0
1582059277.828,19.531,-772.949,14.648,15.137,0
1582059277.832,19.531,-758.789,12.695,5.859,0
1582059277.836,8.789,-762.207,14.160,10.254,0
1582059277.840,5.371,-778.809,14.160,2.930,0
1582059277.844,13.672,-845.215,16.602,5.371,0
1582059277.848,7.812,-919.434,16.113,12.207,0
1582059277.852,-3.418,-971.680,16.602,3.906,0
1582059277.855,-14.648,-965.820,16.602,-4.395,0
1582059277.859,-5.859,-980.469,16.113,-4.395,0
1582059277.863,15.137,-830.566,18.066,-7.324,0
1582059277.867,16.113,-732.422,19.043,-6.836,0
1582059277.871,12.207,-891.113,20.996,-14.160,0
1582059277.873,10.742,-951.172,17.578,-12.695,0
1582059277.877,13.184,-866.699,13.672,3.418,0
1582059277.881,2.930,-746.094,12.207,0.488,0
1582059277.885,3.906,-799.805,10.254,-1.953,0
1582059277.889,9.277,-855.957,12.207,4.395,0
1582059277.893,6.348,-839.844,16.602,-15.625,0
1582059277.897,15.625,-860.352,20.020,-16.602,0
1582059277.900,36.133,-908.691,19.043,1.465,0
1582059277.904,23.926,-952.637,19.043,-4.395,0
1582059277.908,6.348,-782.715,19.531,-5.371,0
1582059277.912,2.930,-604.980,22.461,-20.020,0
1582059277.916,13.184,-766.113,22.461,-12.695,0
1582059277.918,9.277,-884.277,21.973,0.000,0
1582059277.922,14.160,-727.051,24.902,5.371,0
1582059277.926,18.555,-620.605,24.902,11.719,0
1582059277.930,5.371,-736.328,22.949,9.766,0
1582059277.934,25.391,-865.234,23.926,11.230,0
1582059277.938,23.438,-882.812,24.902,1.953,0
1582059277.942,11.719,-871.582,27.344,1.465,0
1582059277.945,17.090,-935.547,27.832,-2.930,0
1582059277.949,19.531,-928.711,26.367,4.395,25600
1582059277.953,30.762,-752.441,25.391,17.090,0
1582059277.957,37.598,-687.988,25.879,12.695,0
1582059277.961,25.879,-703.125,31.250,10.742,0
1582059277.963,16.113,-694.824,31.250,0.000,0
1582059277.967,8.789,-723.145,32.227,1.953,0
1582059277.971,11.719,-808.594,35.156,11.719,0
1582059277.975,7.324,-839.355,25.879,-3.906,0
1582059277.979,-6.836,-769.043,23.438,-11.230,0
1582059277.983,-2.441,-879.883,25.879,7.324,0
1582059277.987,19.531,-993.652,24.902,4.395,0
1582059277.990,13.184,-912.598,21.484,-16.602,0
1582059277.994,-5.371,-789.062,19.531,-13.184,0
1582059277.998,-2.930,-725.098,15.625,-2.441,0
1582059278.002,4.395,-771.973,12.695,-0.977,0
1582059278.006,5.859,-756.348,17.578,-9.277,0
1582059278.008,8.301,-680.664,22.461,-16.113,0
1582059278.012,-1.953,-687.500,23.926,-10.742,0
1582059278.016,2.930,-792.480,19.531,4.395,0
1582059278.020,16.602,-736.328,18.066,19.043,0
1582059278.024,17.578,-633.301,13.184,19.531,0
1582059278.028,14.648,-838.379,8.301,7.324,0
1582059278.032,15.137,-984.863,9.766,3.418,0
1582059278.035,13.184,-907.227,12.207,5.859,0
1582059278.039,2.441,-705.078,12.695,5.371,0
1582059278.043,-8.789,-727.051,7.324,-6.348,0
1582059278.047,-9.766,-961.426,5.859,-0.488,0
1582059278.051,15.137,-892.578,7.812,11.719,0
1582059278.068,20.996,-656.738,8.789,16.113,0
1582059278.072,20.508,-716.797,10.742,19.043,0
1582059278.076,14.648,-815.918,17.578,14.160,0
1582059278.080,2.930,-736.816,19.043,10.742,0
1582059278.084,13.672,-761.230,15.625,6.836,0
1582059278.088,19.531,-893.555,16.602,6.348,0
1582059278.092,11.719,-954.102,15.625,5.859,0
1582059278.095,9.766,-791.992,15.137,8.301,0
1582059278.099,11.230,-619.629,14.648,-7.812,0
1582059278.103,12.207,-687.012,14.160,-7.812,0
1582059278.107,13.672,-801.270,14.160,24.902,0
1582059278.111,24.414,-706.055,16.113,34.180,0
1582059278.113,29.297,-690.430,14.160,17.090,0
1582059278.117,18.066,-817.871,12.695,-7.324,0
1582059278.121,20.996,-762.695,14.160,-11.230,0
1582059278.125,27.832,-754.395,19.043,-6.348,0
1582059278.129,13.184,-756.348,20.508,-1.953,0
1582059278.133,11.230,-803.711,20.020,6.348,0
1582059278.137,28.809,-940.430,21.973,6.836,0
1582059278.140,20.508,-957.520,19.531,0.000,0
1582059278.144,19.043,-860.352,20.020,6.348,0
1582059278.148,27.344,-897.461,23.926,8.301,0
1582059278.152,27.344,-875.488,26.855,10.742,0
1582059278.156,26.855,-772.461,27.344,15.137,0
1582059278.159,30.762,-850.098,19.531,21.973,0
1582059278.163,30.273,-836.426,20.996,25.879,0
1582059278.167,32.227,-659.668,29.785,28.320,0
1582059278.171,34.180,-694.336,29.297,21.973,0
1582059278.175,19.043,-904.785,25.879,10.254,0
1582059278.179,28.809,-970.215,29.297,17.578,0
1582059278.183,42.480,-907.715,30.762,36.621,0
1582059278.186,32.227,-814.941,25.879,24.902,0
1582059278.190,25.391,-872.559,24.902,3.906,0
1582059278.194,16.113,-917.480,24.902,2.441,0
1582059278.198,17.578,-732.422,26.367,16.113,0
1582059278.202,23.438,-655.762,31.738,20.996,0
1582059278.204,19.043,-787.109,31.250,15.137,0
1582059278.208,23.438,-821.289,27.344,10.742,0
1582059278.212,37.109,-654.785,26.855,15.625,0
1582059278.216,23.438,-659.668,30.762,17.578,0
1582059278.220,-6.348,-797.363,33.203,1.465,0
1582059278.224,-3.906,-888.184,32.715,-6.348,0
1582059278.228,26.367,-910.156,33.203,-1.465,0
1582059278.231,16.602,-915.527,31.738,2.441,0
1582059278.235,-7.812,-969.238,32.227,-9.766,0
1582059278.239,5.859,-936.035,30.762,-18.555,0
1582059278.243,16.113,-733.887,34.668,5.859,0
1582059278.247,20.508,-718.750,36.621,9.766,0
1582059278.250,13.672,-885.254,32.227,4.883,0
1582059278.254,6.836,-767.578,30.762,13.184,0
1582059278.258,7.812,-666.016,32.715,-0.488,0
1582059278.262,15.137,-730.469,36.133,8.301,0
1582059278.266,14.160,-736.328,29.785,11.719,0
1582059278.270,-7.324,-851.074,26.855,12.695,0
1582059278.274,-5.371,-880.859,26.855,21.484,0
1582059278.277,18.066,-827.148,24.902,16.602,0
1582059278.281,13.672,-909.180,23.438,-0.488,0
1582059278.285,7.324,-872.559,24.414,1.465,0
1582059278.289,19.531,-869.629,22.949,-2.441,0
1582059278.293,13.672,-731.934,20.996,-4.883,0
1582059278.294,15.137,-679.199,22.949,8.301,0
1582059278.298,10.742,-717.285,23.438,17.578,0
1582059278.302,8.301,-713.379,25.879,14.648,0
1582059278.306,13.184,-745.117,27.344,7.324,0
1582059278.310,12.207,-701.172,24.902,2.441,0
1582059278.314,2.930,-814.941,23.926,-10.254,0
1582059278.318,7.812,-977.539,23.926,-1.465,0
1582059278.321,8.301,-977.539,21.973,13.672,0
1582059278.325,11.719,-796.387,20.020,6.348,0
1582059278.329,16.113,-588.867,22.461,-9.277,0
1582059278.333,5.859,-755.859,25.391,-8.789,0
1582059278.337,4.395,-825.195,24.414,-4.883,0
1582059278.339,4.395,-711.914,24.414,-4.395,0
1582059278.343,9.766,-704.590,24.902,9.277,0
1582059278.347,0.000,-763.672,24.414,-1.953,0
1582059278.351,16.113,-867.188,27.344,4.395,0
1582059278.355,19.531,-767.090,25.879,2.930,0
1582059278.359,5.859,-743.164,21.484,-6.348,0
1582059278.363,9.277,-900.879,18.555,-5.371,0
1582059278.366,6.836,-969.238,18.555,-16.602,0
1582059278.370,0.000,-797.852,20.508,-8.301,0
1582059278.374,10.254,-655.762,19.043,2.930,0
1582059278.378,19.043,-744.141,18.555,-4.395,0
1582059278.382,10.254,-727.051,19.531,-3.906,0
1582059278.384,4.883,-614.258,18.555,15.137,0
1582059278.388,14.648,-626.953,18.555,21.484,0
1582059278.392,12.207,-750.488,20.508,4.395,0
1582059278.396,-1.953,-866.211,24.902,-3.418,0
1582059278.400,3.418,-852.051,22.461,-3.906,0
1582059278.404,18.555,-814.453,23.926,6.836,0
1582059278.408,13.672,-933.105,26.855,10.254,0
1582059278.411,2.441,-899.902,23.438,2.441,0
1582059278.415,6.836,-699.219,22.949,5.371,0
1582059278.419,10.742,-701.172,23.926,12.207,0
1582059278.423,15.625,-732.910,25.879,20.020,0
1582059278.427,12.695,-658.691,24.902,26.855,0
1582059278.444,11.719,-628.906,20.996,23.926,0
1582059278.448,14.648,-712.402,21.484,9.766,0
1582059278.452,20.020,-778.320,20.996,11.719,0
1582059278.456,8.789,-695.801,21.973,20.508,0
1582059278.460,0.000,-694.336,24.902,10.742,0
1582059278.464,9.277,-865.723,24.902,13.184,0
1582059278.468,10.742,-974.121,20.508,6.836,0
1582059278.471,11.230,-860.840,14.160,-1.953,0
1582059278.475,3.418,-703.125,13.672,6.836,0
1582059278.479,-14.648,-770.020,12.695,4.883,0
1582059278.483,-6.836,-749.023,10.254,-8.301,0
1582059278.487,-3.906,-574.707,13.672,-24.902,0
1582059278.489,-2.930,-631.836,17.090,-7.324,0
1582059278.493,5.859,-755.371,20.020,3.418,0
1582059278.497,9.766,-684.570,19.531,-2.441,0
1582059278.501,8.789,-527.344,19.531,9.277,0
1582059278.505,4.883,-577.637,21.973,6.348,0
1582059278.509,19.043,-780.273,19.043,-3.418,0
1582059278.513,9.766,-938.965,14.648,0.000,0
1582059278.516,13.672,-790.039,11.719,15.625,0
1582059278.520,25.391,-645.020,14.160,12.695,0
1582059278.524,19.043,-885.742,17.578,-1.953,0
1582059278.528,14.160,-912.598,20.996,-6.348,0
1582059278.532,20.508,-678.223,20.508,-0.488,0
1582059278.534,24.902,-724.609,22.949,25.879,0
1582059278.538,22.949,-821.777,26.367,27.344,0
1582059278.542,25.391,-727.539,22.949,13.672,0
1582059278.546,26.367,-581.543,18.555,28.320,0
1582059278.550,28.320,-615.234,17.578,18.066,0
1582059278.554,14.160,-844.727,18.555,-2.441,0
1582059278.558,0.488,-961.914,19.043,-0.977,0
1582059278.561,20.508,-827.637,16.113,-0.488,0
1582059278.565,25.879,-783.691,17.578,7.324,0
1582059278.569,5.859,-970.703,21.973,0.977,0
1582059278.573,-5.859,-833.008,19.531,-7.324,0
1582059278.577,0.488,-621.094,15.137,4.883,0
1582059278.579,14.648,-671.875,21.484,-12.207,0
1582059278.583,4.883,-719.238,25.879,-15.137,0
1582059278.587,-4.395,-636.719,22.949,5.371,0
1582059278.591,-4.395,-695.801,20.996,5.371,0
1582059278.595,5.371,-761.230,20.020,4.395,0
1582059278.599,11.719,-823.242,20.996,0.488,0
1582059278.603,4.395,-904.785,21.973,-0.977,0
1582059278.606,0.977,-881.348,25.879,2.930,0
1582059278.610,7.324,-924.316,26.367,4.395,0
1582059278.614,11.230,-860.352,24.414,8.789,0
1582059278.618,6.348,-618.164,22.949,14.160,0
1582059278.622,0.000,-665.527,19.043,21.484,0
1582059278.624,1.953,-768.066,19.043,12.695,0
1582059278.628,19.043,-595.703,21.484,8.301,0
1582059278.632,17.090,-527.344,23.438,12.207,0
1582059278.636,-5.371,-703.613,26.367,-3.418,0
1582059278.640,-5.371,-817.871,27.344,7.324,0
1582059278.644,4.395,-736.328,23.438,17.578,0
1582059278.648,14.160,-747.070,16.113,7.812,0
1582059278.651,9.277,-857.910,17.578,13.184,0
1582059278.655,7.324,-922.363,22.461,22.949,0
1582059278.659,19.043,-751.465,16.113,31.250,0
1582059278.663,15.137,-599.121,11.230,22.461,0
1582059278.667,0.000,-634.766,15.625,7.324,0
1582059278.669,-1.953,-693.848,16.602,-6.348,0
1582059278.673,4.883,-590.820,13.184,1.465,0
1582059278.677,0.488,-592.773,11.719,-6.836,0
1582059278.681,-11.719,-764.648,15.625,-4.883,0
1582059278.685,-10.254,-785.645,13.672,1.953,0
1582059278.689,-4.883,-817.383,10.742,-13.672,0
1582059278.693,-8.301,-878.418,10.254,-14.160,0
1582059278.696,-9.766,-938.477,16.113,-13.672,0
1582059278.700,-14.160,-940.918,19.043,-11.230,0
1582059278.704,-6.836,-741.211,14.648,-5.371,0
1582059278.708,-0.977,-682.617,10.254,-13.184,0
1582059278.712,-7.812,-756.348,14.160,-11.230,0
1582059278.714,-3.418,-689.453,17.578,-1.953,0
1582059278.718,14.648,-622.559,16.113,0.488,0
1582059278.722,16.602,-700.684,13.672,2.930,0
1582059278.726,8.301,-718.750,13.672,17.578,0
1582059278.730,3.418,-641.113,15.625,8.301,0
1582059278.734,3.906,-781.250,15.625,2.930,0
1582059278.738,4.395,-945.801,18.555,12.695,0
1582059278.741,10.742,-913.574,18.555,-4.883,0
1582059278.745,15.137,-722.168,16.113,-9.277,0
1582059278.749,0.977,-747.070,15.625,1.953,0
1582059278.753,-5.371,-872.070,14.160,1.465,0
1582059278.757,9.766,-738.281,15.625,4.395,0
1582059278.759,24.902,-600.586,18.066,-0.488,0
1582059278.763,21.973,-649.902,22.949,4.395,0
1582059278.767,21.484,-762.695,24.414,15.137,0
1582059278.771,24.414,-709.473,23.438,17.578,0
1582059278.775,23.926,-686.035,20.508,7.812,0
1582059278.779,23.438,-870.117,17.578,1.953,0
1582059278.783,20.020,-995.605,21.973,2.441,0
1582059278.786,13.672,-851.074,22.949,1.465,0
1582059278.790,13.184,-646.484,19.043,-0.977,0
1582059278.794,6.836,-724.609,22.461,-3.906,0
1582059278.798,8.789,-809.082,22.949,-0.488,0
1582059278.802,10.742,-657.715,20.508,1.953,0
1582059278.818,16.113,-642.090,20.996,13.672,0
1582059278.822,19.043,-838.379,19.043,10.742,0
1582059278.826,0.488,-839.844,13.672,1.953,0
1582059278.830,12.695,-734.375,10.254,9.766,0
1582059278.834,24.414,-666.504,13.672,-4.883,0
1582059278.838,8.301,-795.898,18.555,-6.836,0
1582059278.842,-0.977,-989.746,19.043,0.000,0
1582059278.845,0.488,-928.223,17.090,-13.184,0
1582059278.849,7.324,-739.258,17.090,-1.953,0
1582059278.853,6.348,-793.457,17.090,-6.348,0
1582059278.857,-2.930,-920.410,17.578,-4.395,0
1582059278.861,3.906,-734.863,18.555,13.672,0
1582059278.863,20.020,-573.730,14.648,10.254,0
1582059278.867,18.555,-675.781,10.254,12.695,0
1582059278.871,21.484,-762.695,15.137,20.020,0
1582059278.875,23.438,-780.762,17.578,18.555,0
1582059278.879,22.461,-798.340,18.066,16.113,0
1582059278.883,25.879,-774.902,19.531,22.461,0
1582059278.887,29.785,-891.602,20.508,27.344,0
1582059278.890,27.832,-809.082,22.461,24.414,0
1582059278.894,21.484,-686.523,25.391,15.625,0
1582059278.898,16.113,-901.367,25.391,3.418,0
1582059278.902,22.461,-867.188,21.973,11.230,0
1582059278.906,30.273,-725.098,16.113,18.066,0
1582059278.908,6.348,-829.102,20.020,9.277,0
1582059278.912,16.113,-813.477,20.996,3.418,0
1582059278.916,27.344,-649.902,17.090,12.695,0
1582059278.920,11.230,-567.383,18.066,19.043,0
1582059278.924,9.277,-734.863,18.555,12.207,0
1582059278.928,19.531,-921.387,16.602,4.883,0
1582059278.932,23.926,-868.652,14.160,-3.906,0
1582059278.935,8.301,-820.312,20.020,7.812,0
1582059278.939,10.742,-902.344,23.926,15.625,0
1582059278.943,10.254,-959.473,22.461,-3.906,0
1582059278.947,-0.977,-683.594,19.043,-4.883,0
1582059278.951,-1.465,-537.109,15.137,6.348,0
1582059278.953,2.930,-725.098,11.230,-0.977,0
1582059278.957,-5.859,-724.121,13.672,-2.930,0
1582059278.961,-8.301,-597.656,20.020,0.977,0
1582059278.965,-0.488,-575.684,13.672,-12.695,0
1582059278.969,-17.090,-697.266,11.719,-13.672,0
1582059278.973,-16.113,-796.387,19.531,-2.930,0
1582059278.977,-4.395,-854.980,23.438,-2.441,0
1582059278.980,-8.301,-812.500,25.879,-9.766,0
1582059278.984,-13.672,-873.047,26.855,-19.531,0
1582059278.988,-16.113,-974.609,23.438,-6.348,0
1582059278.992,-25.391,-782.227,20.996,8.789,0
1582059278.996,-11.719,-647.461,22.949,6.348,0
1582059278.998,6.348,-720.703,22.461,8.301,0
1582059279.002,-1.465,-675.293,24.902,13.672,0
1582059279.006,11.230,-552.734,20.996,18.555,28501
1582059279.010,27.344,-665.039,13.184,23.926,0
1582059279.014,20.020,-788.574,15.137,16.113,0
1582059279.018,4.395,-853.027,17.090,17.578,0
1582059279.022,1.953,-819.824,16.602,23.926,0
1582059279.025,17.090,-781.738,12.207,21.484,0
1582059279.029,20.020,-939.453,11.719,13.672,0
1582059279.033,-3.418,-835.938,18.555,18.066,0
1582059279.037,-2.930,-720.703,14.160,5.859,0
1582059279.041,24.414,-723.145,5.859,-11.719,0
1582059279.043,26.855,-766.113,7.324,-7.324,0
1582059279.047,14.160,-726.074,11.230,-11.230,0
1582059279.051,11.719,-729.980,11.719,-4.883,0
1582059279.055,11.719,-763.184,9.766,-5.859,0
1582059279.059,15.625,-705.566,14.160,-18.555,0
1582059279.063,20.020,-755.371,15.137,-20.020,0
1582059279.067,6.348,-888.184,7.812,-22.949,0
1582059279.070,0.977,-979.004,10.742,-23.926,0
1582059279.074,0.977,-840.820,12.695,-21.484,0
1582059279.078,-0.977,-590.332,9.277,-21.484,0
1582059279.082,-3.906,-657.715,5.371,-19.531,0
1582059279.086,-11.230,-734.863,6.836,0.000,0
1582059279.088,-4.883,-642.090,14.648,-2.441,0
1582059279.092,-5.371,-607.422,15.137,-13.184,0
1582059279.096,-20.020,-717.773,13.184,-26.855,0
1582059279.100,-22.461,-899.414,15.625,-30.273,0
1582059279.104,-5.859,-784.180,16.113,-14.648,0
1582059279.108,1.953,-736.816,13.672,-7.812,0
1582059279.112,-1.953,-913.086,13.184,-7.812,0
1582059279.115,-9.277,-946.777,13.184,-14.160,0
1582059279.119,11.719,-729.980,13.184,-8.301,0
1582059279.123,26.367,-571.289,10.742,0.977,0
1582059279.127,6.348,-669.922,10.742,-0.977,0
1582059279.131,-2.441,-697.754,17.090,7.812,0
1582059279.133,6.348,-594.727,17.578,6.836,0
1582059279.137,14.160,-541.504,16.113,-4.883,0
1582059279.141,14.648,-660.645,16.602,7.812,0
1582059279.145,13.672,-760.254,18.555,29.785,0
1582059279.149,9.766,-711.426,16.113,28.320,0
1582059279.153,2.441,-783.203,16.602,19.531,0
1582059279.157,10.742,-944.336,18.066,11.719,0
1582059279.160,6.348,-917.480,20.020,-1.953,0
1582059279.164,-1.953,-748.535,24.414,-9.277,0
1582059279.168,12.207,-718.262,18.066,-9.766,0
1582059279.172,16.113,-784.668,12.695,-8.789,0
1582059279.176,4.395,-799.805,16.113,0.977,0
1582059279.193,-3.906,-728.027,18.555,-6.836,0
1582059279.197,0.488,-764.160,16.602,-11.230,0
1582059279.201,16.113,-793.945,12.695,13.672,0
1582059279.205,12.207,-779.297,15.625,10.742,0
1582059279.209,-2.441,-814.453,20.508,4.395,0
1582059279.213,-8.789,-893.555,23.926,-0.977,0
1582059279.217,5.371,-925.781,22.949,-10.742,0
1582059279.220,12.695,-725.098,19.531,-1.953,0
1582059279.224,-0.977,-643.555,19.531,7.324,0
1582059279.228,0.000,-845.215,18.555,-0.488,0
1582059279.232,11.719,-908.203,11.719,3.418,0
1582059279.236,14.160,-683.594,6.348,1.465,0
1582059279.240,17.090,-649.902,8.789,-13.672,0
1582059279.244,19.531,-800.293,10.254,-7.324,0
1582059279.248,21.484,-759.277,5.371,0.977,0
1582059279.252,27.344,-596.191,3.418,0.488,0
1582059279.256,20.508,-688.477,8.789,0.000,0
1582059279.260,8.301,-937.988,12.207,18.066,0
1582059279.264,14.160,-938.477,13.184,18.555,0
1582059279.267,30.762,-747.559,11.719,9.766,0
1582059279.271,36.621,-730.957,14.160,19.043,0
1582059279.275,36.133,-949.219,12.695,13.672,0
1582059279.279,27.344,-891.602,10.254,20.020,0
1582059279.283,27.832,-672.852,7.812,14.160,0
1582059279.284,24.414,-835.938,4.883,-5.371,0
1582059279.288,25.391,-984.375,7.324,8.301,0
1582059279.292,18.555,-852.051,5.371,12.207,0
1582059279.296,19.531,-684.082,6.836,0.977,0
1582059279.300,37.598,-747.559,10.254,6.348,0
1582059279.304,39.551,-935.059,7.812,20.508,0
1582059279.308,40.039,-979.004,10.254,30.273,0
1582059279.311,39.551,-874.512,17.578,10.254,0
1582059279.315,37.598,-821.777,16.602,-2.930,0
1582059279.319,28.809,-974.121,12.695,0.000,0
1582059279.323,18.066,-842.773,15.625,8.301,0
1582059279.327,16.602,-668.457,17.090,14.160,0
1582059279.329,3.418,-659.668,11.719,10.742,0
1582059279.333,1.953,-686.523,7.812,0.488,0
1582059279.337,8.789,-660.645,10.742,-9.766,0
1582059279.341,1.953,-806.641,7.812,-8.301,0
1582059279.345,10.254,-947.266,6.836,-8.301,0
1582059279.349,12.695,-842.773,10.742,-13.672,0
1582059279.353,-12.695,-879.395,13.672,-22.461,0
1582059279.356,-23.926,-873.047,15.137,-17.090,0
1582059279.360,-1.953,-913.086,14.648,-9.277,0
1582059279.364,13.184,-873.535,12.695,-3.906,0
1582059279.368,7.812,-702.148,13.184,5.371,0
1582059279.372,5.859,-767.090,15.625,4.883,0
1582059279.374,10.254,-823.242,16.602,6.836,0
1582059279.378,19.531,-698.730,20.996,10.742,0
1582059279.382,27.344,-588.379,19.531,10.742,0
1582059279.386,28.320,-690.918,11.230,17.090,0
1582059279.390,28.809,-780.273,12.695,30.762,0
1582059279.394,22.461,-806.152,16.602,25.391,0
1582059279.398,14.648,-911.133,11.230,16.113,0
1582059279.401,18.555,-944.824,7.812,21.973,0
1582059279.405,23.926,-937.012,7.324,15.625,0
1582059279.409,30.273,-818.848,10.742,23.438,0
1582059279.413,30.762,-653.320,9.766,16.113,0
1582059279.417,26.855,-704.590,8.301,2.441,0
1582059279.419,14.160,-770.508,9.766,5.859,0
1582059279.423,4.395,-595.703,7.324,10.254,0
1582059279.427,19.531,-560.547,8.789,21.484,0
1582059279.431,27.832,-689.941,15.137,11.230,0
1582059279.435,23.438,-762.695,15.137,-2.441,0
1582059279.439,21.973,-805.664,15.137,-3.906,0
1582059279.443,19.043,-784.668,16.602,9.277,0
1582059279.446,17.090,-891.602,16.602,2.930,0
1582059279.450,21.973,-948.730,20.508,-7.812,0
1582059279.454,26.855,-790.527,20.020,-1.953,0
1582059279.458,16.113,-762.695,17.578,3.906,0
1582059279.462,6.348,-700.195,21.973,-6.348,0
1582059279.464,11.719,-518.555,26.855,-9.766,0
1582059279.468,11.230,-522.461,23.926,-0.977,0
1582059279.472,20.508,-661.621,20.020,0.000,0
1582059279.476,14.160,-728.516,13.184,-2.930,0
1582059279.480,-1.953,-703.613,14.160,-9.277,0
1582059279.484,5.859,-792.969,17.578,-11.230,0
1582059279.488,11.719,-923.828,16.113,-7.812,0
1582059279.491,5.859,-921.875,16.113,-7.812,0
1582059279.495,-0.488,-763.672,16.602,-1.465,0
1582059279.499,0.488,-654.297,17.090,1.953,0
1582059279.503,-6.836,-665.527,15.625,-0.977,0
1582059279.507,0.977,-611.816,14.648,0.977,0
1582059279.509,10.742,-640.625,18.066,7.812,0
1582059279.513,2.441,-701.172,24.414,15.137,0
1582059279.517,19.043,-703.613,21.973,20.020,0
1582059279.521,29.297,-677.734,19.043,30.273,0
1582059279.525,17.090,-629.395,18.555,20.020,0
1582059279.529,18.066,-788.086,19.043,2.930,0
1582059279.533,14.160,-988.770,20.020,3.418,0
1582059279.536,11.230,-855.469,10.742,11.719,0
1582059279.540,8.789,-603.027,7.324,4.883,0
1582059279.544,2.441,-688.965,13.672,9.766,0
1582059279.548,8.301,-800.293,18.066,7.324,0
1582059279.552,17.578,-658.691,16.113,0.000,0
1582059279.569,22.461,-582.520,8.789,8.789,0
1582059279.573,14.648,-742.676,7.324,14.648,0
1582059279.577,15.625,-816.406,11.719,8.301,0
1582059279.581,25.879,-791.016,7.324,5.859,0
1582059279.585,24.902,-728.027,3.906,16.113,0
1582059279.589,16.113,-797.363,10.254,-0.977,0
1582059279.593,3.906,-946.777,9.766,4.395,0
1582059279.596,5.371,-834.473,6.836,10.254,0
1582059279.600,18.066,-675.781,4.395,-7.324,0
1582059279.604,11.719,-767.090,6.348,-11.719,0
1582059279.608,-0.977,-955.566,10.254,-12.695,0
1582059279.612,-1.465,-748.047,6.348,-2.441,0
1582059279.614,2.930,-615.723,5.371,-7.324,0
1582059279.618,12.695,-662.598,9.766,-9.766,0
1582059279.622,-1.953,-673.828,10.254,-3.906,0
1582059279.626,-4.883,-725.098,10.254,-0.488,0
1582059279.630,18.555,-743.652,15.137,13.672,0
1582059279.634,20.508,-804.199,10.742,14.648,0
1582059279.638,-0.488,-900.391,7.812,-17.090,0
1582059279.641,-14.160,-849.121,13.184,-14.648,0
1582059279.645,4.883,-800.293,14.648,-0.977,0
1582059279.649,25.391,-912.109,16.113,-5.859,0
1582059279.653,25.391,-810.547,13.672,6.836,0
1582059279.657,20.508,-669.434,12.695,7.324,0
1582059279.660,24.414,-760.254,13.184,6.836,0
1582059279.664,17.090,-811.035,10.254,3.906,0
1582059279.668,15.625,-699.707,11.719,-9.277,0
1582059279.672,11.719,-614.258,13.672,-12.695,0
1582059279.676,1.465,-801.758,15.137,-1.465,0
1582059279.680,11.719,-934.570,10.254,9.277,0
1582059279.684,18.066,-860.840,9.766,5.371,0
1582059279.687,-2.930,-774.902,17.090,2.441,0
1582059279.691,-0.977,-814.941,18.066,2.441,0
1582059279.695,12.695,-952.637,15.137,-3.418,0
1582059279.699,12.207,-726.074,13.672,-6.348,0
1582059279.703,19.043,-531.250,14.648,-7.812,0
1582059279.704,15.625,-638.672,14.160,-13.184,0
1582059279.708,8.789,-691.895,10.742,-18.066,0
1582059279.712,7.812,-605.957,4.883,-9.766,0
1582059279.716,9.766,-609.863,3.418,-6.348,0
1582059279.720,10.254,-739.746,6.348,-9.766,0
1582059279.724,3.418,-886.230,7.812,-7.324,0
1582059279.728,1.465,-909.668,9.766,-10.254,0
1582059279.731,7.324,-795.410,11.719,3.906,0
1582059279.735,1.465,-910.645,8.301,2.930,0
1582059279.739,-2.441,-885.254,8.301,-13.184,0
1582059279.743,14.648,-632.324,1.953,-1.465,0
1582059279.747,18.066,-666.016,0.000,4.883,0
1582059279.749,21.973,-770.020,1.953,4.883,0
1582059279.753,19.531,-719.238,0.000,8.301,0
1582059279.757,9.766,-640.625,7.324,12.695,0
1582059279.761,8.789,-659.180,12.695,6.348,0
1582059279.765,13.672,-726.074,15.137,-3.418,0
1582059279.769,8.301,-855.469,14.160,1.953,0
1582059279.773,11.719,-918.945,10.254,7.812,0
1582059279.776,20.996,-894.531,8.301,3.906,0
1582059279.780,20.020,-950.195,13.672,4.395,0
1582059279.784,10.742,-774.414,18.066,7.324,0
1582059279.788,2.930,-623.535,13.184,4.395,0
1582059279.792,15.137,-679.199,6.836,6.348,0
1582059279.794,14.160,-680.176,8.301,11.230,0
1582059279.798,7.812,-635.254,12.207,7.324,0
1582059279.802,3.906,-728.027,11.719,11.230,0
1582059279.806,10.254,-824.707,11.719,5.859,0
1582059279.810,13.672,-713.379,9.277,-11.230,0
1582059279.814,9.766,-808.594,5.371,-3.906,0
1582059279.818,12.207,-949.707,9.277,15.625,0
1582059279.821,3.418,-958.984,10.254,-7.812,0
1582059279.825,-14.648,-801.758,4.395,-41.504,0
1582059279.829,-22.949,-627.930,7.812,-47.363,0
1582059279.833,-16.602,-791.504,13.184,-38.574,0
1582059279.837,-18.555,-839.355,11.230,-34.668,0
1582059279.839,-10.254,-672.852,8.789,-34.180,0
1582059279.843,-8.789,-513.672,12.695,-21.484,0
1582059279.847,-16.113,-633.789,12.695,-27.832,0
1582059279.851,2.441,-775.391,7.324,-17.578,0
1582059279.855,20.508,-615.723,4.883,-9.277,0
1582059279.859,13.184,-688.965,8.301,-19.043,0
1582059279.863,8.789,-909.668,10.254,-15.137,0
1582059279.866,11.719,-979.980,7.812,-16.113,0
1582059279.870,12.207,-828.613,3.906,-14.648,0
1582059279.874,13.184,-599.609,4.883,-10.742,0
1582059279.878,9.277,-667.969,4.883,-9.277,0
1582059279.882,3.906,-792.480,3.906,1.465,0
1582059279.883,16.113,-654.297,6.348,2.930,0
1582059279.887,19.043,-550.293,6.836,0.000,0
1582059279.891,-10.742,-689.941,6.836,5.371,0
1582059279.895,-11.230,-757.812,11.230,12.207,0
1582059279.899,1.465,-634.277,14.160,5.371,0
1582059279.903,4.395,-688.477,17.090,-5.371,0
1582059279.907,8.789,-930.176,17.090,-8.789,0
1582059279.910,8.301,-924.805,11.719,-9.277,0
1582059279.914,-4.883,-812.012,9.277,-0.488,0
1582059279.918,-8.789,-788.086,10.254,3.906,0
1582059279.922,-1.465,-753.906,10.254,-4.395,0
1582059279.926,2.930,-703.125,13.184,-7.812,0
1582059279.943,-7.812,-665.527,14.648,8.789,0
1582059279.947,-15.625,-721.680,9.766,6.348,0
1582059279.951,-10.254,-701.172,11.230,-16.113,0
1582059279.955,-17.090,-651.855,15.625,-19.043,0
1582059279.959,-17.090,-647.461,16.602,-5.371,0
1582059279.963,-8.789,-843.750,16.602,-11.719,0
1582059279.967,-2.930,-900.879,11.230,-21.973,0
1582059279.970,-0.488,-662.109,9.277,-15.137,0
1582059279.974,6.836,-657.715,9.766,-3.906,0
1582059279.978,14.160,-866.211,7.324,2.930,0
1582059279.982,15.625,-854.492,9.277,1.465,0
1582059279.986,14.648,-709.473,11.230,-6.348,0
1582059279.988,15.137,-754.395,13.672,-8.301,0
1582059279.992,6.836,-764.648,8.301,-1.465,0
1582059279.996,12.695,-746.582,2.441,6.348,0
1582059280.000,22.949,-635.254,7.812,14.648,0
1582059280.004,9.277,-610.352,11.230,12.695,0
1582059280.008,8.301,-775.391,12.207,16.113,0
1582059280.012,15.625,-792.969,11.719,7.324,0
1582059280.015,22.461,-588.379,9.766,7.812,0
1582059280.019,36.621,-556.641,11.719,18.555,0
1582059280.023,33.203,-863.770,13.672,1.465,0
1582059280.027,19.043,-834.473,10.742,-4.395,0
1582059280.031,14.160,-519.043,12.207,-6.836,0
1582059280.033,27.344,-573.730,11.230,-4.395,0
1582059280.037,27.344,-710.938,7.812,9.766,0
1582059280.041,17.090,-735.840,8.301,-2.930,0
1582059280.045,11.719,-778.320,9.766,-18.066,0
1582059280.049,3.418,-752.441,7.812,-8.789,0
1582059280.053,-3.418,-834.961,8.301,-11.230,0
1582059280.057,6.348,-948.730,11.230,-10.254,0
1582059280.060,16.113,-777.344,12.207,2.441,0
1582059280.064,17.578,-777.344,12.207,-1.953,0
1582059280.068,7.324,-909.668,13.184,-18.555,17217
1582059280.072,-3.418,-695.801,12.695,-21.484,0
1582059280.076,3.906,-604.004,11.230,-8.301,0
1582059280.078,-7.324,-665.527,11.230,-1.465,0
1582059280.082,-14.160,-710.938,9.277,-0.488,0
1582059280.086,2.930,-673.828,10.742,-2.441,0
1582059280.090,8.301,-650.391,11.719,-4.395,0
1582059280.094,7.812,-681.152,7.812,-2.441,0
1582059280.098,14.160,-777.832,6.836,5.371,0
1582059280.102,11.719,-932.129,9.277,10.742,0
1582059280.105,10.742,-971.191,8.301,13.184,0
1582059280.109,3.418,-972.656,9.766,-0.488,0
1582059280.113,-1.465,-847.656,13.184,-15.625,0
1582059280.117,7.812,-673.828,13.672,-6.348,0
1582059280.121,1.953,-740.723,12.695,17.090,0
1582059280.123,8.789,-749.512,11.230,20.020,0
1582059280.127,10.254,-588.867,13.184,14.160,0
1582059280.131,10.742,-514.160,15.137,14.648,0
1582059280.135,21.484,-602.051,13.184,15.625,0
1582059280.139,29.297,-745.117,12.695,21.484,0
1582059280.143,39.062,-747.559,17.090,25.879,0
1582059280.147,36.621,-773.926,16.113,18.555,0
1582059280.150,35.156,-872.070,11.230,17.578,0
1582059280.154,31.250,-989.746,8.789,18.555,0
1582059280.158,32.227,-913.574,9.766,19.531,0
1582059280.162,31.738,-663.574,11.719,18.066,0
1582059280.166,25.879,-709.473,14.648,4.395,0
1582059280.168,15.137,-820.801,13.672,5.371,0
1582059280.172,3.418,-722.656,9.766,8.301,0
1582059280.176,13.672,-708.984,10.254,0.977,0
1582059280.180,13.672,-781.250,12.207,3.906,0
1582059280.184,-1.953,-814.453,12.695,-1.465,0
1582059280.188,0.000,-881.348,13.672,-6.836,0
1582059280.192,9.277,-895.996,12.207,1.465,0
1582059280.195,-2.930,-919.434,11.230,-2.441,0
1582059280.199,-2.930,-947.266,14.648,-14.160,0
1582059280.203,4.883,-789.062,15.137,-14.160,0
1582059280.207,1.953,-753.418,12.207,-16.113,0
1582059280.211,0.000,-886.719,9.277,-8.301,0
1582059280.213,7.812,-864.258,6.836,0.000,0
1582059280.217,15.137,-731.934,10.742,6.348,0
1582059280.221,19.531,-757.324,17.090,1.953,0
1582059280.225,21.973,-718.750,19.531,-11.230,0
1582059280.229,16.602,-654.297,14.160,-5.371,0
1582059280.233,8.789,-862.305,8.789,9.277,0
1582059280.237,7.812,-984.863,9.766,4.883,0
1582059280.240,19.531,-965.332,7.324,3.906,0
1582059280.244,23.438,-895.508,6.348,11.230,0
1582059280.248,27.344,-851.562,8.789,18.555,0
1582059280.252,33.203,-901.367,12.207,25.391,0
1582059280.256,31.738,-723.633,16.602,18.555,0
1582059280.259,13.672,-570.312,16.602,19.043,0
1582059280.263,12.207,-616.699,15.625,29.297,0
1582059280.267,16.113,-784.180,16.113,36.621,0
1582059280.271,15.137,-821.777,12.695,21.484,0
1582059280.275,21.484,-717.285,10.742,9.277,0
1582059280.279,6.348,-870.605,6.836,19.531,0
1582059280.283,7.324,-997.070,5.859,20.508,0
1582059280.286,32.715,-903.809,11.230,14.648,0
1582059280.290,31.738,-729.980,10.254,17.090,0
1582059280.294,27.832,-748.535,14.160,32.715,0
1582059280.298,30.762,-784.668,17.090,28.320,0
1582059280.302,27.832,-665.039,11.719,14.160,0
1582059280.319,12.695,-637.695,11.230,5.859,0
1582059280.323,-7.324,-754.883,12.207,0.488,0
1582059280.327,0.488,-826.660,12.207,0.000,0
1582059280.331,8.301,-697.266,10.742,4.395,0
1582059280.335,2.930,-594.727,10.742,1.953,0
1582059280.339,3.906,-742.188,15.625,9.766,0
1582059280.343,-0.488,-968.262,16.602,20.508,0
1582059280.346,3.418,-887.207,14.160,6.348,0
1582059280.350,24.902,-689.941,8.789,1.465,0
1582059280.354,23.926,-794.922,7.812,-2.930,0
1582059280.358,9.766,-946.289,15.137,0.000,0
1582059280.362,-0.488,-795.410,14.648,14.648,0
1582059280.364,7.812,-671.387,8.301,15.137,0
1582059280.368,25.879,-680.664,9.277,5.859,0
1582059280.372,20.996,-685.547,13.672,9.277,0
1582059280.376,0.977,-726.074,14.160,13.672,0
1582059280.380,6.836,-720.703,12.207,11.230,0
1582059280.384,32.715,-781.250,9.766,25.879,0
1582059280.388,26.367,-951.172,15.137,34.180,0
1582059280.391,13.672,-822.266,18.066,19.531,0
1582059280.395,17.578,-740.234,14.648,18.555,0
1582059280.399,26.367,-938.965,15.137,22.461,0
1582059280.403,26.367,-858.887,12.207,14.160,0
1582059280.407,20.508,-642.578,9.277,25.879,0
1582059280.409,15.137,-700.195,10.742,21.484,0
1582059280.413,10.742,-734.863,11.719,13.672,0
1582059280.417,6.836,-614.746,11.230,5.371,0
1582059280.421,10.254,-577.148,13.672,-5.371,0
1582059280.425,12.207,-744.629,14.160,0.488,0
1582059280.429,11.230,-930.664,10.742,-0.977,0
1582059280.433,11.230,-915.039,11.230,-5.371,0
1582059280.436,13.672,-793.457,7.324,-4.883,0
1582059280.440,7.324,-865.234,5.371,-6.836,0
1582059280.444,0.977,-923.828,8.789,-7.324,0
1582059280.448,8.789,-689.941,3.906,-10.254,0
1582059280.452,3.418,-680.664,4.395,-6.348,0
1582059280.454,-0.488,-815.918,11.230,8.789,0
1582059280.458,-0.488,-762.207,14.648,7.324,0
1582059280.462,-2.441,-605.957,16.602,-0.488,0
1582059280.466,6.348,-676.270,13.672,2.441,0
1582059280.470,11.230,-855.469,6.836,1.953,0
1582059280.474,11.719,-887.695,5.371,18.066,0
1582059280.478,17.578,-864.746,2.441,10.254,0
1582059280.481,19.043,-679.199,3.906,-0.977,0
1582059280.485,15.625,-832.520,6.348,6.836,0
1582059280.489,13.184,-894.531,3.418,3.906,0
1582059280.493,19.531,-629.883,0.977,25.391,0
1582059280.497,29.297,-634.766,2.441,34.668,0
1582059280.499,16.602,-731.934,7.812,11.719,0
1582059280.503,8.789,-700.195,9.277,7.324,0
1582059280.507,0.977,-759.277,4.395,18.066,0
1582059280.511,11.230,-914.062,3.418,14.160,0
1582059280.515,16.113,-810.547,6.348,1.953,0
1582059280.519,5.371,-744.141,10.742,4.883,0
1582059280.523,20.508,-803.711,8.301,12.695,0
1582059280.526,32.715,-858.887,6.348,14.648,0
1582059280.530,18.066,-882.324,7.812,9.277,0
1582059280.534,4.395,-695.801,8.789,5.371,0
1582059280.538,12.695,-594.727,11.719,12.695,0
1582059280.542,15.137,-610.352,11.719,13.672,0
1582059280.544,13.672,-562.012,9.766,5.859,0
1582059280.548,17.090,-581.055,6.348,2.441,0
1582059280.552,12.695,-669.434,2.441,5.371,0
1582059280.556,1.953,-703.613,5.371,5.371,0
1582059280.560,0.977,-675.293,8.789,-2.930,0
1582059280.564,1.465,-749.023,7.812,-0.488,0
1582059280.568,0.488,-939.941,7.812,0.977,0
1582059280.571,6.836,-986.816,8.301,-2.930,0
1582059280.575,11.230,-821.777,10.254,7.324,0
1582059280.579,6.348,-538.086,8.301,6.348,0
1582059280.583,6.836,-625.488,6.836,4.395,0
1582059280.587,18.066,-765.625,4.883,13.184,0
1582059280.590,13.184,-650.879,7.324,16.113,0
1582059280.594,7.324,-576.660,12.695,7.812,0
1582059280.598,2.930,-728.027,9.766,1.465,0
1582059280.602,7.812,-848.145,7.324,-4.883,0
1582059280.606,20.996,-717.773,4.883,-4.395,0
1582059280.610,22.949,-740.723,4.395,10.742,0
1582059280.614,19.531,-889.648,9.766,1.465,0
1582059280.617,14.648,-924.805,15.137,-4.395,0
1582059280.621,28.320,-796.875,11.230,16.602,0
1582059280.625,34.668,-636.719,10.254,28.809,0
1582059280.629,27.344,-609.375,15.625,23.438,0
1582059280.633,19.531,-678.711,13.672,25.879,0
1582059280.634,22.949,-647.461,13.184,30.273,0
1582059280.638,19.531,-586.426,17.090,26.367,0
1582059280.642,3.906,-680.176,17.090,25.879,0
1582059280.646,-1.465,-770.020,11.230,11.230,0
1582059280.650,-1.953,-719.727,10.742,2.441,0
1582059280.654,8.301,-809.570,14.160,3.906,0
1582059280.658,13.184,-954.102,13.672,2.441,0
1582059280.661,4.883,-881.348,13.672,2.441,0
1582059280.665,6.836,-639.160,15.625,10.742,0
1582059280.669,7.812,-678.711,19.531,12.695,0
1582059280.673,10.254,-817.871,22.949,-1.953,0
1582059280.677,11.719,-786.621,21.484,-1.465,0
1582059280.694,5.371,-710.449,17.578,-1.953,0
1582059280.698,11.230,-730.469,15.625,0.488,0
1582059280.702,16.113,-786.621,16.113,4.395,0
1582059280.706,11.719,-661.621,17.090,-0.488,0
1582059280.710,-5.859,-636.719,10.254,6.348,0
1582059280.714,-2.441,-869.629,6.348,0.977,0
1582059280.718,7.812,-928.223,13.184,0.488,0
1582059280.721,1.465,-712.891,12.695,6.348,0
1582059280.725,-1.953,-631.348,7.324,-0.977,0
1582059280.729,2.441,-804.688,9.766,4.395,0
1582059280.733,12.207,-809.570,17.090,14.648,0
1582059280.737,12.207,-645.996,16.113,5.859,0
1582059280.739,9.766,-669.434,9.277,-5.371,0
1582059280.743,9.766,-743.652,8.789,-4.883,0
1582059280.747,11.719,-840.820,5.371,3.906,0
1582059280.751,12.695,-867.188,4.883,7.812,0
1582059280.755,8.789,-729.004,8.301,2.441,0
1582059280.759,-2.441,-835.449,8.301,8.789,0
1582059280.763,5.371,-991.699,8.789,3.906,0
1582059280.766,5.859,-751.465,7.324,-3.418,0
1582059280.770,14.160,-642.578,8.301,15.625,0
1582059280.774,38.574,-899.902,5.371,27.344,0
1582059280.778,11.719,-872.559,3.418,10.742,0
1582059280.782,-13.184,-608.887,10.742,-13.184,0
1582059280.784,-6.836,-633.789,14.160,-7.812,0
1582059280.788,-3.906,-792.969,10.742,4.395,0
1582059280.792,-10.254,-754.395,9.277,-21.484,0
1582059280.796,-14.648,-654.297,11.230,-40.527,0
1582059280.800,-13.672,-653.809,6.836,-30.273,0
1582059280.804,-15.625,-798.828,2.930,-27.344,0
1582059280.808,-15.625,-957.031,6.836,-16.113,0
1582059280.811,-12.207,-874.023,6.836,1.953,0
1582059280.815,2.930,-837.402,1.465,-6.836,0
1582059280.819,6.836,-935.547,4.883,-12.207,0
1582059280.823,4.883,-764.160,10.742,-2.930,0
1582059280.827,12.207,-618.652,6.836,-0.977,0
1582059280.829,10.742,-606.934,1.953,8.789,0
1582059280.833,9.277,-642.578,3.906,9.766,0
1582059280.837,14.648,-614.258,7.812,-2.930,0
1582059280.841,4.395,-651.855,9.766,-11.719,0
1582059280.845,2.441,-740.723,6.836,-8.789,0
1582059280.849,14.160,-809.570,4.883,-4.883,0
1582059280.853,5.859,-855.469,13.184,-9.766,0
1582059280.856,1.953,-774.414,15.137,-8.789,0
1582059280.860,8.789,-869.629,10.742,-4.883,0
1582059280.864,12.695,-880.371,12.207,-0.977,0
1582059280.868,7.324,-620.117,11.719,9.277,0
1582059280.872,3.418,-700.684,6.348,13.184,0
1582059280.874,1.465,-760.742,0.977,4.883,0
1582059280.878,1.953,-518.555,5.371,4.395,0
1582059280.882,4.883,-538.574,7.812,-6.836,0
1582059280.886,1.953,-807.129,4.395,-2.441,0
1582059280.890,-0.488,-854.004,2.441,7.812,0
1582059280.894,-1.465,-791.016,7.812,-4.883,0
1582059280.898,-7.324,-792.969,17.090,-8.301,0
1582059280.901,-14.648,-849.609,16.602,-7.812,0
1582059280.905,-3.418,-940.918,13.672,-5.859,0
1582059280.909,6.348,-757.324,12.695,0.488,0
1582059280.913,3.418,-587.402,7.324,0.977,0
1582059280.917,0.977,-676.758,3.418,-2.441,0
1582059280.919,10.254,-724.121,2.441,2.930,0
1582059280.923,4.395,-633.301,2.441,-1.465,0
1582059280.927,4.395,-556.152,3.906,3.418,0
1582059280.931,16.113,-637.695,5.859,4.883,0
1582059280.935,15.625,-715.332,5.859,0.488,0
1582059280.939,7.324,-827.148,9.277,-6.348,0
1582059280.943,6.348,-836.426,11.230,-19.531,0
1582059280.946,12.207,-878.418,6.836,-11.719,0
1582059280.950,10.742,-919.434,5.859,-3.418,0
1582059280.954,13.184,-656.738,6.836,4.883,0
1582059280.958,25.879,-616.699,4.883,11.719,0
1582059280.962,26.855,-684.082,1.953,18.066,0
1582059280.963,20.020,-651.855,5.371,13.184,0
1582059280.967,26.367,-734.375,10.254,6.836,0
1582059280.971,29.297,-812.988,8.789,4.883,0
1582059280.975,28.320,-784.180,4.883,8.301,0
1582059280.979,4.395,-693.848,5.859,2.441,0
1582059280.983,-10.742,-774.902,7.324,-10.742,0
1582059280.987,16.602,-927.246,3.418,-4.883,0
1582059280.990,17.090,-927.734,0.488,-12.695,0
1582059280.994,0.977,-742.676,2.441,-13.672,0
1582059280.998,8.301,-620.117,7.324,-1.465,0
1582059281.002,6.836,-719.238,7.324,0.488,0
1582059281.006,8.789,-721.680,5.371,2.441,0
1582059281.008,-0.977,-606.445,0.488,-0.977,0
1582059281.012,-12.695,-628.906,-0.977,-1.953,0
1582059281.016,-10.254,-770.508,3.906,-4.883,0
1582059281.020,5.371,-748.535,5.371,-19.043,0
1582059281.024,4.395,-558.594,2.441,-20.020,0
1582059281.028,-13.184,-767.578,0.977,-5.859,0
1582059281.032,-3.418,-995.605,9.277,0.488,0
1582059281.035,6.348,-903.809,15.137,-16.113,0
1582059281.039,3.906,-738.770,9.766,-14.160,0
1582059281.043,9.766,-789.062,7.812,-9.277,0
1582059281.047,21.484,-944.336,9.277,-0.488,0
1582059281.051,24.902,-797.852,12.695,3.906,0
1582059281.068,28.809,-585.449,10.254,10.254,0
1582059281.072,25.391,-692.871,3.906,20.508,0
1582059281.076,12.695,-838.867,7.812,6.836,0
1582059281.080,11.719,-740.234,6.836,-0.488,0
1582059281.084,21.484,-673.828,1.953,5.859,0
1582059281.088,27.832,-836.914,5.859,9.766,0
1582059281.092,15.137,-981.934,9.766,-5.859,0
1582059281.095,-0.488,-821.777,10.254,-11.230,0
1582059281.099,12.207,-711.914,7.812,-6.348,0
1582059281.103,20.020,-848.145,4.395,-8.301,0
1582059281.107,10.742,-897.461,3.418,-12.695,0
1582059281.111,1.465,-757.812,2.930,-17.090,0
1582059281.113,5.859,-686.035,6.348,-7.324,0
1582059281.117,11.719,-709.473,9.766,-2.441,0
1582059281.121,1.953,-696.777,5.371,-13.672,0
1582059281.125,-3.418,-645.020,7.324,-8.301,0
1582059281.129,13.184,-660.645,12.695,11.230,0
1582059281.133,19.531,-766.602,11.719,13.184,0
1582059281.137,3.906,-857.422,13.672,2.441,0
1582059281.140,-0.488,-750.488,13.672,-4.883,0
1582059281.144,4.883,-704.102,12.695,-11.719,0
1582059281.148,1.465,-915.039,13.184,-1.465,17025
1582059281.152,11.230,-860.840,10.742,-0.488,0
1582059281.156,12.207,-769.531,7.812,-5.859,0
1582059281.158,1.953,-855.957,9.277,2.930,0
1582059281.162,11.230,-783.691,6.348,8.789,0
1582059281.166,7.324,-636.230,3.906,13.672,0
1582059281.170,-2.441,-592.285,7.812,12.207,0
1582059281.174,2.441,-741.699,10.742,1.953,0
1582059281.178,15.137,-849.609,7.812,10.254,0
1582059281.182,18.555,-843.750,5.371,14.648,0
1582059281.185,23.926,-806.152,3.906,4.883,0
1582059281.189,8.301,-854.492,3.906,4.883,0
1582059281.193,0.977,-933.105,2.441,-2.441,0
1582059281.197,20.508,-692.871,2.930,0.488,0
1582059281.201,2.441,-617.188,5.371,7.324,0
1582059281.203,-13.672,-770.996,4.395,7.812,0
1582059281.207,-3.906,-763.672,5.371,11.719,0
1582059281.211,5.371,-705.566,5.859,8.301,0
1582059281.215,0.488,-648.926,4.883,6.348,0
1582059281.219,6.836,-662.109,5.371,10.742,0
1582059281.223,12.207,-809.570,0.488,10.254,0
1582059281.227,10.254,-829.590,-2.441,10.742,0
1582059281.230,16.602,-757.812,4.883,15.137,0
1582059281.234,11.719,-884.277,4.883,-4.395,0
1582059281.238,6.348,-910.645,4.395,-18.555,0
1582059281.242,0.977,-626.953,6.836,-8.789,0
1582059281.246,7.812,-547.852,6.348,-11.719,0
1582059281.248,21.484,-669.434,7.324,-9.277,0
1582059281.252,23.438,-625.977,8.301,5.371,0
1582059281.256,17.578,-591.797,6.836,6.348,0
1582059281.260,19.043,-658.691,7.324,0.488,0
1582059281.264,11.230,-652.832,8.301,-3.418,0
1582059281.268,-2.441,-737.305,8.301,0.488,0
1582059281.272,-7.324,-895.508,3.906,-4.395,0
1582059281.275,7.812,-943.359,2.930,-14.648,0
1582059281.279,12.207,-912.598,8.301,-8.789,0
1582059281.283,0.000,-702.148,6.348,10.742,0
1582059281.287,-0.977,-607.422,3.418,10.742,0
1582059281.291,15.137,-655.762,5.371,-2.930,0
1582059281.293,18.066,-620.605,6.348,-7.324,0
1582059281.297,1.465,-574.219,3.906,-5.371,0
1582059281.301,-6.348,-564.453,1.953,-3.418,0
1582059281.305,0.488,-674.316,2.441,-10.742,0
1582059281.309,10.742,-727.539,2.441,-1.953,0
1582059281.313,5.859,-774.902,0.977,3.418,0
1582059281.317,-7.324,-888.184,-3.906,-5.371,0
1582059281.320,-13.184,-953.125,-4.395,-14.648,0
1582059281.324,-4.395,-939.941,5.859,-29.785,0
1582059281.328,1.953,-723.633,7.812,-27.832,0
1582059281.332,-6.348,-709.961,1.953,-12.695,0
1582059281.336,-1.953,-766.602,0.488,1.953,0
1582059281.338,8.789,-631.836,6.836,4.395,0
1582059281.342,1.953,-538.086,12.207,3.906,0
1582059281.346,3.906,-688.477,11.719,0.488,0
1582059281.350,7.812,-782.227,8.789,-4.395,0
1582059281.354,3.906,-682.617,8.789,-1.953,0
1582059281.358,5.371,-725.098,5.371,3.418,0
1582059281.362,5.371,-850.098,3.418,1.465,0
1582059281.365,0.977,-959.961,4.883,-4.395,0
1582059281.369,9.277,-768.066,2.441,3.906,0
1582059281.373,10.254,-547.852,4.883,10.742,0
1582059281.377,6.348,-649.902,5.371,-1.953,0
1582059281.381,-7.324,-793.457,6.836,4.883,0
1582059281.384,2.441,-746.094,9.277,20.508,0
1582059281.388,21.973,-595.703,1.953,23.438,0
1582059281.392,15.625,-636.230,1.465,14.160,0
1582059281.396,10.742,-701.660,4.395,3.906,0
1582059281.400,16.602,-674.805,9.277,11.719,0
1582059281.404,22.949,-850.586,13.672,20.020,0
1582059281.408,24.902,-984.375,8.789,12.207,0
1582059281.411,19.043,-863.281,7.812,7.812,0
1582059281.415,8.789,-688.477,7.324,10.742,0
1582059281.419,19.531,-690.430,5.859,17.578,0
1582059281.423,22.461,-718.262,7.812,18.066,0
1582059281.427,16.602,-721.680,4.883,12.207,0
1582059281.444,21.973,-716.797,3.418,11.230,0
1582059281.448,22.949,-692.383,5.371,9.277,0
1582059281.452,18.066,-774.902,3.418,15.625,0
1582059281.456,13.184,-714.355,0.488,5.371,0
1582059281.460,-1.953,-681.152,6.836,-12.207,0
1582059281.464,-9.766,-904.785,12.695,-21.484,0
1582059281.468,-7.812,-906.250,9.766,-32.715,0
1582059281.471,0.000,-651.367,9.766,-12.695,0
1582059281.475,2.930,-616.211,9.277,14.648,0
1582059281.479,-0.488,-837.402,7.324,3.906,0
1582059281.483,3.906,-921.875,5.371,-13.184,0
1582059281.487,-4.883,-665.039,4.395,-11.719,0
1582059281.489,-7.812,-601.074,0.977,-9.277,0
1582059281.493,-0.488,-704.102,-1.953,-9.277,0
1582059281.497,11.719,-689.453,1.465,-7.812,0
1582059281.501,24.902,-593.262,3.418,-11.719,0
1582059281.505,16.113,-586.914,5.859,-11.230,0
1582059281.509,6.836,-799.316,8.301,-5.859,0
