timestamps,TP9,AF7,AF8,TP10,Right AUX,Marker0
1556550461.177,29.297,42.480,34.180,-57.617,-798.828,0
1556550461.181,5.859,41.992,25.391,-48.828,-791.016,0
1556550461.185,-20.996,34.668,19.043,-46.875,-776.367,0
1556550461.189,5.859,29.785,19.043,-50.781,-741.699,0
1556550461.193,37.109,15.137,26.855,-52.246,-725.098,0
1556550461.197,18.066,20.508,31.738,-46.875,-731.934,0
1556550461.201,-21.484,35.645,33.691,-43.945,-705.078,0
1556550461.204,-4.883,40.527,37.598,-42.969,-647.949,0
1556550461.208,39.551,48.340,26.855,-38.086,-600.098,0
1556550461.212,31.250,38.574,12.695,-41.992,-562.988,0
1556550461.216,-14.160,31.250,21.484,-46.387,-552.734,0
1556550461.220,-20.996,30.762,36.133,-45.898,-530.273,0
1556550461.222,21.973,33.203,32.227,-39.062,-459.473,0
1556550461.226,35.645,26.855,22.949,-36.133,-402.344,0
1556550461.230,2.441,20.996,21.973,-34.180,-411.621,0
1556550461.234,-19.043,25.391,18.555,-30.273,-441.406,0
1556550461.238,7.324,32.715,31.738,-27.832,-423.828,0
1556550461.242,35.156,29.785,46.387,-24.902,-360.352,0
1556550461.246,11.230,18.555,33.203,-25.391,-367.188,0
1556550461.249,-25.391,20.020,21.484,-21.973,-379.395,0
1556550461.253,-4.395,23.926,17.578,-14.648,-315.430,0
1556550461.257,35.645,29.297,8.301,-7.324,-283.203,0
1556550461.261,26.367,26.367,5.371,5.859,-270.020,0
1556550461.265,-10.254,26.855,7.812,7.324,-220.703,0
1556550461.282,-4.395,15.137,19.043,5.371,-195.801,0
1556550461.286,40.527,0.000,37.109,16.113,-183.105,0
1556550461.290,50.293,14.648,38.574,25.391,-201.172,0
1556550461.294,8.789,29.785,27.344,22.949,-181.152,0
1556550461.298,-11.230,31.250,26.855,14.648,-158.691,0
1556550461.302,10.254,22.461,29.785,7.812,-181.152,0
1556550461.306,24.414,19.043,26.367,13.672,-207.520,0
1556550461.309,5.371,20.996,21.973,28.320,-207.031,0
1556550461.313,-15.625,17.578,12.695,29.785,-165.039,0
1556550461.317,11.719,16.602,10.742,20.020,-151.855,0
1556550461.321,41.504,23.438,26.855,22.461,-120.605,0
1556550461.325,33.203,30.762,20.996,42.480,-116.211,0
1556550461.327,11.719,28.809,12.695,49.316,-135.742,0
1556550461.331,25.879,14.160,18.066,43.945,-121.582,0
1556550461.335,55.664,7.324,20.508,44.922,-77.637,0
1556550461.339,44.434,17.578,30.762,45.898,-59.082,0
1556550461.343,5.371,29.785,40.527,47.852,-81.055,0
1556550461.347,3.418,34.180,30.762,49.316,-72.266,0
1556550461.351,40.527,32.227,23.438,49.316,-44.922,0
1556550461.354,40.039,37.598,33.203,44.434,-30.762,0
1556550461.358,-5.859,34.668,24.414,38.086,-53.711,0
1556550461.362,-16.602,30.762,15.625,33.203,-57.129,0
1556550461.366,20.996,37.109,23.438,33.691,-3.906,0
1556550461.370,36.621,29.785,20.020,35.645,-15.625,0
1556550461.372,9.277,14.648,19.531,33.203,-26.367,0
1556550461.376,-12.695,8.301,32.227,35.156,-24.902,0
1556550461.380,18.066,17.090,38.574,38.574,10.254,0
1556550461.384,45.410,13.672,31.250,37.598,20.996,0
1556550461.388,25.391,19.531,19.531,37.598,21.973,0
1556550461.392,0.000,32.227,22.461,41.504,43.457,0
1556550461.396,13.184,23.438,37.598,42.969,27.344,0
1556550461.399,40.527,18.066,44.434,40.039,30.762,0
1556550461.403,39.551,10.742,45.898,40.039,26.855,0
1556550461.407,5.859,13.184,36.621,45.898,28.809,0
1556550461.411,3.418,22.949,33.203,51.758,38.574,0
1556550461.415,42.480,20.996,40.527,48.828,43.945,0
1556550461.417,49.805,18.066,43.457,51.270,76.172,0
1556550461.421,16.602,19.043,25.879,54.688,98.633,0
1556550461.425,0.488,14.648,8.789,57.617,101.074,0
1556550461.429,29.785,13.184,25.879,56.152,95.215,0
1556550461.433,52.246,21.484,46.875,54.199,109.863,0
1556550461.437,23.926,23.438,51.270,54.199,115.234,0
1556550461.441,-9.277,14.648,38.574,51.758,138.184,0
1556550461.444,12.207,4.883,35.645,46.875,163.574,0
1556550461.448,45.898,1.465,37.598,48.340,150.391,0
1556550461.452,29.297,7.324,33.691,52.246,182.129,0
1556550461.456,0.488,12.207,36.133,57.129,215.332,0
1556550461.460,23.438,19.043,32.227,62.012,229.004,0
1556550461.462,60.547,20.996,29.297,60.547,237.305,0
1556550461.466,58.105,22.949,16.113,58.594,211.426,0
1556550461.470,15.137,20.508,7.324,50.293,236.328,0
1556550461.474,-2.930,17.090,28.320,38.086,263.672,0
1556550461.478,35.645,21.973,33.203,36.133,258.301,0
1556550461.482,46.387,19.043,30.762,37.598,254.395,0
1556550461.486,11.719,20.996,38.086,40.039,262.695,0
1556550461.489,0.488,24.414,36.621,40.527,246.094,0
1556550461.493,33.691,20.508,29.297,38.574,236.816,0
1556550461.497,56.641,16.113,15.137,40.527,248.535,0
1556550461.501,32.227,17.578,12.695,43.945,268.066,0
1556550461.505,3.418,15.137,19.043,44.434,278.320,0
1556550461.507,24.902,12.695,4.883,42.969,276.855,0
1556550461.511,55.176,27.832,19.043,39.551,249.023,0
1556550461.515,37.598,38.574,41.504,35.645,231.445,0
1556550461.519,-1.953,35.156,32.715,31.250,214.844,0
1556550461.523,4.395,36.133,21.973,31.250,208.008,0
1556550461.527,41.992,34.180,19.043,33.203,237.793,0
1556550461.531,43.945,30.273,15.625,25.391,244.141,0
1556550461.534,5.859,26.367,14.648,20.508,209.473,0
1556550461.538,-8.789,25.879,15.137,23.926,196.777,0
1556550461.542,27.832,21.973,15.137,23.926,205.566,0
1556550461.546,41.016,12.695,15.625,20.020,200.195,0
1556550461.550,9.766,18.555,14.648,22.949,179.688,0
1556550461.552,-10.254,27.832,7.324,28.320,188.477,0
1556550461.556,18.066,27.832,11.230,27.832,207.520,0
1556550461.560,42.969,21.484,23.438,25.879,198.730,0
1556550461.564,21.973,22.461,30.273,25.879,181.152,0
1556550461.568,-3.906,32.715,37.109,31.250,173.828,0
1556550461.572,13.672,27.832,35.645,30.762,171.875,0
1556550461.576,49.316,29.297,32.715,26.367,159.668,0
1556550461.579,39.062,35.645,26.367,20.508,147.461,0
1556550461.583,-2.441,34.668,26.367,17.090,146.484,0
1556550461.587,3.418,30.762,25.879,20.020,144.043,0
1556550461.591,44.434,29.785,17.090,18.066,136.230,0
1556550461.595,46.875,36.621,10.254,12.207,146.973,0
1556550461.597,5.859,40.527,19.531,14.160,144.043,0
1556550461.601,-6.348,35.645,24.902,19.531,131.836,0
1556550461.605,29.785,26.367,17.578,18.555,90.820,0
1556550461.609,51.758,26.855,23.926,21.484,81.543,0
1556550461.613,23.926,34.180,31.738,23.438,110.840,0
1556550461.617,-1.465,38.086,23.926,24.902,117.188,0
1556550461.621,32.227,46.875,28.809,36.621,130.859,0
1556550461.624,55.664,40.527,36.133,32.227,147.949,0
1556550461.628,38.086,26.855,28.320,30.762,162.598,0
1556550461.632,7.324,20.996,29.785,37.109,162.598,0
1556550461.636,7.812,26.855,35.156,27.832,178.711,0
1556550461.640,44.922,36.621,46.387,27.832,201.660,0
1556550461.658,50.781,32.227,48.340,36.133,191.895,0
1556550461.662,21.484,25.391,37.598,46.387,211.914,0
1556550461.666,26.367,30.273,40.527,56.641,254.883,0
1556550461.670,69.824,38.086,43.457,60.547,277.344,0
1556550461.674,70.801,41.016,38.086,58.594,295.898,0
1556550461.678,29.297,33.203,32.227,50.781,278.320,0
1556550461.682,11.719,22.461,30.762,46.875,265.625,0
1556550461.685,38.574,20.996,35.156,47.363,285.156,0
1556550461.689,62.988,29.297,41.016,49.805,332.031,0
1556550461.693,35.156,30.762,35.645,49.805,352.051,0
1556550461.697,-0.977,24.414,35.645,44.434,330.566,0
1556550461.701,17.578,24.414,30.273,41.992,355.957,0
1556550461.703,45.898,16.113,17.578,38.086,370.117,0
1556550461.707,34.180,14.160,29.297,36.133,329.590,0
1556550461.711,2.930,21.973,39.551,42.969,351.074,0
1556550461.715,13.672,16.113,32.227,47.363,367.676,0
1556550461.719,47.363,10.254,21.484,41.504,332.520,0
1556550461.723,45.898,5.371,18.066,30.762,343.262,0
1556550461.727,3.906,0.488,23.926,32.715,318.848,0
1556550461.730,-10.254,7.812,41.504,32.227,304.688,0
1556550461.734,28.809,16.113,49.805,26.367,333.496,0
1556550461.738,38.086,8.301,38.574,29.785,319.824,0
1556550461.742,6.836,11.719,30.273,38.574,314.941,0
1556550461.746,-5.859,14.648,22.949,44.922,351.562,0
1556550461.763,25.391,8.301,26.367,48.828,368.164,0
1556550461.767,50.781,16.602,41.016,54.688,363.281,0
1556550461.771,21.973,18.066,39.551,53.711,347.168,0
1556550461.775,-2.930,14.160,30.273,50.781,342.285,0
1556550461.779,25.391,14.648,19.531,49.805,338.379,0
1556550461.783,58.105,15.625,8.301,54.199,304.199,0
1556550461.787,40.527,16.113,19.043,46.875,281.250,0
1556550461.790,-1.953,10.254,30.762,35.645,281.250,0
1556550461.794,8.789,8.789,31.738,31.738,272.461,0
1556550461.798,41.504,15.625,24.414,21.973,248.535,0
1556550461.802,26.367,23.926,14.160,9.277,234.375,0
1556550461.806,-10.742,24.414,31.738,8.301,248.047,0
1556550461.793,-22.461,23.926,30.762,9.277,253.906,0
1556550461.797,6.836,24.414,10.742,0.000,210.449,0
1556550461.801,25.879,23.926,5.371,-5.859,187.500,0
1556550461.805,-7.324,12.695,15.137,-4.395,173.340,0
1556550461.809,-31.250,6.836,33.691,0.000,176.270,0
1556550461.813,2.441,20.996,40.527,1.465,173.828,0
1556550461.817,26.367,31.250,33.203,-7.812,146.973,0
1556550461.820,0.000,24.902,25.391,-14.648,118.164,0
1556550461.824,-35.156,22.949,33.203,-12.207,107.422,0
1556550461.828,-11.719,32.227,33.203,-11.230,106.445,0
1556550461.832,29.785,39.551,32.227,-6.836,75.195,0
1556550461.836,18.066,37.598,43.945,-1.953,68.359,0
1556550461.838,-14.648,26.855,39.062,-2.930,34.668,0
1556550461.842,-9.277,32.227,27.832,2.441,8.301,0
1556550461.846,26.855,32.715,29.297,5.859,28.809,0
1556550461.850,38.574,31.250,38.086,15.137,15.625,0
1556550461.854,12.207,36.133,47.852,24.902,0.000,0
1556550461.858,-0.488,32.715,51.270,20.996,6.348,0
1556550461.862,30.762,35.156,53.711,14.160,1.465,0
1556550461.865,49.805,35.645,41.504,4.883,-34.180,0
1556550461.869,16.602,31.738,29.785,-1.465,-83.984,0
1556550461.873,-13.184,33.203,43.945,0.488,-76.172,0
1556550461.877,13.672,28.320,38.574,3.418,-51.758,0
1556550461.881,44.922,23.926,22.461,3.418,-94.238,0
1556550461.883,21.484,33.691,30.273,-1.465,-123.535,0
1556550461.887,-10.254,46.387,42.969,0.488,-118.164,0
1556550461.891,5.371,38.574,48.828,-0.977,-146.973,0
1556550461.895,33.203,23.926,49.316,-13.672,-173.340,0
1556550461.899,24.902,29.297,32.227,-20.996,-157.227,0
1556550461.903,-14.648,35.645,12.207,-24.902,-180.176,0
1556550461.907,-20.996,36.133,21.484,-25.391,-234.375,0
1556550461.910,12.207,30.762,21.484,-34.668,-250.488,0
1556550461.914,22.461,23.926,18.555,-38.086,-274.902,0
1556550461.918,-12.695,20.020,19.043,-29.297,-290.527,0
1556550461.922,-27.344,28.320,20.020,-21.484,-309.570,0
1556550461.926,6.348,37.109,27.832,-26.367,-316.895,0
1556550461.928,22.949,33.203,34.668,-32.715,-308.105,0
1556550461.932,-2.441,30.273,32.227,-32.227,-331.543,0
1556550461.936,-24.414,31.250,24.414,-27.832,-350.098,0
1556550461.940,6.348,37.598,23.438,-25.879,-365.234,0
1556550461.944,39.062,43.457,20.996,-22.949,-368.164,0
1556550461.948,20.996,38.086,16.602,-22.949,-353.027,0
1556550461.952,-6.836,36.133,17.090,-20.508,-350.586,0
1556550461.955,6.348,29.785,8.789,-21.973,-376.465,0
1556550461.959,38.574,22.461,14.160,-17.090,-366.211,0
1556550461.963,37.598,29.785,25.391,-6.348,-345.703,0
1556550461.967,3.906,31.250,20.508,-3.906,-345.215,0
1556550461.971,-5.371,29.785,24.902,0.488,-314.941,0
1556550461.973,26.855,31.250,34.180,1.953,-261.719,0
1556550461.977,39.551,28.809,39.062,9.277,-249.512,0
1556550461.981,12.695,28.809,40.527,17.578,-242.676,0
1556550461.985,-2.930,31.738,39.551,18.066,-194.824,0
1556550461.989,31.738,31.738,34.180,20.996,-142.090,0
1556550461.993,62.012,23.438,22.461,23.438,-119.629,0
1556550461.997,29.785,16.113,19.043,22.461,-120.117,0
1556550462.000,-1.465,25.879,28.809,29.785,-66.895,0
1556550462.004,29.297,36.621,27.344,38.086,-0.488,0
1556550462.008,65.918,26.855,24.902,40.039,-1.953,0
1556550462.012,45.410,13.184,39.062,36.133,32.227,0
1556550462.016,4.883,21.484,43.945,31.250,86.426,0
1556550462.033,19.531,28.809,31.738,35.645,97.656,0
1556550462.037,58.105,21.973,26.855,39.062,72.266,0
1556550462.041,61.035,23.926,33.691,43.457,79.102,0
1556550462.045,32.227,34.180,28.809,51.758,142.090,0
1556550462.049,28.320,31.250,15.137,62.012,163.574,0
1556550462.053,70.801,20.020,3.906,67.871,146.973,0
1556550462.057,85.449,34.180,11.230,60.059,152.344,0
1556550462.060,43.457,44.434,14.648,52.734,183.594,0
1556550462.064,16.113,30.762,18.066,59.570,177.246,0
1556550462.068,43.945,23.926,28.809,60.547,165.527,0
1556550462.072,66.895,19.043,37.109,48.828,175.293,0
1556550462.076,42.480,13.672,35.645,46.387,182.129,0
1556550462.077,9.277,16.602,23.438,48.340,188.477,0
1556550462.081,22.949,29.785,21.973,42.480,206.543,0
1556550462.085,56.641,30.762,20.996,38.574,215.332,0
1556550462.089,51.270,31.738,16.602,42.969,222.656,0
1556550462.093,13.672,33.203,11.719,45.410,247.559,0
1556550462.097,19.043,38.574,23.438,46.387,244.629,0
1556550462.101,52.734,36.621,20.996,43.945,211.426,0
1556550462.104,47.852,24.414,11.719,41.992,211.914,0
1556550462.108,16.113,26.367,24.414,45.898,244.629,0
1556550462.112,2.441,22.461,26.367,38.574,231.934,0
1556550462.116,31.738,23.438,35.156,29.297,234.863,0
1556550462.120,47.852,27.344,38.574,28.320,257.812,0
1556550462.122,15.137,24.902,22.949,27.832,245.117,0
1556550462.126,-12.695,30.762,25.879,28.809,233.398,0
1556550462.130,19.531,38.086,34.180,36.133,241.211,0
1556550462.134,53.223,29.785,24.902,39.551,266.602,0
1556550462.138,26.367,13.184,19.531,38.086,282.227,0
1556550462.142,-0.977,12.695,21.484,47.852,251.465,0
1556550462.146,24.902,18.555,24.414,59.082,267.578,0
1556550462.149,60.547,20.020,26.367,59.570,305.176,0
1556550462.153,56.641,12.695,35.156,57.617,279.785,0
1556550462.157,25.391,16.113,31.250,65.918,252.930,0
1556550462.161,20.996,27.832,16.113,64.941,258.789,0
1556550462.165,57.129,31.250,34.180,59.082,279.785,0
1556550462.167,63.965,32.227,45.898,61.523,288.086,0
1556550462.171,28.320,33.691,34.668,61.523,286.133,0
1556550462.175,9.277,30.762,37.109,54.688,275.391,0
1556550462.179,44.434,26.855,43.945,52.246,270.996,0
1556550462.183,67.383,25.391,37.109,49.805,279.785,0
1556550462.187,40.039,34.668,42.480,49.316,300.293,0
1556550462.191,9.277,35.645,48.340,54.199,302.246,0
1556550462.194,24.414,32.715,43.945,51.758,282.227,0
1556550462.198,54.688,36.133,43.945,47.363,275.879,0
1556550462.202,35.645,36.133,35.645,41.504,292.969,0
1556550462.206,-0.488,34.180,31.250,42.480,309.082,0
1556550462.210,13.672,28.809,27.344,48.340,303.223,0
1556550462.213,46.875,29.297,18.066,44.922,303.223,0
1556550462.217,43.945,32.227,13.672,42.480,306.641,0
1556550462.221,3.906,19.043,28.320,37.109,312.500,0
1556550462.225,0.977,6.836,50.293,34.668,298.340,0
1556550462.229,34.668,14.160,43.457,26.855,279.785,0
1556550462.233,34.180,20.508,32.227,15.625,290.039,0
1556550462.237,7.812,22.461,30.273,20.996,304.688,0
1556550462.240,-3.418,19.531,23.438,29.297,308.105,0
1556550462.244,29.297,21.973,25.391,26.855,288.574,0
1556550462.248,52.734,31.738,35.156,27.832,279.297,2
1556550462.252,31.738,25.391,29.297,35.156,270.020,0
1556550462.256,1.953,15.625,16.602,33.691,267.090,0
1556550462.257,14.160,15.137,17.090,28.809,268.066,0
1556550462.261,48.340,15.625,24.414,25.879,244.141,0
1556550462.265,39.551,22.949,40.527,26.367,214.844,0
1556550462.269,5.859,31.738,51.270,40.039,191.406,0
1556550462.273,10.742,30.762,42.480,42.969,180.176,0
1556550462.277,42.480,26.367,20.996,33.203,170.410,0
1556550462.281,44.434,30.273,14.160,35.156,143.555,0
1556550462.284,10.254,26.855,33.691,35.645,110.840,0
1556550462.288,1.465,29.785,37.109,31.250,108.398,0
1556550462.292,33.691,25.391,31.250,26.367,118.652,0
1556550462.296,46.387,14.160,39.062,24.414,97.656,0
1556550462.300,19.043,16.113,41.992,27.344,86.426,0
1556550462.302,-7.812,17.578,28.809,23.926,97.168,0
1556550462.306,13.672,12.695,9.766,14.160,71.777,0
1556550462.310,38.574,16.113,7.324,7.812,36.621,0
1556550462.314,19.531,21.973,19.043,12.207,40.039,0
1556550462.318,-8.301,22.461,39.062,20.508,26.367,0
1556550462.322,2.441,21.484,40.527,13.184,-20.508,0
1556550462.326,28.809,17.090,29.297,0.488,-41.016,0
1556550462.329,18.555,16.113,34.180,-1.465,-27.832,0
1556550462.333,-11.230,26.367,31.250,1.465,-18.066,0
1556550462.337,-8.301,24.414,25.879,0.000,-24.902,0
1556550462.341,27.344,13.672,43.945,2.930,-48.340,0
1556550462.345,32.715,16.113,54.199,6.836,-44.922,0
1556550462.347,-2.930,11.230,42.480,10.254,-28.320,0
1556550462.351,-5.859,13.672,28.320,14.160,-31.738,0
1556550462.355,31.250,20.996,32.715,9.766,-54.688,0
1556550462.359,44.922,23.438,19.531,6.348,-83.008,0
1556550462.363,15.137,24.902,11.719,5.371,-62.988,0
1556550462.367,-13.672,22.949,31.250,5.859,-32.227,0
1556550462.371,7.324,24.902,29.297,-0.488,-66.406,0
1556550462.374,39.551,27.832,19.043,0.000,-83.496,0
1556550462.378,30.762,30.762,31.738,17.578,-66.895,0
1556550462.382,2.930,18.066,39.551,26.367,-49.805,0
1556550462.386,8.789,9.277,23.438,16.602,-40.527,0
1556550462.390,44.922,19.043,17.578,17.578,-46.387,0
1556550462.422,35.645,18.555,27.832,20.996,-35.156,0
1556550462.426,-10.254,19.531,27.344,13.184,-48.340,0
1556550462.430,-17.090,13.672,15.137,7.324,-80.566,0
1556550462.434,12.695,1.465,3.418,2.930,-84.473,0
1556550462.438,20.996,11.230,10.254,1.465,-98.145,0
1556550462.442,-5.371,10.742,26.855,2.930,-125.977,0
1556550462.446,-22.949,10.254,33.203,1.465,-118.652,0
1556550462.449,8.301,25.391,30.273,0.977,-119.629,0
1556550462.453,39.062,26.367,32.715,8.789,-106.445,0
1556550462.457,10.742,21.973,29.297,9.766,-72.266,0
1556550462.461,-21.973,16.602,20.020,10.742,-74.707,0
1556550462.465,4.395,20.020,22.461,14.648,-62.012,0
1556550462.452,39.062,18.066,25.879,13.184,-54.688,0
1556550462.456,25.879,10.254,23.438,18.555,-51.270,0
1556550462.460,-5.371,18.555,3.418,23.926,-20.996,0
1556550462.464,9.766,33.691,4.395,27.832,-5.371,0
1556550462.468,45.410,36.621,26.367,31.250,-2.930,0
1556550462.472,38.086,29.297,20.508,27.344,4.395,0
1556550462.476,3.418,29.297,14.160,32.715,10.254,0
1556550462.479,-1.953,22.949,21.484,38.086,6.348,0
1556550462.483,34.668,21.973,39.551,31.250,-13.672,0
1556550462.487,48.828,36.621,51.758,26.367,-13.672,0
1556550462.491,10.254,34.668,46.875,23.926,-1.465,0
1556550462.495,-11.719,31.738,47.852,28.320,10.254,0
1556550462.497,25.391,28.320,43.457,33.203,8.301,0
1556550462.501,49.316,23.926,32.715,27.832,-13.184,0
1556550462.505,20.508,38.086,27.832,27.832,3.906,0
1556550462.509,-4.395,39.062,25.391,36.621,10.254,0
1556550462.513,18.555,25.879,36.621,39.551,0.000,0
1556550462.517,46.875,26.855,46.875,33.203,5.859,0
1556550462.521,30.273,26.367,41.992,26.367,18.555,0
1556550462.524,-2.441,22.461,37.598,25.391,39.062,0
1556550462.528,13.672,29.297,38.574,26.855,17.090,0
1556550462.532,44.922,24.902,40.039,25.879,-1.953,0
1556550462.536,37.109,17.090,21.484,18.555,23.438,0
1556550462.540,0.000,22.461,7.812,18.555,20.508,0
1556550462.543,-9.277,27.344,8.301,25.391,15.137,0
1556550462.547,30.762,24.414,20.020,34.180,22.461,0
1556550462.551,48.828,17.578,37.109,36.133,32.715,0
1556550462.555,8.301,25.391,40.527,20.508,24.902,0
1556550462.559,-24.414,32.715,33.691,6.836,11.719,0
1556550462.563,5.859,32.227,41.504,4.395,-5.859,0
1556550462.567,24.414,34.180,37.109,-6.348,-12.695,0
1556550462.570,-7.324,22.949,12.695,-16.113,-7.324,0
1556550462.574,-36.133,13.672,16.602,-16.113,-9.277,0
1556550462.578,-25.391,20.020,28.320,-20.996,-21.973,0
1556550462.582,3.418,25.391,21.973,-23.926,-19.531,0
1556550462.586,-2.441,21.973,28.320,-20.996,-24.902,0
1556550462.588,-40.039,15.625,27.344,-9.766,-46.387,0
1556550462.592,-38.574,17.090,20.020,-6.348,-50.781,0
1556550462.596,4.395,25.879,41.016,-4.883,-59.570,0
1556550462.600,15.137,29.785,49.316,1.953,-65.918,0
1556550462.604,-19.531,20.996,40.039,-0.977,-70.312,0
1556550462.608,-30.273,16.602,24.902,0.488,-68.359,0
1556550462.612,5.859,22.461,24.414,1.465,-65.430,0
1556550462.615,23.438,20.508,24.902,-2.930,-78.125,0
1556550462.619,-7.812,17.578,12.695,-6.348,-110.840,0
1556550462.623,-32.227,22.949,15.625,-4.883,-124.512,0
1556550462.627,-1.953,30.273,15.137,-6.348,-135.254,0
1556550462.631,21.484,26.855,24.902,-15.625,-124.023,0
1556550462.633,-1.465,18.555,42.480,-17.090,-138.672,0
1556550462.637,-33.203,9.766,41.504,-14.648,-152.832,0
1556550462.641,-21.484,9.277,32.715,-18.066,-153.809,0
1556550462.645,22.461,20.996,23.926,-16.113,-180.664,0
1556550462.649,27.344,25.391,28.320,-12.695,-197.754,0
1556550462.653,-15.137,16.602,27.344,-13.184,-200.684,0
1556550462.657,-9.766,14.648,8.789,-3.906,-189.941,0
1556550462.660,28.320,15.137,-4.883,-11.230,-203.613,0
1556550462.664,24.414,20.996,1.953,-26.367,-237.305,0
1556550462.668,-6.348,25.391,19.531,-19.043,-221.191,0
1556550462.672,-22.461,9.277,25.879,-12.207,-201.172,0
1556550462.676,8.301,1.465,22.949,-13.672,-215.820,0
1556550462.678,30.273,9.766,26.367,-12.695,-236.816,0
1556550462.682,0.488,16.113,30.273,-10.254,-261.719,0
1556550462.686,-24.414,19.531,27.344,-6.348,-258.301,0
1556550462.690,-1.465,26.855,17.578,-5.859,-244.141,0
1556550462.694,14.160,17.090,5.859,-20.996,-243.164,0
1556550462.698,-2.441,16.113,6.836,-25.391,-264.160,0
1556550462.702,-25.879,20.020,10.254,-17.090,-272.461,0
1556550462.705,-9.766,19.043,20.020,-18.066,-267.090,0
1556550462.709,32.715,27.344,27.832,-20.020,-276.367,0
1556550462.713,32.227,19.043,15.137,-16.602,-257.324,0
1556550462.717,-1.465,0.977,15.625,-10.254,-277.832,0
1556550462.721,-6.836,8.301,22.461,-5.371,-297.363,0
1556550462.723,26.367,19.531,21.484,-5.859,-285.156,0
1556550462.727,36.621,12.207,22.461,-9.766,-291.992,0
1556550462.731,-2.441,10.254,10.742,-17.090,-290.039,0
1556550462.735,-30.762,12.695,6.836,-24.414,-312.500,0
1556550462.739,0.977,20.508,20.020,-25.391,-324.219,0
1556550462.743,24.414,15.625,22.949,-31.738,-311.035,0
1556550462.747,-4.883,2.441,13.184,-39.062,-341.309,0
1556550462.750,-34.180,10.742,6.348,-41.504,-370.117,0
1556550462.754,-10.254,19.043,21.484,-42.480,-360.840,0
1556550462.758,24.414,18.555,19.531,-41.016,-360.352,0
1556550462.762,10.742,19.531,3.418,-44.922,-383.301,0
1556550462.766,-20.508,19.531,17.578,-39.062,-403.320,0
1556550462.783,-13.184,16.113,29.297,-27.832,-382.324,0
1556550462.787,21.484,21.484,22.461,-26.367,-364.746,0
1556550462.791,25.879,21.973,18.066,-27.344,-362.305,0
1556550462.795,-6.348,15.137,30.273,-22.461,-370.605,0
1556550462.799,-18.555,14.160,30.273,-20.020,-379.395,0
1556550462.803,18.066,17.578,16.602,-18.066,-387.207,0
1556550462.807,37.598,23.926,16.602,-14.648,-378.906,0
1556550462.810,1.465,18.555,19.043,-13.672,-347.656,0
1556550462.814,-20.508,12.207,10.742,-11.719,-358.398,0
1556550462.818,5.859,8.789,7.324,-15.625,-384.766,0
1556550462.822,26.367,3.418,15.137,-20.020,-378.906,0
1556550462.826,2.930,13.672,16.602,-16.113,-361.816,0
1556550462.843,-25.879,20.020,6.348,-10.254,-345.703,0
1556550462.847,-9.277,17.090,6.348,-11.719,-357.910,0
1556550462.851,25.391,18.555,12.695,-13.672,-355.469,0
1556550462.855,21.973,21.973,19.531,-12.207,-344.727,0
1556550462.859,-2.441,29.785,28.809,-2.441,-355.469,0
1556550462.863,-5.371,30.762,28.809,-1.465,-342.773,0
1556550462.867,20.996,31.250,21.973,-6.836,-322.754,0
1556550462.870,34.180,31.738,16.113,-2.930,-317.871,0
1556550462.874,4.395,20.020,16.602,2.930,-332.031,0
1556550462.878,-15.625,18.555,17.578,3.418,-290.039,0
1556550462.882,10.742,30.762,17.090,2.930,-233.398,0
1556550462.886,34.668,36.621,20.996,7.324,-243.164,0
1556550462.873,13.672,30.273,22.461,13.672,-220.703,0
1556550462.877,-11.230,29.785,20.508,20.020,-215.820,0
1556550462.881,6.348,30.762,21.973,17.578,-254.395,0
1556550462.885,36.621,28.809,27.344,15.625,-268.066,0
1556550462.889,21.973,26.855,33.691,13.672,-239.258,0
1556550462.893,-14.648,28.809,24.902,15.625,-201.172,0
1556550462.897,-1.953,32.227,15.625,20.020,-185.059,0
1556550462.900,28.320,29.297,13.672,12.207,-148.926,0
1556550462.904,22.949,21.973,15.137,9.277,-101.074,0
1556550462.908,-4.883,30.273,19.043,16.113,-100.098,0
1556550462.912,-12.207,43.945,23.438,12.207,-131.348,0
1556550462.916,16.602,44.434,30.762,8.789,-137.695,0
1556550462.918,27.344,37.598,36.133,11.230,-92.773,0
1556550462.922,-1.953,38.086,38.574,14.160,-125.000,0
1556550462.926,-11.230,45.410,45.898,14.160,-109.375,0
1556550462.930,17.578,36.621,41.504,6.836,-62.988,0
1556550462.934,36.621,32.227,17.578,5.859,-66.406,0
1556550462.938,21.484,38.574,15.137,12.207,-77.148,0
1556550462.942,-3.906,34.668,20.996,12.695,-90.332,0
1556550462.945,20.996,31.738,28.809,12.695,-71.777,0
1556550462.949,51.270,37.109,40.527,6.836,-62.500,0
1556550462.953,30.273,45.898,36.133,7.324,-63.965,0
1556550462.957,-0.488,41.992,40.527,22.949,-80.566,0
1556550462.961,9.766,31.250,41.016,30.762,-58.594,0
1556550462.963,42.480,30.273,37.109,27.832,-29.785,0
1556550462.967,40.039,29.297,33.691,31.250,-56.152,0
1556550462.971,14.160,29.297,23.438,41.504,-45.898,0
1556550462.975,11.230,28.320,24.902,42.969,-36.133,0
1556550462.979,37.598,28.320,23.926,36.621,-33.691,0
1556550462.983,47.852,20.996,19.531,29.785,-21.973,0
1556550462.987,20.996,25.391,25.879,33.691,-28.809,0
1556550462.990,-0.488,31.738,31.250,29.785,-27.344,0
1556550462.994,16.602,21.484,34.668,12.695,-61.523,0
1556550462.998,43.457,21.973,30.273,11.230,-21.973,0
1556550463.002,27.832,26.367,24.414,20.020,-20.996,0
1556550463.006,-1.465,29.785,19.531,27.832,-55.176,0
1556550463.008,16.602,34.668,18.555,33.203,-15.137,0
1556550463.012,54.688,34.668,24.414,34.668,16.602,0
1556550463.016,51.758,34.668,39.062,38.086,13.672,0
1556550463.020,20.508,38.086,40.527,39.551,-21.973,0
1556550463.024,25.879,37.598,37.109,39.551,8.301,0
1556550463.028,54.688,22.461,34.668,31.738,-9.766,0
1556550463.032,53.711,18.555,29.785,23.926,-29.297,0
1556550463.035,20.508,14.648,28.809,24.902,8.789,0
1556550463.039,7.324,18.555,26.855,25.391,-14.648,0
1556550463.043,44.922,33.203,25.391,28.320,-59.570,0
1556550463.047,61.035,32.227,24.414,26.855,-66.895,0
1556550463.051,24.414,34.668,23.926,26.367,-0.977,0
1556550463.053,0.977,33.691,29.785,28.809,25.879,0
1556550463.057,29.785,35.156,34.180,30.762,0.000,0
1556550463.061,55.176,40.527,19.531,28.809,15.625,0
1556550463.065,34.668,39.551,19.531,23.438,2.441,0
1556550463.069,1.465,38.574,22.949,25.391,12.695,0
1556550463.073,19.531,41.992,11.719,31.738,37.598,0
1556550463.077,56.152,32.227,22.949,31.738,-27.832,0
1556550463.080,39.551,21.973,41.016,22.461,-38.574,0
1556550463.084,-0.977,29.785,44.922,18.555,-24.902,0
1556550463.088,3.418,28.809,30.273,20.996,-19.043,0
1556550463.092,44.434,30.762,22.461,22.949,18.555,0
1556550463.096,56.152,35.156,38.086,24.902,6.348,0
1556550463.098,21.973,29.297,35.645,30.762,3.906,0
1556550463.102,7.812,22.461,30.762,34.668,24.902,0
1556550463.106,36.133,19.531,29.785,27.832,-5.859,0
1556550463.110,45.898,18.066,22.461,23.438,-21.973,0
1556550463.114,20.020,15.625,20.996,24.902,35.645,0
1556550463.118,-1.953,17.578,17.578,27.832,48.340,0
1556550463.122,20.020,28.320,11.719,21.484,69.824,0
1556550463.125,51.758,35.645,24.902,17.578,80.566,0
1556550463.129,36.621,38.086,35.156,22.461,40.039,0
1556550463.133,1.953,20.020,39.062,25.879,29.297,0
1556550463.137,14.160,12.695,35.156,24.902,2.930,0
1556550463.141,46.875,22.461,29.785,23.438,-19.531,0
1556550463.143,43.457,28.809,32.715,30.762,-17.090,0
1556550463.147,16.113,29.297,25.879,36.621,55.664,0
1556550463.151,10.254,21.484,9.277,30.762,38.574,0
1556550463.155,43.457,23.438,6.348,30.273,-34.668,0
1556550463.159,57.129,28.809,21.973,31.738,-17.578,0
1556550463.163,15.625,17.090,33.691,21.973,-23.438,0
1556550463.167,-4.883,17.090,36.133,12.695,16.113,0
1556550463.170,27.344,29.785,37.598,11.719,36.133,0
1556550463.174,43.457,28.320,25.391,9.277,23.438,0
1556550463.178,13.184,15.625,10.742,8.301,50.781,0
1556550463.182,-18.066,8.301,9.766,8.789,12.695,0
1556550463.186,2.930,22.949,6.836,9.277,5.371,0
1556550463.202,38.574,32.715,6.836,19.043,47.852,0
1556550463.206,32.715,31.738,8.301,31.250,28.809,0
1556550463.210,2.441,26.855,20.996,38.086,-1.465,0
1556550463.214,7.812,23.438,32.227,40.039,29.785,0
1556550463.218,52.734,29.785,30.273,44.922,50.293,0
1556550463.222,60.059,30.762,30.762,50.293,46.387,0
1556550463.226,9.277,25.391,28.809,38.086,26.367,0
1556550463.229,-19.531,17.090,22.949,19.531,12.207,0
1556550463.233,13.184,7.812,14.648,19.531,19.531,0
1556550463.237,30.273,10.254,16.113,14.160,3.906,0
1556550463.241,-5.371,10.742,18.555,6.348,37.109,0
1556550463.245,-19.531,12.207,15.625,19.043,54.688,0
1556550463.247,11.230,16.113,21.973,23.438,40.527,0
1556550463.251,46.875,13.672,27.344,25.391,88.867,0
1556550463.255,22.949,10.254,17.578,23.926,119.141,0
1556550463.259,-14.648,11.230,27.832,20.508,63.477,0
1556550463.263,10.254,11.719,38.574,26.855,45.898,0
1556550463.267,50.293,15.137,27.832,26.855,77.148,0
1556550463.271,44.434,20.996,25.879,21.484,40.039,0
1556550463.274,3.906,20.996,22.949,22.461,67.871,0
1556550463.278,3.906,15.625,21.973,17.578,80.078,0
1556550463.282,39.062,15.137,30.273,11.230,34.180,0
1556550463.286,42.969,15.137,27.344,14.648,29.297,0
1556550463.290,11.719,4.883,25.879,26.367,63.477,0
1556550463.292,-1.465,3.418,19.531,30.762,95.703,0
1556550463.296,30.762,12.207,16.602,26.367,86.426,0
1556550463.300,48.340,21.973,20.996,26.855,68.359,0
1556550463.304,8.789,19.531,24.414,23.926,70.801,0
1556550463.308,-25.391,8.301,31.738,21.484,51.758,0
1556550463.312,0.488,3.418,29.785,19.043,56.641,0
1556550463.316,30.762,13.184,32.227,20.996,87.891,0
1556550463.319,12.695,17.090,33.203,24.902,65.430,0
1556550463.323,-21.484,8.301,34.180,20.020,35.156,0
1556550463.327,-8.301,11.719,33.203,17.090,86.426,0
1556550463.331,28.320,18.555,30.273,22.949,110.352,0
1556550463.335,20.508,8.789,26.855,28.809,75.684,0
1556550463.337,-10.742,1.465,11.719,36.133,73.730,0
1556550463.341,-5.859,19.043,25.879,38.574,90.332,0
1556550463.345,32.227,36.621,44.922,37.598,117.188,0
1556550463.349,42.480,35.156,41.016,37.598,125.977,0
1556550463.353,7.324,22.949,39.551,31.738,117.676,0
1556550463.357,-6.348,22.461,41.016,30.273,109.375,0
1556550463.361,25.391,27.344,38.574,26.367,105.469,0
1556550463.364,44.922,28.320,35.156,21.484,115.723,0
1556550463.368,23.926,29.785,23.438,17.090,88.379,0
1556550463.372,-5.859,29.785,22.461,20.020,95.215,2
1556550463.376,20.996,29.785,35.645,23.926,94.238,0
1556550463.380,53.711,24.414,25.391,12.695,76.660,0
1556550463.382,32.715,21.484,19.531,7.324,109.863,0
1556550463.386,-2.930,31.738,21.973,9.766,94.238,0
1556550463.390,3.418,34.668,17.090,5.859,56.152,0
1556550463.394,35.645,31.250,21.484,4.395,57.617,0
1556550463.398,26.855,22.949,24.902,4.883,62.988,0
1556550463.402,-6.348,14.648,29.297,6.836,82.031,0
1556550463.406,-10.742,22.949,25.391,10.742,86.914,0
1556550463.409,23.438,20.020,29.785,14.160,71.289,0
1556550463.413,33.203,12.695,37.109,21.484,60.059,0
1556550463.417,-5.371,14.648,33.203,27.832,75.195,0
1556550463.421,-25.879,15.625,31.250,29.297,66.406,0
1556550463.425,1.465,11.230,34.668,21.973,45.410,0
1556550463.427,22.461,11.719,42.969,15.625,66.406,0
1556550463.431,6.348,20.020,40.527,24.414,53.223,0
1556550463.435,-21.484,16.602,35.156,22.461,21.973,0
1556550463.439,-4.395,19.531,32.227,12.207,19.043,0
1556550463.443,34.180,25.879,27.832,10.742,11.230,0
1556550463.447,25.391,28.320,18.066,13.184,12.207,0
1556550463.451,-6.836,24.902,16.602,18.066,-1.465,0
1556550463.454,-1.953,22.949,33.203,14.648,-20.020,0
1556550463.458,36.621,27.832,36.133,9.277,7.324,0
1556550463.462,43.457,18.066,30.762,12.695,-0.488,0
1556550463.466,11.719,22.949,35.156,16.113,-20.508,0
1556550463.470,-3.418,27.344,21.484,13.184,-10.742,0
1556550463.472,26.855,17.090,6.836,6.836,-26.367,0
1556550463.476,55.176,18.555,29.785,9.766,-45.410,0
1556550463.480,29.297,20.508,37.598,16.113,-53.223,0
1556550463.484,2.930,27.832,20.996,20.020,-42.480,0
1556550463.488,28.809,32.227,26.367,19.531,-13.184,0
1556550463.492,55.664,17.578,35.156,21.973,-5.371,0
1556550463.496,33.691,11.230,29.785,21.484,-54.688,0
1556550463.499,-4.395,16.602,28.809,18.555,-45.410,0
1556550463.503,10.254,21.973,28.809,20.508,-18.555,0
1556550463.507,40.527,15.625,11.230,15.137,-49.316,0
1556550463.511,21.973,10.254,13.184,8.789,-52.734,0
1556550463.515,-11.230,1.953,31.250,8.301,-49.316,0
1556550463.532,-5.859,-2.441,32.227,6.348,-29.785,0
1556550463.536,26.855,12.207,26.855,2.441,-24.902,0
1556550463.540,35.156,22.949,16.113,4.395,-48.828,0
1556550463.544,3.906,17.578,13.672,9.766,-56.641,0
1556550463.548,-7.324,16.602,26.855,14.648,-41.016,0
1556550463.552,27.344,20.996,38.086,13.184,-23.438,0
1556550463.556,38.574,15.625,29.297,3.418,-41.016,0
1556550463.559,11.230,19.043,29.785,4.395,-62.988,0
1556550463.563,-7.812,25.391,42.480,11.230,-61.035,0
1556550463.567,16.113,20.020,41.504,13.672,-41.504,0
1556550463.571,42.969,16.602,40.039,11.719,-36.133,0
1556550463.575,28.320,18.066,31.250,7.812,-55.664,0
1556550463.578,-0.488,13.184,16.602,7.324,-67.871,0
1556550463.582,8.301,9.766,20.508,8.301,-54.199,0
1556550463.586,50.781,18.066,38.574,12.207,-42.969,0
1556550463.590,48.340,19.043,41.016,11.719,-28.809,0
1556550463.594,10.742,14.648,39.062,17.578,-11.719,0
1556550463.598,12.695,21.484,38.574,24.902,-29.785,0
1556550463.602,47.852,26.367,31.738,21.484,-75.684,0
1556550463.605,50.293,25.391,27.832,17.090,-107.910,0
1556550463.609,15.137,27.832,34.668,21.484,-76.172,0
1556550463.613,-1.953,29.297,36.133,19.043,-64.453,0
1556550463.617,17.090,26.855,30.762,5.859,-49.316,0
1556550463.621,37.109,25.391,26.855,7.324,-27.344,0
1556550463.623,11.719,26.855,32.715,13.672,5.371,0
1556550463.627,-18.555,19.531,31.738,4.883,-21.484,0
1556550463.631,6.836,16.113,17.090,2.441,-24.414,0
1556550463.635,37.598,17.090,21.973,0.977,-18.066,0
1556550463.639,24.902,21.484,34.668,1.465,-73.730,0
1556550463.643,-7.324,28.320,32.715,7.324,-75.684,0
1556550463.647,5.371,25.879,28.320,9.766,-37.109,0
1556550463.650,41.504,22.461,26.367,14.160,-20.020,0
1556550463.654,38.086,16.602,35.156,15.625,-27.344,0
1556550463.658,4.883,18.555,39.062,19.531,-45.410,0
1556550463.662,-3.906,20.996,25.879,20.996,-56.641,0
1556550463.666,35.156,24.902,24.902,17.578,8.301,0
1556550463.667,50.293,38.086,26.855,18.555,6.348,0
1556550463.671,21.484,32.715,37.598,21.484,-36.621,0
1556550463.675,4.883,20.020,38.086,20.508,-60.059,0
1556550463.679,30.762,17.090,31.250,12.695,-12.207,0
1556550463.683,53.223,20.996,42.969,10.742,1.465,0
1556550463.687,20.508,18.555,52.734,9.277,-19.531,0
1556550463.691,-15.137,20.996,48.340,6.348,-17.090,0
1556550463.694,7.324,28.809,39.551,8.301,-42.480,0
1556550463.698,35.156,25.391,24.902,-2.930,27.832,0
1556550463.702,17.578,26.367,21.484,-12.695,52.246,0
1556550463.706,-17.090,30.273,26.367,-1.465,-7.812,0
1556550463.710,-11.719,32.227,20.508,1.465,-18.555,0
1556550463.712,24.414,32.227,18.066,2.930,15.137,0
1556550463.716,30.762,29.785,22.949,10.254,55.176,0
1556550463.720,0.000,24.414,28.809,14.648,16.602,0
1556550463.724,-0.488,25.879,38.086,18.066,34.180,0
1556550463.728,35.645,27.832,32.227,18.555,1.953,0
1556550463.732,48.340,33.203,31.250,19.043,-20.508,0
1556550463.736,19.531,33.203,22.949,21.484,13.672,0
1556550463.739,-5.859,25.879,13.672,21.484,-26.367,0
1556550463.743,14.648,24.902,23.926,12.695,-19.043,0
1556550463.747,42.969,32.715,35.156,15.625,18.066,0
1556550463.751,26.855,30.762,30.762,20.020,28.320,0
1556550463.755,-4.395,22.461,27.344,22.461,34.668,0
1556550463.757,13.184,28.320,32.715,24.414,13.184,0
1556550463.761,49.316,39.062,29.785,19.043,2.930,0
1556550463.765,43.945,37.109,34.180,21.484,24.414,0
1556550463.769,7.812,25.391,27.832,24.902,4.883,0
1556550463.773,4.395,27.344,21.973,19.531,-1.953,0
1556550463.777,36.621,30.762,22.461,22.949,11.719,0
1556550463.781,44.434,30.273,18.555,27.344,15.137,0
1556550463.784,13.184,36.133,27.344,24.414,22.461,0
1556550463.788,4.883,41.504,36.621,28.809,9.277,0
1556550463.792,39.551,44.434,32.227,30.762,27.344,0
1556550463.796,57.129,47.852,32.715,29.297,7.324,0
1556550463.800,24.902,42.480,40.527,33.203,-3.906,0
1556550463.802,-5.859,30.762,29.785,28.809,51.270,0
1556550463.806,15.625,26.855,20.020,17.090,31.738,0
1556550463.810,39.551,26.855,18.066,11.719,17.090,0
1556550463.814,20.508,20.020,11.719,15.625,7.324,0
1556550463.818,-10.742,20.508,15.625,20.020,-7.324,0
1556550463.822,-0.488,22.949,27.344,18.555,12.207,0
1556550463.826,33.691,19.043,37.598,17.090,64.941,0
1556550463.829,31.250,25.879,33.203,11.230,90.820,0
1556550463.833,0.977,36.133,26.855,16.602,62.500,0
1556550463.837,-0.488,33.203,35.156,23.438,54.688,0
1556550463.841,30.762,23.438,38.086,15.625,31.738,0
1556550463.845,41.016,20.020,33.691,12.207,-3.418,0
1556550463.847,5.371,18.555,32.715,13.184,1.465,0
1556550463.851,-11.230,20.020,29.785,14.160,53.711,0
1556550463.855,28.320,20.508,22.461,20.020,12.695,0
1556550463.859,54.199,19.043,27.832,20.996,-23.438,0
1556550463.863,27.344,18.555,35.645,21.973,29.785,0
1556550463.867,-0.488,16.113,38.086,24.902,88.867,0
1556550463.871,23.438,18.066,51.758,26.855,21.973,0
1556550463.874,53.711,26.855,56.641,31.738,-61.523,0
1556550463.878,28.809,23.438,55.176,25.879,-17.578,0
1556550463.882,-10.254,15.625,54.688,24.414,77.148,0
1556550463.886,1.465,21.973,44.922,26.855,67.871,0
1556550463.890,34.668,26.855,39.551,20.508,-6.348,0
1556550463.907,34.180,26.367,37.598,21.973,6.836,0
1556550463.911,1.465,24.414,42.969,28.320,-16.113,0
1556550463.915,-9.766,26.367,52.734,27.344,42.969,0
1556550463.919,22.949,29.297,46.875,16.113,64.453,0
1556550463.923,41.992,26.855,29.785,18.555,-16.113,0
1556550463.927,16.113,24.414,23.438,30.273,-16.602,0
1556550463.931,-4.395,21.973,38.574,28.320,2.930,0
1556550463.934,14.160,18.555,46.875,19.043,13.672,0
1556550463.938,29.785,17.578,41.504,13.184,-1.465,0
1556550463.942,5.371,23.926,31.250,15.137,-26.367,0
1556550463.946,-23.438,24.902,25.879,22.461,-9.766,0
1556550463.950,-5.371,26.367,21.973,20.996,-7.324,0
1556550463.953,34.180,28.320,19.043,20.508,27.344,0
1556550463.957,26.367,22.461,26.367,24.902,85.938,0
1556550463.961,-10.254,20.508,39.551,26.367,52.734,0
1556550463.965,-1.465,26.855,44.922,25.879,27.344,0
1556550463.969,36.621,27.832,32.227,19.531,28.809,0
1556550463.973,40.039,17.090,21.973,19.531,12.207,0
1556550463.977,6.348,15.137,22.461,19.531,8.301,0
1556550463.980,0.488,24.902,6.348,20.996,9.277,0
1556550463.984,40.527,23.438,18.555,27.344,48.340,0
1556550463.988,53.711,20.020,34.180,22.949,62.012,0
1556550463.992,22.461,29.297,27.832,28.320,16.113,0
1556550463.996,2.930,31.250,36.621,38.574,0.000,0
1556550463.998,22.949,21.973,32.227,30.762,5.371,0
1556550464.002,42.969,21.973,25.879,20.508,20.020,0
1556550464.006,13.184,20.020,29.297,12.695,6.348,0
1556550464.010,-20.508,21.484,20.020,15.137,23.438,0
1556550464.014,-4.883,18.555,0.488,13.672,63.477,0
1556550464.018,22.949,13.184,11.230,8.789,23.438,0
1556550464.022,13.672,16.113,24.902,7.324,14.648,0
1556550464.025,-19.043,18.066,18.066,10.254,-10.254,0
1556550464.029,-8.789,25.879,17.578,17.090,-0.977,0
1556550464.033,32.227,35.156,25.391,11.230,35.156,0
1556550464.037,32.227,31.738,35.156,1.953,8.301,0
1556550464.041,-10.254,20.508,33.691,4.395,-37.109,0
1556550464.042,-18.555,18.555,25.879,8.301,2.930,0
1556550464.046,20.508,21.973,17.090,7.324,41.504,0
1556550464.050,35.156,13.672,9.277,5.371,-9.277,0
1556550464.054,5.859,2.441,17.090,8.789,-47.363,0
1556550464.058,-18.555,7.324,17.578,12.695,-36.133,0
1556550464.062,15.625,26.367,14.648,16.602,16.602,0
1556550464.066,54.199,30.762,17.578,21.484,10.742,0
1556550464.069,28.320,24.414,13.672,16.113,-25.391,0
1556550464.073,-11.230,21.484,-1.465,11.230,17.578,0
1556550464.077,-0.977,20.020,1.953,8.301,76.172,0
1556550464.081,30.273,16.602,24.414,8.789,30.762,0
1556550464.085,25.391,12.207,27.344,11.719,-10.742,0
1556550464.087,-9.277,15.625,15.137,14.160,-12.207,0
1556550464.091,-9.766,16.113,-2.441,12.207,10.742,0
1556550464.095,33.203,17.090,9.277,12.695,-20.508,0
1556550464.099,51.758,20.996,24.414,21.973,-13.184,0
1556550464.103,12.695,18.555,19.531,22.461,-5.371,0
1556550464.107,-8.301,20.508,17.578,22.949,26.367,0
1556550464.111,25.391,30.762,17.578,23.438,62.988,0
1556550464.114,44.434,27.344,10.742,20.508,45.898,0
1556550464.118,15.137,21.973,12.207,19.043,26.367,0
1556550464.122,-12.695,25.391,20.996,24.414,-13.672,0
1556550464.126,11.230,22.949,17.578,25.879,-11.230,0
1556550464.130,42.480,21.973,17.090,15.137,-6.348,0
1556550464.148,33.691,26.367,20.508,18.555,46.387,0
1556550464.152,-2.441,21.973,21.973,19.531,18.555,0
1556550464.156,-6.836,10.742,32.227,9.277,-10.254,0
1556550464.160,21.484,14.648,31.738,0.000,-10.254,0
1556550464.164,17.090,20.020,22.461,-4.395,-35.645,0
1556550464.168,-20.020,14.160,24.902,2.441,21.973,0
1556550464.172,-22.461,17.578,22.949,8.301,23.926,0
1556550464.175,16.113,24.902,15.137,0.977,13.672,0
1556550464.179,30.762,23.926,16.113,-4.395,21.973,0
1556550464.183,2.930,20.020,19.531,1.465,15.625,0
1556550464.187,-17.090,16.113,18.066,1.953,-13.184,0
1556550464.191,17.090,20.508,29.297,2.930,20.020,0
1556550464.178,38.086,22.461,32.227,0.000,91.309,0
1556550464.182,16.602,20.020,32.227,1.953,15.625,0
1556550464.186,-5.371,18.555,37.598,14.648,-22.461,0
1556550464.190,19.043,22.949,29.785,23.438,36.133,0
1556550464.194,59.082,29.297,23.438,26.855,50.781,0
1556550464.198,54.199,30.273,17.578,28.809,25.391,0
1556550464.202,16.602,30.762,24.414,32.715,-10.254,0
1556550464.205,10.254,27.344,32.227,27.344,-20.020,0
1556550464.209,38.574,26.855,35.156,15.625,-6.836,0
1556550464.213,35.156,25.879,35.645,11.230,29.297,0
1556550464.217,-2.930,12.207,35.645,15.137,33.203,0
1556550464.221,-16.113,13.184,28.320,12.207,9.766,0
1556550464.223,12.207,28.320,25.391,5.371,31.738,0
1556550464.227,24.902,27.832,24.414,1.953,62.988,0
1556550464.231,3.906,22.949,24.902,7.812,85.449,0
1556550464.235,-19.531,13.672,27.832,6.836,90.820,0
1556550464.239,-2.930,13.184,17.090,-0.977,30.273,0
1556550464.243,24.414,20.508,5.371,1.953,-42.969,0
1556550464.247,3.418,12.207,-8.789,-1.953,-47.363,0
1556550464.250,-31.250,8.789,4.395,-8.789,-17.090,0
1556550464.254,-18.555,15.625,34.180,-9.766,32.715,0
1556550464.258,13.184,15.625,44.434,-12.207,43.457,0
1556550464.262,2.441,3.418,40.527,-11.719,0.488,0
1556550464.266,-32.227,6.348,25.879,-7.812,1.465,0
1556550464.268,-32.227,14.648,16.113,-15.137,-3.906,0
1556550464.272,7.812,9.277,13.672,-16.113,-7.324,0
1556550464.276,19.531,0.000,18.066,-8.301,-45.410,0
1556550464.280,-11.719,0.488,12.695,1.465,-61.035,0
1556550464.284,-13.672,11.230,4.395,13.184,-15.625,0
1556550464.288,21.973,7.324,7.812,6.836,13.672,0
1556550464.292,41.016,10.742,9.277,-2.441,19.043,0
1556550464.295,16.602,19.531,10.254,1.953,-7.812,0
1556550464.299,-3.906,20.020,9.766,10.742,-15.625,0
1556550464.303,19.531,21.484,8.301,12.695,-58.105,0
1556550464.307,49.316,21.973,8.301,14.160,-47.363,0
1556550464.311,34.180,32.227,13.672,18.555,0.000,0
1556550464.328,-6.348,30.273,9.277,19.531,28.320,0
1556550464.332,6.836,20.996,11.719,21.973,36.621,0
1556550464.336,47.363,30.762,17.578,21.484,14.160,0
1556550464.340,40.527,34.180,9.277,21.973,-39.062,0
1556550464.344,6.348,27.832,4.395,25.879,-39.551,0
1556550464.348,5.859,27.344,13.672,24.902,41.016,0
1556550464.352,36.133,24.902,30.273,18.555,56.152,0
1556550464.355,41.992,24.414,19.043,12.695,17.090,0
1556550464.359,11.719,26.855,5.859,13.184,7.324,0
1556550464.363,-7.324,22.949,15.137,6.348,40.039,0
1556550464.367,16.602,24.902,36.133,-0.488,35.156,0
1556550464.371,33.691,20.020,44.922,5.859,0.488,0
1556550464.372,7.812,12.207,35.645,10.742,22.461,0
1556550464.376,-20.020,14.160,27.344,12.207,71.289,0
1556550464.380,2.930,25.879,32.227,14.160,84.473,0
1556550464.384,29.297,30.273,30.762,7.324,77.148,0
1556550464.388,7.324,18.066,15.137,2.930,46.387,0
1556550464.392,-20.020,7.812,4.395,6.836,1.465,0
1556550464.396,-8.301,10.254,2.441,2.441,15.625,0
1556550464.399,24.414,17.090,11.719,0.000,28.320,0
1556550464.403,28.809,12.695,24.414,5.371,17.578,0
1556550464.407,-1.465,9.766,28.320,11.719,25.879,0
1556550464.411,-2.930,9.766,19.043,16.602,10.254,0
1556550464.415,29.785,9.277,11.719,13.672,15.137,0
1556550464.418,38.574,18.066,15.137,7.812,53.223,0
1556550464.422,5.371,15.625,14.648,4.395,21.484,0
1556550464.426,-16.113,4.883,0.488,12.695,-7.812,0
1556550464.430,12.207,10.254,0.488,16.113,-1.465,0
1556550464.434,38.086,14.160,13.672,13.672,10.254,0
1556550464.438,23.438,15.625,18.555,18.555,22.949,0
1556550464.442,-8.789,24.902,20.996,18.555,30.762,0
1556550464.445,-0.488,22.461,0.000,9.766,11.719,0
1556550464.449,28.809,9.766,-15.625,2.930,-4.883,0
1556550464.453,18.555,7.324,3.418,0.000,-3.906,0
1556550464.457,-13.184,9.277,14.648,5.859,-15.625,0
1556550464.461,-4.395,7.324,17.090,11.230,0.977,0
1556550464.462,31.250,16.113,12.695,12.695,-14.160,0
1556550464.466,36.621,24.414,8.301,15.625,18.066,0
1556550464.470,-2.441,21.484,18.555,20.020,35.156,0
1556550464.474,-14.160,20.020,23.926,19.531,-11.230,0
1556550464.478,21.484,13.672,15.625,11.719,-6.836,0
1556550464.482,29.297,10.254,9.277,5.859,-2.930,0
1556550464.486,0.977,17.090,15.137,8.301,45.898,0
1556550464.489,-14.648,11.230,22.949,11.230,57.129,0
1556550464.493,12.695,12.695,13.672,0.488,17.578,0
1556550464.497,39.551,25.391,8.301,0.488,0.977,0
1556550464.501,22.461,20.996,26.367,12.207,-10.254,0
1556550464.505,-7.324,24.902,33.203,17.578,-27.832,0
1556550464.507,15.625,36.621,27.832,22.949,-18.555,0
1556550464.511,46.387,29.785,25.391,23.926,13.672,0
1556550464.515,31.738,20.508,20.508,20.996,1.465,0
1556550464.519,-3.418,21.484,24.902,23.926,17.090,0
1556550464.523,-3.418,27.832,22.949,20.020,-16.113,0
1556550464.527,34.180,30.273,5.371,16.113,-68.848,0
1556550464.531,42.480,20.508,6.348,16.602,-2.441,0
1556550464.534,4.395,20.020,27.344,11.230,1.953,0
1556550464.538,-10.254,30.762,33.691,12.695,-3.418,0
1556550464.542,30.762,37.598,36.621,20.020,6.836,0
1556550464.546,44.434,34.668,32.715,17.578,7.812,1
1556550464.550,9.766,24.902,24.902,14.160,44.434,0
1556550464.552,-13.672,13.184,19.043,15.137,24.902,0
1556550464.556,11.719,15.137,14.160,17.090,-6.348,0
1556550464.560,42.480,15.137,18.066,16.113,57.129,0
1556550464.564,23.926,6.836,21.484,13.184,37.598,0
1556550464.568,-3.906,0.000,15.137,15.137,10.742,0
1556550464.572,16.113,1.465,9.766,20.508,17.578,0
1556550464.576,51.758,12.695,12.207,15.625,-16.602,0
1556550464.579,43.945,20.996,9.277,8.789,21.484,0
1556550464.583,2.441,16.113,18.555,10.742,69.824,0
1556550464.587,2.930,12.207,33.691,10.254,52.246,0
1556550464.591,40.527,16.602,30.273,4.883,17.578,0
1556550464.595,42.969,9.766,22.949,0.977,16.113,0
1556550464.597,6.348,11.719,20.020,4.395,30.273,0
1556550464.601,-11.230,21.484,23.926,11.719,27.344,0
1556550464.605,27.832,25.391,25.879,17.578,22.461,0
1556550464.609,55.176,18.555,15.137,21.484,23.438,0
1556550464.613,27.344,8.789,18.555,28.320,31.738,0
1556550464.617,-1.465,8.789,24.414,31.738,-0.977,0
1556550464.621,20.020,13.672,23.438,32.715,-19.043,0
1556550464.624,50.781,18.555,34.668,32.715,8.301,0
1556550464.628,24.902,17.090,42.480,30.762,42.969,0
1556550464.632,-15.625,18.555,36.133,30.273,36.621,0
1556550464.636,-5.371,23.438,25.391,26.855,0.488,0
1556550464.640,23.926,15.625,16.602,21.484,22.949,0
1556550464.642,24.902,13.672,27.832,19.531,-9.766,0
1556550464.646,-10.254,19.531,38.574,19.531,37.598,0
1556550464.650,-24.902,15.137,40.039,18.066,80.566,0
1556550464.654,15.137,13.184,42.480,14.648,16.602,0
1556550464.658,31.738,20.996,41.504,14.648,23.926,0
1556550464.662,-0.488,19.531,40.527,15.137,39.062,0
1556550464.666,-17.578,12.695,35.156,16.113,13.672,0
1556550464.669,19.531,24.902,27.344,22.461,38.086,0
1556550464.673,48.828,24.414,19.531,27.344,37.109,0
1556550464.677,31.250,15.625,24.414,33.203,53.711,0
1556550464.681,9.277,19.043,30.273,38.574,79.102,0
1556550464.685,29.785,24.902,22.949,36.621,26.367,0
1556550464.702,60.059,28.809,28.320,30.273,15.625,0
1556550464.706,46.875,28.320,41.504,30.273,32.715,0
1556550464.710,17.578,29.785,37.109,36.621,34.180,0
1556550464.714,25.879,28.320,30.273,31.250,-18.555,0
1556550464.718,56.152,24.902,37.109,26.367,-35.645,0
1556550464.722,55.664,26.367,34.180,31.738,-30.273,0
1556550464.726,20.020,31.738,25.879,34.668,12.695,0
1556550464.729,4.395,27.344,21.484,35.645,82.520,0
1556550464.733,38.086,13.672,15.137,34.668,92.773,0
1556550464.737,56.641,12.207,13.184,27.344,64.453,0
1556550464.741,25.391,20.508,6.836,22.461,19.043,0
1556550464.745,4.395,22.461,13.672,29.297,29.785,0
1556550464.747,27.832,19.043,23.926,27.344,27.344,0
1556550464.751,40.527,12.695,18.066,15.625,-17.578,0
1556550464.755,21.484,11.719,17.090,17.578,0.977,0
1556550464.759,-7.812,18.066,18.066,20.996,3.418,0
1556550464.763,0.000,17.578,23.926,15.625,24.414,0
1556550464.767,32.227,16.113,28.320,14.648,31.250,0
1556550464.771,20.508,5.371,20.996,7.324,36.621,0
1556550464.774,-18.555,0.977,20.508,8.301,53.711,0
1556550464.778,-19.043,3.906,19.043,10.254,49.805,0
1556550464.782,13.672,-0.977,6.348,1.465,64.453,0
1556550464.786,27.344,6.348,16.602,5.371,26.367,0
1556550464.790,-2.930,15.625,39.551,13.184,21.973,0
1556550464.792,-20.020,12.695,35.645,10.742,33.691,0
1556550464.796,16.113,7.812,26.367,4.395,-0.488,0
1556550464.800,34.668,8.789,28.809,4.395,32.715,0
1556550464.804,7.324,16.602,24.902,7.812,72.266,0
1556550464.808,-8.301,16.113,23.926,17.090,6.836,0
1556550464.812,19.043,10.254,18.066,21.484,-39.551,0
1556550464.816,46.875,14.160,8.301,20.508,9.766,0
1556550464.819,31.738,19.043,15.625,23.926,9.277,0
1556550464.823,3.418,15.625,17.578,30.762,-5.859,0
1556550464.827,17.578,15.137,19.531,33.203,-19.043,0
1556550464.831,41.016,14.160,31.738,20.996,-34.668,0
1556550464.835,22.949,17.090,37.598,8.301,32.227,0
1556550464.838,-5.859,22.949,27.832,15.625,52.734,0
1556550464.842,-8.301,18.066,17.578,12.207,47.363,0
1556550464.846,23.926,18.066,16.602,5.859,38.086,0
1556550464.850,40.527,22.949,14.648,12.207,20.508,0
1556550464.854,-2.441,18.555,12.695,11.230,11.719,0
1556550464.858,-21.484,13.184,15.625,10.254,-11.719,0
1556550464.862,18.066,22.949,18.066,9.277,8.301,0
1556550464.865,42.969,23.926,35.156,10.254,-29.297,0
1556550464.869,19.043,18.555,39.551,12.695,-53.223,0
1556550464.873,-4.883,28.320,29.297,19.043,-23.438,0
1556550464.877,22.949,33.203,37.598,25.391,0.977,0
1556550464.881,54.199,23.926,38.574,27.344,-2.930,0
1556550464.883,37.109,17.578,31.738,20.020,-35.645,0
1556550464.887,5.859,22.949,24.902,16.113,-56.152,0
1556550464.891,10.742,31.738,18.555,18.555,12.207,0
1556550464.895,40.039,30.762,27.832,17.090,59.570,0
1556550464.899,41.016,26.367,42.480,13.672,20.508,0
1556550464.903,4.395,36.621,45.410,17.578,16.602,0
1556550464.907,-8.789,41.504,41.016,21.973,-2.930,0
1556550464.910,27.832,41.504,43.945,18.555,26.367,0
1556550464.914,36.133,33.203,44.434,6.836,47.852,0
1556550464.918,-4.395,21.973,45.898,5.859,29.785,0
1556550464.922,-23.926,20.508,42.480,10.742,30.273,0
1556550464.926,10.254,30.762,39.551,13.672,2.441,0
1556550464.928,37.109,41.504,27.344,13.672,11.230,0
1556550464.932,14.160,40.039,23.438,12.695,17.090,0
1556550464.936,-15.137,35.645,31.738,15.137,13.184,0
1556550464.940,4.395,32.715,30.762,13.184,-1.953,0
1556550464.944,41.992,33.203,36.133,13.184,-14.160,0
1556550464.948,34.180,39.062,35.156,16.602,5.371,0
1556550464.952,-4.883,32.715,24.414,13.184,19.531,0
1556550464.955,-5.859,21.973,21.484,8.789,29.785,0
1556550464.959,27.832,20.996,13.672,9.277,21.484,0
1556550464.963,36.133,17.090,18.555,16.113,8.789,0
1556550464.967,4.883,16.113,34.180,21.973,27.832,0
1556550464.971,-4.883,20.508,34.668,25.391,4.395,0
1556550464.972,33.203,22.461,19.531,24.902,33.203,0
1556550464.976,52.734,19.531,16.602,22.949,76.660,0
1556550464.980,23.926,18.066,25.879,26.855,-12.695,0
1556550464.984,-0.488,23.438,25.391,24.902,-41.992,0
1556550464.988,21.484,20.996,27.344,12.695,-35.156,0
1556550464.992,44.434,9.277,15.625,11.719,8.301,0
1556550464.996,21.973,-2.930,4.883,13.672,81.055,0
1556550464.999,-14.648,5.371,19.043,11.230,33.203,0
1556550465.003,-5.859,21.973,28.809,6.836,-13.184,0
1556550465.007,34.180,27.344,27.832,7.324,31.738,0
1556550465.011,32.227,20.508,18.555,11.719,91.309,0
1556550465.015,-3.906,14.648,7.812,13.672,87.891,0
1556550465.017,-0.977,14.648,12.207,15.625,34.180,0
1556550465.021,35.645,14.648,24.902,13.184,46.387,0
1556550465.025,43.457,19.043,28.320,16.602,41.016,0
1556550465.029,10.254,24.414,18.555,22.949,-38.086,0
1556550465.033,-3.906,21.973,10.254,28.320,3.906,0
1556550465.037,29.297,20.508,10.742,24.902,13.672,0
1556550465.041,44.922,18.066,25.391,13.184,14.160,0
1556550465.044,17.578,18.555,30.273,14.160,50.293,0
1556550465.048,-2.930,23.438,23.926,18.066,38.086,0
1556550465.052,30.762,26.855,21.484,18.066,13.184,0
1556550465.056,64.941,28.320,12.695,20.996,-17.090,0
1556550465.060,43.457,22.461,10.254,19.043,-12.695,0
1556550465.078,7.812,20.020,23.438,16.602,-14.648,0
1556550465.082,15.625,23.926,24.902,13.184,15.137,0
1556550465.086,49.805,22.461,20.020,7.324,-9.766,0
1556550465.090,47.852,19.043,18.066,11.719,12.207,0
1556550465.094,4.883,18.066,7.324,22.461,59.082,0
1556550465.098,-11.719,16.602,4.883,25.879,44.922,0
1556550465.102,10.742,18.555,21.484,14.160,76.660,0
1556550465.105,20.508,17.090,32.227,14.160,59.082,0
1556550465.109,-8.789,14.160,29.297,23.438,40.039,0
1556550465.113,-33.203,16.113,29.785,18.066,47.363,0
1556550465.117,-2.930,13.672,32.715,18.555,48.828,0
1556550465.121,22.461,11.230,26.367,13.672,24.902,0
1556550465.123,1.465,11.719,22.461,11.230,27.344,0
1556550465.127,-15.625,13.672,28.809,25.879,26.855,0
1556550465.131,11.719,20.020,21.973,26.855,44.922,0
1556550465.135,38.574,19.531,10.254,22.461,8.789,0
1556550465.139,28.320,20.996,18.555,24.414,-12.207,0
1556550465.143,-3.418,23.438,26.367,30.273,-5.371,0
1556550465.147,0.000,22.461,33.691,28.809,-19.531,0
1556550465.150,33.691,19.531,39.062,22.949,7.324,0
1556550465.154,38.574,10.742,26.855,21.484,20.020,0
1556550465.158,5.859,14.160,20.508,21.973,23.438,0
1556550465.162,-5.371,19.043,24.902,21.484,-38.086,0
1556550465.166,28.320,20.020,22.949,22.949,-7.324,0
1556550465.183,39.551,21.484,19.531,19.531,51.270,0
1556550465.187,12.695,19.043,33.691,21.973,-9.766,0
1556550465.191,-8.789,20.996,44.922,23.926,-5.859,0
1556550465.195,9.766,18.555,34.180,13.672,49.316,0
1556550465.199,32.227,19.043,27.344,13.184,19.043,0
1556550465.203,14.648,29.297,24.902,19.043,13.672,0
1556550465.207,-16.113,29.785,25.391,17.578,72.266,0
1556550465.210,-0.977,25.391,30.762,14.160,70.801,0
1556550465.214,42.969,26.367,35.645,10.742,26.367,0
1556550465.218,39.551,30.762,38.086,15.137,-5.859,0
1556550465.222,0.488,27.832,26.855,26.855,7.812,0
1556550465.226,8.301,24.414,22.949,33.691,55.176,0
1556550465.213,43.945,24.414,20.020,24.414,53.223,0
1556550465.217,46.387,25.391,24.414,17.578,33.691,0
1556550465.221,12.695,22.461,22.461,24.414,4.395,0
1556550465.225,-8.301,18.066,15.137,22.949,29.297,0
1556550465.229,16.602,23.438,18.555,16.113,96.191,0
1556550465.233,39.551,26.367,13.184,14.648,51.270,0
1556550465.237,12.695,28.809,22.461,18.066,-36.621,0
1556550465.240,-13.672,29.297,32.227,21.973,4.883,0
1556550465.244,19.043,25.391,26.367,20.996,24.414,0
1556550465.248,49.805,22.949,17.578,18.066,-13.672,0
1556550465.252,30.273,16.602,20.996,18.066,13.672,0
1556550465.256,0.488,18.555,29.297,20.020,58.594,0
1556550465.258,7.812,27.832,26.855,19.043,72.266,0
1556550465.262,41.016,29.297,16.602,12.207,64.453,0
1556550465.266,41.016,23.438,16.113,13.184,41.992,0
1556550465.270,1.465,20.508,11.230,21.484,36.133,0
1556550465.274,-0.488,23.438,1.953,24.414,49.316,0
1556550465.278,40.039,24.902,-5.859,20.996,13.672,0
1556550465.282,51.270,26.367,3.418,15.625,-12.207,0
1556550465.285,7.324,24.902,7.324,7.812,-42.969,0
1556550465.289,-20.508,19.531,1.953,1.953,-8.789,0
1556550465.293,12.695,9.277,11.719,1.465,16.602,0
1556550465.297,34.180,6.348,13.672,1.953,-11.230,0
1556550465.301,8.301,12.207,14.160,6.836,3.906,0
1556550465.303,-20.508,19.531,15.625,10.742,-12.695,0
1556550465.307,-0.488,29.785,15.137,5.371,10.742,0
1556550465.311,29.785,24.414,14.648,1.953,8.789,0
1556550465.315,14.160,17.090,5.859,4.395,21.973,0
1556550465.319,-22.949,17.578,5.859,8.301,28.809,0
1556550465.323,-10.742,15.137,11.719,15.625,-22.461,0
1556550465.327,26.855,7.324,13.184,11.230,-9.277,0
1556550465.330,20.996,4.883,20.020,0.000,14.648,0
1556550465.334,-12.695,16.113,23.438,6.348,35.156,0
1556550465.338,-13.672,20.996,22.461,8.789,42.480,0
1556550465.342,23.438,18.066,10.254,5.371,20.020,0
1556550465.346,33.691,19.531,0.977,3.906,8.301,0
1556550465.348,2.930,21.973,0.488,8.789,-5.371,0
1556550465.352,-14.648,19.043,-1.953,14.648,8.789,0
1556550465.356,15.137,20.996,-1.953,12.207,15.625,0
1556550465.360,36.621,23.926,0.977,10.742,24.902,0
1556550465.364,13.184,23.926,13.184,8.789,22.949,0
1556550465.368,-19.531,22.461,22.461,7.812,4.395,0
1556550465.372,-8.789,17.578,25.391,0.488,10.254,0
1556550465.375,24.902,23.926,28.809,-3.906,19.531,0
1556550465.379,16.113,25.879,26.855,0.000,12.695,0
1556550465.383,-16.113,20.020,17.090,7.812,72.754,0
1556550465.387,-10.254,19.043,6.348,4.883,30.273,0
1556550465.391,21.484,18.555,7.812,1.465,24.902,0
1556550465.393,26.855,26.367,11.230,11.230,60.547,0
1556550465.397,-8.789,27.344,14.648,17.578,0.977,0
1556550465.401,-19.043,31.250,12.695,17.578,38.574,0
1556550465.405,16.113,35.645,14.648,15.625,51.270,0
1556550465.409,29.297,23.926,31.738,19.043,29.785,0
1556550465.413,3.906,18.555,26.855,30.273,27.832,0
1556550465.417,-14.648,16.602,8.789,20.508,43.457,0
1556550465.420,12.695,22.461,12.207,7.812,52.246,0
1556550465.424,43.945,27.344,10.254,14.648,-17.578,0
1556550465.428,27.832,27.832,3.418,19.531,-25.391,0
1556550465.432,0.977,26.855,6.836,19.531,53.223,0
1556550465.436,12.207,23.438,-1.953,14.648,44.922,0
1556550465.453,42.480,19.043,-6.348,11.230,35.156,0
1556550465.457,42.969,23.438,16.113,20.508,57.617,0
1556550465.461,7.812,26.367,11.230,24.414,46.875,0
1556550465.465,-0.977,19.531,-1.953,14.648,73.730,0
1556550465.469,32.227,21.973,17.578,14.160,75.684,0
1556550465.473,40.527,22.461,22.949,18.555,-12.207,0
1556550465.477,6.348,18.066,16.113,20.508,-6.348,0
1556550465.480,-9.766,14.648,8.789,16.602,41.992,0
1556550465.484,17.090,9.766,5.859,8.789,18.555,0
1556550465.488,33.203,6.836,10.742,3.906,23.926,0
1556550465.492,2.441,12.695,19.043,0.488,24.902,0
1556550465.496,-27.344,17.090,20.996,-1.465,-27.344,0
1556550465.512,3.418,20.020,20.508,6.836,3.906,0
1556550465.516,35.645,25.879,17.090,15.625,24.414,0
1556550465.520,11.719,19.043,12.695,15.625,26.367,0
1556550465.524,-21.973,9.766,28.809,22.461,18.555,0
1556550465.528,-9.766,0.977,34.668,22.949,-41.504,0
1556550465.532,23.438,-1.465,33.691,19.531,-55.664,0
1556550465.536,23.438,8.789,34.668,22.949,-63.477,0
1556550465.539,-10.742,15.137,27.832,26.855,0.977,0
1556550465.543,-10.742,11.719,24.902,25.879,90.820,0
1556550465.547,30.273,11.719,21.484,20.020,39.062,0
1556550465.551,39.062,18.555,23.438,20.996,-30.273,0
1556550465.555,6.836,22.949,26.855,23.438,25.879,0
1556550465.542,-7.324,22.461,19.043,18.555,55.176,0
1556550465.546,23.926,23.438,17.090,13.672,18.066,0
1556550465.550,40.039,24.902,13.672,11.230,-6.836,0
1556550465.554,11.719,20.996,16.602,13.184,27.344,0
1556550465.558,-15.625,18.555,28.809,17.578,36.621,0
1556550465.562,10.254,26.367,37.109,18.555,-32.227,0
1556550465.566,41.992,25.391,41.504,16.113,-9.766,0
1556550465.569,22.949,14.648,38.574,21.973,57.129,0
1556550465.573,-14.160,19.043,39.551,27.344,44.434,0
1556550465.577,0.977,33.203,43.457,24.414,70.312,0
1556550465.581,41.992,40.039,37.598,22.461,68.359,0
1556550465.585,39.551,36.133,29.297,22.949,11.230,0
1556550465.587,-0.977,25.879,27.832,22.949,1.465,0
1556550465.591,-9.277,21.973,30.762,17.578,-8.301,0
1556550465.595,21.973,15.625,42.969,11.719,-4.883,1
1556550465.599,22.461,8.789,47.852,9.766,-10.742,0
1556550465.603,-4.395,14.648,45.898,13.672,-10.742,0
1556550465.607,-11.719,17.090,36.621,23.926,27.832,0
1556550465.611,15.137,17.578,35.156,21.484,26.855,0
1556550465.614,33.691,21.484,19.043,14.648,-3.906,0
1556550465.618,18.066,23.926,5.371,16.602,54.688,0
1556550465.622,-7.324,16.113,28.320,20.508,31.738,0
1556550465.626,9.766,17.578,37.598,23.926,-41.016,0
1556550465.630,44.434,25.879,35.156,23.926,-13.672,0
1556550465.632,35.156,21.484,36.621,20.996,22.461,0
1556550465.636,-4.395,12.695,26.367,24.414,40.039,0
1556550465.640,1.465,12.695,26.855,30.273,1.953,0
1556550465.644,38.086,14.648,35.645,29.785,-1.465,0
1556550465.648,40.527,9.277,27.832,31.738,17.090,0
1556550465.652,6.836,11.230,22.949,33.691,33.203,0
1556550465.656,-6.836,19.043,25.879,26.367,43.457,0
1556550465.659,31.250,28.320,29.297,22.461,-15.137,0
1556550465.663,41.016,33.203,29.785,13.672,-67.383,0
1556550465.667,1.953,33.203,29.297,6.836,-36.621,0
1556550465.671,-21.973,24.902,36.133,9.277,-5.859,0
1556550465.675,3.906,19.531,30.273,6.348,-20.996,0
1556550465.677,32.715,22.461,20.996,3.418,0.977,0
1556550465.681,15.625,21.484,22.461,11.719,22.949,0
1556550465.685,-11.719,19.043,22.949,17.578,47.852,0
1556550465.689,5.859,13.672,26.367,17.578,68.359,0
1556550465.693,42.969,12.207,33.691,21.484,75.195,0
1556550465.697,39.551,13.672,41.504,25.879,50.293,0
1556550465.701,7.324,10.742,25.391,29.297,-15.137,0
1556550465.704,10.254,18.066,8.789,26.367,2.930,0
1556550465.708,43.457,27.832,17.578,24.414,64.453,0
1556550465.712,48.340,28.809,25.879,26.367,105.469,0
1556550465.716,19.043,20.020,16.602,27.344,46.875,0
1556550465.720,11.719,16.113,18.555,29.785,18.066,0
1556550465.722,43.945,19.531,33.691,29.297,72.266,0
1556550465.726,63.477,20.996,36.621,28.809,26.367,0
1556550465.730,41.992,32.227,32.227,36.133,-6.348,0
1556550465.734,12.207,33.203,19.531,34.668,-37.598,0
1556550465.738,25.391,29.297,24.414,25.391,-8.789,0
1556550465.742,50.781,25.391,13.184,17.578,4.395,0
1556550465.746,30.762,22.461,6.836,10.742,-7.812,0
1556550465.749,-11.719,23.926,28.320,8.789,23.926,0
1556550465.753,0.977,22.461,38.574,13.672,5.371,0
1556550465.757,43.457,21.484,36.133,19.043,-40.527,0
1556550465.761,43.457,25.879,30.273,21.973,-17.090,0
1556550465.765,11.719,27.344,29.297,27.832,48.828,0
1556550465.768,13.672,24.414,33.203,28.809,65.430,0
1556550465.772,63.477,25.391,38.574,32.227,80.078,0
1556550465.776,79.102,29.297,20.996,37.109,61.523,0
1556550465.780,36.133,30.762,12.207,33.691,46.875,0
1556550465.784,11.719,30.273,27.344,31.738,62.988,0
1556550465.788,42.969,26.855,23.438,30.273,70.801,0
1556550465.792,66.406,34.180,13.672,28.809,71.289,0
1556550465.795,31.250,30.762,28.320,27.344,30.273,0
1556550465.799,-4.883,15.625,40.527,22.949,-17.578,0
1556550465.803,21.973,22.949,33.691,21.973,-10.254,0
1556550465.807,58.105,32.227,36.621,25.879,58.594,0
1556550465.811,36.133,28.809,32.715,20.996,50.781,0
1556550465.828,-5.371,21.484,20.020,13.184,9.766,0
1556550465.832,4.883,18.066,22.949,15.137,5.859,0
1556550465.836,42.480,24.414,24.902,20.020,17.090,0
1556550465.840,38.574,29.785,21.973,18.066,44.922,0
1556550465.844,1.953,19.531,26.855,22.461,32.715,0
1556550465.848,-5.371,9.766,28.320,26.855,-10.254,0
1556550465.852,36.133,20.020,21.973,28.809,-0.977,0
1556550465.855,56.641,29.785,23.926,33.203,5.859,0
1556550465.859,17.578,28.809,26.855,26.855,2.441,0
1556550465.863,-8.789,20.508,23.438,14.648,11.719,0
1556550465.867,19.043,22.949,22.949,9.766,5.371,0
1556550465.871,41.504,25.391,27.344,13.184,37.109,0
1556550465.888,15.625,18.555,32.715,18.066,49.316,0
1556550465.892,-10.742,20.020,33.691,20.020,-17.090,0
1556550465.896,12.207,19.531,31.250,20.996,0.488,0
1556550465.900,48.340,20.020,19.531,26.855,31.250,0
1556550465.904,44.922,27.344,15.137,30.762,20.508,0
1556550465.908,6.348,30.273,26.855,31.738,61.035,0
1556550465.912,3.418,20.996,33.203,28.809,36.133,0
1556550465.915,36.621,13.672,34.180,18.555,-29.297,0
1556550465.919,38.574,20.020,33.691,18.555,-22.949,0
1556550465.923,3.906,23.438,29.785,22.949,51.758,0
1556550465.927,-7.324,23.926,19.043,16.602,42.480,0
1556550465.931,29.297,20.020,-1.953,9.277,27.344,0
1556550465.918,47.852,24.902,-1.465,18.066,-27.832,0
1556550465.922,15.625,30.762,18.555,21.973,3.906,0
1556550465.926,-8.301,29.785,31.250,17.090,19.531,0
1556550465.930,23.438,32.227,28.320,19.531,-5.859,0
1556550465.934,52.734,37.109,21.973,21.973,0.977,0
1556550465.938,28.320,36.133,26.367,22.461,16.113,0
1556550465.942,-10.742,32.227,28.809,23.438,51.758,0
1556550465.945,2.930,28.320,27.344,20.996,60.547,0
1556550465.949,39.062,24.414,29.785,15.625,42.969,0
1556550465.953,28.809,20.996,27.344,8.301,37.109,0
1556550465.957,-13.672,24.414,17.090,7.324,31.250,0
1556550465.961,-15.137,20.508,4.395,8.301,-1.465,0
1556550465.963,16.113,3.906,10.254,-3.906,11.230,0
1556550465.967,19.531,11.719,23.438,-8.789,62.988,0
1556550465.971,-9.277,23.438,21.484,2.930,70.312,0
1556550465.975,-19.043,16.602,22.949,6.836,51.270,0
1556550465.979,20.508,18.555,14.648,10.742,0.977,0
1556550465.983,44.922,29.785,8.789,15.625,-22.461,0
1556550465.987,16.602,32.227,24.414,14.648,-15.137,0
1556550465.990,-10.742,27.832,42.480,16.602,52.246,0
1556550465.994,9.277,30.273,40.039,10.254,34.180,0
1556550465.998,37.598,42.969,38.574,12.695,1.953,0
1556550466.002,17.578,31.250,30.762,14.160,-1.953,0
1556550466.006,-22.461,17.090,20.508,6.836,-32.227,0
1556550466.008,-8.301,22.461,25.879,4.883,4.395,0
1556550466.012,28.809,19.043,11.719,1.953,19.531,0
1556550466.016,36.133,22.461,15.137,10.742,11.230,0
1556550466.020,12.207,32.715,27.832,22.949,1.953,0
1556550466.024,4.395,31.738,23.438,20.508,0.000,0
1556550466.028,32.227,29.297,21.484,15.137,50.293,0
1556550466.032,41.016,36.133,30.273,20.996,87.891,0
1556550466.035,5.371,31.250,32.715,22.461,57.617,0
1556550466.039,-15.137,27.832,32.715,15.625,19.531,0
1556550466.043,28.320,46.387,36.133,27.344,50.781,0
1556550466.047,50.293,38.574,27.832,25.879,53.711,0
1556550466.051,12.695,25.391,29.297,9.277,3.906,0
1556550466.053,-17.090,25.391,35.156,11.230,-16.113,0
1556550466.057,0.488,21.973,27.344,8.789,44.434,0
1556550466.061,25.879,22.461,25.879,1.465,18.555,0
1556550466.065,5.371,29.297,27.832,-1.465,14.648,0
1556550466.069,-30.273,35.156,25.879,0.000,84.473,0
1556550466.073,-23.438,36.621,24.414,-2.930,31.250,0
1556550466.077,-0.488,36.621,21.484,-17.090,-13.184,0
1556550466.080,-12.695,46.387,26.367,-30.762,-21.973,0
1556550466.084,-71.289,44.434,36.621,-54.688,-8.301,0
1556550466.088,-108.398,36.621,26.367,-79.590,-23.926,0
1556550466.092,-91.797,40.527,13.672,-96.680,35.645,0
1556550466.096,-99.609,33.203,18.066,-109.375,55.664,0
1556550466.098,-149.414,37.109,22.461,-129.883,29.297,0
1556550466.102,-193.359,39.551,34.668,-161.133,28.320,0
1556550466.106,-182.617,37.109,40.527,-183.105,23.926,0
1556550466.110,-155.762,41.992,45.898,-185.059,31.738,0
1556550466.114,-177.246,48.340,32.715,-182.129,70.312,0
1556550466.118,-218.262,40.527,23.438,-186.523,68.359,0
1556550466.122,-207.031,35.156,45.898,-195.801,15.137,0
1556550466.125,-166.504,47.363,64.453,-198.242,-20.996,0
1556550466.129,-165.527,49.316,68.359,-183.594,-8.301,0
1556550466.133,-195.801,39.062,71.289,-168.457,26.855,0
1556550466.137,-179.688,38.574,63.477,-160.645,0.977,0
1556550466.141,-132.324,34.668,46.875,-158.691,16.113,0
1556550466.143,-118.164,29.785,42.480,-140.137,27.832,0
1556550466.147,-141.113,28.809,27.832,-115.234,30.762,0
1556550466.151,-137.695,27.344,21.973,-97.656,19.531,0
1556550466.155,-92.285,24.902,28.320,-87.402,12.207,0
1556550466.159,-68.848,17.578,20.020,-82.520,3.906,0
1556550466.163,-83.008,4.395,25.391,-69.336,-2.930,0
1556550466.167,-91.309,-0.488,38.086,-52.734,22.461,0
1556550466.170,-49.805,8.301,37.598,-41.016,26.367,0
1556550466.174,1.465,10.254,26.855,-17.578,30.273,0
1556550466.178,-6.836,12.207,9.277,-5.859,33.203,0
1556550466.182,-30.762,16.602,-2.930,-0.977,50.781,0
1556550466.186,1.953,7.812,-2.930,14.648,32.227,0
1556550466.203,41.992,2.441,3.906,24.902,41.016,0
1556550466.207,38.574,2.441,14.160,31.250,77.637,0
1556550466.211,21.973,-8.301,1.465,46.387,35.156,0
1556550466.215,32.227,-18.066,7.812,60.547,19.043,0
1556550466.219,70.312,-9.766,22.949,62.500,18.555,0
1556550466.223,83.496,-1.465,11.230,67.871,-41.504,0
1556550466.227,51.758,-4.883,12.207,69.824,-28.809,0
1556550466.230,45.410,1.465,15.137,72.266,45.898,0
1556550466.234,86.426,7.324,-2.930,77.148,48.828,0
1556550466.238,109.863,1.465,-6.348,71.777,22.461,0
1556550466.242,80.078,3.418,15.137,69.336,5.859,0
1556550466.246,58.105,8.301,19.531,76.660,41.016,0
1556550466.248,88.379,-1.953,5.371,76.660,33.203,0
1556550466.252,118.164,-6.836,4.883,76.660,-12.207,0
1556550466.256,99.121,2.930,3.418,82.520,-43.945,0
1556550466.260,73.242,13.184,3.418,95.703,-29.297,0
1556550466.264,91.309,9.766,10.254,98.633,28.809,0
1556550466.268,130.859,4.883,8.789,97.168,76.660,0
1556550466.272,127.930,8.789,-0.488,101.074,21.484,0
1556550466.275,87.891,7.324,7.812,102.539,-15.137,0
1556550466.279,87.402,3.418,17.578,106.445,35.645,0
1556550466.283,124.512,5.859,6.836,105.469,15.625,0
1556550466.287,128.906,13.184,9.277,105.469,-9.277,0
1556550466.291,98.145,13.672,17.090,109.863,3.418,0
1556550466.293,80.078,14.160,11.719,108.887,-20.508,0
1556550466.297,105.957,13.184,-0.488,102.539,48.828,0
1556550466.301,130.859,18.066,5.859,97.656,56.641,0
1556550466.305,98.633,20.996,18.066,92.773,45.898,0
1556550466.309,57.129,12.207,8.789,87.402,39.551,0
1556550466.313,79.590,9.766,17.090,86.426,23.926,0
1556550466.317,114.258,15.625,30.762,86.914,15.137,0
1556550466.320,102.539,15.137,23.926,89.355,-1.953,0
1556550466.324,67.383,7.812,15.137,90.332,24.902,0
1556550466.328,70.801,8.301,11.230,90.820,39.062,0
1556550466.332,106.934,9.766,14.160,91.309,66.406,0
1556550466.336,109.863,14.160,27.832,92.285,2.930,0
1556550466.338,66.895,13.184,27.344,92.773,-18.066,0
1556550466.342,48.828,5.371,11.719,84.473,12.207,0
1556550466.346,78.613,10.254,12.207,77.148,27.344,0
1556550466.350,95.703,14.160,22.461,73.730,-6.836,0
1556550466.354,62.988,6.836,25.391,71.777,-62.012,0
1556550466.358,37.598,5.859,25.879,67.871,-23.926,0
1556550466.362,66.406,14.648,30.762,63.965,-8.789,0
1556550466.365,91.797,17.090,35.156,62.500,-23.438,0
1556550466.369,58.594,9.277,38.086,54.199,10.254,0
1556550466.373,28.809,21.484,43.945,61.035,1.953,0
1556550466.377,55.176,35.645,43.457,69.336,32.227,0
1556550466.381,80.566,29.297,26.367,57.129,92.773,0
1556550466.383,68.848,17.578,19.043,53.223,47.363,0
1556550466.387,30.762,13.672,31.738,53.711,-0.488,0
1556550466.391,28.320,19.531,36.133,48.828,55.664,0
1556550466.395,63.965,25.879,32.715,40.527,78.613,0
1556550466.399,67.383,21.484,24.902,42.480,15.625,0
1556550466.403,37.109,13.672,20.996,50.781,21.484,0
1556550466.407,28.320,14.160,19.531,54.688,32.715,0
1556550466.410,64.941,20.996,25.391,55.664,98.145,0
1556550466.414,82.031,17.578,36.621,55.664,81.543,0
1556550466.418,51.758,8.789,41.016,61.523,-26.855,0
1556550466.422,33.691,8.301,37.109,63.477,-11.719,0
1556550466.426,51.270,17.578,31.250,51.270,14.160,0
1556550466.428,80.566,18.066,26.367,47.852,9.766,0
1556550466.432,66.895,11.230,12.695,50.293,41.992,0
1556550466.436,28.809,13.672,16.113,51.270,21.973,0
1556550466.440,38.086,16.602,9.766,43.945,-42.480,0
1556550466.444,68.359,20.020,2.930,33.691,-7.812,0
1556550466.448,58.105,18.066,17.578,33.203,47.852,0
1556550466.452,16.602,8.789,20.020,23.438,26.367,0
1556550466.455,13.672,12.695,8.301,13.184,16.602,0
1556550466.459,44.922,16.602,9.766,11.230,10.742,0
1556550466.463,46.875,9.277,18.555,7.812,14.160,0
1556550466.467,13.672,9.766,23.926,12.695,17.090,0
1556550466.471,3.418,14.648,20.996,17.578,11.230,0
1556550466.473,28.809,13.184,15.625,13.672,12.695,0
1556550466.477,41.504,10.742,12.207,16.113,-18.066,0
1556550466.481,15.137,16.602,16.113,22.949,19.531,0
1556550466.485,-8.789,29.785,24.414,31.250,63.477,0
1556550466.489,11.230,28.320,31.738,29.785,64.941,0
1556550466.493,37.598,21.973,36.133,25.391,58.594,0
1556550466.497,20.996,31.738,38.574,24.414,36.133,0
1556550466.500,-16.113,36.133,33.203,20.020,48.340,0
1556550466.504,-1.465,35.156,20.508,23.926,-9.766,0
1556550466.508,42.480,28.809,15.137,28.809,-17.578,0
1556550466.512,44.434,27.832,17.090,36.621,23.438,0
1556550466.516,7.812,31.738,20.508,44.434,-7.812,0
1556550466.518,0.488,23.438,20.508,44.434,-19.531,0
1556550466.522,41.504,14.160,20.020,46.387,-28.320,0
1556550466.526,55.176,19.043,11.719,42.969,24.902,0
1556550466.530,26.367,24.902,22.949,45.410,50.781,0
1556550466.534,9.766,22.461,42.969,47.852,33.691,0
1556550466.538,35.156,18.555,30.762,37.109,6.348,0
1556550466.542,54.199,21.973,20.508,25.391,-25.391,0
1556550466.545,25.879,25.879,26.855,19.531,32.227,0
1556550466.549,-5.859,22.949,26.855,23.926,18.555,0
1556550466.553,8.789,20.996,28.809,18.555,27.832,0
1556550466.557,36.621,26.855,24.414,10.254,-0.488,0
1556550466.561,22.949,22.461,10.742,13.184,16.113,0
1556550466.577,-12.207,15.625,10.254,14.648,37.598,0
1556550466.581,-10.254,21.484,18.066,10.254,21.973,0
1556550466.585,25.391,24.902,24.902,8.789,31.250,0
1556550466.589,35.156,27.832,31.250,13.672,16.113,0
1556550466.593,2.441,29.785,25.879,18.555,13.184,0
1556550466.597,-11.230,28.809,20.996,14.160,-25.391,0
1556550466.601,24.414,28.320,28.809,8.789,3.906,0
1556550466.604,41.504,27.832,36.133,15.625,31.738,0
1556550466.608,8.789,22.949,21.973,19.531,20.508,0
1556550466.612,-8.789,23.438,12.695,21.484,4.883,0
1556550466.616,29.297,29.297,3.906,23.926,-15.137,0
1556550466.620,50.781,20.508,0.977,22.949,-33.203,0
1556550466.622,30.273,20.996,25.879,26.855,-43.457,0
1556550466.626,9.766,24.414,36.621,35.645,-38.086,0
1556550466.630,20.508,21.484,36.133,32.715,23.926,1
1556550466.634,47.852,14.160,40.039,21.484,62.988,0
1556550466.638,34.668,8.789,29.297,20.996,22.461,0
1556550466.642,-6.348,16.602,8.301,27.344,-9.277,0
1556550466.646,-12.695,18.555,8.789,18.066,-21.973,0
1556550466.649,22.949,20.996,25.879,11.230,-3.418,0
1556550466.653,26.367,19.531,35.645,8.301,42.969,0
1556550466.657,-14.160,9.766,28.809,8.789,40.039,0
1556550466.661,-19.531,12.207,21.484,17.578,34.668,0
1556550466.665,22.949,16.113,19.531,22.461,17.090,0
1556550466.667,42.480,18.066,20.020,22.461,-3.906,0
1556550466.671,12.695,12.207,14.648,21.973,22.949,0
1556550466.675,-9.277,4.395,7.812,22.949,48.340,0
1556550466.679,21.484,13.184,14.648,18.066,38.086,0
1556550466.683,51.758,19.531,25.391,18.555,-6.836,0
1556550466.687,32.715,16.602,19.043,20.020,-24.414,0
1556550466.691,-3.418,20.020,16.113,12.695,-13.184,0
1556550466.694,3.418,25.391,16.113,7.812,46.387,0
1556550466.698,37.598,21.484,22.461,4.883,-18.066,0
1556550466.702,31.738,13.184,5.371,0.000,-56.641,0
1556550466.706,-7.324,11.230,-3.418,5.371,30.273,0
1556550466.710,-7.324,13.672,22.461,7.324,46.387,0
1556550466.712,24.414,16.602,33.691,1.953,50.293,0
1556550466.716,27.832,14.648,37.598,-1.465,32.227,0
1556550466.720,-0.488,14.160,41.504,3.418,3.418,0
1556550466.724,-12.207,14.160,29.297,8.789,-28.809,0
1556550466.728,16.113,12.207,5.859,0.977,-41.504,0
1556550466.732,31.738,17.578,12.695,-2.441,42.969,0
1556550466.736,0.000,19.531,18.555,-0.488,48.340,0
1556550466.739,-32.715,15.137,5.859,1.465,47.852,0
1556550466.743,-8.301,11.230,11.719,-0.977,14.160,0
1556550466.747,21.484,8.789,14.648,-3.906,-12.695,0
1556550466.751,6.348,5.859,20.508,5.859,44.434,0
1556550466.755,-29.785,8.301,21.973,5.859,34.668,0
1556550466.760,-20.508,8.301,10.254,4.883,20.996,0
1556550466.764,17.578,9.766,12.207,10.254,21.484,0
1556550466.768,16.602,6.348,18.066,8.301,-27.832,0
1556550466.772,-18.555,3.906,2.441,9.277,-11.230,0
1556550466.776,-19.043,14.160,3.418,14.648,50.781,0
1556550466.780,24.414,21.484,24.902,19.043,45.410,0
1556550466.784,40.039,21.484,24.902,20.020,-15.625,0
1556550466.787,10.742,13.184,29.785,18.555,-50.781,0
1556550466.791,-4.395,20.020,24.902,21.973,-5.859,0
1556550466.795,30.273,27.832,15.137,29.297,75.684,0
1556550466.799,54.688,18.066,12.695,27.832,61.523,0
1556550466.803,27.832,15.137,19.531,23.926,22.949,0
1556550466.802,-2.441,13.672,29.297,23.926,-10.254,0
1556550466.806,16.602,7.324,28.809,22.949,-3.418,0
1556550466.810,50.781,7.324,26.855,27.832,28.809,0
1556550466.814,37.598,15.625,19.043,32.715,31.250,0
1556550466.818,-0.977,15.137,10.742,32.715,19.531,0
1556550466.822,3.418,10.254,18.555,28.809,-5.371,0
1556550466.826,40.527,9.766,20.020,24.414,35.156,0
1556550466.829,44.434,14.648,20.996,22.949,33.691,0
1556550466.833,13.184,20.996,11.230,30.273,42.480,0
1556550466.837,2.930,11.230,-0.488,27.832,54.688,0
1556550466.841,26.367,5.859,16.602,16.113,16.602,0
1556550466.845,33.691,8.301,24.414,12.695,5.859,0
1556550466.847,1.465,6.836,18.555,10.742,5.859,0
1556550466.851,-21.973,6.348,9.766,11.230,34.668,0
1556550466.855,11.230,10.742,8.301,12.207,73.730,0
1556550466.859,43.945,16.602,16.113,16.113,54.688,0
1556550466.863,31.250,21.973,22.949,25.391,18.066,0
1556550466.867,3.418,18.066,17.578,29.297,-14.160,0
1556550466.871,15.137,13.672,14.160,20.508,-43.457,0
1556550466.874,49.805,20.508,19.531,19.043,-11.230,0
1556550466.878,40.039,20.508,24.902,21.484,34.180,0
1556550466.882,-0.977,4.395,36.621,19.531,38.574,0
1556550466.886,0.488,2.441,35.156,21.484,47.852,0
1556550466.890,43.457,18.555,25.391,26.855,14.648,0
1556550466.893,50.781,15.625,17.578,27.344,25.391,0
1556550466.897,17.578,12.207,27.832,29.297,113.770,0
1556550466.901,4.395,21.973,40.039,33.691,44.434,0
1556550466.905,36.133,25.879,41.504,30.273,-23.926,0
1556550466.909,53.223,22.949,36.621,25.391,7.812,0
1556550466.913,27.344,16.602,27.832,27.344,53.223,0
1556550466.917,5.371,20.508,25.879,24.414,59.570,0
1556550466.920,25.391,26.367,17.090,21.973,41.504,0
1556550466.924,49.805,17.090,13.184,20.508,-22.461,0
1556550466.928,26.855,6.836,20.020,16.602,9.766,0
1556550466.932,-11.719,11.230,30.762,13.672,52.734,0
1556550466.936,-4.395,25.391,31.250,5.371,15.137,0
1556550466.953,26.367,28.320,30.273,-0.488,18.066,0
1556550466.957,24.414,24.902,41.992,6.348,-0.977,0
1556550466.961,-10.742,20.996,39.062,10.742,19.043,0
1556550466.965,-19.043,18.555,18.555,9.277,52.246,0
1556550466.969,19.043,14.648,21.973,7.812,51.758,0
1556550466.973,35.156,8.789,25.391,9.277,44.434,0
1556550466.977,-1.465,3.906,24.902,16.113,33.691,0
1556550466.980,-19.043,2.930,30.273,16.113,50.781,0
1556550466.984,18.066,9.277,27.832,10.254,2.930,0
1556550466.988,42.480,13.672,25.879,8.789,-11.230,0
1556550466.992,16.602,20.508,17.090,12.207,1.953,0
1556550466.996,-11.719,24.414,11.230,16.602,3.906,0
1556550466.998,14.648,23.438,6.348,17.090,29.785,0
1556550467.002,50.293,26.367,-7.324,19.043,16.602,0
1556550467.006,32.715,27.344,-3.418,19.531,-1.465,0
1556550467.010,-5.371,16.602,0.977,19.043,3.418,0
1556550467.014,1.953,11.719,19.531,20.020,43.945,0
1556550467.018,33.691,8.301,37.598,18.066,37.109,0
1556550467.022,31.250,8.301,39.062,16.602,53.711,0
1556550467.025,-8.301,16.602,44.434,11.230,69.824,0
1556550467.029,-20.508,19.043,41.504,6.836,53.223,0
1556550467.033,22.949,26.855,34.180,6.836,52.246,0
1556550467.037,36.621,36.133,23.926,10.254,-4.395,0
1556550467.041,-3.906,29.785,21.973,12.695,27.344,0
1556550467.042,-23.926,24.414,22.461,2.930,7.812,0
1556550467.046,6.348,26.367,24.902,-3.418,-5.371,0
1556550467.050,29.785,31.250,27.344,0.977,28.809,0
1556550467.054,12.207,33.691,16.602,6.836,16.113,0
1556550467.058,-17.090,23.926,7.812,11.719,35.645,0
1556550467.062,-1.953,20.020,19.043,7.812,34.668,0
1556550467.066,31.250,26.367,29.785,8.301,48.828,0
1556550467.069,12.207,23.926,21.973,9.277,-9.277,0
1556550467.073,-24.414,21.484,26.367,11.230,-6.836,0
1556550467.077,-19.531,25.879,34.668,8.789,63.477,0
1556550467.081,19.531,32.227,28.809,7.812,8.789,0
1556550467.085,28.320,31.250,18.066,17.090,41.992,0
1556550467.087,-5.859,27.344,6.348,17.578,3.906,0
1556550467.091,-13.672,31.250,6.836,16.113,-60.547,0
1556550467.095,22.461,31.738,24.414,11.719,34.668,0
1556550467.099,45.898,29.297,42.969,14.160,78.125,0
1556550467.103,18.555,27.344,37.598,17.090,69.824,0
1556550467.107,-9.766,23.438,21.973,11.719,37.598,0
1556550467.111,21.484,30.762,28.320,18.066,-15.137,0
1556550467.114,44.922,35.645,27.344,18.066,-7.812,0
1556550467.118,23.438,41.016,26.367,16.602,33.203,0
1556550467.122,-6.348,43.457,23.438,20.020,48.828,0
1556550467.126,8.789,39.551,20.020,21.973,28.320,0
1556550467.130,45.898,45.898,4.883,24.414,40.039,0
1556550467.133,37.598,45.410,-18.066,20.996,27.344,0
1556550467.137,-3.906,32.227,9.766,14.160,-40.527,0
1556550467.141,-1.953,31.738,39.551,13.672,-15.625,0
1556550467.145,39.551,42.480,35.156,15.625,11.230,0
1556550467.149,41.992,42.480,27.832,8.301,-2.930,0
1556550467.153,11.230,41.992,34.668,11.230,14.648,0
1556550467.157,6.348,49.316,32.715,20.508,6.836,0
1556550467.160,41.504,39.551,31.250,19.043,-1.953,0
1556550467.164,57.617,32.715,30.762,21.484,1.465,0
1556550467.168,26.855,38.086,31.250,29.785,-45.410,0
1556550467.172,-5.371,41.016,43.945,28.320,7.812,0
1556550467.176,12.695,39.062,41.504,20.508,17.090,0
1556550467.193,41.016,32.227,37.598,20.508,9.277,0
1556550467.197,23.926,31.738,25.391,24.902,50.781,0
1556550467.201,-17.578,24.902,20.020,27.832,35.156,0
1556550467.205,-9.277,18.555,36.621,21.484,29.785,0
1556550467.209,29.297,27.832,44.922,17.090,2.441,0
1556550467.213,31.250,37.109,45.898,27.344,-26.855,0
1556550467.217,0.977,37.598,44.434,29.297,9.277,0
1556550467.220,0.488,34.668,33.691,26.367,17.090,0
1556550467.224,36.621,34.668,22.461,27.344,41.016,0
1556550467.228,46.875,30.762,28.320,28.320,84.473,0
1556550467.232,22.949,28.809,35.156,37.109,46.875,0
1556550467.236,4.395,29.297,34.180,37.109,13.184,0
1556550467.223,30.273,23.926,23.926,26.367,12.207,0
1556550467.227,54.688,21.484,23.926,22.949,41.504,0
1556550467.231,22.461,18.555,30.762,20.020,34.668,0
1556550467.235,-8.301,19.043,27.344,22.461,-25.879,0
1556550467.239,17.578,22.461,25.391,26.367,-61.035,0
1556550467.243,50.293,17.578,31.738,27.344,-20.996,0
1556550467.247,37.598,20.508,40.527,28.320,7.812,0
1556550467.250,2.441,24.902,41.504,28.809,-22.949,0
1556550467.254,6.836,26.367,46.875,30.273,15.625,0
1556550467.258,48.340,31.738,53.223,29.785,63.965,0
1556550467.262,42.480,28.809,28.320,21.973,13.672,0
1556550467.266,-2.930,30.273,13.672,23.438,7.324,0
1556550467.268,-9.277,28.320,36.133,22.949,15.137,0
1556550467.272,28.320,23.926,41.992,20.020,-1.953,0
1556550467.276,44.434,27.344,44.922,29.785,-30.762,0
1556550467.280,12.695,31.738,50.781,32.715,-32.715,0
1556550467.284,-11.719,34.668,42.969,28.809,12.207,0
1556550467.288,14.160,27.832,27.344,21.484,26.367,0
1556550467.292,40.527,27.832,28.320,18.066,49.805,0
1556550467.295,20.996,36.133,31.738,22.461,25.391,0
1556550467.299,-15.137,35.156,18.555,19.043,-11.230,0
1556550467.303,-1.953,32.227,18.555,12.695,-5.859,0
1556550467.307,36.133,31.738,30.273,14.160,-11.230,0
1556550467.311,27.344,22.949,44.922,15.137,3.906,0
1556550467.328,-9.766,23.438,57.129,17.090,30.273,0
1556550467.332,-0.977,31.738,53.223,23.926,56.152,0
1556550467.336,32.715,28.320,39.062,17.578,38.574,0
1556550467.340,30.273,23.438,26.855,10.254,17.578,0
1556550467.344,-3.418,21.973,17.578,19.043,50.293,0
1556550467.348,-7.812,13.672,12.695,18.555,59.570,0
1556550467.352,29.785,11.230,14.160,12.207,-4.395,0
1556550467.355,48.340,16.113,17.578,17.090,-8.789,0
1556550467.359,11.230,15.625,19.043,16.113,27.344,0
1556550467.363,-22.949,11.719,23.926,9.766,43.457,0
1556550467.367,7.324,12.207,30.762,16.113,12.695,0
1556550467.371,36.133,12.695,33.203,18.066,-26.367,0
1556550467.373,14.160,9.766,32.715,13.672,6.836,0
1556550467.377,-14.160,11.719,36.133,15.625,10.742,0
1556550467.381,2.930,26.367,22.949,16.602,12.207,0
1556550467.385,35.156,35.156,16.602,11.719,16.602,0
1556550467.389,23.926,25.391,19.531,5.859,43.457,0
1556550467.393,-12.207,17.578,24.414,8.789,58.594,0
1556550467.397,-6.836,21.484,29.785,13.672,17.578,0
1556550467.400,28.320,21.484,21.484,7.812,61.035,0
1556550467.404,35.156,17.090,39.551,5.371,73.242,0
1556550467.408,0.977,18.555,41.504,8.789,45.410,0
1556550467.412,-11.719,26.367,19.531,14.160,58.594,0
1556550467.416,28.320,28.809,20.020,20.020,-3.906,0
1556550467.418,48.828,22.461,28.320,20.996,-47.363,0
1556550467.422,14.160,12.695,34.668,18.555,25.879,0
1556550467.426,-14.160,10.254,40.527,14.648,0.488,0
1556550467.430,13.184,17.090,18.555,18.066,-10.742,0
1556550467.434,41.992,18.555,3.418,22.949,49.805,0
1556550467.438,20.508,10.254,23.438,20.508,58.594,0
1556550467.442,-10.254,8.301,29.785,21.973,49.316,0
1556550467.445,7.812,14.648,25.391,27.832,45.898,0
1556550467.449,46.387,16.113,28.320,26.367,18.066,0
1556550467.453,42.480,20.508,23.926,28.320,9.277,0
1556550467.457,0.488,25.879,28.809,30.273,20.508,0
1556550467.461,-4.395,22.461,39.062,23.438,31.250,0
1556550467.463,35.645,22.461,35.156,23.438,41.992,0
1556550467.467,41.504,17.578,18.555,22.461,45.898,0
1556550467.471,4.395,15.137,15.137,20.508,-12.695,0
1556550467.475,-4.395,26.855,27.344,26.367,-9.766,0
1556550467.479,30.762,34.180,20.508,26.367,1.465,0
1556550467.483,49.805,28.809,26.367,22.949,8.301,0
1556550467.487,24.902,24.414,40.527,20.996,58.594,0
1556550467.490,1.465,31.250,32.715,22.949,-20.020,0
1556550467.494,22.949,28.320,34.668,20.996,-22.461,0
1556550467.498,50.293,26.855,37.109,20.508,53.711,0
1556550467.502,39.551,27.344,29.785,23.926,-1.953,0
1556550467.506,3.906,20.508,26.367,22.949,-25.879,0
1556550467.508,6.348,18.066,20.508,22.461,10.742,0
1556550467.512,43.457,22.949,15.137,22.949,-20.020,0
1556550467.516,43.457,27.344,22.461,22.949,-12.207,0
1556550467.520,2.441,15.625,37.598,20.996,24.414,0
1556550467.524,-5.859,14.160,39.551,24.414,52.734,0
1556550467.528,37.109,28.320,35.156,32.715,54.688,0
1556550467.532,55.664,27.832,29.297,36.133,20.020,0
1556550467.535,20.020,20.508,20.508,22.949,2.441,0
1556550467.539,-15.625,27.344,21.973,1.465,35.156,0
1556550467.543,13.184,40.039,25.879,4.395,76.660,0
1556550467.547,49.316,38.574,19.531,18.066,29.297,0
1556550467.551,19.531,39.062,10.742,15.625,17.090,0
1556550467.553,-14.648,37.598,19.043,17.090,14.160,0
1556550467.557,8.789,35.645,19.531,20.020,42.969,0
1556550467.561,47.852,34.668,24.414,20.508,4.883,0
1556550467.565,38.086,39.062,43.457,23.926,-24.902,0
1556550467.569,3.418,36.133,37.109,23.926,21.973,0
1556550467.573,10.254,26.855,25.391,22.949,9.766,0
1556550467.577,44.434,30.273,26.855,17.578,-23.438,0
1556550467.580,46.387,30.273,25.391,10.254,-27.832,0
1556550467.584,14.160,32.227,9.766,16.602,-3.906,0
1556550467.588,6.348,38.086,7.324,26.855,41.992,0
1556550467.592,36.133,36.133,20.996,19.531,36.133,0
1556550467.596,53.223,35.156,22.949,15.137,20.508,0
1556550467.598,29.785,37.109,28.320,22.461,58.105,0
1556550467.602,11.719,41.992,27.344,28.320,61.035,0
1556550467.606,36.133,33.691,17.578,27.344,-1.953,0
1556550467.610,56.152,20.508,26.855,23.438,9.766,0
1556550467.614,30.762,21.973,32.715,20.996,46.387,0
1556550467.618,-2.930,28.320,28.809,26.367,28.809,0
1556550467.622,11.719,25.879,31.250,26.367,12.207,0
1556550467.625,41.992,25.879,26.367,20.020,22.949,0
1556550467.629,36.621,29.297,21.484,23.926,77.637,0
1556550467.633,3.906,22.461,23.438,31.250,46.387,0
1556550467.637,6.836,19.531,11.719,28.809,22.461,0
1556550467.641,41.504,23.438,1.465,25.879,19.531,0
1556550467.643,39.062,26.367,18.066,22.461,45.898,0
1556550467.647,3.906,26.367,32.227,18.555,33.691,0
1556550467.651,-5.859,29.297,24.414,20.996,-6.836,0
1556550467.655,24.414,27.344,24.414,13.672,30.273,0
1556550467.659,39.551,27.344,26.367,7.324,40.527,0
1556550467.663,17.090,26.367,23.438,12.695,51.270,0
1556550467.667,-4.395,23.438,31.738,19.043,33.203,0
1556550467.670,17.090,30.762,21.973,21.973,41.992,0
1556550467.674,48.340,33.691,1.465,22.461,27.832,0
1556550467.678,27.344,24.902,23.926,20.996,9.277,0
1556550467.682,-11.230,20.508,37.598,20.020,20.996,0
1556550467.686,0.977,21.973,32.715,18.555,2.441,0
1556550467.703,35.156,23.926,26.855,15.625,-20.996,0
1556550467.707,28.809,28.320,15.625,14.160,0.977,0
1556550467.711,-5.859,24.414,9.766,14.648,38.574,0
1556550467.715,-12.695,20.020,14.648,16.113,1.465,0
1556550467.719,21.973,19.531,24.902,17.090,20.996,0
1556550467.723,33.691,16.113,18.555,12.207,57.617,0
1556550467.727,-1.953,14.648,10.742,11.719,0.000,0
1556550467.730,-19.531,15.625,12.207,15.137,-2.930,0
1556550467.734,14.160,13.184,20.996,16.113,27.832,0
1556550467.738,41.992,12.695,18.555,18.066,5.371,0
1556550467.742,9.766,18.555,10.254,8.301,4.395,0
1556550467.746,-29.785,14.648,13.184,6.348,60.059,0
1556550467.748,-8.789,9.766,11.230,10.254,83.984,0
1556550467.752,29.785,11.719,14.648,9.766,52.246,0
1556550467.756,19.531,8.301,6.348,13.184,-11.230,0
1556550467.760,-14.648,11.719,-7.812,15.137,-8.301,0
1556550467.764,-6.348,8.301,4.395,13.672,9.277,0
1556550467.768,29.297,8.789,21.484,12.207,-6.836,1
1556550467.772,23.926,19.531,16.602,9.277,-5.371,0
1556550467.775,-5.371,23.926,23.926,14.160,15.625,0
1556550467.779,-1.953,21.484,30.762,19.531,75.195,0
1556550467.783,30.273,20.996,19.531,12.695,58.105,0
1556550467.787,36.133,34.180,18.555,11.230,41.992,0
1556550467.791,0.488,33.203,18.066,16.602,38.086,0
1556550467.793,-21.973,27.832,8.301,13.184,53.223,0
1556550467.797,9.766,33.691,10.742,7.812,-2.441,0
1556550467.801,42.480,40.039,28.809,11.719,-39.062,0
1556550467.805,18.066,38.086,35.156,14.160,15.625,0
1556550467.809,-18.555,31.250,33.691,14.648,-25.879,0
1556550467.813,5.371,35.645,28.809,19.531,-60.059,0
1556550467.817,45.898,40.527,31.250,20.508,5.859,0
1556550467.820,36.621,27.344,42.969,20.020,58.594,0
1556550467.824,-0.488,25.879,30.273,17.578,72.266,0
1556550467.828,3.906,37.598,16.113,16.113,67.383,0
1556550467.832,43.945,35.156,18.066,18.555,49.316,0
1556550467.836,47.852,25.879,27.344,16.602,45.410,0
1556550467.837,18.555,28.320,31.738,21.973,36.133,0
1556550467.841,15.137,41.504,28.320,29.297,28.320,0
1556550467.845,45.410,38.574,25.879,25.391,43.457,0
1556550467.849,58.105,29.297,35.156,26.367,68.848,0
1556550467.853,26.367,32.227,45.410,29.297,30.762,0
1556550467.857,1.465,34.668,44.434,27.832,4.883,0
1556550467.861,25.879,39.062,39.062,27.832,31.250,0
1556550467.864,46.875,28.809,26.855,22.949,54.688,0
1556550467.868,23.438,14.648,23.926,20.508,5.859,0
1556550467.872,-9.766,20.508,38.086,25.879,-51.758,0
1556550467.876,3.418,21.973,34.180,27.344,-46.387,0
1556550467.880,38.086,22.461,34.668,25.879,-19.531,0
1556550467.882,32.715,24.414,41.016,24.414,7.812,0
1556550467.886,-4.395,23.926,41.016,16.602,-18.066,0
1556550467.890,-4.395,25.391,30.273,13.184,22.461,0
1556550467.894,34.668,23.926,16.113,16.113,24.902,0
1556550467.898,40.039,26.367,21.484,18.555,-31.250,0
1556550467.902,10.254,28.320,23.438,24.902,29.297,0
1556550467.906,-1.465,20.020,23.438,27.344,59.570,0
1556550467.909,27.344,15.625,33.203,18.555,17.578,0
1556550467.913,45.898,17.090,31.738,12.207,41.016,0
1556550467.917,14.648,12.695,25.879,12.695,58.594,0
1556550467.921,-13.184,12.207,26.855,15.625,1.465,0
1556550467.925,15.625,20.020,27.832,15.625,1.465,0
1556550467.927,50.781,27.344,28.320,13.672,43.945,0
1556550467.931,40.039,26.855,25.879,20.996,27.832,0
1556550467.935,4.883,24.902,24.414,27.832,-28.320,0
1556550467.939,11.230,27.344,32.227,29.785,7.812,0
1556550467.943,49.805,27.344,41.016,28.809,47.363,0
1556550467.947,43.457,19.043,41.992,21.484,12.695,0
1556550467.951,0.977,19.043,30.273,18.555,-6.348,0
1556550467.954,-2.441,26.855,15.625,17.578,34.180,0
1556550467.958,35.156,29.785,14.160,14.160,4.395,0
1556550467.962,45.410,23.438,17.090,16.113,-25.391,0
1556550467.966,8.789,13.184,19.531,16.113,5.859,0
1556550467.970,-10.742,21.484,20.996,19.043,10.254,0
1556550467.972,18.066,32.715,16.113,16.113,15.625,0
1556550467.976,45.898,29.297,27.832,17.578,25.391,0
1556550467.980,17.090,27.344,31.738,17.578,37.109,0
1556550467.984,-29.297,24.902,19.043,6.836,93.262,0
1556550467.988,-11.230,20.996,18.066,2.441,60.059,0
1556550467.992,23.438,21.973,17.578,1.465,16.113,0
1556550467.996,13.184,26.367,23.438,5.859,4.883,0
1556550467.999,-21.484,24.902,22.949,8.789,-35.645,0
1556550468.003,-14.648,16.113,11.230,6.836,7.812,0
1556550468.007,26.367,16.113,18.066,7.324,44.434,0
1556550468.011,27.832,27.832,27.832,8.789,35.156,0
1556550468.015,-1.465,31.738,32.227,15.137,19.531,0
1556550468.018,-6.836,21.973,24.414,15.137,-6.348,0
1556550468.022,20.020,13.672,18.066,4.395,20.020,0
1556550468.026,31.738,12.207,19.531,5.371,-0.977,0
1556550468.030,2.930,15.625,2.441,12.695,-25.879,0
1556550468.034,-16.113,18.066,7.812,19.043,10.742,0
1556550468.038,7.812,12.207,31.250,16.602,27.344,0
1556550468.042,36.621,11.230,26.855,10.254,92.285,0
1556550468.045,18.066,9.277,25.391,12.695,74.219,0
1556550468.049,-16.602,8.789,16.602,20.508,26.367,0
1556550468.053,1.953,18.555,3.906,18.066,19.043,0
1556550468.057,35.156,23.438,19.531,12.695,2.930,0
1556550468.061,18.066,17.090,33.691,7.812,23.926,0
1556550468.078,-18.555,17.578,36.621,7.324,8.301,0
1556550468.082,-9.277,25.879,31.738,8.789,-62.012,0
1556550468.086,27.832,26.367,24.902,7.324,-8.301,0
1556550468.090,32.715,20.020,20.020,8.789,56.641,0
1556550468.094,-0.488,16.602,19.531,10.742,36.621,0
1556550468.098,-10.742,13.184,21.484,12.207,-9.766,0
1556550468.102,20.996,15.137,14.160,13.672,20.996,0
1556550468.105,36.133,19.043,18.066,14.160,62.012,0
1556550468.109,11.230,20.996,22.949,20.020,52.734,0
1556550468.113,-13.184,23.926,18.555,19.531,32.715,0
1556550468.117,7.324,31.250,18.066,10.742,19.043,0
1556550468.121,34.668,28.809,19.043,9.766,0.977,0
1556550468.123,18.066,23.438,33.203,14.160,-20.020,0
1556550468.127,-13.672,26.367,39.551,13.672,31.250,0
1556550468.131,3.906,25.391,38.086,11.719,31.738,0
1556550468.135,38.086,23.926,35.156,12.695,-3.418,0
1556550468.139,32.227,32.715,27.344,16.113,-1.953,0
1556550468.143,0.977,38.574,22.949,20.508,-8.301,0
1556550468.147,-1.465,34.668,20.996,22.461,9.277,0
1556550468.150,32.715,36.621,22.461,17.090,-18.555,0
1556550468.154,39.062,34.668,21.973,10.742,-30.273,0
1556550468.158,1.953,29.785,21.973,5.371,-18.555,0
1556550468.162,-20.020,27.344,19.043,0.488,-1.465,0
1556550468.166,12.207,26.855,16.113,-0.488,24.414,0
1556550468.168,37.109,32.227,19.531,7.812,36.621,0
1556550468.172,8.301,30.762,24.414,12.695,80.078,0
1556550468.176,-22.949,22.461,21.484,9.277,52.246,0
1556550468.180,-2.441,26.367,18.555,3.906,48.828,0
1556550468.184,20.996,26.855,20.996,0.977,51.758,0
1556550468.188,0.977,19.043,16.602,-4.395,-13.184,0
1556550468.192,-34.180,26.367,12.695,-5.371,-19.531,0
1556550468.195,-24.902,30.762,22.461,0.488,-2.930,0
1556550468.199,22.949,40.527,30.273,4.395,32.715,0
1556550468.203,27.344,47.363,32.715,2.930,-1.953,0
1556550468.207,-10.742,44.434,38.574,7.324,-32.715,0
1556550468.211,-14.648,40.527,32.715,12.695,44.434,0
1556550468.213,26.367,37.598,25.879,12.207,52.246,0
1556550468.217,41.504,44.434,25.391,12.695,21.484,0
1556550468.221,9.277,44.434,3.906,14.648,9.766,0
1556550468.225,-9.766,35.645,4.883,15.625,18.555,0
1556550468.229,18.066,30.273,20.508,14.160,65.430,0
1556550468.233,44.922,31.738,13.184,16.113,61.035,0
1556550468.237,22.949,29.785,18.066,23.438,42.480,0
1556550468.240,-6.348,19.531,21.973,28.320,-2.930,0
1556550468.244,16.113,14.160,28.809,25.879,-35.645,0
1556550468.248,53.711,22.949,35.645,28.320,30.273,0
1556550468.252,38.086,17.578,31.250,28.809,72.266,0
1556550468.256,-2.930,11.719,22.461,28.809,26.855,0
1556550468.258,-1.465,17.090,10.742,25.391,18.066,0
1556550468.262,31.738,18.066,7.324,18.066,40.527,0
1556550468.266,37.598,16.602,17.090,21.973,50.781,0
1556550468.270,1.953,13.184,20.508,24.414,27.344,0
1556550468.274,-17.090,8.789,19.531,16.113,62.012,0
1556550468.278,14.160,10.742,18.066,12.695,62.012,0
1556550468.282,35.645,19.531,21.484,15.137,-1.953,0
1556550468.285,7.812,20.996,33.203,20.020,12.207,0
1556550468.289,-16.602,20.020,31.250,20.996,25.879,0
1556550468.293,16.113,23.438,26.855,22.949,55.176,0
1556550468.297,50.781,25.879,30.273,28.809,39.551,0
1556550468.301,28.320,25.391,21.973,26.855,18.066,0
1556550468.303,-4.883,24.902,21.973,23.926,12.695,0
1556550468.307,16.113,21.973,26.855,23.926,-12.695,0
1556550468.311,51.270,19.531,17.090,21.973,15.625,0
1556550468.315,38.574,24.414,9.766,18.555,20.020,0
1556550468.319,10.254,41.016,24.414,27.832,-9.766,0
1556550468.323,16.602,42.969,27.832,30.273,24.414,0
1556550468.327,44.922,30.762,24.414,22.461,13.184,0
1556550468.330,47.852,32.227,36.133,21.484,-34.180,0
1556550468.334,11.230,41.992,39.062,24.902,-2.930,0
1556550468.338,0.000,39.062,28.320,29.297,34.180,0
1556550468.342,31.738,29.785,20.508,21.973,20.020,0
1556550468.346,50.781,31.738,17.578,20.508,7.324,0
1556550468.363,23.438,33.691,20.020,22.949,29.785,0
1556550468.367,-5.371,33.203,27.344,24.902,22.949,0
1556550468.371,29.297,42.969,30.762,29.297,24.414,0
1556550468.375,59.082,42.969,23.438,23.926,5.371,0
1556550468.379,26.367,33.203,19.531,17.090,25.391,0
1556550468.383,-1.953,32.715,25.879,20.508,44.434,0
1556550468.387,17.090,28.320,26.855,20.508,6.348,0
1556550468.390,46.387,25.391,31.738,15.625,10.742,0
1556550468.394,40.039,29.785,27.832,17.578,-39.062,0
1556550468.398,7.812,27.832,24.902,26.367,21.484,0
1556550468.402,8.789,27.832,32.715,29.785,55.664,0
1556550468.406,44.434,36.621,41.016,29.297,-22.461,0
1556550468.393,56.641,42.969,40.527,32.227,2.930,0
1556550468.397,19.043,28.320,29.785,34.180,21.973,0
1556550468.401,-1.465,20.996,22.949,30.762,-42.480,0
1556550468.405,27.832,33.691,24.902,28.809,-59.082,0
1556550468.409,43.945,37.109,22.461,29.297,20.996,0
1556550468.413,19.531,22.949,20.996,31.250,51.758,0
1556550468.417,-6.836,17.090,28.320,32.715,70.312,0
1556550468.420,14.160,23.926,23.926,27.832,83.008,0
1556550468.424,44.922,27.344,14.648,22.461,61.523,0
1556550468.428,32.715,20.020,24.902,21.973,38.086,0
1556550468.432,-0.977,23.926,41.016,24.902,13.672,0
1556550468.436,-1.953,41.504,31.738,16.602,9.766,0
1556550468.453,32.227,39.062,27.344,11.719,23.926,0
1556550468.457,37.109,31.738,34.180,18.555,56.641,0
1556550468.461,-2.441,29.785,27.344,19.531,13.184,0
1556550468.465,-13.672,32.227,25.879,17.090,-19.043,0
1556550468.469,24.414,33.203,31.738,18.066,26.367,0
1556550468.473,40.039,27.344,33.203,17.578,31.738,0
1556550468.477,6.836,34.668,29.785,19.531,-22.461,0
1556550468.480,-15.625,41.504,26.367,20.508,-53.223,0
1556550468.484,10.742,33.691,18.066,16.113,-32.227,0
1556550468.488,29.297,30.273,18.066,7.324,15.137,0
1556550468.492,5.859,28.809,26.367,4.395,16.602,0
1556550468.496,-14.648,27.344,18.555,9.277,5.859,0
1556550468.498,3.418,29.297,19.531,6.836,35.645,0
1556550468.502,34.668,28.809,22.461,4.883,38.086,0
1556550468.506,35.645,36.621,19.043,17.578,-18.555,0
1556550468.510,-0.977,44.434,28.809,21.973,10.742,0
1556550468.514,0.000,41.992,35.156,22.461,56.152,0
1556550468.518,40.527,39.551,34.180,22.949,54.688,0
1556550468.522,37.109,31.738,32.227,14.160,14.160,0
1556550468.525,-2.441,29.297,28.320,13.672,-35.645,0
1556550468.529,-7.324,27.344,28.320,16.602,13.184,0
1556550468.533,36.621,29.297,32.715,14.648,-15.137,0
1556550468.537,50.781,40.527,35.156,12.695,-39.062,0
1556550468.541,16.113,36.621,30.762,11.230,-1.465,0
1556550468.543,-2.930,29.785,20.508,15.625,51.758,0
1556550468.547,25.879,32.227,16.602,17.578,64.941,0
1556550468.551,52.246,36.133,25.391,19.531,37.598,0
1556550468.555,21.973,36.133,29.297,16.113,52.734,0
1556550468.559,-13.672,32.715,33.691,11.230,28.320,0
1556550468.563,8.789,30.273,38.574,15.137,14.160,0
1556550468.567,37.109,25.391,37.109,15.625,30.273,0
1556550468.570,27.344,25.879,44.434,16.602,-9.277,0
1556550468.574,-8.789,24.414,35.645,16.113,4.395,0
1556550468.578,-10.254,26.855,25.879,13.184,26.855,0
1556550468.582,30.762,29.785,32.715,18.066,-20.508,0
1556550468.586,41.016,20.996,33.203,19.043,17.090,0
1556550468.588,11.230,20.508,18.555,20.508,62.012,0
1556550468.592,0.000,30.273,5.371,23.438,23.438,0
1556550468.596,24.414,19.043,7.812,12.207,34.668,0
1556550468.600,37.109,5.859,24.902,8.301,59.570,0
1556550468.604,5.859,7.812,32.715,14.648,48.828,0
1556550468.608,-16.113,3.418,19.043,12.695,-0.977,0
1556550468.612,6.836,8.301,7.324,7.812,-31.738,0
1556550468.615,24.902,14.648,10.254,5.859,26.367,0
1556550468.619,6.348,8.789,16.602,6.348,51.270,0
1556550468.623,-24.902,6.836,18.555,8.789,19.531,0
1556550468.627,-13.672,2.441,17.578,7.812,22.949,0
1556550468.631,19.531,3.906,14.160,8.301,38.574,0
1556550468.633,20.020,12.207,14.648,17.090,42.480,0
1556550468.637,-11.719,9.766,14.648,18.555,-12.207,0
1556550468.641,-17.578,8.789,12.695,14.648,-53.223,0
1556550468.645,17.578,11.230,13.184,11.719,3.906,0
1556550468.649,28.809,10.254,23.438,9.766,16.113,0
1556550468.653,0.000,12.695,24.414,13.672,24.414,0
1556550468.657,-19.531,17.090,16.602,15.137,35.156,0
1556550468.660,9.277,16.602,25.879,13.672,37.598,0
1556550468.664,33.203,18.555,27.344,15.625,42.969,0
1556550468.668,8.789,20.508,19.531,15.625,9.766,0
1556550468.672,-10.254,16.602,8.301,16.602,14.648,0
1556550468.676,17.578,17.090,12.207,23.438,8.301,0
1556550468.678,53.223,28.320,16.602,27.344,60.547,0
1556550468.682,38.574,30.273,0.977,27.832,63.477,0
1556550468.686,2.930,21.484,-5.859,26.367,26.367,0
1556550468.690,9.277,28.320,6.348,19.043,-14.648,0
1556550468.694,38.086,29.785,24.902,12.695,-35.156,0
1556550468.698,38.086,30.273,32.227,21.973,21.973,0
1556550468.702,-1.953,32.227,30.273,22.949,42.480,0
1556550468.705,-15.137,31.250,27.832,12.207,5.371,0
1556550468.709,23.926,37.598,27.832,13.184,-38.574,0
1556550468.713,37.109,32.227,31.738,18.555,-6.348,0
1556550468.717,-1.953,19.043,20.508,18.555,38.574,0
1556550468.721,-20.020,19.043,9.277,22.461,22.461,0
1556550468.723,13.672,29.297,16.113,23.438,-0.488,0
1556550468.727,33.691,28.809,21.973,14.160,-27.344,0
1556550468.731,7.812,18.066,19.531,10.254,-45.410,0
1556550468.735,-21.973,18.066,21.484,12.207,-6.348,0
1556550468.739,-1.465,19.043,30.762,10.254,33.691,0
1556550468.743,32.715,19.043,27.344,6.348,-31.250,0
1556550468.747,22.949,32.715,20.020,4.883,-47.363,0
1556550468.750,-9.766,40.039,12.695,5.859,59.082,0
1556550468.754,-5.859,40.039,11.230,6.836,65.430,0
1556550468.758,31.250,39.551,24.414,6.348,58.594,0
1556550468.762,29.297,28.320,38.574,-1.953,56.152,0
1556550468.766,-6.836,17.578,40.527,-5.371,21.973,0
1556550468.768,-8.301,20.996,39.551,8.301,54.199,0
1556550468.772,28.809,25.879,37.109,13.672,42.969,0
1556550468.776,44.434,34.668,17.578,5.859,20.020,0
1556550468.780,26.367,47.363,11.719,13.672,34.668,0
1556550468.784,5.859,43.457,17.578,22.461,24.902,0
1556550468.788,25.879,33.691,15.625,16.602,45.898,0
1556550468.792,46.387,25.879,18.555,8.301,33.691,0
1556550468.795,25.391,25.879,24.902,10.254,-1.465,0
1556550468.799,-4.883,20.996,22.461,16.113,-0.488,0
1556550468.803,4.883,17.090,12.695,19.531,60.547,0
1556550468.807,37.109,22.461,11.719,22.461,84.473,0
1556550468.811,30.762,20.508,11.230,21.973,13.672,0
1556550468.828,-13.672,18.555,7.812,16.113,14.648,0
1556550468.832,-21.973,13.184,23.438,6.348,2.930,0
1556550468.836,16.113,4.883,29.297,7.812,-32.227,0
1556550468.840,21.973,9.277,27.344,5.371,-13.184,0
1556550468.844,-11.230,11.230,33.691,4.395,0.977,0
1556550468.848,-21.484,3.906,29.785,7.324,29.297,0
1556550468.852,12.695,8.789,12.207,-0.488,29.785,0
1556550468.855,33.691,16.113,10.742,-1.953,14.160,0
1556550468.859,7.812,14.648,20.020,3.418,22.949,0
1556550468.863,-25.879,7.812,20.508,-2.930,43.945,0
1556550468.867,-6.836,7.812,17.578,-3.418,46.387,0
1556550468.871,24.902,10.254,13.672,3.906,55.664,0
1556550468.872,10.742,5.859,16.113,5.371,41.992,0
1556550468.876,-19.043,3.418,22.461,9.277,25.879,0
1556550468.880,-10.742,2.930,17.090,4.395,27.344,0
1556550468.884,28.809,10.254,19.531,-1.953,27.344,1
1556550468.888,29.297,15.137,30.273,5.371,54.688,0
1556550468.892,-7.812,9.766,31.738,13.184,-3.906,0
1556550468.896,-5.859,9.766,30.762,18.555,-46.875,0
1556550468.899,40.527,21.973,41.016,27.832,24.902,0
1556550468.903,48.828,22.461,45.410,28.809,50.293,0
1556550468.907,9.766,17.090,41.992,24.414,10.742,0
1556550468.911,-9.766,20.996,41.992,26.367,16.602,0
1556550468.915,23.438,18.066,38.574,26.367,18.066,0
1556550468.917,48.340,20.996,35.156,25.879,-14.648,0
1556550468.921,28.320,30.273,32.227,33.203,28.809,0
1556550468.925,3.906,36.133,39.551,37.109,64.453,0
1556550468.929,24.414,41.016,47.852,31.738,69.336,0
1556550468.933,58.594,45.410,42.969,31.738,47.363,0
1556550468.937,45.898,44.922,28.809,36.621,54.199,0
1556550468.941,14.648,48.828,21.973,41.504,61.523,0
1556550468.944,17.090,43.945,30.273,29.785,13.672,0
1556550468.948,44.922,31.250,31.250,15.625,-18.066,0
1556550468.952,42.480,31.250,28.320,12.695,-61.035,0
1556550468.956,2.441,34.180,39.551,11.719,-46.387,0
1556550468.960,-5.859,30.762,50.293,17.090,11.230,0
1556550468.962,28.809,27.344,43.945,19.531,-8.301,0
1556550468.966,49.316,27.832,42.969,25.879,-16.602,0
1556550468.970,25.879,26.855,50.293,35.645,11.719,0
1556550468.974,7.324,19.043,46.875,37.109,-57.617,0
1556550468.978,32.715,16.602,40.039,29.785,-62.500,0
1556550468.982,55.664,23.438,40.039,33.691,-27.344,0
1556550468.986,28.320,29.785,32.227,36.133,24.414,0
1556550468.989,-9.277,25.879,29.297,22.949,42.480,0
1556550468.993,6.348,28.320,39.551,17.090,20.508,0
1556550468.997,39.551,30.273,34.180,17.578,62.500,0
1556550469.001,28.809,20.020,30.273,14.648,33.203,0
1556550469.005,-7.324,20.996,31.738,19.043,10.254,0
1556550469.007,-4.395,26.855,25.391,21.484,54.199,0
1556550469.011,37.598,27.344,25.391,18.555,36.621,0
1556550469.015,48.340,29.785,30.273,25.879,11.230,0
1556550469.019,8.301,29.785,43.457,26.855,14.160,0
1556550469.023,-4.395,31.738,44.434,23.438,10.254,0
1556550469.027,31.250,28.809,34.180,22.461,9.766,0
1556550469.031,47.852,18.555,37.109,21.484,-3.418,0
1556550469.034,18.555,15.625,38.574,20.508,16.113,0
1556550469.038,-5.859,25.879,30.273,16.602,-4.883,0
1556550469.042,21.484,29.297,28.320,16.113,-46.875,0
1556550469.046,49.316,20.996,29.785,14.648,-40.527,0
1556550469.050,27.832,22.461,23.438,13.184,10.254,0
1556550469.052,-3.906,22.461,21.484,16.602,5.859,0
1556550469.056,7.324,16.113,19.531,7.324,-1.465,0
1556550469.060,38.086,17.090,20.996,3.418,48.828,0
1556550469.064,34.668,23.926,12.207,13.184,21.973,0
1556550469.068,-3.418,20.020,9.277,13.672,-16.113,0
1556550469.072,-12.207,14.648,21.484,6.348,27.832,0
1556550469.076,25.879,16.602,37.598,6.348,16.113,0
1556550469.079,38.574,20.020,46.387,3.906,15.137,0
1556550469.083,0.488,24.414,39.062,3.418,56.641,0
1556550469.087,-14.160,20.996,20.020,11.230,10.254,0
1556550469.091,20.996,20.508,13.672,11.230,18.066,0
1556550469.095,39.551,20.508,27.344,11.230,31.738,0
1556550469.098,9.277,14.648,23.926,12.695,5.859,0
1556550469.102,-16.602,17.090,8.301,10.742,59.082,0
1556550469.106,8.789,20.508,9.277,9.277,53.711,0
1556550469.110,31.738,12.695,23.926,5.371,19.043,0
1556550469.114,9.277,6.348,34.180,3.906,48.340,0
1556550469.118,-19.531,2.930,32.715,15.137,41.504,0
1556550469.122,-1.465,5.371,28.809,20.020,37.109,0
1556550469.125,38.086,14.648,20.508,18.066,62.500,0
1556550469.129,39.062,23.438,13.672,25.391,39.551,0
1556550469.133,5.371,18.066,20.020,27.344,14.648,0
1556550469.137,-0.488,8.301,29.785,27.344,24.902,0
1556550469.141,41.016,17.578,29.785,31.738,56.641,0
1556550469.158,49.805,26.855,22.949,34.668,53.711,0
1556550469.162,0.488,16.113,26.855,28.320,25.391,0
1556550469.166,-20.996,8.301,30.762,23.926,30.762,0
1556550469.170,10.742,15.137,19.531,22.461,33.203,0
1556550469.174,41.992,20.996,22.949,22.461,59.082,0
1556550469.178,25.879,20.508,35.156,22.461,27.832,0
1556550469.182,-7.324,27.832,33.203,20.508,4.883,0
1556550469.185,8.301,37.598,24.414,17.578,49.805,0
1556550469.189,42.969,36.133,25.391,19.043,25.391,0
1556550469.193,30.762,33.691,40.039,22.949,-18.555,0
1556550469.197,-4.883,30.273,39.551,24.902,11.230,0
1556550469.201,0.977,25.879,27.344,23.438,30.273,0
1556550469.203,33.691,23.926,27.344,18.555,-13.672,0
1556550469.207,40.039,22.949,37.109,16.113,3.906,0
1556550469.211,13.672,23.926,43.457,21.973,4.395,0
1556550469.215,1.465,23.926,38.086,20.508,-22.461,0
1556550469.219,32.715,25.879,28.320,15.137,23.926,0
1556550469.223,46.875,24.902,24.902,16.602,75.684,0
1556550469.227,16.602,25.879,27.344,21.973,57.129,0
1556550469.230,3.418,34.668,19.043,27.344,64.453,0
1556550469.234,30.762,33.203,18.555,25.391,50.781,0
1556550469.238,44.434,20.020,29.297,16.602,-17.578,0
1556550469.242,23.926,25.879,36.621,14.648,-15.137,0
1556550469.246,2.441,36.133,37.109,23.438,26.855,0
1556550469.248,21.484,29.297,29.297,24.902,14.648,0
1556550469.252,55.664,29.785,26.855,28.809,17.578,0
1556550469.256,47.363,37.598,20.508,34.180,38.086,0
1556550469.260,7.324,30.273,25.391,35.645,8.789,0
1556550469.264,9.766,22.461,31.250,37.598,25.391,0
1556550469.268,44.922,22.949,26.855,29.785,18.555,0
1556550469.272,46.387,28.320,35.156,27.832,41.992,0
1556550469.275,9.766,29.785,29.785,27.344,67.383,0
1556550469.279,-11.230,20.020,17.578,15.137,9.766,0
1556550469.283,20.020,12.207,23.926,8.789,31.250,0
1556550469.287,41.504,20.996,34.180,11.719,41.016,0
1556550469.291,19.043,32.715,27.832,17.090,23.438,0
1556550469.292,-10.254,20.996,20.020,9.277,58.105,0
1556550469.296,10.742,20.020,20.996,6.348,53.711,0
1556550469.300,37.109,25.879,11.230,11.230,24.414,0
1556550469.304,5.859,18.066,19.531,5.371,0.977,0
1556550469.308,-26.367,16.602,37.598,6.348,-5.859,0
1556550469.312,-12.207,17.578,29.297,5.859,48.828,0
1556550469.316,21.973,21.484,26.367,5.859,80.566,0
1556550469.319,20.020,21.484,26.855,13.672,28.320,0
1556550469.323,-10.254,18.066,23.926,16.602,-24.902,0
1556550469.327,-6.348,29.785,32.227,18.555,4.395,0
1556550469.331,27.832,35.645,31.250,21.973,71.289,0
1556550469.335,37.109,34.180,29.297,26.367,42.969,0
1556550469.338,9.277,36.133,23.926,37.598,-49.805,0
1556550469.342,-7.812,32.227,18.555,33.691,-5.859,0
1556550469.346,25.879,24.902,29.297,27.344,10.254,0
1556550469.350,48.340,22.461,39.062,26.367,-1.953,0
1556550469.354,19.043,18.555,42.480,25.391,8.301,0
1556550469.358,-4.395,22.461,35.156,27.832,-43.945,0
1556550469.362,17.090,32.715,35.156,25.391,-18.555,0
1556550469.365,48.828,35.645,31.738,21.484,-3.418,0
1556550469.369,31.250,30.762,28.320,18.555,-16.113,0
1556550469.373,-1.953,35.645,22.461,25.879,-28.809,0
1556550469.377,18.066,46.387,19.531,32.715,-5.859,0
1556550469.381,47.363,34.180,17.578,22.461,20.996,0
1556550469.383,40.039,25.391,16.113,16.602,11.719,0
1556550469.387,7.812,32.227,26.855,16.602,54.688,0
1556550469.391,8.789,34.668,32.715,20.020,66.406,0
1556550469.395,47.363,35.645,34.180,23.438,69.336,0
1556550469.399,53.711,37.598,39.062,20.996,68.848,0
1556550469.403,15.625,38.574,41.016,18.066,76.172,0
1556550469.407,-8.789,34.180,35.156,12.207,66.406,0
1556550469.410,24.902,29.785,31.738,9.766,19.531,0
1556550469.414,46.875,36.133,32.227,6.836,16.113,0
1556550469.418,16.113,38.086,38.574,11.719,-3.418,0
1556550469.422,-10.254,24.414,41.504,19.531,13.672,0
1556550469.426,7.812,24.902,25.391,18.066,38.086,0
1556550469.428,42.480,40.039,18.066,20.508,36.133,0
1556550469.432,32.227,41.992,25.391,23.926,31.738,0
1556550469.436,-6.836,26.367,31.738,25.879,0.000,0
1556550469.440,0.977,22.949,35.645,26.367,-25.879,0
1556550469.444,33.203,24.414,32.715,18.066,9.277,0
1556550469.448,34.180,23.926,34.668,19.531,-22.461,0
1556550469.452,-2.441,23.438,41.504,18.555,-17.090,0
1556550469.455,-23.438,16.113,28.809,6.348,-1.465,0
1556550469.459,11.230,29.785,21.973,4.883,-37.109,0
1556550469.463,36.133,36.133,22.949,10.254,-0.977,0
1556550469.467,5.371,31.250,12.207,10.254,34.180,0
1556550469.471,-19.531,25.879,6.836,5.859,9.766,0
1556550469.472,12.695,22.949,19.043,2.930,-20.996,0
1556550469.476,44.922,27.832,27.832,8.789,-47.363,0
1556550469.480,22.949,29.297,29.785,10.742,-31.738,0
1556550469.484,-10.742,30.762,24.414,10.254,26.855,0
1556550469.488,10.742,27.344,14.648,11.230,73.242,0
1556550469.492,42.969,19.531,22.461,10.742,96.680,0
1556550469.496,26.855,15.625,33.691,13.672,54.199,0
1556550469.499,-13.672,15.137,28.809,14.160,-27.344,0
1556550469.503,-13.672,21.484,17.090,10.254,-40.039,0
1556550469.507,21.484,25.879,13.184,8.301,24.902,0
1556550469.511,23.926,24.414,20.020,11.230,31.250,0
1556550469.515,-13.184,20.020,28.320,15.625,35.645,0
1556550469.517,-27.344,12.207,20.996,12.695,12.695,0
1556550469.521,2.930,9.766,6.348,3.906,-44.434,0
1556550469.525,24.414,19.043,14.648,6.836,-25.391,0
1556550469.529,-4.395,20.020,32.715,11.719,19.531,0
1556550469.533,-32.227,17.090,36.133,9.766,57.129,0
1556550469.537,-5.371,16.113,31.250,9.766,65.918,0
1556550469.541,27.344,18.555,31.738,13.184,57.617,0
1556550469.544,15.137,29.297,30.762,19.043,37.109,0
1556550469.548,-14.648,27.832,21.973,23.438,14.648,0
1556550469.552,6.348,29.297,19.531,26.855,27.832,0
1556550469.556,51.758,28.809,22.461,26.855,19.043,0
1556550469.560,46.875,18.066,22.461,25.391,23.438,0
1556550469.579,10.254,20.020,18.555,28.809,51.270,0
1556550469.583,6.836,25.391,25.391,28.809,27.832,0
1556550469.587,40.039,30.273,30.273,22.949,45.898,0
1556550469.591,43.945,24.414,27.832,13.672,93.262,0
1556550469.595,1.953,16.602,33.691,10.254,37.109,0
1556550469.599,-14.648,15.137,37.109,11.230,9.766,0
1556550469.603,14.648,20.020,23.438,12.695,3.906,0
1556550469.606,34.180,32.227,23.438,19.043,3.418,0
1556550469.610,17.578,31.738,30.273,26.855,-14.648,0
1556550469.614,-7.324,19.531,30.762,31.250,-13.184,0
1556550469.618,12.695,17.578,27.832,29.297,9.277,0
1556550469.622,48.828,24.414,29.297,26.855,4.395,0
1556550469.623,33.203,28.809,32.227,25.391,32.715,0
1556550469.627,-0.488,36.133,31.250,24.414,35.156,0
1556550469.631,11.719,36.621,33.203,26.367,2.441,0
1556550469.635,44.922,34.180,30.762,23.438,14.160,0
1556550469.639,42.480,31.738,23.438,21.484,78.613,0
1556550469.643,6.836,27.832,20.996,25.879,99.609,0
1556550469.647,3.418,26.367,24.414,29.297,55.664,0
1556550469.650,35.156,22.949,22.949,30.762,6.348,0
1556550469.654,38.086,11.230,23.438,23.438,23.438,0
1556550469.658,0.000,9.766,24.414,18.066,37.598,0
1556550469.662,-24.902,14.648,22.461,18.066,23.438,0
1556550469.666,7.812,19.531,24.414,19.043,47.363,0
1556550469.668,39.551,22.949,31.250,21.484,16.113,0
1556550469.672,15.625,16.602,37.109,20.996,39.062,0
1556550469.676,-14.648,19.531,27.832,20.996,54.199,0
1556550469.680,10.742,23.438,22.461,19.043,-29.785,0
1556550469.684,44.434,24.902,25.879,17.578,-2.930,0
1556550469.688,33.203,25.879,31.738,20.996,41.992,0
1556550469.692,-6.836,21.484,34.668,15.137,58.594,0
1556550469.695,-3.906,25.391,35.156,11.230,46.387,0
1556550469.699,34.668,22.949,27.344,9.766,11.719,0
1556550469.703,37.598,15.625,24.414,9.277,-27.832,0
1556550469.707,5.859,18.066,29.785,15.137,-14.160,0
1556550469.711,0.977,17.090,28.320,20.996,46.875,0
1556550469.712,35.645,22.461,27.344,20.996,62.988,0
1556550469.716,51.270,32.227,24.414,22.949,15.625,0
1556550469.720,19.531,27.344,20.508,27.344,-16.113,0
1556550469.724,-8.301,21.973,30.273,23.438,5.371,0
1556550469.728,19.531,20.508,46.875,23.926,-14.648,0
1556550469.732,49.316,20.996,48.340,25.879,-51.758,0
1556550469.736,20.508,24.902,38.574,18.555,-22.461,0
1556550469.739,-9.277,29.297,32.227,20.508,37.109,0
1556550469.743,5.859,24.414,29.297,15.625,31.738,0
1556550469.747,33.691,23.926,23.926,10.254,45.410,0
1556550469.751,29.785,24.414,33.691,17.090,3.906,0
1556550469.755,-4.395,20.996,22.461,15.137,7.812,0
1556550469.757,-0.488,16.113,9.277,18.066,37.598,0
1556550469.761,32.715,13.672,35.645,19.043,-19.043,0
1556550469.765,42.969,15.625,46.875,21.973,13.184,0
1556550469.769,16.602,18.066,41.016,32.715,20.508,0
1556550469.773,-1.465,23.438,34.180,31.738,38.086,0
1556550469.777,29.297,25.391,37.109,26.367,49.316,0
1556550469.781,50.293,20.508,31.738,30.762,34.180,0
1556550469.784,24.414,16.602,20.508,34.180,33.691,0
1556550469.788,2.441,23.438,24.902,31.738,27.344,0
1556550469.792,24.902,22.949,26.367,25.879,28.320,0
1556550469.796,53.711,8.301,27.832,26.367,20.996,0
1556550469.800,39.551,7.324,32.715,38.086,-21.484,0
1556550469.802,6.836,8.789,34.668,38.086,-19.043,0
1556550469.806,15.137,7.812,27.344,28.809,9.766,0
1556550469.810,50.781,13.184,27.344,30.273,0.000,0
1556550469.814,51.758,22.461,34.180,32.715,6.348,0
1556550469.818,9.766,23.438,31.738,28.320,35.156,0
1556550469.822,1.953,12.695,28.320,15.137,23.926,0
1556550469.826,37.598,15.137,9.277,7.812,15.137,0
1556550469.829,43.457,28.809,13.184,2.930,48.828,0
1556550469.833,7.324,31.250,30.762,5.371,9.766,0
1556550469.837,-8.789,24.414,27.344,15.137,-20.508,0
1556550469.841,19.043,25.391,21.973,8.301,18.066,0
1556550469.845,37.109,27.344,22.949,0.977,73.242,0
1556550469.847,16.602,26.367,21.973,8.301,62.988,0
1556550469.851,-11.230,25.879,20.508,8.301,10.742,0
1556550469.855,5.859,25.879,12.695,2.441,63.477,0
1556550469.859,34.180,28.809,15.625,3.418,40.527,0
1556550469.863,14.648,32.227,24.414,5.371,3.418,0
1556550469.867,-13.672,31.250,18.555,10.254,78.125,0
1556550469.871,4.883,27.344,13.184,11.719,64.453,0
1556550469.874,39.551,25.391,24.414,10.254,30.273,0
1556550469.878,32.715,25.391,28.809,18.066,62.012,0
1556550469.882,-4.883,17.090,20.020,27.832,24.414,0
1556550469.886,-9.766,16.113,32.227,31.738,6.836,0
1556550469.890,27.832,20.508,43.457,26.367,9.277,0
1556550469.892,41.504,18.066,33.203,28.320,11.230,0
1556550469.896,9.277,12.695,23.926,37.598,24.902,0
1556550469.900,-10.254,2.930,21.973,35.156,-0.488,0
1556550469.904,16.602,1.465,13.672,25.879,42.480,0
1556550469.908,39.062,16.113,4.395,21.973,37.598,0
1556550469.912,12.207,15.625,20.996,18.555,12.695,0
1556550469.916,-18.555,14.160,38.574,12.695,22.461,1
1556550469.919,3.906,27.344,32.227,8.301,-24.414,0
1556550469.923,38.574,29.785,38.086,8.789,-37.109,0
1556550469.927,29.297,28.809,43.945,14.160,-35.156,0
1556550469.931,-1.465,32.227,38.574,18.555,30.762,0
1556550469.935,0.488,24.902,22.461,13.672,44.922,0
1556550469.952,38.086,22.949,23.438,11.719,13.184,0
1556550469.956,43.457,20.020,26.367,13.184,52.734,0
1556550469.960,9.277,11.230,10.254,15.625,32.227,0
1556550469.964,4.395,11.719,13.184,13.672,-25.879,0
1556550469.968,39.062,16.113,21.484,10.254,-9.277,0
1556550469.972,63.965,25.391,27.344,17.090,-11.719,0
1556550469.976,38.086,29.785,37.598,22.949,6.836,0
1556550469.979,3.906,22.461,33.691,24.414,72.266,0
1556550469.983,29.297,20.996,28.320,29.785,23.926,0
1556550469.987,57.129,18.066,32.715,27.832,-12.207,0
1556550469.991,31.738,12.695,32.715,26.855,73.730,0
1556550469.995,0.977,15.137,13.184,35.645,57.617,0
1556550469.997,18.066,18.066,6.836,36.621,6.836,0
1556550470.001,45.898,19.531,21.973,26.855,46.875,0
1556550470.005,36.133,23.438,31.250,20.996,69.824,0
1556550470.009,0.000,30.762,31.250,24.414,60.059,0
1556550470.013,-4.395,33.691,24.902,22.949,49.805,0
1556550470.017,28.320,27.832,23.926,16.602,-28.320,0
1556550470.021,32.715,26.855,30.762,10.742,-23.926,0
1556550470.024,0.000,30.762,28.320,8.301,33.203,0
1556550470.028,-15.137,28.809,24.414,9.277,-2.441,0
1556550470.032,19.531,33.203,32.227,4.883,32.227,0
1556550470.036,43.945,37.598,38.574,7.324,25.879,0
1556550470.040,15.625,31.250,38.574,13.184,-37.598,0
1556550470.042,-11.230,30.762,30.762,13.184,15.625,0
1556550470.046,20.020,36.621,19.043,20.020,84.961,0
1556550470.050,55.664,40.039,25.391,26.367,22.461,0
1556550470.054,37.109,33.691,39.551,23.926,20.996,0
1556550470.058,1.953,28.320,35.645,21.484,26.855,0
1556550470.062,22.949,29.297,26.367,27.344,-28.809,0
1556550470.066,62.500,24.902,27.344,30.762,12.695,0
1556550470.069,50.781,22.949,24.414,25.879,53.223,0
1556550470.073,8.301,23.438,13.184,18.555,-13.672,0
1556550470.077,-0.488,26.367,15.625,12.207,-34.668,0
1556550470.081,31.738,30.273,32.715,11.719,-7.324,0
1556550470.085,41.504,17.578,27.832,10.742,7.812,0
1556550470.087,10.254,13.184,28.320,9.277,21.973,0
1556550470.091,-10.742,22.949,34.180,9.766,-8.301,0
1556550470.095,13.184,28.320,25.391,4.395,-36.621,0
1556550470.099,26.855,24.902,27.344,0.000,-24.902,0
1556550470.103,2.930,21.973,37.598,6.836,2.441,0
1556550470.107,-16.602,28.320,46.875,16.602,-0.977,0
1556550470.111,6.348,33.203,36.133,22.461,13.672,0
1556550470.114,40.039,23.926,28.809,22.461,31.250,0
1556550470.118,30.273,13.672,32.227,20.020,-4.395,0
1556550470.122,-3.906,25.879,20.020,24.414,13.184,0
1556550470.126,-0.488,27.832,21.484,21.484,7.324,0
1556550470.130,40.527,28.320,39.551,19.531,-32.715,0
1556550470.132,45.898,30.273,34.668,25.391,12.695,0
1556550470.136,6.348,22.461,20.508,21.484,-23.926,0
1556550470.140,0.488,24.902,27.832,22.949,-1.953,0
1556550470.144,38.086,29.785,29.785,22.461,72.266,0
1556550470.148,51.758,24.414,25.879,24.414,19.043,0
1556550470.152,21.484,25.391,34.668,32.715,-11.719,0
1556550470.156,2.441,24.902,31.738,31.738,6.348,0
1556550470.159,29.297,8.789,24.414,24.414,20.996,0
1556550470.163,56.152,11.719,35.156,26.855,33.691,0
1556550470.167,36.621,26.855,43.457,31.738,25.879,0
1556550470.171,11.230,24.902,17.578,33.203,66.895,0
