timestamps,TP9,AF7,AF8,TP10,Right AUX,Marker0
1581611153.877,102.051,-936.035,-885.2539999999997,-356.445,0.0,0
1581611153.881,73.73,-979.0039999999999,-962.8910000000001,-259.76599999999996,0.0,0
1581611153.885,135.254,-967.285,-831.055,-54.688,0.0,0
1581611153.889,154.297,-936.523,-693.3589999999997,65.43,0.0,0
1581611153.893,64.453,-958.9839999999999,-842.773,70.801,0.0,0
1581611153.897,13.184000000000001,-975.586,-997.07,138.672,0.0,0
1581611153.901,50.293,-977.539,-952.148,166.99200000000005,0.0,0
1581611153.904,104.492,-933.105,-723.145,185.547,0.0,0
1581611153.908,58.593999999999994,-933.5939999999999,-789.551,43.945,0.0,0
1581611153.9120002,2.441,-979.98,-951.172,-138.184,0.0,0
1581611153.9160001,13.184000000000001,-971.68,-805.176,-96.191,0.0,0
1581611153.92,45.41,-960.938,-732.91,-78.613,0.0,0
1581611153.9220002,26.855,-965.82,-882.324,-129.395,0.0,0
1581611153.926,-18.066,-974.6089999999999,-885.2539999999997,-160.156,0.0,0
1581611153.93,-12.695,-971.68,-758.301,-120.117,0.0,0
1581611153.934,52.733999999999995,-972.168,-747.559,10.254000000000001,0.0,0
1581611153.938,67.87100000000001,-972.168,-732.91,51.758,0.0,0
1581611153.9420002,-2.441,-972.6560000000001,-806.6410000000003,16.113,0.0,0
1581611153.946,0.0,-971.68,-909.18,-33.691,0.0,0
1581611153.949,41.01600000000001,-972.6560000000001,-948.73,-64.453,0.0,0
1581611153.9529998,55.663999999999994,-972.168,-902.3439999999999,-70.312,0.0,0
1581611153.957,16.113,-955.078,-740.7230000000003,-153.32,0.0,0
1581611153.961,-29.296999999999997,-956.543,-691.895,-251.953,0.0,0
1581611153.965,0.977,-973.633,-858.398,-386.23,0.0,0
1581611153.967,64.941,-973.145,-905.762,-407.715,0.0,0
1581611153.971,34.668,-967.773,-740.2339999999997,-425.781,0.0,0
1581611153.975,-48.34,-969.238,-788.086,-552.734,0.0,0
1581611153.9789999,-22.461,-973.145,-913.574,-641.602,0.0,0
1581611153.9829998,51.27,-972.168,-896.4839999999997,-729.492,0.0,0
1581611153.9870002,33.691,-972.6560000000001,-914.551,-791.992,0.0,0
1581611153.9910002,-38.574,-971.68,-978.5160000000001,-861.328,0.0,0
1581611153.994,-42.968999999999994,-973.145,-974.6089999999999,-905.762,0.0,0
1581611153.998,19.043,-972.168,-894.5310000000003,-875.0,0.0,0
1581611154.002,34.668,-954.59,-792.48,-902.3439999999999,0.0,0
1581611154.006,-6.348,-964.8439999999999,-896.9730000000003,-954.102,0.0,0
1581611154.01,-47.363,-975.586,-994.1410000000001,-923.828,0.0,0
1581611154.012,-4.395,-971.191,-892.09,-855.4689999999997,0.0,0
1581611154.016,55.176,-967.773,-763.184,-828.613,0.0,0
1581611154.02,17.578,-970.215,-838.867,-914.551,0.0,0
1581611154.024,-26.366999999999997,-973.145,-958.008,-978.0269999999999,0.0,0
1581611154.0279999,26.855,-971.68,-911.133,-969.727,0.0,0
1581611154.032,95.215,-972.168,-900.8789999999999,-971.68,0.0,0
1581611154.036,39.551,-972.168,-937.988,-972.6560000000001,0.0,0
1581611154.039,-26.855,-972.168,-971.68,-972.168,0.0,0
1581611154.043,13.672,-974.1210000000001,-884.7660000000003,-972.168,0.0,0
1581611154.0470002,63.477,-960.938,-720.215,-973.633,0.0,0
1581611154.051,22.461,-961.426,-825.195,-967.285,0.0,0
1581611154.055,-46.875,-973.145,-923.34,-973.145,0.0,0
1581611154.0570002,-64.941,-973.633,-882.812,-957.52,0.0,0
1581611154.061,-3.906,-968.262,-827.148,-739.7460000000003,0.0,0
1581611154.065,27.344,-963.867,-759.7660000000003,-556.1519999999998,0.0,0
1581611154.069,-46.387,-972.6560000000001,-791.5039999999997,-567.383,0.0,0
1581611154.073,-74.219,-972.168,-745.117,-608.887,0.0,0
1581611154.0770001,-27.831999999999997,-971.68,-875.977,-719.727,0.0,0
1581611154.081,30.273000000000003,-972.6560000000001,-986.328,-840.332,0.0,0
1581611154.0839999,10.742,-957.52,-859.375,-940.918,0.0,0
1581611154.0879998,-59.57,-927.7339999999999,-730.4689999999997,-975.0980000000001,0.0,0
1581611154.092,-29.296999999999997,-908.691,-700.195,-969.238,0.0,0
1581611154.096,35.645,-959.4730000000001,-819.336,-972.6560000000001,0.0,0
1581611154.1,8.301,-943.3589999999999,-796.875,-972.6560000000001,0.0,0
1581611154.1020002,-41.992,-902.832,-673.34,-972.168,0.0,0
1581611154.106,-40.039,-946.7769999999999,-785.1560000000003,-972.168,0.0,0
1581611154.11,16.602,-972.6560000000001,-824.2189999999997,-972.168,0.0,0
1581611154.1139998,35.156,-968.75,-767.578,-972.6560000000001,0.0,0
1581611154.1179998,-41.504,-971.191,-877.441,-972.168,0.0,0
1581611154.1220002,-82.52,-973.145,-969.238,-972.168,0.0,0
1581611154.1260002,-24.901999999999997,-970.703,-923.34,-975.0980000000001,0.0,0
1581611154.129,16.113,-965.82,-780.273,-946.7769999999999,0.0,0
1581611154.133,-56.152,-970.703,-740.2339999999997,-947.2660000000001,0.0,0
1581611154.137,-102.051,-973.145,-865.2339999999997,-977.539,0.0,0
1581611154.141,-41.504,-972.168,-954.102,-951.66,0.0,0
1581611154.145,-16.602,-972.6560000000001,-809.082,-867.676,0.0,0
1581611154.1620002,-83.008,-970.215,-676.758,-813.965,0.0,0
1581611154.1660001,-122.559,-971.68,-765.625,-803.2230000000003,0.0,0
1581611154.17,-102.539,-973.633,-778.32,-696.289,0.0,0
1581611154.174,-41.992,-968.262,-614.258,-555.664,0.0,0
1581611154.178,-33.203,-969.238,-606.445,-519.043,0.0,0
1581611154.1820002,-111.32799999999999,-973.145,-828.125,-524.9019999999998,0.0,0
1581611154.186,-117.676,-972.168,-905.762,-479.98,0.0,0
1581611154.189,-28.32,-972.6560000000001,-764.648,-398.43800000000016,0.0,0
1581611154.1929998,-6.836,-972.6560000000001,-613.281,-366.211,0.0,0
1581611154.197,-86.426,-970.215,-754.395,-416.01599999999996,0.0,0
1581611154.201,-124.023,-978.5160000000001,-819.336,-442.38300000000004,0.0,0
1581611154.205,-66.895,-945.312,-594.727,-432.61699999999996,0.0,0
1581611154.207,-33.203,-933.105,-596.68,-406.25,0.0,0
1581611154.211,-88.867,-974.6089999999999,-763.672,-442.871,0.0,0
1581611154.215,-130.371,-973.145,-727.051,-459.961,0.0,0
1581611154.2189999,-90.82,-971.191,-629.395,-431.152,0.0,0
1581611154.2229998,-26.855,-972.6560000000001,-681.1519999999998,-489.746,0.0,0
1581611154.2270002,-56.64100000000001,-972.168,-846.68,-571.7769999999998,0.0,0
1581611154.231,-124.512,-972.6560000000001,-946.289,-645.996,0.0,0
1581611154.234,-105.469,-972.6560000000001,-821.7769999999997,-701.66,0.0,0
1581611154.238,-46.875,-972.6560000000001,-788.086,-725.586,0.0,0
1581611154.242,-58.105,-972.6560000000001,-968.262,-830.566,0.0,0
1581611154.246,-124.023,-972.6560000000001,-956.055,-918.945,0.0,0
1581611154.25,-127.441,-972.168,-805.176,-920.41,0.0,0
1581611154.252,-78.125,-972.168,-855.4689999999997,-948.242,0.0,0
1581611154.256,-50.78100000000001,-972.6560000000001,-911.6210000000001,-972.168,0.0,0
1581611154.26,-92.285,-972.6560000000001,-773.438,-972.168,0.0,0
1581611154.264,-123.04700000000001,-972.6560000000001,-817.383,-971.68,0.0,0
1581611154.268,-57.129,-972.168,-941.895,-972.6560000000001,0.0,0
1581611154.272,-9.277000000000001,-972.6560000000001,-907.715,-972.168,0.0,0
1581611154.276,-65.918,-972.6560000000001,-851.562,-972.6560000000001,0.0,0
1581611154.279,-106.445,-972.6560000000001,-868.164,-972.168,0.0,0
1581611154.283,-70.801,-972.168,-917.9689999999999,-972.168,0.0,0
1581611154.2870002,-3.418,-973.145,-857.422,-972.168,0.0,0
1581611154.2910001,-16.113,-970.215,-659.18,-972.6560000000001,0.0,0
1581611154.295,-95.215,-969.727,-706.543,-972.168,0.0,0
1581611154.2979999,-96.68,-972.6560000000001,-910.1560000000001,-972.168,0.0,0
1581611154.302,-25.879,-972.168,-856.934,-972.168,0.0,0
1581611154.306,-15.137,-972.168,-697.2660000000003,-971.191,0.0,0
1581611154.31,-99.609,-972.168,-740.7230000000003,-971.191,0.0,0
1581611154.314,-117.18799999999999,-972.6560000000001,-823.242,-954.102,0.0,0
1581611154.3179998,-33.203,-972.6560000000001,-872.559,-865.7230000000003,0.0,0
1581611154.322,-18.066,-972.6560000000001,-784.668,-709.4730000000003,0.0,0
1581611154.325,-114.258,-972.168,-735.84,-635.254,0.0,0
1581611154.329,-152.344,-972.6560000000001,-856.445,-587.4019999999998,0.0,0
1581611154.333,-87.891,-972.168,-701.172,-500.0,0.0,0
1581611154.3370001,-47.363,-971.191,-550.781,-441.895,0.0,0
1581611154.341,-96.68,-971.191,-741.211,-387.695,0.0,0
1581611154.343,-151.36700000000005,-974.6089999999999,-878.9060000000003,-367.676,0.0,0
1581611154.3470001,-112.305,-965.332,-638.672,-278.809,0.0,0
1581611154.351,-44.434,-960.938,-525.879,-196.77700000000002,0.0,0
1581611154.355,-80.078,-973.145,-702.637,-202.637,0.0,0
1581611154.359,-160.156,-972.6560000000001,-708.4960000000003,-106.445,0.0,0
1581611154.363,-163.086,-972.168,-696.7769999999997,-10.742,0.0,0
1581611154.367,-102.051,-972.6560000000001,-686.523,109.375,0.0,0
1581611154.37,-87.891,-972.168,-705.078,191.40599999999998,0.0,0
1581611154.3739998,-161.621,-972.6560000000001,-751.953,200.68400000000003,0.0,0
1581611154.3779998,-197.75400000000002,-973.633,-577.148,311.52299999999997,0.0,0
1581611154.3820002,-138.184,-958.008,-497.559,376.95300000000003,0.0,0
1581611154.3860002,-100.098,-964.355,-643.555,359.375,0.0,0
1581611154.3879998,-145.50799999999995,-975.0980000000001,-665.5269999999998,266.60200000000003,0.0,0
1581611154.3920002,-188.965,-971.191,-587.891,203.613,0.0,0
1581611154.3960001,-159.18,-972.6560000000001,-657.227,266.60200000000003,0.0,0
1581611154.4,-100.586,-972.6560000000001,-724.1210000000003,284.668,0.0,0
1581611154.404,-146.484,-972.6560000000001,-669.434,285.645,0.0,0
1581611154.408,-214.355,-972.168,-708.9839999999997,303.223,0.0,0
1581611154.4120002,-186.523,-972.168,-911.6210000000001,302.246,0.0,0
1581611154.415,-133.789,-972.168,-887.695,384.277,0.0,0
1581611154.419,-140.137,-972.168,-702.637,373.535,0.0,0
1581611154.4229999,-210.938,-972.168,-633.789,277.832,0.0,0
1581611154.427,-225.09799999999998,-972.6560000000001,-766.602,120.117,0.0,0
1581611154.431,-179.199,-972.6560000000001,-886.7189999999997,-65.918,0.0,0
1581611154.4329998,-175.78099999999995,-972.168,-756.836,-166.50400000000005,0.0,0
1581611154.437,-222.168,-972.168,-770.9960000000003,-317.383,0.0,0
1581611154.441,-236.328,-972.6560000000001,-926.27,-367.676,0.0,0
1581611154.445,-184.57,-972.6560000000001,-899.414,-329.59,0.0,0
1581611154.449,-136.23,-972.6560000000001,-760.2539999999997,-253.418,0.0,0
1581611154.4529998,-170.898,-972.168,-881.836,-125.488,0.0,0
1581611154.457,-236.81599999999997,-972.6560000000001,-990.2339999999999,-4.883,0.0,0
1581611154.46,-205.56599999999997,-972.168,-915.039,170.41,0.0,0
1581611154.464,-131.34799999999998,-972.168,-775.3910000000003,258.301,0.0,0
1581611154.468,-145.50799999999995,-972.168,-785.1560000000003,228.516,0.0,0
1581611154.4720001,-214.84400000000002,-972.6560000000001,-911.6210000000001,161.621,0.0,0
1581611154.476,-168.457,-973.145,-857.91,-24.414,0.0,0
1581611154.4929998,-63.965,-963.3789999999999,-710.449,-271.973,0.0,0
1581611154.4970002,-79.102,-967.285,-816.895,-680.176,0.0,0
1581611154.5010002,-122.07,-974.1210000000001,-971.68,-972.6560000000001,0.0,0
1581611154.505,-66.895,-971.68,-976.074,-967.773,0.0,0
1581611154.5089998,6.836,-972.6560000000001,-951.66,-966.309,0.0,0
1581611154.5129998,26.366999999999997,-972.6560000000001,-955.566,-974.1210000000001,0.0,0
1581611154.5170002,-2.93,-972.6560000000001,-972.168,-972.168,0.0,0
1581611154.52,-29.785,-972.6560000000001,-978.0269999999999,-972.168,0.0,0
1581611154.524,14.648,-972.6560000000001,-901.367,-972.6560000000001,0.0,0
1581611154.5279999,51.758,-972.6560000000001,-881.3480000000003,-973.145,0.0,0
1581611154.532,-9.277000000000001,-972.6560000000001,-958.9839999999999,-965.332,0.0,0
1581611154.536,-38.574,-972.168,-928.2230000000001,-981.934,0.0,0
1581611154.5379999,-10.254000000000001,-972.168,-966.309,-905.273,0.0,0
1581611154.542,3.418,-972.6560000000001,-945.312,-683.105,0.0,0
1581611154.546,-23.926,-972.168,-784.668,-565.43,0.0,0
1581611154.55,-84.473,-972.6560000000001,-813.965,-526.855,0.0,0
1581611154.554,-89.355,-972.6560000000001,-866.699,-487.305,0.0,0
1581611154.5579998,-19.043,-972.6560000000001,-863.2810000000003,-395.50800000000004,0.0,0
1581611154.562,-5.859,-972.168,-894.043,-305.664,0.0,0
1581611154.565,-73.73,-972.168,-833.9839999999997,-322.26599999999996,0.0,0
1581611154.569,-100.098,-972.168,-777.3439999999997,-273.438,0.0,0
1581611154.573,-48.828,-972.6560000000001,-859.863,-249.512,0.0,0
1581611154.5770001,-17.578,-972.168,-816.4060000000003,-229.00400000000002,0.0,0
1581611154.581,-64.453,-972.168,-700.195,-182.61700000000002,0.0,0
1581611154.583,-68.359,-972.6560000000001,-739.258,-188.477,0.0,0
1581611154.5870001,-35.156,-972.6560000000001,-846.68,-206.055,0.0,0
1581611154.591,2.441,-972.168,-786.133,-284.18,0.0,0
1581611154.595,-19.531,-972.168,-694.824,-406.25,0.0,0
1581611154.599,-72.75399999999998,-972.6560000000001,-772.949,-517.578,0.0,0
1581611154.603,-39.062,-972.6560000000001,-942.8710000000001,-668.945,0.0,0
1581611154.607,24.901999999999997,-972.168,-992.676,-808.105,0.0,0
1581611154.61,18.555,-972.6560000000001,-909.668,-929.199,0.0,0
1581611154.6139998,-55.176,-972.6560000000001,-902.3439999999999,-975.0980000000001,0.0,0
1581611154.6179998,-38.086,-972.168,-948.242,-969.238,0.0,0
1581611154.6220002,41.01600000000001,-972.6560000000001,-904.297,-972.6560000000001,0.0,0
1581611154.6260002,27.831999999999997,-972.6560000000001,-845.215,-972.6560000000001,0.0,0
1581611154.6279998,-21.97300000000001,-972.6560000000001,-885.742,-972.6560000000001,0.0,0
1581611154.6320002,-20.02,-972.6560000000001,-985.352,-972.6560000000001,0.0,0
1581611154.6360002,39.062,-972.168,-881.3480000000003,-972.6560000000001,0.0,0
1581611154.64,72.75399999999998,-972.6560000000001,-805.176,-972.6560000000001,0.0,0
1581611154.644,18.066,-972.168,-915.5269999999999,-972.6560000000001,0.0,0
1581611154.6479998,-23.438000000000002,-971.68,-980.4689999999999,-972.6560000000001,0.0,0
1581611154.6520002,42.968999999999994,-975.0980000000001,-975.586,-972.6560000000001,0.0,0
1581611154.655,106.934,-956.055,-833.9839999999997,-972.168,0.0,0
1581611154.659,56.64100000000001,-958.4960000000001,-859.863,-972.6560000000001,0.0,0
1581611154.6629999,-6.836,-975.586,-928.711,-972.168,0.0,0
1581611154.667,30.761999999999997,-971.68,-776.367,-972.6560000000001,0.0,0
1581611154.671,97.656,-972.6560000000001,-770.508,-972.6560000000001,0.0,0
1581611154.6729999,90.33200000000001,-972.168,-875.488,-972.6560000000001,0.0,0
1581611154.677,39.062,-972.6560000000001,-835.449,-972.168,0.0,0
1581611154.681,57.617,-972.6560000000001,-780.762,-973.145,0.0,0
1581611154.685,118.164,-972.168,-766.113,-965.82,0.0,0
1581611154.689,111.816,-972.168,-775.3910000000003,-977.051,0.0,0
1581611154.6929998,29.296999999999997,-972.168,-886.23,-916.992,0.0,0
1581611154.697,1.953,-972.168,-907.227,-688.965,0.0,0
1581611154.7,56.64100000000001,-973.145,-794.434,-388.67199999999997,0.0,0
1581611154.704,59.082,-966.797,-742.676,-183.59400000000002,0.0,0
1581611154.708,16.113,-968.75,-680.176,-84.961,0.0,0
1581611154.7120001,-23.438000000000002,-971.68,-580.078,2.93,0.0,0
1581611154.716,-8.301,-975.0980000000001,-687.988,19.531,0.0,0
1581611154.718,69.824,-961.426,-743.164,-2.441,0.0,0
1581611154.7220001,76.172,-926.758,-538.086,-114.258,0.0,0
1581611154.726,23.926,-931.6410000000001,-562.012,-238.77,0.0,0
1581611154.73,42.48,-965.82,-694.824,-306.152,0.0,0
1581611154.734,108.398,-965.82,-685.059,-381.836,0.0,0
1581611154.738,105.95700000000001,-966.797,-705.078,-527.344,0.0,0
1581611154.742,23.438000000000002,-973.633,-904.785,-767.578,0.0,0
1581611154.745,15.625,-973.145,-976.562,-853.0269999999997,0.0,0
1581611154.7489998,88.867,-964.8439999999999,-830.078,-807.617,0.0,0
1581611154.7529998,108.887,-934.57,-702.637,-837.8910000000003,0.0,0
1581611154.7570002,45.41,-951.172,-723.633,-844.238,0.0,0
1581611154.7610002,11.719000000000001,-975.0980000000001,-905.273,-785.1560000000003,0.0,0
1581611154.7629998,72.75399999999998,-972.6560000000001,-937.012,-645.02,0.0,0
1581611154.7670002,107.42200000000001,-969.238,-699.707,-493.652,0.0,0
1581611154.7710001,52.733999999999995,-956.543,-651.367,-439.941,0.0,0
1581611154.775,-9.277000000000001,-969.238,-769.043,-413.574,0.0,0
1581611154.779,4.883,-974.1210000000001,-722.168,-371.094,0.0,0
1581611154.783,74.707,-971.191,-666.0160000000002,-261.23,0.0,0
1581611154.7870002,54.688,-973.145,-770.02,-200.195,0.0,0
1581611154.79,-10.742,-968.75,-844.727,-193.359,0.0,0
1581611154.794,8.789,-982.422,-710.938,-107.42200000000001,0.0,0
1581611154.7979999,49.316,-933.105,-535.645,-25.879,0.0,0
1581611154.802,30.273000000000003,-907.715,-594.238,30.273000000000003,0.0,0
1581611154.806,-10.254000000000001,-973.633,-749.512,38.086,0.0,0
1581611154.8079998,10.742,-974.6089999999999,-651.855,68.848,0.0,0
1581611154.812,48.34,-969.238,-572.754,147.94899999999996,0.0,0
1581611154.816,56.64100000000001,-969.238,-631.836,167.48,0.0,0
1581611154.82,13.184000000000001,-972.6560000000001,-659.18,172.363,0.0,0
1581611154.824,-1.953,-965.82,-567.871,221.68,0.0,0
1581611154.8279998,53.223,-967.773,-615.234,270.996,0.0,0
1581611154.832,101.074,-973.633,-762.695,291.992,0.0,0
1581611154.835,57.617,-971.191,-755.3710000000003,237.793,0.0,0
1581611154.839,10.254000000000001,-972.6560000000001,-695.312,207.03099999999998,0.0,0
1581611154.843,57.129,-972.6560000000001,-641.113,292.48,0.0,0
1581611154.8470001,110.352,-971.68,-694.824,325.195,0.0,0
1581611154.851,81.055,-973.145,-717.773,291.504,0.0,0
1581611154.867,33.691,-971.191,-620.117,253.418,0.0,0
1581611154.871,46.387,-956.543,-632.812,270.02,0.0,0
1581611154.875,104.492,-953.613,-634.2769999999998,326.172,0.0,0
1581611154.879,98.633,-947.7539999999999,-620.117,298.34,0.0,0
1581611154.883,36.621,-947.7539999999999,-603.0269999999998,284.668,0.0,0
1581611154.887,8.789,-965.82,-798.34,289.551,0.0,0
1581611154.891,57.129,-973.633,-910.645,366.699,0.0,0
1581611154.894,123.535,-933.5939999999999,-656.25,466.309,0.0,0
1581611154.8979998,81.543,-945.801,-579.102,432.129,0.0,0
1581611154.9020002,26.855,-975.586,-745.117,446.777,0.0,0
1581611154.9060001,72.266,-975.0980000000001,-820.312,492.676,0.0,0
1581611154.91,132.32399999999998,-945.312,-600.0980000000002,568.8480000000002,0.0,0
1581611154.9120002,118.164,-942.8710000000001,-548.34,611.816,0.0,0
1581611154.9160001,50.293,-975.586,-698.242,638.184,0.0,0
1581611154.92,63.477,-974.1210000000001,-683.5939999999998,743.6519999999997,0.0,0
1581611154.924,137.695,-948.73,-520.02,832.52,0.0,0
1581611154.928,127.441,-945.801,-509.76599999999996,874.512,0.0,0
1581611154.9320002,73.73,-971.68,-699.707,926.758,0.0,0
1581611154.936,60.059,-973.145,-750.0,985.84,0.0,0
1581611154.939,114.74600000000001,-971.68,-567.383,-999.023,0.0,0
1581611154.9429998,124.023,-972.6560000000001,-551.758,997.559,0.0,0
1581611154.947,60.547,-972.6560000000001,-758.789,999.512,0.0,0
1581611154.951,31.738000000000003,-972.6560000000001,-736.328,999.512,0.0,0
1581611154.955,76.66,-972.6560000000001,-566.406,999.512,0.0,0
1581611154.957,137.695,-972.6560000000001,-612.305,999.512,0.0,0
1581611154.961,79.102,-972.168,-724.1210000000003,999.512,0.0,0
1581611154.965,18.066,-972.168,-699.2189999999997,999.512,0.0,0
1581611154.9689999,75.195,-972.168,-628.906,999.512,0.0,0
1581611154.9729998,137.207,-972.168,-633.3009999999998,999.512,0.0,0
1581611154.9770002,97.16799999999999,-972.168,-717.773,999.512,0.0,0
1581611154.981,34.668,-972.6560000000001,-787.5980000000003,999.512,0.0,0
1581611154.984,43.457,-972.6560000000001,-651.367,999.512,0.0,0
1581611154.988,103.516,-972.6560000000001,-674.316,999.512,0.0,0
1581611154.992,106.445,-972.6560000000001,-809.082,999.512,0.0,0
1581611154.996,47.363,-972.6560000000001,-682.617,999.512,0.0,0
1581611155.0,29.296999999999997,-972.168,-670.898,999.512,0.0,1
1581611155.002,65.918,-972.168,-788.086,999.512,0.0,0
1581611155.006,104.492,-972.6560000000001,-793.457,999.512,0.0,0
1581611155.01,56.152,-972.168,-622.559,999.512,0.0,0
1581611155.014,13.184000000000001,-972.168,-632.3240000000002,999.512,0.0,0
1581611155.018,83.008,-972.6560000000001,-677.2460000000002,999.512,0.0,0
1581611155.022,131.34799999999998,-972.6560000000001,-716.309,999.512,0.0,0
1581611155.026,70.801,-972.168,-760.742,999.512,0.0,0
1581611155.029,21.97300000000001,-972.168,-692.8710000000003,999.512,0.0,0
1581611155.033,63.965,-972.6560000000001,-762.207,999.512,0.0,0
1581611155.0370002,117.18799999999999,-972.6560000000001,-762.695,999.512,0.0,0
1581611155.0410001,78.613,-972.168,-583.984,999.512,0.0,0
1581611155.045,-16.113,-972.6560000000001,-647.461,999.512,0.0,0
1581611155.0470002,-4.883,-972.6560000000001,-793.945,999.512,0.0,0
1581611155.051,83.984,-972.6560000000001,-728.5160000000003,999.512,0.0,0
1581611155.055,66.895,-972.168,-662.5980000000002,999.512,0.0,0
1581611155.059,-10.742,-972.168,-764.648,999.512,0.0,0
1581611155.063,-11.719000000000001,-972.168,-772.949,999.512,0.0,0
1581611155.0670002,24.901999999999997,-972.6560000000001,-764.16,999.512,0.0,0
1581611155.071,60.547,-972.6560000000001,-774.414,999.512,0.0,0
1581611155.074,21.97300000000001,-972.168,-812.988,999.512,0.0,0
1581611155.0779998,-28.809,-972.168,-914.062,999.512,0.0,0
1581611155.082,10.254000000000001,-973.145,-744.6289999999997,999.512,0.0,0
1581611155.086,46.387,-963.3789999999999,-565.918,999.512,0.0,0
1581611155.09,1.953,-964.355,-754.395,999.512,0.0,0
1581611155.092,-55.663999999999994,-972.6560000000001,-878.418,999.512,0.0,0
1581611155.096,1.953,-978.5160000000001,-703.125,999.512,0.0,0
1581611155.1,79.102,-916.5039999999999,-606.445,999.512,0.0,0
1581611155.1039999,58.593999999999994,-917.48,-651.367,-1000.0,0.0,0
1581611155.1079998,-4.395,-978.5160000000001,-684.082,998.535,0.0,0
1581611155.1120002,14.16,-970.215,-753.9060000000003,990.7230000000001,0.0,0
1581611155.1160002,111.816,-971.68,-838.867,-990.7230000000001,0.0,0
1581611155.119,143.066,-972.168,-892.578,855.957,0.0,0
1581611155.123,69.824,-973.145,-907.227,550.293,0.0,0
1581611155.127,53.71100000000001,-970.703,-783.691,304.199,0.0,0
1581611155.131,137.207,-969.238,-782.227,136.23,0.0,0
1581611155.135,171.875,-972.168,-932.617,50.78100000000001,0.0,0
1581611155.1520002,117.18799999999999,-973.145,-949.2189999999999,-18.066,0.0,0
1581611155.1560001,67.383,-967.285,-826.172,26.855,0.0,0
1581611155.16,113.281,-967.285,-846.191,70.312,0.0,0
1581611155.164,166.50400000000005,-972.168,-912.1089999999999,117.18799999999999,0.0,0
1581611155.168,110.84,-972.6560000000001,-856.445,212.891,0.0,0
1581611155.1720002,52.733999999999995,-972.168,-867.676,290.039,0.0,0
1581611155.176,81.543,-972.6560000000001,-955.078,375.977,0.0,0
1581611155.179,119.62899999999999,-972.6560000000001,-903.809,403.809,0.0,0
1581611155.1829998,115.723,-972.168,-831.055,413.574,0.0,0
1581611155.187,72.75399999999998,-972.168,-751.465,477.539,0.0,0
1581611155.191,39.062,-970.215,-799.805,516.602,0.0,0
1581611155.195,83.984,-980.4689999999999,-890.625,558.594,0.0,0
1581611155.1820002,100.586,-930.664,-668.945,557.129,0.0,0
1581611155.186,18.555,-919.922,-619.629,535.156,0.0,0
1581611155.19,-9.277000000000001,-975.0980000000001,-773.438,594.727,0.0,0
1581611155.194,61.523,-972.6560000000001,-764.648,640.625,0.0,0
1581611155.198,97.656,-956.543,-621.582,689.941,0.0,0
1581611155.2020001,39.062,-963.3789999999999,-749.512,653.32,0.0,0
1581611155.206,-15.137,-975.586,-951.66,579.102,0.0,0
1581611155.2089999,32.227,-968.75,-823.242,600.586,0.0,0
1581611155.2129998,83.49600000000002,-962.8910000000001,-659.668,578.125,0.0,0
1581611155.217,37.598,-958.4960000000001,-670.898,494.14099999999996,0.0,0
1581611155.221,-10.742,-964.355,-831.543,346.68,0.0,0
1581611155.225,5.371,-977.539,-1000.0,253.90599999999998,0.0,0
1581611155.228,64.453,-963.3789999999999,-848.145,324.707,0.0,0
1581611155.232,72.75399999999998,-944.824,-692.383,306.64099999999996,0.0,0
1581611155.236,12.695,-968.75,-886.23,229.49200000000002,0.0,0
1581611155.24,1.953,-974.6089999999999,-872.07,166.99200000000005,0.0,0
1581611155.244,72.266,-970.703,-749.023,156.738,0.0,0
1581611155.248,76.66,-972.6560000000001,-866.699,184.57,0.0,0
1581611155.252,6.348,-972.168,-970.703,109.863,0.0,0
1581611155.255,-26.855,-975.0980000000001,-851.074,113.77,0.0,0
1581611155.2589998,36.621,-956.543,-700.684,145.996,0.0,0
1581611155.2629998,87.402,-957.0310000000001,-782.227,153.32,0.0,0
1581611155.2670002,40.527,-975.0980000000001,-914.551,165.52700000000004,0.0,0
1581611155.2710001,-15.137,-971.68,-824.2189999999997,148.92600000000004,0.0,0
1581611155.2879999,-0.488,-972.168,-743.6519999999997,186.035,0.0,0
1581611155.292,64.941,-972.168,-792.48,158.691,0.0,0
1581611155.296,58.593999999999994,-972.168,-842.773,97.656,0.0,0
1581611155.3,-2.93,-972.6560000000001,-807.617,37.109,0.0,0
1581611155.304,19.043,-972.168,-761.23,-14.16,0.0,0
1581611155.3079998,104.98,-972.168,-877.93,-17.578,0.0,0
1581611155.312,119.62899999999999,-972.6560000000001,-972.168,-67.87100000000001,0.0,0
1581611155.315,53.223,-972.6560000000001,-873.047,-43.457,0.0,0
1581611155.319,39.551,-972.6560000000001,-778.809,100.098,0.0,0
1581611155.323,97.656,-972.168,-831.543,281.25,0.0,0
1581611155.3270001,98.633,-973.145,-768.066,495.11699999999996,0.0,0
1581611155.331,14.16,-969.727,-629.883,617.6759999999998,0.0,0
1581611155.333,-30.761999999999997,-977.539,-638.672,755.8589999999997,0.0,0
1581611155.3370001,31.738000000000003,-956.543,-634.766,885.2539999999997,0.0,0
1581611155.341,78.613,-919.434,-564.453,873.535,0.0,0
1581611155.345,40.039,-951.172,-573.242,780.762,0.0,0
1581611155.349,-13.672,-973.145,-705.078,623.047,0.0,0
1581611155.353,27.344,-971.191,-890.625,494.14099999999996,0.0,0
1581611155.357,111.816,-972.168,-861.328,421.875,0.0,0
1581611155.36,102.539,-972.6560000000001,-796.387,253.418,0.0,0
1581611155.3639998,37.109,-972.168,-855.4689999999997,67.87100000000001,0.0,0
1581611155.3679998,20.508000000000006,-972.168,-960.449,-115.723,0.0,0
1581611155.3720002,98.145,-971.191,-864.7460000000003,-168.945,0.0,0
1581611155.3760002,116.699,-942.383,-740.2339999999997,-168.945,0.0,0
1581611155.3779998,38.086,-939.941,-848.145,-244.141,0.0,0
1581611155.3820002,13.184000000000001,-974.1210000000001,-958.4960000000001,-224.609,0.0,0
1581611155.3860002,68.848,-974.6089999999999,-852.539,-182.12900000000002,0.0,0
1581611155.39,103.027,-954.102,-729.98,-108.887,0.0,0
1581611155.394,64.453,-959.4730000000001,-797.852,-76.172,0.0,0
1581611155.3979998,21.484,-975.586,-950.684,-110.84,0.0,0
1581611155.4020002,45.898,-971.191,-901.367,-94.727,0.0,0
1581611155.405,76.172,-972.6560000000001,-823.242,-124.023,0.0,0
1581611155.409,35.645,-968.75,-925.7810000000001,-211.426,0.0,0
1581611155.4129999,-10.254000000000001,-979.98,-929.688,-210.938,0.0,0
1581611155.417,10.254000000000001,-944.336,-732.91,-134.27700000000002,0.0,0
1581611155.421,63.477,-873.535,-626.953,-33.203,0.0,0
1581611155.4229999,49.805,-933.105,-758.789,-61.523,0.0,0
1581611155.427,-15.625,-990.2339999999999,-799.805,-84.473,0.0,0
1581611155.431,-20.996,-940.918,-670.41,-12.207,0.0,0
1581611155.435,49.316,-896.9730000000003,-642.578,5.371,0.0,0
1581611155.439,81.543,-951.66,-675.7810000000002,-33.203,0.0,0
1581611155.4429998,2.93,-974.6089999999999,-823.242,-141.602,0.0,0
1581611155.447,-46.387,-969.727,-895.02,-178.71099999999996,0.0,0
1581611155.45,19.531,-972.6560000000001,-850.0980000000003,-166.016,0.0,0
1581611155.454,67.383,-972.6560000000001,-922.363,-188.477,0.0,0
1581611155.458,33.203,-972.168,-782.227,-201.66,0.0,0
1581611155.4620001,-18.555,-972.168,-735.352,-217.773,0.0,0
1581611155.466,1.465,-972.168,-918.945,-182.61700000000002,0.0,0
1581611155.468,55.176,-972.168,-889.16,-136.719,0.0,0
1581611155.4720001,20.508000000000006,-972.168,-732.91,-166.50400000000005,0.0,0
1581611155.476,-47.363,-972.6560000000001,-707.52,-169.922,0.0,0
1581611155.48,-22.461,-972.6560000000001,-756.836,-148.438,0.0,0
1581611155.484,58.593999999999994,-971.68,-738.77,-88.867,0.0,0
1581611155.488,41.01600000000001,-972.168,-738.77,-61.035,0.0,0
1581611155.492,-21.484,-972.168,-759.2769999999997,-64.453,0.0,0
1581611155.495,-15.137,-972.168,-853.5160000000003,-39.551,0.0,0
1581611155.4989998,46.387,-974.1210000000001,-852.539,-12.695,0.0,0
1581611155.5029998,71.777,-955.078,-656.25,15.137,0.0,0
1581611155.5070002,25.879,-953.125,-670.898,-8.301,0.0,0
1581611155.5110002,-3.418,-989.258,-884.7660000000003,21.97300000000001,0.0,0
1581611155.5129998,40.527,-911.6210000000001,-744.6289999999997,173.34,0.0,0
1581611155.5170002,98.145,-885.742,-540.039,245.11700000000002,0.0,0
1581611155.5210001,47.363,-978.0269999999999,-715.332,211.426,0.0,0
1581611155.525,-22.949,-973.633,-779.785,225.58599999999998,0.0,0
1581611155.529,8.789,-969.727,-674.316,276.367,0.0,0
1581611155.533,85.449,-973.145,-672.363,305.664,0.0,0
1581611155.5370002,58.593999999999994,-972.6560000000001,-815.918,234.863,0.0,0
1581611155.54,-14.16,-969.727,-900.8789999999999,184.082,0.0,0
1581611155.544,0.0,-980.4689999999999,-755.8589999999997,199.21900000000002,0.0,0
1581611155.5479999,68.359,-938.965,-579.102,216.30900000000003,0.0,0
1581611155.552,77.637,-924.805,-676.758,185.05900000000003,0.0,0
1581611155.556,-4.883,-976.074,-840.332,42.968999999999994,0.0,0
1581611155.5579998,-7.812,-973.145,-779.297,-17.578,0.0,0
1581611155.562,53.223,-971.191,-702.637,6.348,0.0,0
1581611155.566,72.75399999999998,-972.6560000000001,-777.3439999999997,-24.901999999999997,0.0,0
1581611155.57,22.949,-972.168,-819.336,-79.59,0.0,0
1581611155.574,-1.465,-972.168,-807.1289999999997,-125.977,0.0,0
1581611155.5779998,20.996,-972.168,-898.926,-86.426,0.0,0
1581611155.582,61.035,-972.168,-948.242,-31.25,0.0,0
1581611155.585,44.434,-972.6560000000001,-866.211,-61.035,0.0,0
1581611155.589,-19.043,-972.168,-708.4960000000003,-45.898,0.0,0
1581611155.593,-6.836,-971.191,-670.898,-9.277000000000001,0.0,0
1581611155.5970001,51.27,-973.633,-765.625,50.293,0.0,0
1581611155.601,29.785,-967.773,-740.2339999999997,82.031,0.0,0
1581611155.603,-32.715,-916.992,-566.406,81.543,0.0,0
1581611155.607,-36.133,-937.988,-646.484,84.473,0.0,0
1581611155.611,21.97300000000001,-967.773,-735.352,97.16799999999999,0.0,0
1581611155.615,47.852,-957.52,-637.695,151.855,0.0,0
1581611155.619,-3.418,-973.145,-660.645,143.555,0.0,0
1581611155.623,-55.663999999999994,-974.1210000000001,-837.8910000000003,183.105,0.0,0
1581611155.627,-9.277000000000001,-966.797,-819.336,281.738,0.0,0
1581611155.63,37.598,-960.938,-695.801,315.918,0.0,0
1581611155.6339998,-27.344,-972.6560000000001,-658.691,330.0780000000001,0.0,0
1581611155.6379998,-78.613,-970.215,-761.7189999999997,299.805,0.0,0
1581611155.6420002,-33.203,-978.0269999999999,-879.883,273.438,0.0,0
1581611155.6460001,40.527,-945.312,-659.668,264.16,0.0,0
1581611155.6629999,3.418,-907.715,-556.1519999999998,200.195,0.0,0
1581611155.667,-71.289,-953.613,-747.07,200.195,0.0,0
1581611155.671,-38.574,-986.328,-777.3439999999997,273.926,0.0,0
1581611155.675,44.434,-926.758,-582.52,367.676,0.0,0
1581611155.679,31.25,-890.137,-509.277,429.199,0.0,0
1581611155.6829998,-32.227,-958.4960000000001,-721.68,445.801,0.0,0
1581611155.687,-14.16,-980.4689999999999,-881.3480000000003,554.1990000000002,0.0,0
1581611155.69,23.926,-962.4019999999999,-645.508,674.316,0.0,0
1581611155.694,18.066,-923.34,-471.191,694.336,0.0,0
1581611155.698,-45.898,-948.242,-657.227,560.059,0.0,0
1581611155.7020001,-73.242,-987.305,-823.242,400.879,0.0,0
1581611155.706,-7.812,-933.105,-651.367,418.457,0.0,0
1581611155.708,36.133,-904.297,-563.965,417.969,0.0,0
1581611155.7120001,-15.625,-967.773,-734.863,340.332,0.0,0
1581611155.716,-73.242,-976.562,-746.0939999999997,308.105,0.0,0
1581611155.72,-43.945,-965.332,-631.3480000000002,399.414,0.0,0
1581611155.724,20.508000000000006,-965.332,-631.3480000000002,617.188,0.0,0
1581611155.728,-7.324,-971.191,-756.836,764.16,0.0,0
1581611155.732,-79.59,-972.6560000000001,-765.137,905.273,0.0,0
1581611155.735,-45.41,-972.168,-606.934,967.285,0.0,0
1581611155.7389998,29.785,-972.6560000000001,-632.3240000000002,950.684,0.0,0
1581611155.7429998,35.156,-972.6560000000001,-759.2769999999997,892.09,0.0,0
1581611155.7470002,5.371,-972.6560000000001,-687.012,622.07,0.0,0
1581611155.7510002,1.953,-972.6560000000001,-681.1519999999998,346.68,0.0,0
1581611155.7529998,48.34,-972.168,-812.988,39.551,0.0,0
1581611155.7570002,83.49600000000002,-972.168,-981.445,-330.0780000000001,0.0,0
1581611155.7610002,53.71100000000001,-972.168,-936.523,-562.012,0.0,0
1581611155.765,41.01600000000001,-972.168,-896.4839999999997,-787.1089999999997,0.0,0
1581611155.769,91.309,-972.6560000000001,-956.543,-944.824,0.0,0
1581611155.7729998,104.98,-972.6560000000001,-975.586,-970.703,0.0,0
1581611155.7770002,60.547,-972.168,-969.727,-969.727,0.0,0
1581611155.78,13.672,-971.68,-969.727,-972.6560000000001,0.0,0
1581611155.784,34.668,-976.074,-981.934,-972.6560000000001,0.0,0
1581611155.7879999,87.891,-948.73,-910.645,-970.215,0.0,0
1581611155.792,51.758,-949.707,-887.695,-974.1210000000001,0.0,0
1581611155.796,-20.996,-975.586,-938.965,-952.148,0.0,0
1581611155.7979999,-5.371,-974.6089999999999,-941.895,-865.7230000000003,0.0,0
1581611155.802,72.266,-945.801,-845.215,-788.574,0.0,0
1581611155.806,60.059,-942.8710000000001,-798.34,-791.0160000000003,0.0,0
1581611155.81,-42.968999999999994,-974.6089999999999,-895.9960000000003,-870.605,0.0,0
1581611155.814,-74.707,-972.168,-961.426,-891.113,0.0,0
1581611155.8179998,3.906,-971.68,-986.328,-760.742,0.0,0
1581611155.822,37.598,-972.6560000000001,-915.5269999999999,-671.387,0.0,0
1581611155.825,-35.156,-971.68,-879.395,-600.586,0.0,0
1581611155.829,-63.965,-971.191,-942.383,-541.016,0.0,0
1581611155.833,12.695,-979.98,-838.867,-430.664,0.0,0
1581611155.8370001,46.387,-919.434,-597.168,-209.47299999999998,0.0,0
1581611155.841,-2.93,-919.434,-704.59,-162.59799999999996,0.0,0
1581611155.843,-46.387,-979.0039999999999,-866.699,-137.207,0.0,0
1581611155.8470001,-6.348,-972.6560000000001,-703.125,-104.98,0.0,0
1581611155.851,47.852,-966.797,-609.375,-69.336,0.0,0
1581611155.855,25.391,-963.3789999999999,-665.5269999999998,-28.32,0.0,0
1581611155.859,-38.086,-972.6560000000001,-724.6089999999997,-79.59,0.0,0
1581611155.863,-42.968999999999994,-972.6560000000001,-760.742,-85.449,0.0,0
1581611155.867,23.926,-972.168,-764.648,-102.539,0.0,0
1581611155.87,26.366999999999997,-971.68,-824.707,-163.57399999999996,0.0,0
1581611155.8739998,-44.922,-972.168,-881.3480000000003,-202.637,0.0,0
1581611155.8779998,-73.73,-977.539,-725.0980000000003,-200.195,0.0,0
1581611155.8820002,1.465,-931.6410000000001,-629.883,-143.555,0.0,0
1581611155.8860002,47.852,-939.453,-718.75,-154.297,0.0,0
1581611155.887,-14.16,-976.562,-802.7339999999997,-219.238,0.0,0
1581611155.891,-44.434,-968.75,-802.2460000000003,-200.68400000000003,0.0,0
1581611155.895,7.324,-969.238,-772.461,-151.36700000000005,0.0,0
1581611155.899,43.945,-964.355,-708.008,-107.91,0.0,0
1581611155.9029999,11.719000000000001,-960.938,-684.082,-179.688,0.0,0
1581611155.907,-30.273000000000003,-968.75,-791.0160000000003,-230.46900000000002,0.0,0
1581611155.911,0.488,-973.145,-918.945,-155.273,0.0,0
1581611155.914,63.965,-973.145,-890.625,-123.04700000000001,0.0,0
1581611155.918,48.34,-944.336,-731.934,-138.184,0.0,0
1581611155.9220002,1.465,-918.457,-643.066,-222.168,0.0,0
1581611155.926,-3.906,-956.055,-812.012,-322.754,0.0,0
1581611155.93,59.082,-976.562,-938.965,-355.469,0.0,0
1581611155.9320002,91.309,-970.215,-785.1560000000003,-441.895,0.0,0
1581611155.936,36.133,-972.6560000000001,-724.1210000000003,-503.906,0.0,0
1581611155.94,-3.418,-972.168,-883.301,-555.1759999999998,0.0,0
1581611155.944,41.504,-972.6560000000001,-924.316,-578.125,0.0,0
1581611155.948,81.055,-971.68,-728.5160000000003,-484.375,0.0,0
1581611155.9520001,12.207,-972.168,-820.801,-424.316,0.0,0
1581611155.956,-39.062,-968.75,-992.188,-284.18,0.0,0
1581611155.9589999,20.508000000000006,-981.445,-844.238,-61.523,0.0,0
1581611155.9629998,64.453,-935.547,-580.566,184.57,0.0,0
1581611155.967,12.207,-888.672,-488.77,337.89099999999996,0.0,0
1581611155.971,-48.828,-957.0310000000001,-648.438,341.79699999999997,0.0,0
1581611155.975,-37.598,-978.0269999999999,-691.4060000000003,315.918,0.0,0
1581611155.9770002,19.531,-955.566,-600.0980000000002,195.312,0.0,0
1581611155.981,39.062,-966.797,-723.145,7.812,0.0,0
1581611155.985,8.301,-974.6089999999999,-823.73,-208.49599999999998,0.0,0
1581611155.9889998,-0.488,-971.191,-762.695,-452.63699999999994,0.0,0
1581611155.9929998,77.637,-972.6560000000001,-750.977,-678.711,0.0,0
1581611155.9970002,109.863,-972.6560000000001,-872.07,-880.3710000000003,0.0,0
1581611156.0010002,42.48,-970.215,-972.168,-976.562,0.0,0
1581611156.004,8.301,-977.051,-908.203,-968.262,0.0,0
1581611156.008,49.316,-958.4960000000001,-791.992,-971.68,0.0,0
1581611156.012,83.984,-942.8710000000001,-834.961,-973.145,0.0,0
1581611156.016,27.831999999999997,-972.168,-950.684,-968.75,0.0,0
1581611156.02,-18.066,-973.633,-910.645,-978.0269999999999,0.0,0
1581611156.0370002,31.25,-971.191,-864.7460000000003,-945.801,0.0,0
1581611156.0410001,71.777,-972.6560000000001,-877.441,-846.191,0.0,0
1581611156.045,39.551,-972.168,-826.172,-832.0310000000003,0.0,0
1581611156.049,-14.648,-972.168,-781.25,-922.363,0.0,0
1581611156.053,8.789,-972.168,-861.816,-935.059,0.0,0
1581611156.0570002,68.359,-972.6560000000001,-907.715,-871.582,0.0,0
1581611156.061,44.434,-972.6560000000001,-870.117,-870.605,0.0,0
1581611156.064,-21.484,-972.168,-796.875,-890.137,0.0,0
1581611156.0679998,-27.831999999999997,-970.703,-801.758,-890.137,0.0,0
1581611156.072,39.062,-977.051,-830.078,-765.137,0.0,0
1581611156.076,58.593999999999994,-938.477,-735.84,-634.2769999999998,0.0,0
1581611156.08,-1.953,-908.203,-600.586,-604.492,0.0,0
1581611156.082,-18.066,-953.613,-658.691,-553.711,0.0,0
1581611156.086,33.203,-976.074,-781.738,-514.648,0.0,0
1581611156.09,70.312,-970.703,-710.938,-427.73400000000004,0.0,1
1581611156.0939999,42.968999999999994,-972.168,-620.605,-387.207,0.0,0
1581611156.0979998,-22.461,-972.6560000000001,-758.789,-417.969,0.0,0
1581611156.1020002,-21.484,-972.6560000000001,-858.398,-366.699,0.0,0
1581611156.106,64.941,-972.168,-801.27,-359.86300000000006,0.0,0
1581611156.109,49.316,-972.6560000000001,-818.3589999999997,-442.871,0.0,0
1581611156.113,-27.344,-971.68,-914.551,-531.738,0.0,0
1581611156.117,-13.184000000000001,-972.6560000000001,-906.25,-575.195,0.0,0
1581611156.121,55.176,-969.727,-754.883,-597.168,0.0,0
1581611156.125,64.941,-939.453,-651.367,-684.082,0.0,0
1581611156.127,-1.953,-944.336,-803.2230000000003,-766.602,0.0,0
1581611156.131,-20.996,-975.0980000000001,-908.203,-792.48,0.0,0
1581611156.135,38.574,-975.0980000000001,-764.648,-798.828,0.0,0
1581611156.139,67.87100000000001,-937.5,-671.387,-788.086,0.0,0
1581611156.143,1.953,-947.7539999999999,-812.012,-902.3439999999999,0.0,0
1581611156.147,-39.551,-978.0269999999999,-987.793,-960.449,0.0,0
1581611156.151,17.578,-970.215,-969.727,-898.926,0.0,0
1581611156.154,62.5,-972.6560000000001,-908.203,-899.9019999999997,0.0,0
1581611156.158,31.25,-972.168,-901.367,-931.6410000000001,0.0,0
1581611156.1620002,-17.09,-972.168,-981.934,-960.449,0.0,0
1581611156.1660001,-11.719000000000001,-972.168,-917.48,-919.434,0.0,0
1581611156.17,40.039,-972.168,-753.418,-833.008,0.0,0
1581611156.1720002,36.621,-972.6560000000001,-777.832,-819.824,0.0,0
1581611156.176,-23.926,-972.6560000000001,-821.289,-862.305,0.0,0
1581611156.18,-16.602,-972.168,-710.938,-860.84,0.0,0
1581611156.184,49.805,-972.168,-718.75,-774.414,0.0,0
1581611156.188,73.73,-972.168,-817.383,-718.75,0.0,0
1581611156.1920002,13.672,-972.168,-860.84,-694.336,0.0,0
1581611156.196,-14.648,-972.6560000000001,-829.59,-610.352,0.0,0
1581611156.199,45.41,-972.6560000000001,-776.855,-513.672,0.0,0
1581611156.2029998,69.824,-972.6560000000001,-811.523,-407.227,0.0,0
1581611156.207,27.831999999999997,-971.191,-678.711,-337.402,0.0,0
1581611156.211,-17.09,-971.68,-570.8009999999998,-264.64799999999997,0.0,0
1581611156.215,21.484,-972.6560000000001,-724.1210000000003,-190.43,0.0,0
1581611156.217,64.941,-972.168,-854.0039999999997,-121.094,0.0,0
1581611156.221,33.691,-972.168,-716.797,-42.968999999999994,0.0,0
1581611156.225,-16.113,-972.168,-611.816,33.691,0.0,0
1581611156.2289999,-2.93,-973.633,-662.5980000000002,125.0,0.0,0
1581611156.2329998,63.965,-963.3789999999999,-591.309,244.62900000000002,0.0,0
1581611156.2370002,53.71100000000001,-965.82,-589.355,293.945,0.0,0
1581611156.2410002,-37.598,-973.633,-720.215,340.82,0.0,0
1581611156.244,-49.316,-971.191,-781.738,426.27,0.0,0
1581611156.248,26.366999999999997,-974.1210000000001,-675.7810000000002,498.04699999999997,0.0,0
1581611156.252,59.082,-948.242,-444.336,575.195,0.0,0
1581611156.256,-2.441,-939.453,-466.309,569.8240000000002,0.0,0
1581611156.26,-51.27,-974.1210000000001,-648.9259999999998,607.91,0.0,0
1581611156.262,-2.93,-970.703,-585.938,718.262,0.0,0
1581611156.266,47.852,-874.512,-362.793,811.523,0.0,0
1581611156.27,-7.812,-861.816,-372.07,816.895,0.0,0
1581611156.274,-67.383,-961.914,-575.195,749.512,0.0,0
1581611156.2779999,-35.645,-975.586,-588.867,817.8710000000003,0.0,0
1581611156.282,14.16,-967.773,-520.508,888.184,0.0,0
1581611156.286,1.465,-973.145,-664.551,838.3789999999997,0.0,0
1581611156.289,-43.457,-973.633,-769.043,789.062,0.0,0
1581611156.293,-41.992,-968.262,-614.746,751.953,0.0,0
1581611156.2970002,24.414,-957.0310000000001,-471.68,797.852,0.0,0
1581611156.301,40.527,-963.867,-673.34,784.18,0.0,0
1581611156.305,-28.809,-973.633,-839.8439999999997,747.07,0.0,0
1581611156.3079998,-44.922,-972.168,-687.012,791.0160000000003,0.0,0
1581611156.312,15.625,-972.168,-643.066,817.383,0.0,0
1581611156.316,40.039,-972.168,-649.9019999999998,837.4019999999997,0.0,0
1581611156.32,-22.949,-973.145,-636.23,755.8589999999997,0.0,0
1581611156.324,-50.78100000000001,-968.75,-596.191,658.691,0.0,0
1581611156.3279998,8.301,-969.238,-684.57,532.715,0.0,0
1581611156.332,54.199,-973.145,-891.113,342.773,0.0,0
1581611156.335,-0.977,-972.168,-927.7339999999999,215.82,0.0,0
1581611156.339,-46.875,-972.6560000000001,-829.102,117.18799999999999,0.0,0
1581611156.343,-10.254000000000001,-972.168,-782.715,117.676,0.0,0
1581611156.3470001,31.738000000000003,-972.168,-865.7230000000003,148.438,0.0,0
1581611156.351,4.883,-972.6560000000001,-846.191,186.523,0.0,0
1581611156.353,-62.988,-970.703,-719.727,354.49199999999996,0.0,0
1581611156.357,-43.457,-976.562,-723.145,552.734,0.0,0
1581611156.361,18.555,-959.961,-689.453,744.6289999999997,0.0,0
1581611156.365,15.137,-945.312,-605.957,778.32,0.0,0
1581611156.369,-39.062,-969.238,-644.043,660.1560000000002,0.0,0
1581611156.373,-48.34,-976.074,-840.82,536.621,0.0,0
1581611156.377,43.945,-965.82,-923.828,300.781,0.0,0
1581611156.38,93.262,-932.1289999999999,-782.227,33.203,0.0,0
1581611156.3839998,24.414,-935.547,-787.5980000000003,-331.055,0.0,0
1581611156.3879998,2.93,-964.8439999999999,-907.227,-658.691,0.0,0
1581611156.3920002,69.336,-974.6089999999999,-983.398,-756.836,0.0,0
1581611156.3960001,139.16,-961.426,-921.875,-791.992,0.0,0
1581611156.4129999,117.18799999999999,-964.355,-896.9730000000003,-826.172,0.0,0
1581611156.417,62.012,-974.6089999999999,-951.172,-823.73,0.0,0
1581611156.421,79.102,-971.68,-935.547,-698.73,0.0,0
1581611156.425,129.88299999999998,-972.6560000000001,-810.059,-443.848,0.0,0
1581611156.429,107.91,-970.703,-698.242,-236.81599999999997,0.0,0
1581611156.4329998,15.625,-969.727,-822.2660000000003,-59.57,0.0,0
1581611156.437,8.789,-976.074,-904.297,26.855,0.0,0
1581611156.44,65.918,-963.3789999999999,-675.293,197.266,0.0,0
1581611156.444,52.246,-951.66,-550.781,378.906,0.0,0
1581611156.448,-13.184000000000001,-969.238,-740.2339999999997,354.49199999999996,0.0,0
1581611156.4520001,-34.668,-978.0269999999999,-776.855,332.031,0.0,0
1581611156.456,19.043,-952.637,-582.52,287.598,0.0,0
1581611156.458,49.316,-949.707,-672.363,273.438,0.0,0
1581611156.4620001,-12.207,-975.586,-816.895,299.316,0.0,0
1581611156.466,-48.828,-972.168,-765.137,320.312,0.0,0
1581611156.47,7.812,-972.168,-682.617,428.223,0.0,0
1581611156.474,55.663999999999994,-966.309,-628.418,502.93,0.0,0
1581611156.478,22.461,-969.727,-700.195,516.113,0.0,0
1581611156.482,-28.32,-973.633,-775.3910000000003,579.59,0.0,0
1581611156.485,-7.812,-972.168,-712.8910000000003,620.605,0.0,0
1581611156.4889998,62.012,-972.6560000000001,-694.336,677.2460000000002,0.0,0
1581611156.4929998,51.758,-971.191,-791.992,613.77,0.0,0
1581611156.4970002,-32.227,-975.0980000000001,-785.645,484.86300000000006,0.0,0
1581611156.5010002,-51.27,-964.8439999999999,-658.203,515.625,0.0,0
1581611156.5029998,16.113,-952.148,-684.082,504.395,0.0,0
1581611156.5070002,45.898,-967.773,-789.062,399.414,0.0,0
1581611156.5110002,-21.97300000000001,-972.168,-709.4730000000003,225.58599999999998,0.0,0
1581611156.515,-60.059,-972.168,-829.102,84.473,0.0,0
1581611156.519,-9.277000000000001,-972.168,-892.09,52.246,0.0,0
1581611156.5229998,52.733999999999995,-972.6560000000001,-886.23,-17.578,0.0,0
1581611156.5270002,2.93,-972.168,-935.059,-124.512,0.0,0
1581611156.53,-64.941,-970.215,-969.238,-251.953,0.0,0
1581611156.534,-31.738000000000003,-976.074,-981.934,-305.176,0.0,0
1581611156.5379999,20.996,-946.289,-880.3710000000003,-265.625,0.0,0
1581611156.542,18.066,-880.3710000000003,-725.586,-298.34,0.0,0
1581611156.546,-36.133,-882.324,-721.68,-329.59,0.0,0
1581611156.5479999,-37.598,-967.773,-875.488,-379.88300000000004,0.0,0
1581611156.552,43.457,-914.062,-813.965,-390.13699999999994,0.0,0
1581611156.556,38.574,-889.16,-712.8910000000003,-360.352,0.0,0
1581611156.56,-32.227,-975.0980000000001,-860.84,-439.45300000000003,0.0,0
1581611156.564,-23.926,-973.633,-942.8710000000001,-463.379,0.0,0
1581611156.5679998,34.18,-970.215,-894.043,-498.04699999999997,0.0,0
1581611156.572,78.125,-972.6560000000001,-878.418,-571.289,0.0,0
1581611156.575,26.366999999999997,-972.6560000000001,-938.965,-643.066,0.0,0
1581611156.579,-11.719000000000001,-972.168,-948.242,-732.91,0.0,0
1581611156.583,38.086,-972.6560000000001,-869.1410000000003,-765.137,0.0,0
1581611156.5870001,66.406,-971.68,-793.457,-811.523,0.0,0
1581611156.591,15.137,-969.238,-854.0039999999997,-868.6519999999997,0.0,0
1581611156.593,-39.062,-969.727,-966.309,-815.43,0.0,0
1581611156.5970001,13.672,-980.4689999999999,-846.68,-634.2769999999998,0.0,0
1581611156.601,77.637,-924.316,-655.762,-355.957,0.0,0
1581611156.605,28.32,-916.0160000000001,-660.645,-153.32,0.0,0
1581611156.609,-41.992,-978.0269999999999,-745.117,-30.273000000000003,0.0,0
1581611156.613,-42.968999999999994,-972.168,-775.8789999999997,129.395,0.0,0
1581611156.617,9.277000000000001,-971.191,-783.203,218.75,0.0,0
1581611156.62,39.062,-972.6560000000001,-779.785,191.895,0.0,0
1581611156.6239998,-10.254000000000001,-972.168,-771.9730000000003,11.719000000000001,0.0,0
1581611156.6279998,-34.668,-973.633,-760.2539999999997,-145.02,0.0,0
1581611156.6320002,34.18,-965.82,-701.66,-240.234,0.0,0
1581611156.6360002,85.93799999999996,-966.797,-816.4060000000003,-413.574,0.0,0
1581611156.6379998,27.344,-974.1210000000001,-928.2230000000001,-611.328,0.0,0
1581611156.6420002,-25.391,-971.68,-843.75,-770.9960000000003,0.0,0
1581611156.6460001,13.672,-971.68,-830.078,-773.438,0.0,0
1581611156.65,64.453,-972.168,-858.398,-690.918,0.0,0
1581611156.654,27.831999999999997,-960.938,-783.691,-659.18,0.0,0
1581611156.658,-42.48,-962.8910000000001,-831.055,-586.4259999999998,0.0,0
1581611156.6620002,-27.831999999999997,-979.0039999999999,-966.797,-518.066,0.0,0
1581611156.665,34.18,-960.449,-890.625,-397.949,0.0,0
1581611156.669,13.184000000000001,-914.062,-697.7539999999997,-328.125,0.0,0
1581611156.6729999,-40.039,-952.148,-696.7769999999997,-399.902,0.0,0
1581611156.677,-33.691,-979.0039999999999,-836.914,-434.57,0.0,0
1581611156.681,21.97300000000001,-969.727,-932.1289999999999,-507.81199999999995,0.0,0
1581611156.6829998,32.227,-971.191,-805.176,-556.1519999999998,0.0,0
1581611156.687,-46.875,-969.727,-737.793,-597.168,0.0,0
1581611156.691,-72.75399999999998,-973.145,-836.914,-613.281,0.0,0
1581611156.695,2.441,-975.0980000000001,-828.125,-539.5509999999998,0.0,0
1581611156.699,38.086,-937.012,-673.34,-503.906,0.0,0
1581611156.7029998,-3.906,-949.707,-739.258,-479.98,0.0,0
1581611156.707,-46.387,-977.051,-949.707,-430.664,0.0,0
1581611156.71,-7.812,-972.168,-856.934,-360.84,0.0,0
1581611156.714,57.617,-934.082,-635.254,-275.39099999999996,0.0,0
1581611156.718,22.949,-879.395,-572.266,-287.1090000000001,0.0,0
1581611156.7220001,-40.527,-941.895,-759.2769999999997,-294.434,0.0,0
1581611156.726,-19.043,-981.445,-805.176,-248.535,0.0,0
1581611156.728,52.246,-969.238,-705.078,-229.00400000000002,0.0,0
1581611156.732,40.039,-962.4019999999999,-691.895,-215.82,0.0,0
1581611156.736,-44.922,-966.797,-719.727,-276.367,0.0,0
1581611156.74,-53.223,-974.6089999999999,-816.895,-311.035,0.0,0
1581611156.744,35.156,-971.68,-748.535,-290.527,0.0,0
1581611156.748,55.663999999999994,-972.6560000000001,-778.32,-301.27,0.0,0
1581611156.752,-17.09,-972.168,-922.852,-354.49199999999996,0.0,0
1581611156.755,-37.598,-972.168,-825.684,-381.348,0.0,0
1581611156.7589998,25.879,-972.6560000000001,-681.1519999999998,-332.031,0.0,0
1581611156.7629998,64.453,-972.6560000000001,-770.9960000000003,-291.01599999999996,0.0,0
1581611156.7670002,15.137,-972.6560000000001,-890.137,-303.711,0.0,0
1581611156.7710001,-20.996,-972.6560000000001,-755.8589999999997,-300.781,0.0,0
1581611156.7879999,30.273000000000003,-972.6560000000001,-682.1289999999998,-297.363,0.0,0
1581611156.792,83.984,-972.6560000000001,-732.91,-255.37099999999998,0.0,0
1581611156.796,37.109,-972.6560000000001,-748.047,-260.254,0.0,0
1581611156.8,-9.277000000000001,-972.168,-728.5160000000003,-312.5,0.0,0
1581611156.804,9.766,-972.168,-728.0269999999997,-294.922,0.0,0
1581611156.8079998,59.57,-972.6560000000001,-806.1519999999997,-279.297,0.0,0
1581611156.812,70.312,-972.6560000000001,-884.2769999999997,-261.23,0.0,0
1581611156.815,10.742,-972.6560000000001,-858.398,-230.46900000000002,0.0,0
1581611156.819,-9.277000000000001,-972.168,-737.793,-182.61700000000002,0.0,0
1581611156.823,49.805,-973.145,-791.5039999999997,-120.605,0.0,0
1581611156.8270001,79.59,-968.75,-764.16,-98.145,0.0,0
1581611156.831,29.785,-968.75,-618.164,-70.801,0.0,0
1581611156.833,0.977,-973.145,-643.066,6.348,0.0,0
1581611156.8370001,33.203,-972.168,-673.34,102.539,0.0,0
1581611156.841,62.988,-972.168,-629.883,196.77700000000002,0.0,0
1581611156.845,23.438000000000002,-972.6560000000001,-610.84,221.19099999999997,0.0,0
1581611156.849,-35.156,-972.6560000000001,-643.066,314.453,0.0,0
1581611156.853,-2.441,-972.168,-721.191,466.309,0.0,0
1581611156.857,63.965,-972.6560000000001,-704.59,587.891,0.0,0
1581611156.86,28.809,-973.145,-534.668,677.2460000000002,0.0,0
1581611156.8639998,-38.086,-970.703,-597.168,692.383,0.0,0
1581611156.8679998,-22.949,-974.6089999999999,-758.301,761.23,0.0,0
1581611156.8720002,29.296999999999997,-968.75,-552.246,884.7660000000003,0.0,0
1581611156.8760002,45.41,-915.039,-357.91,954.59,0.0,0
1581611156.8779998,-23.438000000000002,-934.57,-563.965,958.008,0.0,0
1581611156.8820002,-47.852,-978.0269999999999,-705.566,967.773,0.0,0
1581611156.8860002,26.855,-973.633,-498.04699999999997,998.047,0.0,0
1581611156.89,45.898,-957.0310000000001,-431.64099999999996,-1000.0,0.0,0
1581611156.894,-18.066,-955.078,-523.438,998.047,0.0,0
1581611156.8979998,-39.062,-974.6089999999999,-710.449,999.512,0.0,0
1581611156.9020002,11.719000000000001,-972.168,-723.633,999.512,0.0,0
1581611156.905,24.901999999999997,-972.168,-588.379,999.512,0.0,0
1581611156.909,-19.531,-971.68,-675.293,999.512,0.0,0
1581611156.9129999,-81.055,-973.145,-714.8439999999997,999.512,0.0,0
1581611156.917,-48.828,-971.191,-530.762,999.512,0.0,0
1581611156.921,6.348,-964.8439999999999,-549.316,999.512,0.0,0
1581611156.9229999,8.789,-970.215,-678.711,999.512,0.0,0
1581611156.927,-34.668,-970.215,-626.465,999.512,0.0,0
1581611156.931,-50.78100000000001,-971.191,-583.496,999.512,0.0,0
1581611156.935,27.831999999999997,-964.355,-582.031,999.512,0.0,0
1581611156.939,30.273000000000003,-968.262,-640.137,999.512,0.0,0
1581611156.9429998,-53.223,-974.1210000000001,-714.8439999999997,997.559,0.0,0
1581611156.947,-62.988,-971.191,-739.258,997.07,0.0,0
1581611156.95,0.977,-972.6560000000001,-772.461,990.7230000000001,0.0,0
1581611156.954,35.156,-974.6089999999999,-824.707,889.16,0.0,0
1581611156.958,-19.043,-955.566,-695.312,724.1210000000003,0.0,0
1581611156.9620001,-57.617,-958.4960000000001,-645.996,666.5039999999998,0.0,0
1581611156.966,0.0,-975.0980000000001,-809.57,662.1089999999998,0.0,0
1581611156.968,69.824,-971.68,-858.398,687.012,0.0,0
1581611156.9720001,30.761999999999997,-972.168,-692.383,659.18,0.0,0
1581611156.976,-42.968999999999994,-972.6560000000001,-764.16,550.293,0.0,0
1581611156.98,-31.738000000000003,-972.6560000000001,-881.3480000000003,553.711,0.0,0
1581611156.984,40.527,-972.6560000000001,-749.512,555.1759999999998,0.0,0
1581611156.988,26.855,-972.6560000000001,-779.297,446.777,0.0,0
1581611156.992,-48.828,-971.191,-939.941,273.438,0.0,0
1581611156.995,-56.64100000000001,-972.168,-987.793,109.375,0.0,0
1581611156.9989998,10.254000000000001,-975.0980000000001,-896.9730000000003,54.199,0.0,0
1581611157.0029998,40.527,-939.941,-740.7230000000003,19.043,0.0,0
1581611157.0070002,-22.461,-938.965,-752.441,-17.578,0.0,0
1581611157.0110002,-42.968999999999994,-972.168,-907.715,5.859,0.0,0
1581611157.012,24.901999999999997,-972.168,-880.3710000000003,119.62899999999999,0.0,0
1581611157.016,55.176,-967.773,-708.9839999999997,332.031,0.0,0
1581611157.02,-5.371,-970.703,-722.168,444.824,0.0,0
1581611157.024,-50.78100000000001,-973.145,-773.438,564.941,0.0,0
1581611157.0279999,0.0,-972.168,-685.547,673.828,0.0,0
1581611157.032,59.57,-972.6560000000001,-686.523,638.672,0.0,0
1581611157.036,31.25,-970.703,-853.5160000000003,475.098,0.0,0
1581611157.039,-8.789,-973.145,-951.172,172.363,0.0,0
1581611157.043,23.926,-969.727,-825.195,-102.051,0.0,0
1581611157.0470002,106.934,-903.809,-728.5160000000003,-381.836,0.0,0
1581611157.051,114.74600000000001,-906.738,-822.7539999999997,-687.988,0.0,0
1581611157.055,48.828,-975.0980000000001,-973.145,-901.855,0.0,0
1581611157.0570002,36.621,-973.633,-960.938,-975.0980000000001,0.0,0
1581611157.061,105.95700000000001,-967.773,-874.023,-964.8439999999999,0.0,0
1581611157.065,139.648,-968.262,-891.113,-970.703,0.0,0
1581611157.069,48.828,-972.6560000000001,-982.422,-959.961,0.0,0
1581611157.073,-10.742,-972.6560000000001,-954.102,-791.992,0.0,0
1581611157.0770001,41.992,-970.215,-904.297,-559.082,0.0,0
1581611157.081,76.66,-979.0039999999999,-966.797,-382.324,0.0,0
1581611157.0839999,24.901999999999997,-941.4060000000001,-814.941,-286.133,0.0,0
1581611157.0879998,-39.551,-932.1289999999999,-684.57,-260.742,0.0,0
1581611157.092,-28.809,-975.0980000000001,-769.5310000000003,-189.453,0.0,0
1581611157.096,17.09,-974.6089999999999,-784.668,-167.48,0.0,0
1581611157.1,-3.906,-964.8439999999999,-739.7460000000003,-195.312,0.0,0
1581611157.1020002,-63.965,-953.125,-653.32,-291.992,0.0,0
1581611157.106,-72.266,-968.75,-758.301,-350.098,0.0,0
1581611157.11,-17.09,-973.633,-803.711,-231.445,0.0,0
1581611157.1139998,13.672,-969.238,-690.43,-147.94899999999996,0.0,0
1581611157.1179998,-51.27,-972.168,-684.57,-90.82,0.0,0
1581611157.1220002,-82.52,-970.215,-774.9019999999997,-11.23,0.0,0
1581611157.1260002,-22.949,-977.051,-885.2539999999997,46.387,0.0,0
1581611157.129,23.438000000000002,-955.078,-719.238,158.203,0.0,0
1581611157.133,-10.254000000000001,-898.926,-489.25800000000004,173.34,0.0,0
1581611157.137,-63.477,-933.5939999999999,-673.34,111.816,0.0,0
1581611157.141,-44.922,-978.0269999999999,-830.566,41.504,0.0,0
1581611157.145,3.906,-970.703,-755.8589999999997,-26.366999999999997,0.0,0
1581611157.1620002,-12.207,-970.703,-767.09,-73.73,0.0,0
1581611157.1660001,-83.984,-973.633,-800.293,-166.016,0.0,0
1581611157.17,-69.336,-970.703,-774.414,-222.65599999999998,0.0,0
1581611157.174,2.93,-930.664,-656.25,-299.805,0.0,0
1581611157.178,-17.578,-941.4060000000001,-713.3789999999997,-418.457,0.0,0
1581611157.1820002,-101.074,-974.6089999999999,-918.945,-466.309,0.0,0
1581611157.186,-99.609,-977.051,-948.73,-451.66,0.0,0
1581611157.189,-20.508000000000006,-934.57,-749.512,-372.07,0.0,0
1581611157.1929998,-19.531,-887.207,-645.02,-377.93,0.0,1
1581611157.197,-99.609,-937.5,-820.312,-410.645,0.0,0
1581611157.201,-96.68,-979.98,-859.863,-329.102,0.0,0
1581611157.205,-33.691,-950.684,-682.1289999999998,-245.605,0.0,0
1581611157.207,-3.418,-907.715,-629.883,-169.43400000000003,0.0,0
1581611157.211,-52.246,-949.707,-727.051,-211.91400000000002,0.0,0
1581611157.215,-105.469,-979.98,-869.6289999999997,-255.37099999999998,0.0,0
1581611157.2189999,-60.059,-969.238,-785.1560000000003,-146.97299999999996,0.0,0
1581611157.2229998,-10.254000000000001,-972.6560000000001,-700.684,-104.98,0.0,0
1581611157.2270002,-29.296999999999997,-971.68,-850.586,-160.645,0.0,0
1581611157.231,-85.93799999999996,-976.074,-920.41,-262.695,0.0,0
1581611157.234,-86.914,-942.383,-718.75,-317.383,0.0,0
1581611157.238,-20.02,-941.4060000000001,-704.102,-293.457,0.0,0
1581611157.242,-10.742,-975.586,-854.492,-384.277,0.0,0
1581611157.246,-84.961,-972.168,-796.875,-506.836,0.0,0
1581611157.25,-96.191,-971.68,-729.492,-550.781,0.0,0
1581611157.252,-37.598,-972.168,-850.586,-521.9730000000002,0.0,0
1581611157.256,-48.34,-975.0980000000001,-900.8789999999999,-361.32800000000003,0.0,0
1581611157.26,-101.074,-953.613,-657.227,-152.832,0.0,0
1581611157.264,-127.93,-956.055,-583.008,102.539,0.0,0
1581611157.268,-99.12100000000001,-976.074,-641.113,330.0780000000001,0.0,0
1581611157.272,-52.246,-971.68,-661.133,489.25800000000004,0.0,0
1581611157.276,-93.262,-972.168,-664.062,573.73,0.0,0
1581611157.279,-145.996,-969.727,-733.887,542.969,0.0,0
1581611157.283,-109.375,-981.934,-803.2230000000003,477.539,0.0,0
1581611157.2870002,-36.133,-920.898,-653.809,316.406,0.0,0
1581611157.2910001,-37.598,-893.066,-555.664,122.07,0.0,0
1581611157.295,-82.52,-956.543,-671.875,-41.01600000000001,0.0,0
1581611157.2970002,-57.617,-979.98,-849.1210000000003,-201.172,0.0,0
1581611157.301,27.344,-944.336,-806.6410000000003,-292.48,0.0,0
1581611157.305,28.809,-884.7660000000003,-652.832,-429.68800000000016,0.0,0
1581611157.309,-75.195,-936.035,-812.988,-555.664,0.0,0
1581611157.313,-85.449,-979.0039999999999,-952.148,-574.707,0.0,0
1581611157.3170002,-9.766,-969.727,-919.922,-589.844,0.0,0
1581611157.321,27.831999999999997,-972.168,-928.711,-619.629,0.0,0
1581611157.324,-32.715,-972.168,-955.078,-727.051,0.0,0
1581611157.3279998,-82.52,-971.68,-982.422,-791.5039999999997,0.0,0
1581611157.332,-25.879,-976.074,-933.105,-796.387,0.0,0
1581611157.336,31.738000000000003,-949.2189999999999,-796.387,-877.441,0.0,0
1581611157.34,-14.16,-947.2660000000001,-859.863,-964.8439999999999,0.0,0
1581611157.342,-91.309,-974.1210000000001,-979.0039999999999,-973.633,0.0,0
1581611157.346,-76.172,-974.6089999999999,-895.9960000000003,-969.727,0.0,0
1581611157.35,-20.996,-958.9839999999999,-786.133,-973.145,0.0,0
1581611157.3539999,-45.898,-954.102,-814.941,-972.6560000000001,0.0,0
1581611157.3579998,-97.656,-973.145,-867.188,-972.168,0.0,0
1581611157.3620002,-59.57,-972.6560000000001,-916.5039999999999,-972.168,0.0,0
1581611157.3660002,-7.324,-972.168,-875.0,-972.168,0.0,0
1581611157.369,-32.715,-972.6560000000001,-868.164,-972.168,0.0,0
1581611157.373,-76.66,-972.6560000000001,-952.637,-972.6560000000001,0.0,0
1581611157.377,-69.336,-972.168,-817.383,-972.6560000000001,0.0,0
1581611157.381,-28.32,-972.6560000000001,-770.02,-972.6560000000001,0.0,0
1581611157.385,4.883,-972.168,-876.953,-969.727,0.0,0
1581611157.387,-35.645,-971.191,-831.055,-973.633,0.0,0
1581611157.391,-83.984,-972.168,-733.887,-962.4019999999999,0.0,0
1581611157.395,-30.273000000000003,-972.6560000000001,-759.7660000000003,-861.816,0.0,0
1581611157.399,42.968999999999994,-972.168,-794.434,-789.551,0.0,0
1581611157.4029999,8.789,-972.6560000000001,-732.91,-772.949,0.0,0
1581611157.407,-67.383,-972.168,-808.5939999999997,-751.953,0.0,0
1581611157.411,-41.01600000000001,-970.215,-845.703,-700.684,0.0,0
1581611157.414,27.831999999999997,-980.957,-820.312,-662.5980000000002,0.0,0
1581611157.418,18.066,-925.293,-683.105,-722.6560000000003,0.0,0
1581611157.4220002,-40.527,-910.1560000000001,-578.125,-769.043,0.0,0
1581611157.426,-62.012,-971.68,-786.6210000000003,-785.645,0.0,0
1581611157.43,-11.23,-972.168,-891.113,-772.461,0.0,0
1581611157.4320002,21.97300000000001,-971.68,-692.383,-745.605,0.0,0
1581611157.436,-36.621,-971.191,-706.543,-786.6210000000003,0.0,0
1581611157.44,-76.172,-974.6089999999999,-897.461,-764.648,0.0,0
1581611157.444,-11.719000000000001,-967.285,-794.434,-652.344,0.0,0
1581611157.448,26.366999999999997,-952.637,-618.164,-604.98,0.0,0
1581611157.4520001,-15.625,-968.262,-724.1210000000003,-635.742,0.0,0
1581611157.456,-50.78100000000001,-974.6089999999999,-922.363,-687.012,0.0,0
1581611157.4589999,-16.602,-971.191,-856.934,-636.23,0.0,0
1581611157.4629998,40.039,-972.6560000000001,-659.18,-564.941,0.0,0
1581611157.467,12.695,-972.168,-645.02,-593.262,0.0,0
1581611157.471,-54.688,-969.727,-810.547,-611.328,0.0,0
1581611157.475,-34.18,-979.492,-880.3710000000003,-609.375,0.0,0
1581611157.478,35.645,-942.383,-638.184,-528.32,0.0,0
1581611157.482,23.438000000000002,-915.039,-569.336,-452.148,0.0,0
1581611157.486,-49.316,-966.309,-704.59,-439.941,0.0,0
1581611157.49,-54.199,-975.586,-728.5160000000003,-377.441,0.0,0
1581611157.494,13.184000000000001,-970.215,-664.062,-268.066,0.0,0
1581611157.498,32.227,-973.145,-781.25,-182.61700000000002,0.0,0
1581611157.502,-26.855,-971.68,-898.438,-119.62899999999999,0.0,0
1581611157.505,-51.758,-973.633,-732.422,-12.695,0.0,0
1581611157.5089998,2.93,-969.727,-532.715,102.051,0.0,0
1581611157.5129998,39.062,-960.449,-557.617,152.832,0.0,0
1581611157.5170002,5.371,-970.703,-708.9839999999997,157.715,0.0,0
1581611157.5210001,-36.621,-974.6089999999999,-626.953,182.61700000000002,0.0,0
1581611157.5379999,-3.906,-969.727,-521.484,245.605,0.0,0
1581611157.542,44.434,-967.285,-541.504,308.105,0.0,0
1581611157.546,-7.324,-972.168,-601.562,285.645,0.0,0
1581611157.55,-78.613,-972.6560000000001,-620.117,301.758,0.0,0
1581611157.554,-54.688,-972.168,-585.4490000000002,396.973,0.0,0
1581611157.5579998,8.301,-972.168,-666.992,445.801,0.0,0
1581611157.562,12.695,-972.168,-736.816,431.152,0.0,0
1581611157.565,-29.785,-972.168,-672.852,389.16,0.0,0
1581611157.569,-69.824,-972.168,-674.316,365.723,0.0,0
1581611157.573,-38.086,-973.633,-797.852,340.82,0.0,0
1581611157.5770001,2.441,-965.332,-741.699,319.824,0.0,0
1581611157.581,-43.945,-965.82,-597.656,264.16,0.0,0
1581611157.583,-87.402,-973.145,-720.703,190.43,0.0,0
1581611157.5870001,-29.785,-972.168,-772.949,194.824,0.0,0
1581611157.591,29.296999999999997,-973.145,-673.34,176.75799999999995,0.0,0
1581611157.595,-20.02,-960.449,-611.816,56.64100000000001,0.0,0
1581611157.599,-89.355,-959.961,-677.7339999999998,-17.578,0.0,0
1581611157.603,-53.223,-972.168,-838.3789999999997,-40.039,0.0,0
1581611157.607,25.391,-972.6560000000001,-912.1089999999999,-57.617,0.0,0
1581611157.61,2.93,-972.168,-764.648,-98.633,0.0,0
1581611157.6139998,-79.59,-972.6560000000001,-764.16,-141.602,0.0,0
1581611157.6179998,-85.93799999999996,-972.168,-895.9960000000003,-162.59799999999996,0.0,0
1581611157.6220002,-10.254000000000001,-972.168,-886.23,-236.328,0.0,0
1581611157.6260002,15.625,-973.145,-791.5039999999997,-270.508,0.0,0
1581611157.6279998,-49.805,-969.727,-840.82,-359.375,0.0,0
1581611157.6320002,-68.359,-976.074,-920.41,-425.293,0.0,0
1581611157.6360002,11.719000000000001,-963.867,-758.789,-419.92199999999997,0.0,0
1581611157.64,59.57,-910.645,-676.27,-494.629,0.0,0
1581611157.644,6.836,-939.453,-792.48,-550.293,0.0,0
1581611157.6479998,-50.293,-978.0269999999999,-936.035,-525.879,0.0,0
1581611157.6520002,-27.831999999999997,-970.215,-929.199,-457.52,0.0,0
1581611157.655,43.457,-972.168,-790.5269999999997,-372.07,0.0,0
1581611157.659,9.766,-972.6560000000001,-821.7769999999997,-333.496,0.0,0
1581611157.6629999,-42.48,-972.168,-894.043,-274.414,0.0,0
1581611157.667,-15.625,-972.168,-691.895,-218.262,0.0,0
1581611157.671,38.574,-972.168,-649.9019999999998,-208.984,0.0,0
1581611157.6729999,29.296999999999997,-972.168,-768.555,-282.2270000000001,0.0,0
1581611157.677,-52.246,-972.168,-888.672,-419.434,0.0,0
1581611157.681,-78.613,-972.168,-841.309,-405.76199999999994,0.0,0
1581611157.685,-9.277000000000001,-972.168,-756.836,-365.23400000000004,0.0,0
1581611157.689,23.926,-972.168,-812.5,-381.348,0.0,0
1581611157.6929998,-37.598,-972.6560000000001,-865.2339999999997,-385.254,0.0,0
1581611157.697,-61.035,-969.727,-910.1560000000001,-329.59,0.0,0
1581611157.7,-29.296999999999997,-976.074,-876.953,-160.156,0.0,0
1581611157.704,0.0,-962.4019999999999,-799.805,19.531,0.0,0
1581611157.708,-31.738000000000003,-922.852,-646.9730000000002,118.652,0.0,0
1581611157.7120001,-73.242,-945.801,-585.938,158.691,0.0,0
1581611157.716,-42.968999999999994,-978.5160000000001,-713.3789999999997,161.621,0.0,0
1581611157.718,19.043,-947.2660000000001,-742.676,138.184,0.0,0
1581611157.7220001,28.809,-926.758,-626.953,-61.523,0.0,0
1581611157.726,-29.296999999999997,-963.3789999999999,-693.3589999999997,-332.031,0.0,0
1581611157.73,-10.254000000000001,-974.6089999999999,-826.66,-624.512,0.0,0
1581611157.734,85.93799999999996,-971.191,-911.133,-915.5269999999999,0.0,0
1581611157.738,92.773,-972.6560000000001,-945.801,-976.562,0.0,0
1581611157.742,27.344,-971.68,-968.262,-964.8439999999999,0.0,0
1581611157.745,20.996,-972.6560000000001,-983.398,-972.6560000000001,0.0,0
1581611157.7489998,95.215,-973.145,-905.273,-968.75,0.0,0
1581611157.7529998,118.164,-955.566,-749.512,-968.262,0.0,0
1581611157.7570002,53.223,-959.961,-754.395,-867.188,0.0,0
1581611157.7610002,33.203,-984.863,-857.422,-634.766,0.0,0
1581611157.7629998,71.289,-922.363,-689.941,-313.4770000000001,0.0,0
1581611157.7670002,77.637,-868.164,-486.816,-106.934,0.0,0
1581611157.7710001,23.926,-937.012,-547.852,0.977,0.0,0
1581611157.775,-28.809,-974.6089999999999,-678.2230000000002,182.12900000000002,0.0,0
1581611157.779,7.324,-970.703,-645.02,281.738,0.0,0
1581611157.783,54.688,-972.168,-621.094,356.934,0.0,0
1581611157.7870002,8.301,-972.6560000000001,-690.918,354.004,0.0,0
1581611157.79,-55.176,-971.68,-754.395,328.61300000000006,0.0,0
1581611157.794,-36.133,-973.145,-668.457,411.621,0.0,0
1581611157.7979999,33.203,-971.191,-498.535,492.676,0.0,0
1581611157.802,31.25,-966.309,-564.453,550.293,0.0,0
1581611157.806,-20.02,-971.191,-683.105,512.207,0.0,0
1581611157.8079998,-26.366999999999997,-972.6560000000001,-608.398,491.211,0.0,0
1581611157.812,35.645,-971.191,-560.547,569.336,0.0,0
1581611157.816,64.941,-975.586,-622.559,535.156,0.0,0
1581611157.82,15.625,-952.637,-598.633,425.781,0.0,0
1581611157.824,-30.761999999999997,-954.59,-574.219,262.695,0.0,0
1581611157.8279998,9.766,-976.074,-684.57,132.32399999999998,0.0,0
1581611157.832,59.082,-971.191,-849.1210000000003,74.219,0.0,0
1581611157.835,20.996,-972.6560000000001,-836.426,-93.75,0.0,0
1581611157.839,-32.227,-972.6560000000001,-727.051,-238.77,0.0,0
1581611157.843,-19.531,-972.168,-760.2539999999997,-358.88699999999994,0.0,0
1581611157.8470001,60.059,-972.6560000000001,-832.52,-434.082,0.0,0
1581611157.851,50.293,-972.6560000000001,-836.426,-444.336,0.0,0
1581611157.853,-25.879,-969.238,-727.051,-494.14099999999996,0.0,0
1581611157.857,-21.484,-970.703,-810.059,-493.164,0.0,0
1581611157.861,35.645,-973.145,-880.8589999999997,-480.957,0.0,0
1581611157.865,23.926,-972.168,-802.2460000000003,-458.496,0.0,0
1581611157.869,-21.97300000000001,-973.145,-752.93,-398.43800000000016,0.0,0
1581611157.873,-29.296999999999997,-968.75,-876.953,-390.13699999999994,0.0,0
1581611157.877,20.996,-981.934,-937.988,-320.312,0.0,0
1581611157.88,52.733999999999995,-935.059,-729.98,-264.16,0.0,0
1581611157.8839998,2.93,-904.785,-598.145,-251.465,0.0,0
1581611157.8879998,-31.25,-964.8439999999999,-782.227,-172.363,0.0,0
1581611157.8920002,21.484,-990.2339999999999,-895.9960000000003,-96.191,0.0,0
1581611157.8960001,87.402,-875.0,-576.172,17.578,0.0,0
1581611157.9129999,63.477,-860.84,-512.695,-41.504,0.0,0
1581611157.917,1.953,-981.445,-785.1560000000003,-146.97299999999996,0.0,0
1581611157.921,19.531,-972.168,-799.316,-107.91,0.0,0
1581611157.925,101.074,-969.727,-656.25,-108.398,0.0,0
1581611157.929,92.773,-973.145,-587.4019999999998,-109.863,0.0,0
1581611157.9329998,16.113,-972.168,-823.242,-135.74200000000002,0.0,0
1581611157.937,10.254000000000001,-972.168,-916.0160000000001,-81.055,0.0,0
1581611157.94,67.87100000000001,-972.6560000000001,-651.855,130.859,0.0,0
1581611157.944,84.473,-972.168,-517.578,353.51599999999996,0.0,0
1581611157.948,-0.488,-972.6560000000001,-587.4019999999998,584.4730000000002,0.0,0
1581611157.9520001,-28.809,-972.6560000000001,-561.523,769.043,0.0,0
1581611157.956,53.223,-963.3789999999999,-405.273,925.7810000000001,0.0,0
1581611157.958,70.801,-967.285,-425.781,-997.559,0.0,0
1581611157.9620001,11.719000000000001,-974.1210000000001,-517.578,916.0160000000001,0.0,0
1581611157.966,-18.066,-971.68,-576.66,773.926,0.0,0
1581611157.97,47.363,-972.6560000000001,-603.516,606.934,0.0,0
1581611157.974,128.906,-972.6560000000001,-698.73,489.25800000000004,0.0,0
1581611157.978,109.863,-972.168,-753.9060000000003,387.695,0.0,0
1581611157.982,45.41,-972.6560000000001,-820.312,255.37099999999998,0.0,0
1581611157.985,66.406,-972.168,-752.93,225.58599999999998,0.0,0
1581611157.9889998,124.512,-972.168,-666.0160000000002,210.449,0.0,0
1581611157.9929998,106.934,-972.168,-797.852,193.84799999999998,0.0,0
1581611157.9970002,42.48,-972.168,-726.074,242.676,0.0,0
1581611158.0010002,25.879,-972.168,-629.883,303.223,0.0,0
1581611158.0029998,86.426,-972.168,-723.633,398.43800000000016,0.0,0
1581611158.0070002,100.098,-972.168,-777.832,416.504,0.0,0
1581611158.0110002,31.738000000000003,-972.6560000000001,-664.062,422.36300000000006,0.0,0
1581611158.015,-5.371,-972.168,-609.863,498.535,0.0,0
1581611158.019,49.805,-972.6560000000001,-624.023,520.508,0.0,0
1581611158.0229998,80.566,-972.6560000000001,-706.543,517.578,0.0,0
1581611158.0270002,25.879,-972.6560000000001,-782.227,427.73400000000004,0.0,0
1581611158.03,-22.461,-969.238,-792.48,402.344,0.0,0
1581611158.034,15.625,-978.5160000000001,-841.797,489.25800000000004,0.0,0
1581611158.0379999,71.289,-952.637,-766.602,558.594,0.0,0
1581611158.042,50.78100000000001,-896.4839999999997,-514.648,625.0,0.0,0
1581611158.046,-1.953,-939.941,-560.059,622.559,0.0,0
1581611158.0470002,7.324,-976.562,-702.148,679.688,0.0,0
1581611158.051,81.543,-970.215,-699.707,763.184,0.0,0
1581611158.055,91.309,-972.168,-567.871,784.668,0.0,0
1581611158.059,27.344,-972.6560000000001,-601.562,783.691,0.0,0
1581611158.063,22.949,-972.168,-716.797,765.625,0.0,0
1581611158.0670002,75.195,-972.168,-696.289,807.617,0.0,0
1581611158.071,76.172,-972.168,-687.012,854.0039999999997,0.0,0
1581611158.074,30.273000000000003,-972.6560000000001,-723.145,830.078,0.0,0
1581611158.0779998,1.953,-971.68,-765.625,851.074,0.0,0
1581611158.082,40.527,-974.1210000000001,-722.6560000000003,888.184,0.0,0
1581611158.086,98.145,-968.262,-586.4259999999998,962.4019999999999,0.0,0
1581611158.09,56.152,-958.9839999999999,-644.531,993.164,0.0,0
1581611158.093,4.883,-971.191,-793.945,981.934,0.0,0
1581611158.0970001,46.387,-974.1210000000001,-633.3009999999998,999.023,0.0,0
1581611158.101,103.027,-966.309,-538.5740000000002,999.512,0.0,0
1581611158.105,55.663999999999994,-968.75,-649.414,999.023,0.0,0
1581611158.109,-2.441,-973.633,-731.445,999.023,0.0,0
1581611158.113,37.109,-972.168,-759.2769999999997,997.559,0.0,0
1581611158.117,77.637,-972.6560000000001,-723.633,-996.0939999999999,0.0,0
1581611158.12,83.984,-972.6560000000001,-776.855,970.703,0.0,0
1581611158.1239998,37.598,-972.6560000000001,-824.2189999999997,930.176,0.0,0
1581611158.1279998,27.831999999999997,-972.6560000000001,-685.059,921.387,0.0,0
1581611158.1320002,76.66,-972.168,-647.9490000000002,883.789,0.0,0
1581611158.1360002,98.633,-971.68,-712.8910000000003,834.961,0.0,0
1581611158.137,61.523,-972.168,-821.289,695.801,0.0,0
1581611158.141,33.691,-973.633,-822.2660000000003,606.445,0.0,0
1581611158.145,55.176,-957.0310000000001,-698.242,603.0269999999998,0.0,0
1581611158.149,97.16799999999999,-962.8910000000001,-698.242,549.805,0.0,0
1581611158.1529999,70.312,-960.938,-689.941,471.68,0.0,0
1581611158.157,6.348,-961.914,-820.801,370.605,0.0,0
1581611158.161,26.855,-975.586,-988.77,366.211,0.0,0
1581611158.164,82.031,-972.168,-910.1560000000001,437.98800000000006,0.0,0
1581611158.168,84.473,-939.941,-732.422,464.355,0.0,0
1581611158.1720002,17.578,-921.875,-637.695,472.656,0.0,0
1581611158.176,3.906,-952.148,-772.949,482.42199999999997,0.0,0
1581611158.18,79.59,-971.68,-866.211,559.57,0.0,0
1581611158.1820002,95.215,-955.566,-674.316,640.137,0.0,0
1581611158.186,16.113,-941.895,-600.0980000000002,661.6210000000002,0.0,0
1581611158.19,-17.578,-956.055,-684.57,726.562,0.0,0
1581611158.194,34.18,-973.145,-786.6210000000003,770.9960000000003,0.0,0
1581611158.198,81.543,-972.6560000000001,-709.4730000000003,832.0310000000003,0.0,0
1581611158.2020001,25.391,-971.191,-711.914,858.887,0.0,0
1581611158.206,-32.227,-970.215,-925.7810000000001,874.512,0.0,0
1581611158.2089999,23.438000000000002,-979.492,-833.4960000000003,961.914,0.0,0
1581611158.2129998,87.891,-930.664,-537.109,-997.07,0.0,0
1581611158.217,50.293,-905.273,-505.85900000000004,997.07,0.0,0
1581611158.221,-27.344,-965.82,-706.055,999.023,0.0,0
1581611158.225,-12.207,-975.0980000000001,-717.773,999.512,0.0,0
1581611158.2270002,50.293,-970.215,-601.0740000000002,999.512,0.0,0
1581611158.231,37.598,-972.6560000000001,-624.023,999.512,0.0,0
1581611158.235,-39.551,-972.168,-709.961,999.512,0.0,0
1581611158.2389998,-44.434,-972.168,-705.566,999.512,0.0,0
1581611158.2429998,36.133,-972.168,-625.488,999.512,0.0,0
1581611158.2470002,61.035,-972.6560000000001,-713.867,999.512,0.0,0
1581611158.2510002,-3.906,-970.215,-937.5,999.512,0.0,0
1581611158.254,-31.738000000000003,-979.492,-843.262,999.512,0.0,0
1581611158.258,14.648,-942.8710000000001,-583.496,999.512,0.0,0
1581611158.262,46.875,-927.7339999999999,-661.6210000000002,999.512,0.0,0
1581611158.266,12.207,-974.1210000000001,-806.6410000000003,999.512,0.0,0
1581611158.27,-21.97300000000001,-973.633,-727.539,-1000.0,0.0,0
1581611158.2870002,7.812,-971.191,-700.195,995.605,0.0,0
1581611158.2910001,70.312,-972.6560000000001,-725.586,-998.535,0.0,0
1581611158.295,47.363,-972.6560000000001,-727.539,973.145,0.0,0
1581611158.299,-15.625,-972.168,-707.52,835.449,0.0,0
1581611158.303,1.465,-972.168,-754.395,685.059,0.0,0
1581611158.3070002,49.316,-972.168,-876.953,663.574,0.0,0
1581611158.311,43.457,-972.168,-924.805,588.867,0.0,0
1581611158.314,-0.488,-972.6560000000001,-850.586,441.895,0.0,1
1581611158.3179998,-2.441,-972.168,-783.691,377.93,0.0,0
1581611158.322,53.223,-972.6560000000001,-902.3439999999999,327.14799999999997,0.0,0
1581611158.326,79.102,-972.168,-895.02,372.559,0.0,0
1581611158.33,29.785,-970.703,-732.422,400.39099999999996,0.0,0
1581611158.332,-16.602,-971.191,-817.8710000000003,305.176,0.0,0
1581611158.336,19.531,-975.586,-933.5939999999999,181.641,0.0,0
1581611158.34,75.195,-963.867,-862.793,100.586,0.0,0
1581611158.3439999,17.578,-958.008,-791.5039999999997,57.617,0.0,0
1581611158.3479998,-43.945,-973.145,-860.84,-9.766,0.0,0
1581611158.3520002,-7.324,-972.6560000000001,-952.148,0.977,0.0,0
1581611158.356,52.246,-972.168,-987.793,53.71100000000001,0.0,0
1581611158.359,62.5,-971.68,-935.059,97.16799999999999,0.0,0
1581611158.363,-10.742,-970.703,-894.5310000000003,248.535,0.0,0
1581611158.367,-26.855,-978.0269999999999,-916.5039999999999,433.105,0.0,0
1581611158.371,35.156,-929.688,-710.449,672.363,0.0,0
1581611158.375,38.574,-888.672,-529.785,820.801,0.0,0
1581611158.377,-26.855,-942.8710000000001,-709.4730000000003,865.2339999999997,0.0,0
1581611158.381,-35.156,-982.91,-826.66,944.824,0.0,0
1581611158.385,39.551,-938.965,-611.328,906.738,0.0,0
1581611158.389,88.37899999999998,-835.449,-496.582,780.762,0.0,0
1581611158.393,56.152,-893.066,-668.945,478.027,0.0,0
1581611158.397,14.16,-983.887,-936.523,92.773,0.0,0
1581611158.401,69.824,-969.238,-981.934,-123.535,0.0,0
1581611158.404,138.672,-971.191,-905.273,-300.781,0.0,0
1581611158.408,96.68,-972.168,-908.691,-504.395,0.0,0
1581611158.4120002,48.34,-971.68,-983.398,-701.172,0.0,0
1581611158.4160001,89.844,-977.539,-964.355,-708.4960000000003,0.0,0
1581611158.42,147.461,-941.4060000000001,-846.191,-548.828,0.0,0
1581611158.4220002,117.676,-944.824,-895.02,-499.51199999999994,0.0,0
1581611158.426,40.527,-978.0269999999999,-944.824,-429.68800000000016,0.0,0
1581611158.43,48.34,-970.703,-818.8480000000003,-336.914,0.0,0
1581611158.434,104.98,-972.6560000000001,-916.5039999999999,-223.145,0.0,0
1581611158.438,94.727,-972.168,-909.18,-41.504,0.0,0
1581611158.4420002,32.715,-972.6560000000001,-854.492,29.296999999999997,0.0,0
1581611158.446,-0.977,-972.168,-916.992,84.473,0.0,0
1581611158.449,52.733999999999995,-971.191,-858.398,128.418,0.0,0
1581611158.4529998,80.566,-974.1210000000001,-877.441,152.832,0.0,0
1581611158.457,24.414,-954.102,-761.23,214.355,0.0,0
1581611158.461,-7.324,-900.3910000000003,-609.375,214.355,0.0,0
1581611158.465,17.578,-926.758,-752.441,253.90599999999998,0.0,0
1581611158.467,79.59,-953.613,-827.637,251.953,0.0,0
1581611158.471,69.336,-919.922,-661.133,183.105,0.0,0
1581611158.475,5.371,-961.914,-686.523,193.84799999999998,0.0,0
1581611158.4789999,11.23,-976.562,-792.48,175.78099999999995,0.0,0
1581611158.4829998,89.844,-969.238,-785.1560000000003,152.832,0.0,0
1581611158.4870002,98.145,-971.68,-758.789,70.801,0.0,0
1581611158.4910002,8.789,-970.703,-872.559,-79.102,0.0,0
1581611158.494,-1.953,-976.562,-962.4019999999999,-170.898,0.0,0
1581611158.498,63.965,-949.707,-883.301,-290.039,0.0,0
1581611158.502,85.93799999999996,-898.438,-738.2810000000003,-426.75800000000004,0.0,0
1581611158.506,26.855,-923.34,-803.2230000000003,-670.41,0.0,0
1581611158.51,-1.953,-971.68,-947.2660000000001,-861.816,0.0,0
1581611158.512,71.777,-974.1210000000001,-978.5160000000001,-889.648,0.0,0
1581611158.516,95.70299999999999,-967.773,-887.207,-938.477,0.0,0
1581611158.52,32.715,-963.3789999999999,-874.023,-973.633,0.0,0
1581611158.524,-15.137,-971.68,-973.633,-971.68,0.0,0
1581611158.5279999,10.254000000000001,-973.145,-951.66,-971.68,0.0,0
1581611158.532,66.406,-971.68,-936.035,-972.168,0.0,0
1581611158.536,44.434,-972.6560000000001,-972.168,-971.68,0.0,0
1581611158.539,-15.625,-972.168,-972.6560000000001,-968.75,0.0,0
1581611158.543,7.324,-972.6560000000001,-916.5039999999999,-965.82,0.0,0
1581611158.5470002,71.777,-972.168,-826.66,-865.2339999999997,0.0,0
1581611158.551,79.102,-972.168,-854.98,-737.305,0.0,0
1581611158.555,16.113,-968.262,-902.3439999999999,-707.52,0.0,0
1581611158.5579998,-1.953,-978.5160000000001,-811.035,-645.02,0.0,0
1581611158.562,61.523,-953.125,-692.383,-598.633,0.0,0
1581611158.566,87.402,-931.6410000000001,-711.914,-620.117,0.0,0
1581611158.57,52.246,-972.6560000000001,-791.0160000000003,-643.066,0.0,0
1581611158.574,18.066,-974.1210000000001,-753.418,-683.5939999999998,0.0,0
1581611158.5779998,64.941,-970.703,-811.035,-684.57,0.0,0
1581611158.582,99.12100000000001,-972.6560000000001,-916.992,-676.758,0.0,0
1581611158.585,45.898,-972.6560000000001,-893.066,-711.426,0.0,0
1581611158.589,-14.648,-972.6560000000001,-749.023,-628.906,0.0,0
1581611158.593,4.883,-972.168,-671.387,-443.35900000000004,0.0,0
1581611158.5970001,54.199,-972.168,-713.3789999999997,-158.691,0.0,0
1581611158.601,32.715,-972.6560000000001,-692.8710000000003,54.688,0.0,0
1581611158.603,-18.555,-970.215,-621.582,191.895,0.0,0
1581611158.607,-25.879,-974.1210000000001,-613.77,333.9840000000001,0.0,0
1581611158.611,32.227,-970.703,-584.4730000000002,369.14099999999996,0.0,0
1581611158.615,41.01600000000001,-909.18,-521.484,292.48,0.0,0
1581611158.619,-33.203,-904.785,-517.578,76.66,0.0,0
1581611158.623,-30.761999999999997,-960.449,-727.051,-68.359,0.0,0
1581611158.627,54.199,-974.1210000000001,-908.691,-155.762,0.0,0
1581611158.63,103.027,-968.262,-784.668,-333.9840000000001,0.0,0
1581611158.6339998,51.758,-970.215,-741.211,-564.941,0.0,0
1581611158.6379998,13.672,-972.168,-891.113,-812.5,0.0,0
1581611158.6420002,42.968999999999994,-973.633,-966.797,-955.566,0.0,0
1581611158.6460001,90.33200000000001,-968.75,-862.793,-968.262,0.0,0
1581611158.6629999,68.848,-963.867,-807.1289999999997,-970.703,0.0,0
1581611158.667,-5.859,-972.168,-905.273,-972.168,0.0,0
1581611158.671,8.789,-972.6560000000001,-985.84,-972.6560000000001,0.0,0
1581611158.675,77.148,-972.168,-943.3589999999999,-972.168,0.0,0
1581611158.679,66.895,-972.6560000000001,-869.6289999999997,-972.168,0.0,0
1581611158.6829998,-11.23,-970.215,-936.523,-972.6560000000001,0.0,0
1581611158.687,-19.531,-974.6089999999999,-947.2660000000001,-972.6560000000001,0.0,0
1581611158.69,65.43,-970.703,-827.148,-972.168,0.0,0
1581611158.694,91.79700000000001,-897.949,-680.664,-972.168,0.0,0
1581611158.698,16.602,-922.852,-816.4060000000003,-972.168,0.0,0
1581611158.7020001,-25.391,-982.422,-928.711,-972.6560000000001,0.0,0
1581611158.706,20.02,-969.238,-781.738,-972.168,0.0,0
1581611158.708,60.547,-972.168,-763.184,-972.168,0.0,0
1581611158.7120001,17.09,-972.6560000000001,-900.8789999999999,-972.6560000000001,0.0,0
1581611158.716,-20.02,-972.168,-885.742,-972.168,0.0,0
1581611158.72,25.391,-972.168,-767.09,-972.168,0.0,0
1581611158.724,81.055,-972.168,-769.5310000000003,-972.6560000000001,0.0,0
1581611158.728,56.152,-972.6560000000001,-916.5039999999999,-972.168,0.0,0
1581611158.732,-0.488,-972.6560000000001,-957.0310000000001,-972.168,0.0,0
1581611158.735,8.789,-972.168,-878.9060000000003,-972.6560000000001,0.0,0
1581611158.7389998,74.219,-972.6560000000001,-938.477,-972.6560000000001,0.0,0
1581611158.7429998,48.828,-972.6560000000001,-902.3439999999999,-971.68,0.0,0
1581611158.7470002,-18.066,-972.168,-789.062,-970.703,0.0,0
1581611158.7510002,4.395,-972.168,-745.605,-974.6089999999999,0.0,0
1581611158.7529998,62.5,-971.68,-828.613,-921.387,0.0,0
1581611158.7570002,69.824,-973.633,-863.2810000000003,-861.328,0.0,0
1581611158.7610002,10.254000000000001,-967.285,-686.035,-861.328,0.0,0
1581611158.765,-14.16,-961.426,-653.32,-879.395,0.0,0
1581611158.769,21.97300000000001,-971.191,-752.441,-841.309,0.0,0
1581611158.7729998,54.199,-973.145,-843.75,-783.691,0.0,0
1581611158.7770002,11.719000000000001,-972.168,-851.562,-791.5039999999997,0.0,0
1581611158.78,-40.039,-972.168,-776.367,-761.7189999999997,0.0,0
1581611158.784,-15.625,-971.68,-859.863,-729.98,0.0,0
1581611158.7879999,70.801,-976.074,-851.562,-672.852,0.0,0
1581611158.792,65.43,-940.918,-616.211,-611.328,0.0,0
1581611158.796,-13.184000000000001,-936.035,-617.188,-605.957,0.0,0
1581611158.7979999,0.488,-974.1210000000001,-809.57,-570.8009999999998,0.0,0
1581611158.802,68.359,-973.145,-781.25,-531.738,0.0,0
1581611158.806,73.73,-971.191,-610.84,-503.418,0.0,0
1581611158.81,8.301,-969.727,-650.391,-485.84,0.0,0
1581611158.814,-22.461,-971.68,-740.7230000000003,-458.00800000000004,0.0,0
1581611158.8179998,22.949,-972.6560000000001,-762.207,-400.39099999999996,0.0,0
1581611158.822,60.059,-972.168,-783.203,-394.531,0.0,0
1581611158.825,3.418,-972.168,-819.336,-398.43800000000016,0.0,0
1581611158.829,-42.48,-973.145,-885.742,-377.93,0.0,0
1581611158.833,27.344,-970.215,-732.91,-336.426,0.0,0
1581611158.8370001,74.707,-967.773,-576.172,-295.89799999999997,0.0,0
1581611158.841,23.926,-972.6560000000001,-776.367,-308.105,0.0,0
1581611158.843,-29.296999999999997,-972.6560000000001,-944.824,-257.812,0.0,0
1581611158.8470001,-7.324,-972.168,-750.488,-140.137,0.0,0
1581611158.851,55.176,-972.6560000000001,-558.594,-37.109,0.0,0
1581611158.855,32.715,-972.6560000000001,-627.93,13.184000000000001,0.0,0
1581611158.859,-32.227,-972.168,-690.43,38.086,0.0,0
1581611158.863,-35.645,-972.6560000000001,-741.699,143.066,0.0,0
1581611158.867,49.805,-972.168,-644.531,306.64099999999996,0.0,0
1581611158.87,57.129,-972.168,-683.5939999999998,393.066,0.0,0
1581611158.8739998,-49.805,-972.168,-729.98,450.684,0.0,0
1581611158.8779998,-55.176,-972.168,-545.41,543.945,0.0,0
1581611158.8820002,12.207,-972.6560000000001,-507.81199999999995,660.645,0.0,0
1581611158.8860002,28.32,-972.168,-603.516,740.2339999999997,0.0,0
1581611158.8879998,-13.184000000000001,-972.168,-682.1289999999998,715.332,0.0,0
1581611158.8920002,-44.922,-972.168,-581.543,719.727,0.0,0
1581611158.8960001,-16.602,-972.6560000000001,-588.379,744.1410000000003,0.0,0
1581611158.9,23.926,-972.6560000000001,-613.281,780.273,0.0,0
1581611158.904,-2.441,-968.75,-547.852,776.855,0.0,0
1581611158.908,-63.965,-970.703,-611.816,762.207,0.0,0
1581611158.9120002,-56.64100000000001,-972.168,-713.3789999999997,815.918,0.0,0
1581611158.915,12.207,-976.074,-756.836,833.9839999999997,0.0,0
1581611158.919,11.23,-951.172,-583.984,865.7230000000003,0.0,0
1581611158.9229999,-42.48,-946.289,-511.23,897.461,0.0,0
1581611158.927,-58.593999999999994,-975.0980000000001,-700.684,920.898,0.0,0
1581611158.931,-14.648,-969.238,-734.863,975.586,0.0,0
1581611158.9329998,8.301,-932.1289999999999,-530.762,-998.535,0.0,0
1581611158.937,-46.875,-872.559,-455.566,997.559,0.0,0
1581611158.941,-72.266,-918.945,-580.566,999.023,0.0,0
1581611158.945,-19.531,-958.9839999999999,-624.512,999.512,0.0,0
1581611158.949,21.97300000000001,-909.668,-524.9019999999998,999.023,0.0,0
1581611158.9529998,-32.715,-952.637,-625.0,998.535,0.0,0
1581611158.957,-78.613,-979.98,-870.117,-1000.0,0.0,0
1581611158.96,-18.066,-968.75,-869.1410000000003,994.1410000000001,0.0,0
1581611158.964,37.109,-918.945,-575.684,-993.164,0.0,0
1581611158.968,5.371,-932.1289999999999,-562.5,973.145,0.0,0
1581611158.9720001,-53.71100000000001,-975.586,-767.578,857.422,0.0,0
1581611158.976,-40.527,-976.562,-785.645,837.8910000000003,0.0,0
1581611158.978,42.968999999999994,-955.078,-606.445,879.883,0.0,0
1581611158.982,51.27,-925.293,-579.59,890.625,0.0,0
1581611158.986,-34.668,-966.309,-738.77,868.6519999999997,0.0,0
1581611158.99,-50.78100000000001,-976.074,-697.7539999999997,895.9960000000003,0.0,0
1581611158.994,13.672,-968.75,-568.8480000000002,968.75,0.0,0
1581611158.998,31.738000000000003,-972.168,-712.4019999999997,959.961,0.0,0
1581611159.002,-28.32,-972.6560000000001,-930.664,884.2769999999997,0.0,0
1581611159.005,-60.059,-972.168,-793.457,815.43,0.0,0
1581611159.0089998,-1.953,-972.6560000000001,-681.1519999999998,761.23,0.0,0
1581611159.0129998,45.41,-972.168,-803.711,773.438,0.0,0
1581611159.0170002,-24.414,-973.145,-840.332,778.809,0.0,0
1581611159.0210001,-75.195,-968.75,-682.617,897.461,0.0,0
1581611159.0379999,-36.621,-968.262,-580.078,-991.699,0.0,0
1581611159.042,19.531,-972.6560000000001,-695.801,995.605,0.0,0
1581611159.046,-0.977,-969.727,-728.0269999999997,997.559,0.0,0
1581611159.05,-53.223,-970.703,-634.766,-1000.0,0.0,0
1581611159.054,-47.363,-955.566,-614.258,999.512,0.0,0
1581611159.0579998,8.789,-962.8910000000001,-730.4689999999997,999.512,0.0,0
1581611159.062,28.809,-975.0980000000001,-842.773,-999.512,0.0,0
1581611159.065,-21.484,-972.6560000000001,-788.574,994.1410000000001,0.0,0
1581611159.069,-5.859,-964.355,-642.09,-999.512,0.0,0
1581611159.073,61.523,-970.215,-741.699,966.309,0.0,0
1581611159.0770001,89.355,-956.543,-765.137,746.0939999999997,0.0,0
1581611159.081,49.805,-944.336,-744.6289999999997,501.465,0.0,0
1581611159.083,5.859,-972.168,-887.207,449.707,0.0,0
1581611159.0870001,62.012,-976.074,-904.785,455.07800000000003,0.0,0
1581611159.091,131.836,-960.449,-813.477,521.484,0.0,0
1581611159.095,92.285,-936.523,-670.898,562.012,0.0,0
1581611159.099,31.738000000000003,-956.055,-749.023,612.305,0.0,0
1581611159.103,32.715,-974.1210000000001,-860.352,833.9839999999997,0.0,0
1581611159.107,72.75399999999998,-971.68,-836.426,984.863,0.0,0
1581611159.11,54.688,-972.168,-697.2660000000003,998.047,0.0,0
1581611159.1139998,-19.043,-969.727,-681.6410000000002,995.605,0.0,0
1581611159.1179998,-37.598,-979.98,-848.633,-1000.0,0.0,0
1581611159.1220002,1.465,-935.547,-703.613,999.512,0.0,0
1581611159.1260002,14.648,-890.137,-548.34,999.512,0.0,0
1581611159.127,-43.945,-938.965,-728.5160000000003,999.512,0.0,0
1581611159.131,-84.473,-972.6560000000001,-914.062,999.512,0.0,0
1581611159.135,-31.738000000000003,-975.586,-802.2460000000003,999.512,0.0,0
1581611159.139,6.348,-951.172,-654.785,999.512,0.0,0
1581611159.143,-44.434,-948.73,-729.0039999999997,999.512,0.0,0
1581611159.147,-90.82,-973.145,-855.4689999999997,999.512,0.0,0
1581611159.151,-46.387,-977.051,-863.2810000000003,999.512,0.0,0
1581611159.154,12.207,-948.73,-709.4730000000003,999.512,0.0,0
1581611159.158,-7.324,-939.941,-778.809,999.023,0.0,0
1581611159.1620002,-49.316,-979.0039999999999,-915.5269999999999,992.676,0.0,0
1581611159.1660001,-29.785,-965.82,-695.312,-991.211,0.0,0
1581611159.17,16.113,-866.211,-576.172,901.855,0.0,0
1581611159.1720002,-7.324,-906.25,-772.949,686.523,0.0,0
1581611159.176,-75.195,-986.328,-893.555,579.59,0.0,0
1581611159.18,-73.242,-968.75,-826.172,487.793,0.0,0
1581611159.184,-6.348,-965.82,-823.73,435.54699999999997,0.0,0
1581611159.188,29.296999999999997,-968.262,-845.703,328.61300000000006,0.0,0
1581611159.1920002,-42.48,-974.1210000000001,-940.43,174.805,0.0,0
1581611159.196,-85.93799999999996,-971.191,-972.168,149.414,0.0,0
1581611159.199,-30.273000000000003,-971.191,-973.145,127.93,0.0,0
1581611159.2029998,21.97300000000001,-975.586,-960.449,86.914,0.0,0
1581611159.207,-13.672,-931.6410000000001,-879.395,-34.18,0.0,0
1581611159.211,-66.895,-893.555,-829.59,-110.352,0.0,0
1581611159.215,-50.293,-948.242,-909.668,-81.543,0.0,0
1581611159.217,18.555,-969.727,-947.7539999999999,-90.33200000000001,0.0,0
1581611159.221,11.23,-946.289,-881.836,-98.633,0.0,0
1581611159.225,-67.87100000000001,-965.82,-891.113,-147.461,0.0,0
1581611159.2289999,-61.523,-975.586,-958.4960000000001,-163.57399999999996,0.0,0
1581611159.2329998,12.695,-962.4019999999999,-908.691,-76.66,0.0,0
1581611159.2370002,29.296999999999997,-967.773,-872.559,-85.449,0.0,0
1581611159.2410002,-46.875,-971.68,-945.312,-147.461,0.0,0
1581611159.244,-58.105,-971.191,-965.332,-246.09400000000002,0.0,0
1581611159.248,16.602,-969.727,-950.195,-351.56199999999984,0.0,0
1581611159.252,46.875,-876.953,-803.711,-384.76599999999996,0.0,0
1581611159.256,-13.672,-822.7539999999997,-726.562,-519.531,0.0,0
1581611159.26,-50.78100000000001,-933.105,-887.207,-639.16,0.0,0
1581611159.262,-2.93,-986.816,-998.535,-699.707,0.0,0
1581611159.266,31.738000000000003,-945.312,-907.715,-732.91,0.0,0
1581611159.27,1.465,-943.3589999999999,-875.977,-718.262,0.0,0
1581611159.274,-39.551,-975.0980000000001,-968.262,-664.551,0.0,0
1581611159.2779999,-38.574,-972.6560000000001,-882.812,-475.586,0.0,0
1581611159.282,10.742,-971.68,-843.75,-338.379,0.0,0
1581611159.286,0.488,-971.191,-927.7339999999999,-233.887,0.0,0
1581611159.289,-57.617,-969.727,-930.176,-123.535,0.0,0
1581611159.293,-45.898,-982.91,-828.613,-93.262,0.0,0
1581611159.2970002,-1.465,-888.184,-642.09,-63.477,0.0,0
1581611159.301,-9.766,-874.023,-687.5,-181.641,0.0,0
1581611159.305,-38.574,-977.051,-944.336,-340.332,0.0,0
1581611159.3070002,-23.926,-976.562,-907.227,-410.156,0.0,0
1581611159.311,43.457,-955.566,-763.672,-482.42199999999997,0.0,0
1581611159.315,65.43,-948.73,-789.551,-560.059,0.0,0
1581611159.319,-0.977,-973.145,-828.125,-700.684,0.0,0
1581611159.323,-41.504,-973.145,-838.3789999999997,-750.488,0.0,0
1581611159.3270001,20.996,-971.191,-925.7810000000001,-665.039,0.0,0
1581611159.331,59.082,-972.6560000000001,-958.9839999999999,-578.613,0.0,0
1581611159.3339999,20.02,-971.68,-908.691,-519.531,0.0,2
1581611159.3379998,-20.02,-974.6089999999999,-780.762,-499.023,0.0,0
1581611159.342,0.977,-965.82,-715.332,-432.61699999999996,0.0,0
1581611159.346,39.551,-959.961,-789.551,-362.305,0.0,0
1581611159.35,9.277000000000001,-973.145,-841.309,-419.92199999999997,0.0,0
1581611159.367,-50.293,-972.6560000000001,-756.3480000000003,-471.68,0.0,0
1581611159.371,-58.105,-969.727,-799.316,-511.23,0.0,0
1581611159.375,4.883,-979.98,-864.258,-480.469,0.0,0
1581611159.379,33.203,-934.57,-721.68,-415.527,0.0,0
1581611159.383,-32.227,-922.363,-654.785,-409.18,0.0,0
1581611159.387,-58.105,-968.75,-827.148,-365.23400000000004,0.0,0
1581611159.391,19.043,-987.305,-950.195,-339.355,0.0,0
1581611159.394,63.965,-901.855,-714.355,-252.93,0.0,0
1581611159.3979998,7.324,-841.797,-532.715,-199.21900000000002,0.0,0
1581611159.4020002,-50.78100000000001,-946.7769999999999,-714.355,-238.28099999999998,0.0,0
1581611159.4060001,-8.789,-977.539,-854.0039999999997,-223.63299999999998,0.0,0
1581611159.41,66.406,-969.727,-747.07,-243.65200000000002,0.0,0
1581611159.427,12.207,-968.262,-646.9730000000002,-258.789,0.0,0
1581611159.431,-61.035,-967.773,-797.363,-273.926,0.0,0
1581611159.435,-25.879,-977.539,-868.164,-300.781,0.0,0
1581611159.439,32.227,-962.4019999999999,-696.7769999999997,-282.715,0.0,0
1581611159.4429998,15.625,-926.27,-622.559,-343.26199999999994,0.0,0
1581611159.447,-32.227,-958.008,-808.105,-447.754,0.0,0
1581611159.451,-50.78100000000001,-977.051,-979.98,-490.723,0.0,0
1581611159.454,13.672,-974.6089999999999,-869.6289999999997,-517.09,0.0,0
1581611159.458,53.223,-938.477,-698.73,-567.871,0.0,0
1581611159.4620001,-11.719000000000001,-943.3589999999999,-829.102,-701.172,0.0,0
1581611159.466,-42.48,-979.0039999999999,-953.125,-744.1410000000003,0.0,0
1581611159.47,21.97300000000001,-971.68,-798.828,-686.523,0.0,0
1581611159.457,70.801,-960.449,-721.191,-697.2660000000003,0.0,0
1581611159.461,8.789,-965.332,-869.1410000000003,-755.3710000000003,0.0,0
1581611159.465,-37.598,-974.6089999999999,-951.172,-798.34,0.0,0
1581611159.4689999,3.418,-971.68,-834.961,-773.926,0.0,0
1581611159.4729998,58.593999999999994,-972.6560000000001,-784.668,-730.957,0.0,0
1581611159.4770002,42.48,-972.168,-900.8789999999999,-751.465,0.0,0
1581611159.481,-17.578,-972.168,-973.145,-782.715,0.0,0
1581611159.484,-8.789,-972.168,-962.4019999999999,-798.828,0.0,0
1581611159.488,47.852,-973.145,-968.75,-737.305,0.0,0
1581611159.492,54.688,-969.238,-854.98,-702.148,0.0,0
1581611159.496,-5.859,-972.168,-753.9060000000003,-750.977,0.0,0
1581611159.5,-34.668,-965.82,-692.383,-729.98,0.0,0
1581611159.502,24.414,-953.125,-762.695,-708.008,0.0,0
1581611159.506,62.5,-971.191,-900.3910000000003,-686.523,0.0,0
1581611159.51,7.812,-973.633,-793.945,-671.387,0.0,0
1581611159.514,-33.691,-971.191,-709.4730000000003,-655.762,0.0,0
1581611159.518,20.508000000000006,-972.6560000000001,-805.664,-606.445,0.0,0
1581611159.522,55.176,-972.168,-948.73,-593.75,0.0,0
1581611159.526,1.465,-972.6560000000001,-900.8789999999999,-587.4019999999998,0.0,0
1581611159.529,-44.434,-971.191,-794.922,-527.344,0.0,0
1581611159.533,-25.391,-974.6089999999999,-876.465,-425.781,0.0,0
1581611159.5370002,31.25,-967.773,-825.684,-275.39099999999996,0.0,0
1581611159.5410001,23.438000000000002,-954.59,-630.371,-166.016,0.0,0
1581611159.545,-45.898,-967.773,-694.336,-95.215,0.0,0
1581611159.5479999,-51.758,-980.4689999999999,-729.492,48.828,0.0,0
1581611159.552,14.16,-945.312,-604.004,184.082,0.0,0
1581611159.556,7.812,-915.5269999999999,-471.68,250.0,0.0,0
1581611159.56,-64.453,-958.008,-556.1519999999998,270.02,0.0,0
1581611159.564,-64.941,-974.1210000000001,-632.3240000000002,369.14099999999996,0.0,0
1581611159.5679998,-13.184000000000001,-970.703,-636.719,498.535,0.0,0
1581611159.572,9.766,-972.168,-628.906,574.707,0.0,0
1581611159.575,-33.203,-972.168,-590.82,624.023,0.0,0
1581611159.579,-60.059,-969.238,-693.8480000000003,624.023,0.0,0
1581611159.583,-1.465,-983.398,-650.391,666.5039999999998,0.0,0
1581611159.5870001,42.968999999999994,-917.9689999999999,-421.875,725.586,0.0,0
1581611159.591,-22.949,-905.273,-528.32,652.832,0.0,0
1581611159.593,-97.656,-976.562,-736.816,597.656,0.0,0
1581611159.5970001,-68.359,-977.051,-678.711,584.961,0.0,0
1581611159.601,0.0,-954.59,-609.375,587.4019999999998,0.0,0
1581611159.605,-7.324,-941.895,-606.445,553.2230000000002,0.0,0
1581611159.609,-58.105,-973.145,-647.461,496.094,0.0,0
1581611159.613,-41.992,-973.145,-647.9490000000002,484.375,0.0,0
1581611159.617,10.742,-971.191,-705.078,439.45300000000003,0.0,0
1581611159.62,-1.953,-971.191,-805.664,405.273,0.0,0
1581611159.6239998,-65.918,-972.168,-819.824,328.125,0.0,0
1581611159.6279998,-58.593999999999994,-970.215,-684.57,288.574,0.0,0
1581611159.6320002,-4.395,-898.926,-600.0980000000002,304.688,0.0,0
1581611159.6360002,14.16,-911.6210000000001,-725.0980000000003,230.46900000000002,0.0,0
1581611159.6379998,-40.527,-981.445,-842.285,120.605,0.0,0
1581611159.6420002,-79.102,-971.191,-748.535,42.48,0.0,0
1581611159.6460001,-33.203,-955.566,-746.582,18.066,0.0,0
1581611159.65,34.668,-964.355,-775.8789999999997,-21.97300000000001,0.0,0
1581611159.654,20.02,-975.0980000000001,-823.73,-168.945,0.0,0
1581611159.658,-44.434,-971.191,-939.453,-242.676,0.0,0
1581611159.6620002,-18.555,-972.6560000000001,-984.375,-242.188,0.0,0
1581611159.665,55.663999999999994,-972.168,-937.5,-246.09400000000002,0.0,0
1581611159.669,61.523,-972.168,-837.4019999999997,-292.969,0.0,0
1581611159.6729999,2.441,-972.6560000000001,-780.762,-348.145,0.0,0
1581611159.677,-11.719000000000001,-972.6560000000001,-853.0269999999997,-298.828,0.0,0
1581611159.681,41.01600000000001,-972.168,-942.383,-263.672,0.0,0
1581611159.6829998,62.988,-972.168,-854.98,-250.488,0.0,0
1581611159.687,10.254000000000001,-971.68,-761.7189999999997,-305.664,0.0,0
1581611159.691,-33.691,-974.1210000000001,-854.492,-383.301,0.0,0
1581611159.695,-0.977,-967.773,-832.0310000000003,-340.82,0.0,0
1581611159.699,49.805,-949.707,-705.078,-336.914,0.0,0
1581611159.7029998,10.742,-964.8439999999999,-822.2660000000003,-361.816,0.0,0
1581611159.707,-43.945,-974.6089999999999,-937.5,-372.559,0.0,0
1581611159.71,0.488,-971.191,-981.445,-333.9840000000001,0.0,0
1581611159.714,74.219,-974.1210000000001,-849.1210000000003,-148.438,0.0,0
1581611159.718,31.738000000000003,-951.66,-628.906,29.296999999999997,0.0,0
1581611159.7220001,-41.992,-958.4960000000001,-799.316,141.602,0.0,0
1581611159.726,-28.32,-978.5160000000001,-854.0039999999997,242.676,0.0,0
1581611159.728,20.996,-950.195,-608.398,334.961,0.0,0
1581611159.732,32.715,-939.941,-625.977,303.711,0.0,0
1581611159.736,-13.672,-969.238,-772.949,104.492,0.0,0
1581611159.74,1.953,-976.562,-798.34,-110.352,0.0,0
1581611159.744,85.93799999999996,-951.66,-725.586,-338.86699999999996,0.0,0
1581611159.748,131.836,-957.52,-835.938,-601.0740000000002,0.0,0
1581611159.752,66.895,-976.074,-982.91,-855.957,0.0,0
1581611159.755,48.34,-971.191,-963.867,-972.6560000000001,0.0,0
1581611159.7589998,110.352,-972.6560000000001,-917.9689999999999,-968.75,0.0,0
1581611159.7629998,123.535,-972.168,-906.25,-964.355,0.0,0
1581611159.7670002,64.453,-972.168,-970.703,-979.492,0.0,0
1581611159.7710001,12.695,-972.6560000000001,-954.59,-899.9019999999997,0.0,0
1581611159.7879999,27.831999999999997,-972.168,-807.617,-680.664,0.0,0
1581611159.792,83.984,-969.727,-778.809,-447.26599999999996,0.0,0
1581611159.796,50.293,-971.68,-795.41,-356.934,0.0,0
1581611159.8,-29.785,-972.6560000000001,-760.742,-294.434,0.0,0
1581611159.804,-41.504,-972.168,-707.0310000000003,-113.77,0.0,0
1581611159.8079998,25.879,-972.168,-812.988,-34.668,0.0,0
1581611159.812,23.926,-972.6560000000001,-852.539,-52.733999999999995,0.0,0
1581611159.815,-37.598,-972.6560000000001,-741.699,-167.96900000000005,0.0,0
1581611159.819,-32.227,-969.238,-738.2810000000003,-216.30900000000003,0.0,0
1581611159.823,-0.488,-979.492,-818.8480000000003,-109.863,0.0,0
1581611159.8270001,5.859,-945.312,-770.9960000000003,-62.5,0.0,0
1581611159.831,-53.223,-914.551,-615.7230000000002,-42.48,0.0,0
1581611159.833,-78.125,-962.4019999999999,-670.41,-31.25,0.0,0
1581611159.8370001,-29.296999999999997,-984.375,-753.9060000000003,33.691,0.0,0
1581611159.841,24.414,-945.312,-664.062,166.50400000000005,0.0,0
1581611159.845,0.0,-909.668,-547.852,162.59799999999996,0.0,0
1581611159.849,-68.359,-965.332,-635.254,129.395,0.0,0
1581611159.853,-40.039,-977.051,-785.645,85.449,0.0,0
1581611159.857,29.785,-969.238,-846.68,32.227,0.0,0
1581611159.86,3.906,-972.6560000000001,-746.582,4.395,0.0,0
1581611159.8639998,-80.566,-971.68,-793.457,-93.262,0.0,0
1581611159.8679998,-89.844,-975.586,-916.992,-115.234,0.0,0
1581611159.8720002,-19.531,-951.66,-764.648,-152.344,0.0,0
1581611159.8760002,0.488,-944.824,-664.551,-218.75,0.0,0
1581611159.8779998,-69.824,-968.262,-791.992,-229.00400000000002,0.0,0
1581611159.8820002,-94.727,-972.6560000000001,-948.242,-276.367,0.0,0
1581611159.8860002,-40.527,-972.168,-836.914,-266.113,0.0,0
1581611159.89,-13.672,-972.168,-715.332,-304.688,0.0,0
1581611159.894,-60.547,-972.168,-853.0269999999997,-400.879,0.0,0
1581611159.8979998,-103.516,-972.6560000000001,-983.887,-415.039,0.0,0
1581611159.9020002,-58.105,-972.168,-958.008,-437.98800000000006,0.0,0
1581611159.905,-11.719000000000001,-972.168,-872.559,-439.941,0.0,0
1581611159.909,-46.875,-971.191,-902.3439999999999,-540.039,0.0,0
1581611159.9129999,-76.66,-975.586,-955.078,-625.488,0.0,0
1581611159.917,-50.293,-958.008,-812.012,-556.641,0.0,0
1581611159.921,-4.883,-943.3589999999999,-746.0939999999997,-543.945,0.0,0
1581611159.9229999,-12.207,-967.773,-898.926,-606.934,0.0,0
1581611159.927,-68.848,-974.1210000000001,-928.2230000000001,-698.242,0.0,0
1581611159.931,-59.57,-971.68,-814.941,-751.953,0.0,0
1581611159.935,18.555,-967.773,-791.0160000000003,-752.93,0.0,0
1581611159.939,35.645,-970.215,-819.336,-808.105,0.0,0
1581611159.9429998,-48.34,-973.633,-919.434,-911.6210000000001,0.0,0
1581611159.947,-65.918,-970.703,-973.145,-975.586,0.0,0
1581611159.95,-19.043,-973.145,-976.562,-946.289,0.0,0
1581611159.954,11.719000000000001,-971.191,-935.059,-858.398,0.0,0
1581611159.958,-28.809,-935.547,-787.1089999999997,-783.203,0.0,0
1581611159.9620001,-88.37899999999998,-942.383,-705.566,-645.508,0.0,0
1581611159.966,-54.199,-974.6089999999999,-785.645,-477.051,0.0,0
1581611159.968,-18.066,-972.6560000000001,-828.613,-243.16400000000002,0.0,0
1581611159.9720001,-52.246,-968.262,-642.09,-35.156,0.0,0
1581611159.976,-96.68,-957.52,-572.754,38.574,0.0,0
1581611159.98,-101.074,-964.355,-678.711,60.059,0.0,0
1581611159.984,-39.551,-969.727,-681.1519999999998,-18.555,0.0,0
1581611159.988,-0.488,-968.262,-697.2660000000003,-135.254,0.0,0
1581611159.992,-58.105,-970.215,-774.414,-274.414,0.0,0
1581611159.995,-66.895,-979.98,-880.8589999999997,-458.00800000000004,0.0,0
1581611159.9989998,3.906,-941.895,-852.051,-568.8480000000002,0.0,0
1581611160.0029998,29.296999999999997,-916.992,-725.586,-737.305,0.0,0
1581611160.0070002,-39.062,-968.75,-841.309,-918.457,0.0,0
1581611160.0110002,-84.473,-973.145,-933.105,-958.4960000000001,0.0,0
1581611160.012,-37.598,-976.074,-914.551,-971.191,0.0,0
1581611160.016,32.227,-929.688,-753.418,-971.191,0.0,0
1581611160.02,-26.366999999999997,-915.5269999999999,-757.324,-968.75,0.0,0
1581611160.024,-76.66,-972.6560000000001,-916.0160000000001,-979.0039999999999,0.0,0
1581611160.0279999,-31.738000000000003,-965.82,-851.074,-924.805,0.0,0
1581611160.032,-8.301,-965.82,-791.0160000000003,-823.242,0.0,0
1581611160.036,-43.945,-974.6089999999999,-899.414,-816.4060000000003,0.0,0
1581611160.039,-94.238,-971.191,-948.242,-896.4839999999997,0.0,0
1581611160.043,-65.43,-973.633,-898.438,-910.1560000000001,0.0,0
1581611160.0470002,-11.23,-971.191,-754.395,-855.957,0.0,0
1581611160.051,-33.203,-957.0310000000001,-758.301,-860.84,0.0,0
1581611160.055,-104.492,-968.262,-842.773,-840.332,0.0,0
1581611160.0579998,-116.699,-974.1210000000001,-800.293,-781.738,0.0,0
1581611160.062,-65.918,-971.191,-798.828,-671.875,0.0,0
1581611160.066,-33.691,-972.6560000000001,-746.0939999999997,-514.16,0.0,0
1581611160.07,-70.312,-972.168,-688.477,-430.664,0.0,0
1581611160.074,-111.816,-972.6560000000001,-652.344,-370.605,0.0,0
1581611160.0779998,-44.434,-971.191,-692.8710000000003,-286.133,0.0,0
1581611160.082,11.719000000000001,-975.0980000000001,-819.824,-186.035,0.0,0
1581611160.085,-40.527,-959.961,-766.113,-127.441,0.0,0
1581611160.089,-78.613,-946.7769999999999,-560.059,-88.867,0.0,0
1581611160.093,-60.059,-938.965,-530.762,-19.043,0.0,0
1581611160.0970001,-13.672,-952.148,-649.414,-0.488,0.0,0
1581611160.101,-21.484,-953.613,-659.18,0.977,0.0,0
1581611160.1020002,-80.078,-956.055,-586.914,-5.859,0.0,0
1581611160.106,-70.801,-976.074,-619.141,-11.719000000000001,0.0,0
1581611160.11,-28.809,-971.191,-612.793,-12.695,0.0,0
1581611160.1139998,-16.113,-972.6560000000001,-660.645,-82.52,0.0,0
1581611160.1179998,-65.918,-972.168,-727.051,-115.234,0.0,0
1581611160.1220002,-70.312,-969.727,-813.477,-90.33200000000001,0.0,0
1581611160.1260002,0.488,-980.957,-887.695,-67.383,0.0,0
1581611160.129,14.16,-932.617,-694.336,-41.992,0.0,0
1581611160.133,-40.039,-920.898,-568.8480000000002,-96.68,0.0,0
1581611160.137,-80.566,-972.168,-765.625,-135.74200000000002,0.0,0
1581611160.141,-32.227,-984.863,-904.785,-110.352,0.0,0
1581611160.145,40.039,-919.922,-669.434,-72.75399999999998,0.0,0
1581611160.1629999,2.93,-873.535,-532.715,-92.285,0.0,0
1581611160.167,-64.453,-965.82,-775.8789999999997,-196.28900000000002,0.0,0
1581611160.171,-25.879,-975.586,-806.1519999999997,-188.477,0.0,0
1581611160.175,36.621,-910.1560000000001,-606.445,-147.94899999999996,0.0,0
1581611160.179,20.508000000000006,-916.0160000000001,-625.0,-219.727,0.0,0
1581611160.1829998,-71.289,-973.633,-845.215,-314.453,0.0,0
1581611160.187,-86.426,-973.145,-989.7460000000001,-385.74199999999996,0.0,0
1581611160.19,-8.789,-970.703,-958.008,-378.906,0.0,0
1581611160.194,37.598,-973.145,-792.48,-348.63300000000015,0.0,0
1581611160.198,-22.949,-970.215,-840.332,-403.809,0.0,0
1581611160.2020001,-52.733999999999995,-976.562,-924.316,-428.223,0.0,0
1581611160.206,8.789,-961.914,-746.0939999999997,-405.76199999999994,0.0,0
1581611160.208,-3.418,-921.387,-692.383,-369.629,0.0,0
1581611160.2120001,-72.75399999999998,-953.125,-786.133,-375.0,0.0,0
1581611160.216,-109.863,-978.5160000000001,-817.8710000000003,-375.0,0.0,0
1581611160.22,-72.75399999999998,-969.238,-757.324,-304.688,0.0,0
1581611160.224,-16.602,-967.285,-753.9060000000003,-275.879,0.0,0
1581611160.228,-38.086,-971.191,-879.883,-262.207,0.0,0
1581611160.232,-104.492,-973.145,-971.191,-232.422,0.0,0
1581611160.235,-122.559,-972.168,-915.5269999999999,-207.52,0.0,0
1581611160.2389998,-71.289,-972.168,-817.383,-133.30100000000002,0.0,0
1581611160.2429998,-49.805,-971.191,-935.547,-144.531,0.0,0
1581611160.2470002,-133.789,-976.562,-945.312,-150.391,0.0,0
1581611160.2510002,-123.535,-942.383,-757.812,-49.316,0.0,0
1581611160.252,-62.988,-934.57,-787.5980000000003,33.203,0.0,0
1581611160.256,-59.57,-950.195,-858.398,81.543,0.0,0
1581611160.26,-93.75,-908.203,-746.0939999999997,100.586,0.0,0
1581611160.264,-130.371,-868.164,-690.918,169.43400000000003,0.0,0
1581611160.268,-96.191,-899.9019999999997,-742.188,255.859,0.0,0
1581611160.272,-30.761999999999997,-975.0980000000001,-879.883,315.918,0.0,0
1581611160.276,-65.918,-973.145,-919.434,325.684,0.0,0
1581611160.279,-126.465,-961.914,-811.035,312.012,0.0,0
1581611160.283,-81.543,-977.539,-868.164,381.348,0.0,0
1581611160.2870002,-15.137,-898.926,-838.867,428.223,0.0,0
1581611160.2910001,-49.805,-798.828,-649.9019999999998,374.51199999999994,0.0,0
1581611160.295,-107.42200000000001,-829.102,-683.5939999999998,293.457,0.0,0
1581611160.2970002,-89.355,-943.8480000000001,-857.422,254.88299999999998,0.0,0
1581611160.301,-24.901999999999997,-917.9689999999999,-845.703,310.059,0.0,0
1581611160.305,-34.18,-799.805,-675.7810000000002,296.387,0.0,0
1581611160.309,-82.52,-880.3710000000003,-772.461,223.63299999999998,0.0,0
1581611160.313,-76.172,-973.633,-907.715,202.148,0.0,0
1581611160.3170002,-20.508000000000006,-971.191,-909.668,175.293,0.0,0
1581611160.321,1.465,-966.797,-920.41,184.57,0.0,0
1581611160.324,-36.621,-976.074,-964.355,142.578,0.0,0
1581611160.3279998,-55.176,-959.961,-946.289,98.145,0.0,0
1581611160.332,-30.273000000000003,-866.211,-828.613,70.801,0.0,0
1581611160.336,22.949,-789.551,-752.93,-1.465,0.0,0
1581611160.34,5.859,-859.375,-836.426,-59.57,0.0,0
1581611160.342,-38.086,-981.445,-969.727,-130.371,0.0,0
1581611160.346,-7.324,-904.297,-870.605,-133.30100000000002,0.0,0
1581611160.35,56.64100000000001,-790.5269999999997,-742.676,-141.602,0.0,0
1581611160.3539999,43.945,-879.395,-848.145,-198.24200000000002,0.0,0
1581611160.3579998,-23.438000000000002,-981.934,-915.039,-155.273,0.0,0
1581611160.3620002,-20.996,-969.727,-940.918,-99.609,0.0,0
1581611160.3660002,47.852,-970.703,-940.918,6.348,0.0,0
1581611160.369,61.035,-971.68,-901.367,66.895,0.0,0
1581611160.373,-2.441,-970.215,-937.012,4.883,0.0,0
1581611160.377,-29.785,-980.4689999999999,-836.426,57.129,0.0,0
1581611160.381,17.578,-930.664,-715.82,113.281,0.0,0
1581611160.385,62.012,-925.7810000000001,-821.7769999999997,113.281,0.0,0
1581611160.387,15.625,-972.6560000000001,-889.16,36.621,0.0,0
1581611160.391,-22.461,-935.547,-761.7189999999997,24.414,0.0,0
1581611160.395,12.207,-879.395,-700.195,167.96900000000005,0.0,0
1581611160.399,45.898,-927.2460000000001,-698.73,287.1090000000001,0.0,0
1581611160.4029999,9.277000000000001,-978.0269999999999,-722.6560000000003,391.11300000000006,0.0,0
1581611160.407,-37.109,-965.82,-753.418,520.508,0.0,0
1581611160.411,-7.812,-970.215,-824.2189999999997,684.57,0.0,0
1581611160.414,46.387,-983.398,-833.008,888.672,0.0,0
1581611160.418,60.547,-886.23,-594.238,983.398,0.0,0
1581611160.4220002,21.484,-844.238,-480.469,958.008,0.0,0
1581611160.426,4.883,-946.289,-661.133,803.711,0.0,0
1581611160.43,54.199,-967.773,-782.715,613.77,0.0,0
1581611160.4320002,93.262,-919.434,-669.434,431.64099999999996,0.0,0
1581611160.436,62.988,-928.2230000000001,-677.2460000000002,140.137,0.0,0
1581611160.44,63.965,-975.0980000000001,-823.73,-73.242,0.0,0
1581611160.444,124.512,-958.008,-827.637,-245.11700000000002,0.0,0
1581611160.448,147.461,-895.508,-697.2660000000003,-337.89099999999996,0.0,0
1581611160.4520001,94.238,-937.988,-803.2230000000003,-318.848,0.0,0
1581611160.456,45.41,-981.934,-984.863,-286.621,0.0,0
1581611160.4589999,86.426,-971.68,-892.09,-105.469,0.0,0
1581611160.4629998,137.207,-925.293,-651.367,84.473,0.0,0
1581611160.467,97.16799999999999,-940.918,-683.105,223.145,0.0,0
1581611160.471,13.672,-978.0269999999999,-855.4689999999997,420.41,0.0,0
1581611160.475,22.949,-975.586,-748.047,611.816,0.0,0
1581611160.4770002,90.33200000000001,-948.242,-512.207,813.965,0.0,0
1581611160.481,77.637,-916.5039999999999,-465.82,855.4689999999997,0.0,2
1581611160.485,17.09,-960.449,-586.914,810.547,0.0,0
1581611160.4889998,5.859,-976.074,-634.2769999999998,876.465,0.0,0
1581611160.4929998,65.43,-970.215,-523.9259999999998,915.039,0.0,0
1581611160.4970002,64.941,-972.6560000000001,-599.121,908.203,0.0,0
1581611160.5010002,-12.207,-972.168,-742.188,826.66,0.0,0
1581611160.504,-22.949,-972.168,-677.7339999999998,789.062,0.0,0
1581611160.508,11.23,-972.168,-555.1759999999998,884.7660000000003,0.0,0
1581611160.512,53.223,-972.6560000000001,-588.867,920.41,0.0,0
1581611160.516,27.831999999999997,-971.68,-711.426,876.465,0.0,0
1581611160.52,-16.602,-972.168,-628.418,776.367,0.0,0
1581611160.5370002,34.18,-972.6560000000001,-671.387,688.965,0.0,0
1581611160.5410001,80.078,-972.168,-747.559,667.48,0.0,0
1581611160.545,73.242,-972.168,-732.422,496.582,0.0,0
1581611160.549,8.789,-972.168,-736.816,294.922,0.0,0
1581611160.553,1.465,-972.168,-746.582,125.488,0.0,0
1581611160.5570002,65.43,-972.6560000000001,-868.164,-42.48,0.0,0
1581611160.561,64.453,-972.168,-979.98,-173.34,0.0,0
1581611160.564,3.418,-972.168,-937.5,-362.305,0.0,0
1581611160.5679998,-7.324,-972.168,-903.809,-490.23400000000004,0.0,0
1581611160.572,41.01600000000001,-972.168,-941.4060000000001,-571.7769999999998,0.0,0
1581611160.576,71.777,-972.6560000000001,-943.8480000000001,-635.742,0.0,0
1581611160.58,36.133,-960.449,-873.535,-638.672,0.0,0
1581611160.582,-16.113,-949.2189999999999,-850.0980000000003,-629.883,0.0,0
1581611160.586,18.555,-963.3789999999999,-915.039,-562.5,0.0,0
1581611160.59,93.262,-974.1210000000001,-917.48,-526.367,0.0,0
1581611160.5939999,50.78100000000001,-971.68,-865.2339999999997,-490.23400000000004,0.0,0
1581611160.5979998,-6.836,-972.168,-871.582,-375.48800000000006,0.0,0
1581611160.6020002,35.156,-971.191,-922.363,-265.625,0.0,0
1581611160.606,105.95700000000001,-976.562,-860.352,-150.391,0.0,0
1581611160.609,94.238,-953.613,-697.2660000000003,-118.164,0.0,0
1581611160.613,36.133,-946.289,-738.77,-102.539,0.0,0
1581611160.617,40.527,-975.0980000000001,-910.645,-24.414,0.0,0
1581611160.621,95.215,-968.75,-804.199,22.461,0.0,0
1581611160.625,122.07,-947.7539999999999,-630.371,44.434,0.0,0
1581611160.627,57.129,-957.52,-772.949,-43.945,0.0,0
1581611160.631,32.715,-970.703,-924.316,-68.359,0.0,0
1581611160.635,101.074,-981.445,-760.742,42.48,0.0,0
1581611160.639,144.531,-928.2230000000001,-593.262,132.812,0.0,0
1581611160.643,83.49600000000002,-910.1560000000001,-674.805,167.48,0.0,0
1581611160.647,-4.883,-975.586,-883.301,201.66,0.0,0
1581611160.651,29.785,-973.633,-832.52,436.035,0.0,0
1581611160.654,90.82,-968.262,-635.254,748.535,0.0,0
1581611160.658,54.688,-971.191,-625.977,943.3589999999999,0.0,0
1581611160.6620002,-10.742,-958.4960000000001,-631.3480000000002,-999.023,0.0,0
1581611160.6660001,20.02,-881.3480000000003,-468.75,990.7230000000001,0.0,0
1581611160.67,92.773,-841.797,-438.477,-997.559,0.0,0
1581611160.6720002,114.74600000000001,-931.1519999999999,-620.117,971.191,0.0,0
1581611160.676,62.5,-977.051,-679.199,828.125,0.0,0
1581611160.68,33.203,-956.543,-607.422,676.758,0.0,0
1581611160.684,123.535,-960.938,-668.945,532.715,0.0,0
1581611160.688,150.391,-969.727,-713.867,437.98800000000006,0.0,0
1581611160.6920002,82.031,-972.6560000000001,-789.551,363.77,0.0,0
1581611160.696,54.199,-972.168,-906.25,289.062,0.0,0
1581611160.699,100.586,-972.168,-926.758,287.1090000000001,0.0,0
1581611160.7029998,151.855,-972.168,-901.367,269.531,0.0,0
1581611160.707,105.95700000000001,-972.6560000000001,-878.9060000000003,260.254,0.0,0
1581611160.711,22.461,-968.262,-762.695,307.617,0.0,0
1581611160.715,46.387,-980.4689999999999,-776.367,353.51599999999996,0.0,0
1581611160.718,113.281,-935.547,-777.3439999999997,400.39099999999996,0.0,0
1581611160.7220001,79.102,-865.2339999999997,-630.371,324.707,0.0,0
1581611160.726,14.648,-877.93,-643.555,252.44099999999997,0.0,0
1581611160.73,52.733999999999995,-933.105,-769.043,235.84,0.0,0
1581611160.734,104.492,-947.7539999999999,-774.9019999999997,216.30900000000003,0.0,0
1581611160.738,92.285,-946.7769999999999,-723.633,204.59,0.0,0
1581611160.742,28.32,-975.0980000000001,-843.262,147.94899999999996,0.0,0
1581611160.745,-23.438000000000002,-971.191,-956.055,174.31599999999997,0.0,0
1581611160.7489998,35.156,-973.633,-885.2539999999997,265.137,0.0,0
1581611160.7529998,70.801,-920.41,-678.2230000000002,330.0780000000001,0.0,0
1581611160.7570002,13.672,-892.578,-628.906,358.88699999999994,0.0,0
1581611160.7610002,-6.836,-954.102,-757.324,376.465,0.0,0
1581611160.7629998,31.738000000000003,-962.4019999999999,-748.047,479.49199999999996,0.0,0
1581611160.7670002,88.37899999999998,-883.301,-566.406,570.312,0.0,0
1581611160.7710001,74.219,-888.672,-578.613,544.922,0.0,0
1581611160.775,-1.953,-964.355,-756.3480000000003,501.465,0.0,0
1581611160.779,25.391,-975.0980000000001,-766.602,472.168,0.0,0
1581611160.783,98.633,-969.727,-698.242,483.88699999999994,0.0,0
1581611160.7870002,76.172,-973.145,-812.012,442.38300000000004,0.0,0
1581611160.79,21.97300000000001,-969.238,-895.9960000000003,373.04699999999997,0.0,0
1581611160.794,40.527,-978.5160000000001,-788.086,366.699,0.0,0
1581611160.7979999,112.79299999999999,-931.6410000000001,-660.645,346.191,0.0,0
1581611160.802,115.234,-902.3439999999999,-686.035,324.707,0.0,0
1581611160.806,44.922,-968.75,-797.363,270.996,0.0,0
1581611160.8079998,45.41,-961.914,-738.2810000000003,208.00799999999998,0.0,0
1581611160.812,96.68,-897.949,-645.508,187.5,0.0,0
1581611160.816,119.141,-907.227,-753.418,118.652,0.0,0
1581611160.82,69.824,-975.0980000000001,-889.648,30.761999999999997,0.0,0
1581611160.824,39.551,-973.633,-778.32,1.953,0.0,0
1581611160.8279998,88.867,-969.238,-808.5939999999997,-27.831999999999997,0.0,0
1581611160.832,145.996,-973.145,-931.6410000000001,-61.523,0.0,0
1581611160.835,104.492,-966.797,-901.367,-173.34,0.0,0
1581611160.839,49.805,-937.5,-780.273,-246.09400000000002,0.0,0
1581611160.843,101.56200000000001,-902.3439999999999,-719.238,-227.53900000000002,0.0,0
1581611160.8470001,153.809,-941.895,-850.0980000000003,-242.188,0.0,0
1581611160.851,152.344,-960.938,-877.441,-281.25,0.0,0
1581611160.853,96.68,-910.1560000000001,-715.82,-333.496,0.0,0
1581611160.857,73.73,-926.27,-751.465,-338.379,0.0,0
1581611160.861,120.117,-970.703,-828.613,-311.52299999999997,0.0,0
1581611160.865,113.77,-944.824,-750.977,-307.617,0.0,0
1581611160.869,60.547,-944.824,-730.4689999999997,-331.543,0.0,0
1581611160.873,32.715,-972.6560000000001,-903.809,-359.375,0.0,0
1581611160.877,108.398,-972.168,-974.1210000000001,-312.5,0.0,0
1581611160.88,161.621,-972.168,-888.672,-282.715,0.0,0
1581611160.8839998,92.285,-972.168,-768.066,-321.777,0.0,0
1581611160.8879998,39.062,-964.8439999999999,-782.227,-310.547,0.0,0
1581611160.8920002,71.289,-985.352,-901.855,-285.156,0.0,0
1581611160.8960001,132.812,-901.855,-703.125,-182.61700000000002,0.0,0
1581611160.9129999,107.91,-855.957,-569.336,-107.91,0.0,0
1581611160.917,45.898,-957.0310000000001,-774.414,-83.008,0.0,0
1581611160.921,59.082,-983.398,-805.664,14.648,0.0,0
1581611160.925,110.84,-926.758,-614.746,103.027,0.0,0
1581611160.929,111.816,-906.738,-556.641,145.02,0.0,0
1581611160.9329998,59.082,-973.145,-804.688,150.879,0.0,0
1581611160.937,38.574,-970.703,-878.9060000000003,194.33599999999998,0.0,0
1581611160.94,85.93799999999996,-899.9019999999997,-569.8240000000002,279.297,0.0,0
1581611160.944,83.008,-931.6410000000001,-612.793,295.89799999999997,0.0,0
1581611160.948,1.465,-978.0269999999999,-859.863,313.965,0.0,0
1581611160.9520001,-2.93,-975.0980000000001,-833.9839999999997,362.305,0.0,0
1581611160.956,65.918,-958.008,-603.0269999999998,469.23800000000006,0.0,0
1581611160.958,93.75,-936.523,-563.477,552.246,0.0,0
1581611160.9620001,44.922,-967.285,-708.008,489.25800000000004,0.0,0
1581611160.966,-12.207,-983.398,-659.18,520.02,0.0,0
1581611160.97,14.16,-934.57,-539.5509999999998,597.656,0.0,0
1581611160.974,75.195,-882.324,-508.301,632.3240000000002,0.0,0
1581611160.978,36.133,-952.148,-651.367,561.523,0.0,0
1581611160.982,-32.715,-979.98,-791.0160000000003,463.379,0.0,0
1581611160.985,-15.625,-968.262,-753.9060000000003,498.535,0.0,0
1581611160.9889998,42.968999999999994,-962.8910000000001,-689.941,510.74199999999996,0.0,0
1581611160.9929998,49.805,-973.145,-765.625,441.406,0.0,0
1581611160.9970002,4.883,-937.988,-695.312,332.52,0.0,0
1581611161.0010002,-7.324,-927.7339999999999,-662.1089999999998,246.09400000000002,0.0,0
1581611161.0029998,41.504,-984.375,-823.73,262.695,0.0,0
1581611161.0070002,82.031,-948.242,-810.547,255.37099999999998,0.0,0
1581611161.0110002,15.625,-904.785,-671.875,194.33599999999998,0.0,0
1581611161.015,-41.01600000000001,-951.66,-698.73,147.461,0.0,0
1581611161.019,20.02,-973.145,-775.8789999999997,153.809,0.0,0
1581611161.0229998,72.266,-970.215,-855.957,250.488,0.0,0
1581611161.0270002,20.02,-973.145,-881.3480000000003,292.48,0.0,0
1581611161.03,-29.296999999999997,-966.797,-749.512,344.23800000000006,0.0,0
1581611161.034,-6.348,-983.887,-816.895,342.285,0.0,0
1581611161.0379999,56.152,-929.688,-841.309,297.8520000000001,0.0,0
1581611161.042,65.918,-857.422,-613.77,283.203,0.0,0
1581611161.046,-11.719000000000001,-916.992,-666.0160000000002,166.016,0.0,0
1581611161.0479999,-5.859,-969.727,-840.332,120.117,0.0,0
1581611161.052,61.035,-912.5980000000001,-785.1560000000003,110.84,0.0,0
1581611161.056,32.715,-924.316,-712.4019999999997,76.66,0.0,0
1581611161.06,-26.855,-982.91,-764.648,177.24599999999995,0.0,0
1581611161.064,-57.617,-969.238,-764.648,314.453,0.0,0
1581611161.0679998,-3.906,-973.145,-794.434,486.816,0.0,0
1581611161.072,56.152,-971.191,-762.207,645.996,0.0,0
