timestamps,TP9,AF7,AF8,TP10,Marker0
1581694863.903,26.367,33.203,27.344,22.461,0
1581694863.907,22.461,22.461,28.320,19.531,0
1581694863.911,20.508,24.902,35.645,16.602,0
1581694863.915,20.996,32.715,34.180,20.020,0
1581694863.919,20.508,35.156,27.344,9.766,0
1581694863.923,24.414,36.133,27.344,17.090,0
1581694863.927,29.297,38.574,23.926,23.438,0
1581694863.930,33.203,38.086,23.926,20.508,0
1581694863.934,32.227,33.691,25.391,11.230,0
1581694863.938,25.391,36.621,25.879,7.812,0
1581694863.942,22.949,37.109,25.391,17.578,0
1581694863.946,20.508,24.902,22.949,20.020,0
1581694863.948,15.625,18.555,22.949,12.695,0
1581694863.952,19.043,26.367,24.902,10.742,0
1581694863.956,19.043,30.762,25.879,16.602,0
1581694863.960,13.184,29.785,27.832,19.531,0
1581694863.964,18.555,33.203,26.367,16.602,0
1581694863.968,28.320,35.645,24.414,19.531,0
1581694863.972,31.250,34.180,26.367,25.879,0
1581694863.975,33.691,34.180,29.297,23.438,0
1581694863.979,36.133,34.668,32.715,19.043,0
1581694863.983,32.715,27.832,31.738,19.043,0
1581694863.987,33.691,27.832,24.902,24.902,0
1581694863.991,32.227,34.668,21.973,31.738,0
1581694863.993,27.344,32.227,24.902,26.367,0
1581694863.997,24.902,31.250,25.391,18.555,0
1581694864.001,25.391,35.156,24.902,22.461,0
1581694864.005,26.855,35.156,26.855,26.367,0
1581694864.009,25.879,37.598,25.391,21.484,0
1581694864.013,24.414,35.645,25.879,25.879,0
1581694864.017,22.461,30.762,26.855,28.320,0
1581694864.020,20.508,31.738,26.367,23.438,0
1581694864.024,27.832,34.180,24.902,20.996,0
1581694864.028,29.297,39.551,24.414,18.555,0
1581694864.032,21.973,39.062,24.414,19.043,0
1581694864.036,19.531,33.691,22.461,20.996,0
1581694864.038,22.949,34.668,21.973,19.043,0
1581694864.042,22.461,35.645,21.484,13.184,0
1581694864.046,21.973,29.297,25.391,17.578,0
1581694864.050,20.996,26.855,29.297,21.484,0
1581694864.054,22.461,26.855,23.926,14.160,0
1581694864.058,27.344,24.902,20.508,8.789,0
1581694864.062,22.461,26.855,21.484,14.160,0
1581694864.065,17.578,28.809,19.531,15.137,0
1581694864.069,17.578,29.297,19.531,12.695,0
1581694864.073,20.020,29.297,23.438,15.625,0
1581694864.077,20.020,31.250,25.391,17.578,0
1581694864.081,17.090,32.715,28.320,19.043,0
1581694864.083,20.996,31.738,31.250,21.973,0
1581694864.087,26.855,33.691,32.227,27.344,0
1581694864.091,16.113,29.297,32.227,18.555,0
1581694864.095,13.672,27.344,23.926,14.160,0
1581694864.099,22.461,32.227,21.484,23.438,0
1581694864.103,27.832,31.250,29.297,22.949,0
1581694864.107,28.809,30.762,28.320,23.926,0
1581694864.110,25.879,30.762,29.297,24.414,0
1581694864.114,23.438,28.320,34.180,21.484,0
1581694864.118,22.461,28.809,38.086,15.137,0
1581694864.122,26.855,32.227,38.086,8.301,0
1581694864.126,32.227,33.203,36.133,7.324,0
1581694864.143,29.297,34.668,39.551,9.277,0
1581694864.147,30.762,38.086,38.574,12.207,0
1581694864.151,38.086,41.016,33.691,11.230,0
1581694864.155,48.828,38.086,30.273,19.043,0
1581694864.159,59.570,35.156,27.344,31.738,0
1581694864.163,46.875,31.738,30.762,21.484,0
1581694864.167,26.855,27.832,41.504,14.160,0
1581694864.170,26.367,28.809,45.898,22.461,0
1581694864.174,23.438,28.809,42.480,28.320,0
1581694864.178,16.602,26.367,39.062,26.855,0
1581694864.182,14.160,25.391,41.504,28.809,0
1581694864.186,9.766,26.367,44.434,29.785,0
1581694864.188,10.742,28.809,42.969,26.855,0
1581694864.192,9.277,28.320,42.480,28.809,0
1581694864.196,10.254,23.438,36.621,33.203,0
1581694864.200,17.578,21.973,35.156,23.926,0
1581694864.204,18.066,21.973,39.551,18.555,0
1581694864.208,17.090,19.043,33.691,24.414,0
1581694864.212,21.484,22.949,31.738,25.879,0
1581694864.215,28.809,32.227,38.574,28.809,0
1581694864.219,26.855,35.156,35.156,35.645,0
1581694864.223,26.855,27.344,34.668,36.133,0
1581694864.227,32.227,28.320,36.133,24.414,0
1581694864.231,30.762,31.738,32.715,29.785,0
1581694864.233,34.180,27.832,32.715,35.645,0
1581694864.237,34.668,29.785,35.645,26.855,0
1581694864.241,31.250,34.180,38.086,25.879,0
1581694864.245,29.785,31.738,33.203,15.137,0
1581694864.249,27.832,32.715,28.809,12.695,0
1581694864.253,22.949,33.691,28.809,21.973,0
1581694864.257,27.344,32.227,27.832,24.902,0
1581694864.260,26.367,29.297,27.344,25.391,0
1581694864.264,16.113,28.809,29.785,17.090,0
1581694864.268,22.949,29.785,30.762,19.043,0
1581694864.272,24.414,27.832,31.250,26.367,0
1581694864.276,22.461,25.391,33.203,18.555,0
1581694864.278,28.320,30.273,29.297,21.973,0
1581694864.282,36.621,33.691,28.809,27.344,0
1581694864.286,39.551,36.621,34.668,29.297,0
1581694864.290,33.691,35.645,32.227,27.344,0
1581694864.294,27.832,26.855,28.809,24.902,0
1581694864.298,27.832,26.367,31.738,24.414,0
1581694864.302,28.320,29.785,38.086,20.508,0
1581694864.305,23.926,32.715,33.691,25.879,0
1581694864.309,20.996,32.227,26.367,27.832,0
1581694864.313,19.043,26.855,26.855,20.020,0
1581694864.317,22.949,25.391,26.855,20.996,0
1581694864.321,25.391,26.367,24.414,24.902,0
1581694864.323,28.809,29.297,23.438,27.832,0
1581694864.327,30.762,28.320,20.996,22.461,0
1581694864.331,32.227,30.273,20.996,20.996,0
1581694864.335,32.227,37.109,27.832,26.367,0
1581694864.339,29.785,36.133,27.832,23.926,0
1581694864.343,32.227,32.227,22.949,24.414,0
1581694864.347,26.855,28.320,25.391,27.832,0
1581694864.350,26.855,27.344,26.367,29.297,0
1581694864.354,33.691,31.738,24.902,29.297,0
1581694864.358,28.320,35.645,25.879,19.531,0
1581694864.362,23.438,30.762,25.879,13.672,0
1581694864.366,22.949,25.391,27.344,25.391,0
1581694864.368,28.809,27.344,27.832,28.809,0
1581694864.372,30.273,28.809,24.902,28.320,0
1581694864.376,28.809,28.809,23.926,23.438,0
1581694864.380,33.691,37.598,28.809,19.043,0
1581694864.384,30.762,39.062,34.668,24.902,0
1581694864.388,25.391,32.227,38.086,20.020,0
1581694864.392,21.973,31.738,37.109,10.254,0
1581694864.395,22.461,31.250,29.785,14.648,0
1581694864.399,21.973,26.855,22.461,16.602,0
1581694864.403,20.996,25.391,22.461,18.555,0
1581694864.407,24.414,31.250,26.367,24.414,0
1581694864.411,27.344,28.320,30.762,32.715,0
1581694864.413,34.180,22.949,34.180,37.598,0
1581694864.417,35.156,30.273,31.738,27.344,0
1581694864.421,26.367,36.621,26.855,16.113,0
1581694864.425,21.484,36.621,26.367,9.766,0
1581694864.429,18.555,36.133,26.855,7.812,0
1581694864.433,19.043,41.016,29.785,9.766,0
1581694864.437,19.531,45.410,32.227,9.766,0
1581694864.440,16.113,40.039,29.785,8.301,0
1581694864.444,17.090,38.574,24.414,4.395,0
1581694864.448,20.508,40.527,19.043,10.742,0
1581694864.452,22.949,39.551,20.996,16.113,0
1581694864.456,25.879,34.180,22.949,4.883,0
1581694864.458,28.320,31.250,21.973,15.137,0
1581694864.462,28.809,38.086,21.484,26.367,0
1581694864.466,29.297,41.504,21.484,22.949,0
1581694864.470,29.297,38.086,21.484,25.391,0
1581694864.474,29.297,35.156,30.762,22.949,0
1581694864.478,27.832,37.109,34.668,24.414,0
1581694864.482,22.949,44.434,31.250,25.391,0
1581694864.485,22.461,40.039,38.086,26.855,0
1581694864.489,15.625,33.691,39.062,15.137,0
1581694864.493,17.578,37.598,39.062,16.113,0
1581694864.497,23.438,41.504,41.016,20.020,0
1581694864.501,7.812,38.086,34.668,8.301,0
1581694864.518,2.441,38.086,35.645,3.906,0
1581694864.522,3.906,41.992,42.969,-1.953,0
1581694864.526,-5.859,45.898,42.969,-1.953,0
1581694864.530,-2.930,51.270,44.922,4.883,0
1581694864.534,-8.301,53.223,44.434,-2.441,0
1581694864.538,-26.367,46.875,41.504,-21.484,0
1581694864.542,-34.180,49.805,51.270,-19.531,0
1581694864.545,-39.062,56.641,54.688,-19.043,0
1581694864.549,-54.688,48.340,49.805,-46.387,0
1581694864.553,-60.059,47.363,56.641,-59.082,0
1581694864.557,-67.871,57.617,59.570,-67.871,0
1581694864.561,-83.496,56.152,59.082,-84.473,0
1581694864.563,-91.309,55.176,66.406,-99.121,0
1581694864.567,-98.633,54.199,73.242,-112.305,0
1581694864.571,-105.469,52.246,72.754,-117.188,0
1581694864.575,-109.375,57.617,71.777,-117.188,0
1581694864.579,-114.746,60.547,74.219,-118.164,0
1581694864.583,-122.559,60.059,78.125,-121.582,0
1581694864.587,-125.488,63.477,78.613,-122.070,0
1581694864.590,-123.047,68.848,76.660,-131.348,0
1581694864.594,-125.000,70.801,74.219,-140.625,0
1581694864.598,-122.559,69.336,76.172,-137.207,0
1581694864.602,-131.348,64.453,78.125,-138.184,0
1581694864.606,-136.719,63.477,73.730,-138.184,0
1581694864.608,-128.418,66.406,68.359,-136.719,0
1581694864.612,-126.953,65.918,66.406,-133.789,0
1581694864.616,-120.605,65.918,63.965,-132.324,0
1581694864.620,-119.629,65.918,61.035,-128.418,0
1581694864.624,-120.117,60.059,61.035,-118.164,0
1581694864.628,-119.629,58.594,56.641,-117.188,0
1581694864.632,-116.211,60.059,50.781,-120.605,0
1581694864.635,-105.957,59.082,51.270,-120.605,0
1581694864.639,-101.562,52.246,49.805,-112.305,0
1581694864.643,-88.379,53.223,52.734,-95.703,0
1581694864.647,-80.566,60.547,47.852,-83.008,0
1581694864.651,-81.055,60.547,42.480,-90.332,0
1581694864.653,-72.266,59.570,50.781,-87.402,0
1581694864.657,-70.801,56.152,50.781,-76.660,0
1581694864.661,-74.219,51.270,44.434,-82.031,0
1581694864.665,-61.035,51.758,41.992,-77.637,0
1581694864.669,-48.828,54.688,41.504,-67.871,0
1581694864.673,-49.316,58.105,42.480,-62.500,0
1581694864.677,-52.734,53.711,43.945,-57.129,0
1581694864.680,-48.828,49.316,44.434,-48.828,0
1581694864.684,-39.551,52.246,38.574,-44.922,0
1581694864.688,-37.598,51.758,39.062,-39.551,0
1581694864.692,-41.992,45.898,39.062,-37.109,0
1581694864.696,-41.504,42.480,38.086,-37.109,0
1581694864.698,-31.250,43.945,36.621,-34.180,0
1581694864.702,-20.020,43.945,31.250,-30.273,0
1581694864.706,-17.090,46.387,32.227,-27.344,0
1581694864.710,-20.020,48.828,34.180,-32.227,0
1581694864.714,-22.461,44.434,33.203,-25.391,0
1581694864.718,-17.578,39.551,33.691,-19.531,0
1581694864.722,-10.742,40.039,30.273,-19.531,0
1581694864.725,-10.742,43.945,23.438,-16.113,0
1581694864.729,-7.812,46.387,17.090,-11.230,0
1581694864.733,-3.906,40.039,20.996,-2.930,0
1581694864.737,-3.418,32.715,27.832,2.441,0
1581694864.741,1.465,33.691,22.461,6.348,0
1581694864.743,13.184,34.180,19.043,0.977,0
1581694864.747,22.461,35.156,20.996,0.977,0
1581694864.751,27.832,33.691,14.648,11.719,0
1581694864.755,34.180,30.273,12.207,21.484,0
1581694864.759,37.598,28.320,14.648,22.949,0
1581694864.763,42.480,24.414,18.555,32.227,0
1581694864.767,52.246,24.414,20.020,44.922,0
1581694864.770,55.176,19.531,19.531,48.340,0
1581694864.774,58.594,12.207,18.066,53.223,0
1581694864.778,62.012,9.766,14.160,56.152,0
1581694864.782,68.359,10.254,11.719,58.105,0
1581694864.786,76.660,10.742,5.371,67.871,0
1581694864.788,83.984,11.230,1.465,76.172,0
1581694864.792,86.914,11.230,4.883,74.219,0
1581694864.796,84.473,6.836,5.371,72.266,0
1581694864.800,85.938,5.371,3.906,77.148,0
1581694864.804,95.215,3.418,0.977,83.008,0
1581694864.808,102.051,0.488,-4.883,92.773,0
1581694864.812,105.957,0.488,-2.930,98.145,0
1581694864.815,116.211,6.348,5.859,106.445,0
1581694864.819,119.141,9.766,8.301,120.117,0
1581694864.823,115.234,2.930,3.418,125.488,0
1581694864.827,118.164,1.953,-1.953,114.258,0
1581694864.831,122.559,6.348,-3.418,109.375,0
1581694864.833,126.953,5.859,-5.371,118.164,0
1581694864.837,132.324,6.836,-8.789,123.047,0
1581694864.841,139.648,10.254,-5.371,119.629,0
1581694864.845,142.090,11.230,-3.906,114.258,0
1581694864.849,134.277,6.836,-6.348,115.723,0
1581694864.853,129.395,-1.465,-2.930,120.117,0
1581694864.857,126.953,-0.488,0.488,131.836,0
1581694864.860,111.816,2.930,-0.488,137.207,0
1581694864.864,104.980,1.465,0.488,136.230,0
1581694864.868,107.910,2.441,-3.906,132.812,0
1581694864.872,107.422,4.883,-6.348,126.465,0
1581694864.876,105.469,0.977,3.418,132.324,0
1581694864.893,104.980,1.465,10.742,133.301,0
1581694864.897,106.934,9.766,10.254,125.977,0
1581694864.901,107.910,9.766,6.836,117.676,0
1581694864.905,110.840,7.324,4.395,114.746,0
1581694864.909,105.469,9.277,1.953,111.816,0
1581694864.913,99.121,11.719,4.395,101.562,0
1581694864.917,100.586,15.137,7.324,97.168,0
1581694864.920,100.098,16.602,5.859,99.609,0
1581694864.924,102.051,16.113,5.371,103.516,0
1581694864.928,104.004,19.531,4.395,96.680,0
1581694864.932,102.051,21.973,4.883,93.750,0
1581694864.936,102.539,19.043,8.789,108.887,0
1581694864.939,98.633,16.113,9.766,106.934,0
1581694864.943,94.727,17.578,6.348,100.586,0
1581694864.947,97.168,21.973,9.766,104.004,0
1581694864.951,93.262,24.414,14.648,95.215,0
1581694864.955,90.332,22.461,13.672,90.332,0
1581694864.959,90.332,23.438,9.277,91.797,0
1581694864.963,81.055,22.949,9.766,88.867,0
1581694864.966,75.684,20.020,17.578,87.402,0
1581694864.970,76.172,20.020,20.020,78.613,0
1581694864.974,75.684,23.926,17.090,79.590,0
1581694864.978,76.660,30.273,17.578,79.102,0
1581694864.982,74.707,30.762,15.625,70.312,0
1581694864.984,75.684,25.391,12.695,71.777,0
1581694864.988,74.219,24.414,11.719,71.777,0
1581694864.992,69.824,27.344,13.184,77.148,0
1581694864.996,68.359,24.902,11.719,70.312,0
1581694865.000,69.824,20.996,9.766,57.617,0
1581694865.004,69.336,23.438,7.812,64.453,0
1581694865.008,70.312,24.902,8.301,69.824,0
1581694865.011,70.801,25.391,14.648,69.824,0
1581694865.015,67.383,27.832,17.578,68.848,0
1581694865.019,62.500,23.926,18.555,63.965,0
1581694865.023,59.570,21.484,20.020,61.523,0
1581694865.027,56.641,20.996,19.531,63.477,0
1581694865.029,53.711,15.625,17.090,64.941,0
1581694865.033,54.199,17.090,13.672,58.594,0
1581694865.037,53.223,22.461,15.137,57.617,0
1581694865.041,50.293,28.809,15.137,57.129,0
1581694865.045,46.387,33.691,15.137,45.898,0
1581694865.049,45.410,35.156,17.090,36.133,0
1581694865.053,47.363,33.691,17.090,37.598,0
1581694865.056,43.457,30.762,18.066,41.992,0
1581694865.060,39.551,29.785,23.926,42.969,0
1581694865.064,41.504,32.227,23.926,28.809,0
1581694865.068,44.922,33.691,20.508,24.414,0
1581694865.072,58.594,33.203,18.555,57.129,0
1581694865.074,60.547,35.156,21.484,65.430,0
1581694865.078,27.344,32.227,27.832,25.391,0
1581694865.082,12.695,24.902,30.273,11.719,0
1581694865.086,21.973,22.461,31.738,23.438,0
1581694865.090,15.625,23.438,29.297,15.625,0
1581694865.094,7.324,24.414,27.344,4.883,0
1581694865.098,6.836,23.926,30.762,2.930,0
1581694865.101,-3.906,21.973,31.738,-12.207,0
1581694865.105,-16.113,22.461,24.902,-20.020,0
1581694865.109,-15.137,19.531,21.973,-16.602,0
1581694865.113,-13.672,15.137,25.391,-16.602,0
1581694865.117,-23.438,18.066,24.902,-26.367,0
1581694865.118,-23.926,21.973,25.391,-23.438,0
1581694865.122,-15.625,25.879,26.855,-9.277,0
1581694865.126,-12.695,27.344,24.414,-6.348,0
1581694865.130,-8.301,28.809,17.090,-0.488,0
1581694865.134,-2.441,29.297,12.695,0.000,0
1581694865.138,1.465,25.879,16.113,1.465,0
1581694865.142,8.301,23.926,20.020,10.742,0
1581694865.145,18.555,28.320,27.344,15.137,0
1581694865.149,28.320,31.250,31.250,17.578,0
1581694865.153,30.762,31.250,31.250,28.809,0
1581694865.157,26.367,30.762,27.832,36.133,0
1581694865.161,23.438,26.855,21.484,38.574,0
1581694865.163,25.879,27.344,20.996,42.969,0
1581694865.167,26.367,29.297,21.973,41.504,0
1581694865.171,23.926,24.414,18.555,40.527,0
1581694865.175,29.297,20.020,16.602,41.504,0
1581694865.179,27.344,20.020,16.602,40.039,0
1581694865.183,23.438,23.438,16.602,37.109,0
1581694865.187,25.879,29.297,19.531,29.297,0
1581694865.190,30.273,33.203,21.484,23.438,0
1581694865.194,26.367,30.762,22.461,24.902,0
1581694865.198,26.855,31.250,26.367,29.785,0
1581694865.202,29.785,34.180,25.879,31.250,0
1581694865.206,26.367,32.715,20.508,28.809,0
1581694865.223,25.879,33.203,20.020,31.250,0
1581694865.227,27.344,31.738,21.484,38.086,0
1581694865.231,30.273,29.785,21.973,39.062,0
1581694865.235,31.250,34.180,18.555,33.203,0
1581694865.239,34.180,38.574,16.602,33.203,0
1581694865.243,35.645,40.527,17.578,33.203,0
1581694865.247,32.715,36.133,21.484,30.762,0
1581694865.250,27.344,27.832,25.879,35.645,0
1581694865.254,25.391,31.738,26.367,38.574,0
1581694865.258,25.391,35.645,24.902,35.645,0
1581694865.262,25.879,37.109,25.879,30.762,0
1581694865.266,25.879,36.133,23.926,25.391,0
1581694865.268,22.461,31.738,18.555,21.484,0
1581694865.272,28.320,32.227,24.902,22.949,0
1581694865.276,28.320,34.180,30.273,22.949,0
1581694865.280,23.438,32.227,26.855,23.438,0
1581694865.284,28.320,30.273,26.367,25.391,0
1581694865.288,32.715,31.250,26.855,25.879,0
1581694865.292,30.762,31.738,29.785,27.344,0
1581694865.295,29.297,33.203,34.180,27.344,0
1581694865.299,31.738,36.621,34.180,21.973,0
1581694865.303,32.227,35.645,30.273,25.879,0
1581694865.307,28.320,33.203,28.320,28.320,0
1581694865.311,30.762,32.715,32.715,32.227,0
1581694865.313,32.715,32.715,33.203,40.039,0
1581694865.317,28.809,31.250,32.715,39.551,0
1581694865.321,28.320,31.250,36.133,32.715,0
1581694865.325,26.855,32.715,36.621,23.926,28341
1581694865.329,30.762,32.715,37.598,37.598,0
1581694865.333,36.133,33.203,37.109,34.668,0
1581694865.337,28.320,25.879,32.227,12.695,0
1581694865.340,20.020,23.438,27.832,14.648,0
1581694865.344,20.996,32.227,31.250,17.090,0
1581694865.348,22.461,34.668,35.156,17.090,0
1581694865.352,22.461,35.156,34.180,18.555,0
1581694865.356,22.461,35.645,36.133,23.438,0
1581694865.358,22.949,33.203,38.574,24.414,0
1581694865.362,29.785,35.645,37.109,21.484,0
1581694865.366,31.250,38.574,37.109,21.973,0
1581694865.370,25.879,35.645,36.133,19.043,0
1581694865.374,23.926,29.297,30.273,16.113,0
1581694865.378,20.508,26.367,27.832,15.625,0
1581694865.382,20.508,29.297,30.273,17.090,0
1581694865.385,24.902,29.785,31.250,18.066,0
1581694865.389,28.809,31.250,34.668,23.438,0
1581694865.393,27.832,37.109,33.691,28.809,0
1581694865.397,25.391,37.598,28.809,22.461,0
1581694865.401,26.367,29.297,29.297,21.484,0
1581694865.403,22.949,25.879,31.250,27.344,0
1581694865.407,20.020,29.785,31.738,23.926,0
1581694865.411,24.902,37.109,29.297,23.438,0
1581694865.415,29.297,41.016,27.344,19.043,0
1581694865.419,25.391,34.668,33.203,18.555,0
1581694865.423,24.414,31.738,37.109,28.809,0
1581694865.427,27.832,35.645,35.156,23.438,0
1581694865.430,30.762,40.527,35.645,15.137,0
1581694865.434,33.203,45.898,37.109,20.020,0
1581694865.438,34.180,41.016,35.645,33.203,0
1581694865.442,40.039,31.738,38.086,39.551,0
1581694865.446,41.016,31.738,38.574,36.133,0
1581694865.448,23.438,33.691,31.738,19.531,0
1581694865.452,10.742,30.273,30.762,13.184,0
1581694865.456,10.254,31.250,30.762,18.555,0
1581694865.460,7.324,33.691,30.273,15.137,0
1581694865.464,10.742,33.691,32.227,7.324,0
1581694865.468,14.160,36.621,28.809,6.348,0
1581694865.472,13.184,35.645,25.879,10.742,0
1581694865.475,12.695,34.668,28.809,11.230,0
1581694865.479,13.672,35.156,29.297,11.719,0
1581694865.483,13.184,36.133,24.414,10.254,0
1581694865.487,13.672,38.086,25.391,12.207,0
1581694865.491,18.066,34.180,24.902,15.625,0
1581694865.493,21.484,30.762,25.391,14.648,0
1581694865.497,22.949,31.250,27.832,16.602,0
1581694865.501,21.484,35.156,25.391,21.973,0
1581694865.505,22.461,35.156,23.438,17.578,0
1581694865.509,21.973,32.227,25.391,11.719,0
1581694865.513,16.113,33.203,25.391,14.648,0
1581694865.517,20.020,28.320,22.461,22.461,0
1581694865.520,23.438,27.344,24.414,20.996,0
1581694865.524,21.973,30.273,30.762,15.625,0
1581694865.528,25.879,31.738,35.156,13.184,0
1581694865.532,26.855,33.691,31.738,17.090,0
1581694865.536,21.973,34.180,25.879,24.414,0
1581694865.538,27.344,38.574,29.785,31.738,0
1581694865.542,35.156,41.504,32.715,32.715,0
1581694865.546,36.133,39.062,30.273,31.250,0
1581694865.550,39.062,31.250,31.250,41.504,0
1581694865.554,45.898,29.297,31.250,51.270,0
1581694865.558,35.645,37.598,24.414,33.691,0
1581694865.562,25.391,37.598,21.484,12.207,0
1581694865.565,32.715,34.180,24.414,22.461,0
1581694865.569,40.039,38.574,22.461,33.691,0
1581694865.573,42.480,40.527,20.508,34.668,0
1581694865.577,53.223,40.527,22.949,38.086,0
1581694865.581,60.059,40.527,24.902,29.785,0
1581694865.583,61.035,35.645,25.391,27.832,0
1581694865.587,64.453,38.574,25.391,32.715,0
1581694865.591,61.035,41.016,28.320,33.203,0
1581694865.595,53.223,37.598,31.738,36.133,0
1581694865.599,45.410,37.109,32.715,46.387,0
1581694865.603,42.480,40.039,35.645,41.992,0
1581694865.607,43.457,44.434,38.086,35.645,0
1581694865.610,41.016,44.434,34.180,50.293,0
1581694865.614,38.574,41.016,28.809,48.828,0
1581694865.618,43.457,40.039,27.832,40.527,0
1581694865.622,45.410,42.480,26.855,39.551,0
1581694865.626,44.434,42.480,27.832,41.992,0
1581694865.643,42.969,41.016,32.715,53.223,0
1581694865.647,38.574,39.062,32.715,56.641,0
1581694865.651,40.039,39.551,34.180,49.316,0
1581694865.655,39.551,37.109,39.551,41.992,0
1581694865.659,36.621,33.691,36.133,36.133,0
1581694865.663,41.016,35.645,33.203,40.039,0
1581694865.667,40.039,39.062,35.645,35.645,0
1581694865.670,34.668,34.180,33.691,34.180,0
1581694865.674,35.156,30.762,28.809,40.527,0
1581694865.678,33.691,32.715,31.738,41.992,0
1581694865.682,33.691,34.180,32.227,38.086,0
1581694865.686,38.086,31.738,33.203,35.156,0
1581694865.688,36.621,29.297,35.645,44.434,0
1581694865.692,39.062,30.762,33.691,56.152,0
1581694865.696,42.969,31.250,32.227,48.828,0
1581694865.700,39.551,33.691,31.738,42.480,0
1581694865.704,41.016,34.668,28.809,44.922,0
1581694865.708,39.062,33.203,29.785,47.852,0
1581694865.712,32.715,35.156,35.156,41.992,0
1581694865.715,37.598,40.527,33.203,36.133,0
1581694865.719,40.527,39.551,28.320,42.480,0
1581694865.723,38.574,34.668,27.344,42.480,0
1581694865.727,37.598,34.668,28.320,44.434,0
1581694865.731,39.062,38.086,28.320,43.457,0
1581694865.733,40.527,36.133,28.809,42.969,0
1581694865.737,37.109,32.715,32.715,42.480,0
1581694865.741,36.133,34.180,35.156,48.828,0
1581694865.745,37.598,37.109,29.297,48.340,0
1581694865.749,38.574,37.598,24.902,26.367,0
1581694865.753,41.016,41.016,28.320,31.738,0
1581694865.757,42.969,40.527,26.855,42.969,0
1581694865.760,39.062,33.691,24.902,33.691,0
1581694865.764,35.645,35.156,26.367,25.879,0
1581694865.768,37.598,38.086,29.297,33.203,0
1581694865.772,39.062,35.156,27.832,36.621,0
1581694865.776,38.086,33.691,23.438,27.832,0
1581694865.778,38.086,31.738,22.949,31.738,0
1581694865.782,39.062,28.320,24.414,30.762,0
1581694865.786,39.062,34.668,28.320,31.250,0
1581694865.790,38.086,41.504,30.762,35.156,0
1581694865.794,36.133,35.156,27.832,37.598,0
1581694865.798,35.645,30.273,25.879,35.156,0
1581694865.802,32.227,32.715,26.367,30.762,0
1581694865.805,31.738,35.156,26.855,32.715,0
1581694865.809,37.109,31.738,26.367,33.691,0
1581694865.813,38.574,31.738,27.344,33.203,0
1581694865.817,34.668,33.203,28.320,33.203,0
1581694865.821,34.668,35.645,30.273,39.062,0
1581694865.823,36.621,33.203,28.320,42.480,0
1581694865.827,42.969,34.180,24.414,37.109,0
1581694865.831,42.969,34.668,25.391,37.109,0
1581694865.835,37.109,30.762,28.809,39.551,0
1581694865.839,36.133,32.715,30.273,33.691,0
1581694865.843,38.574,40.039,25.879,35.156,0
1581694865.847,53.711,37.109,26.367,45.898,0
1581694865.850,42.480,26.855,32.715,32.227,0
1581694865.854,15.137,24.902,37.598,12.207,0
1581694865.858,16.602,28.320,39.551,24.414,0
1581694865.862,22.461,28.809,37.598,29.297,0
1581694865.866,25.879,30.762,32.715,21.484,0
1581694865.868,22.949,34.180,30.762,20.996,0
1581694865.872,15.137,32.715,32.715,17.578,0
1581694865.876,15.625,31.738,34.180,9.766,0
1581694865.880,14.648,31.250,34.180,11.230,0
1581694865.884,13.184,29.785,34.668,25.879,0
1581694865.888,15.137,28.320,32.227,28.320,0
1581694865.892,16.113,26.367,32.715,28.809,0
1581694865.895,20.508,25.879,35.156,25.391,0
1581694865.899,21.484,28.320,33.691,33.203,0
1581694865.903,22.949,27.344,36.133,34.180,0
1581694865.907,24.414,23.926,33.203,27.832,0
1581694865.911,19.531,30.273,29.297,30.762,0
1581694865.913,14.160,34.180,30.762,25.879,0
1581694865.917,13.672,26.855,32.715,23.438,0
1581694865.921,14.648,24.414,32.227,24.902,0
1581694865.925,16.113,27.832,31.250,24.902,0
1581694865.929,17.578,28.320,32.715,19.043,0
1581694865.933,20.508,30.273,30.762,18.066,0
1581694865.937,21.973,32.227,30.762,23.438,0
1581694865.940,16.113,28.320,35.156,26.367,0
1581694865.944,19.043,28.320,32.715,21.973,0
1581694865.948,22.949,28.320,25.391,23.926,0
1581694865.952,20.996,29.297,22.461,27.344,0
1581694865.956,21.484,29.785,22.461,21.973,0
1581694865.958,25.391,30.762,18.555,22.949,0
1581694865.962,25.391,35.156,19.531,29.297,0
1581694865.966,21.484,37.109,26.855,26.367,0
1581694865.970,20.996,33.203,27.832,27.344,0
1581694865.974,22.949,28.809,27.832,20.508,0
1581694865.978,20.508,29.297,26.367,16.113,0
1581694865.982,20.508,28.320,26.855,21.973,0
1581694865.985,21.973,24.902,30.762,24.414,0
1581694865.989,21.973,27.344,31.250,23.438,0
1581694865.993,23.926,27.344,28.320,23.438,0
1581694865.997,23.438,28.320,20.996,24.902,0
1581694866.001,23.926,32.715,19.531,24.414,0
1581694866.018,28.809,35.156,24.414,23.438,0
1581694866.022,28.320,35.645,20.020,22.461,0
1581694866.026,22.949,31.738,19.043,21.973,0
1581694866.030,23.438,29.297,24.902,31.738,0
1581694866.034,26.367,28.320,28.320,32.227,0
1581694866.038,29.297,28.320,30.762,27.832,0
1581694866.042,29.297,30.762,30.273,30.762,0
1581694866.045,25.879,33.691,28.809,25.391,0
1581694866.049,27.832,37.598,29.785,24.902,0
1581694866.053,30.762,34.668,31.738,22.461,0
1581694866.057,31.738,31.738,30.273,22.949,0
1581694866.061,28.809,29.785,28.320,23.438,0
1581694866.063,29.297,28.320,30.762,24.902,0
1581694866.067,30.273,30.762,31.250,25.879,0
1581694866.071,28.809,29.785,27.832,23.438,0
1581694866.075,28.320,31.250,27.344,28.320,0
1581694866.079,28.320,33.203,27.832,32.715,0
1581694866.083,25.879,34.180,23.438,25.879,0
1581694866.087,25.391,38.086,26.367,24.902,0
1581694866.090,24.414,35.645,35.645,27.344,0
1581694866.094,22.949,26.855,33.203,32.227,0
1581694866.098,28.320,26.367,26.367,31.250,0
1581694866.102,32.227,33.691,30.273,26.367,0
1581694866.106,30.762,34.180,36.621,37.109,0
1581694866.108,32.227,28.809,38.574,44.922,0
1581694866.112,31.738,28.320,38.086,40.039,0
1581694866.116,29.785,35.156,38.086,29.297,0
1581694866.120,28.320,34.668,35.156,37.598,0
1581694866.124,22.949,33.691,29.785,37.598,0
1581694866.128,20.996,33.203,29.785,29.785,0
1581694866.132,24.414,25.879,27.832,25.391,0
1581694866.135,25.879,26.367,25.391,23.926,0
1581694866.139,28.320,23.438,29.297,35.645,0
1581694866.143,27.344,20.020,33.203,32.715,0
1581694866.147,20.020,31.738,35.156,10.254,0
1581694866.151,20.996,38.574,34.180,10.742,0
1581694866.153,26.367,35.645,32.227,26.367,0
1581694866.157,21.484,36.133,33.691,27.832,0
1581694866.161,22.461,35.645,33.691,26.855,0
1581694866.165,27.832,36.621,30.762,26.367,0
1581694866.169,25.879,36.133,27.344,28.809,0
1581694866.173,30.273,34.668,28.320,21.973,0
1581694866.177,33.203,33.691,31.738,19.043,0
1581694866.180,35.645,35.645,28.320,29.785,0
1581694866.184,36.621,35.156,26.855,18.555,0
1581694866.188,29.297,37.598,27.832,17.578,0
1581694866.192,26.855,40.527,28.809,27.344,0
1581694866.196,29.785,38.574,29.785,21.973,0
1581694866.198,30.762,39.062,25.879,18.555,0
1581694866.202,28.320,36.133,27.832,20.996,0
1581694866.206,27.832,35.156,32.715,20.996,0
1581694866.210,31.250,35.156,31.738,20.020,0
1581694866.214,29.297,35.156,29.297,25.391,0
1581694866.218,27.344,37.598,28.809,31.250,0
1581694866.222,24.902,37.598,26.855,26.367,0
1581694866.225,25.391,33.691,25.879,26.367,0
1581694866.229,31.250,32.227,29.785,25.879,0
1581694866.233,32.227,30.273,30.762,22.461,0
1581694866.237,27.832,27.344,29.785,26.367,0
1581694866.241,28.809,29.297,31.250,28.809,0
1581694866.243,31.738,31.250,29.785,34.668,0
1581694866.247,30.273,26.855,32.715,36.621,0
1581694866.251,29.297,28.320,38.086,25.391,0
1581694866.255,28.809,31.738,37.109,27.344,0
1581694866.259,27.344,31.250,33.691,27.832,0
1581694866.263,31.738,33.203,35.156,26.855,0
1581694866.267,30.273,36.133,38.086,27.344,0
1581694866.270,23.926,35.645,32.715,26.367,0
1581694866.274,22.949,31.738,27.832,25.879,0
1581694866.278,21.484,30.273,27.832,25.391,0
1581694866.282,19.531,27.832,26.367,24.414,0
1581694866.286,18.555,22.949,31.250,24.902,0
1581694866.288,20.020,21.484,33.691,31.250,0
1581694866.292,22.461,23.926,31.738,28.809,0
1581694866.296,19.043,26.367,31.738,27.832,0
1581694866.300,15.137,27.344,26.367,32.715,0
1581694866.304,18.066,28.320,23.926,32.715,0
1581694866.308,19.531,28.809,30.273,29.297,0
1581694866.312,18.066,33.691,33.691,22.949,0
1581694866.315,22.461,34.180,32.715,18.066,0
1581694866.319,26.855,24.902,32.715,12.207,0
1581694866.323,34.180,26.855,32.715,14.160,0
1581694866.327,41.016,35.156,29.297,19.531,0
1581694866.331,35.645,34.180,27.344,16.113,0
1581694866.333,28.320,28.320,25.391,19.531,0
1581694866.337,20.996,26.367,22.949,29.297,0
1581694866.341,17.578,23.438,26.855,31.738,0
1581694866.345,16.113,28.320,32.227,35.645,0
1581694866.349,14.648,28.809,34.668,38.086,0
1581694866.353,18.066,24.902,36.133,30.273,0
1581694866.357,18.555,30.273,34.180,28.809,0
1581694866.360,20.996,32.715,30.762,36.621,0
1581694866.364,25.879,39.062,34.668,36.133,0
1581694866.368,25.391,39.551,40.039,30.762,0
1581694866.372,19.043,28.809,36.621,32.227,0
1581694866.376,14.160,25.879,28.320,21.973,0
1581694866.393,21.973,23.926,23.438,25.391,0
1581694866.397,31.738,28.320,21.973,34.668,0
1581694866.401,27.832,30.273,29.297,25.391,0
1581694866.405,21.973,28.809,34.668,24.414,17040
1581694866.409,20.020,31.250,31.250,23.438,0
1581694866.413,21.484,27.832,29.297,25.879,0
1581694866.417,24.414,24.414,27.344,34.180,0
1581694866.420,25.391,24.414,28.320,26.367,0
1581694866.424,26.855,27.344,28.320,20.996,0
1581694866.428,27.344,32.227,25.879,34.668,0
1581694866.432,28.809,39.062,28.320,33.203,0
1581694866.436,33.691,36.133,32.715,29.297,0
1581694866.438,35.156,30.762,30.762,35.645,0
1581694866.442,32.227,30.273,24.902,37.598,0
1581694866.446,28.809,29.297,23.926,32.715,0
1581694866.450,28.809,30.273,26.855,30.762,0
1581694866.454,31.250,33.691,23.926,26.367,0
1581694866.458,32.227,39.062,22.461,21.484,0
1581694866.462,31.250,39.062,30.762,27.344,0
1581694866.465,28.320,37.598,35.156,26.367,0
1581694866.469,28.320,39.062,30.762,17.090,0
1581694866.473,26.367,32.227,31.250,15.137,0
1581694866.477,32.227,30.762,34.668,25.879,0
1581694866.481,38.086,36.621,34.668,28.320,0
1581694866.498,35.156,34.180,31.738,25.879,0
1581694866.502,32.227,31.738,29.785,27.344,0
1581694866.506,31.250,30.273,32.227,31.738,0
1581694866.510,27.344,25.879,27.832,41.016,0
1581694866.514,26.367,26.855,26.367,34.180,0
1581694866.518,31.738,32.715,32.227,27.344,0
1581694866.522,33.691,32.715,37.598,27.344,0
1581694866.525,32.227,33.691,41.016,28.320,0
1581694866.529,32.715,35.156,37.598,29.297,0
1581694866.533,31.250,34.668,38.086,26.367,0
1581694866.537,35.156,37.109,40.039,31.250,0
1581694866.541,39.551,35.156,34.180,35.156,0
1581694866.528,40.039,33.203,29.297,29.785,0
1581694866.532,42.969,37.598,27.832,27.344,0
1581694866.536,35.645,35.156,28.320,35.156,0
1581694866.540,30.762,32.227,31.250,39.551,0
1581694866.544,31.738,36.133,29.785,34.180,0
1581694866.548,29.297,34.180,25.879,26.855,0
1581694866.552,29.785,32.715,26.367,29.785,0
1581694866.555,32.715,33.203,26.367,30.762,0
1581694866.559,32.227,28.809,24.414,18.066,0
1581694866.563,32.227,30.762,22.461,15.625,0
1581694866.567,31.250,33.203,26.367,20.996,0
1581694866.571,33.691,26.855,29.297,30.273,0
1581694866.573,34.668,25.391,25.391,31.250,0
1581694866.577,34.668,26.855,21.484,25.391,0
1581694866.581,41.992,26.855,21.973,26.855,0
1581694866.585,40.527,26.855,25.879,27.832,0
1581694866.589,33.691,27.832,24.414,22.949,0
1581694866.593,29.785,28.809,25.879,16.602,0
1581694866.597,24.414,32.715,27.832,13.672,0
1581694866.600,21.484,32.715,26.855,8.301,0
1581694866.604,21.973,28.809,32.227,15.625,0
1581694866.608,24.414,31.250,30.762,19.531,0
1581694866.612,28.320,34.668,27.344,14.160,0
1581694866.616,26.855,30.273,27.832,24.902,0
1581694866.618,22.461,28.320,30.273,30.762,0
1581694866.622,25.391,26.855,31.738,27.344,0
1581694866.626,27.344,25.879,28.809,24.414,0
1581694866.630,26.855,28.320,32.715,27.344,0
1581694866.634,25.879,30.762,40.039,36.133,0
1581694866.638,26.367,30.762,35.645,35.645,0
1581694866.642,26.367,30.273,31.738,41.016,0
1581694866.645,23.438,33.203,34.180,43.457,0
1581694866.649,22.949,36.133,32.227,21.973,0
1581694866.653,25.391,38.086,32.227,19.043,0
1581694866.657,26.367,35.645,34.180,22.461,0
1581694866.661,26.855,31.250,30.762,17.090,0
1581694866.663,31.250,30.273,26.367,23.926,0
1581694866.667,25.391,33.203,26.855,32.227,0
1581694866.671,11.719,31.738,29.785,28.320,0
1581694866.675,10.742,27.832,32.227,29.297,0
1581694866.679,18.555,27.344,35.156,37.598,0
1581694866.683,20.020,29.297,33.203,38.574,0
1581694866.687,14.160,32.715,31.738,30.273,0
1581694866.690,16.113,31.738,27.832,26.855,0
1581694866.694,21.973,28.320,23.926,24.414,0
1581694866.698,21.973,31.250,27.832,27.344,0
1581694866.702,23.926,34.180,32.227,30.273,0
1581694866.706,29.785,30.762,31.738,23.926,0
1581694866.709,29.785,29.297,33.203,24.414,0
1581694866.713,25.391,24.902,30.762,27.832,0
1581694866.717,24.414,24.414,20.996,37.598,0
1581694866.721,23.926,31.738,19.531,35.156,0
1581694866.725,23.926,32.715,21.484,37.598,0
1581694866.729,22.949,28.320,20.020,41.992,0
1581694866.733,21.973,26.855,16.113,29.785,0
1581694866.736,21.973,26.855,13.672,22.461,0
1581694866.740,22.461,29.785,11.719,17.578,0
1581694866.744,25.879,31.738,12.207,22.949,0
1581694866.748,26.855,30.273,16.113,25.391,0
1581694866.752,25.879,28.320,19.043,24.902,0
1581694866.769,27.832,28.320,20.508,27.344,0
1581694866.773,28.809,29.785,21.484,29.297,0
1581694866.777,24.414,23.926,22.949,35.645,0
1581694866.781,19.531,24.414,28.320,34.180,0
1581694866.785,20.508,30.762,31.250,31.738,0
1581694866.789,20.020,30.762,24.414,29.297,0
1581694866.793,17.578,30.762,18.066,18.066,0
1581694866.796,17.090,32.227,15.137,21.973,0
1581694866.800,20.020,36.133,19.043,32.715,0
1581694866.804,21.973,35.156,23.438,28.320,0
1581694866.808,21.484,29.785,21.973,22.949,0
1581694866.812,20.996,32.715,24.414,26.855,0
1581694866.815,22.461,34.668,27.344,21.484,0
1581694866.819,26.855,36.133,22.949,17.578,0
1581694866.823,24.902,34.668,21.484,22.461,0
1581694866.827,21.484,30.762,27.344,15.137,0
1581694866.831,21.484,31.738,29.297,16.113,0
1581694866.835,22.461,33.691,31.250,21.973,0
1581694866.839,26.855,35.645,29.785,17.090,0
1581694866.842,25.391,36.133,29.785,16.602,0
1581694866.846,20.508,32.715,31.250,16.113,0
1581694866.850,20.020,34.180,30.762,16.602,0
1581694866.854,22.949,39.062,29.785,12.695,0
1581694866.858,24.902,39.062,26.367,10.742,0
1581694866.859,21.973,31.738,24.414,20.020,0
1581694866.863,18.555,27.344,26.367,14.648,0
1581694866.867,18.066,27.344,26.855,10.254,0
1581694866.871,18.066,27.344,24.902,13.672,0
1581694866.875,20.020,26.367,22.461,13.672,0
1581694866.879,20.996,23.438,24.414,15.625,0
1581694866.883,22.461,25.391,23.438,18.066,0
1581694866.886,20.996,34.180,22.461,16.113,0
1581694866.890,21.973,34.668,27.344,21.973,0
1581694866.894,20.996,31.250,28.320,24.414,0
1581694866.898,17.578,30.762,29.297,16.113,0
1581694866.902,18.066,25.879,30.273,13.184,0
1581694866.904,20.996,26.855,30.273,14.160,0
1581694866.908,18.066,30.762,32.715,22.461,0
1581694866.912,17.578,30.273,39.551,28.320,0
1581694866.916,23.438,35.156,38.086,26.367,0
1581694866.920,22.949,40.527,30.273,19.531,0
1581694866.924,25.879,33.203,29.297,31.250,0
1581694866.928,29.785,22.949,29.297,39.062,0
1581694866.931,27.344,26.855,32.227,31.250,0
1581694866.935,30.762,39.062,35.645,31.738,0
1581694866.939,30.762,38.574,35.645,31.250,0
1581694866.943,30.762,36.133,34.180,27.832,0
1581694866.947,31.738,41.504,37.109,25.879,0
1581694866.949,25.391,40.039,39.551,26.855,0
1581694866.953,24.414,32.227,37.598,33.691,0
1581694866.957,24.902,30.273,37.598,36.133,0
1581694866.961,22.949,29.297,34.668,33.691,0
1581694866.965,29.297,30.273,30.273,27.344,0
1581694866.969,34.668,37.109,31.738,33.203,0
1581694866.973,27.832,38.574,30.762,29.297,0
1581694866.976,17.578,32.227,32.715,19.043,0
1581694866.980,18.555,26.855,40.039,23.926,0
1581694866.984,19.531,29.785,38.574,26.367,0
1581694866.988,18.555,29.785,33.691,25.879,0
1581694866.992,20.996,24.902,29.785,26.367,0
1581694866.994,24.414,26.367,30.273,20.020,0
1581694866.998,25.391,27.344,30.273,22.949,0
1581694867.002,19.531,25.879,24.902,25.879,0
1581694867.006,20.020,28.320,23.926,20.508,0
1581694867.010,23.438,31.738,29.297,18.555,0
1581694867.014,20.996,32.227,35.156,19.043,0
1581694867.018,20.020,32.227,30.762,23.926,0
1581694867.021,22.461,34.180,30.762,22.461,0
1581694867.025,22.949,31.250,35.156,17.090,0
1581694867.029,26.367,30.762,34.180,18.066,0
1581694867.033,28.809,32.715,30.273,25.879,0
1581694867.037,27.344,30.762,27.832,27.832,0
1581694867.039,32.227,29.785,29.297,24.414,0
1581694867.043,31.738,29.785,32.715,20.996,0
1581694867.047,23.926,27.344,32.715,22.949,0
1581694867.051,19.043,27.344,30.273,27.344,0
1581694867.055,20.508,29.785,30.273,25.391,0
1581694867.059,23.926,27.832,32.227,22.949,0
1581694867.063,24.902,29.785,32.227,19.043,0
1581694867.066,22.461,30.273,24.414,20.508,0
1581694867.070,21.973,25.879,22.461,21.484,0
1581694867.074,26.367,29.297,26.367,20.508,0
1581694867.078,21.484,31.738,24.902,17.578,0
1581694867.082,13.672,27.344,23.926,15.625,0
1581694867.084,12.207,26.855,24.902,11.719,0
1581694867.088,15.625,27.832,20.996,9.766,0
1581694867.092,21.484,28.809,22.949,13.184,0
1581694867.096,22.949,31.250,25.879,20.508,0
1581694867.100,24.902,30.762,24.902,21.484,0
1581694867.104,27.344,30.762,25.391,10.254,0
1581694867.108,31.738,31.738,21.973,3.906,0
1581694867.111,38.574,31.738,20.020,13.672,0
1581694867.115,35.645,30.762,23.438,20.508,0
1581694867.119,27.344,31.738,24.414,20.020,0
1581694867.123,23.926,32.715,25.879,24.902,0
1581694867.127,18.066,33.691,28.320,29.785,0
1581694867.144,16.602,33.203,25.879,26.367,0
1581694867.148,16.113,32.715,25.391,19.531,0
1581694867.152,12.207,29.785,24.902,15.625,0
1581694867.156,10.254,25.879,24.902,19.043,0
1581694867.160,8.301,25.879,29.297,20.996,0
1581694867.164,9.277,30.762,36.621,23.926,0
1581694867.168,14.160,37.598,39.551,20.508,0
1581694867.171,12.695,30.273,32.227,13.184,0
1581694867.175,8.789,24.414,27.344,15.137,0
1581694867.179,12.695,30.762,26.855,19.043,0
1581694867.183,19.043,32.227,26.367,20.996,0
1581694867.187,19.043,29.785,26.855,17.578,0
1581694867.188,17.578,29.297,26.855,24.414,0
1581694867.192,19.043,33.691,28.809,30.273,0
1581694867.196,20.020,32.227,30.273,25.391,0
1581694867.200,19.531,31.250,31.738,19.531,0
1581694867.204,21.484,32.715,32.715,16.602,0
1581694867.208,21.484,26.367,34.668,18.555,0
1581694867.212,20.508,24.902,34.668,20.996,0
1581694867.215,22.949,30.273,39.062,22.461,0
1581694867.219,24.414,32.227,40.039,26.367,0
1581694867.223,25.391,32.227,36.133,20.508,0
1581694867.227,24.414,31.738,36.621,16.602,0
1581694867.231,24.902,29.297,33.691,21.973,0
1581694867.233,26.855,26.855,31.250,22.949,0
1581694867.237,24.414,28.320,33.691,26.855,0
1581694867.241,22.949,28.320,33.203,23.438,0
1581694867.245,22.949,32.227,33.203,15.137,0
1581694867.249,26.367,34.668,34.180,15.137,0
1581694867.253,22.949,32.227,33.203,16.602,0
1581694867.257,17.090,30.273,33.203,16.113,0
1581694867.260,17.578,32.715,26.367,21.484,0
1581694867.264,20.996,30.762,21.973,22.949,0
1581694867.268,24.902,27.344,29.785,22.949,0
1581694867.272,22.461,29.297,36.621,24.414,0
1581694867.276,23.926,33.691,37.598,20.996,0
1581694867.278,27.344,33.203,34.668,20.508,0
1581694867.282,27.344,25.391,33.691,14.648,0
1581694867.286,26.855,19.531,33.691,17.090,0
1581694867.290,18.555,22.461,33.691,21.484,0
1581694867.294,16.602,31.250,34.668,24.414,0
1581694867.298,20.996,32.715,32.227,15.137,0
1581694867.302,22.461,33.691,28.809,6.836,0
1581694867.305,27.832,38.086,27.832,18.555,0
1581694867.309,27.832,34.180,27.832,16.602,0
1581694867.313,25.879,28.809,30.273,11.230,0
1581694867.317,27.832,28.809,34.180,16.113,0
1581694867.321,27.832,29.785,31.738,23.926,0
1581694867.323,28.320,31.250,29.297,24.414,0
1581694867.327,30.273,31.738,33.203,19.043,0
1581694867.331,29.785,29.297,34.668,28.320,0
1581694867.335,28.809,32.715,31.738,40.527,0
1581694867.339,25.391,35.645,31.738,36.621,0
1581694867.343,27.832,29.785,31.250,26.367,0
1581694867.347,33.203,27.344,25.391,19.531,0
1581694867.350,35.156,35.156,26.367,17.578,0
1581694867.354,39.551,34.668,24.414,21.484,0
1581694867.358,39.062,25.391,19.043,24.902,0
1581694867.362,28.809,23.926,20.996,23.926,0
1581694867.366,31.250,28.809,23.926,28.320,0
1581694867.368,31.250,30.273,24.902,31.250,0
1581694867.372,24.902,27.832,28.320,23.438,0
1581694867.376,27.832,33.691,30.762,27.344,0
1581694867.380,29.297,34.668,26.855,28.320,0
1581694867.384,26.855,25.879,26.855,22.461,0
1581694867.388,22.949,26.855,28.320,24.902,0
1581694867.392,24.902,32.227,26.367,23.926,0
1581694867.395,29.297,31.250,31.250,24.414,0
1581694867.399,26.855,28.320,35.156,25.879,0
1581694867.403,24.902,28.809,34.180,31.250,0
1581694867.407,22.461,29.785,35.645,30.273,0
1581694867.411,22.949,29.785,37.109,26.367,0
1581694867.413,25.879,28.320,37.109,29.297,0
1581694867.417,26.367,24.902,35.645,21.484,0
1581694867.421,24.414,23.438,35.156,15.625,0
1581694867.425,21.484,23.438,33.691,19.531,0
1581694867.429,21.484,24.414,29.297,25.391,0
1581694867.433,21.973,29.785,26.855,26.855,0
1581694867.437,22.949,34.180,28.320,18.555,25626
1581694867.440,20.020,28.320,29.297,17.090,0
1581694867.444,14.160,26.855,24.414,23.926,0
1581694867.448,14.648,29.297,20.508,26.855,0
1581694867.452,16.113,26.855,20.996,27.832,0
1581694867.456,13.672,23.926,23.926,24.902,0
1581694867.458,18.555,22.949,24.414,12.207,0
1581694867.462,20.020,27.832,22.949,3.418,0
1581694867.466,11.719,24.414,21.973,7.324,0
1581694867.470,9.766,20.508,20.996,14.160,0
1581694867.474,18.066,23.926,26.855,29.297,0
1581694867.478,28.809,25.391,28.320,33.691,0
1581694867.482,20.020,28.809,20.996,17.090,0
1581694867.485,11.719,30.762,13.672,8.789,0
1581694867.489,13.184,32.227,18.066,15.137,0
1581694867.493,6.348,27.344,23.926,15.625,0
1581694867.497,5.371,20.996,26.855,21.484,0
1581694867.501,14.160,26.855,28.320,32.227,0
1581694867.518,19.531,30.762,22.949,27.344,0
1581694867.522,19.043,29.297,19.043,17.578,0
1581694867.526,17.090,34.668,21.973,11.230,0
1581694867.530,19.043,39.551,27.344,16.113,0
1581694867.534,20.996,39.062,24.902,16.113,0
1581694867.538,17.578,30.273,20.996,14.648,0
1581694867.542,14.648,23.438,23.926,17.090,0
1581694867.545,20.996,30.762,27.832,19.531,0
1581694867.549,24.414,31.250,31.250,21.484,0
1581694867.553,17.090,26.855,29.297,17.578,0
1581694867.557,18.555,31.738,25.391,21.484,0
1581694867.561,25.391,29.785,24.414,22.461,0
1581694867.563,20.020,27.344,27.344,14.648,0
1581694867.567,14.160,28.809,31.738,14.648,0
1581694867.571,13.184,26.855,34.180,14.160,0
1581694867.575,10.254,24.902,28.320,16.113,0
1581694867.579,18.066,22.949,27.832,26.855,0
1581694867.583,24.414,27.344,35.645,21.973,0
1581694867.587,20.996,31.738,35.645,15.137,0
1581694867.590,21.973,35.156,28.809,27.832,0
1581694867.594,24.414,31.738,28.809,34.668,0
1581694867.598,26.367,23.438,31.250,21.973,0
1581694867.602,24.902,25.391,30.273,13.672,0
1581694867.606,20.996,33.691,34.180,22.461,0
1581694867.608,20.508,38.086,37.598,25.391,0
1581694867.612,20.996,33.691,36.133,24.414,0
1581694867.616,24.414,29.297,38.086,18.066,0
1581694867.620,27.344,27.832,39.551,21.973,0
1581694867.624,28.320,27.344,34.668,29.785,0
1581694867.628,23.926,29.785,33.203,29.297,0
1581694867.632,28.809,29.297,31.738,27.832,0
1581694867.635,37.598,30.273,29.785,26.367,0
1581694867.639,30.762,33.691,32.227,33.691,0
1581694867.643,28.809,34.668,33.691,28.809,0
1581694867.647,32.227,31.738,35.645,19.531,0
1581694867.651,29.297,27.344,33.203,25.879,0
1581694867.654,29.297,24.902,27.832,29.785,0
1581694867.658,26.367,31.250,31.250,32.227,0
1581694867.662,20.996,37.109,34.668,29.297,0
1581694867.666,29.785,36.133,27.832,20.508,0
1581694867.670,30.762,34.668,29.297,22.461,0
1581694867.674,27.344,33.691,34.180,28.809,0
1581694867.678,30.273,34.180,31.738,28.809,0
1581694867.681,26.855,32.227,30.762,20.508,0
1581694867.685,20.508,33.203,32.715,20.508,0
1581694867.689,19.043,33.203,35.156,26.367,0
1581694867.693,21.484,31.738,30.762,22.461,0
1581694867.697,18.555,32.227,27.344,15.625,0
1581694867.699,19.043,33.203,28.320,24.414,0
1581694867.703,21.484,29.297,28.320,28.320,0
1581694867.707,20.508,23.438,28.320,22.461,0
1581694867.711,22.461,22.949,26.855,19.043,0
1581694867.715,24.902,26.367,28.320,20.996,0
1581694867.719,21.484,30.762,27.832,24.902,0
1581694867.723,18.066,28.809,30.273,16.113,0
1581694867.726,19.531,27.832,34.180,17.578,0
1581694867.730,22.461,30.273,37.109,15.625,0
1581694867.734,21.973,28.320,34.180,19.531,0
1581694867.738,22.949,31.250,32.715,31.738,0
1581694867.742,25.391,32.227,36.133,28.320,0
1581694867.744,28.320,33.691,34.668,22.461,0
1581694867.748,28.320,35.156,32.227,27.344,0
1581694867.752,23.926,31.250,35.156,27.832,0
1581694867.756,26.855,25.879,41.504,28.320,0
1581694867.760,25.879,27.344,40.039,18.555,0
1581694867.764,17.090,33.691,32.227,-0.488,0
1581694867.768,19.531,36.133,29.785,11.230,0
1581694867.771,23.926,36.133,34.668,20.508,0
1581694867.775,27.832,34.180,38.086,20.508,0
1581694867.779,25.391,33.203,34.668,19.531,0
1581694867.783,22.461,34.668,29.785,20.508,0
1581694867.787,24.414,32.715,30.273,21.484,0
1581694867.789,23.438,33.691,29.297,18.555,0
1581694867.793,23.438,33.691,24.902,21.973,0
1581694867.797,24.414,30.273,20.508,32.715,0
1581694867.801,25.879,32.227,22.949,30.762,0
1581694867.805,24.902,29.785,27.832,24.902,0
1581694867.809,29.297,31.738,25.879,23.438,0
1581694867.813,22.949,30.762,27.344,22.461,0
1581694867.816,14.648,28.320,32.227,20.508,0
1581694867.820,19.531,30.273,27.344,27.344,0
1581694867.824,20.020,30.762,22.949,24.902,0
1581694867.828,19.043,33.203,28.320,22.461,0
1581694867.832,22.461,33.691,28.320,26.367,0
1581694867.834,24.414,35.645,26.855,13.184,0
1581694867.838,26.367,34.180,27.832,17.578,0
1581694867.842,29.297,33.203,25.391,24.902,0
1581694867.846,31.738,35.156,28.320,22.949,0
1581694867.850,31.250,31.738,28.809,29.785,0
1581694867.854,25.879,29.785,28.320,33.691,0
1581694867.858,24.414,32.715,31.250,29.785,0
1581694867.861,20.996,31.250,30.273,31.738,0
1581694867.865,25.391,29.785,31.738,31.250,0
1581694867.869,34.668,32.715,33.691,27.344,0
1581694867.873,39.551,30.273,28.320,23.438,0
1581694867.877,41.992,30.762,28.320,22.949,0
1581694867.894,41.504,35.156,32.227,20.020,0
1581694867.898,45.410,39.062,28.809,22.949,0
1581694867.902,49.316,40.039,28.320,28.320,0
1581694867.906,46.387,34.180,33.203,22.949,0
1581694867.910,36.133,29.297,34.180,24.414,0
1581694867.914,30.762,28.320,33.203,31.250,0
1581694867.918,25.391,23.438,32.715,33.203,0
1581694867.921,23.438,24.414,30.273,29.785,0
1581694867.925,20.508,27.832,29.297,34.668,0
1581694867.929,13.184,27.832,30.273,36.621,0
1581694867.933,17.090,29.297,26.855,30.762,0
1581694867.937,15.137,28.320,23.926,35.645,0
1581694867.939,14.648,30.762,26.855,33.203,0
1581694867.943,18.066,33.203,30.762,27.344,0
1581694867.947,18.555,33.203,30.273,31.250,0
1581694867.951,21.973,33.203,27.344,21.484,0
1581694867.955,21.484,33.691,29.297,19.043,0
1581694867.959,23.438,30.762,29.297,28.809,0
1581694867.963,21.484,29.785,26.367,24.414,0
1581694867.966,22.949,32.715,25.879,24.414,0
1581694867.970,28.809,30.273,30.273,30.273,0
1581694867.974,26.367,26.367,26.855,20.996,0
1581694867.978,19.043,28.320,23.438,18.066,0
1581694867.982,20.996,31.738,22.949,26.855,0
1581694867.984,21.484,32.227,20.508,19.531,0
1581694867.988,15.625,33.691,22.949,16.602,0
1581694867.992,15.137,30.762,20.508,22.461,0
1581694867.996,18.066,31.250,19.531,19.043,0
1581694868.000,29.785,37.109,21.973,22.949,0
1581694868.004,42.969,37.109,28.320,33.203,0
1581694868.008,23.438,31.738,37.598,30.762,0
1581694868.011,11.719,25.391,38.574,19.043,0
1581694868.015,24.902,22.461,39.551,11.230,0
1581694868.019,25.391,22.949,34.180,9.277,0
1581694868.023,29.785,27.344,25.391,20.020,0
1581694868.027,22.461,27.832,26.855,20.996,0
1581694868.029,6.836,20.508,28.809,11.719,0
1581694868.033,12.207,19.531,26.367,12.695,0
1581694868.037,11.719,22.461,24.414,11.230,0
1581694868.041,8.789,23.438,29.297,19.043,0
1581694868.045,26.855,25.879,32.227,22.461,0
1581694868.049,24.902,25.391,29.785,8.789,0
1581694868.053,12.207,28.320,29.785,13.672,0
1581694868.056,19.531,29.785,28.809,23.926,0
1581694868.060,13.184,21.973,25.879,20.020,0
1581694868.064,12.695,21.973,23.438,12.207,0
1581694868.068,7.812,23.438,26.855,15.137,0
1581694868.072,5.371,25.391,31.250,25.879,0
1581694868.074,25.391,27.344,27.832,26.367,0
1581694868.078,32.715,25.391,31.738,21.484,0
1581694868.082,35.156,28.809,33.203,19.043,0
1581694868.086,29.297,30.762,28.320,23.926,0
1581694868.090,23.438,30.273,29.785,25.879,0
1581694868.094,15.137,29.785,31.250,22.461,0
1581694868.098,18.555,28.809,30.762,18.555,0
1581694868.101,34.180,31.250,30.762,16.602,0
1581694868.105,35.156,30.762,32.227,20.996,0
1581694868.109,30.762,27.832,33.691,23.438,0
1581694868.113,35.645,30.762,35.156,17.578,0
1581694868.117,32.715,29.785,36.133,20.508,0
1581694868.119,25.879,28.320,35.645,25.391,0
1581694868.123,33.203,28.320,30.762,26.855,0
1581694868.127,31.250,23.438,30.762,20.508,0
1581694868.131,30.762,27.832,32.227,16.113,0
1581694868.135,32.227,34.668,30.762,22.949,0
1581694868.139,28.320,31.738,32.715,23.438,0
1581694868.143,25.879,32.227,37.109,27.832,0
1581694868.146,19.043,33.691,39.062,24.414,0
1581694868.150,30.762,36.133,36.133,25.879,0
1581694868.154,36.133,37.109,36.621,31.738,0
1581694868.158,30.273,33.203,37.598,29.297,0
1581694868.162,31.250,34.668,33.691,20.996,0
1581694868.164,27.344,36.133,28.320,19.043,0
1581694868.168,24.902,34.668,27.832,29.297,0
1581694868.172,26.367,36.621,30.762,20.508,0
1581694868.176,24.902,29.785,30.762,10.742,0
1581694868.180,24.902,22.949,25.879,20.020,0
1581694868.184,22.461,33.691,26.855,30.273,0
1581694868.188,24.414,42.480,31.738,32.227,0
1581694868.191,19.043,35.156,28.320,25.391,0
1581694868.195,23.438,31.250,29.297,19.043,0
1581694868.199,30.762,36.621,33.691,22.461,0
1581694868.203,22.461,31.738,29.785,25.391,0
1581694868.207,29.297,31.738,26.855,25.879,0
1581694868.209,27.344,33.203,26.855,25.879,0
1581694868.213,29.785,32.227,29.785,29.785,0
1581694868.217,26.367,36.133,30.273,29.785,0
1581694868.221,19.043,38.086,32.227,28.320,0
1581694868.225,20.996,32.715,33.691,28.320,0
1581694868.229,19.531,28.809,35.156,17.090,0
1581694868.233,19.531,31.250,36.133,12.207,0
1581694868.236,17.578,31.250,36.133,15.137,0
1581694868.240,17.090,29.785,36.621,21.484,0
1581694868.244,19.531,29.297,36.133,23.438,0
1581694868.248,21.973,30.762,34.668,24.902,0
1581694868.252,23.926,35.645,33.203,26.855,0
1581694868.269,20.996,32.715,33.203,21.484,0
1581694868.273,22.949,30.273,31.738,21.484,0
1581694868.277,26.367,33.691,33.691,35.645,0
1581694868.281,22.461,35.645,31.250,31.250,0
1581694868.285,18.066,28.320,25.391,18.066,0
1581694868.289,17.578,29.297,25.391,18.066,0
1581694868.293,14.648,35.156,25.391,20.996,0
1581694868.296,18.066,31.738,26.367,18.066,0
1581694868.300,20.996,28.809,21.973,10.254,0
1581694868.304,21.484,34.180,22.461,10.254,0
1581694868.308,24.414,35.645,28.809,23.926,0
1581694868.312,24.414,34.180,25.879,31.738,0
1581694868.314,24.414,32.227,17.578,15.137,0
1581694868.318,25.391,29.297,21.973,16.113,0
1581694868.322,21.973,30.762,31.250,22.461,0
1581694868.326,17.578,34.180,35.156,21.973,0
1581694868.330,21.973,38.086,41.504,27.344,0
1581694868.334,23.438,40.527,43.457,34.180,0
1581694868.338,24.902,39.551,36.133,36.621,0
1581694868.341,31.738,37.109,29.785,33.203,0
1581694868.345,24.414,32.227,27.832,26.855,0
1581694868.349,22.461,27.344,28.320,20.996,0
1581694868.353,25.391,28.809,25.879,28.320,0
1581694868.357,23.438,32.227,31.250,34.668,0
1581694868.359,25.391,34.180,38.086,25.391,0
1581694868.363,23.926,36.621,33.691,19.043,0
1581694868.367,21.484,39.551,30.273,22.461,0
1581694868.371,18.555,40.527,30.762,20.508,0
1581694868.375,19.531,41.016,31.738,21.484,0
1581694868.379,19.043,35.645,30.273,20.996,0
1581694868.383,14.648,26.367,30.273,16.602,0
1581694868.386,19.043,30.273,29.297,22.461,0
1581694868.390,27.832,34.668,27.832,27.832,0
1581694868.394,26.367,34.180,29.297,27.344,0
1581694868.398,24.414,34.180,27.344,30.762,0
1581694868.402,29.297,38.086,26.855,32.715,0
1581694868.404,28.320,42.969,31.250,30.273,0
1581694868.408,27.344,40.039,31.250,37.109,0
1581694868.412,29.297,36.133,28.320,41.992,0
1581694868.416,29.785,32.227,29.785,22.461,0
1581694868.420,23.438,30.762,33.691,18.555,0
1581694868.424,21.484,36.133,33.203,27.344,0
1581694868.428,30.273,38.086,30.762,27.344,0
1581694868.431,31.250,33.203,30.273,29.785,0
1581694868.435,30.762,30.273,31.250,28.320,0
1581694868.439,31.250,31.738,31.250,25.879,0
1581694868.443,29.785,34.180,31.250,32.715,0
1581694868.447,31.250,31.250,34.180,37.109,0
1581694868.448,35.645,27.832,37.598,28.320,0
1581694868.452,35.156,32.227,34.180,23.438,0
1581694868.456,32.227,39.062,29.297,29.785,0
1581694868.460,32.227,38.086,25.391,38.086,0
1581694868.464,28.320,32.227,27.344,33.203,0
1581694868.468,30.762,34.180,34.668,26.367,0
1581694868.472,29.297,31.738,35.645,34.668,0
1581694868.475,25.391,31.738,33.691,32.715,0
1581694868.479,31.250,36.621,34.180,22.461,0
1581694868.483,32.715,34.180,32.227,21.973,0
1581694868.487,30.762,35.645,30.762,25.879,0
1581694868.491,29.297,37.598,30.273,26.367,0
1581694868.493,31.738,39.062,25.391,30.762,0
1581694868.497,33.203,38.086,23.438,39.062,0
1581694868.501,30.273,35.156,22.949,26.855,0
1581694868.505,27.344,37.109,23.926,25.391,0
1581694868.509,29.785,33.203,27.832,26.367,0
1581694868.513,31.250,29.785,34.180,21.973,0
1581694868.517,30.273,29.785,38.574,31.250,0
1581694868.520,31.250,30.762,32.227,33.203,0
1581694868.524,32.715,37.598,24.902,28.320,0
1581694868.528,28.320,39.551,26.367,28.320,0
1581694868.532,28.809,34.668,25.391,34.180,0
1581694868.536,26.367,34.668,22.949,34.668,0
1581694868.538,23.438,29.297,25.391,24.902,0
1581694868.542,28.809,24.414,21.973,18.555,0
1581694868.546,32.715,29.785,19.531,25.879,0
1581694868.550,36.621,33.203,26.367,32.715,0
1581694868.554,30.762,28.809,30.273,33.203,0
1581694868.558,24.414,27.832,28.809,36.133,0
1581694868.562,24.902,29.785,25.879,30.762,0
1581694868.565,20.508,33.203,23.926,27.344,0
1581694868.569,22.461,29.297,25.879,27.832,0
1581694868.573,26.855,18.555,24.902,24.414,0
1581694868.577,20.508,17.578,28.320,20.508,0
1581694868.581,20.020,22.949,30.273,18.066,0
1581694868.583,22.949,27.832,27.832,16.113,0
1581694868.587,23.438,34.180,29.785,23.926,0
1581694868.591,24.414,32.227,33.691,27.344,0
1581694868.595,20.508,26.855,34.180,21.973,0
1581694868.599,16.602,23.926,32.227,29.297,0
1581694868.603,19.043,26.367,26.367,23.438,0
1581694868.607,16.602,31.738,23.926,10.742,0
1581694868.610,20.508,23.438,30.762,15.137,0
1581694868.614,27.344,20.996,35.156,29.297,0
1581694868.618,29.297,31.250,31.738,32.227,0
1581694868.622,28.320,33.203,34.668,27.344,0
1581694868.626,27.344,30.762,34.668,33.203,0
1581694868.643,22.949,29.297,27.832,37.109,17490
1581694868.647,19.531,20.020,33.203,36.133,0
1581694868.651,22.461,15.137,37.598,29.297,0
1581694868.655,22.461,21.484,35.156,17.090,0
1581694868.659,22.461,29.297,35.645,16.602,0
1581694868.663,21.973,31.738,32.715,10.254,0
1581694868.667,20.020,32.715,31.250,5.859,0
1581694868.670,22.461,31.738,33.691,17.090,0
1581694868.674,27.832,29.785,30.762,15.137,0
1581694868.678,32.715,32.715,29.785,11.719,0
1581694868.682,29.297,31.738,30.273,11.230,0
1581694868.686,26.855,30.762,29.297,13.184,0
1581694868.688,29.785,32.715,31.738,21.973,0
1581694868.692,24.902,30.273,31.738,32.715,0
1581694868.696,20.508,24.414,32.227,26.367,0
1581694868.700,19.531,22.461,34.668,15.137,0
1581694868.704,19.531,31.250,36.133,20.508,0
1581694868.708,16.602,36.133,38.574,29.297,0
1581694868.712,19.043,29.297,31.738,28.320,0
1581694868.715,17.578,26.855,24.902,22.949,0
1581694868.719,16.113,30.273,30.273,22.949,0
1581694868.723,17.578,32.715,33.203,25.879,0
1581694868.727,24.902,34.668,34.668,30.273,0
1581694868.731,27.344,37.598,33.203,23.438,0
1581694868.733,20.996,37.598,31.250,20.020,0
1581694868.737,20.996,34.668,33.203,25.391,0
1581694868.741,19.531,27.832,37.109,22.949,0
1581694868.745,19.043,27.832,38.086,17.090,0
1581694868.749,18.555,32.227,30.762,20.508,0
1581694868.753,14.648,32.715,32.227,23.926,0
1581694868.757,15.137,36.133,34.668,20.508,0
1581694868.760,20.020,28.320,30.762,22.461,0
1581694868.764,24.414,24.902,32.715,20.996,0
1581694868.768,20.508,31.250,33.203,20.996,0
1581694868.772,20.508,29.297,33.203,32.227,0
1581694868.776,26.855,27.344,37.109,30.273,0
1581694868.778,28.320,24.902,34.180,23.926,0
1581694868.782,29.297,23.926,29.785,23.438,0
1581694868.786,30.762,27.832,34.180,22.461,0
1581694868.790,31.738,27.832,36.133,27.832,0
1581694868.794,33.691,24.414,31.250,30.273,0
1581694868.798,33.203,28.809,28.320,26.367,0
1581694868.802,30.762,35.645,30.273,30.762,0
1581694868.805,31.250,30.762,33.203,40.039,0
1581694868.809,30.762,24.902,31.250,31.250,0
1581694868.813,26.855,29.297,23.926,16.113,0
1581694868.817,23.438,29.297,24.414,22.461,0
1581694868.821,26.367,29.297,27.832,32.227,0
1581694868.823,28.320,35.156,27.832,29.297,0
1581694868.827,26.855,38.086,28.320,23.926,0
1581694868.831,29.785,38.086,29.785,27.344,0
1581694868.835,25.879,30.762,31.250,29.785,0
1581694868.839,24.414,25.391,33.203,29.297,0
1581694868.843,26.855,29.785,33.691,30.273,0
1581694868.847,26.855,31.250,31.738,23.438,0
1581694868.850,30.762,28.320,29.297,22.949,0
1581694868.854,32.227,23.926,27.344,29.297,0
1581694868.858,30.762,24.414,26.367,32.715,0
1581694868.862,33.203,34.180,26.855,28.809,0
1581694868.866,31.738,42.480,26.855,26.855,0
1581694868.868,25.391,34.668,25.391,32.227,0
1581694868.872,28.320,28.320,24.902,33.691,0
1581694868.876,40.039,31.250,25.879,39.062,0
1581694868.880,41.016,34.668,30.273,36.133,0
1581694868.884,30.273,31.250,33.203,36.621,0
1581694868.888,21.973,20.020,35.156,29.297,0
1581694868.892,23.926,19.043,36.133,14.648,0
1581694868.895,31.738,28.320,32.715,15.625,0
1581694868.899,34.668,30.273,31.738,21.484,0
1581694868.903,29.297,28.320,31.738,26.367,0
1581694868.907,26.855,26.855,25.879,27.344,0
1581694868.911,30.762,26.855,22.461,23.926,0
1581694868.914,33.203,31.250,25.879,21.973,0
1581694868.918,30.762,34.668,28.809,24.902,0
1581694868.922,33.691,35.156,26.855,21.973,0
1581694868.926,34.668,34.180,29.297,26.367,0
1581694868.930,32.227,33.203,34.180,35.645,0
1581694868.934,26.367,30.273,26.367,31.250,0
1581694868.938,28.320,30.762,22.461,30.273,0
1581694868.941,33.691,33.691,25.391,34.180,0
1581694868.945,32.227,27.832,26.367,32.715,0
1581694868.949,33.691,26.855,27.832,34.180,0
1581694868.953,29.785,33.203,31.250,32.715,0
1581694868.957,30.762,33.203,29.297,32.227,0
1581694868.959,29.297,32.227,25.391,32.227,0
1581694868.963,21.484,30.762,26.367,28.809,0
1581694868.967,18.555,24.414,22.461,22.949,0
1581694868.971,20.996,25.879,23.438,15.137,0
1581694868.975,21.484,27.832,27.344,21.973,0
1581694868.979,21.484,30.762,29.297,28.320,0
1581694868.983,21.973,33.203,33.203,23.926,0
1581694868.986,22.949,33.691,34.180,33.203,0
1581694868.990,28.320,35.156,35.156,36.621,0
1581694868.994,27.344,31.738,36.621,31.250,0
1581694868.998,24.414,32.227,28.809,32.715,0
1581694869.002,18.555,36.133,27.344,28.320,0
1581694869.019,16.602,33.203,30.273,23.926,0
1581694869.023,21.973,29.785,26.855,27.832,0
1581694869.027,17.578,27.344,27.832,31.250,0
1581694869.031,10.742,30.762,26.855,29.785,0
1581694869.035,17.090,33.203,24.902,28.809,0
1581694869.039,22.949,32.227,27.832,20.508,0
1581694869.043,24.414,32.715,29.785,21.973,0
1581694869.046,21.973,31.250,23.438,22.461,0
1581694869.050,20.020,29.297,21.484,16.602,0
1581694869.054,21.484,31.250,27.832,20.020,0
1581694869.058,15.625,27.832,28.320,28.809,0
1581694869.062,15.137,25.879,28.320,29.785,0
1581694869.064,21.484,29.785,31.738,26.855,0
1581694869.068,27.344,31.738,33.691,30.762,0
1581694869.072,24.902,27.832,31.250,21.484,0
1581694869.076,19.531,27.344,26.855,16.602,0
1581694869.080,14.648,30.273,25.391,21.484,0
1581694869.084,15.625,28.320,25.391,17.578,0
1581694869.088,21.973,23.438,28.809,24.902,0
1581694869.091,23.438,24.902,34.668,23.438,0
1581694869.095,28.320,30.273,31.738,20.020,0
1581694869.099,32.227,34.180,27.832,24.902,0
1581694869.103,27.832,35.645,24.902,24.902,0
1581694869.107,23.926,31.738,26.855,23.438,0
1581694869.109,21.973,26.855,31.250,23.926,0
1581694869.113,22.949,28.320,31.250,27.344,0
1581694869.117,26.367,32.715,33.203,26.855,0
1581694869.121,27.832,31.738,30.273,25.391,0
1581694869.125,22.461,31.738,30.273,29.297,0
1581694869.129,20.020,30.273,30.273,33.203,0
1581694869.133,27.344,25.879,25.879,29.297,0
1581694869.136,27.832,27.832,25.391,20.020,0
1581694869.140,27.832,31.250,29.297,16.602,0
1581694869.144,27.344,32.715,25.391,22.949,0
1581694869.148,29.297,34.180,21.973,22.461,0
1581694869.152,29.785,30.762,26.367,19.531,0
1581694869.154,26.367,25.391,30.273,21.484,0
1581694869.158,24.902,24.414,28.320,24.414,0
1581694869.162,25.391,28.320,22.461,22.461,0
1581694869.166,24.902,32.715,20.508,16.113,0
1581694869.170,22.461,31.738,25.391,20.020,0
1581694869.174,22.949,31.738,35.645,28.320,0
1581694869.178,23.438,30.762,40.527,24.414,0
1581694869.181,23.438,30.273,38.574,23.438,0
1581694869.185,18.555,25.879,37.598,26.367,0
1581694869.189,20.996,24.902,31.250,27.832,0
1581694869.193,28.320,30.762,30.762,31.250,0
1581694869.197,25.391,29.297,36.133,30.762,0
1581694869.199,23.438,25.879,33.691,19.043,0
1581694869.203,21.973,27.832,29.785,16.602,0
1581694869.207,23.926,32.227,29.785,21.973,0
1581694869.211,21.484,38.574,35.645,22.949,0
1581694869.215,20.508,41.016,35.156,19.531,0
1581694869.219,26.855,35.645,28.320,21.973,0
1581694869.223,23.438,31.250,30.762,22.461,0
1581694869.226,16.602,31.250,34.668,20.020,0
1581694869.230,16.113,31.250,35.156,18.066,0
1581694869.234,16.113,31.738,34.668,19.043,0
1581694869.238,14.648,35.645,33.203,20.508,0
1581694869.242,15.625,37.109,36.133,19.043,0
1581694869.244,17.090,33.691,38.574,21.973,0
1581694869.248,20.020,28.320,38.086,23.926,0
1581694869.252,23.438,33.691,34.668,26.367,0
1581694869.256,20.996,40.527,33.203,29.297,0
1581694869.260,24.414,37.598,34.668,22.949,0
1581694869.264,29.785,32.715,31.250,20.020,0
1581694869.268,28.320,32.227,29.297,22.949,0
1581694869.271,30.273,34.668,30.273,25.879,0
1581694869.275,30.762,33.691,25.879,29.785,0
1581694869.279,28.320,32.227,27.344,20.996,0
1581694869.283,19.531,31.250,30.762,14.648,0
1581694869.287,23.438,36.133,31.250,18.066,0
1581694869.289,29.297,39.062,34.668,16.602,0
1581694869.293,26.855,30.273,34.668,23.438,0
1581694869.297,22.949,26.367,27.832,25.879,0
1581694869.301,20.508,33.691,27.832,27.832,0
1581694869.305,21.973,36.133,28.809,26.855,0
1581694869.309,22.949,27.832,25.391,28.320,0
1581694869.313,20.996,26.367,22.461,27.344,0
1581694869.316,18.555,27.344,22.949,25.391,0
1581694869.320,23.926,28.809,25.879,23.926,0
1581694869.324,28.809,27.344,30.273,20.508,0
1581694869.328,32.227,27.832,35.156,26.367,0
1581694869.332,34.180,27.344,32.227,23.438,0
1581694869.334,28.320,26.367,31.250,20.020,0
1581694869.338,31.250,27.832,29.785,27.344,0
1581694869.342,31.738,24.902,26.855,27.344,0
1581694869.346,27.832,27.344,29.297,24.414,0
1581694869.350,26.855,34.668,29.297,22.949,0
1581694869.354,29.785,34.668,22.461,26.855,0
1581694869.358,29.785,29.297,23.438,29.785,0
1581694869.361,26.367,24.902,33.691,30.273,0
1581694869.365,20.020,27.832,33.203,27.344,0
1581694869.369,14.160,27.832,33.203,30.762,0
1581694869.373,17.090,24.414,30.762,30.273,0
1581694869.377,18.066,25.879,26.855,20.996,0
1581694869.394,17.578,25.879,28.809,19.043,0
1581694869.398,21.973,27.832,30.273,21.973,0
1581694869.402,28.809,27.832,33.691,26.855,0
1581694869.406,27.832,21.973,34.668,19.043,0
1581694869.410,16.602,22.461,31.250,9.766,0
1581694869.414,15.625,28.809,27.832,10.254,0
1581694869.418,27.832,33.203,32.715,12.695,0
1581694869.421,33.691,32.715,33.203,10.254,0
1581694869.425,32.227,31.738,24.902,6.348,0
1581694869.429,26.367,31.738,23.926,2.930,0
1581694869.433,19.043,29.785,26.855,5.859,0
1581694869.437,20.020,31.738,31.738,13.672,0
1581694869.438,24.414,37.598,34.668,19.043,0
1581694869.442,16.113,30.762,32.715,17.578,0
1581694869.446,14.648,27.832,30.762,19.531,0
1581694869.450,17.578,31.738,34.668,20.020,0
1581694869.454,14.160,29.785,33.691,29.297,0
1581694869.458,12.695,28.320,27.832,31.250,0
1581694869.462,12.695,27.344,29.785,25.879,0
1581694869.465,15.137,29.785,30.762,21.484,0
1581694869.469,13.184,30.762,22.461,12.207,0
1581694869.473,15.137,27.832,20.020,17.578,0
1581694869.477,20.996,31.738,21.973,24.414,0
1581694869.481,22.949,35.156,25.391,23.926,0
1581694869.484,19.531,27.832,29.785,22.949,0
1581694869.488,13.184,22.461,29.297,15.625,0
1581694869.492,19.043,21.484,27.832,11.230,0
1581694869.496,26.367,27.344,30.273,18.066,0
1581694869.500,26.855,32.715,31.250,20.020,0
1581694869.504,24.902,36.621,32.227,13.672,0
1581694869.508,26.855,41.992,35.645,17.578,0
1581694869.511,28.320,42.969,35.645,25.391,0
1581694869.515,23.438,38.574,28.320,20.508,0
1581694869.519,23.926,30.273,21.484,20.508,0
1581694869.523,29.785,27.344,22.949,20.508,0
1581694869.527,29.785,31.738,30.273,17.578,0
1581694869.528,28.809,33.691,31.250,17.090,0
1581694869.532,27.832,34.180,31.250,19.043,0
1581694869.536,28.320,35.645,29.785,29.785,0
1581694869.540,31.250,36.621,29.785,32.227,0
1581694869.544,32.227,34.668,32.715,21.484,0
1581694869.548,34.180,35.645,29.785,17.578,0
1581694869.552,29.297,33.691,24.414,20.508,0
1581694869.555,24.414,29.785,25.391,20.020,0
1581694869.559,22.461,31.738,25.879,14.648,0
1581694869.563,18.555,31.738,25.391,12.207,0
1581694869.567,13.184,34.180,29.297,17.090,0
1581694869.571,11.719,35.645,30.762,14.648,0
1581694869.573,18.066,32.715,32.715,13.672,0
1581694869.577,20.020,30.273,34.668,21.973,0
1581694869.581,26.367,29.785,34.180,25.879,0
1581694869.585,27.344,26.855,29.297,20.020,0
1581694869.589,22.949,25.879,29.297,19.531,0
1581694869.593,19.531,30.762,34.668,26.367,0
1581694869.597,20.508,32.227,33.691,21.484,0
1581694869.600,20.020,32.227,32.715,13.672,0
1581694869.604,20.020,34.668,30.762,14.648,0
1581694869.608,19.043,31.738,27.832,20.020,0
1581694869.612,20.508,29.785,32.715,23.926,0
1581694869.616,25.879,25.391,35.156,26.367,0
1581694869.618,25.391,20.508,34.668,33.203,0
1581694869.622,28.809,23.926,33.203,26.855,0
1581694869.626,25.879,26.855,30.762,20.020,0
1581694869.630,23.926,29.785,33.203,23.926,0
1581694869.634,29.785,33.691,38.086,24.902,0
1581694869.638,31.250,37.598,37.109,22.949,0
1581694869.642,35.645,35.645,34.668,25.879,0
1581694869.645,41.016,37.109,38.574,33.691,0
1581694869.649,33.203,37.598,42.480,36.621,0
1581694869.653,22.461,25.879,41.992,34.668,0
1581694869.657,21.484,20.996,39.551,22.949,0
1581694869.661,23.926,28.320,37.598,20.996,0
1581694869.663,27.832,32.227,38.086,21.484,0
1581694869.667,27.344,31.738,35.645,22.461,0
1581694869.671,27.344,28.320,35.156,20.508,0
1581694869.675,25.879,25.391,37.109,13.184,0
1581694869.679,28.320,31.250,30.762,18.066,0
1581694869.683,26.367,31.738,20.020,23.926,0
1581694869.687,20.996,24.902,21.484,15.137,0
1581694869.690,27.832,27.344,31.738,20.996,0
1581694869.694,29.785,34.180,37.109,33.203,0
1581694869.698,27.832,36.621,34.180,23.926,0
1581694869.702,24.902,33.691,29.297,19.043,0
1581694869.706,21.484,33.203,31.250,21.973,0
1581694869.708,22.949,32.227,28.809,21.484,0
1581694869.712,20.996,28.320,25.391,23.926,0
1581694869.716,17.090,24.902,22.461,27.832,0
1581694869.720,23.438,27.832,18.555,35.645,0
1581694869.724,29.297,34.668,20.508,33.691,0
1581694869.728,28.320,35.156,25.391,29.297,0
1581694869.732,24.414,30.762,32.715,37.598,0
1581694869.735,23.438,30.273,35.156,29.785,0
1581694869.739,21.973,29.785,29.785,15.625,17038
1581694869.743,19.531,27.344,29.297,16.602,0
1581694869.747,17.578,29.785,31.738,20.996,0
1581694869.751,19.043,28.809,30.273,17.090,0
1581694869.768,22.949,30.273,25.391,15.625,0
1581694869.772,20.508,36.133,22.949,17.090,0
1581694869.776,21.484,37.109,20.020,21.973,0
1581694869.780,24.902,35.156,18.555,22.949,0
1581694869.784,24.414,32.227,25.879,21.973,0
1581694869.788,20.020,34.668,32.715,20.508,0
1581694869.792,18.555,35.156,33.691,21.484,0
1581694869.795,16.602,31.738,32.715,29.297,0
1581694869.799,20.508,33.203,31.250,32.715,0
1581694869.803,29.785,29.297,27.832,29.297,0
1581694869.807,30.762,29.785,29.297,28.320,0
1581694869.811,29.297,33.203,32.715,33.203,0
1581694869.813,27.344,32.227,26.855,27.344,0
1581694869.817,17.578,31.250,24.902,22.949,0
1581694869.821,16.113,31.250,32.227,27.344,0
1581694869.825,18.066,34.668,33.691,23.438,0
1581694869.829,18.555,35.156,28.809,20.996,0
1581694869.833,16.602,33.691,26.367,20.508,0
1581694869.837,11.719,29.785,26.855,17.578,0
1581694869.840,10.254,28.809,26.367,20.996,0
1581694869.844,13.672,28.320,26.367,18.066,0
1581694869.848,20.508,26.855,23.438,23.438,0
1581694869.852,25.391,28.320,22.461,27.344,0
1581694869.856,26.855,24.414,23.926,20.020,0
1581694869.858,25.879,24.414,20.508,16.113,0
1581694869.862,24.902,25.391,22.949,17.090,0
1581694869.866,21.484,24.414,27.344,18.555,0
1581694869.870,16.602,26.855,27.832,12.207,0
1581694869.874,16.113,25.879,26.855,13.184,0
1581694869.878,19.531,24.414,25.391,15.625,0
1581694869.882,21.973,29.297,19.531,7.812,0
1581694869.885,18.555,34.180,17.090,6.836,0
1581694869.889,15.625,34.668,22.949,12.695,0
1581694869.893,20.020,34.180,29.297,12.695,0
1581694869.897,24.902,32.227,27.832,17.090,0
1581694869.901,24.902,30.762,22.949,22.949,0
1581694869.903,25.879,31.250,22.949,28.809,0
1581694869.907,23.926,28.809,24.414,24.414,0
1581694869.911,23.926,25.391,19.531,21.484,0
1581694869.915,32.227,28.809,14.160,24.414,0
1581694869.919,32.715,34.180,16.113,23.438,0
1581694869.923,31.250,35.645,20.508,29.297,0
1581694869.927,28.320,28.809,25.391,29.297,0
1581694869.930,27.832,26.367,22.949,24.414,0
1581694869.934,27.344,31.738,19.531,22.949,0
1581694869.938,22.461,25.391,23.926,18.066,0
1581694869.942,22.461,21.973,22.949,20.996,0
1581694869.946,28.320,29.785,19.043,21.973,0
1581694869.948,24.902,30.273,23.438,20.996,0
1581694869.952,21.973,29.297,25.391,25.879,0
1581694869.956,26.855,30.762,24.902,25.879,0
1581694869.960,26.855,30.762,25.391,27.344,0
1581694869.964,22.461,29.785,29.785,28.809,0
1581694869.968,22.461,29.785,35.156,24.902,0
1581694869.972,22.949,30.273,32.715,22.461,0
1581694869.975,16.602,27.344,25.879,17.578,0
1581694869.979,15.137,28.809,23.926,15.625,0
1581694869.983,20.020,32.715,23.438,20.508,0
1581694869.987,21.973,32.227,22.949,19.531,0
1581694869.991,20.020,28.320,20.508,19.531,0
1581694869.993,15.625,27.832,22.461,17.578,0
1581694869.997,19.531,27.832,28.809,16.602,0
1581694870.001,20.508,23.438,28.809,25.879,0
1581694870.005,17.090,20.508,25.391,23.438,0
1581694870.009,15.137,26.367,26.367,18.555,0
1581694870.013,19.531,38.574,30.273,20.996,0
1581694870.017,20.020,42.480,28.809,30.762,0
1581694870.020,17.578,32.227,22.461,29.785,0
1581694870.024,24.902,28.320,25.391,28.809,0
1581694870.028,20.996,29.297,27.832,31.738,0
1581694870.032,16.602,28.320,21.484,28.320,0
1581694870.036,19.043,33.203,20.996,28.809,0
1581694870.038,27.832,37.598,24.902,24.902,0
1581694870.042,35.645,33.691,28.320,25.879,0
1581694870.046,26.855,30.273,28.809,29.297,0
1581694870.050,23.438,31.250,33.203,26.367,0
1581694870.054,29.297,30.273,34.180,28.320,0
1581694870.058,27.344,30.273,28.809,22.461,0
1581694870.062,26.367,33.203,26.855,25.391,0
1581694870.065,26.367,28.320,25.879,31.738,0
1581694870.069,24.414,24.902,25.879,27.832,0
1581694870.073,22.949,27.832,26.367,22.949,0
1581694870.077,17.578,30.273,28.809,23.926,0
1581694870.081,18.066,32.715,29.297,21.484,0
1581694870.084,17.090,33.203,29.785,18.066,0
1581694870.088,14.648,33.203,29.297,16.602,0
1581694870.092,21.484,28.320,27.832,13.184,0
1581694870.096,18.066,24.414,26.855,11.719,0
1581694870.100,12.207,26.367,25.879,11.719,0
1581694870.104,17.090,31.738,26.367,12.207,0
1581694870.108,20.996,34.180,26.367,9.277,0
1581694870.111,18.555,30.273,28.320,9.277,0
1581694870.115,24.902,30.762,27.344,15.625,0
1581694870.119,32.227,33.691,22.949,14.160,0
1581694870.123,32.227,30.762,21.484,12.695,0
1581694870.127,25.391,27.344,23.926,15.625,0
1581694870.143,21.484,31.250,29.785,27.832,0
1581694870.147,21.973,32.227,30.762,27.832,0
1581694870.151,25.879,28.809,25.879,18.555,0
1581694870.155,26.855,29.297,23.926,22.949,0
1581694870.159,21.973,29.297,22.949,20.508,0
1581694870.163,21.973,29.785,24.414,18.066,0
1581694870.167,24.902,31.250,27.344,22.949,0
1581694870.170,28.809,34.180,27.832,24.902,0
1581694870.174,23.926,34.668,27.832,20.996,0
1581694870.178,25.391,34.668,28.809,18.066,0
1581694870.182,32.715,32.227,29.785,21.484,0
1581694870.186,33.691,30.273,26.855,22.949,0
1581694870.188,30.273,28.320,27.344,26.855,0
1581694870.192,28.320,27.344,30.762,24.414,0
1581694870.196,33.203,32.715,28.320,19.043,0
1581694870.200,32.227,32.715,26.367,23.926,0
1581694870.204,25.879,31.250,24.414,31.738,0
1581694870.208,20.508,24.414,26.855,36.621,0
1581694870.212,18.066,20.996,34.180,28.320,0
1581694870.215,21.484,28.809,34.180,27.832,0
1581694870.219,25.391,32.227,33.203,32.715,0
1581694870.223,26.855,32.715,30.762,30.762,0
1581694870.227,26.367,34.668,26.855,26.855,0
1581694870.231,28.809,36.621,21.973,28.320,0
1581694870.234,27.832,37.109,22.949,29.297,0
1581694870.238,21.973,33.691,25.879,27.832,0
1581694870.242,23.926,31.250,30.762,26.367,0
1581694870.246,27.344,30.762,32.227,20.996,0
1581694870.250,26.367,30.762,29.785,17.090,0
1581694870.254,22.949,28.809,29.297,18.066,0
1581694870.258,20.020,26.367,29.785,21.484,0
1581694870.261,20.996,33.203,30.273,20.508,0
1581694870.265,21.973,35.156,27.344,18.555,0
1581694870.269,19.043,26.367,24.414,23.926,0
1581694870.273,24.414,26.367,26.855,26.367,0
1581694870.277,33.203,31.738,31.250,26.367,0
1581694870.279,30.762,30.762,30.762,31.738,0
1581694870.283,26.367,23.926,29.785,34.668,0
1581694870.287,22.949,26.855,33.203,25.879,0
1581694870.291,22.949,36.621,30.762,23.438,0
1581694870.295,23.438,35.645,29.297,23.438,0
1581694870.299,20.508,33.203,31.250,21.973,0
1581694870.303,23.438,34.668,31.738,23.438,0
1581694870.306,21.973,32.715,34.668,21.973,0
1581694870.310,19.043,33.691,39.062,21.973,0
1581694870.314,19.531,34.668,36.133,17.578,0
1581694870.318,20.508,32.227,32.227,20.996,0
1581694870.322,23.438,33.691,35.645,28.320,0
1581694870.324,25.391,33.691,33.691,27.832,0
1581694870.328,26.855,31.250,30.762,21.484,0
1581694870.332,26.855,36.133,29.297,32.715,0
1581694870.336,34.668,42.969,28.320,39.062,0
1581694870.340,36.621,39.551,26.855,31.738,0
1581694870.344,20.508,32.227,26.855,23.926,0
1581694870.348,18.555,31.250,30.762,20.996,0
1581694870.351,26.855,31.738,34.668,34.668,0
1581694870.355,24.414,29.785,30.762,27.832,0
1581694870.359,24.902,31.250,24.902,10.742,0
1581694870.363,35.645,34.180,25.879,21.973,0
1581694870.367,38.574,31.738,24.414,35.645,0
1581694870.369,38.086,26.367,18.555,32.715,0
1581694870.373,40.527,25.391,23.926,29.297,0
1581694870.377,38.574,30.762,27.832,27.832,0
1581694870.381,36.133,33.691,27.344,27.344,0
1581694870.385,34.668,33.203,33.691,30.273,0
1581694870.389,29.297,31.250,32.227,27.832,0
1581694870.393,27.344,33.203,26.855,29.297,0
1581694870.396,27.832,30.762,27.344,29.297,0
1581694870.400,27.832,27.832,31.738,29.785,0
1581694870.404,33.691,33.203,28.809,35.156,0
1581694870.408,38.574,31.250,28.809,34.180,0
1581694870.412,31.250,27.344,36.133,33.203,0
1581694870.414,25.879,30.273,40.527,36.133,0
1581694870.418,26.855,29.297,37.598,35.156,0
1581694870.422,27.344,28.809,30.762,29.785,0
1581694870.426,30.762,31.738,29.297,22.461,0
1581694870.430,29.297,29.785,21.973,25.391,0
1581694870.434,30.273,30.273,19.043,29.785,0
1581694870.438,36.621,31.250,22.461,20.020,0
1581694870.441,35.156,30.762,23.438,20.020,0
1581694870.445,30.762,28.809,32.715,21.973,0
1581694870.449,33.691,34.668,37.109,24.414,0
1581694870.453,35.645,40.527,30.762,26.367,0
1581694870.457,34.180,35.645,24.902,30.273,0
1581694870.459,37.598,36.621,23.438,34.668,0
1581694870.463,38.574,39.551,23.926,30.273,0
1581694870.467,33.203,36.621,20.020,33.691,0
1581694870.471,36.621,32.227,20.508,30.273,0
1581694870.475,39.551,30.273,24.414,21.484,0
1581694870.479,33.691,29.297,29.297,20.996,0
1581694870.483,29.785,29.297,31.738,20.508,0
1581694870.486,26.855,29.297,29.785,17.090,0
1581694870.490,20.508,27.344,30.273,15.137,0
1581694870.494,22.461,26.855,33.691,24.414,0
1581694870.498,22.949,30.273,32.227,32.715,0
1581694870.502,16.113,32.715,26.855,24.414,0
1581694870.519,13.672,34.668,24.414,17.578,0
1581694870.523,17.578,29.785,28.320,25.879,0
1581694870.527,20.508,27.832,25.391,36.621,0
1581694870.531,21.484,28.809,19.043,28.809,0
1581694870.535,25.879,30.273,21.484,21.484,0
1581694870.539,25.391,32.227,21.484,20.020,0
1581694870.543,24.902,29.297,23.926,13.672,0
1581694870.546,29.785,31.738,27.832,10.742,0
1581694870.550,31.250,35.645,26.367,11.719,0
1581694870.554,28.320,34.180,23.926,22.949,0
1581694870.558,24.902,33.203,23.926,24.902,0
1581694870.562,23.926,32.227,22.461,19.531,0
1581694870.564,22.461,35.645,23.438,23.438,0
1581694870.568,19.043,30.273,19.531,12.695,0
1581694870.572,21.484,24.902,18.066,17.578,0
1581694870.576,30.762,28.809,23.438,35.156,0
1581694870.580,31.250,29.297,24.414,31.250,0
1581694870.584,22.461,35.156,20.996,14.160,0
1581694870.588,18.066,41.992,20.020,10.742,0
1581694870.591,19.043,40.527,19.531,12.695,0
1581694870.595,15.625,37.109,18.555,15.625,0
1581694870.599,11.719,39.551,23.926,20.020,0
1581694870.603,12.207,39.551,26.855,7.324,0
1581694870.607,11.719,33.691,25.879,8.301,0
1581694870.609,5.371,33.203,25.391,12.207,0
1581694870.613,1.465,34.668,23.438,9.766,0
1581694870.617,7.812,36.133,22.949,7.812,0
1581694870.621,10.254,43.457,24.902,6.348,0
1581694870.625,16.113,41.504,29.297,17.090,0
1581694870.629,16.602,30.273,29.297,17.090,0
1581694870.633,19.531,31.738,25.391,11.719,0
1581694870.636,22.949,34.180,23.926,20.508,0
1581694870.640,22.949,32.715,25.391,25.391,0
1581694870.644,23.926,33.203,29.297,14.160,0
1581694870.648,23.926,33.691,28.809,12.695,0
1581694870.652,27.832,36.133,26.855,20.020,0
1581694870.654,22.949,37.109,24.414,23.438,0
1581694870.658,22.949,35.156,23.926,22.461,0
1581694870.662,26.367,30.762,22.949,13.672,0
1581694870.666,21.484,25.391,23.926,14.648,0
1581694870.670,20.508,30.762,27.344,21.484,0
1581694870.674,23.926,39.062,21.973,20.020,0
1581694870.678,25.391,38.086,20.508,24.902,0
1581694870.681,26.367,35.645,28.809,27.344,0
1581694870.685,28.320,37.598,30.762,23.438,0
1581694870.689,22.461,34.668,29.785,19.043,0
1581694870.693,17.090,31.738,31.250,20.508,0
1581694870.697,18.555,31.738,33.691,24.902,0
1581694870.698,16.113,28.809,26.855,22.949,0
1581694870.702,20.508,26.367,21.484,23.438,0
1581694870.706,23.926,27.832,24.414,30.762,0
1581694870.710,26.367,33.691,27.344,28.809,0
1581694870.714,23.926,35.645,24.414,21.484,0
1581694870.718,18.555,30.273,26.367,26.855,0
1581694870.722,23.438,33.691,30.273,23.926,0
1581694870.725,26.855,33.691,29.785,18.555,0
1581694870.729,28.809,28.320,28.320,17.578,0
1581694870.733,26.367,32.227,29.297,21.973,0
1581694870.737,25.391,37.109,29.297,29.297,0
1581694870.741,25.879,34.668,28.320,25.391,0
1581694870.743,25.391,30.762,26.367,18.066,0
1581694870.747,28.809,28.809,27.344,20.020,0
1581694870.751,30.762,30.273,34.668,24.414,0
1581694870.755,24.414,38.086,32.227,22.461,0
1581694870.759,17.578,37.109,23.438,18.066,0
1581694870.763,15.625,30.762,28.320,17.090,0
1581694870.767,18.066,32.715,31.738,19.043,0
1581694870.770,20.996,32.715,25.879,20.508,0
1581694870.774,20.020,28.320,22.461,17.090,0
1581694870.778,18.555,26.855,21.484,18.555,0
1581694870.782,20.020,23.438,22.949,28.809,0
1581694870.786,23.926,31.250,28.320,35.156,0
1581694870.788,24.414,33.691,29.297,22.461,0
1581694870.792,23.438,26.855,27.832,12.695,0
1581694870.796,31.738,30.762,24.902,22.949,0
1581694870.800,27.832,36.621,22.949,23.926,0
1581694870.804,19.043,35.156,25.391,16.113,0
1581694870.808,20.020,26.367,26.855,18.555,0
1581694870.812,15.137,23.438,29.297,19.043,0
1581694870.815,16.113,29.297,33.691,26.855,0
1581694870.819,20.508,29.297,34.668,40.039,0
1581694870.823,23.438,25.879,27.344,31.738,0
1581694870.827,18.555,26.367,25.391,16.113,0
1581694870.831,12.207,30.273,25.879,17.090,0
1581694870.833,17.578,33.203,22.949,20.508,0
1581694870.837,19.531,28.320,22.949,18.555,0
1581694870.841,18.555,27.832,27.832,12.207,0
1581694870.845,24.902,31.250,32.715,16.113,0
1581694870.849,25.879,33.691,31.738,23.438,0
1581694870.853,22.461,31.738,34.668,21.973,0
1581694870.857,24.414,26.855,34.180,18.555,0
1581694870.860,19.531,24.902,30.273,27.832,0
1581694870.864,15.625,23.926,25.879,32.715,0
1581694870.868,20.020,28.320,26.367,24.902,0
1581694870.872,24.902,30.762,33.203,23.438,0
1581694870.876,25.391,31.250,31.250,27.344,0
1581694870.893,27.832,31.738,22.461,34.180,21560
1581694870.897,26.367,33.691,21.973,32.715,0
1581694870.901,18.555,33.691,29.785,20.996,0
1581694870.905,9.766,26.367,33.203,14.648,0
1581694870.909,13.672,28.809,30.762,20.020,0
1581694870.913,21.973,35.645,28.809,21.973,0
1581694870.917,23.438,34.668,29.297,21.973,0
1581694870.920,18.066,33.691,33.691,18.066,0
1581694870.924,19.043,36.621,34.668,11.230,0
1581694870.928,27.344,35.156,29.297,18.066,0
1581694870.932,26.367,29.785,29.297,22.461,0
1581694870.936,24.414,32.715,30.273,18.066,0
1581694870.938,27.344,33.691,26.855,17.578,0
1581694870.942,32.227,29.297,31.250,25.391,0
1581694870.946,38.086,30.762,37.598,27.832,0
1581694870.950,40.527,34.180,33.691,22.949,0
1581694870.954,42.969,35.156,29.785,22.949,0
1581694870.958,44.922,33.203,26.855,20.508,0
1581694870.962,35.645,33.691,26.367,22.461,0
1581694870.965,27.344,30.762,28.320,20.508,0
1581694870.969,27.344,28.809,27.832,20.508,0
1581694870.973,21.973,32.227,26.855,25.879,0
1581694870.977,17.090,33.691,29.297,25.391,0
1581694870.981,18.555,31.738,33.203,24.902,0
1581694870.983,10.254,27.832,32.227,21.484,0
1581694870.987,7.812,29.785,28.320,21.973,0
1581694870.991,12.695,29.785,30.762,30.762,0
1581694870.995,12.695,28.320,34.668,30.273,0
1581694870.999,19.043,29.297,29.785,22.949,0
1581694871.003,22.949,28.320,22.461,19.531,0
1581694871.007,22.461,28.809,21.484,14.160,0
1581694871.010,23.926,34.668,26.367,14.160,0
1581694871.014,27.832,44.434,28.320,28.320,0
1581694871.018,27.344,48.340,24.414,26.855,0
1581694871.022,24.902,39.551,26.367,27.832,0
1581694871.026,24.902,30.273,29.785,36.133,0
1581694871.028,27.832,28.809,28.809,34.668,0
1581694871.032,31.738,29.297,27.832,36.621,0
1581694871.036,37.109,31.250,29.297,40.039,0
1581694871.040,39.062,35.645,28.320,40.039,0
1581694871.044,36.133,38.086,26.367,31.250,0
1581694871.048,31.738,40.039,23.438,25.879,0
1581694871.052,32.227,37.109,20.020,25.879,0
1581694871.055,37.109,33.203,21.973,30.273,0
1581694871.059,34.180,32.227,24.902,31.250,0
1581694871.063,34.180,32.227,27.832,28.320,0
1581694871.067,34.668,37.109,32.227,30.762,0
1581694871.071,31.738,35.645,33.691,32.227,0
1581694871.073,30.273,31.738,30.273,25.391,0
1581694871.077,31.250,36.621,27.344,22.461,0
1581694871.081,28.320,34.668,30.273,20.020,0
1581694871.085,24.414,33.203,28.320,21.973,0
1581694871.089,25.391,34.668,27.344,19.043,0
1581694871.093,25.391,33.203,24.902,12.207,0
1581694871.097,22.461,31.250,26.855,18.066,0
1581694871.100,20.996,35.156,36.621,33.203,0
1581694871.104,24.902,38.086,34.668,36.621,0
1581694871.108,25.391,36.133,29.297,27.344,0
1581694871.112,31.250,39.062,30.762,27.832,0
1581694871.116,32.227,37.598,30.762,36.621,0
1581694871.118,24.414,38.086,29.785,34.180,0
1581694871.122,27.344,36.133,31.250,24.902,0
1581694871.126,28.809,31.250,30.273,24.902,0
1581694871.130,26.367,29.785,29.785,27.344,0
1581694871.134,34.668,31.250,32.715,29.297,0
1581694871.138,37.598,33.691,36.133,33.203,0
1581694871.142,36.133,34.180,38.574,35.156,0
1581694871.145,36.133,33.691,34.668,36.133,0
1581694871.149,35.156,33.691,26.367,33.203,0
1581694871.153,34.668,32.715,26.855,24.902,0
1581694871.157,34.180,32.715,27.344,20.508,0
1581694871.161,32.715,34.180,23.438,25.391,0
1581694871.163,27.832,33.691,25.879,33.203,0
1581694871.167,27.344,30.762,28.320,32.227,0
1581694871.171,27.344,30.762,29.297,23.926,0
1581694871.175,28.809,31.738,30.762,29.297,0
1581694871.179,36.133,29.297,31.738,38.574,0
1581694871.183,36.133,29.785,31.738,38.086,0
1581694871.187,26.855,33.203,31.250,31.738,0
1581694871.190,21.973,29.785,32.227,24.902,0
1581694871.194,22.461,26.367,33.203,28.320,0
1581694871.198,22.949,26.855,30.762,21.484,0
1581694871.202,26.367,26.367,26.367,18.555,0
1581694871.206,25.879,27.832,30.762,23.438,0
1581694871.209,27.832,27.832,33.691,23.926,0
1581694871.213,32.715,23.438,28.809,23.926,0
1581694871.217,29.785,22.949,26.367,22.461,0
1581694871.221,27.344,29.297,23.926,21.973,0
1581694871.225,32.715,33.203,22.461,23.438,0
1581694871.229,29.785,37.598,23.926,25.879,0
1581694871.233,23.438,36.133,28.320,30.273,0
1581694871.236,31.738,31.738,30.762,32.715,0
1581694871.240,33.203,30.762,26.367,31.738,0
1581694871.244,27.832,33.203,22.949,36.621,0
1581694871.248,26.367,36.133,25.879,41.504,0
1581694871.252,24.414,35.156,23.926,24.414,0
1581694871.269,24.414,33.691,30.762,15.625,0
1581694871.273,20.508,35.156,38.574,26.367,0
1581694871.277,19.043,35.645,36.133,21.973,0
1581694871.281,22.461,35.156,34.180,20.508,0
1581694871.285,23.926,33.203,30.273,21.484,0
1581694871.289,18.555,36.133,25.879,17.090,0
1581694871.293,12.695,37.109,24.414,20.996,0
1581694871.296,12.695,31.250,25.879,24.902,0
1581694871.300,14.160,26.367,31.738,22.949,0
1581694871.304,16.602,23.438,37.109,20.996,0
1581694871.308,19.043,26.855,31.738,23.438,0
1581694871.312,19.531,29.297,27.832,20.996,0
1581694871.314,18.555,30.273,34.180,16.602,0
1581694871.318,12.207,36.133,36.133,15.625,0
1581694871.322,10.254,36.621,31.738,17.090,0
1581694871.326,17.578,29.297,30.273,16.113,0
1581694871.330,20.020,29.297,25.391,14.160,0
1581694871.334,20.508,34.180,22.949,19.531,0
1581694871.338,24.414,33.203,26.855,18.066,0
1581694871.341,28.320,31.738,26.855,15.137,0
1581694871.345,27.832,29.785,28.320,27.344,0
1581694871.349,26.367,32.227,27.344,27.344,0
1581694871.353,29.785,34.180,31.250,18.066,0
1581694871.357,30.762,29.297,38.574,21.484,0
1581694871.374,23.926,26.367,37.598,23.926,0
1581694871.378,20.508,28.320,33.691,24.414,0
1581694871.382,24.414,33.691,34.668,27.832,0
1581694871.386,29.785,32.715,33.203,28.320,0
1581694871.390,23.438,27.832,26.367,34.668,0
1581694871.394,26.367,22.949,20.508,31.250,0
1581694871.398,37.598,22.461,22.949,20.996,0
1581694871.401,32.227,26.367,29.785,33.691,0
1581694871.405,30.762,23.926,31.250,38.574,0
1581694871.409,31.250,22.949,34.180,27.832,0
1581694871.413,29.297,31.738,38.574,24.902,0
1581694871.417,31.250,39.551,37.109,29.785,0
1581694871.404,28.809,41.016,34.180,33.691,0
1581694871.408,25.391,35.156,32.715,30.273,0
1581694871.412,29.785,28.809,26.855,31.738,0
1581694871.416,33.691,28.809,22.949,35.156,0
1581694871.420,31.738,30.762,21.484,26.855,0
1581694871.424,30.273,27.344,23.926,24.414,0
1581694871.428,28.320,28.809,25.879,32.227,0
1581694871.431,25.879,29.297,27.344,27.344,0
1581694871.435,22.461,32.227,28.320,22.461,0
1581694871.439,18.555,36.621,26.367,21.484,0
1581694871.443,21.484,29.785,22.949,23.438,0
1581694871.447,18.066,25.879,19.043,17.090,0
1581694871.449,18.066,25.879,21.484,15.625,0
1581694871.453,22.461,25.391,23.926,22.949,0
1581694871.457,15.137,30.273,21.484,17.090,0
1581694871.461,10.742,34.668,20.996,18.066,0
1581694871.465,12.207,31.738,25.879,24.414,0
1581694871.469,10.742,30.762,27.344,21.973,0
1581694871.473,14.648,36.621,20.996,21.484,0
1581694871.476,15.137,32.715,17.090,21.484,0
1581694871.480,11.719,23.926,16.113,14.648,0
1581694871.484,14.160,26.367,17.578,15.137,0
1581694871.488,12.695,31.250,20.508,13.672,0
1581694871.492,12.207,33.203,24.902,4.883,0
1581694871.494,18.066,32.715,26.855,5.859,0
1581694871.498,15.137,30.762,26.855,12.207,0
1581694871.502,11.230,34.668,26.367,11.230,0
1581694871.506,14.160,35.156,29.785,12.695,0
1581694871.510,19.531,31.738,34.668,15.137,0
1581694871.514,19.043,38.086,34.180,16.602,0
1581694871.518,18.066,35.645,35.645,22.461,0
1581694871.521,25.391,25.391,40.039,28.320,0
1581694871.525,29.297,33.691,37.109,24.414,0
1581694871.529,20.996,41.992,28.809,14.160,0
1581694871.533,18.555,42.480,30.273,16.602,0
1581694871.537,20.508,39.551,30.762,22.949,0
1581694871.539,20.508,35.645,29.785,21.484,0
1581694871.543,22.461,37.109,30.273,20.020,0
1581694871.547,20.508,35.645,29.785,24.414,0
1581694871.551,18.066,35.156,29.297,19.043,0
1581694871.555,19.043,37.598,32.715,7.812,0
1581694871.559,20.996,40.039,34.668,7.812,0
1581694871.563,24.414,38.574,28.320,14.160,0
1581694871.566,22.461,34.668,25.879,21.484,0
1581694871.570,23.438,36.133,31.250,22.461,0
1581694871.574,24.902,34.180,32.227,22.461,0
1581694871.578,23.438,31.250,23.926,23.926,0
1581694871.582,25.391,35.156,19.043,29.785,0
1581694871.584,26.367,38.086,21.484,26.855,0
1581694871.588,29.297,40.039,29.297,26.855,0
1581694871.592,24.414,38.086,34.668,29.785,0
1581694871.596,15.137,29.297,30.762,18.555,0
1581694871.600,17.578,28.809,26.367,20.508,0
1581694871.604,22.949,34.180,23.438,21.484,0
1581694871.608,27.832,37.109,29.297,13.184,0
1581694871.611,29.785,37.109,33.203,18.555,0
1581694871.615,31.250,36.133,28.320,28.809,0
1581694871.619,35.645,41.016,26.855,22.949,0
1581694871.623,33.203,38.574,27.344,20.996,0
1581694871.627,29.297,34.668,29.297,31.738,0
1581694871.644,31.250,40.039,33.203,26.367,0
1581694871.648,30.762,34.180,33.203,19.531,0
1581694871.652,27.832,26.367,32.715,17.090,0
1581694871.656,29.297,30.273,37.598,17.578,0
1581694871.660,29.297,34.668,37.109,23.926,0
1581694871.664,28.809,37.109,31.250,24.902,0
1581694871.668,30.273,36.621,32.227,28.320,0
1581694871.671,27.344,33.691,34.180,26.367,0
1581694871.675,20.996,34.668,27.344,18.066,0
1581694871.679,17.578,36.621,27.832,20.508,0
1581694871.683,19.531,36.133,35.156,13.672,0
1581694871.687,14.648,31.738,39.062,14.648,0
1581694871.689,13.184,28.320,37.598,20.996,0
1581694871.693,13.672,29.297,37.109,21.484,0
1581694871.697,11.230,28.809,39.062,23.438,0
1581694871.701,12.695,26.855,36.621,26.367,0
1581694871.705,11.230,29.785,33.203,20.020,0
1581694871.709,13.184,28.320,34.668,16.113,0
1581694871.713,21.973,27.832,35.156,17.578,0
1581694871.716,27.344,28.320,32.715,13.672,0
1581694871.720,28.809,27.344,34.668,19.043,0
1581694871.724,25.391,28.809,31.738,24.414,0
1581694871.728,28.320,35.645,28.809,25.879,0
1581694871.732,31.738,39.551,37.109,26.855,0
1581694871.734,27.344,36.621,40.039,25.391,0
1581694871.738,22.949,33.203,37.109,24.902,0
1581694871.742,21.484,28.809,38.574,24.902,0
1581694871.746,24.902,26.855,38.086,17.578,0
1581694871.750,28.320,30.273,35.156,10.254,0
1581694871.754,25.879,31.738,37.598,14.160,0
1581694871.758,28.809,33.691,36.133,16.602,0
1581694871.761,34.668,36.133,37.109,18.555,0
1581694871.765,35.156,37.109,38.086,14.648,0
1581694871.769,33.691,35.156,32.715,19.531,0
1581694871.773,30.273,39.062,32.715,22.461,0
1581694871.777,21.973,34.668,39.062,21.484,0
1581694871.794,18.555,22.461,45.410,27.344,0
1581694871.798,18.555,22.949,41.016,24.902,0
1581694871.802,14.160,24.414,38.086,27.832,0
1581694871.806,14.160,29.785,43.945,32.715,0
1581694871.810,11.230,30.762,42.480,26.367,0
1581694871.814,6.348,27.344,40.039,20.996,0
1581694871.818,5.371,25.879,37.109,23.438,0
1581694871.821,11.230,24.414,31.738,21.973,0
1581694871.825,22.949,30.273,31.738,19.043,0
1581694871.829,29.297,34.668,32.715,24.414,0
1581694871.833,23.438,33.691,31.738,24.414,0
1581694871.837,17.090,32.715,33.203,30.762,0
1581694871.824,18.555,30.762,36.133,26.367,0
1581694871.828,20.020,33.691,36.133,21.484,0
1581694871.832,19.043,34.668,35.645,20.508,0
1581694871.836,20.996,34.668,38.574,18.555,0
1581694871.840,22.949,37.598,41.992,22.949,0
1581694871.844,20.508,36.133,39.062,16.602,0
1581694871.848,22.461,30.762,35.645,16.602,0
1581694871.851,28.320,29.785,29.785,24.414,0
1581694871.855,29.297,31.250,23.438,23.438,0
1581694871.859,21.484,33.203,26.855,30.762,0
1581694871.863,23.926,32.715,32.227,35.156,0
1581694871.867,27.832,32.227,33.203,29.785,0
1581694871.868,24.902,36.133,39.062,27.832,0
1581694871.872,25.391,33.691,39.551,26.367,0
1581694871.876,20.508,27.832,33.203,28.809,0
1581694871.880,19.043,28.320,33.691,34.668,0
1581694871.884,20.020,32.227,33.691,34.668,0
1581694871.888,20.508,35.645,31.738,28.809,0
1581694871.892,25.391,35.645,29.785,22.949,0
1581694871.895,27.344,33.691,29.785,15.625,0
1581694871.899,21.484,33.203,36.133,14.160,0
1581694871.903,18.555,33.691,34.668,14.160,0
1581694871.907,16.113,32.227,27.832,10.254,0
1581694871.911,14.648,28.809,27.832,20.020,0
1581694871.913,18.066,28.809,26.855,22.461,0
1581694871.917,23.926,28.809,26.367,14.160,0
1581694871.921,23.926,33.691,30.762,18.066,0
1581694871.925,25.879,34.180,32.715,22.949,0
1581694871.929,27.344,31.250,28.809,27.344,0
1581694871.933,25.879,30.762,25.391,25.391,0
1581694871.937,33.691,30.273,23.926,22.949,0
1581694871.940,35.645,30.762,24.414,26.855,0
1581694871.944,35.645,30.762,31.738,30.762,0
1581694871.948,36.133,31.250,34.180,27.344,0
1581694871.952,33.691,28.809,30.273,24.902,0
1581694871.956,32.715,32.227,31.738,25.391,0
1581694871.958,30.762,37.598,31.738,23.438,0
1581694871.962,28.320,34.180,29.785,28.809,0
1581694871.966,27.832,32.715,29.297,32.227,0
1581694871.970,24.414,31.738,25.879,23.926,0
1581694871.974,25.391,28.320,28.320,21.973,0
1581694871.978,22.461,25.391,29.785,24.414,0
1581694871.982,20.508,29.785,26.855,24.414,0
1581694871.985,26.855,37.109,35.156,26.855,0
1581694871.989,28.809,36.133,39.551,25.391,0
1581694871.993,27.832,37.109,35.645,21.973,0
1581694871.997,22.949,36.621,32.227,23.438,0
1581694872.001,21.973,32.227,32.227,26.367,0
1581694872.018,30.273,32.715,33.203,31.250,0
1581694872.022,35.645,34.180,32.715,29.297,0
1581694872.026,37.598,33.203,33.691,23.926,0
1581694872.030,41.016,33.203,34.180,24.414,0
1581694872.034,37.598,34.180,35.645,27.832,0
1581694872.038,33.203,31.738,35.156,30.762,0
1581694872.042,32.227,31.738,32.715,33.691,0
1581694872.045,27.344,34.180,35.645,33.691,0
1581694872.049,22.949,39.551,38.574,29.785,0
1581694872.053,21.484,33.691,37.598,26.367,0
1581694872.057,21.484,27.832,39.551,25.391,0
1581694872.061,19.531,36.621,37.598,27.832,0
1581694872.063,17.090,32.227,30.762,29.785,0
1581694872.067,16.602,23.438,29.785,28.320,0
1581694872.071,14.648,24.414,33.691,24.902,0
1581694872.075,9.277,28.320,35.156,24.414,17100
1581694872.079,11.230,30.762,31.250,25.879,0
1581694872.083,15.137,31.738,28.320,17.578,0
1581694872.087,17.578,30.762,33.691,23.438,0
1581694872.090,19.043,27.832,36.133,29.785,0
1581694872.094,18.555,27.344,28.809,26.367,0
1581694872.098,21.484,29.297,25.391,20.996,0
1581694872.102,18.555,23.438,26.367,22.461,0
1581694872.106,20.020,20.508,26.367,27.344,0
1581694872.108,23.926,24.902,31.250,18.066,0
1581694872.112,25.879,28.809,33.691,20.020,0
1581694872.116,30.762,30.273,30.762,28.320,0
1581694872.120,25.879,30.762,35.156,32.715,0
1581694872.124,16.602,31.738,35.645,31.738,0
1581694872.128,20.020,34.668,28.809,20.996,0
1581694872.132,22.461,35.645,29.297,9.277,0
1581694872.135,18.066,31.250,30.762,4.883,0
1581694872.139,15.137,32.227,30.273,6.836,0
1581694872.143,17.578,36.621,30.762,14.648,0
1581694872.147,18.066,32.715,25.391,27.344,0
1581694872.151,17.578,27.832,22.461,21.484,0
1581694872.153,18.555,30.762,27.832,16.113,0
1581694872.157,16.113,31.738,34.668,24.414,0
1581694872.161,17.090,31.738,33.691,24.414,0
1581694872.165,20.508,29.297,29.297,25.879,0
1581694872.169,23.926,30.273,32.715,28.809,0
1581694872.173,26.367,31.250,32.227,28.320,0
1581694872.177,20.020,26.855,26.367,21.973,0
1581694872.180,20.020,33.691,30.762,17.578,0
1581694872.184,24.902,38.086,29.785,22.949,0
1581694872.188,19.531,28.320,25.879,28.320,0
1581694872.192,15.137,27.832,21.973,25.879,0
1581694872.196,18.555,32.227,19.043,19.531,0
1581694872.198,19.531,32.715,23.438,24.902,0
1581694872.202,21.973,35.156,26.855,29.785,0
1581694872.206,25.391,37.109,28.320,29.297,0
1581694872.210,24.902,37.598,34.180,29.297,0
1581694872.214,22.949,32.227,33.203,24.414,0
1581694872.218,19.531,31.250,29.785,23.926,0
1581694872.222,18.555,30.762,27.832,19.043,0
1581694872.225,23.438,32.715,28.809,16.602,0
1581694872.229,23.926,34.180,29.297,19.043,0
1581694872.233,20.020,28.320,27.832,27.344,0
1581694872.237,18.555,26.367,30.762,34.668,0
1581694872.241,19.531,21.484,28.809,38.086,0
1581694872.244,22.461,21.973,26.855,40.039,0
1581694872.248,25.879,31.738,33.203,31.250,0
1581694872.252,30.273,35.156,34.668,25.879,0
1581694872.256,35.156,35.156,31.738,26.367,0
1581694872.260,33.691,35.156,32.715,26.367,0
1581694872.264,29.297,34.668,35.156,29.785,0
1581694872.268,25.879,34.180,31.738,33.691,0
1581694872.271,24.902,35.156,30.273,31.738,0
1581694872.275,25.879,35.645,31.738,32.227,0
1581694872.279,26.367,33.203,32.227,35.156,0
1581694872.283,21.484,31.738,35.645,28.809,0
1581694872.287,17.578,33.203,31.250,23.926,0
1581694872.288,19.531,31.250,20.996,19.531,0
1581694872.292,19.043,31.250,26.855,20.020,0
1581694872.296,18.066,32.715,36.133,22.461,0
1581694872.300,18.555,30.762,36.621,20.996,0
1581694872.304,24.902,32.227,38.574,26.367,0
1581694872.308,28.809,34.180,39.062,26.367,0
1581694872.312,28.320,33.691,34.180,25.391,0
1581694872.315,30.273,39.062,32.715,22.461,0
1581694872.319,28.809,40.039,37.598,25.391,0
1581694872.323,27.832,31.738,37.109,33.691,0
1581694872.327,26.855,25.879,34.668,34.180,0
1581694872.331,23.926,24.902,32.227,32.715,0
1581694872.349,23.926,24.414,29.297,31.250,0
1581694872.353,30.762,27.832,33.203,31.250,0
1581694872.357,34.180,32.715,39.551,34.668,0
1581694872.361,26.367,33.691,35.156,30.762,0
1581694872.365,24.414,35.645,27.832,25.391,0
1581694872.369,29.297,33.203,30.273,30.762,0
1581694872.373,33.203,24.902,31.738,24.414,0
1581694872.376,33.203,21.973,31.738,26.855,0
1581694872.380,29.297,23.438,33.203,33.203,0
1581694872.384,26.855,25.391,30.762,22.949,0
1581694872.388,29.297,32.227,29.785,24.902,0
1581694872.392,31.250,38.574,25.391,28.320,0
1581694872.393,31.250,37.109,21.484,31.250,0
1581694872.397,33.691,34.668,25.391,28.320,0
1581694872.401,28.320,32.715,28.320,20.996,0
1581694872.405,23.926,25.879,30.762,22.461,0
1581694872.409,23.438,21.973,29.297,24.414,0
1581694872.413,22.461,25.391,24.414,29.785,0
1581694872.417,22.949,26.855,24.414,32.715,0
1581694872.420,28.320,24.902,25.879,30.273,0
1581694872.424,27.344,26.855,26.855,31.250,0
1581694872.428,28.809,29.785,29.297,38.086,0
1581694872.432,34.668,26.367,27.832,30.762,0
1581694872.436,25.391,24.414,23.438,22.461,0
1581694872.453,21.973,26.855,22.461,27.344,0
1581694872.457,25.391,29.785,23.926,25.391,0
1581694872.461,20.996,28.320,25.391,23.438,0
1581694872.465,20.996,23.926,26.855,26.367,0
1581694872.469,24.414,24.414,22.461,21.484,0
1581694872.473,28.809,23.438,15.137,20.996,0
1581694872.477,37.109,25.391,19.531,24.902,0
1581694872.480,34.180,33.203,27.832,21.484,0
1581694872.484,25.391,35.156,24.414,18.555,0
1581694872.488,22.461,32.227,20.020,20.020,0
1581694872.492,21.973,31.738,20.508,20.020,0
1581694872.496,28.320,31.250,21.484,24.414,0
1581694872.483,30.273,29.297,18.555,30.273,0
1581694872.487,25.879,22.949,17.090,25.879,0
1581694872.491,24.902,20.020,24.902,19.531,0
1581694872.495,20.996,25.879,30.762,24.414,0
1581694872.499,17.578,27.832,31.250,25.879,0
1581694872.503,18.555,20.020,32.227,26.367,0
1581694872.507,14.648,19.531,32.227,38.574,0
1581694872.510,22.461,27.832,24.902,27.832,0
1581694872.514,29.297,34.668,24.414,13.672,0
1581694872.518,22.949,31.738,25.391,21.484,0
1581694872.522,18.555,25.391,21.973,31.738,0
1581694872.526,19.531,24.902,25.391,31.738,0
1581694872.528,21.973,28.809,32.715,22.461,0
1581694872.532,21.484,27.832,36.621,20.020,0
1581694872.536,23.926,26.855,34.668,25.879,0
1581694872.540,25.391,33.691,29.785,27.344,0
1581694872.544,20.508,34.180,25.879,20.508,0
1581694872.548,19.531,30.273,25.879,19.531,0
1581694872.552,20.020,33.203,30.273,23.926,0
1581694872.555,18.066,30.273,31.250,32.715,0
1581694872.559,21.973,23.438,28.809,30.762,0
1581694872.563,24.902,21.484,25.879,26.367,0
1581694872.567,26.855,26.367,25.391,30.762,0
1581694872.571,24.414,29.785,35.156,29.297,0
1581694872.573,24.414,30.762,38.086,28.809,0
1581694872.577,27.344,33.203,34.668,32.227,0
1581694872.581,23.926,33.691,36.621,27.344,0
1581694872.585,23.926,29.785,36.621,24.902,0
1581694872.589,24.414,26.855,36.133,27.344,0
1581694872.593,25.391,26.855,37.109,24.414,0
1581694872.597,34.668,33.203,33.691,24.414,0
1581694872.600,39.551,40.039,26.855,25.391,0
1581694872.604,41.992,36.621,31.250,25.391,0
1581694872.608,41.504,34.180,36.621,19.531,0
1581694872.612,40.039,33.203,35.156,12.695,0
1581694872.616,31.250,30.273,36.133,21.484,0
1581694872.618,25.879,24.902,34.180,27.344,0
1581694872.622,25.879,21.484,30.273,27.832,0
1581694872.626,17.578,26.367,31.738,25.879,0
1581694872.630,14.648,34.668,31.250,28.320,0
1581694872.634,17.578,40.039,33.691,31.250,0
1581694872.638,14.648,37.598,35.156,26.855,0
1581694872.642,12.695,33.691,36.621,30.273,0
1581694872.645,13.672,27.832,41.504,31.738,0
1581694872.649,7.812,22.949,42.969,36.133,0
1581694872.653,10.254,28.809,40.527,39.551,0
1581694872.657,19.531,27.832,39.551,29.785,0
1581694872.661,27.344,25.391,33.691,16.602,0
1581694872.663,27.832,29.297,29.297,14.160,0
1581694872.667,25.391,33.691,32.227,19.531,0
1581694872.671,25.879,36.133,33.691,17.578,0
1581694872.675,20.996,30.273,35.645,8.301,0
1581694872.679,20.996,27.344,33.203,12.207,0
1581694872.683,21.973,31.738,28.320,15.137,0
1581694872.687,22.949,34.668,24.902,16.113,0
1581694872.690,22.949,34.668,24.902,13.184,0
1581694872.694,21.484,34.668,29.297,11.230,0
1581694872.698,21.484,35.645,27.832,24.414,0
1581694872.702,19.043,38.086,28.320,27.832,0
1581694872.706,18.555,31.738,28.320,23.926,0
1581694872.708,24.902,26.855,30.273,24.902,0
1581694872.712,29.785,33.203,33.691,20.508,0
1581694872.716,27.344,36.621,30.273,20.020,0
1581694872.720,26.367,31.738,21.484,20.508,0
1581694872.724,28.320,31.250,18.555,18.555,0
1581694872.728,29.785,31.250,24.414,28.320,0
1581694872.732,30.273,32.227,26.367,29.785,0
1581694872.735,31.250,36.133,26.855,16.602,0
1581694872.739,34.180,37.109,26.367,19.043,0
1581694872.743,29.785,38.574,24.414,27.344,0
1581694872.747,27.344,38.574,22.949,31.250,0
1581694872.751,28.320,38.086,27.344,33.691,0
1581694872.768,30.762,38.086,27.832,27.344,0
1581694872.772,26.855,32.715,19.531,25.391,0
1581694872.776,24.902,29.297,14.648,24.414,0
1581694872.780,24.414,30.762,17.090,21.973,0
1581694872.784,24.414,32.227,20.508,19.043,0
1581694872.788,28.320,31.738,25.879,21.973,0
1581694872.792,30.762,33.691,28.809,26.855,0
1581694872.795,33.203,38.086,26.855,24.902,0
1581694872.799,29.297,35.156,26.855,19.531,0
1581694872.803,26.367,31.738,28.320,21.484,0
1581694872.807,27.832,34.180,29.785,24.414,0
1581694872.811,27.344,34.668,26.855,25.879,0
1581694872.813,31.738,39.062,20.996,34.668,0
1581694872.817,37.598,44.922,25.391,35.156,0
1581694872.821,32.715,40.039,29.785,34.668,0
1581694872.825,29.785,33.203,29.297,43.457,0
1581694872.829,33.203,34.180,28.809,44.434,0
1581694872.833,38.574,32.715,33.203,38.574,0
1581694872.837,46.387,33.691,36.133,36.621,0
1581694872.840,35.645,38.086,30.273,26.855,0
1581694872.844,20.508,40.527,24.902,13.672,0
1581694872.848,19.043,39.551,26.367,8.301,0
1581694872.852,20.996,34.180,27.832,9.277,0
1581694872.856,16.602,35.156,27.344,9.766,0
1581694872.858,10.742,33.691,25.879,9.277,0
1581694872.862,16.602,34.668,24.414,13.184,0
1581694872.866,19.043,36.133,22.461,10.254,0
1581694872.870,14.648,32.715,23.926,4.395,0
1581694872.874,19.043,31.738,26.855,10.742,0
1581694872.878,23.926,38.086,28.809,14.648,0
1581694872.882,26.367,35.156,26.855,20.508,0
1581694872.885,27.832,28.809,23.438,31.250,0
1581694872.889,27.344,29.785,24.414,30.762,0
1581694872.893,26.367,30.273,24.902,28.809,0
1581694872.897,22.461,31.738,23.926,21.973,0
1581694872.901,23.438,34.668,26.367,18.555,0
1581694872.903,23.438,35.156,27.344,26.855,0
1581694872.907,19.043,36.621,24.902,28.809,0
1581694872.911,14.160,34.668,22.461,20.508,0
1581694872.915,13.672,28.320,28.809,19.043,0
1581694872.919,12.207,27.344,31.250,17.578,0
1581694872.923,13.672,29.297,25.391,21.973,0
1581694872.927,17.578,28.320,24.414,22.461,0
1581694872.930,13.184,35.645,22.949,21.484,0
1581694872.934,14.160,39.551,22.461,19.531,0
1581694872.938,22.461,33.691,28.320,23.926,0
1581694872.942,24.902,28.809,30.762,27.832,0
1581694872.946,19.531,25.879,31.250,21.973,0
1581694872.948,16.602,24.902,26.367,26.367,0
1581694872.952,21.973,25.391,19.531,31.250,0
1581694872.956,23.926,33.691,20.508,32.227,0
1581694872.960,20.020,36.621,27.344,29.297,0
1581694872.964,18.066,31.250,34.668,27.832,0
1581694872.968,19.043,25.879,29.297,31.250,0
1581694872.972,20.996,25.879,23.438,26.367,0
1581694872.975,25.391,27.832,24.414,18.555,0
1581694872.979,25.879,30.273,27.832,27.832,0
1581694872.983,28.320,33.203,30.273,34.668,0
1581694872.987,29.785,33.691,31.738,36.621,0
1581694872.991,22.461,37.109,25.391,28.320,0
1581694872.993,26.855,39.062,23.438,19.043,0
1581694872.997,31.250,34.668,25.391,26.855,0
1581694873.001,26.855,33.691,21.484,22.949,0
1581694873.005,28.809,35.156,22.949,14.648,0
1581694873.009,30.762,33.691,24.414,18.555,0
1581694873.013,27.832,32.227,25.391,20.996,0
1581694873.017,25.879,28.320,30.762,28.809,0
1581694873.020,25.391,25.879,25.879,31.738,0
1581694873.024,25.391,29.785,19.043,26.855,0
1581694873.028,25.391,31.250,19.043,28.320,0
1581694873.032,20.996,23.926,21.973,28.320,0
1581694873.036,18.066,17.578,27.344,20.508,0
1581694873.038,18.555,28.320,28.320,15.137,0
1581694873.042,21.973,34.668,28.320,23.438,0
1581694873.046,24.414,33.203,30.762,27.832,0
1581694873.050,16.602,30.273,22.949,20.508,0
1581694873.054,16.602,31.250,17.090,20.020,0
1581694873.058,18.066,34.180,21.973,22.461,0
1581694873.062,13.672,27.832,20.996,14.648,0
1581694873.065,14.160,26.367,19.043,18.066,0
1581694873.069,19.043,32.715,23.438,23.926,0
1581694873.073,14.648,26.855,27.832,11.719,0
1581694873.077,13.672,20.996,29.297,1.953,0
1581694873.081,19.043,22.461,26.855,11.230,0
1581694873.083,13.672,20.996,20.996,13.184,0
1581694873.087,13.184,27.832,23.438,9.766,0
1581694873.091,18.066,34.668,24.902,16.602,0
1581694873.095,18.066,30.762,23.438,20.996,0
1581694873.099,14.160,24.902,21.484,21.484,0
1581694873.103,15.625,23.926,19.043,28.320,0
1581694873.107,17.578,27.344,22.949,26.855,0
1581694873.110,16.113,30.273,27.832,12.207,0
1581694873.114,15.625,26.855,26.367,18.066,0
1581694873.118,16.602,25.391,20.508,26.855,0
1581694873.122,16.602,30.762,16.602,19.043,0
1581694873.126,10.254,27.832,18.555,19.531,0
1581694873.143,11.719,26.367,24.414,25.391,0
1581694873.147,15.625,27.832,24.902,22.949,0
1581694873.151,14.648,24.414,24.414,25.391,0
1581694873.155,16.113,23.438,29.785,20.996,0
1581694873.159,16.602,24.902,30.273,17.090,0
1581694873.163,19.531,28.320,27.832,22.461,0
1581694873.167,17.090,32.715,32.227,21.973,0
1581694873.170,18.066,32.715,31.738,26.855,0
1581694873.174,21.973,31.250,29.297,31.738,0
1581694873.178,20.508,30.762,32.227,28.320,0
1581694873.182,21.484,29.297,33.203,26.367,0
1581694873.186,25.391,30.762,32.715,26.367,0
1581694873.188,26.855,33.203,35.156,25.391,0
1581694873.192,21.484,33.203,28.320,23.438,0
1581694873.196,20.996,33.691,26.855,26.367,0
1581694873.200,25.879,35.645,33.203,26.855,28021
1581694873.204,28.320,38.574,32.715,14.648,0
1581694873.208,25.391,38.086,33.691,18.066,0
1581694873.212,24.902,33.203,32.227,40.527,0
1581694873.215,25.391,33.691,32.227,38.574,0
1581694873.219,23.926,36.133,34.180,19.531,0
1581694873.223,26.367,35.156,31.738,23.438,0
1581694873.227,25.879,34.180,34.180,32.715,0
1581694873.231,20.508,35.645,33.691,28.809,0
1581694873.233,20.508,40.039,29.297,20.020,0
1581694873.237,26.855,38.086,29.785,24.902,0
1581694873.241,26.855,35.156,36.621,31.250,0
1581694873.245,29.785,38.086,39.062,30.273,0
1581694873.249,35.645,33.691,32.227,37.109,0
1581694873.253,27.344,26.855,26.367,34.668,0
1581694873.257,27.832,31.738,29.785,26.855,0
1581694873.260,42.480,37.109,37.598,28.809,0
1581694873.264,45.410,38.086,36.133,26.855,0
1581694873.268,34.180,34.180,34.180,24.902,0
1581694873.272,28.320,28.809,38.086,22.949,0
1581694873.276,31.250,32.715,37.109,24.414,0
1581694873.278,26.855,33.691,36.621,26.855,0
1581694873.282,26.855,34.668,38.086,30.762,0
1581694873.286,34.180,38.086,37.598,36.133,0
1581694873.290,34.180,33.691,36.621,31.250,0
1581694873.294,29.297,29.297,32.227,26.855,0
1581694873.298,18.066,31.738,29.785,29.297,0
1581694873.302,19.531,35.156,35.156,27.832,0
1581694873.305,23.438,32.227,37.109,19.043,0
1581694873.309,19.531,26.367,33.203,13.184,0
1581694873.313,23.438,25.879,30.273,11.719,0
1581694873.317,21.973,27.832,26.855,16.602,0
1581694873.321,23.438,33.203,28.809,25.879,0
1581694873.323,25.391,33.203,34.180,26.855,0
1581694873.327,29.785,30.762,34.180,19.531,0
1581694873.331,32.715,32.715,35.156,17.090,0
1581694873.335,24.414,33.691,33.691,23.926,0
1581694873.339,20.020,30.762,34.180,24.902,0
1581694873.343,25.391,33.203,35.156,19.043,0
1581694873.347,33.203,33.203,34.180,26.855,0
1581694873.350,34.668,31.738,31.250,32.227,0
1581694873.354,29.297,36.133,31.250,27.344,0
1581694873.358,26.855,34.668,31.250,27.832,0
1581694873.362,25.879,27.344,27.344,28.809,0
1581694873.366,23.438,27.832,29.297,36.621,0
1581694873.368,22.461,32.227,32.715,36.621,0
1581694873.372,25.879,28.809,34.668,24.902,0
1581694873.376,26.855,23.926,29.297,22.949,0
1581694873.380,21.484,25.879,21.484,25.391,0
1581694873.384,26.855,30.273,23.926,24.902,0
1581694873.388,30.273,29.785,23.926,32.715,0
1581694873.392,30.762,29.297,18.555,29.297,0
1581694873.395,32.227,26.855,21.973,24.902,0
1581694873.399,27.832,21.484,26.855,23.438,0
1581694873.403,35.645,20.508,31.250,24.902,0
1581694873.407,44.922,24.902,32.715,25.391,0
1581694873.411,47.363,28.809,26.855,23.926,0
1581694873.413,42.969,31.250,21.973,29.785,0
1581694873.417,36.133,37.109,24.414,34.180,0
1581694873.421,31.738,32.227,24.902,36.133,0
1581694873.425,26.367,21.973,23.438,40.039,0
1581694873.429,21.484,25.879,26.367,39.551,0
1581694873.433,16.602,28.320,27.832,31.250,0
1581694873.437,18.066,26.367,34.668,22.461,0
1581694873.440,24.414,27.344,41.504,21.484,0
1581694873.444,24.902,32.227,38.086,31.738,0
1581694873.448,24.902,35.156,31.738,29.297,0
1581694873.452,24.414,29.785,30.762,25.391,0
1581694873.456,23.438,30.273,28.809,30.273,0
1581694873.473,22.949,35.645,27.344,26.855,0
1581694873.477,23.926,37.598,29.785,29.785,0
1581694873.481,24.414,35.156,27.832,29.785,0
1581694873.485,22.461,30.273,28.809,24.902,0
1581694873.489,25.879,30.273,32.715,20.020,0
1581694873.493,28.809,30.273,34.668,20.508,0
1581694873.497,22.461,32.715,39.062,21.484,0
1581694873.500,20.508,30.762,35.645,19.043,0
1581694873.504,21.973,26.855,29.785,26.367,0
1581694873.508,19.531,28.809,30.762,25.879,0
1581694873.512,17.090,25.391,30.762,23.438,0
1581694873.516,22.949,25.391,34.668,32.227,0
1581694873.519,30.762,35.645,32.715,29.785,0
1581694873.523,28.320,36.621,26.367,23.438,0
1581694873.527,23.926,31.250,31.738,31.738,0
1581694873.531,36.621,28.320,41.016,36.133,0
1581694873.535,37.598,25.391,38.574,38.574,0
1581694873.539,19.043,29.297,31.738,24.414,0
1581694873.543,17.090,39.062,29.297,10.254,0
1581694873.546,20.996,44.922,27.832,9.277,0
1581694873.550,19.531,41.504,27.344,16.113,0
1581694873.554,13.184,38.574,25.879,7.812,0
1581694873.558,14.648,43.457,24.414,3.418,0
1581694873.562,21.973,41.504,27.344,14.648,0
1581694873.578,27.832,37.598,28.320,16.113,0
1581694873.582,30.273,39.062,23.926,15.625,0
1581694873.586,29.785,38.086,26.367,20.996,0
1581694873.590,28.320,34.180,28.809,21.973,0
1581694873.594,29.785,32.227,24.902,31.250,0
1581694873.598,35.156,39.062,21.484,32.715,0
1581694873.602,27.832,39.062,23.926,26.367,0
1581694873.605,18.066,31.738,31.738,27.344,0
1581694873.609,19.043,29.297,32.227,15.625,0
1581694873.613,22.949,27.344,25.391,16.602,0
1581694873.617,20.508,28.809,20.996,15.625,0
1581694873.621,22.461,34.180,16.113,18.555,0
1581694873.609,26.367,33.691,13.672,23.926,0
1581694873.613,22.949,36.133,19.531,24.414,0
1581694873.617,22.949,37.598,25.391,24.902,0
1581694873.621,25.391,28.809,27.344,28.809,0
1581694873.625,29.785,29.297,28.809,31.250,0
1581694873.629,26.855,32.227,25.879,20.508,0
1581694873.633,27.344,30.762,21.484,18.555,0
1581694873.636,28.809,35.156,22.949,26.855,0
1581694873.640,22.949,35.645,22.949,28.320,0
1581694873.644,23.926,34.180,20.508,19.043,0
1581694873.648,25.879,36.133,20.508,18.555,0
1581694873.652,25.391,32.227,26.855,22.949,0
1581694873.653,24.902,32.715,32.227,16.602,0
1581694873.657,26.855,35.645,29.785,20.508,0
1581694873.661,33.691,30.273,30.762,21.973,0
1581694873.665,31.250,29.297,29.297,20.508,0
1581694873.669,28.320,32.227,25.879,22.461,0
1581694873.673,30.273,36.133,28.320,19.043,0
1581694873.677,30.273,35.156,28.809,25.391,0
1581694873.680,25.391,26.855,26.367,29.297,0
1581694873.684,21.484,22.949,26.855,18.555,0
1581694873.688,26.367,25.391,29.297,22.461,0
1581694873.692,27.344,28.809,30.762,28.809,0
1581694873.696,22.461,30.273,28.809,14.648,0
1581694873.698,19.531,30.273,27.832,15.625,0
1581694873.702,20.996,32.227,28.320,28.809,0
1581694873.706,24.414,38.574,27.832,29.785,0
1581694873.710,27.832,35.645,27.344,23.926,0
1581694873.714,25.879,31.738,23.438,27.344,0
1581694873.718,24.414,35.645,29.297,29.297,0
1581694873.722,27.832,39.551,38.086,24.902,0
1581694873.725,22.949,40.039,39.062,23.926,0
1581694873.729,23.438,36.621,39.062,26.367,0
1581694873.733,29.785,37.109,36.621,26.855,0
1581694873.737,27.832,37.598,30.762,24.902,0
1581694873.741,32.715,39.062,24.902,28.809,0
1581694873.744,30.762,35.645,25.391,27.832,0
1581694873.748,21.973,33.203,31.250,29.297,0
1581694873.752,24.902,37.109,31.250,29.297,0
1581694873.756,25.879,33.691,33.203,30.762,0
1581694873.760,23.926,26.855,40.039,31.738,0
1581694873.764,25.879,33.203,36.621,24.414,0
1581694873.768,24.414,38.086,29.785,17.578,0
1581694873.771,25.391,41.504,27.344,19.043,0
1581694873.775,26.367,42.480,26.367,27.344,0
1581694873.779,18.066,32.715,27.344,28.809,0
1581694873.783,16.602,31.250,28.320,27.344,0
1581694873.787,22.461,31.738,26.855,24.414,0
1581694873.789,24.902,28.809,27.344,16.602,0
1581694873.793,26.367,31.250,26.367,18.066,0
1581694873.797,34.180,33.203,26.367,30.273,0
1581694873.801,42.480,36.621,30.273,41.016,0
1581694873.805,36.133,33.691,32.715,37.598,0
1581694873.809,19.043,25.391,35.645,27.344,0
1581694873.813,17.578,27.344,40.039,22.461,0
1581694873.816,26.855,27.832,41.992,18.555,0
1581694873.820,28.809,27.832,44.434,26.367,0
1581694873.824,27.344,29.785,38.574,31.738,0
1581694873.828,26.855,29.297,31.738,22.949,0
1581694873.832,22.949,28.809,34.668,21.973,0
1581694873.833,24.902,27.344,32.715,26.367,0
1581694873.837,28.320,28.809,27.832,29.785,0
1581694873.841,26.855,33.203,27.832,39.062,0
1581694873.845,24.414,28.320,31.738,39.551,0
1581694873.849,26.855,22.949,35.645,36.133,0
1581694873.853,29.785,26.367,38.086,34.180,0
1581694873.857,28.320,32.715,36.133,24.414,0
1581694873.860,25.879,32.715,30.762,32.227,0
1581694873.864,24.902,32.227,26.367,34.668,0
1581694873.868,23.438,32.227,24.414,25.391,0
1581694873.872,24.902,36.133,25.391,32.227,0
1581694873.876,28.809,34.668,22.949,30.762,0
1581694873.894,28.809,26.367,18.066,24.414,0
1581694873.898,30.762,22.949,18.555,23.438,0
1581694873.902,28.320,24.902,25.879,22.949,0
1581694873.906,26.367,30.273,28.809,34.668,0
1581694873.910,18.555,32.227,25.879,33.203,0
1581694873.914,18.555,34.180,26.855,27.344,0
1581694873.918,25.879,32.715,26.367,24.902,0
1581694873.921,25.391,29.297,20.508,25.879,0
1581694873.925,28.320,27.344,20.996,24.414,0
1581694873.929,32.715,33.691,24.414,26.855,0
1581694873.933,33.203,36.621,23.438,31.250,0
1581694873.937,32.715,30.762,18.066,29.297,0
1581694873.938,28.809,31.738,21.484,29.297,0
1581694873.942,26.855,35.156,27.344,33.203,0
1581694873.946,23.926,34.668,27.832,36.133,0
1581694873.950,24.414,34.668,28.320,30.273,0
1581694873.954,27.832,30.762,28.320,23.926,0
1581694873.958,28.809,28.809,26.855,26.855,0
1581694873.962,27.832,26.367,24.414,30.273,0
1581694873.965,31.738,27.344,28.809,33.691,0
1581694873.969,32.227,29.297,31.738,33.691,0
1581694873.973,29.297,29.297,29.297,26.855,0
1581694873.977,28.320,40.039,27.344,28.320,0
1581694873.981,28.320,39.062,28.809,25.879,0
1581694873.984,30.273,26.367,31.250,27.832,0
1581694873.988,28.809,24.902,34.180,35.645,0
1581694873.992,27.344,26.367,34.668,32.715,0
1581694873.996,33.203,28.809,31.738,28.809,0
1581694874.000,37.109,33.203,28.809,26.855,0
1581694874.004,27.344,31.738,24.414,25.391,0
1581694874.008,25.879,32.715,20.996,29.297,0
1581694874.011,23.438,33.691,24.414,31.250,0
1581694874.015,20.508,26.855,28.320,21.973,0
1581694874.019,25.391,25.879,28.320,19.043,0
1581694874.023,28.320,29.785,26.855,26.855,0
1581694874.027,29.785,32.715,26.855,24.414,0
1581694874.029,27.832,35.645,29.297,21.484,0
1581694874.033,23.438,33.203,29.297,19.531,0
1581694874.037,18.066,33.691,27.832,19.531,0
1581694874.041,21.484,34.668,26.367,20.020,0
1581694874.045,20.508,26.367,25.879,28.320,0
1581694874.049,20.996,25.391,21.484,27.832,0
1581694874.053,28.809,30.273,18.066,25.391,0
1581694874.056,25.391,24.414,22.461,29.785,0
1581694874.060,20.020,22.949,26.855,31.250,0
1581694874.064,20.996,32.227,29.297,33.691,0
1581694874.068,23.438,39.551,27.832,31.250,0
1581694874.072,21.973,34.668,26.367,24.902,0
1581694874.074,20.996,23.438,27.832,24.902,0
1581694874.078,21.973,24.902,26.855,22.949,0
1581694874.082,25.391,31.250,21.973,17.578,0
1581694874.086,27.344,31.738,22.461,14.648,0
1581694874.090,24.902,30.273,30.762,15.137,0
1581694874.094,22.949,33.691,33.203,18.555,0
1581694874.098,18.066,36.133,30.762,20.996,0
1581694874.101,21.484,33.203,28.809,30.273,0
1581694874.105,27.344,32.715,28.809,32.227,0
1581694874.109,25.879,29.297,27.344,31.738,0
1581694874.113,28.320,28.809,30.273,30.273,0
1581694874.117,26.367,30.273,36.621,22.461,0
1581694874.118,17.578,30.762,34.668,26.855,0
1581694874.122,20.508,30.762,34.668,29.297,0
1581694874.126,23.438,25.879,39.551,30.273,0
1581694874.130,19.043,25.879,39.062,28.809,0
1581694874.134,20.508,29.785,37.109,31.738,0
1581694874.138,24.414,27.344,28.320,38.086,0
1581694874.142,24.902,29.785,23.438,33.203,0
1581694874.145,19.531,34.668,27.344,29.785,0
1581694874.149,18.555,34.180,31.250,28.320,0
1581694874.153,21.484,39.062,37.109,23.926,0
1581694874.157,20.020,39.551,37.109,21.484,0
1581694874.161,24.414,29.297,28.320,17.090,0
1581694874.163,30.273,29.297,26.367,20.020,0
1581694874.167,25.879,30.273,34.180,25.879,0
1581694874.171,32.227,29.785,40.039,34.180,0
1581694874.175,30.762,33.203,39.062,37.109,0
1581694874.179,18.555,36.621,32.227,38.574,0
1581694874.183,21.484,37.598,25.391,33.203,0
1581694874.187,23.438,35.156,29.785,18.555,0
1581694874.190,20.508,33.203,35.156,26.367,0
1581694874.194,19.531,37.598,34.668,29.297,0
1581694874.198,18.555,38.574,37.109,13.184,0
1581694874.202,22.949,34.180,31.250,0.488,0
1581694874.206,30.762,37.598,21.973,-5.859,0
1581694874.208,29.297,37.598,20.996,-13.184,0
1581694874.212,26.855,36.621,23.926,-4.395,0
1581694874.216,30.273,40.039,24.902,7.324,0
1581694874.220,30.273,33.691,21.973,5.859,0
1581694874.224,20.996,28.320,24.414,15.137,0
1581694874.228,17.578,33.203,27.344,26.855,0
1581694874.232,19.043,34.668,27.344,33.691,0
1581694874.235,20.996,38.574,29.297,37.598,0
1581694874.239,20.996,40.039,27.344,33.203,0
1581694874.243,21.484,34.668,27.344,32.715,0
1581694874.247,19.531,30.762,28.809,30.762,0
1581694874.251,16.602,30.273,28.320,19.043,0
1581694874.268,18.066,25.879,30.273,24.414,0
1581694874.272,20.508,23.926,33.691,25.391,0
1581694874.276,22.949,31.738,36.621,19.531,0
1581694874.280,21.484,36.621,35.645,22.461,0
1581694874.284,25.391,33.691,31.250,25.879,0
1581694874.288,25.391,31.250,30.762,28.809,0
1581694874.292,20.508,34.180,35.156,29.785,0
1581694874.295,24.414,31.738,30.762,26.855,0
1581694874.299,31.250,29.297,30.273,26.855,0
1581694874.303,28.809,31.738,37.598,20.508,0
1581694874.307,21.484,27.344,37.109,14.648,0
