timestamps,TP9,AF7,AF8,TP10,Right AUX,Marker0
1555612859.934,39.062,18.555,-656.250,41.504,-12.207,0
1555612859.938,44.434,23.438,-793.945,43.457,4.395,0
1555612859.942,51.758,21.973,-768.555,44.922,8.301,0
1555612859.946,47.363,15.137,-596.191,42.969,30.762,0
1555612859.950,42.969,14.648,-597.168,41.016,10.254,0
1555612859.954,46.387,15.625,-789.062,48.340,17.090,0
1555612859.958,47.363,17.578,-873.047,50.293,29.785,0
1555612859.961,37.598,16.113,-843.262,40.039,40.527,0
1555612859.965,38.574,15.137,-637.207,37.598,67.871,0
1555612859.969,45.898,17.578,-624.023,48.828,20.020,0
1555612859.973,40.039,18.066,-747.559,49.805,21.973,0
1555612859.977,37.109,17.090,-568.359,43.945,66.406,0
1555612859.964,36.133,16.113,-384.766,35.156,62.988,0
1555612859.968,32.715,16.602,-570.312,41.016,-21.484,0
1555612859.972,33.203,17.090,-736.328,47.363,-4.883,0
1555612859.976,34.668,12.695,-595.215,39.551,41.992,0
1555612859.980,39.062,10.254,-501.953,37.598,-9.277,0
1555612859.984,39.062,13.672,-657.715,40.039,14.648,0
1555612859.988,39.062,13.672,-825.195,44.434,23.926,0
1555612859.991,40.527,14.160,-653.320,42.969,35.645,0
1555612859.995,39.062,15.625,-380.371,42.969,79.590,0
1555612859.999,39.551,11.719,-406.250,49.316,65.918,0
1555612860.003,42.969,12.695,-787.598,49.805,-2.441,0
1555612860.007,42.969,16.602,-973.633,47.852,-63.965,0
1555612860.009,37.598,17.578,-587.891,41.504,4.883,0
1555612860.013,42.480,15.137,-476.074,35.645,11.719,0
1555612860.017,46.875,12.695,-697.754,39.062,5.371,0
1555612860.021,43.457,12.695,-690.918,40.527,21.484,0
1555612860.025,39.062,9.766,-530.762,35.645,-5.859,0
1555612860.029,33.203,10.254,-566.406,33.691,-8.301,0
1555612860.033,37.598,15.625,-897.949,37.598,1.953,0
1555612860.036,37.598,14.160,-923.340,38.086,35.156,0
1555612860.040,35.645,12.207,-662.598,30.762,-17.090,0
1555612860.044,41.504,9.277,-548.340,32.227,-18.555,0
1555612860.048,41.992,10.254,-574.707,39.062,61.035,0
1555612860.052,39.062,11.230,-676.758,42.969,42.480,0
1555612860.069,36.133,3.418,-635.742,38.574,45.410,0
1555612860.073,35.156,0.977,-551.270,38.086,45.410,0
1555612860.077,34.668,1.953,-617.188,33.691,13.184,0
1555612860.081,34.180,1.953,-716.309,33.203,26.367,0
1555612860.085,40.039,3.906,-711.426,38.574,57.129,0
1555612860.089,40.039,1.465,-683.105,33.691,62.012,0
1555612860.093,32.227,-1.953,-773.438,31.738,0.977,0
1555612860.096,28.320,-0.488,-812.988,24.414,-0.488,0
1555612860.100,31.738,-1.953,-846.680,19.043,-9.766,0
1555612860.104,34.668,-8.301,-933.594,18.066,-30.273,0
1555612860.108,28.809,-8.789,-940.430,23.438,-15.137,0
1555612860.112,23.926,-10.742,-812.988,33.691,27.344,0
1555612860.114,27.344,-11.230,-859.375,29.785,60.059,0
1555612860.118,30.273,-7.812,-865.234,24.902,42.480,0
1555612860.122,34.180,-10.742,-720.215,31.738,2.930,0
1555612860.126,31.250,-13.184,-717.285,36.133,19.531,0
1555612860.130,28.809,-8.301,-862.305,30.762,61.523,0
1555612860.134,28.320,-7.812,-993.164,29.297,11.719,0
1555612860.138,25.391,-11.230,-911.133,28.809,-3.906,0
1555612860.141,27.344,-13.672,-740.234,32.227,52.734,0
1555612860.145,25.391,-11.719,-844.727,33.691,46.875,0
1555612860.149,32.715,-9.277,-994.141,33.691,-9.277,0
1555612860.153,35.156,-11.230,-791.504,30.273,10.742,0
1555612860.157,30.273,-15.625,-620.117,29.297,26.855,0
1555612860.159,41.016,-12.207,-816.406,38.574,10.742,0
1555612860.163,41.016,-8.789,-997.559,23.926,22.461,0
1555612860.167,29.297,-10.742,-832.520,12.695,13.672,0
1555612860.171,24.414,-11.230,-607.910,9.766,16.113,0
1555612860.175,18.555,-10.254,-768.066,20.508,-7.812,0
1555612860.179,18.555,-13.184,-998.047,26.367,-33.691,0
1555612860.183,22.949,-13.184,-929.199,19.043,6.348,0
1555612860.186,27.344,-10.742,-641.113,19.043,58.594,0
1555612860.190,33.203,-10.742,-742.188,13.672,28.320,0
1555612860.194,32.227,-10.254,-969.238,18.066,20.508,0
1555612860.198,31.250,-9.766,-763.672,29.297,50.781,0
1555612860.202,34.180,-7.812,-558.594,35.156,56.152,0
1555612860.204,31.738,-2.441,-549.316,34.180,86.426,0
1555612860.208,39.551,2.441,-675.781,28.809,68.359,0
1555612860.212,45.410,0.000,-692.383,27.832,57.617,0
1555612860.216,38.574,-2.441,-582.031,46.387,71.289,0
1555612860.220,36.621,-3.906,-608.887,46.387,52.734,0
1555612860.224,43.457,-4.883,-799.805,30.762,37.598,0
1555612860.228,43.457,-0.977,-875.000,36.621,28.809,0
1555612860.231,44.434,1.465,-777.344,36.621,0.000,0
1555612860.235,47.852,1.953,-809.570,28.320,14.160,0
1555612860.239,44.434,0.488,-750.488,31.738,27.344,0
1555612860.243,42.969,-2.441,-718.262,39.062,20.020,0
1555612860.247,40.527,0.488,-756.836,36.621,2.930,0
1555612860.249,40.039,2.930,-659.180,21.973,-44.922,0
1555612860.253,46.387,2.441,-580.078,37.598,-9.766,0
1555612860.257,47.363,4.395,-714.355,55.664,15.625,0
1555612860.261,35.645,3.906,-792.969,36.621,14.160,0
1555612860.265,26.855,0.488,-627.441,25.391,31.738,0
1555612860.269,27.344,-1.465,-658.691,34.668,-5.859,0
1555612860.273,21.973,-3.906,-869.141,22.949,3.906,0
1555612860.276,15.625,-5.371,-962.402,18.066,61.035,0
1555612860.280,21.973,-3.906,-806.641,23.926,40.527,0
1555612860.284,29.297,-2.441,-538.574,23.438,51.758,0
1555612860.288,32.227,-4.883,-709.961,35.645,-10.254,0
1555612860.292,35.156,-2.930,-980.469,44.434,-14.648,0
1555612860.294,33.691,-2.441,-850.586,40.039,64.453,0
1555612860.298,23.926,-8.301,-634.277,35.645,15.137,0
1555612860.302,22.461,-9.766,-803.711,39.062,-59.570,0
1555612860.306,31.738,-4.395,-993.652,38.574,6.836,0
1555612860.310,37.109,-0.488,-911.133,49.316,31.250,0
1555612860.314,35.645,-4.395,-830.078,45.410,-1.465,0
1555612860.318,29.785,-3.906,-900.391,25.879,66.406,0
1555612860.321,38.574,1.465,-976.562,33.691,9.277,0
1555612860.325,45.898,3.418,-962.891,39.062,-26.367,0
1555612860.329,41.992,0.488,-853.027,41.016,24.902,0
1555612860.333,39.551,-3.418,-891.113,38.086,10.742,0
1555612860.337,42.480,0.000,-979.004,34.180,-3.906,0
1555612860.339,40.527,-1.465,-983.887,41.992,-5.859,0
1555612860.343,36.621,-2.930,-902.344,44.434,60.059,0
1555612860.347,41.016,2.441,-875.488,43.457,27.344,0
1555612860.351,39.551,-0.977,-978.027,37.109,17.090,0
1555612860.355,37.109,0.000,-973.145,36.133,47.852,0
1555612860.359,39.062,3.418,-969.238,39.062,24.902,0
1555612860.363,35.645,0.488,-972.656,31.738,41.992,0
1555612860.366,30.762,0.488,-972.656,30.273,10.742,0
1555612860.370,37.598,1.953,-967.773,42.480,33.203,0
1555612860.374,45.410,4.395,-981.934,36.133,41.992,0
1555612860.378,44.434,4.395,-941.406,24.414,2.441,0
1555612860.382,39.551,3.418,-881.836,24.414,40.527,0
1555612860.384,33.691,3.906,-942.871,25.879,29.785,0
1555612860.388,36.621,2.930,-991.211,31.250,-53.711,0
1555612860.392,36.621,1.953,-915.039,30.273,-52.734,0
1555612860.396,35.645,0.977,-789.551,36.133,51.270,0
1555612860.400,37.109,0.000,-869.141,43.945,82.031,0
1555612860.404,41.992,2.441,-988.770,41.504,23.438,0
1555612860.408,48.828,4.883,-943.359,38.086,15.625,0
1555612860.411,42.969,1.953,-842.773,31.250,36.133,0
1555612860.415,39.551,-4.395,-904.785,28.320,16.113,0
1555612860.419,47.852,-2.441,-982.910,37.109,12.695,0
1555612860.423,44.922,4.395,-966.797,36.133,-38.574,0
1555612860.427,42.480,2.930,-955.566,28.320,-35.645,0
1555612860.444,37.109,0.488,-955.566,32.227,17.090,0
1555612860.448,42.480,8.789,-968.262,51.270,18.066,0
1555612860.452,42.480,10.742,-981.445,46.387,-3.418,0
1555612860.456,24.414,-4.395,-874.512,26.367,68.359,0
1555612860.460,30.273,-8.301,-885.742,29.297,78.613,0
1555612860.464,43.457,5.859,-979.980,41.992,60.059,0
1555612860.468,38.574,12.207,-979.980,35.645,11.230,0
1555612860.471,31.250,7.324,-933.594,27.344,0.000,0
1555612860.475,38.574,13.672,-862.793,37.598,81.055,0
1555612860.479,32.227,14.648,-943.359,28.320,55.664,0
1555612860.483,27.832,7.812,-981.445,1.465,7.812,0
1555612860.487,35.156,14.160,-967.285,12.207,5.859,0
1555612860.489,32.715,15.137,-972.656,24.414,-3.418,0
1555612860.493,33.203,12.695,-972.168,23.926,-48.340,0
1555612860.497,40.527,15.137,-972.168,25.879,-64.453,0
1555612860.501,47.852,21.484,-972.168,30.273,-35.645,0
1555612860.505,36.133,20.508,-972.168,23.438,-19.043,0
1555612860.509,24.902,13.672,-972.168,6.348,46.875,0
1555612860.513,2.441,16.113,-972.168,-12.695,52.734,0
1555612860.516,-23.926,24.902,-972.168,-32.227,27.344,0
1555612860.520,-27.832,33.691,-972.168,-47.363,41.016,0
1555612860.524,-57.617,36.621,-972.168,-67.871,34.668,0
1555612860.528,-83.496,36.621,-972.168,-78.613,42.480,0
1555612860.532,-86.426,40.039,-972.168,-93.750,26.855,0
1555612860.534,-97.656,39.062,-972.168,-113.770,35.645,0
1555612860.538,-105.957,35.156,-972.168,-120.605,37.598,0
1555612860.542,-110.840,38.086,-972.168,-112.793,-12.207,0
1555612860.546,-112.305,43.457,-972.168,-113.281,48.340,0
1555612860.550,-104.004,39.551,-972.168,-112.793,62.012,0
1555612860.554,-90.820,37.109,-972.168,-105.957,46.387,0
1555612860.558,-83.496,44.922,-972.168,-96.680,-3.906,0
1555612860.561,-86.426,44.922,-972.168,-94.727,-32.715,0
1555612860.565,-84.473,38.574,-972.168,-100.098,3.418,0
1555612860.569,-69.824,34.668,-972.168,-77.148,1.465,0
1555612860.573,-55.176,34.668,-972.168,-49.316,34.668,0
1555612860.577,-35.156,36.133,-972.168,-44.434,31.250,0
1555612860.580,-22.461,37.598,-972.168,-42.480,10.254,0
1555612860.584,-12.207,34.668,-972.168,-19.531,29.297,0
1555612860.588,-1.465,33.203,-972.168,-10.742,46.875,0
1555612860.592,8.789,37.109,-972.168,1.953,43.457,0
1555612860.596,32.227,41.016,-972.168,31.250,-1.953,0
1555612860.600,43.945,41.504,-972.168,36.133,-16.113,0
1555612860.604,44.922,39.062,-973.145,40.527,12.695,0
1555612860.607,58.105,39.062,-965.820,58.594,80.566,0
1555612860.611,68.848,41.992,-979.980,63.965,54.688,0
1555612860.615,75.195,41.504,-942.871,62.012,6.836,0
1555612860.619,84.473,41.016,-754.883,76.660,60.547,0
1555612860.623,83.496,42.480,-779.785,86.914,85.449,0
1555612860.624,94.238,37.598,-966.797,86.914,91.309,0
1555612860.628,103.516,37.109,-916.504,93.262,74.219,0
1555612860.632,105.957,44.922,-673.340,103.516,68.359,0
1555612860.636,108.398,43.945,-629.395,113.281,89.355,0
1555612860.640,109.375,39.551,-812.500,114.258,53.711,0
1555612860.644,118.652,38.086,-950.684,108.398,13.672,0
1555612860.648,120.117,35.156,-830.078,103.516,39.551,0
1555612860.651,116.699,36.133,-795.898,101.074,73.730,0
1555612860.655,120.605,36.133,-973.145,102.539,42.969,0
1555612860.659,117.676,31.738,-868.164,110.840,4.395,0
1555612860.663,116.211,32.227,-661.621,110.840,30.273,0
1555612860.667,124.512,33.203,-551.270,108.398,60.059,0
1555612860.684,121.582,31.738,-598.633,112.793,45.410,0
1555612860.688,116.211,33.203,-752.930,115.234,-17.090,0
1555612860.692,116.211,31.250,-712.891,111.328,5.371,0
1555612860.696,112.793,28.320,-656.738,115.234,10.254,0
1555612860.700,110.352,29.785,-676.270,113.281,20.996,0
1555612860.704,114.258,32.227,-829.102,110.840,4.883,0
1555612860.708,120.605,25.879,-873.535,107.910,39.062,0
1555612860.711,111.328,22.461,-838.867,104.492,36.621,0
1555612860.715,102.051,21.484,-768.555,101.074,-78.613,0
1555612860.719,102.051,23.926,-653.809,99.121,-18.555,0
1555612860.723,106.934,25.879,-732.910,100.098,28.809,0
1555612860.727,113.770,24.902,-620.117,90.332,15.137,0
1555612860.714,109.863,23.438,-405.762,85.938,51.270,0
1555612860.718,102.539,20.020,-533.203,85.449,22.461,0
1555612860.722,95.703,18.066,-745.117,85.449,4.883,0
1555612860.726,97.168,17.578,-619.141,87.402,48.340,0
1555612860.730,94.727,17.578,-407.227,80.566,41.992,0
1555612860.734,87.891,17.578,-598.145,76.660,29.785,0
1555612860.738,92.285,18.555,-877.930,83.984,29.785,0
1555612860.741,90.820,19.531,-752.930,80.566,15.625,0
1555612860.745,81.543,15.625,-467.285,66.406,30.762,0
1555612860.749,75.684,13.672,-425.293,68.359,52.246,0
1555612860.753,74.707,17.090,-785.645,80.078,36.621,0
1555612860.757,68.359,10.742,-922.852,72.754,5.859,0
1555612860.774,64.941,3.906,-581.055,64.941,2.930,0
1555612860.778,65.430,9.766,-511.719,66.406,8.301,0
1555612860.782,56.641,13.184,-752.441,67.383,-14.160,0
1555612860.786,55.664,12.207,-799.805,59.570,-17.090,0
1555612860.790,58.594,10.254,-610.840,47.852,0.977,0
1555612860.794,57.617,12.207,-663.086,56.641,-26.855,0
1555612860.798,54.688,14.648,-940.430,59.082,-36.133,0
1555612860.801,50.293,12.695,-909.180,45.898,5.371,0
1555612860.805,52.734,12.695,-623.535,47.363,45.410,0
1555612860.809,51.270,11.719,-588.867,42.969,4.395,0
1555612860.813,46.875,13.184,-707.520,43.457,-2.930,0
1555612860.817,46.387,16.602,-768.066,50.781,-10.742,0
1555612860.820,44.434,15.137,-729.980,41.992,-30.273,0
1555612860.824,45.410,14.160,-568.359,34.668,41.504,0
1555612860.828,41.504,13.184,-566.895,42.480,42.480,0
1555612860.832,47.852,16.113,-729.004,52.246,-36.133,0
1555612860.836,46.875,17.090,-707.031,44.922,23.438,0
1555612860.840,42.480,12.695,-660.645,47.363,33.203,0
1555612860.844,42.969,12.207,-680.664,51.270,-14.160,0
1555612860.847,43.945,15.137,-675.781,43.457,23.438,0
1555612860.851,45.410,16.602,-673.828,43.945,43.945,0
1555612860.855,42.969,16.113,-791.992,33.203,30.762,0
1555612860.859,40.039,14.648,-791.016,23.438,-1.465,0
1555612860.863,42.480,15.137,-604.492,25.879,47.363,0
1555612860.864,41.992,18.066,-764.160,25.879,64.941,0
1555612860.868,34.180,18.555,-740.723,26.855,37.109,0
1555612860.872,29.785,20.020,-490.234,25.879,30.762,0
1555612860.876,28.320,23.438,-449.219,27.344,44.922,0
1555612860.880,31.738,25.879,-666.504,25.391,35.156,0
1555612860.884,36.621,23.926,-791.016,17.578,42.969,0
1555612860.888,51.758,20.508,-677.734,20.020,26.855,0
1555612860.891,47.852,22.949,-573.730,31.250,-39.062,0
1555612860.895,17.090,23.438,-681.641,23.438,30.273,0
1555612860.899,19.531,19.043,-929.688,1.953,47.852,0
1555612860.903,24.414,17.578,-696.777,0.488,13.672,0
1555612860.907,16.602,19.531,-359.863,5.859,95.215,0
1555612860.909,30.762,21.973,-555.176,21.484,84.961,0
1555612860.913,41.016,21.484,-810.059,24.414,-28.809,0
1555612860.917,33.203,20.020,-651.367,17.578,-41.504,0
1555612860.921,31.738,21.973,-517.090,24.414,26.855,0
1555612860.925,32.715,22.949,-708.984,29.297,11.230,0
1555612860.929,33.203,21.973,-901.855,14.648,-12.207,0
1555612860.933,36.133,21.973,-878.418,16.113,-0.977,0
1555612860.936,34.180,22.461,-612.793,24.414,8.789,0
1555612860.940,27.832,25.391,-716.797,20.508,14.160,0
1555612860.944,27.832,27.344,-1000.000,13.672,-19.531,0
1555612860.948,32.227,20.508,-799.805,16.113,-11.230,0
1555612860.952,24.902,16.602,-547.363,15.137,49.805,0
1555612860.954,24.414,19.043,-593.750,18.066,24.902,0
1555612860.958,25.879,19.043,-736.816,21.973,5.859,0
1555612860.962,23.926,16.602,-726.074,13.672,45.410,0
1555612860.966,26.367,19.531,-589.844,12.207,99.121,0
1555612860.970,24.414,24.902,-577.637,14.648,67.871,0
1555612860.974,24.902,27.832,-776.367,13.184,35.156,0
1555612860.978,32.227,23.926,-950.195,13.672,34.668,0
1555612860.981,36.621,16.602,-932.129,30.273,3.906,0
1555612860.985,31.250,16.113,-933.594,15.137,-3.906,0
1555612860.989,28.320,22.461,-872.559,-0.488,-18.066,0
1555612860.993,25.391,24.414,-781.738,7.812,40.039,0
1555612860.997,29.785,20.020,-806.641,13.184,45.898,0
1555612860.999,28.320,17.090,-677.246,15.625,34.668,0
1555612861.003,25.391,20.020,-575.684,12.695,61.523,0
1555612861.007,30.273,22.949,-768.066,16.602,22.461,0
1555612861.011,28.809,20.020,-895.508,15.625,6.348,0
1555612861.015,20.508,17.090,-749.023,18.066,19.531,0
1555612861.019,18.555,15.137,-745.605,16.602,9.277,0
1555612861.023,28.320,15.137,-938.477,11.719,-27.344,0
1555612861.026,32.715,19.531,-996.094,17.578,-55.176,0
1555612861.030,33.691,19.531,-898.926,15.625,-22.461,0
1555612861.034,32.715,17.578,-686.523,4.395,74.219,0
1555612861.038,32.715,21.973,-791.504,11.719,38.086,0
1555612861.042,27.832,22.461,-955.078,14.160,-9.766,0
1555612861.044,22.949,13.184,-813.477,8.301,12.695,0
1555612861.048,24.902,9.277,-616.699,14.648,2.930,0
1555612861.052,29.297,13.672,-703.613,10.254,8.789,0
1555612861.056,23.438,12.695,-920.410,11.230,11.230,0
1555612861.060,17.578,8.789,-854.492,11.230,0.977,0
1555612861.064,14.648,6.348,-684.082,-1.953,61.035,0
1555612861.068,13.184,7.812,-794.434,-1.953,43.457,0
1555612861.071,19.043,10.254,-983.398,5.371,-30.762,0
1555612861.075,15.137,7.812,-947.754,7.812,-43.457,0
1555612861.079,16.113,5.859,-699.707,11.719,14.648,0
1555612861.083,15.137,8.789,-652.832,8.789,31.738,0
1555612861.087,16.602,8.789,-850.586,2.930,-10.254,0
1555612861.090,21.973,8.789,-955.566,6.348,-10.742,0
1555612861.094,16.602,9.766,-882.812,13.184,-5.371,0
1555612861.098,12.695,8.301,-712.402,7.324,33.203,0
1555612861.102,22.949,11.719,-766.113,3.418,39.062,0
1555612861.106,22.949,13.184,-871.582,10.254,20.996,0
1555612861.110,18.066,12.207,-868.652,7.324,33.691,0
1555612861.114,17.578,10.254,-888.184,10.742,58.594,0
1555612861.117,22.461,10.254,-972.656,5.859,27.344,0
1555612861.121,27.344,11.230,-938.965,1.465,1.953,0
1555612861.125,26.855,11.230,-846.680,6.348,30.273,0
1555612861.129,29.785,11.719,-760.254,-1.465,15.625,0
1555612861.133,26.855,9.766,-697.266,-14.160,25.391,0
1555612861.134,19.043,7.324,-789.551,-3.906,30.273,0
1555612861.138,21.484,8.301,-921.387,10.742,3.418,0
1555612861.142,22.461,9.277,-863.281,13.672,-25.879,0
1555612861.146,13.672,14.160,-756.348,12.207,2.930,0
1555612861.150,14.160,16.602,-898.438,7.324,-5.371,0
1555612861.154,14.160,11.719,-987.305,3.906,17.090,0
1555612861.158,13.672,11.719,-971.680,5.371,67.871,0
1555612861.161,11.719,13.184,-772.461,6.836,69.336,0
1555612861.165,5.859,14.160,-694.824,12.695,30.273,0
1555612861.169,7.324,14.160,-929.688,16.602,-10.254,0
1555612861.173,19.043,13.184,-919.922,9.766,1.465,0
1555612861.177,19.043,11.719,-686.523,6.348,13.672,0
1555612861.194,8.789,11.719,-727.539,10.742,-29.785,0
1555612861.198,19.043,15.625,-937.012,23.438,-34.668,0
1555612861.202,24.902,15.137,-942.871,23.438,19.043,0
1555612861.206,15.625,14.160,-746.094,9.277,35.645,0
1555612861.210,21.484,18.066,-670.410,9.766,79.590,0
1555612861.214,29.785,15.625,-879.395,20.508,38.086,0
1555612861.218,26.855,12.695,-997.070,23.926,20.996,0
1555612861.221,13.672,15.137,-947.754,14.648,55.664,0
1555612861.225,1.465,14.160,-801.758,9.766,33.691,0
1555612861.229,9.277,14.160,-864.258,12.695,43.945,0
1555612861.233,10.742,16.113,-1000.000,15.137,28.320,0
1555612861.237,1.465,12.695,-903.809,6.836,-13.184,0
1555612861.239,3.906,11.230,-722.168,2.441,30.762,0
1555612861.243,20.996,11.230,-812.012,25.391,40.039,0
1555612861.247,21.973,14.160,-986.816,22.461,-8.301,0
1555612861.251,18.066,15.625,-868.652,2.441,41.504,0
1555612861.255,20.020,10.254,-750.977,10.254,33.203,0
1555612861.259,18.066,11.230,-898.438,6.348,-1.465,0
1555612861.263,17.090,13.184,-984.375,11.230,40.527,0
1555612861.266,16.602,11.719,-919.922,17.090,26.855,0
1555612861.270,17.578,13.184,-838.867,15.137,24.414,0
1555612861.274,22.949,15.137,-943.848,14.160,-0.488,0
1555612861.278,14.160,12.207,-978.516,10.742,-37.598,0
1555612861.282,19.531,13.184,-971.680,14.648,-44.922,0
1555612861.284,29.297,18.066,-915.039,15.137,-3.418,0
1555612861.288,25.879,19.531,-760.254,6.348,4.395,0
1555612861.292,20.508,18.066,-751.953,12.207,26.367,0
1555612861.296,18.066,15.137,-853.027,23.926,52.734,0
1555612861.300,25.879,13.184,-854.004,20.996,26.855,0
1555612861.304,29.297,10.254,-819.336,11.230,14.160,0
1555612861.308,23.926,9.277,-853.516,12.207,27.344,0
1555612861.311,24.414,10.742,-895.508,20.996,55.176,0
1555612861.315,31.738,11.719,-962.402,24.902,7.812,0
1555612861.319,34.668,12.207,-904.297,16.113,-47.852,0
1555612861.323,28.809,11.719,-729.980,10.742,8.301,0
1555612861.327,21.484,10.742,-832.520,13.184,29.785,0
1555612861.329,21.484,12.207,-993.652,21.484,57.129,0
1555612861.333,24.902,9.766,-824.707,22.461,64.453,0
1555612861.337,30.762,6.836,-640.625,11.719,37.109,0
1555612861.341,30.273,10.742,-802.246,23.926,31.738,0
1555612861.345,24.902,10.742,-956.055,33.203,44.434,0
1555612861.349,25.879,8.301,-917.969,29.297,29.297,0
1555612861.353,29.297,8.789,-831.543,18.066,20.020,0
1555612861.356,25.879,14.160,-856.934,10.254,36.621,0
1555612861.360,26.855,16.113,-992.676,11.719,8.301,0
1555612861.364,35.645,10.254,-901.855,17.578,8.301,0
1555612861.368,25.879,6.348,-689.453,12.207,5.371,0
1555612861.372,16.602,9.766,-782.715,8.301,-27.344,0
1555612861.374,27.344,13.184,-953.613,25.391,-13.672,0
1555612861.378,26.367,17.090,-862.305,26.855,4.395,0
1555612861.382,19.531,16.113,-652.344,17.578,25.391,0
1555612861.386,18.066,16.113,-663.574,15.137,47.852,0
1555612861.390,13.672,18.066,-862.793,9.766,40.527,0
1555612861.394,16.602,15.137,-976.562,11.719,-24.902,0
1555612861.398,28.320,14.648,-883.301,17.090,-39.551,0
1555612861.401,21.973,15.625,-840.332,17.090,12.207,0
1555612861.405,11.719,16.113,-947.754,9.277,37.598,0
1555612861.409,19.531,14.648,-836.426,11.719,19.531,2
1555612861.413,21.973,12.695,-633.789,20.996,37.109,0
1555612861.417,18.066,15.137,-520.508,20.508,64.453,0
1555612861.419,19.531,20.508,-586.426,22.461,34.668,0
1555612861.423,21.484,19.531,-745.117,25.391,-25.391,0
1555612861.427,12.695,16.602,-706.543,10.254,19.043,0
1555612861.431,13.672,17.578,-557.129,10.742,52.734,0
1555612861.435,16.602,19.043,-524.902,13.672,30.273,0
1555612861.439,17.578,18.066,-724.609,9.277,35.645,0
1555612861.443,23.926,16.602,-892.578,7.324,15.625,0
1555612861.446,18.066,14.160,-863.770,1.465,41.016,0
1555612861.450,9.766,8.789,-678.711,0.977,35.156,0
1555612861.454,15.625,8.789,-636.230,2.441,10.742,0
1555612861.458,19.531,12.207,-796.387,0.000,45.898,0
1555612861.462,12.695,11.230,-745.605,-14.160,23.926,0
1555612861.464,14.160,11.719,-532.227,-6.348,16.602,0
1555612861.468,16.113,15.137,-590.332,0.488,44.922,0
1555612861.472,17.090,19.043,-845.215,-6.348,11.719,0
1555612861.476,20.996,21.484,-732.910,3.418,71.777,0
1555612861.480,19.531,20.020,-500.488,15.137,87.402,0
1555612861.484,15.625,16.113,-736.816,7.812,10.742,0
1555612861.488,27.832,15.625,-994.629,0.000,-13.184,0
1555612861.491,30.762,16.602,-910.645,3.418,11.230,0
1555612861.495,20.996,17.578,-590.332,0.000,92.773,0
1555612861.499,24.414,19.531,-624.512,5.859,70.801,0
1555612861.503,25.391,19.531,-926.758,9.277,25.879,0
1555612861.507,24.414,18.555,-891.602,7.812,35.645,0
1555612861.509,25.391,19.043,-696.289,11.719,17.090,0
1555612861.513,24.414,20.508,-673.340,12.695,15.625,0
1555612861.517,22.949,20.996,-862.305,14.160,45.410,0
1555612861.521,25.391,23.438,-912.109,18.555,51.270,0
1555612861.525,28.320,21.484,-813.477,24.414,-23.926,0
1555612861.529,33.691,17.090,-846.680,23.926,-23.438,0
1555612861.533,30.762,19.043,-958.496,15.625,9.277,0
1555612861.536,22.949,20.020,-991.699,16.602,-21.973,0
1555612861.540,22.949,18.555,-878.418,20.508,-15.137,0
1555612861.544,25.879,17.090,-798.340,16.602,9.766,0
1555612861.548,24.902,20.020,-901.855,18.555,39.062,0
1555612861.552,28.320,23.438,-948.730,16.113,-6.348,0
1555612861.569,23.438,21.973,-944.336,7.324,-16.602,0
1555612861.573,12.695,20.996,-826.660,11.719,36.133,0
1555612861.577,18.555,23.438,-757.812,20.020,17.578,0
1555612861.581,20.020,22.949,-816.895,18.555,36.133,0
1555612861.585,20.508,21.484,-844.727,15.137,43.457,0
1555612861.589,27.832,24.902,-839.844,16.602,13.184,0
1555612861.593,29.297,19.531,-827.148,15.625,6.348,0
1555612861.596,27.832,17.578,-867.188,16.602,-31.738,0
1555612861.600,26.855,21.973,-861.816,7.812,6.348,0
1555612861.604,26.855,19.043,-900.391,2.930,45.410,0
1555612861.608,19.531,18.555,-860.840,-1.953,21.973,0
1555612861.612,18.066,22.461,-742.676,-2.441,-11.719,0
1555612861.614,27.832,27.344,-884.766,7.812,-17.090,0
1555612861.618,31.738,27.344,-865.723,6.348,16.602,0
1555612861.622,35.156,23.438,-645.020,7.812,29.785,0
1555612861.626,27.344,20.020,-657.715,13.672,51.270,0
1555612861.630,21.484,17.090,-869.141,16.113,6.836,0
1555612861.634,25.879,18.066,-980.957,12.695,-33.691,0
1555612861.638,35.156,21.484,-864.258,23.438,7.812,0
1555612861.641,41.016,24.902,-672.852,35.645,8.789,0
1555612861.645,21.484,22.949,-798.828,19.043,12.207,0
1555612861.649,10.742,19.531,-1000.000,2.441,57.129,0
1555612861.653,13.672,18.555,-777.832,-0.488,54.199,0
1555612861.657,5.859,17.578,-519.043,-2.930,42.480,0
1555612861.674,5.859,15.137,-727.539,-2.930,18.066,0
1555612861.678,10.254,12.695,-940.918,8.301,-42.969,0
1555612861.682,13.672,12.207,-769.531,11.230,-35.156,0
1555612861.686,16.602,12.207,-552.246,-0.488,20.020,0
1555612861.690,14.648,12.695,-648.926,3.906,50.293,0
1555612861.694,18.555,13.184,-918.945,12.695,1.465,0
1555612861.698,21.484,14.648,-959.961,10.742,-44.922,0
1555612861.701,11.230,15.137,-713.867,10.254,45.898,0
1555612861.705,12.695,15.137,-771.484,13.672,83.984,0
1555612861.709,22.461,18.555,-941.406,20.996,95.703,0
1555612861.713,21.973,20.508,-724.609,14.648,89.355,0
1555612861.717,18.555,20.996,-611.328,18.066,36.133,0
1555612861.704,15.625,17.578,-663.574,23.926,-6.836,0
1555612861.708,21.973,16.113,-776.367,26.367,-59.570,0
1555612861.712,30.762,18.066,-784.668,25.391,-21.484,0
1555612861.716,26.367,17.090,-652.344,13.184,31.738,0
1555612861.720,21.484,16.602,-614.258,15.625,6.836,0
1555612861.724,20.996,17.090,-742.676,27.832,13.184,0
1555612861.728,24.414,16.602,-932.617,36.133,-14.160,0
1555612861.731,29.297,16.602,-844.238,32.227,-8.301,0
1555612861.735,27.832,16.113,-619.629,23.926,61.035,0
1555612861.739,22.949,15.625,-645.020,18.555,46.875,0
1555612861.743,19.531,17.090,-772.461,14.648,2.930,0
1555612861.747,24.902,15.625,-834.473,13.672,-1.953,0
1555612861.750,25.879,13.672,-846.680,14.648,29.297,0
1555612861.754,22.949,14.160,-623.047,10.254,69.336,0
1555612861.758,24.902,15.137,-683.594,8.301,22.949,0
1555612861.762,25.879,13.672,-851.074,9.277,-30.273,0
1555612861.766,28.809,13.184,-665.039,7.812,6.348,0
1555612861.770,31.738,12.207,-614.746,4.883,33.203,0
1555612861.774,25.879,13.184,-784.180,-11.230,19.043,0
1555612861.777,29.297,12.695,-940.430,-16.113,7.812,0
1555612861.781,34.668,10.254,-871.582,-14.648,42.480,0
1555612861.785,28.320,12.207,-634.766,-20.996,-33.203,0
1555612861.789,26.367,14.160,-648.438,-20.508,-11.719,0
1555612861.793,30.762,10.742,-820.801,-19.531,45.410,0
1555612861.794,32.715,11.230,-798.340,-28.809,36.621,0
1555612861.798,27.344,13.184,-532.715,-35.156,73.242,0
1555612861.802,27.344,14.160,-554.199,-25.391,66.895,0
1555612861.806,41.016,16.113,-833.008,-25.879,21.973,0
1555612861.810,41.504,16.113,-818.359,-27.344,-10.742,0
1555612861.814,36.621,16.113,-691.406,-12.695,-7.324,0
1555612861.818,37.598,13.184,-777.344,-9.766,5.859,0
1555612861.821,35.156,12.695,-962.402,-4.883,14.160,0
1555612861.825,25.391,12.695,-933.594,-2.441,-10.742,0
1555612861.829,21.973,8.789,-673.340,-1.953,-1.465,0
1555612861.833,17.090,9.766,-596.191,-2.441,33.691,0
1555612861.837,10.742,12.695,-734.863,-0.977,46.875,0
1555612861.839,13.672,11.719,-819.824,9.277,12.207,0
1555612861.843,20.508,10.254,-707.031,12.207,-0.488,0
1555612861.847,25.391,10.742,-635.254,14.160,12.695,0
1555612861.851,29.297,11.230,-765.137,18.066,47.852,0
1555612861.855,26.367,10.742,-844.727,10.254,54.688,0
1555612861.859,21.484,10.254,-883.301,13.184,-14.160,0
1555612861.863,19.531,8.301,-896.484,17.578,19.043,0
1555612861.866,20.508,7.812,-901.855,11.230,62.988,0
1555612861.870,27.344,11.230,-846.680,16.113,44.434,0
1555612861.874,29.785,12.695,-815.430,20.508,7.324,0
1555612861.878,25.391,13.672,-718.750,22.461,2.930,0
1555612861.882,22.949,12.207,-643.066,24.902,5.371,0
1555612861.884,23.926,12.207,-742.676,28.809,3.906,0
1555612861.888,30.762,17.090,-833.008,25.391,35.645,0
1555612861.892,30.273,16.602,-748.047,16.602,37.109,0
1555612861.896,28.809,12.695,-589.844,21.973,27.832,0
1555612861.900,24.902,12.207,-656.738,27.344,38.086,0
1555612861.904,30.273,13.184,-890.137,25.391,55.176,0
1555612861.908,40.527,15.625,-968.750,22.949,24.902,0
1555612861.911,35.645,16.113,-804.199,29.785,15.137,0
1555612861.915,29.785,13.184,-694.336,27.832,2.930,0
1555612861.919,36.133,13.184,-864.258,25.879,-2.441,0
1555612861.923,36.621,13.184,-855.469,23.438,30.273,0
1555612861.927,30.273,12.695,-533.203,25.879,71.289,0
1555612861.944,32.227,11.719,-491.211,30.762,57.617,0
1555612861.948,41.992,14.160,-731.934,28.809,58.105,0
1555612861.952,40.039,16.113,-781.250,41.016,71.289,0
1555612861.956,32.715,17.090,-533.691,32.715,86.914,0
1555612861.960,29.785,18.066,-524.414,18.066,-1.953,0
1555612861.964,31.738,19.043,-852.051,27.344,-63.965,0
1555612861.968,33.691,19.531,-929.199,23.926,54.688,0
1555612861.971,24.902,16.602,-692.871,18.555,24.414,0
1555612861.975,23.926,14.160,-463.379,15.625,17.090,0
1555612861.979,26.367,17.090,-687.500,26.855,103.516,0
1555612861.983,29.785,18.555,-950.684,25.391,42.969,0
1555612861.987,38.574,15.625,-686.523,15.137,-6.836,0
1555612861.989,34.180,17.090,-489.258,23.438,24.902,0
1555612861.993,28.320,18.066,-594.727,20.020,27.832,0
1555612861.997,25.879,17.090,-699.707,29.785,56.641,0
1555612862.001,28.809,16.113,-633.789,37.598,42.480,0
1555612862.005,30.273,15.625,-551.270,24.414,-5.371,0
1555612862.009,25.391,15.625,-612.305,22.949,47.852,0
1555612862.013,27.832,15.625,-772.949,22.949,91.797,0
1555612862.016,27.832,18.555,-751.465,25.879,25.391,0
1555612862.020,28.320,16.602,-605.957,26.367,31.738,0
1555612862.024,28.320,14.160,-668.945,23.926,41.992,0
1555612862.028,23.438,18.066,-748.535,23.438,-35.645,0
1555612862.032,27.344,20.996,-700.684,24.414,5.859,0
1555612862.035,30.273,18.555,-740.723,27.832,31.250,0
1555612862.039,23.926,16.113,-755.859,20.508,-17.090,0
1555612862.043,20.996,17.090,-640.137,24.414,-13.672,0
1555612862.047,22.949,16.602,-774.902,23.926,-53.223,0
1555612862.051,23.438,10.742,-796.875,24.414,-61.035,0
1555612862.055,21.484,11.230,-624.512,38.574,45.898,0
1555612862.059,15.625,16.113,-628.906,37.109,95.703,0
1555612862.062,22.461,15.625,-716.309,32.715,49.316,0
1555612862.066,30.762,15.625,-888.672,35.156,7.324,0
1555612862.070,27.344,11.719,-876.465,23.926,-0.488,0
1555612862.074,21.973,10.742,-565.918,20.996,37.598,0
1555612862.078,19.043,15.625,-648.926,29.297,48.828,0
1555612862.079,21.973,17.090,-799.805,24.902,48.828,0
1555612862.083,29.297,14.160,-612.793,24.414,56.152,0
1555612862.087,25.879,16.602,-534.180,24.902,-9.277,0
1555612862.091,25.391,19.531,-811.035,30.762,-55.664,0
1555612862.095,33.691,18.066,-968.750,34.180,-36.133,0
1555612862.099,27.832,17.578,-867.188,23.438,-11.230,0
1555612862.103,21.973,17.090,-656.738,20.508,56.641,0
1555612862.106,25.391,16.113,-663.574,26.367,93.750,0
1555612862.110,27.344,18.066,-977.051,25.879,19.531,0
1555612862.114,21.484,14.648,-840.820,23.438,33.203,0
1555612862.118,16.113,11.719,-539.062,23.438,41.992,0
1555612862.122,23.438,14.648,-654.785,24.902,9.277,0
1555612862.124,22.949,18.555,-854.980,25.391,23.438,0
1555612862.128,21.484,18.555,-786.133,25.879,35.645,0
1555612862.132,21.973,14.648,-617.676,20.996,28.809,0
1555612862.136,21.484,16.602,-645.508,14.160,19.043,0
1555612862.140,22.949,14.648,-835.938,21.973,3.418,0
1555612862.144,29.297,13.672,-968.262,30.762,-5.371,0
1555612862.148,25.879,15.137,-941.406,21.973,-7.324,0
1555612862.151,17.090,13.184,-908.691,15.625,-3.906,0
1555612862.155,17.578,17.090,-976.562,16.113,-11.719,0
1555612862.159,17.090,20.020,-964.844,23.926,-29.785,0
1555612862.163,20.508,16.113,-757.812,17.578,68.359,0
1555612862.167,21.973,12.695,-682.129,17.090,24.414,0
1555612862.169,24.414,14.160,-788.086,20.020,-46.875,0
1555612862.173,20.996,15.137,-837.402,14.648,22.461,0
1555612862.177,20.508,14.648,-873.535,18.066,4.395,0
1555612862.181,15.137,13.184,-730.469,8.789,59.082,0
1555612862.185,12.695,13.184,-663.086,9.277,68.848,0
1555612862.189,24.414,13.672,-912.109,27.344,-32.715,0
1555612862.193,20.996,10.254,-997.070,20.020,-12.207,0
1555612862.196,19.531,11.230,-946.777,11.719,42.969,0
1555612862.200,20.020,11.719,-839.355,18.066,30.762,0
1555612862.204,12.207,9.277,-883.301,16.602,-13.184,0
1555612862.208,16.113,10.742,-980.469,20.020,32.715,0
1555612862.212,18.066,11.230,-820.801,20.020,38.574,0
1555612862.214,14.160,8.789,-625.000,9.277,29.785,0
1555612862.218,14.160,11.719,-742.188,13.184,-7.324,0
1555612862.222,13.184,14.160,-944.824,22.949,3.906,0
1555612862.226,17.090,12.207,-890.137,10.742,16.602,0
1555612862.230,19.043,11.230,-659.180,5.371,20.508,0
1555612862.234,18.555,12.207,-766.113,14.160,56.641,0
1555612862.238,20.996,15.625,-973.633,14.648,51.270,0
1555612862.241,21.484,15.625,-953.125,13.184,-16.113,0
1555612862.245,21.484,12.695,-732.422,12.695,5.859,0
1555612862.249,15.625,12.695,-654.785,13.184,31.738,0
1555612862.253,20.020,11.719,-827.637,20.020,77.148,0
1555612862.257,26.367,11.719,-899.414,20.020,107.910,0
1555612862.259,22.949,13.672,-793.945,17.578,57.617,0
1555612862.263,20.508,17.090,-642.090,13.184,90.332,0
1555612862.267,19.531,17.090,-858.398,17.090,41.504,0
1555612862.271,24.902,16.602,-960.449,20.020,27.344,0
1555612862.275,29.785,16.113,-779.785,19.043,54.688,0
1555612862.279,29.785,12.695,-852.051,23.926,-28.320,0
1555612862.283,32.715,15.137,-967.773,18.066,-2.930,0
1555612862.286,36.621,19.043,-986.328,19.531,11.719,0
1555612862.290,37.109,18.066,-908.203,22.949,-26.855,0
1555612862.294,35.645,18.066,-802.246,19.531,-12.695,0
1555612862.298,38.086,17.090,-850.586,20.996,-14.160,0
1555612862.302,35.645,16.113,-927.734,23.926,-7.324,0
1555612862.319,39.551,18.066,-903.320,29.785,10.254,0
1555612862.323,38.574,16.602,-792.480,24.414,17.578,0
1555612862.327,37.598,16.113,-794.434,22.949,14.648,0
1555612862.331,37.598,19.531,-915.039,26.855,30.273,0
1555612862.335,31.250,17.578,-980.957,20.996,12.207,0
1555612862.339,28.809,13.672,-958.496,18.066,-7.812,0
1555612862.343,29.785,13.672,-959.961,15.137,-20.020,0
1555612862.346,29.297,18.066,-969.727,24.902,-32.715,0
1555612862.350,25.391,19.043,-963.867,31.250,6.836,0
1555612862.354,25.391,17.090,-987.793,25.879,20.996,0
1555612862.358,26.367,18.555,-870.117,17.578,17.090,0
1555612862.362,29.297,21.484,-767.090,8.301,28.320,0
1555612862.364,32.715,21.973,-917.969,26.367,36.133,0
1555612862.368,34.180,17.578,-891.602,29.785,93.750,0
1555612862.372,22.461,16.113,-708.496,14.160,56.152,0
1555612862.376,16.602,16.113,-662.109,12.695,75.195,0
1555612862.380,21.973,15.625,-851.562,14.648,24.414,0
1555612862.384,28.320,17.090,-977.051,19.043,6.836,0
1555612862.388,29.785,18.066,-859.375,23.438,114.258,0
1555612862.391,30.273,16.602,-812.500,25.879,37.109,0
1555612862.395,28.809,14.648,-902.344,19.531,-2.441,0
1555612862.399,28.809,18.066,-989.746,24.902,6.836,0
1555612862.403,27.344,17.578,-877.930,17.578,-13.184,0
1555612862.407,22.461,16.113,-641.602,16.602,37.109,0
1555612862.409,29.297,18.066,-742.188,26.855,95.215,0
1555612862.413,25.879,19.043,-944.824,29.297,56.641,0
1555612862.417,21.484,18.066,-803.223,28.320,49.316,0
1555612862.421,34.180,16.602,-655.762,26.855,30.273,0
1555612862.425,29.297,18.555,-800.781,27.832,19.043,0
1555612862.429,25.391,19.531,-965.820,31.738,35.645,0
1555612862.433,34.180,18.066,-990.234,36.621,-23.926,0
1555612862.436,33.203,16.602,-875.488,27.344,-25.391,0
1555612862.440,36.133,17.578,-847.168,27.344,34.180,0
1555612862.444,34.668,17.090,-990.723,26.855,12.695,0
1555612862.448,30.762,17.578,-937.500,23.438,-9.277,0
1555612862.452,32.715,17.090,-782.227,25.879,5.371,0
1555612862.454,33.691,18.555,-740.234,28.809,17.090,0
1555612862.458,30.273,22.461,-844.727,27.344,32.227,0
1555612862.462,29.297,21.484,-898.926,28.809,33.691,0
1555612862.466,34.668,22.949,-847.168,23.438,3.906,0
1555612862.470,32.227,22.461,-832.031,17.578,-30.273,0
1555612862.474,31.250,19.043,-915.039,26.855,-25.391,1
1555612862.478,32.715,21.973,-979.980,28.320,-19.531,0
1555612862.481,35.156,21.484,-948.730,28.320,11.719,0
1555612862.485,38.574,20.996,-955.078,27.344,13.672,0
1555612862.489,29.785,23.926,-917.969,23.438,-8.301,0
1555612862.493,28.320,22.949,-880.371,28.809,30.273,0
1555612862.497,37.598,21.973,-947.266,33.691,22.461,0
1555612862.499,33.203,17.578,-893.555,26.367,-9.277,0
1555612862.503,31.738,18.066,-751.465,24.414,4.395,0
1555612862.507,29.785,23.926,-849.121,33.691,6.836,0
1555612862.511,28.809,23.926,-963.867,23.926,21.973,0
1555612862.515,34.668,22.461,-831.055,17.090,42.480,0
1555612862.519,29.297,21.973,-741.211,23.438,57.129,0
1555612862.523,24.902,22.461,-891.602,24.414,88.379,0
1555612862.526,30.762,24.414,-993.652,25.879,62.012,0
1555612862.530,32.715,23.926,-906.738,21.484,31.250,0
1555612862.534,28.320,21.973,-694.824,9.766,45.898,0
1555612862.538,31.250,23.926,-708.008,18.066,45.898,0
1555612862.542,28.320,26.367,-933.594,24.414,36.621,0
1555612862.544,27.832,23.438,-854.492,23.926,70.312,0
1555612862.548,30.273,21.484,-654.297,26.367,31.250,0
1555612862.552,27.344,23.926,-743.164,31.738,24.902,0
1555612862.556,28.320,26.367,-954.102,33.203,56.641,0
1555612862.560,34.668,25.391,-921.875,33.691,29.785,0
1555612862.564,37.598,24.414,-801.758,33.691,24.414,0
1555612862.568,35.645,23.926,-873.047,36.621,5.371,0
1555612862.571,35.645,26.367,-976.074,39.062,-23.438,0
1555612862.575,40.527,28.809,-959.473,32.227,-8.301,0
1555612862.579,32.715,24.414,-774.902,33.691,23.438,0
1555612862.583,28.809,20.508,-742.676,34.180,-11.719,0
1555612862.587,28.320,21.973,-895.020,24.414,-3.418,0
1555612862.589,23.438,25.391,-918.457,18.066,37.109,0
1555612862.593,25.391,23.926,-802.734,20.508,40.039,0
1555612862.597,27.344,23.926,-711.426,28.809,59.082,0
1555612862.601,26.855,26.855,-816.895,32.227,41.992,0
1555612862.605,27.344,26.367,-952.637,31.250,0.000,0
1555612862.609,33.691,27.344,-971.191,36.133,42.969,0
1555612862.613,39.062,27.832,-968.262,33.691,48.828,0
1555612862.616,35.645,26.855,-971.680,31.250,23.926,0
1555612862.620,30.273,26.855,-965.820,32.227,11.230,0
1555612862.624,33.203,25.391,-961.914,37.598,0.488,0
1555612862.628,39.551,25.391,-905.273,34.180,-9.277,0
1555612862.632,39.551,29.297,-768.555,27.832,36.621,0
1555612862.634,40.527,31.738,-834.961,38.574,51.758,0
1555612862.638,45.898,31.738,-969.727,35.156,36.133,0
1555612862.642,48.340,30.762,-946.777,29.785,0.000,0
1555612862.646,41.992,30.273,-871.094,28.809,-62.988,0
1555612862.650,39.551,31.250,-904.297,29.785,-24.414,0
1555612862.654,42.969,34.180,-975.586,37.109,16.602,0
1555612862.658,39.062,33.691,-984.375,32.715,26.855,0
1555612862.661,32.227,31.250,-855.469,31.738,37.109,0
1555612862.665,23.438,30.762,-830.566,36.133,52.734,0
1555612862.669,30.273,33.691,-981.445,28.809,52.246,0
1555612862.673,34.668,34.180,-965.332,17.090,-1.465,0
1555612862.677,24.902,29.297,-783.691,9.766,34.668,0
1555612862.695,30.762,28.809,-727.539,15.625,58.594,0
1555612862.699,31.250,30.762,-903.320,24.414,21.973,0
1555612862.703,21.484,29.297,-997.559,13.672,-13.184,0
1555612862.707,23.926,29.785,-887.695,4.883,-9.277,0
1555612862.711,24.902,28.320,-743.652,10.742,60.547,0
1555612862.715,28.809,28.320,-874.512,16.113,49.316,0
1555612862.719,25.879,31.250,-1000.000,13.184,-39.551,0
1555612862.722,25.879,31.738,-884.277,14.160,-3.906,0
1555612862.726,36.133,34.180,-734.375,16.602,35.645,0
1555612862.730,32.227,35.156,-876.953,13.672,-18.555,0
1555612862.734,37.598,32.715,-989.258,15.137,-17.090,0
1555612862.738,38.086,32.227,-967.285,12.207,19.531,0
1555612862.740,26.367,37.598,-889.648,15.625,17.090,0
1555612862.744,38.086,39.062,-895.996,20.996,-0.488,0
1555612862.748,42.480,37.109,-976.074,18.066,34.668,0
1555612862.752,33.691,37.109,-889.160,13.672,77.637,0
1555612862.756,35.645,37.598,-776.855,10.254,50.781,0
1555612862.760,41.504,38.574,-874.512,15.625,50.293,0
1555612862.764,40.527,37.109,-981.445,17.578,10.742,0
1555612862.767,29.785,36.133,-958.496,9.766,-19.043,0
1555612862.771,30.762,36.133,-894.531,7.324,37.598,0
1555612862.775,34.180,35.156,-948.242,6.836,25.879,0
1555612862.779,31.738,37.109,-980.469,7.324,37.598,0
1555612862.783,37.598,41.992,-935.547,18.066,66.895,0
1555612862.785,41.016,43.945,-912.598,13.184,33.203,0
1555612862.789,35.645,40.527,-834.473,4.395,-8.789,0
1555612862.793,38.574,36.621,-868.652,4.883,3.418,0
1555612862.797,42.969,39.551,-980.957,9.277,30.273,0
1555612862.801,34.180,39.551,-971.680,15.625,8.789,0
1555612862.805,32.715,36.133,-965.820,14.160,-23.926,0
1555612862.809,36.621,36.133,-962.402,10.254,14.160,0
1555612862.812,35.645,37.598,-968.750,16.113,12.695,0
1555612862.816,41.016,36.621,-976.074,15.625,-6.836,0
1555612862.820,39.062,35.645,-947.754,10.254,-54.688,0
1555612862.824,31.738,35.645,-844.238,19.043,-66.406,0
1555612862.828,36.621,39.062,-841.797,21.973,54.199,0
1555612862.830,38.574,38.086,-971.680,22.949,64.941,0
1555612862.834,38.086,36.133,-876.953,22.949,8.789,0
1555612862.838,36.621,37.109,-722.656,18.066,13.672,0
1555612862.842,36.621,37.109,-867.188,21.973,-23.926,0
1555612862.846,39.062,37.109,-986.328,23.926,-59.082,0
1555612862.850,41.016,35.645,-967.285,22.949,-42.480,0
1555612862.854,30.762,32.715,-968.750,20.508,-1.465,0
1555612862.857,30.273,32.715,-959.961,22.949,-5.859,0
1555612862.861,35.156,35.156,-981.934,23.438,-18.066,0
1555612862.865,26.367,33.203,-932.129,21.484,40.039,0
1555612862.869,27.832,29.785,-709.473,21.973,61.035,0
1555612862.873,30.273,28.320,-750.977,20.508,57.617,0
1555612862.875,34.180,29.785,-972.656,25.879,1.953,0
1555612862.879,36.133,30.273,-959.961,28.809,3.906,0
1555612862.883,36.133,28.809,-797.363,24.414,28.809,0
1555612862.887,37.109,27.832,-761.230,22.949,45.410,0
1555612862.891,32.715,31.250,-879.883,22.461,76.660,0
1555612862.895,38.086,33.203,-987.305,24.414,8.789,0
1555612862.899,35.156,30.273,-891.602,35.156,29.297,0
1555612862.902,36.621,32.227,-832.031,38.086,80.078,0
1555612862.906,39.551,36.621,-972.168,30.273,17.090,0
1555612862.910,38.086,36.621,-982.910,27.344,-8.789,0
1555612862.914,42.480,36.621,-925.293,32.227,-24.902,0
1555612862.918,40.039,36.621,-796.387,28.320,11.230,0
1555612862.920,35.645,34.180,-768.066,29.785,38.086,0
1555612862.924,37.109,36.621,-864.746,39.062,51.758,0
1555612862.928,39.062,39.551,-884.766,39.062,61.035,0
1555612862.932,34.180,35.156,-792.480,31.738,37.109,0
1555612862.936,29.785,34.180,-745.117,25.879,22.949,0
1555612862.940,35.156,37.109,-895.996,30.273,41.992,0
1555612862.944,40.527,39.551,-984.863,32.227,60.059,0
1555612862.947,40.039,38.086,-969.238,26.367,50.293,0
1555612862.951,40.527,37.109,-838.379,24.414,27.344,0
1555612862.955,39.062,38.086,-804.688,32.227,21.973,0
1555612862.959,41.992,39.551,-937.500,37.109,56.641,0
1555612862.963,47.363,40.039,-907.715,38.574,55.664,0
1555612862.980,30.273,38.086,-774.902,32.715,29.297,0
1555612862.984,24.902,37.598,-805.664,32.227,-4.883,0
1555612862.988,33.691,38.086,-970.215,34.180,-20.020,0
1555612862.992,35.645,38.086,-918.457,27.832,12.207,0
1555612862.996,35.156,35.156,-726.074,24.902,6.836,0
1555612863.000,32.227,36.133,-831.055,25.391,17.578,0
1555612863.004,30.273,39.062,-986.816,25.391,5.371,0
1555612863.007,32.715,37.109,-971.191,20.996,-43.945,0
1555612863.011,28.809,33.691,-811.035,18.555,-32.227,0
1555612863.015,25.879,33.691,-669.922,21.484,31.738,0
1555612863.019,24.414,36.133,-868.652,24.902,45.410,0
1555612863.023,23.438,34.668,-972.656,30.762,24.902,0
1555612863.010,23.438,37.109,-755.859,21.973,28.320,0
1555612863.014,24.414,38.086,-645.996,20.020,64.941,0
1555612863.018,27.832,36.133,-876.953,23.926,-2.930,0
1555612863.022,30.273,36.621,-993.164,17.090,-8.301,0
1555612863.026,33.691,33.691,-828.125,22.461,39.062,0
1555612863.030,28.809,29.785,-824.707,23.926,-4.395,0
1555612863.034,24.414,34.180,-900.879,17.090,75.195,0
1555612863.037,30.762,40.039,-937.988,16.113,59.570,0
1555612863.041,36.621,41.992,-883.301,13.672,-15.625,0
1555612863.045,33.691,39.062,-812.988,16.113,-16.602,0
1555612863.049,34.668,38.086,-964.355,20.996,-38.086,0
1555612863.053,35.156,41.992,-962.891,19.043,43.945,0
1555612863.070,26.855,36.621,-884.277,19.531,48.828,0
1555612863.074,21.484,32.227,-809.082,22.461,3.418,0
1555612863.078,25.879,35.156,-730.957,15.137,42.969,0
1555612863.082,24.414,36.621,-817.871,17.090,34.180,0
1555612863.086,21.973,36.133,-912.598,23.926,21.973,0
1555612863.090,28.320,36.133,-934.082,20.020,-5.859,0
1555612863.094,27.344,35.156,-900.879,27.344,35.156,0
1555612863.097,19.531,33.203,-902.832,36.133,61.523,0
1555612863.101,23.438,34.180,-927.246,37.109,30.762,0
1555612863.105,30.762,32.715,-966.797,31.738,26.855,0
1555612863.109,28.809,28.809,-890.137,25.879,36.133,0
1555612863.113,25.391,32.227,-772.461,28.320,17.578,0
1555612863.115,29.785,35.645,-904.297,30.273,24.414,0
1555612863.119,35.645,34.668,-965.820,31.738,13.184,0
1555612863.123,31.250,33.691,-781.738,30.273,13.184,0
1555612863.127,25.879,34.668,-705.078,32.227,38.574,0
1555612863.131,27.832,35.645,-862.793,28.320,36.133,0
1555612863.135,40.039,31.738,-990.723,25.879,29.297,0
1555612863.139,38.574,28.809,-912.109,20.996,48.340,0
1555612863.142,25.391,30.762,-713.379,21.484,72.266,0
1555612863.146,29.297,33.691,-818.848,30.273,80.078,0
1555612863.150,36.621,29.785,-1000.000,30.273,77.148,0
1555612863.154,36.621,27.832,-883.789,35.645,27.832,0
1555612863.158,32.227,32.227,-684.082,32.715,19.531,0
1555612863.160,34.668,31.250,-781.250,20.508,85.938,0
1555612863.164,37.109,30.762,-980.469,28.809,58.105,0
1555612863.168,32.715,30.762,-936.523,29.785,-22.949,0
1555612863.172,32.227,28.809,-770.020,21.484,-33.203,0
1555612863.176,32.227,28.320,-813.965,21.484,38.574,0
1555612863.180,30.273,32.715,-971.191,20.996,41.504,0
1555612863.184,35.645,32.715,-990.234,19.531,-27.832,0
1555612863.187,33.203,27.344,-884.277,19.043,-23.926,0
1555612863.191,28.320,28.320,-854.004,23.438,34.668,0
1555612863.195,29.785,30.762,-991.699,21.484,31.250,0
1555612863.199,28.809,28.809,-923.340,20.020,30.273,0
1555612863.203,33.203,28.320,-831.543,25.391,57.617,0
1555612863.204,36.621,32.227,-836.914,27.344,7.324,0
1555612863.208,36.133,34.180,-867.676,32.227,11.230,0
1555612863.212,37.109,32.715,-924.316,29.297,26.367,0
1555612863.216,35.645,30.273,-842.285,24.902,44.922,0
1555612863.220,34.180,31.738,-794.434,19.043,24.902,0
1555612863.224,37.598,35.645,-920.410,23.926,-49.805,0
1555612863.228,41.992,36.621,-980.957,37.109,15.137,0
1555612863.231,40.527,33.691,-952.637,26.855,47.363,0
1555612863.235,42.480,32.227,-964.844,14.160,4.395,0
1555612863.239,35.156,30.273,-913.086,9.766,-7.812,0
1555612863.243,33.203,28.809,-925.781,15.625,-8.301,0
1555612863.247,51.758,29.785,-984.863,27.344,19.043,0
1555612863.249,40.039,27.344,-849.609,23.438,12.207,0
1555612863.253,23.438,26.855,-694.824,16.113,53.223,0
1555612863.257,28.809,31.250,-854.980,21.973,11.719,0
1555612863.261,30.273,29.785,-1000.000,29.297,-27.344,0
1555612863.265,31.738,26.367,-882.812,24.902,5.859,0
1555612863.269,30.762,27.832,-801.758,22.949,26.367,0
1555612863.273,32.227,35.156,-907.715,20.020,41.016,0
1555612863.276,42.480,37.598,-988.281,16.602,10.254,0
1555612863.280,44.922,32.715,-942.383,16.602,20.508,0
1555612863.284,35.156,30.762,-740.723,20.020,28.320,0
1555612863.288,34.180,31.738,-740.234,31.250,24.902,0
1555612863.292,34.668,29.297,-956.543,30.273,38.086,0
1555612863.294,34.668,25.879,-931.641,29.297,37.598,0
1555612863.298,37.109,23.438,-722.168,33.691,12.695,0
1555612863.302,34.180,26.855,-711.914,33.203,61.523,0
1555612863.306,35.156,29.297,-939.941,36.621,30.273,0
1555612863.310,37.109,28.809,-967.285,33.203,14.648,0
1555612863.314,37.109,29.785,-849.609,26.855,53.711,0
1555612863.318,34.180,24.902,-892.578,24.902,29.785,0
1555612863.321,30.273,23.438,-972.656,23.926,-16.602,0
1555612863.325,28.320,25.391,-985.840,23.438,-37.598,0
1555612863.329,27.344,23.438,-879.883,18.066,-29.785,0
1555612863.333,27.832,24.902,-798.340,15.137,-24.902,0
1555612863.337,28.320,28.809,-864.258,20.020,42.480,0
1555612863.339,27.832,30.273,-909.668,25.879,57.617,0
1555612863.343,30.273,28.809,-826.172,20.996,36.133,0
1555612863.347,32.227,27.344,-757.324,12.207,28.320,0
1555612863.351,30.762,28.320,-828.125,13.184,37.109,0
1555612863.355,29.785,29.297,-908.203,12.207,37.109,0
1555612863.359,32.227,27.344,-970.703,18.555,19.043,0
1555612863.363,34.180,20.508,-951.660,14.160,91.309,0
1555612863.366,27.832,19.043,-965.332,13.184,55.664,0
1555612863.370,23.926,21.484,-979.492,25.391,-22.461,0
1555612863.374,28.320,21.484,-931.641,22.949,31.738,0
1555612863.378,33.691,22.461,-810.059,22.949,43.945,0
1555612863.382,33.691,23.438,-753.906,24.414,35.156,0
1555612863.384,31.738,24.902,-827.148,20.020,70.801,0
1555612863.388,30.762,24.902,-900.391,29.297,80.078,0
1555612863.392,34.180,23.438,-876.953,35.645,36.621,0
1555612863.396,33.691,26.367,-766.602,28.809,-29.297,0
1555612863.400,30.762,25.391,-801.270,19.043,8.301,0
1555612863.404,33.203,22.461,-938.965,23.438,65.430,0
1555612863.408,35.645,23.926,-993.164,24.902,-8.789,0
1555612863.411,32.715,24.902,-810.547,17.090,18.066,0
1555612863.415,28.809,26.855,-722.656,25.879,37.109,0
1555612863.419,29.297,27.344,-920.410,36.621,-26.367,0
1555612863.423,35.645,24.414,-937.988,31.738,-0.977,0
1555612863.427,36.621,23.926,-778.809,25.391,57.617,0
1555612863.444,30.762,27.344,-670.410,24.414,87.402,0
1555612863.448,32.715,29.297,-832.031,27.832,52.734,0
1555612863.452,35.645,27.832,-990.723,23.926,0.488,0
1555612863.456,35.156,25.391,-806.152,21.484,10.254,0
1555612863.460,39.062,25.879,-684.570,25.879,22.461,0
1555612863.464,40.527,28.320,-878.418,27.344,18.555,0
1555612863.468,45.898,29.297,-1000.000,32.227,35.645,0
1555612863.471,48.340,29.297,-863.770,30.762,15.137,0
1555612863.475,40.039,28.809,-658.203,33.691,51.758,0
1555612863.479,38.574,29.297,-811.035,38.086,25.879,0
1555612863.483,41.992,29.297,-1000.000,38.086,-7.324,0
1555612863.487,46.875,27.832,-894.043,33.691,24.902,0
1555612863.489,46.875,29.785,-691.895,30.762,57.617,0
1555612863.493,39.551,32.227,-776.367,27.344,53.223,0
1555612863.497,39.062,34.668,-974.609,26.855,-11.230,0
1555612863.501,41.016,36.621,-908.691,21.484,12.695,0
1555612863.505,35.645,31.738,-755.371,20.508,54.688,0
1555612863.509,34.180,28.809,-854.492,31.250,21.484,0
1555612863.513,35.156,29.297,-985.352,25.879,9.277,0
1555612863.516,25.879,28.809,-950.684,20.996,6.348,0
1555612863.520,26.855,28.809,-872.070,24.902,29.297,0
1555612863.524,31.250,27.832,-941.406,19.043,11.719,0
1555612863.528,31.738,28.809,-975.586,14.160,-19.531,0
1555612863.532,33.203,32.227,-966.797,9.277,-24.902,0
1555612863.534,39.062,32.715,-937.500,5.859,15.137,0
1555612863.538,47.852,31.738,-764.160,11.719,34.180,0
1555612863.542,45.410,31.738,-768.555,15.137,-0.977,0
1555612863.546,47.363,32.227,-953.613,11.230,-35.645,0
1555612863.550,46.875,34.668,-945.801,10.742,8.301,0
1555612863.554,44.922,31.250,-859.863,11.230,27.344,0
1555612863.558,40.527,27.344,-901.367,13.184,-2.930,0
1555612863.561,37.109,31.250,-967.285,17.090,-18.555,0
1555612863.565,40.039,30.762,-992.188,16.113,-1.465,0
1555612863.569,41.992,27.832,-878.418,15.625,41.504,0
1555612863.573,37.598,26.367,-698.730,21.484,36.621,0
1555612863.577,35.645,30.762,-790.039,21.973,35.645,0
1555612863.579,36.621,34.668,-955.566,15.625,42.480,0
1555612863.583,34.668,31.250,-784.180,13.672,77.637,0
1555612863.587,34.180,27.344,-582.520,12.207,95.215,0
1555612863.591,35.645,28.809,-781.738,18.066,23.926,0
1555612863.595,32.715,29.297,-977.539,16.113,-12.695,2
1555612863.599,31.738,26.367,-962.402,8.301,16.113,0
1555612863.603,31.250,26.367,-842.285,10.254,36.621,0
1555612863.606,29.785,29.297,-834.473,8.789,22.461,0
1555612863.610,30.762,30.762,-974.609,6.836,11.719,0
1555612863.614,36.133,30.273,-930.176,10.742,-3.418,0
1555612863.618,35.645,27.832,-691.895,15.137,27.832,0
1555612863.622,28.809,27.344,-701.172,18.555,49.316,0
1555612863.624,34.180,30.273,-931.641,25.879,19.043,0
1555612863.628,33.203,29.785,-976.074,16.113,-36.621,0
1555612863.632,33.203,27.344,-809.570,7.324,-30.762,0
1555612863.636,35.156,28.809,-702.148,9.766,53.223,0
1555612863.640,29.297,27.832,-849.609,5.859,42.969,0
1555612863.644,30.273,28.809,-986.816,8.789,55.176,0
1555612863.648,36.621,30.273,-883.789,13.184,80.566,0
1555612863.651,37.598,29.785,-836.914,5.859,9.766,0
1555612863.655,31.738,27.344,-977.051,4.395,-50.781,0
1555612863.659,24.902,26.855,-979.004,14.160,-35.645,0
1555612863.663,30.762,26.367,-917.480,20.508,-27.344,0
1555612863.667,36.133,23.926,-841.309,9.277,-48.340,0
1555612863.669,36.621,24.902,-772.461,8.301,23.926,0
1555612863.673,36.621,26.855,-820.312,14.160,64.941,0
1555612863.677,37.598,28.809,-873.047,20.020,51.758,0
1555612863.681,41.504,26.367,-712.891,22.949,104.004,0
1555612863.685,40.527,21.973,-682.129,27.832,50.781,0
1555612863.689,37.598,26.367,-908.691,32.227,-5.859,0
1555612863.693,41.992,28.809,-979.492,28.809,-34.180,0
1555612863.696,41.992,26.367,-975.586,25.879,-30.762,0
1555612863.700,37.598,24.902,-901.367,22.461,2.441,0
1555612863.704,37.598,23.438,-812.012,28.320,0.000,0
1555612863.708,39.062,23.926,-936.035,29.297,21.973,0
1555612863.712,41.992,22.461,-871.582,26.855,27.832,0
1555612863.714,39.062,17.090,-659.668,21.484,13.672,0
1555612863.718,37.598,18.066,-753.906,25.391,-12.695,0
1555612863.722,43.457,20.996,-956.055,29.297,-29.297,0
1555612863.726,45.410,19.531,-928.711,27.344,-36.621,0
1555612863.730,41.504,14.648,-700.195,28.809,27.344,0
1555612863.734,39.551,12.695,-776.855,32.715,26.855,0
1555612863.738,47.852,16.113,-973.145,28.320,54.199,0
1555612863.741,51.758,17.578,-978.027,17.578,35.156,0
1555612863.745,33.203,14.160,-788.086,24.414,3.906,0
1555612863.749,31.250,15.137,-643.066,31.738,43.457,0
1555612863.753,38.574,13.184,-818.848,37.109,76.660,0
1555612863.757,37.598,8.301,-899.902,31.738,85.938,0
1555612863.759,37.598,8.789,-742.676,24.414,44.434,0
1555612863.763,39.062,10.742,-693.848,33.203,-2.441,0
1555612863.767,40.527,10.742,-902.832,33.203,-39.551,0
1555612863.771,44.922,13.184,-979.004,30.762,9.277,0
1555612863.775,41.504,12.207,-798.828,36.133,55.176,0
1555612863.779,37.109,9.766,-773.438,37.598,44.922,0
1555612863.783,39.062,10.742,-944.336,32.227,12.695,0
1555612863.786,31.738,11.230,-993.652,31.250,0.488,0
1555612863.790,28.809,11.719,-862.793,31.250,50.781,0
1555612863.794,32.715,8.301,-713.379,19.531,79.590,0
1555612863.798,29.297,6.836,-725.586,17.578,73.242,0
1555612863.802,23.926,9.277,-858.887,26.367,61.035,0
1555612863.820,30.273,8.789,-973.633,25.879,-8.301,0
1555612863.824,34.668,8.789,-891.113,18.555,-51.270,0
1555612863.828,23.438,6.348,-772.461,20.508,9.277,0
1555612863.832,18.066,8.301,-832.031,27.344,17.578,0
1555612863.836,32.227,12.695,-925.293,32.715,-5.859,0
1555612863.840,41.504,12.695,-953.613,30.273,15.625,0
1555612863.844,24.414,10.254,-914.551,19.531,27.832,0
1555612863.847,21.484,8.301,-824.707,19.043,23.438,0
1555612863.851,30.762,8.789,-922.852,27.832,73.242,0
1555612863.855,35.156,9.766,-967.285,30.273,15.625,0
1555612863.859,35.645,10.254,-769.531,24.902,-14.648,0
1555612863.863,30.762,11.719,-702.637,23.926,19.043,0
1555612863.865,32.715,15.137,-873.047,27.344,30.273,0
1555612863.869,30.762,15.625,-925.293,29.297,34.180,0
1555612863.873,27.344,13.672,-712.891,27.344,54.688,0
1555612863.877,34.180,16.113,-651.367,36.621,39.062,0
1555612863.881,40.527,19.531,-868.652,39.551,-13.184,0
1555612863.885,41.504,20.020,-984.375,31.738,-9.766,0
1555612863.889,38.574,17.090,-948.242,25.391,-12.695,0
1555612863.892,44.434,13.184,-774.902,24.414,9.277,0
1555612863.896,44.434,13.672,-828.125,37.598,10.254,0
1555612863.900,36.133,14.648,-992.188,35.645,14.648,0
1555612863.904,35.156,13.184,-833.984,25.391,50.293,0
1555612863.908,32.715,13.184,-722.168,33.691,8.789,0
1555612863.909,29.785,14.160,-842.773,41.016,22.461,0
1555612863.913,35.156,17.090,-987.793,27.832,14.160,0
1555612863.917,38.086,17.090,-887.695,26.855,3.906,0
1555612863.921,35.645,16.113,-660.156,38.086,37.598,0
1555612863.925,35.645,16.602,-744.629,38.086,30.273,0
1555612863.929,41.992,18.555,-960.938,41.992,34.180,0
1555612863.933,40.039,21.484,-983.887,40.527,41.504,0
1555612863.936,38.086,20.020,-759.277,34.180,61.035,0
1555612863.940,38.574,17.578,-779.785,33.203,32.715,0
1555612863.944,33.691,20.020,-1000.000,36.133,-20.508,0
1555612863.948,40.039,20.020,-942.383,44.922,3.906,0
1555612863.952,46.387,15.625,-773.438,40.039,42.969,0
1555612863.954,44.922,17.090,-738.281,37.109,-3.418,0
1555612863.958,42.480,20.508,-863.281,41.504,5.371,0
1555612863.962,42.969,23.438,-968.262,40.527,42.480,0
1555612863.966,47.852,21.973,-914.551,42.480,-0.488,0
1555612863.970,43.945,18.555,-771.484,41.016,10.742,0
1555612863.974,39.062,17.578,-849.609,37.109,16.113,0
1555612863.978,37.109,17.578,-993.164,39.551,20.508,0
1555612863.981,30.762,18.066,-898.926,41.992,85.938,0
1555612863.985,31.250,16.113,-896.973,31.738,102.051,0
1555612863.989,44.922,16.602,-860.840,28.320,52.734,0
1555612863.993,44.922,17.578,-812.500,35.645,52.734,0
1555612863.997,30.762,16.113,-892.090,31.738,78.613,0
1555612863.999,36.133,15.137,-828.125,35.156,0.977,0
1555612864.003,33.203,16.113,-706.055,29.297,-16.602,0
1555612864.007,29.297,18.066,-852.051,23.438,-25.391,0
1555612864.011,35.645,19.531,-1000.000,31.738,-47.852,0
1555612864.015,36.621,22.949,-855.469,35.645,3.418,0
1555612864.019,30.762,25.391,-827.148,28.809,-11.230,0
1555612864.023,26.367,20.996,-959.473,25.391,-16.602,0
1555612864.026,30.273,20.996,-980.957,32.227,33.203,0
1555612864.030,32.715,24.902,-937.012,22.949,46.387,0
1555612864.034,32.227,23.438,-741.211,24.414,26.855,0
1555612864.038,29.297,23.438,-740.234,33.691,15.137,0
1555612864.042,30.762,24.902,-946.289,34.668,19.531,0
1555612864.044,36.621,27.344,-941.895,32.227,17.578,0
1555612864.048,38.574,25.391,-742.676,28.320,8.789,0
1555612864.052,41.504,22.461,-718.750,31.738,46.387,0
1555612864.056,36.621,22.461,-920.410,28.809,49.805,0
1555612864.060,35.645,19.531,-998.535,26.855,-2.930,0
1555612864.064,43.945,20.508,-879.883,25.391,39.062,0
1555612864.068,40.039,21.484,-833.008,22.461,84.961,0
1555612864.071,43.457,21.973,-956.543,31.738,43.457,0
1555612864.075,45.410,22.461,-997.070,35.645,-11.230,0
1555612864.079,38.574,20.020,-876.953,33.203,-34.180,0
1555612864.083,39.062,19.531,-725.098,36.133,45.898,0
1555612864.087,39.551,21.973,-816.406,40.527,67.383,0
1555612864.090,37.109,22.461,-908.691,43.945,59.570,0
1555612864.094,41.504,18.555,-791.504,40.039,90.820,0
1555612864.098,42.969,15.137,-714.844,37.109,67.871,0
1555612864.102,39.551,14.648,-817.383,36.133,25.391,0
1555612864.106,42.969,17.090,-921.387,41.992,14.160,0
1555612864.110,50.781,17.090,-969.727,45.898,-9.277,0
1555612864.114,47.852,16.113,-975.098,36.133,-54.688,0
1555612864.117,42.969,15.137,-945.312,29.785,-43.457,0
1555612864.121,50.781,12.207,-918.457,33.691,27.344,0
1555612864.125,49.805,12.695,-875.000,34.668,69.824,0
1555612864.129,43.457,11.230,-752.441,33.691,100.098,0
1555612864.133,47.852,10.742,-792.969,37.598,32.227,0
1555612864.134,41.992,13.184,-880.859,42.480,2.441,0
1555612864.138,36.133,13.184,-918.457,40.039,41.504,0
1555612864.142,37.598,12.695,-869.629,35.156,48.340,0
1555612864.146,41.016,14.648,-678.711,34.668,58.594,0
1555612864.150,38.086,14.648,-738.281,37.598,36.621,0
1555612864.154,37.598,11.230,-939.941,43.457,16.602,0
1555612864.158,41.504,13.184,-996.582,41.016,1.953,0
1555612864.161,36.621,15.625,-823.730,32.715,16.113,0
1555612864.165,34.180,12.207,-670.410,27.344,62.988,0
1555612864.169,39.551,13.672,-867.188,31.250,9.277,0
1555612864.173,34.668,17.090,-979.004,35.645,-50.293,0
1555612864.177,29.297,15.625,-770.508,28.809,0.977,0
1555612864.194,34.180,15.625,-638.672,27.344,45.410,0
1555612864.198,38.086,18.555,-825.684,36.133,47.852,0
1555612864.202,41.016,18.555,-1000.000,34.180,-7.324,0
1555612864.206,39.062,16.113,-845.703,28.809,-19.043,0
1555612864.210,33.203,17.090,-684.082,30.273,5.371,0
1555612864.214,34.668,19.531,-849.121,35.156,14.648,0
1555612864.218,36.621,23.438,-1000.000,40.527,19.531,0
1555612864.221,33.203,20.996,-834.473,41.992,52.734,0
1555612864.225,36.621,16.602,-583.496,42.969,97.656,0
1555612864.229,42.969,18.066,-783.691,42.969,18.555,0
1555612864.233,38.086,20.020,-996.582,37.109,6.348,0
1555612864.237,39.551,20.508,-900.391,46.387,61.523,0
1555612864.240,48.828,19.043,-729.980,45.410,50.293,0
1555612864.244,43.945,20.020,-738.281,35.156,41.016,0
1555612864.248,39.062,22.461,-870.605,41.504,53.223,0
1555612864.252,42.969,22.949,-860.840,41.992,42.969,0
1555612864.256,43.457,21.484,-750.488,27.832,26.855,0
1555612864.260,41.992,19.531,-754.395,28.320,78.125,0
1555612864.264,36.133,21.973,-916.992,39.062,21.973,0
1555612864.267,35.156,22.461,-974.121,36.133,-8.789,0
1555612864.271,36.621,18.555,-915.527,33.203,7.812,0
1555612864.275,33.691,15.137,-949.707,32.715,-9.766,0
1555612864.279,29.297,15.137,-918.945,36.621,28.809,0
1555612864.283,33.203,16.602,-860.840,41.504,44.434,0
1555612864.285,42.969,15.137,-886.719,38.574,-5.859,0
1555612864.289,39.551,14.648,-773.438,36.621,-24.902,0
1555612864.293,38.086,19.043,-686.523,28.809,41.016,0
1555612864.297,42.969,19.531,-833.984,31.738,40.527,0
1555612864.301,43.945,18.555,-880.859,38.086,44.434,0
1555612864.305,43.457,19.043,-794.434,36.621,66.406,0
1555612864.309,40.527,19.043,-810.547,44.922,26.855,0
1555612864.312,41.992,16.113,-911.621,45.898,15.137,0
1555612864.316,48.340,13.184,-991.211,39.062,17.090,0
1555612864.320,45.898,15.137,-901.855,30.762,-9.766,0
1555612864.324,40.039,17.090,-700.684,30.273,-11.230,0
1555612864.328,36.621,20.508,-777.344,38.086,8.301,0
1555612864.330,37.109,20.020,-906.738,46.875,67.383,0
1555612864.334,40.527,18.066,-834.961,44.922,-13.672,0
1555612864.338,39.062,17.578,-679.688,34.180,-41.992,0
1555612864.342,34.180,18.066,-747.070,34.668,12.695,0
1555612864.346,32.227,19.531,-943.848,43.945,38.574,0
1555612864.350,36.133,20.508,-935.547,40.039,47.852,0
1555612864.354,37.109,18.066,-832.031,24.902,-5.371,0
1555612864.357,37.109,17.090,-819.824,29.785,10.742,0
1555612864.361,38.574,22.461,-986.816,28.320,-19.531,0
1555612864.365,41.504,22.461,-898.926,20.508,6.836,0
1555612864.369,45.410,18.066,-672.363,22.949,80.078,0
1555612864.373,44.434,18.555,-810.059,20.020,-3.418,0
1555612864.375,41.992,21.484,-954.590,25.879,-23.926,0
1555612864.379,47.852,21.484,-898.926,30.762,1.465,0
1555612864.383,53.223,21.484,-763.184,28.809,-25.879,0
1555612864.387,53.711,22.461,-737.305,34.668,-29.297,0
1555612864.391,55.664,22.949,-851.562,36.133,-4.883,0
1555612864.395,61.523,24.414,-966.797,35.645,39.551,0
1555612864.399,60.059,21.484,-903.809,39.551,13.672,0
1555612864.402,55.664,18.555,-847.656,41.992,2.930,0
1555612864.406,49.316,20.508,-970.215,38.574,40.527,0
1555612864.410,43.457,19.531,-920.410,33.691,39.551,0
1555612864.414,43.945,19.531,-773.926,36.133,57.617,0
1555612864.418,44.922,21.973,-731.445,34.180,-7.812,0
1555612864.420,40.039,23.438,-709.961,26.855,0.977,0
1555612864.424,31.738,22.949,-803.711,23.926,85.938,0
1555612864.428,41.016,25.879,-947.266,29.785,56.641,0
1555612864.432,44.922,25.391,-749.023,25.879,72.754,0
1555612864.436,38.086,23.438,-607.910,27.344,74.707,0
1555612864.440,41.016,23.926,-839.355,34.180,18.066,0
1555612864.444,45.410,21.973,-988.281,31.250,-1.953,0
1555612864.447,49.805,20.508,-977.539,22.461,-9.766,0
1555612864.451,47.852,21.973,-825.195,27.832,-9.766,0
1555612864.455,40.527,22.461,-748.047,41.504,-4.883,0
1555612864.459,45.898,23.438,-957.031,43.945,-61.523,0
1555612864.463,46.875,20.996,-863.281,38.574,1.953,0
1555612864.465,41.504,16.113,-599.121,37.109,65.918,0
1555612864.469,45.410,18.555,-674.805,37.598,1.465,0
1555612864.473,44.434,20.020,-908.203,38.574,2.441,0
1555612864.477,44.434,17.578,-877.441,36.621,37.598,0
1555612864.481,45.410,20.020,-725.586,36.133,7.812,0
1555612864.485,44.434,20.508,-791.016,41.992,16.113,0
1555612864.489,45.898,19.531,-924.316,45.898,57.617,0
1555612864.492,50.293,21.973,-934.082,40.039,47.363,0
1555612864.496,52.246,20.508,-674.316,33.203,75.684,0
1555612864.500,45.410,19.043,-568.359,36.621,44.434,0
1555612864.504,46.387,24.414,-787.598,41.504,25.879,0
1555612864.508,48.828,24.902,-881.836,45.410,36.133,0
1555612864.510,50.781,22.461,-698.242,42.969,33.691,0
1555612864.514,54.199,21.484,-581.543,46.875,42.480,0
1555612864.518,51.758,20.996,-772.949,44.922,25.879,0
1555612864.522,49.316,21.973,-898.438,36.133,29.785,0
1555612864.526,53.711,23.438,-786.621,39.551,12.695,0
1555612864.530,50.781,23.926,-760.254,37.598,5.371,0
1555612864.534,53.711,22.949,-907.227,32.227,10.254,0
1555612864.537,60.547,24.902,-997.070,33.691,15.625,0
1555612864.541,50.293,23.926,-905.762,41.504,31.250,0
1555612864.545,44.922,23.438,-742.676,43.457,23.438,0
1555612864.549,47.852,24.414,-700.684,43.457,27.344,0
1555612864.553,47.852,24.902,-804.688,37.598,5.371,0
1555612864.570,50.781,22.949,-865.234,37.109,-18.066,0
1555612864.574,51.758,20.508,-741.211,43.457,23.926,0
1555612864.578,49.316,21.973,-666.504,46.875,24.414,0
1555612864.582,49.805,25.391,-750.000,47.852,1.953,0
1555612864.586,54.688,25.391,-811.035,46.875,53.223,0
1555612864.590,54.688,22.949,-845.215,43.457,41.504,0
1555612864.594,53.223,23.438,-797.852,42.969,13.184,0
1555612864.597,49.805,22.461,-745.117,39.551,18.555,0
1555612864.601,46.875,20.996,-803.711,36.621,40.527,0
1555612864.605,53.711,21.484,-899.902,39.062,41.992,0
1555612864.609,56.641,21.484,-934.082,35.645,-10.254,0
1555612864.613,48.828,20.508,-790.039,37.598,12.695,0
1555612864.615,51.270,20.020,-792.480,42.480,71.777,0
1555612864.619,60.059,19.531,-862.305,41.992,49.805,2
1555612864.623,48.828,17.578,-673.828,42.969,36.133,0
1555612864.627,43.945,18.066,-579.590,44.922,37.598,0
1555612864.631,45.410,18.555,-805.664,45.410,46.875,0
1555612864.635,42.480,16.602,-982.910,48.340,27.832,0
1555612864.639,45.898,16.113,-929.688,43.945,-41.992,0
1555612864.642,43.457,17.578,-689.453,35.156,-9.766,0
1555612864.646,46.875,20.508,-758.789,40.039,12.695,0
1555612864.650,52.246,20.020,-1000.000,46.875,37.598,0
1555612864.654,55.176,19.043,-837.402,45.898,36.133,0
1555612864.658,52.246,20.996,-623.535,43.945,16.602,0
1555612864.659,52.734,20.508,-732.422,49.316,41.992,0
1555612864.663,55.664,17.578,-933.594,56.152,28.320,0
1555612864.667,54.199,15.137,-936.523,55.176,-37.109,0
1555612864.671,53.711,18.555,-681.152,50.293,-29.297,0
1555612864.675,55.664,22.461,-689.941,53.711,-13.672,0
1555612864.679,60.059,23.438,-942.871,59.570,-19.043,0
1555612864.683,62.988,24.902,-986.328,50.293,18.066,0
1555612864.686,57.129,24.414,-760.742,39.062,29.785,0
1555612864.690,55.176,21.484,-748.047,41.504,9.766,0
1555612864.694,53.711,23.926,-985.352,51.758,-0.488,0
1555612864.698,51.270,27.344,-906.738,54.688,-14.648,0
1555612864.702,56.641,23.926,-689.941,53.223,-0.977,0
1555612864.704,50.781,23.438,-642.578,55.176,-19.043,0
1555612864.708,50.781,24.414,-715.820,54.199,0.000,0
1555612864.712,51.270,25.391,-729.492,55.176,81.543,0
1555612864.716,50.781,24.414,-627.441,51.758,121.094,0
1555612864.720,53.711,21.484,-613.770,53.223,78.613,0
1555612864.724,52.734,23.438,-793.457,55.664,3.906,0
1555612864.728,51.758,25.879,-926.270,54.199,31.738,0
1555612864.731,58.105,23.438,-912.109,58.105,46.387,0
1555612864.735,62.500,24.414,-920.410,53.711,15.137,0
1555612864.739,56.641,26.367,-757.812,56.152,55.176,0
1555612864.743,57.617,26.855,-675.293,67.383,64.941,0
1555612864.747,61.523,26.367,-835.938,68.359,9.277,0
1555612864.749,62.012,25.879,-684.570,65.430,31.738,0
1555612864.753,59.082,26.367,-532.715,66.406,21.484,0
1555612864.757,62.988,25.879,-671.387,67.871,16.602,0
1555612864.761,67.383,26.367,-825.195,65.430,46.387,0
1555612864.765,62.500,23.926,-680.176,61.523,75.684,0
1555612864.769,63.965,22.949,-576.660,65.430,89.844,0
1555612864.773,67.871,26.855,-743.164,68.359,30.273,0
1555612864.776,67.871,27.344,-914.551,66.895,-2.441,0
1555612864.780,69.336,24.902,-924.805,60.547,7.812,0
1555612864.784,66.895,22.949,-637.695,62.988,1.465,0
1555612864.788,65.918,24.414,-595.703,69.824,-10.254,0
1555612864.792,71.777,30.273,-821.289,77.637,13.672,0
1555612864.794,72.266,30.273,-791.504,73.730,32.227,0
1555612864.798,67.871,22.461,-583.984,62.012,2.441,0
1555612864.802,62.988,19.043,-582.520,69.824,5.371,0
1555612864.806,59.082,21.973,-816.895,75.195,7.324,0
1555612864.810,62.988,26.367,-876.953,69.824,-16.602,0
1555612864.814,63.965,25.879,-768.555,73.730,-11.719,0
1555612864.818,61.523,25.879,-768.555,74.219,7.324,0
1555612864.821,63.965,29.785,-925.293,70.312,36.621,0
1555612864.825,63.965,29.785,-983.887,73.242,6.836,0
1555612864.829,63.965,26.367,-733.398,68.848,6.836,0
1555612864.833,68.359,30.273,-603.516,73.242,56.152,0
1555612864.837,64.941,32.227,-767.578,84.473,27.344,0
1555612864.839,63.965,26.367,-846.680,78.613,8.789,0
1555612864.843,70.801,23.926,-769.531,72.266,6.348,0
1555612864.847,68.848,24.414,-662.109,69.824,29.785,0
1555612864.851,62.012,26.367,-662.598,76.660,66.895,0
1555612864.855,61.035,26.367,-811.523,77.637,15.137,0
1555612864.859,65.918,23.926,-951.172,73.730,-15.625,0
1555612864.863,70.312,22.949,-940.918,72.754,21.973,0
1555612864.866,71.289,22.949,-933.105,61.035,0.488,0
1555612864.870,68.848,22.461,-905.273,64.453,-24.414,0
1555612864.874,69.336,21.484,-840.332,70.312,27.344,0
1555612864.878,67.383,22.461,-750.977,63.965,24.414,0
1555612864.882,66.406,25.879,-622.070,63.965,34.180,0
1555612864.884,68.848,26.855,-652.832,70.801,61.035,0
1555612864.888,69.336,26.367,-901.855,74.219,20.508,0
1555612864.892,71.289,24.902,-931.152,77.637,-15.137,0
1555612864.896,67.383,25.391,-682.129,73.730,-4.395,0
1555612864.900,64.941,25.391,-661.133,72.266,23.438,0
1555612864.904,66.895,24.902,-893.066,73.242,52.246,0
1555612864.908,70.801,24.414,-996.582,67.383,44.922,0
1555612864.911,74.219,24.902,-744.629,64.453,61.523,0
1555612864.915,67.871,23.438,-570.801,64.941,54.199,0
1555612864.919,66.895,24.414,-802.734,74.219,41.016,0
1555612864.923,70.801,27.832,-881.348,76.172,51.758,0
1555612864.927,69.336,27.832,-680.664,72.754,5.859,0
1555612864.945,68.848,27.344,-602.051,75.195,-18.555,0
1555612864.949,70.801,28.809,-813.477,79.102,-4.883,0
1555612864.953,73.242,28.809,-943.848,76.172,3.418,0
1555612864.957,69.336,25.879,-721.680,69.824,16.113,0
1555612864.961,68.848,23.438,-645.508,69.824,13.672,0
1555612864.965,70.312,25.879,-861.816,72.754,8.789,0
1555612864.969,67.871,27.344,-999.023,73.242,14.160,0
1555612864.972,66.406,27.344,-831.543,73.242,5.371,0
1555612864.976,61.523,25.879,-566.406,70.801,38.574,0
1555612864.980,59.082,21.484,-718.262,76.660,46.387,0
1555612864.984,63.965,22.949,-943.848,73.242,6.348,0
1555612864.988,66.895,23.926,-793.945,63.477,16.602,0
1555612864.990,64.941,20.996,-608.398,68.848,38.086,0
1555612864.994,64.453,21.484,-708.984,66.895,-19.043,0
1555612864.998,66.406,22.949,-832.031,61.035,13.672,0
1555612865.002,62.500,23.438,-807.617,57.617,34.668,0
1555612865.006,62.012,24.902,-658.691,63.965,55.176,0
1555612865.010,63.965,25.391,-711.426,70.801,28.809,0
1555612865.014,60.059,25.391,-902.344,68.848,12.695,0
1555612865.017,59.082,22.949,-965.820,65.918,-2.441,0
1555612865.021,61.523,21.484,-906.250,67.871,-9.277,0
1555612865.025,61.523,21.973,-882.324,66.895,42.480,0
1555612865.029,65.918,22.461,-827.637,68.848,49.316,0
1555612865.033,66.895,22.461,-794.434,69.336,30.273,0
1555612865.035,59.570,21.484,-839.355,59.082,-10.254,0
1555612865.039,61.035,19.531,-682.129,53.223,1.953,0
1555612865.043,62.988,19.531,-643.066,59.082,-13.184,0
1555612865.047,59.082,20.508,-812.988,62.988,-25.391,0
1555612865.051,57.617,21.973,-849.121,61.523,20.508,0
1555612865.055,62.012,20.020,-754.883,57.129,44.434,0
1555612865.059,61.035,20.508,-736.816,50.781,45.410,0
1555612865.062,58.105,22.461,-806.641,54.688,33.203,0
1555612865.066,63.477,21.973,-914.551,60.059,1.953,0
1555612865.070,66.895,20.508,-886.230,58.594,-22.949,0
1555612865.074,64.941,19.531,-642.578,64.453,34.668,0
1555612865.078,66.895,21.973,-759.277,57.617,16.602,0
1555612865.080,71.777,24.902,-976.562,52.246,-50.781,0
1555612865.084,68.848,22.461,-794.922,60.059,-30.762,0
1555612865.088,64.941,20.996,-540.527,58.594,9.766,0
1555612865.092,69.336,24.414,-618.652,58.105,31.250,0
1555612865.096,72.266,26.855,-812.988,61.523,52.734,0
1555612865.100,72.266,22.949,-863.770,62.500,23.926,0
1555612865.104,67.871,20.996,-652.344,64.941,54.199,0
1555612865.107,62.988,21.973,-567.383,60.547,95.703,0
1555612865.111,64.453,22.949,-919.922,62.988,25.879,0
1555612865.115,66.406,20.996,-886.719,61.035,21.973,0
1555612865.119,65.430,20.508,-528.320,58.594,74.707,0
1555612865.123,66.895,21.973,-543.945,60.059,54.199,0
1555612865.125,66.406,22.949,-770.996,57.617,19.043,0
1555612865.129,64.453,24.414,-850.586,55.176,23.438,0
1555612865.133,62.500,22.949,-737.793,50.781,-24.902,0
1555612865.137,56.152,21.973,-591.797,51.758,16.602,0
1555612865.141,56.641,20.996,-650.391,58.594,85.938,0
1555612865.145,62.500,22.949,-887.695,62.500,30.762,0
1555612865.149,65.430,23.926,-818.359,56.641,8.301,0
1555612865.152,64.453,21.484,-742.676,52.246,0.000,0
1555612865.156,62.012,20.020,-949.707,52.734,-31.738,0
1555612865.160,59.082,20.996,-874.512,58.594,-3.418,0
1555612865.164,58.105,20.996,-716.309,50.781,37.109,0
1555612865.168,60.059,19.531,-653.320,48.340,-12.695,0
1555612865.170,55.664,21.484,-683.105,57.129,-67.383,0
1555612865.174,53.711,20.996,-742.188,61.523,-3.906,0
1555612865.178,62.012,18.555,-751.953,65.430,61.523,0
1555612865.182,63.477,19.043,-673.340,63.477,33.691,0
1555612865.186,67.383,18.555,-678.711,59.570,-25.879,0
1555612865.190,70.312,19.043,-838.867,64.453,4.395,0
1555612865.194,66.406,19.043,-962.891,66.895,-5.859,0
1555612865.197,63.477,17.578,-984.863,62.500,-15.137,0
1555612865.201,57.617,17.578,-781.738,57.129,11.719,0
1555612865.205,58.594,19.043,-661.621,62.012,-6.348,0
1555612865.209,62.988,20.020,-848.145,69.824,8.301,0
1555612865.213,61.523,17.578,-769.043,65.430,55.664,0
1555612865.215,65.430,16.602,-550.781,60.059,23.438,0
1555612865.219,65.918,18.555,-594.727,58.105,0.977,0
1555612865.223,60.547,17.578,-814.453,63.477,41.504,0
1555612865.227,61.523,14.160,-852.539,65.918,14.648,0
1555612865.231,65.430,13.184,-640.625,57.617,-19.043,0
1555612865.235,62.012,14.648,-664.062,57.129,22.949,0
1555612865.239,61.035,17.578,-902.832,59.082,76.660,0
1555612865.242,61.035,17.578,-956.055,56.152,97.168,0
1555612865.246,60.547,14.160,-702.637,52.734,41.016,0
1555612865.250,64.941,13.672,-566.895,54.199,-14.160,0
1555612865.254,71.289,17.090,-751.953,54.199,7.324,0
1555612865.258,70.801,16.602,-803.223,47.363,82.520,0
1555612865.260,67.383,15.137,-652.832,43.945,58.105,0
1555612865.264,67.383,14.648,-573.242,49.805,8.301,0
1555612865.268,62.012,12.695,-710.449,54.199,24.902,0
1555612865.272,60.059,13.184,-791.992,57.617,81.543,0
1555612865.276,57.129,14.648,-727.539,53.711,32.227,0
1555612865.280,56.641,14.648,-728.516,50.781,-24.902,0
1555612865.284,57.617,19.043,-894.531,47.363,2.930,0
1555612865.287,51.270,20.508,-977.051,53.223,5.859,0
1555612865.291,52.246,17.090,-809.082,50.781,6.348,0
1555612865.295,57.129,16.602,-650.391,41.504,37.598,0
1555612865.299,56.152,15.625,-701.660,48.340,36.621,0
1555612865.303,54.688,16.602,-819.824,48.340,-12.695,0
1555612865.319,52.246,17.578,-841.797,51.270,-28.320,0
1555612865.323,50.293,14.160,-747.070,54.199,-0.977,0
1555612865.327,52.246,14.648,-651.855,50.293,22.461,0
1555612865.331,53.711,18.555,-676.758,52.734,50.781,0
1555612865.335,56.641,18.555,-773.926,53.711,44.434,0
1555612865.339,57.617,17.090,-907.715,51.270,2.930,0
1555612865.343,55.664,15.625,-848.633,52.246,20.508,0
1555612865.346,54.199,17.578,-656.250,47.852,68.359,0
1555612865.350,58.594,19.531,-766.602,45.410,35.156,0
1555612865.354,63.965,17.090,-897.461,49.316,-6.836,0
1555612865.358,60.059,13.672,-772.949,42.969,-28.320,0
1555612865.362,50.781,13.184,-602.051,47.363,10.254,0
1555612865.365,46.875,14.160,-755.371,54.199,32.227,0
1555612865.369,49.805,16.602,-941.406,51.270,-37.109,0
1555612865.373,53.711,13.672,-769.531,49.316,-38.574,0
1555612865.377,51.758,12.695,-583.496,51.270,2.441,0
1555612865.381,47.363,16.113,-714.355,50.781,49.805,0
1555612865.385,50.293,13.184,-888.672,50.293,83.496,0
1555612865.389,50.293,11.230,-854.004,48.828,21.484,0
1555612865.392,47.363,11.719,-717.773,42.480,-67.871,0
1555612865.396,51.758,13.672,-750.488,46.875,-7.324,0
1555612865.400,57.617,15.137,-988.281,48.340,39.062,0
1555612865.404,48.828,11.230,-817.383,41.016,78.125,0
1555612865.408,49.805,10.742,-529.785,42.969,60.547,0
1555612865.410,60.059,15.625,-688.477,48.340,1.465,0
1555612865.414,57.617,19.043,-872.559,55.176,27.832,0
1555612865.418,53.223,12.695,-780.273,54.199,24.414,0
1555612865.422,49.805,11.230,-584.473,50.781,38.574,0
1555612865.426,47.363,16.602,-704.590,51.270,0.000,0
1555612865.430,43.945,13.672,-926.270,47.363,38.574,0
1555612865.434,50.781,11.230,-957.031,43.945,62.500,0
1555612865.437,54.199,13.184,-757.324,43.457,22.949,0
1555612865.441,48.340,14.160,-732.422,38.086,42.969,0
1555612865.445,49.805,16.602,-990.723,45.898,-1.953,0
1555612865.449,47.363,14.160,-930.176,52.734,-18.066,0
1555612865.453,44.922,10.254,-682.129,39.551,57.129,0
1555612865.455,45.410,9.766,-573.730,41.016,75.195,0
1555612865.459,41.992,10.254,-656.250,43.945,77.148,0
1555612865.463,42.969,8.301,-762.695,41.504,72.266,0
1555612865.467,48.828,9.277,-750.488,42.969,47.363,0
1555612865.471,51.270,9.766,-659.668,45.410,40.039,0
1555612865.475,46.875,8.301,-791.992,44.922,12.695,0
1555612865.479,45.898,10.742,-966.797,34.180,-14.160,0
1555612865.482,53.223,12.207,-967.773,32.227,-30.762,0
1555612865.486,57.129,11.719,-978.516,30.762,7.324,0
1555612865.490,49.316,13.672,-880.859,31.250,4.883,0
1555612865.494,45.898,12.695,-794.922,44.434,0.000,0
1555612865.498,55.176,11.230,-862.305,47.852,64.941,0
1555612865.500,55.176,7.812,-738.770,42.480,71.289,0
1555612865.504,47.363,6.348,-576.660,36.133,25.391,0
1555612865.508,48.340,9.277,-689.941,38.574,30.273,0
1555612865.512,50.293,10.742,-878.418,47.852,47.363,0
1555612865.516,45.898,9.277,-810.547,41.992,18.555,0
1555612865.520,44.434,5.859,-721.680,37.109,-4.883,0
1555612865.524,40.527,3.906,-813.477,44.922,33.691,0
1555612865.527,38.574,6.836,-923.828,35.645,52.246,0
1555612865.531,41.992,8.789,-949.219,26.367,17.578,0
1555612865.535,41.504,6.348,-712.402,35.645,3.906,0
1555612865.539,43.457,7.324,-653.320,39.062,62.988,0
1555612865.543,48.340,9.766,-906.250,41.992,34.180,0
1555612865.544,48.828,10.254,-891.602,43.457,12.695,0
1555612865.548,47.363,9.766,-595.703,32.227,77.637,0
1555612865.552,47.363,10.254,-573.730,23.438,69.824,0
1555612865.556,43.945,11.230,-874.512,30.273,-7.324,0
1555612865.560,41.992,13.672,-938.477,37.109,-10.742,0
1555612865.564,47.363,15.137,-790.039,31.738,27.832,0
1555612865.568,54.199,12.695,-770.996,34.180,38.574,0
1555612865.571,47.363,14.160,-907.227,34.180,67.383,0
1555612865.575,38.574,15.625,-1000.000,31.250,9.766,0
1555612865.579,46.387,15.137,-875.488,36.133,-65.918,0
1555612865.583,50.293,15.137,-738.281,33.691,-38.086,0
1555612865.587,42.480,16.602,-773.438,28.809,23.926,0
1555612865.589,35.156,16.602,-828.125,33.203,65.430,0
1555612865.593,43.457,13.672,-892.090,33.203,11.230,0
1555612865.597,49.316,14.648,-805.664,28.320,-1.465,0
1555612865.601,46.387,17.578,-748.047,36.133,16.602,0
1555612865.605,44.922,16.602,-858.398,39.062,-0.977,0
1555612865.609,42.969,12.695,-951.172,27.832,41.504,0
1555612865.613,44.434,13.184,-977.051,23.926,-13.672,0
1555612865.616,44.434,17.578,-951.172,21.973,-74.707,0
1555612865.620,41.992,19.531,-924.316,26.855,-41.504,0
1555612865.624,40.039,15.625,-873.047,33.691,23.438,0
1555612865.628,36.621,11.230,-771.484,29.785,52.734,0
1555612865.632,35.156,10.254,-683.105,28.809,11.719,0
1555612865.634,38.086,11.230,-702.637,27.832,38.574,0
1555612865.638,39.551,13.184,-831.055,26.855,77.148,0
1555612865.642,43.457,13.672,-895.996,31.738,-5.371,0
1555612865.646,41.992,13.672,-737.305,31.738,-23.926,0
1555612865.650,37.598,12.695,-732.422,35.156,69.824,0
1555612865.654,38.086,13.672,-939.941,38.086,10.254,0
1555612865.658,42.480,12.695,-998.535,28.809,-23.926,0
1555612865.661,47.852,10.254,-825.195,23.438,33.691,0
1555612865.665,43.457,11.719,-689.941,32.715,-4.395,0
1555612865.669,43.457,15.137,-886.719,41.992,-15.137,0
1555612865.673,44.922,15.625,-908.691,37.109,72.266,0
1555612865.677,47.852,13.672,-721.680,39.551,41.504,0
1555612865.694,50.293,14.160,-671.387,42.969,-32.715,0
1555612865.698,41.504,13.672,-840.332,37.598,5.371,0
1555612865.702,41.992,14.648,-975.098,35.645,30.762,0
1555612865.706,50.293,12.695,-779.297,34.180,49.316,0
1555612865.710,52.734,10.254,-645.508,38.086,21.973,0
1555612865.714,48.340,13.184,-842.285,45.898,27.344,0
1555612865.718,42.969,14.160,-998.535,35.156,33.691,0
1555612865.721,41.992,11.230,-937.500,25.879,17.090,0
1555612865.725,39.551,11.230,-714.844,32.715,41.504,0
1555612865.729,36.621,13.184,-793.457,37.109,22.949,0
1555612865.733,43.945,16.602,-981.934,38.086,52.246,0
1555612865.737,46.387,16.602,-839.355,36.621,88.379,2
1555612865.739,46.875,12.207,-725.586,37.109,14.648,0
1555612865.743,46.875,11.230,-763.184,33.691,2.441,0
1555612865.747,36.621,14.160,-889.648,35.645,23.438,0
1555612865.751,38.574,15.137,-908.203,32.715,28.320,0
1555612865.755,46.875,11.719,-816.406,32.227,1.465,0
1555612865.759,39.062,9.766,-879.883,31.250,-41.992,0
1555612865.763,31.738,9.766,-966.309,26.367,9.277,0
1555612865.766,35.645,11.230,-954.102,32.715,51.758,0
1555612865.770,39.551,12.695,-885.742,30.762,26.367,0
1555612865.774,37.598,13.672,-938.965,21.484,3.906,0
1555612865.778,36.621,12.207,-978.516,24.414,-1.953,0
1555612865.782,39.551,14.648,-971.191,31.738,3.418,0
1555612865.784,44.922,14.160,-929.688,28.809,50.293,0
1555612865.788,41.992,13.184,-773.926,26.367,37.598,0
1555612865.792,37.598,14.160,-754.883,27.832,-13.184,0
1555612865.796,40.039,13.672,-901.367,29.785,-7.812,0
1555612865.800,44.922,16.602,-967.285,36.133,11.230,0
1555612865.804,43.457,16.602,-877.930,31.738,40.039,0
1555612865.808,38.574,13.672,-879.395,21.973,-0.488,0
1555612865.811,35.156,10.742,-972.656,27.832,-29.785,0
1555612865.815,37.109,11.230,-985.352,31.250,0.488,0
1555612865.819,37.598,11.719,-908.203,24.902,9.766,0
1555612865.823,33.203,8.789,-655.273,19.531,72.754,0
1555612865.827,31.738,9.277,-705.078,20.508,63.965,0
1555612865.829,38.086,13.672,-958.008,22.461,28.809,0
1555612865.833,41.504,13.184,-959.473,24.414,-2.930,0
1555612865.837,39.062,11.230,-738.281,19.531,-15.137,0
1555612865.841,39.551,11.230,-725.586,23.926,23.926,0
1555612865.845,38.574,12.207,-920.410,31.738,55.176,0
1555612865.849,40.527,13.184,-984.375,30.273,39.062,0
1555612865.853,46.387,16.602,-856.934,29.297,-14.648,0
1555612865.856,47.852,15.625,-758.301,25.879,21.973,0
1555612865.860,44.434,10.742,-948.730,20.020,50.293,0
1555612865.864,42.969,10.742,-968.262,20.996,15.137,0
1555612865.868,45.898,9.766,-702.637,29.297,32.227,0
1555612865.872,45.898,9.277,-700.684,26.367,23.926,0
1555612865.874,45.898,11.719,-937.500,20.508,-13.184,0
1555612865.878,45.410,11.719,-907.715,21.484,30.273,0
1555612865.882,46.875,10.742,-733.398,21.484,36.133,0
1555612865.886,50.293,11.719,-735.840,21.973,-0.977,0
1555612865.890,44.922,8.301,-915.527,30.762,-17.578,0
1555612865.894,47.363,8.789,-993.164,34.180,-15.625,0
1555612865.898,51.758,8.789,-915.039,31.250,0.977,0
1555612865.901,52.246,4.883,-872.559,31.250,-2.930,0
1555612865.905,49.805,10.254,-967.285,27.832,4.395,0
1555612865.909,45.898,15.137,-979.492,27.832,-5.371,0
1555612865.913,48.828,14.160,-894.043,25.879,-12.207,0
1555612865.917,49.805,10.742,-779.785,28.320,-15.625,0
1555612865.919,49.316,10.254,-728.027,32.227,4.883,0
1555612865.923,49.316,12.695,-793.945,26.855,46.387,0
1555612865.927,50.293,11.719,-898.438,25.391,28.809,0
1555612865.931,51.758,10.742,-815.918,21.484,13.672,0
1555612865.935,47.363,12.695,-712.891,21.973,2.441,0
1555612865.939,45.898,11.230,-878.906,33.203,-21.484,0
1555612865.943,48.828,9.277,-983.887,39.551,27.832,0
1555612865.946,49.805,12.695,-983.398,32.715,64.941,0
1555612865.950,47.363,12.207,-787.109,24.414,87.402,0
1555612865.954,44.434,11.230,-684.570,31.250,61.035,0
1555612865.958,44.434,16.113,-938.965,37.109,-15.625,0
1555612865.962,47.852,15.625,-890.625,34.180,37.598,0
1555612865.964,52.734,13.672,-675.781,28.320,31.738,0
1555612865.968,49.316,12.695,-695.801,27.344,-0.488,0
1555612865.972,52.734,9.766,-887.207,30.273,26.855,0
1555612865.976,54.199,7.812,-934.082,29.785,33.203,0
1555612865.980,48.828,9.766,-704.102,28.809,51.758,0
1555612865.984,46.875,8.301,-766.602,31.250,37.109,0
1555612865.988,45.898,8.301,-965.332,37.109,20.508,0
1555612865.991,45.898,10.254,-985.840,31.250,-4.883,0
1555612865.995,40.527,6.836,-773.926,21.973,43.457,0
1555612865.999,39.551,6.836,-615.234,21.973,57.617,0
1555612866.003,40.527,8.789,-860.352,24.902,13.184,0
1555612866.007,44.434,11.230,-992.188,28.809,20.996,0
1555612866.009,47.363,11.719,-830.566,34.668,3.906,0
1555612866.013,47.852,10.742,-688.477,33.691,4.395,0
1555612866.017,44.922,10.254,-830.078,29.785,-1.465,0
1555612866.021,42.969,13.184,-990.723,32.227,-19.531,0
1555612866.025,45.898,13.672,-907.715,32.715,-9.277,0
1555612866.029,44.922,10.254,-839.844,29.297,-0.488,0
1555612866.033,37.598,8.789,-934.082,24.414,9.766,0
1555612866.036,38.086,7.812,-994.629,27.344,10.742,0
1555612866.040,42.969,8.789,-905.762,25.391,30.273,0
1555612866.044,39.551,9.277,-784.180,18.555,31.738,0
1555612866.048,38.574,8.789,-742.188,25.879,48.340,0
1555612866.052,37.109,10.742,-792.969,30.762,66.895,0
1555612866.055,38.086,11.719,-949.219,31.738,6.348,0
1555612866.059,33.691,9.766,-959.961,25.391,1.953,0
1555612866.063,33.691,12.695,-789.062,22.949,30.762,0
1555612866.067,35.645,14.160,-822.754,22.949,-9.766,0
1555612866.071,37.598,11.719,-936.523,23.926,12.695,0
1555612866.075,42.969,12.695,-963.379,34.180,28.809,0
1555612866.079,42.480,9.766,-912.598,37.109,3.418,0
1555612866.082,36.621,10.254,-819.824,28.809,10.742,0
1555612866.086,33.203,13.184,-876.953,27.344,41.992,0
1555612866.090,38.574,11.230,-943.359,22.949,69.336,0
1555612866.094,38.086,11.719,-826.172,19.531,46.875,0
1555612866.098,34.668,13.184,-715.820,24.414,26.367,0
1555612866.115,46.387,15.137,-895.996,29.297,-15.137,0
1555612866.119,53.711,15.137,-1000.000,30.273,-48.828,0
1555612866.123,49.805,16.113,-854.004,32.227,-32.227,0
1555612866.127,47.852,16.113,-710.938,34.180,10.254,0
1555612866.131,46.875,13.184,-877.441,37.598,70.801,0
1555612866.135,43.457,13.184,-988.281,35.156,56.641,0
1555612866.139,36.621,12.695,-972.656,32.715,-8.789,0
1555612866.142,33.691,12.207,-819.824,36.133,7.812,0
1555612866.146,35.156,12.207,-809.082,37.598,33.691,0
1555612866.150,34.180,15.137,-989.258,36.133,28.809,0
1555612866.154,34.180,16.113,-929.199,34.668,-24.902,0
1555612866.158,37.598,16.113,-708.984,32.715,-10.742,0
1555612866.160,36.621,15.625,-728.516,34.668,61.035,0
1555612866.164,34.668,18.555,-965.820,32.715,29.785,0
1555612866.168,37.598,17.578,-880.859,36.621,47.852,0
1555612866.172,35.645,13.184,-635.254,34.180,86.426,0
1555612866.176,29.785,15.625,-752.930,31.250,19.043,0
1555612866.180,32.715,17.090,-955.078,33.691,-0.488,0
1555612866.184,37.109,14.648,-998.047,25.879,-38.574,0
1555612866.187,35.156,14.648,-846.680,20.020,25.391,0
1555612866.191,33.691,18.555,-802.734,18.555,27.344,0
1555612866.195,33.203,19.531,-987.305,20.996,-32.715,0
1555612866.199,36.133,18.555,-943.359,23.926,24.414,0
1555612866.203,37.109,17.578,-748.535,21.484,81.543,0
1555612866.219,38.086,17.578,-635.254,22.949,86.914,0
1555612866.223,37.598,20.508,-734.863,20.996,46.875,0
1555612866.227,33.691,20.508,-926.270,21.484,-35.645,0
1555612866.231,38.086,18.555,-893.555,24.414,-12.207,0
1555612866.235,39.062,15.137,-748.535,18.555,33.691,0
1555612866.239,35.156,15.625,-863.281,22.949,-35.156,0
1555612866.243,31.738,17.578,-979.492,31.738,-18.066,0
1555612866.246,27.832,13.184,-944.336,23.438,10.254,0
1555612866.250,32.715,12.695,-956.055,16.113,-29.297,0
1555612866.254,33.691,13.672,-898.926,21.973,1.465,0
1555612866.258,33.691,14.160,-927.734,33.203,-25.391,0
1555612866.262,36.621,15.137,-1000.000,30.762,-44.922,0
1555612866.249,36.621,12.695,-842.773,19.043,8.789,0
1555612866.253,41.992,14.160,-617.676,12.695,45.410,0
1555612866.257,40.039,18.555,-697.754,20.508,59.570,0
1555612866.261,38.086,16.113,-929.688,28.809,-13.184,0
1555612866.265,36.621,12.207,-915.039,22.461,-66.895,0
1555612866.269,32.227,12.207,-787.598,18.066,2.441,0
1555612866.273,37.598,11.230,-834.961,21.973,30.762,0
1555612866.276,37.598,13.672,-955.078,26.855,-22.949,0
1555612866.280,28.320,14.648,-911.621,27.832,-28.320,0
1555612866.284,28.809,10.742,-670.898,21.484,15.625,0
1555612866.288,31.738,7.812,-635.742,21.973,20.508,0
1555612866.292,32.227,9.766,-856.445,22.949,32.715,0
1555612866.294,32.715,13.184,-1000.000,21.973,-27.832,0
1555612866.298,34.668,13.184,-864.258,17.090,-49.316,0
1555612866.302,35.156,13.184,-633.789,20.508,48.340,0
1555612866.306,32.227,13.672,-784.180,32.227,49.805,0
1555612866.310,35.645,12.207,-863.770,32.227,41.504,0
1555612866.314,39.062,9.277,-749.023,25.391,60.547,0
1555612866.318,35.645,10.742,-734.375,24.902,61.035,0
1555612866.321,33.203,13.184,-897.949,28.320,54.199,0
1555612866.325,33.203,10.254,-986.328,23.438,5.859,0
1555612866.329,31.250,7.324,-747.070,25.879,33.691,0
1555612866.333,34.180,8.789,-599.609,24.414,50.781,0
1555612866.337,34.180,10.742,-760.254,21.484,9.766,0
1555612866.339,34.668,13.184,-863.281,24.902,13.184,0
1555612866.343,38.086,12.695,-742.676,21.973,37.109,0
1555612866.347,41.504,10.742,-663.574,19.531,31.738,0
1555612866.351,39.062,12.207,-732.422,21.484,37.598,0
1555612866.355,37.598,14.648,-808.594,29.297,31.250,0
1555612866.359,38.574,13.184,-920.410,32.227,-20.508,0
1555612866.363,37.109,9.277,-926.758,25.391,23.438,0
1555612866.366,34.180,8.789,-856.445,18.066,47.852,0
1555612866.370,25.391,10.254,-774.414,16.602,28.809,0
1555612866.374,25.879,9.277,-759.766,23.926,49.316,0
1555612866.378,29.785,8.301,-676.758,24.414,68.359,0
1555612866.382,30.762,10.742,-548.828,27.344,50.781,0
1555612866.385,31.250,11.230,-545.410,33.203,87.402,0
1555612866.389,33.691,13.184,-699.707,27.344,105.957,0
1555612866.393,36.621,15.137,-804.688,25.391,-2.441,0
1555612866.397,35.645,11.719,-640.137,26.367,-30.762,0
1555612866.401,33.203,9.277,-583.496,26.855,16.113,0
1555612866.405,33.203,9.766,-838.379,28.320,22.461,0
1555612866.409,39.551,11.719,-1000.000,25.879,4.395,0
1555612866.412,37.109,12.207,-853.027,24.414,-29.785,0
1555612866.416,28.320,12.207,-596.191,20.020,-8.301,0
1555612866.420,30.762,14.160,-714.844,22.461,49.805,0
1555612866.424,32.715,13.184,-875.488,23.926,16.113,0
1555612866.428,31.738,14.160,-596.680,20.508,67.871,0
1555612866.445,31.250,14.160,-481.934,22.461,38.086,0
1555612866.449,35.156,9.766,-768.555,30.273,-41.016,0
1555612866.453,41.992,10.254,-938.965,34.180,-36.133,0
1555612866.457,38.086,10.254,-731.445,27.832,-7.812,0
1555612866.461,34.180,10.254,-539.551,27.832,29.297,0
1555612866.465,39.551,14.648,-772.461,27.832,-8.301,0
1555612866.469,44.922,18.555,-1000.000,20.996,-37.109,0
1555612866.472,40.527,20.020,-841.309,23.438,-25.391,0
1555612866.476,39.062,18.066,-538.574,28.320,42.969,0
1555612866.480,43.945,16.113,-628.906,33.203,89.355,0
1555612866.484,43.457,17.090,-874.023,38.086,40.039,0
1555612866.488,42.480,17.578,-821.777,31.250,-30.273,0
1555612866.490,46.875,19.043,-628.906,30.762,-3.418,0
1555612866.494,50.293,19.531,-621.094,40.527,7.812,0
1555612866.498,49.316,23.438,-767.090,41.016,6.348,0
1555612866.502,51.270,24.902,-784.668,41.016,21.973,0
1555612866.506,51.270,22.461,-648.438,42.480,33.203,0
1555612866.510,53.223,23.926,-595.215,47.363,81.543,0
1555612866.514,56.152,24.902,-813.477,52.734,32.715,0
1555612866.517,58.594,24.414,-898.926,49.316,-19.043,0
1555612866.521,63.477,24.414,-717.773,54.688,30.273,0
1555612866.525,61.523,25.391,-855.469,54.688,-5.371,0
1555612866.529,60.547,31.250,-937.012,53.711,-46.875,0
1555612866.533,63.965,34.180,-789.551,55.664,2.930,0
1555612866.535,66.406,37.109,-825.195,48.828,-3.418,0
1555612866.539,69.824,39.551,-671.875,52.246,49.316,0
1555612866.543,71.777,37.598,-503.418,56.641,87.891,0
1555612866.547,67.383,38.574,-664.062,56.641,41.992,0
1555612866.551,68.359,36.621,-766.113,59.570,64.453,0
1555612866.555,74.219,34.180,-737.305,61.523,31.738,0
1555612866.559,73.730,36.133,-806.641,63.477,-69.336,0
1555612866.562,68.848,39.551,-838.379,71.777,-20.996,0
1555612866.566,72.754,41.504,-900.391,69.336,34.668,0
1555612866.570,78.613,41.992,-884.766,71.289,21.484,0
1555612866.574,78.125,42.480,-607.910,73.242,3.418,0
1555612866.578,80.078,43.945,-677.734,71.289,-54.688,0
1555612866.580,86.426,48.340,-857.910,76.172,-5.371,0
1555612866.584,90.332,50.293,-718.750,76.660,48.340,0
1555612866.588,83.496,48.340,-488.770,71.289,46.387,0
1555612866.592,83.008,48.828,-587.891,73.730,65.918,0
1555612866.596,84.961,50.781,-807.129,84.961,94.238,0
1555612866.600,83.984,51.758,-867.188,87.891,51.758,0
1555612866.604,85.449,51.270,-688.965,82.031,41.504,0
1555612866.607,87.891,53.223,-608.398,82.031,40.527,0
1555612866.611,90.332,57.617,-916.992,90.820,0.977,0
1555612866.615,90.332,59.570,-939.941,91.309,-18.066,0
1555612866.619,91.797,60.059,-664.551,91.797,-22.949,0
1555612866.623,92.773,61.523,-562.500,93.750,44.922,0
1555612866.625,93.750,62.500,-697.266,94.238,89.844,0
1555612866.629,98.633,63.965,-775.879,98.633,52.734,0
1555612866.633,103.027,66.406,-659.668,102.051,28.320,0
1555612866.637,105.469,67.871,-576.172,99.609,48.340,0
1555612866.641,101.562,69.824,-707.031,100.098,26.367,0
1555612866.645,104.980,70.801,-904.297,107.422,28.320,0
1555612866.649,109.863,71.289,-904.297,110.840,38.086,0
1555612866.652,111.328,71.777,-839.844,105.469,30.762,0
1555612866.656,111.816,73.730,-921.875,105.957,16.113,0
1555612866.660,110.352,75.684,-834.473,111.328,50.781,0
1555612866.664,114.746,79.102,-728.516,114.258,64.453,0
1555612866.668,115.234,82.031,-651.855,119.629,28.320,0
1555612866.669,117.676,83.496,-581.055,122.559,45.410,0
1555612866.673,123.047,86.426,-698.242,132.324,30.762,0
1555612866.677,126.465,89.844,-813.477,131.836,20.996,0
1555612866.681,128.906,89.355,-706.543,127.441,53.223,0
1555612866.685,131.348,91.797,-600.586,131.836,28.320,0
1555612866.689,132.324,96.680,-813.965,140.137,-16.602,0
1555612866.693,138.672,96.680,-972.656,153.809,23.438,0
1555612866.696,141.113,96.680,-993.652,143.555,-2.930,0
1555612866.700,138.184,99.609,-766.602,134.277,34.180,0
1555612866.704,139.160,102.051,-700.195,145.508,25.391,0
1555612866.708,147.461,105.469,-970.215,149.902,-23.438,0
1555612866.712,152.344,107.422,-824.707,150.391,65.918,0
1555612866.714,150.879,106.934,-604.980,151.855,13.672,0
1555612866.718,157.715,110.840,-644.531,157.715,-44.434,0
1555612866.722,158.203,117.188,-818.359,164.551,45.410,0
1555612866.726,156.250,119.141,-861.816,168.945,47.852,0
1555612866.730,165.039,118.164,-625.488,166.016,30.273,0
1555612866.734,164.551,116.699,-654.297,163.574,53.711,0
1555612866.738,164.551,118.652,-923.828,167.480,-13.184,0
1555612866.741,171.875,123.047,-958.008,170.898,-29.297,0
1555612866.745,168.945,123.047,-712.891,170.898,38.086,0
1555612866.749,166.992,124.512,-531.250,171.875,50.781,0
1555612866.753,166.992,126.953,-699.707,170.898,47.852,0
1555612866.757,172.852,129.883,-894.043,171.875,25.391,0
1555612866.759,181.641,130.859,-815.430,170.898,25.391,0
1555612866.763,182.617,129.883,-717.285,169.434,-8.789,0
1555612866.767,177.246,132.812,-788.086,172.852,-33.691,0
1555612866.771,176.758,136.719,-870.117,171.387,7.324,0
1555612866.775,181.152,140.137,-773.438,168.945,31.250,0
1555612866.779,182.617,141.602,-745.605,172.852,-8.301,0
1555612866.783,182.617,145.508,-908.691,175.781,-21.484,0
1555612866.786,185.059,150.879,-996.094,180.664,-26.367,1
1555612866.790,186.523,149.414,-876.465,188.477,-22.461,0
1555612866.794,187.988,149.414,-684.082,187.012,38.086,0
1555612866.798,192.383,152.344,-619.141,188.965,60.547,0
1555612866.802,194.824,153.320,-705.078,191.406,35.645,0
1555612866.819,204.102,158.203,-827.637,193.848,-9.277,0
1555612866.823,202.637,159.668,-766.602,196.777,10.742,0
1555612866.827,198.242,157.227,-639.648,198.242,36.621,0
1555612866.831,203.125,161.133,-742.188,206.055,23.926,0
1555612866.835,202.637,163.574,-897.461,211.914,-1.953,0
1555612866.839,209.961,161.133,-956.543,208.496,-13.672,0
1555612866.843,212.891,160.156,-859.375,200.684,23.926,0
1555612866.846,209.473,162.598,-706.543,202.637,20.508,0
1555612866.850,212.891,165.527,-824.707,211.914,-10.254,0
1555612866.854,217.773,166.016,-967.285,213.379,-57.617,0
1555612866.858,217.773,166.992,-823.242,214.844,-40.527,0
1555612866.862,213.867,167.480,-624.023,216.797,15.137,0
1555612866.864,216.309,166.992,-768.066,224.121,30.273,0
1555612866.868,221.680,165.527,-912.109,229.980,30.273,0
1555612866.872,225.586,166.992,-730.957,228.027,38.086,0
1555612866.876,228.027,169.434,-595.703,230.469,13.672,0
1555612866.880,224.609,169.434,-791.504,228.027,-27.344,0
1555612866.884,231.445,171.875,-981.934,227.539,-26.855,0
1555612866.888,231.445,171.387,-926.758,230.469,12.207,0
1555612866.891,224.609,169.922,-751.465,228.516,64.453,0
1555612866.895,225.098,171.387,-826.660,223.633,35.645,0
1555612866.899,228.516,173.340,-998.535,225.098,-9.277,0
1555612866.903,230.957,175.293,-883.301,232.910,2.441,0
1555612866.907,226.074,175.781,-592.773,237.793,40.039,0
1555612866.909,224.121,176.270,-635.742,235.352,59.570,0
1555612866.913,226.562,177.246,-857.910,231.934,51.758,0
1555612866.917,224.609,176.758,-799.316,234.863,50.293,0
1555612866.921,221.680,174.805,-629.395,231.934,29.785,0
1555612866.925,223.633,177.246,-647.461,233.398,45.410,0
1555612866.929,227.539,179.688,-887.207,239.258,32.715,0
1555612866.933,231.445,177.246,-1000.000,231.445,22.461,0
1555612866.936,230.469,176.758,-855.469,219.727,-14.648,0
1555612866.940,236.328,178.711,-805.176,214.844,-1.465,0
1555612866.944,244.629,179.199,-974.609,217.773,54.199,0
1555612866.948,244.141,180.176,-947.754,222.168,13.672,0
1555612866.952,242.676,180.664,-754.395,221.680,15.625,0
1555612866.954,245.117,181.641,-646.973,229.980,27.832,0
1555612866.958,244.629,182.617,-727.539,239.258,7.324,0
1555612866.962,237.305,185.059,-832.520,239.746,19.043,0
1555612866.966,232.910,186.523,-791.016,236.816,48.340,0
1555612866.970,229.004,183.105,-671.875,235.352,51.758,0
1555612866.974,223.633,180.176,-770.020,239.746,21.484,0
1555612866.978,220.215,181.152,-940.430,235.352,42.969,0
1555612866.981,223.633,181.152,-918.945,227.539,37.109,0
1555612866.985,224.121,179.199,-929.688,224.121,25.879,0
1555612866.989,224.121,180.176,-826.660,226.074,35.156,0
1555612866.993,229.004,181.641,-712.402,236.816,65.918,0
1555612866.997,230.957,181.641,-799.316,235.840,127.930,0
1555612866.999,234.863,180.664,-823.730,232.910,60.059,0
1555612867.003,236.328,179.688,-673.828,237.305,4.883,0
1555612867.007,232.422,179.199,-695.312,240.234,15.137,0
1555612867.011,229.004,177.734,-910.645,240.723,28.320,0
1555612867.015,225.586,176.270,-851.074,242.676,28.809,0
1555612867.019,229.492,174.316,-731.445,244.141,3.906,0
1555612867.023,230.469,176.270,-845.703,239.746,13.672,0
1555612867.026,228.516,174.316,-963.867,242.188,-8.789,0
1555612867.030,233.887,170.410,-916.504,238.770,10.742,0
1555612867.034,238.281,169.434,-653.809,232.910,73.730,0
1555612867.038,235.840,168.945,-608.398,237.305,23.438,0
1555612867.042,232.422,168.457,-875.977,250.000,-14.160,0
1555612867.044,233.887,167.969,-955.566,249.512,-24.414,0
1555612867.048,233.398,166.504,-707.520,242.676,7.812,0
1555612867.052,231.445,166.016,-591.309,241.699,58.105,0
1555612867.056,228.027,164.062,-827.148,245.605,48.340,0
1555612867.060,228.516,161.133,-934.082,243.652,29.297,0
1555612867.064,231.934,159.668,-853.027,238.770,10.742,0
1555612867.068,226.562,157.227,-795.410,239.258,38.574,0
1555612867.071,227.539,159.180,-915.039,239.746,28.809,0
1555612867.075,228.516,163.086,-979.980,238.281,27.344,0
1555612867.079,224.121,164.551,-792.969,243.164,34.180,0
1555612867.083,231.445,164.551,-701.172,243.164,-9.277,0
1555612867.087,229.980,166.016,-793.457,240.723,-21.484,0
1555612867.089,228.516,164.551,-817.383,238.770,66.406,0
1555612867.093,232.910,161.621,-775.879,232.910,78.613,0
1555612867.097,229.980,163.086,-711.426,234.375,43.457,0
1555612867.101,226.074,162.109,-686.035,233.887,62.500,0
1555612867.105,223.633,160.645,-806.152,233.398,28.809,0
1555612867.109,229.004,161.133,-958.984,237.793,26.367,0
1555612867.113,231.934,158.691,-966.309,238.770,25.879,0
1555612867.116,229.492,157.715,-951.660,231.934,-51.758,0
1555612867.120,227.051,160.645,-892.090,232.910,-35.156,0
1555612867.124,229.004,162.109,-867.188,237.305,23.926,0
1555612867.128,233.398,161.621,-788.086,239.258,49.805,0
1555612867.132,227.539,160.645,-624.512,236.816,63.477,0
1555612867.134,228.027,159.668,-626.465,235.352,75.195,0
1555612867.138,230.469,158.691,-827.148,239.746,47.363,0
1555612867.142,224.609,157.227,-890.625,235.352,8.789,0
1555612867.146,225.098,156.250,-695.801,229.492,19.043,0
1555612867.150,225.586,157.227,-636.719,230.469,59.082,0
1555612867.154,227.051,157.715,-857.422,234.863,43.945,0
1555612867.158,229.980,159.180,-1000.000,231.934,6.348,0
1555612867.161,228.027,159.668,-829.590,228.027,38.086,0
1555612867.165,225.098,159.668,-634.277,229.980,32.227,0
1555612867.169,227.051,156.250,-847.656,235.840,28.320,0
1555612867.173,229.492,153.809,-977.051,238.281,24.902,0
1555612867.177,227.051,152.344,-854.980,234.863,-24.414,0
1555612867.194,228.516,149.902,-707.520,230.469,-32.227,0
1555612867.198,229.004,152.344,-800.293,227.539,14.160,0
1555612867.202,228.516,153.809,-962.402,227.051,26.367,0
1555612867.206,223.633,150.879,-807.129,223.633,-4.395,0
1555612867.210,220.703,151.367,-592.285,222.168,44.922,0
1555612867.214,222.656,154.297,-773.926,231.445,24.902,0
1555612867.218,220.703,156.250,-1000.000,221.680,-11.230,0
1555612867.221,217.773,152.344,-856.934,218.262,20.996,0
1555612867.225,211.426,149.414,-614.258,218.750,25.391,0
1555612867.229,207.520,146.973,-715.332,210.449,39.551,0
1555612867.233,206.543,140.137,-928.223,213.379,32.715,0
1555612867.237,203.613,139.648,-814.453,210.938,47.363,0
1555612867.239,207.520,139.160,-776.855,205.566,2.930,0
1555612867.243,205.078,135.254,-816.406,210.449,-19.043,0
1555612867.247,200.195,136.230,-810.059,209.961,41.504,0
1555612867.251,201.660,134.766,-820.312,205.078,52.246,0
1555612867.255,199.707,132.812,-718.750,208.008,43.457,0
1555612867.259,197.754,131.836,-713.379,207.520,30.273,0
1555612867.263,199.707,132.812,-867.676,207.520,55.176,0
1555612867.266,201.660,135.254,-942.383,201.172,20.508,0
1555612867.270,201.660,132.324,-866.699,195.312,-39.062,0
1555612867.274,196.777,126.953,-915.039,197.266,6.348,0
1555612867.278,195.801,125.977,-879.395,197.266,31.738,0
1555612867.282,196.777,125.488,-809.570,201.660,31.738,0
1555612867.284,198.730,123.047,-873.535,201.172,20.508,0
1555612867.288,198.242,122.070,-749.023,199.707,1.465,0
1555612867.292,192.871,121.582,-615.234,199.219,36.621,0
1555612867.296,199.219,122.559,-832.031,206.055,24.414,0
1555612867.300,202.148,124.023,-981.445,208.496,-7.812,0
1555612867.304,197.754,125.000,-848.145,204.590,28.320,0
1555612867.308,196.777,121.582,-789.551,203.125,-8.301,0
1555612867.311,194.336,120.117,-745.605,203.613,70.312,0
1555612867.315,194.824,120.117,-892.578,196.289,25.879,0
1555612867.319,194.336,113.770,-896.484,184.082,3.906,0
1555612867.323,192.383,116.699,-606.445,187.012,60.547,0
1555612867.327,192.871,118.164,-652.344,192.383,20.508,0
1555612867.344,193.359,113.770,-807.129,196.289,104.980,0
1555612867.348,193.848,113.770,-761.230,199.707,77.148,0
1555612867.352,191.895,111.328,-619.629,194.824,-16.113,0
1555612867.356,181.641,108.887,-644.043,191.895,17.578,0
1555612867.360,176.758,107.910,-889.648,195.312,-5.371,0
1555612867.364,180.176,107.422,-977.539,189.941,-13.672,0
1555612867.368,180.176,105.957,-819.824,186.035,21.973,0
1555612867.371,176.270,105.469,-727.539,183.105,15.625,0
1555612867.375,177.734,107.910,-920.898,184.570,-2.930,0
1555612867.379,177.734,104.492,-951.660,185.059,-8.301,0
1555612867.383,170.898,103.027,-668.945,181.152,34.668,0
1555612867.387,167.969,104.004,-587.402,183.105,55.176,0
1555612867.374,168.457,102.051,-774.414,185.547,28.320,0
1555612867.378,172.363,102.539,-853.027,180.664,-0.488,0
1555612867.382,176.758,100.586,-696.289,176.270,34.180,0
1555612867.386,176.270,98.145,-609.863,175.781,54.688,0
1555612867.390,173.828,99.121,-740.234,174.805,19.043,0
1555612867.394,176.270,99.121,-915.527,177.246,41.016,0
1555612867.398,178.711,97.168,-898.926,175.293,59.570,0
1555612867.401,172.363,94.238,-718.262,171.875,60.547,0
1555612867.405,169.922,92.285,-699.219,179.688,59.082,0
1555612867.409,177.734,94.238,-895.020,176.758,6.348,0
1555612867.413,177.734,91.797,-889.648,169.434,-14.160,0
1555612867.417,175.781,89.355,-852.051,172.852,19.043,0
1555612867.419,171.387,87.402,-893.066,169.434,50.293,0
1555612867.423,166.504,86.426,-808.594,171.387,39.062,0
1555612867.427,171.875,85.449,-855.469,171.875,36.133,0
1555612867.431,171.387,81.055,-770.508,166.992,40.039,0
1555612867.435,165.039,80.566,-671.387,165.039,-10.254,0
1555612867.439,164.551,81.543,-850.098,173.340,-44.922,0
1555612867.443,170.898,82.520,-984.375,170.898,15.625,0
1555612867.446,170.898,82.031,-977.539,156.250,109.863,0
1555612867.450,166.992,81.055,-868.164,154.785,18.555,0
1555612867.454,164.062,80.566,-713.867,162.109,-8.301,0
1555612867.458,159.180,78.613,-854.980,164.062,41.504,0
1555612867.462,160.156,76.172,-934.570,158.203,-11.230,0
1555612867.464,158.203,77.148,-765.137,152.344,-3.418,0
1555612867.468,152.344,78.125,-688.477,152.832,12.207,0
1555612867.472,164.551,78.613,-868.164,161.621,9.277,0
1555612867.476,167.969,78.125,-943.359,159.668,31.738,0
1555612867.480,155.762,72.754,-733.887,146.973,8.301,0
1555612867.484,153.809,73.242,-735.352,150.391,12.207,0
1555612867.488,150.391,75.195,-913.574,148.438,47.363,0
1555612867.491,150.391,72.266,-988.770,141.113,-27.832,0
1555612867.495,152.344,72.266,-786.133,144.043,15.137,0
1555612867.499,151.367,73.730,-564.453,142.578,77.637,0
1555612867.503,154.785,71.777,-791.992,146.973,10.742,0
1555612867.507,149.414,71.777,-987.793,148.438,10.254,0
1555612867.509,146.973,73.242,-806.152,139.648,53.223,0
1555612867.513,152.832,74.707,-636.719,142.578,41.504,0
1555612867.517,152.832,73.730,-765.137,143.066,23.438,0
1555612867.521,147.461,73.730,-962.402,144.531,42.480,0
1555612867.525,145.996,73.242,-877.930,146.973,57.129,0
1555612867.529,144.043,68.848,-776.855,139.648,42.969,0
1555612867.533,140.137,68.359,-912.598,135.742,-2.930,0
1555612867.536,135.742,67.383,-987.793,142.090,-2.441,0
1555612867.540,133.789,62.012,-903.809,139.648,20.508,0
1555612867.544,134.277,61.035,-774.414,135.254,17.090,0
1555612867.548,134.766,62.500,-686.523,144.531,51.758,0
1555612867.552,131.836,63.965,-813.477,144.043,-21.973,0
1555612867.569,132.812,63.965,-932.617,135.254,-40.527,0
1555612867.573,131.348,59.082,-797.852,128.418,58.594,0
1555612867.577,124.512,59.082,-653.320,122.070,82.031,0
1555612867.581,124.023,60.059,-705.078,120.605,33.691,0
1555612867.585,128.418,54.199,-842.285,120.117,31.738,0
1555612867.589,128.906,54.688,-917.969,124.512,63.477,0
1555612867.593,124.023,58.594,-974.609,125.488,4.883,0
1555612867.596,119.629,56.152,-882.324,122.070,-16.113,0
1555612867.600,118.652,55.176,-825.684,125.488,40.039,0
1555612867.604,123.047,56.152,-908.691,127.930,7.812,0
1555612867.608,122.559,55.176,-761.230,121.094,-8.301,0
1555612867.612,113.770,56.641,-647.949,110.840,14.648,0
1555612867.614,115.234,58.105,-791.504,115.723,33.691,0
1555612867.618,117.188,57.129,-904.785,115.723,42.969,0
1555612867.622,117.676,52.734,-799.316,113.770,-7.324,0
1555612867.626,114.746,49.316,-617.188,109.863,-14.648,0
1555612867.630,108.398,49.805,-737.793,102.539,-5.859,0
1555612867.634,108.887,49.805,-962.402,106.934,-25.879,0
1555612867.638,113.281,51.270,-933.594,104.492,-11.230,0
1555612867.641,111.328,52.246,-658.691,98.633,11.230,0
1555612867.645,111.328,54.688,-652.832,105.469,46.387,0
1555612867.649,113.770,54.688,-957.520,105.469,18.555,0
1555612867.653,112.305,53.223,-910.156,104.492,-23.438,0
1555612867.657,111.816,53.223,-607.422,107.422,-7.812,0
1555612867.659,108.398,50.293,-633.789,105.469,20.508,0
1555612867.663,107.910,46.387,-858.398,95.215,15.625,0
1555612867.667,99.609,43.945,-830.566,94.238,-1.953,0
1555612867.671,100.098,40.527,-626.465,103.516,4.395,0
1555612867.675,114.258,40.039,-600.098,102.051,35.156,0
1555612867.679,96.680,42.969,-840.332,89.355,46.875,0
1555612867.683,88.867,43.457,-1000.000,83.008,-12.695,0
1555612867.686,99.121,42.480,-769.531,87.402,10.254,0
1555612867.690,91.309,38.574,-682.129,81.055,27.344,0
1555612867.694,87.891,38.574,-952.637,82.031,-3.418,0
1555612867.698,94.238,40.527,-863.770,88.867,26.367,0
1555612867.702,96.191,38.086,-732.910,91.309,16.113,0
1555612867.704,93.750,37.109,-622.559,90.332,51.270,0
1555612867.708,92.285,37.598,-614.258,84.473,36.621,0
1555612867.712,88.379,32.227,-722.168,87.402,34.180,0
1555612867.716,83.984,29.297,-727.539,88.379,33.203,0
1555612867.720,83.496,27.832,-623.047,77.637,23.926,0
1555612867.724,82.031,27.832,-691.895,79.590,9.766,0
1555612867.728,77.637,25.879,-815.430,71.777,39.551,0
1555612867.731,84.961,23.926,-726.074,66.406,90.820,0
1555612867.735,93.750,23.438,-778.320,66.406,85.449,0
1555612867.739,88.379,23.438,-679.199,58.594,72.754,0
1555612867.743,84.473,22.461,-615.234,63.965,21.973,0
1555612867.747,85.938,19.043,-757.812,75.684,51.758,0
1555612867.764,80.566,14.160,-647.949,64.453,76.172,0
1555612867.768,70.801,11.230,-448.242,55.176,42.480,0
1555612867.772,66.895,11.719,-551.270,62.012,23.438,0
1555612867.776,65.918,10.742,-887.695,63.965,-35.645,0
1555612867.780,62.988,7.812,-794.434,59.570,-8.789,0
1555612867.784,64.941,5.859,-600.586,61.523,5.371,0
1555612867.788,62.500,4.395,-636.230,63.965,41.992,0
1555612867.791,64.453,5.859,-833.496,62.012,50.781,0
1555612867.795,66.406,8.301,-925.781,63.477,5.371,0
1555612867.799,61.035,5.859,-565.918,66.895,33.203,0
1555612867.803,62.988,4.883,-423.828,65.430,30.762,0
1555612867.807,62.500,5.371,-662.109,66.895,19.531,0
1555612867.794,61.035,5.859,-763.184,66.406,-7.812,0
1555612867.798,61.523,4.883,-576.660,64.941,-38.574,0
1555612867.802,54.199,-0.977,-433.594,57.129,19.531,0
1555612867.806,48.828,0.000,-614.746,57.617,30.762,0
1555612867.810,52.734,3.418,-741.211,68.359,9.766,0
1555612867.814,56.152,1.465,-640.625,58.105,48.340,0
1555612867.818,56.152,-2.930,-582.031,44.922,67.383,0
1555612867.821,54.199,-3.418,-689.941,47.363,12.207,0
1555612867.825,54.688,0.488,-791.016,50.293,-52.734,0
1555612867.829,57.129,-1.465,-600.586,51.270,9.277,0
1555612867.833,57.617,-5.371,-433.594,51.270,63.965,0
1555612867.837,52.734,-1.953,-664.551,53.711,77.637,0
1555612867.839,50.293,1.465,-744.629,51.270,70.801,0
1555612867.843,53.223,0.488,-617.676,51.270,3.906,0
1555612867.847,55.176,-3.418,-517.578,56.152,8.301,0
1555612867.851,50.781,-6.348,-481.445,47.363,6.348,0
1555612867.855,46.387,-6.348,-541.016,45.898,29.297,0
1555612867.859,54.688,-5.859,-658.203,50.293,46.387,0
1555612867.863,59.570,-5.371,-715.820,45.410,20.996,0
1555612867.866,63.477,-3.418,-675.293,43.945,0.977,0
1555612867.870,67.871,1.953,-589.844,50.293,29.785,0
1555612867.874,65.918,1.465,-674.316,52.246,10.742,0
1555612867.878,60.547,-3.418,-601.562,53.711,-28.809,0
1555612867.882,62.988,0.488,-359.863,62.012,25.391,0
1555612867.884,64.453,3.418,-328.125,60.547,53.223,0
1555612867.888,65.430,1.465,-538.086,61.035,17.090,0
1555612867.892,71.289,2.930,-614.258,66.895,-20.508,0
1555612867.896,68.359,2.930,-436.523,63.965,-37.598,0
1555612867.900,60.059,3.906,-381.836,63.965,-46.875,0
1555612867.904,61.523,2.930,-630.371,73.242,-25.391,0
1555612867.908,72.266,-0.488,-901.367,64.941,-6.348,0
1555612867.911,68.848,3.906,-703.125,58.105,-44.922,0
1555612867.915,59.570,5.859,-314.453,62.988,-6.836,0
1555612867.919,65.430,3.906,-429.199,61.035,56.641,0
1555612867.923,67.871,0.977,-620.117,63.477,-4.395,0
1555612867.927,68.359,0.488,-412.598,64.941,56.641,0
1555612867.944,71.289,1.465,-245.117,64.453,94.727,0
1555612867.948,67.871,2.441,-386.719,69.336,47.363,0
1555612867.952,64.941,6.348,-582.031,64.941,24.902,0
1555612867.956,68.848,6.836,-483.887,63.477,-24.414,0
1555612867.960,70.312,6.348,-276.855,64.941,-24.414,0
1555612867.964,69.824,9.277,-470.215,56.641,16.113,0
1555612867.968,70.801,7.812,-770.508,60.059,-2.441,0
1555612867.971,69.336,4.883,-536.621,59.082,3.418,0
1555612867.975,66.895,3.906,-211.426,62.500,61.523,0
1555612867.979,68.848,6.348,-333.984,62.988,40.039,0
1555612867.983,71.777,7.812,-570.801,64.941,7.324,0
1555612867.987,68.848,6.836,-412.598,67.383,84.961,0
1555612867.989,67.871,4.395,-267.578,56.152,51.270,0
1555612867.993,69.824,0.488,-290.527,55.176,-13.184,1
1555612867.997,67.871,1.953,-434.082,58.105,46.875,0
1555612868.001,67.383,4.883,-529.297,55.664,61.035,0
1555612868.005,71.289,1.465,-392.578,56.641,5.859,0
1555612868.009,64.453,0.000,-333.984,56.152,11.230,0
1555612868.013,62.988,1.465,-439.941,60.059,68.848,0
1555612868.016,66.406,3.418,-562.012,63.477,22.949,0
1555612868.020,60.547,4.395,-459.473,61.523,-5.859,0
1555612868.024,60.059,4.883,-494.141,55.664,6.348,0
1555612868.028,55.664,2.930,-460.449,59.570,5.859,0
1555612868.032,53.711,2.930,-428.711,65.430,18.555,0
1555612868.034,60.547,3.906,-458.984,57.617,72.754,0
1555612868.038,63.965,3.418,-278.809,54.688,44.922,0
1555612868.042,59.082,4.883,-189.453,53.711,0.000,0
1555612868.046,50.293,2.441,-332.520,53.223,3.906,0
1555612868.050,52.734,-1.953,-488.281,49.805,0.488,0
1555612868.054,58.105,1.465,-456.055,50.293,-8.789,0
1555612868.058,57.129,5.371,-352.539,59.570,31.250,0
1555612868.061,56.152,4.883,-372.559,62.012,51.270,0
1555612868.065,57.617,2.930,-632.812,58.594,-14.648,0
1555612868.069,56.152,1.953,-633.789,57.617,8.789,0
1555612868.073,49.805,3.418,-208.984,57.617,45.898,0
1555612868.077,47.852,-0.977,-222.656,54.688,-7.324,0
1555612868.079,50.781,-4.395,-444.824,55.664,13.672,0
1555612868.083,52.734,-3.418,-378.418,53.711,25.391,0
1555612868.087,51.758,-5.371,-123.047,50.781,44.922,0
1555612868.091,53.223,-3.906,-153.809,48.828,39.062,0
1555612868.095,53.223,-3.906,-426.270,44.922,2.441,0
1555612868.099,57.617,-5.371,-527.832,47.852,14.648,0
1555612868.103,56.641,-3.418,-336.426,45.898,20.020,0
1555612868.106,50.293,0.000,-184.570,49.805,13.184,0
1555612868.110,58.594,4.395,-542.480,56.152,37.598,0
1555612868.114,60.547,4.395,-616.211,53.711,36.133,0
1555612868.118,54.688,2.441,-205.078,45.898,37.598,0
1555612868.122,53.223,2.441,-133.301,46.387,41.992,0
1555612868.124,50.781,1.953,-317.383,53.223,19.531,0
1555612868.128,48.828,0.488,-354.980,53.223,49.316,0
1555612868.132,51.758,-3.906,-241.699,44.922,37.109,0
1555612868.136,57.129,-3.418,-211.426,41.504,-19.531,0
1555612868.140,55.176,-0.488,-275.879,43.457,-0.488,0
1555612868.144,54.688,-1.953,-478.516,45.898,19.531,0
1555612868.148,58.105,-3.906,-459.473,49.805,3.906,0
1555612868.151,54.688,-6.836,-326.660,46.875,12.695,0
1555612868.155,54.199,-5.371,-420.410,41.504,46.387,0
1555612868.159,56.152,-5.371,-383.301,42.969,32.715,0
1555612868.163,56.152,-9.277,-298.828,48.828,38.086,0
1555612868.167,55.176,-10.254,-195.312,44.434,76.172,0
1555612868.169,52.734,-10.254,-147.949,36.621,48.828,0
1555612868.173,49.316,-11.719,-286.621,49.805,-42.480,0
1555612868.177,48.828,-10.254,-452.637,55.176,-75.684,0
1555612868.181,55.176,-10.742,-316.406,48.340,2.930,0
1555612868.185,56.152,-10.254,-159.668,41.992,0.488,0
1555612868.189,50.781,-8.789,-312.988,41.504,2.930,0
1555612868.193,48.828,-8.301,-489.258,42.480,54.688,0
1555612868.196,52.246,-10.254,-573.730,40.527,40.039,0
1555612868.200,47.852,-12.695,-362.793,41.016,25.391,0
1555612868.204,41.016,-11.719,-126.953,39.551,38.574,0
1555612868.208,47.363,-12.695,-351.074,41.016,33.203,0
1555612868.212,51.758,-14.160,-402.344,34.180,25.391,0
1555612868.214,47.363,-13.672,-158.691,25.391,13.672,0
1555612868.218,44.434,-13.184,-74.707,33.691,31.738,0
1555612868.222,50.781,-9.277,-353.027,39.062,14.648,0
1555612868.226,47.852,-10.254,-529.297,35.156,-22.949,0
1555612868.230,42.969,-13.184,-261.719,26.855,1.465,0
1555612868.234,46.875,-16.113,-153.809,24.902,42.480,0
1555612868.238,45.898,-15.137,-434.082,28.809,88.379,0
1555612868.241,45.410,-11.230,-687.012,26.367,35.156,0
1555612868.245,48.828,-14.648,-426.758,29.785,-49.316,0
1555612868.249,49.316,-16.602,-129.395,29.297,-21.973,0
1555612868.253,41.504,-14.160,-271.484,32.227,13.184,0
1555612868.257,40.527,-14.648,-453.125,37.109,9.766,0
1555612868.260,44.434,-13.672,-309.570,34.668,10.742,0
1555612868.264,42.969,-12.207,-69.824,33.691,77.148,0
1555612868.268,43.945,-10.742,-193.359,35.645,30.762,0
1555612868.272,39.062,-13.184,-393.066,38.086,1.953,0
1555612868.276,35.645,-16.113,-312.500,29.297,54.199,0
1555612868.280,39.551,-16.602,-267.578,22.949,3.906,0
1555612868.284,42.969,-15.625,-515.137,22.949,-24.902,0
1555612868.287,43.457,-12.207,-624.023,25.391,3.906,0
1555612868.291,43.945,-11.719,-357.910,32.227,54.199,0
1555612868.295,48.340,-9.766,-241.699,38.574,36.621,0
1555612868.299,44.922,-9.766,-241.699,40.039,-11.719,0
1555612868.303,36.621,-12.695,-324.707,33.691,-45.898,0
1555612868.320,40.527,-15.137,-404.297,30.762,-21.484,0
1555612868.324,37.109,-18.555,-342.285,29.297,18.066,0
1555612868.328,30.762,-21.484,-212.891,24.902,35.645,0
1555612868.332,30.762,-20.996,-226.562,34.180,21.973,0
1555612868.336,31.250,-16.602,-342.773,33.203,32.715,0
1555612868.340,34.668,-18.555,-459.473,20.508,82.520,0
1555612868.344,33.203,-21.973,-477.539,23.438,39.551,0
1555612868.347,31.738,-20.996,-232.910,27.344,38.574,0
1555612868.351,28.320,-22.461,-344.238,32.715,70.801,0
1555612868.355,30.762,-22.949,-555.176,30.273,18.066,0
1555612868.359,31.738,-23.926,-345.215,20.020,-14.648,0
1555612868.363,25.391,-25.879,-167.480,18.066,3.418,0
1555612868.365,27.344,-22.461,-281.738,20.996,52.246,0
1555612868.369,27.344,-20.996,-470.215,19.531,24.902,0
1555612868.373,24.414,-24.414,-342.285,16.113,10.254,0
1555612868.377,28.320,-26.855,-145.996,20.508,27.832,0
1555612868.381,27.832,-28.809,-280.762,22.461,21.484,0
1555612868.385,27.832,-26.855,-519.043,22.461,46.875,0
1555612868.389,25.879,-26.367,-520.020,18.066,45.410,0
1555612868.392,24.902,-27.344,-261.719,12.695,73.242,0
1555612868.396,29.785,-26.367,-281.250,19.531,20.020,0
1555612868.400,28.320,-24.414,-677.246,20.020,30.273,0
1555612868.404,29.785,-22.949,-577.148,17.578,60.547,0
1555612868.408,34.668,-24.902,-323.242,20.508,-47.852,0
1555612868.410,32.227,-26.367,-436.523,19.043,-41.992,0
1555612868.414,26.855,-27.344,-502.930,17.090,20.996,0
1555612868.418,29.785,-25.879,-443.848,20.508,11.230,0
1555612868.422,31.738,-25.879,-224.121,21.973,47.363,0
1555612868.426,32.715,-26.367,-206.543,20.020,50.781,0
1555612868.430,32.715,-22.461,-487.793,14.160,23.438,0
1555612868.434,34.668,-17.578,-627.441,16.602,39.062,0
1555612868.437,39.062,-19.043,-398.926,20.996,13.672,0
1555612868.441,42.480,-24.414,-371.582,20.020,-17.090,0
1555612868.445,38.086,-23.926,-643.066,18.066,-7.812,0
1555612868.449,34.668,-21.973,-558.105,22.949,-11.230,0
1555612868.453,40.039,-24.414,-452.148,18.555,-11.719,0
1555612868.454,36.621,-28.320,-365.234,6.348,8.301,0
1555612868.458,34.180,-28.320,-326.172,10.254,-15.137,0
1555612868.462,35.156,-24.902,-539.062,19.531,-46.875,0
1555612868.466,38.574,-22.949,-585.449,23.926,-6.836,0
1555612868.470,42.480,-24.414,-355.469,22.949,19.043,0
1555612868.474,37.109,-27.344,-355.469,20.020,27.832,0
1555612868.478,35.645,-24.902,-509.277,18.555,42.480,0
1555612868.481,40.527,-22.461,-497.070,18.555,28.320,0
1555612868.485,40.039,-25.879,-583.496,18.555,-0.488,0
1555612868.489,41.016,-30.273,-484.375,11.230,-10.254,0
1555612868.493,39.062,-29.785,-291.992,12.695,62.012,0
1555612868.497,39.551,-28.320,-467.285,18.066,65.918,0
1555612868.499,45.898,-29.785,-469.727,21.484,-2.930,0
1555612868.503,50.781,-28.320,-260.254,21.484,-21.484,0
1555612868.507,50.293,-23.926,-248.535,22.461,49.805,0
1555612868.511,50.293,-20.996,-432.617,30.273,101.074,0
1555612868.515,59.082,-20.020,-464.355,37.109,45.898,0
1555612868.519,58.105,-20.996,-334.473,36.621,30.762,0
1555612868.523,46.387,-19.043,-429.688,36.621,5.859,0
1555612868.526,43.457,-17.090,-746.582,36.621,-19.043,0
1555612868.530,41.016,-19.531,-803.223,28.320,-3.418,0
1555612868.534,37.598,-19.531,-362.305,25.391,26.367,0
1555612868.538,41.992,-18.066,-208.008,28.320,8.301,0
