timestamps,TP9,AF7,AF8,TP10,Marker0
1581351676.656,18.555,16.602,34.180,15.625,0
1581351676.660,11.230,15.137,37.598,12.207,0
1581351676.664,5.371,20.508,33.203,7.324,0
1581351676.668,9.277,15.137,34.180,3.906,0
1581351676.672,13.184,2.441,35.645,9.277,0
1581351676.676,13.184,3.906,31.250,13.184,0
1581351676.680,7.812,17.090,26.855,16.113,0
1581351676.683,13.184,24.902,26.367,12.207,0
1581351676.687,26.855,20.508,26.367,14.160,0
1581351676.691,31.738,23.926,27.344,15.137,0
1581351676.695,25.391,33.691,27.832,15.625,0
1581351676.699,20.020,29.785,31.738,22.461,0
1581351676.716,37.109,34.668,33.691,18.555,0
1581351676.720,32.715,28.320,30.273,8.789,0
1581351676.724,10.254,16.113,38.574,15.625,0
1581351676.728,8.789,20.996,36.133,21.484,0
1581351676.732,24.902,19.531,30.273,22.949,0
1581351676.736,45.410,19.531,32.227,26.855,0
1581351676.740,34.180,10.254,30.762,25.879,0
1581351676.743,24.902,8.789,33.691,25.879,0
1581351676.747,32.715,6.836,34.668,31.738,0
1581351676.751,33.691,10.254,33.203,36.621,0
1581351676.755,34.668,32.227,35.156,32.227,0
1581351676.759,23.926,34.668,37.109,26.855,0
1581351676.761,17.578,29.297,33.203,26.855,0
1581351676.765,28.320,25.879,30.273,23.926,0
1581351676.769,32.715,22.949,34.668,23.926,0
1581351676.773,21.973,23.926,35.645,20.996,0
1581351676.777,21.484,32.715,34.668,16.602,0
1581351676.781,37.109,32.227,37.109,25.391,0
1581351676.785,41.504,22.949,32.715,29.297,0
1581351676.788,36.621,26.367,29.297,22.461,0
1581351676.792,26.855,30.762,32.715,16.113,0
1581351676.796,34.180,31.250,32.715,17.090,0
1581351676.800,35.645,27.832,28.320,20.996,0
1581351676.804,20.996,21.973,30.762,20.996,0
1581351676.806,15.137,25.391,31.738,14.160,0
1581351676.810,25.879,29.785,35.645,13.672,0
1581351676.814,37.598,26.855,40.039,22.461,0
1581351676.818,33.203,22.461,33.203,32.715,0
1581351676.822,18.555,14.648,31.738,22.949,0
1581351676.826,15.137,4.883,40.039,8.301,0
1581351676.830,31.250,17.090,38.574,13.672,0
1581351676.833,36.133,32.227,33.691,22.949,0
1581351676.837,19.043,29.785,25.391,8.789,0
1581351676.841,13.184,15.625,22.949,-2.441,0
1581351676.845,27.832,19.531,29.785,12.695,0
1581351676.849,29.785,20.508,25.879,14.648,0
1581351676.851,16.113,8.301,22.949,13.672,0
1581351676.855,15.137,15.137,27.832,15.137,0
1581351676.859,23.926,22.461,32.715,25.391,0
1581351676.863,27.832,26.367,35.156,35.645,0
1581351676.867,19.043,18.066,34.180,26.367,0
1581351676.871,9.766,15.137,30.762,24.902,0
1581351676.875,16.602,20.996,30.273,28.809,0
1581351676.878,29.785,13.672,35.156,27.832,0
1581351676.882,30.273,7.812,35.645,25.391,0
1581351676.886,16.602,19.531,30.273,20.020,0
1581351676.890,18.066,31.738,29.785,18.066,0
1581351676.894,29.785,30.273,28.320,22.949,0
1581351676.896,34.180,31.738,29.297,27.832,0
1581351676.900,17.090,33.203,31.738,22.461,0
1581351676.904,1.465,12.695,27.344,3.906,0
1581351676.908,9.277,-0.977,27.832,4.395,0
1581351676.912,15.625,11.719,26.855,6.836,0
1581351676.916,13.672,14.160,24.902,0.000,0
1581351676.920,8.301,17.578,27.344,3.906,0
1581351676.923,12.207,19.531,23.438,4.395,0
1581351676.927,20.508,2.930,23.926,3.418,0
1581351676.931,19.043,13.184,30.762,2.441,0
1581351676.935,11.230,34.668,36.621,0.000,0
1581351676.939,14.648,26.367,40.039,3.418,0
1581351676.941,28.320,24.414,34.180,2.441,0
1581351676.945,32.227,28.809,25.879,-0.977,0
1581351676.949,27.832,27.344,27.832,1.465,0
1581351676.953,28.809,12.695,28.809,0.000,0
1581351676.957,30.273,5.371,19.531,-7.812,0
1581351676.961,26.855,20.996,19.043,-10.742,0
1581351676.965,23.926,21.973,24.414,-2.441,0
1581351676.968,18.555,14.160,23.438,6.348,0
1581351676.972,23.438,20.996,21.484,10.742,0
1581351676.976,31.738,9.277,22.949,17.578,0
1581351676.980,29.297,7.812,28.320,23.926,0
1581351676.984,34.180,31.738,34.180,37.598,0
1581351676.986,35.645,31.250,32.715,37.109,0
1581351676.990,35.156,29.785,22.461,27.832,0
1581351676.994,31.250,37.109,20.508,28.809,0
1581351676.998,23.438,38.086,31.250,32.227,0
1581351677.002,31.738,28.809,37.109,38.086,0
1581351677.006,42.969,23.438,33.203,41.504,0
1581351677.010,30.762,22.461,25.391,20.996,0
1581351677.013,19.043,25.391,27.344,7.324,0
1581351677.017,20.508,21.973,31.250,10.742,0
1581351677.021,24.902,7.812,21.484,8.301,0
1581351677.025,32.227,15.137,21.484,5.371,0
1581351677.029,22.461,37.109,31.738,2.441,0
1581351677.047,11.719,31.250,29.785,-2.930,0
1581351677.051,19.531,19.043,25.879,-11.230,0
1581351677.055,26.367,24.414,20.996,-10.742,0
1581351677.059,24.902,20.508,21.484,-9.277,0
1581351677.063,17.578,15.625,26.855,-6.348,0
1581351677.067,20.508,18.555,25.391,3.418,0
1581351677.071,32.227,21.973,25.879,6.836,0
1581351677.074,32.227,21.484,28.320,11.719,0
1581351677.078,23.438,20.508,27.832,12.207,0
1581351677.082,26.855,22.461,33.203,17.578,0
1581351677.086,39.551,14.648,32.715,31.250,0
1581351677.090,34.180,15.137,21.973,18.555,0
1581351677.092,15.625,20.996,19.043,8.301,0
1581351677.096,11.719,13.672,28.320,11.230,0
1581351677.100,20.020,7.324,35.645,11.719,0
1581351677.104,22.461,5.859,39.551,15.137,0
1581351677.108,11.719,21.484,40.039,5.371,0
1581351677.112,0.488,35.645,37.109,-6.348,0
1581351677.116,7.324,28.809,34.668,-1.953,0
1581351677.119,18.066,18.555,33.203,2.441,0
1581351677.123,16.113,18.066,33.691,3.906,0
1581351677.127,9.277,14.160,32.715,2.441,0
1581351677.131,14.648,18.066,25.391,0.000,0
1581351677.135,25.879,30.273,27.344,2.441,0
1581351677.137,28.809,28.320,39.551,3.906,0
1581351677.141,18.066,26.855,35.645,5.371,0
1581351677.145,10.254,24.414,24.902,-2.441,0
1581351677.149,17.578,13.184,23.926,-1.953,0
1581351677.153,23.926,13.184,28.809,8.301,0
1581351677.157,20.508,26.367,39.551,17.578,0
1581351677.161,20.020,36.621,43.457,28.809,0
1581351677.164,26.855,28.809,38.086,27.344,0
1581351677.168,29.297,11.719,35.156,19.043,0
1581351677.172,20.996,18.066,35.645,17.090,0
1581351677.176,10.742,18.555,33.691,13.184,0
1581351677.180,14.648,14.648,30.762,12.207,0
1581351677.182,24.414,29.297,31.738,12.695,0
1581351677.186,20.508,23.438,34.180,8.789,0
1581351677.190,6.348,11.230,26.367,3.418,0
1581351677.194,6.836,22.461,27.832,8.789,0
1581351677.198,14.160,20.996,24.902,12.207,0
1581351677.202,11.719,14.160,19.531,1.465,0
1581351677.206,3.418,14.160,29.785,-4.395,0
1581351677.209,-2.441,6.348,34.180,-6.348,0
1581351677.213,7.324,10.254,29.297,1.465,0
1581351677.217,14.648,17.090,24.414,10.742,0
1581351677.221,10.254,9.277,27.344,12.207,0
1581351677.225,6.836,13.672,33.203,15.625,0
1581351677.227,14.648,24.414,30.273,19.531,0
1581351677.231,20.508,21.484,27.344,17.578,0
1581351677.235,17.090,16.602,29.785,16.602,0
1581351677.239,7.324,25.391,30.762,17.578,0
1581351677.243,7.324,37.598,26.855,19.043,0
1581351677.247,18.555,23.438,23.438,12.207,0
1581351677.251,20.020,21.973,21.973,5.371,0
1581351677.254,6.836,26.367,22.461,4.395,0
1581351677.258,3.418,26.367,18.066,0.488,0
1581351677.262,25.391,30.273,12.207,10.742,0
1581351677.266,32.227,27.832,16.113,20.508,0
1581351677.270,22.461,28.320,27.344,22.949,0
1581351677.272,22.461,15.137,31.738,24.414,0
1581351677.276,32.227,7.812,37.109,21.973,0
1581351677.280,33.691,15.137,39.551,23.926,0
1581351677.284,22.949,11.719,38.086,23.438,0
1581351677.288,14.648,15.137,34.668,17.090,0
1581351677.292,17.578,31.250,28.320,20.508,0
1581351677.296,25.879,37.598,33.203,19.043,0
1581351677.299,17.090,32.715,34.668,3.906,0
1581351677.303,7.324,20.996,25.879,-4.883,0
1581351677.307,10.254,10.254,26.855,1.465,0
1581351677.311,16.113,12.207,34.180,7.812,0
1581351677.315,14.160,15.625,32.227,6.836,0
1581351677.317,1.465,18.555,27.344,0.000,0
1581351677.321,0.000,15.137,24.414,0.977,0
1581351677.325,12.207,24.902,16.602,4.883,0
1581351677.329,16.602,34.180,19.043,1.953,0
1581351677.333,6.836,30.762,26.367,3.418,0
1581351677.337,4.395,21.484,27.344,7.812,0
1581351677.341,11.230,16.602,25.391,12.695,0
1581351677.344,16.113,21.973,23.438,15.137,0
1581351677.348,13.184,24.414,24.902,17.090,0
1581351677.352,5.859,21.484,24.414,14.160,0
1581351677.356,9.277,21.973,26.367,13.184,0
1581351677.360,17.578,30.273,26.855,18.066,0
1581351677.362,9.766,28.809,21.484,15.137,0
1581351677.366,0.488,11.719,23.438,9.766,0
1581351677.370,6.348,2.930,33.203,12.695,0
1581351677.374,17.090,11.719,35.645,18.066,0
1581351677.378,16.113,18.066,32.227,21.484,0
1581351677.382,6.348,20.996,32.715,16.602,0
1581351677.386,9.277,8.789,35.645,9.766,0
1581351677.389,17.578,10.742,42.969,16.113,0
1581351677.393,16.113,21.484,43.945,19.043,0
1581351677.397,-2.930,15.625,35.156,5.371,0
1581351677.401,-15.137,31.738,30.273,-0.977,0
1581351677.405,-2.930,29.785,29.785,0.977,0
1581351677.407,8.301,27.344,29.297,4.883,0
1581351677.411,5.371,38.574,27.344,6.836,0
1581351677.415,4.395,37.598,23.438,3.906,0
1581351677.419,11.719,27.832,20.020,6.348,0
1581351677.423,23.926,23.438,23.926,19.531,0
1581351677.427,31.250,15.137,34.668,18.555,0
1581351677.431,24.414,12.207,36.621,11.230,0
1581351677.434,18.066,22.949,30.762,8.301,0
1581351677.438,22.461,33.691,27.344,7.324,0
1581351677.442,23.438,34.668,31.250,10.254,0
1581351677.446,17.090,26.367,30.762,4.883,0
1581351677.450,16.113,19.531,26.855,7.812,0
1581351677.467,24.902,17.578,28.809,12.207,0
1581351677.471,30.762,21.484,25.879,10.742,0
1581351677.475,26.367,15.625,23.438,15.137,0
1581351677.479,27.832,15.137,24.902,18.555,0
1581351677.483,28.320,23.438,22.461,21.973,0
1581351677.487,27.344,29.785,26.367,19.043,0
1581351677.491,27.344,39.551,30.762,18.066,0
1581351677.494,12.207,34.180,19.531,15.625,0
1581351677.498,9.277,17.578,15.625,10.254,0
1581351677.502,11.719,20.996,27.344,9.766,0
1581351677.506,10.254,30.762,30.273,7.324,0
1581351677.510,3.906,21.973,27.344,8.301,0
1581351677.512,6.836,19.531,27.344,7.324,0
1581351677.516,30.273,30.273,22.949,4.883,0
1581351677.520,30.273,26.367,23.926,9.766,0
1581351677.524,19.531,19.531,30.762,11.719,0
1581351677.528,17.090,21.484,30.762,6.836,0
1581351677.532,24.902,22.461,25.879,1.953,0
1581351677.536,32.715,18.555,27.344,0.977,0
1581351677.539,25.391,14.648,26.367,4.883,0
1581351677.543,18.555,21.973,26.367,8.301,0
1581351677.547,25.391,29.785,32.227,5.371,0
1581351677.551,41.016,23.926,29.785,4.883,0
1581351677.555,39.551,20.508,26.367,10.254,0
1581351677.557,29.785,21.484,28.320,12.695,0
1581351677.561,30.273,24.902,31.250,11.230,0
1581351677.565,34.180,28.809,32.715,10.742,0
1581351677.569,36.133,28.320,39.551,17.090,0
1581351677.573,30.273,20.996,29.297,14.648,0
1581351677.577,28.320,15.137,23.438,9.766,0
1581351677.581,38.574,10.742,37.109,16.113,0
1581351677.584,40.039,14.648,39.062,17.090,0
1581351677.588,25.391,22.949,38.086,6.348,0
1581351677.592,26.367,20.020,36.621,6.836,0
1581351677.596,33.203,11.719,28.320,16.113,0
1581351677.600,21.973,4.883,21.973,15.137,0
1581351677.601,11.230,12.695,22.949,13.672,0
1581351677.605,8.301,25.391,25.391,8.301,0
1581351677.609,23.438,24.414,25.879,8.789,0
1581351677.613,25.391,24.902,23.926,19.043,0
1581351677.617,12.695,27.344,22.949,18.555,0
1581351677.621,15.625,21.484,24.902,7.812,0
1581351677.625,21.973,21.973,23.926,4.883,0
1581351677.628,20.996,17.578,21.484,7.324,0
1581351677.632,24.414,10.742,17.090,1.953,0
1581351677.636,21.973,11.719,19.531,2.441,0
1581351677.640,20.996,7.324,29.785,15.625,0
1581351677.644,31.738,16.113,31.250,19.531,0
1581351677.646,37.109,21.973,22.461,19.531,0
1581351677.650,30.273,14.160,22.461,18.066,0
1581351677.654,22.461,14.160,30.762,12.207,0
1581351677.658,31.250,23.438,28.320,6.836,0
1581351677.662,34.668,26.855,24.414,7.324,0
1581351677.666,24.902,21.973,26.367,7.812,0
1581351677.670,19.531,22.461,26.855,4.395,0
1581351677.673,21.973,26.367,32.227,-0.977,0
1581351677.677,31.738,21.973,40.039,6.836,0
1581351677.681,19.043,17.578,34.180,12.207,0
1581351677.685,5.859,24.414,25.879,4.395,0
1581351677.689,10.254,20.020,28.809,3.418,0
1581351677.691,18.066,8.789,26.855,8.301,0
1581351677.695,20.996,5.859,18.555,7.812,0
1581351677.699,19.043,14.160,23.438,12.207,0
1581351677.703,22.949,16.113,36.133,18.066,0
1581351677.707,25.879,14.648,39.062,19.043,0
1581351677.711,24.902,22.461,36.621,15.625,0
1581351677.715,22.949,26.855,37.598,9.766,0
1581351677.718,19.531,33.691,31.250,5.859,0
1581351677.722,26.367,21.484,23.438,6.348,0
1581351677.726,37.109,9.766,29.785,12.695,0
1581351677.730,20.508,18.066,29.785,3.418,0
1581351677.734,4.883,26.855,22.461,1.953,0
1581351677.736,14.160,27.832,22.461,10.254,0
1581351677.740,22.461,20.996,21.973,4.395,0
1581351677.744,19.531,29.297,17.578,6.348,0
1581351677.748,15.625,32.227,24.414,14.160,0
1581351677.752,23.438,22.949,31.738,19.531,0
1581351677.756,32.715,-5.859,26.367,26.855,0
1581351677.760,22.461,-9.766,20.996,22.949,0
1581351677.763,8.789,23.926,27.344,15.137,0
1581351677.767,3.906,37.109,37.598,18.555,0
1581351677.771,3.906,35.156,39.062,23.926,1
1581351677.775,13.672,38.086,36.133,25.879,0
1581351677.779,10.742,33.691,30.762,22.461,0
1581351677.796,5.371,35.156,32.227,26.855,0
1581351677.800,13.672,40.527,38.086,34.180,0
1581351677.804,16.602,32.227,33.203,31.250,0
1581351677.808,8.789,25.879,31.250,21.484,0
1581351677.812,5.371,16.113,34.668,21.973,0
1581351677.816,14.648,5.859,32.715,26.367,0
1581351677.820,20.020,12.695,28.809,21.484,0
1581351677.823,18.555,27.344,26.367,21.484,0
1581351677.827,14.160,32.227,27.832,16.602,0
1581351677.831,15.625,32.227,25.879,10.254,0
1581351677.835,28.320,25.879,23.926,18.066,0
1581351677.839,30.273,21.484,27.832,23.926,0
1581351677.841,18.066,20.996,26.855,18.555,0
1581351677.845,18.555,10.742,29.297,18.066,0
1581351677.849,33.203,14.648,36.621,20.020,0
1581351677.853,41.016,18.555,35.645,22.461,0
1581351677.857,29.785,12.207,32.227,25.391,0
1581351677.861,20.996,20.996,24.414,19.531,0
1581351677.865,30.273,29.785,18.555,14.648,0
1581351677.868,34.180,31.738,23.926,17.578,0
1581351677.872,35.645,32.227,34.668,21.484,0
1581351677.876,28.320,26.367,32.715,11.230,0
1581351677.880,23.926,20.508,29.785,5.859,0
1581351677.884,34.180,18.555,33.203,15.137,0
1581351677.887,27.344,21.484,35.645,17.090,0
1581351677.891,17.090,22.461,31.250,16.602,0
1581351677.895,20.020,20.508,27.344,20.020,0
1581351677.899,23.926,17.090,30.273,24.414,0
1581351677.903,28.320,6.836,31.250,21.484,0
1581351677.907,27.832,14.648,28.320,27.344,0
1581351677.911,29.297,29.297,30.273,39.551,0
1581351677.914,32.227,27.344,30.762,34.668,0
1581351677.918,36.133,34.668,27.344,28.320,0
1581351677.922,35.645,34.180,27.344,32.227,0
1581351677.926,27.344,26.855,29.785,28.809,0
1581351677.930,27.832,22.949,30.273,25.879,0
1581351677.931,31.250,22.949,27.832,26.855,0
1581351677.935,26.855,26.855,33.203,21.484,0
1581351677.939,20.020,28.320,35.645,21.973,0
1581351677.943,22.461,26.367,32.715,20.020,0
1581351677.947,35.156,24.414,29.785,18.066,0
1581351677.951,33.203,23.926,29.297,16.113,0
1581351677.955,20.508,21.484,33.203,11.230,0
1581351677.958,16.113,18.555,35.645,8.789,0
1581351677.962,26.367,18.555,36.621,8.301,0
1581351677.966,31.738,19.531,32.715,8.301,0
1581351677.970,23.926,16.113,26.367,12.207,0
1581351677.974,18.555,9.766,28.809,16.602,0
1581351677.977,26.367,13.672,32.227,21.484,0
1581351677.981,26.855,26.367,28.320,25.391,0
1581351677.985,14.648,28.320,20.996,24.414,0
1581351677.989,8.789,23.438,27.344,22.461,0
1581351677.993,18.555,19.531,36.133,31.250,0
1581351677.997,25.391,22.461,37.598,32.227,0
1581351678.001,17.578,20.508,36.621,27.344,0
1581351678.004,6.348,17.578,21.973,26.367,0
1581351678.008,4.395,19.043,14.648,26.855,0
1581351678.012,19.043,16.113,24.414,32.227,0
1581351678.016,23.926,18.555,32.227,29.297,0
1581351678.020,4.395,24.902,31.250,24.414,0
1581351678.022,1.465,26.367,22.461,21.973,0
1581351678.026,14.648,18.555,18.555,19.043,0
1581351678.030,10.742,6.348,18.555,15.137,0
1581351678.034,2.930,14.160,24.414,9.766,0
1581351678.038,6.348,28.320,35.156,7.812,0
1581351678.042,20.508,21.973,37.598,16.602,0
1581351678.046,27.344,14.160,34.668,19.043,0
1581351678.049,15.625,17.090,26.367,2.930,0
1581351678.053,5.859,19.043,24.902,0.000,0
1581351678.057,13.184,20.020,24.902,15.625,0
1581351678.061,27.344,19.531,23.438,17.578,0
1581351678.065,30.273,23.438,30.762,18.066,0
1581351678.067,19.531,16.602,31.250,13.672,0
1581351678.071,20.508,10.742,24.902,-0.977,0
1581351678.075,30.762,7.324,20.996,2.441,0
1581351678.079,23.438,1.465,19.531,11.719,0
1581351678.083,15.625,29.785,22.461,9.766,0
1581351678.087,20.996,44.922,21.973,15.625,0
1581351678.091,27.832,33.203,20.996,19.531,0
1581351678.094,24.902,30.273,26.367,14.160,0
1581351678.098,7.812,33.203,24.902,13.672,0
1581351678.102,7.324,17.090,22.949,16.602,0
1581351678.106,28.809,8.301,19.531,26.855,0
1581351678.110,31.250,19.531,17.578,32.227,0
1581351678.112,23.926,22.461,24.414,34.180,0
1581351678.116,19.531,22.461,32.715,34.180,0
1581351678.120,15.137,24.902,29.785,26.855,0
1581351678.124,19.043,23.926,22.461,16.602,0
1581351678.128,21.484,20.996,26.367,16.113,0
1581351678.132,10.742,25.391,35.645,20.020,0
1581351678.136,8.789,23.926,32.715,19.531,0
1581351678.139,23.438,7.324,27.344,8.789,0
1581351678.143,33.691,0.000,32.227,8.789,0
1581351678.147,26.855,-0.977,34.180,17.090,0
1581351678.151,20.996,0.977,29.297,17.090,0
1581351678.155,30.273,22.461,21.484,19.043,0
1581351678.157,35.645,40.039,19.043,20.508,0
1581351678.161,24.414,39.551,29.785,20.996,0
1581351678.165,17.090,33.691,38.086,28.809,0
1581351678.169,21.484,31.738,33.691,35.156,0
1581351678.173,22.949,28.809,32.715,26.855,0
1581351678.177,16.602,26.367,35.156,26.367,0
1581351678.181,9.766,32.715,36.621,22.949,0
1581351678.184,8.301,29.785,35.645,18.066,0
1581351678.188,12.207,16.602,35.156,23.926,0
1581351678.192,17.578,17.578,37.598,26.855,0
1581351678.196,17.090,13.672,31.250,22.461,0
1581351678.200,17.090,16.113,25.391,22.461,0
1581351678.217,30.762,21.484,30.273,30.273,0
1581351678.221,38.574,25.391,31.250,37.109,0
1581351678.225,22.949,36.133,26.367,27.832,0
1581351678.229,8.301,34.668,23.438,20.020,0
1581351678.233,15.625,32.227,22.949,25.391,0
1581351678.237,25.391,32.227,22.949,31.250,0
1581351678.241,19.043,29.297,24.414,30.762,0
1581351678.244,12.695,24.902,26.855,26.367,0
1581351678.248,20.508,25.879,32.715,26.855,0
1581351678.252,21.484,27.344,27.832,21.973,0
1581351678.256,16.602,16.113,23.438,15.625,0
1581351678.260,12.695,1.465,28.809,18.555,0
1581351678.262,15.137,9.766,29.297,14.160,0
1581351678.266,23.438,21.973,27.832,16.113,0
1581351678.270,20.996,20.508,22.949,17.578,0
1581351678.274,10.254,22.949,24.414,9.766,0
1581351678.278,12.207,29.785,27.832,15.137,0
1581351678.282,20.020,28.809,27.832,18.066,0
1581351678.286,16.113,20.508,27.344,14.648,0
1581351678.289,7.812,18.555,22.461,11.719,0
1581351678.293,2.930,25.879,20.996,0.488,0
1581351678.297,10.742,16.113,27.344,-1.465,0
1581351678.301,15.625,0.488,26.367,2.441,0
1581351678.305,6.836,17.578,16.113,6.348,0
1581351678.307,1.465,30.273,15.625,-1.465,0
1581351678.311,3.906,24.902,19.043,-9.766,0
1581351678.315,8.789,23.926,21.484,0.000,0
1581351678.319,14.648,20.996,33.203,4.395,0
1581351678.323,7.324,22.949,32.227,0.488,0
1581351678.327,-0.977,34.668,24.902,-5.859,0
1581351678.331,7.812,36.621,26.855,-2.441,0
1581351678.334,9.277,25.879,28.320,4.395,0
1581351678.338,4.883,23.926,28.809,0.488,0
1581351678.342,9.277,28.809,33.203,5.371,0
1581351678.346,18.555,27.344,31.738,6.836,0
1581351678.350,25.391,24.414,30.762,5.859,0
1581351678.353,16.602,24.414,28.809,10.742,0
1581351678.357,7.324,10.254,27.344,9.277,0
1581351678.361,12.695,-4.883,33.203,13.184,0
1581351678.365,20.996,0.977,36.621,15.625,0
1581351678.369,17.090,24.902,33.203,12.695,0
1581351678.373,12.207,39.062,28.320,12.695,0
1581351678.377,20.020,32.715,29.785,15.625,0
1581351678.380,27.832,23.926,31.738,18.066,0
1581351678.384,24.414,29.785,29.297,7.812,0
1581351678.388,16.602,31.738,24.414,2.930,0
1581351678.392,20.508,22.461,22.949,9.766,0
1581351678.396,32.227,17.090,25.879,12.695,0
1581351678.397,26.855,20.508,28.809,9.766,0
1581351678.401,11.719,22.461,26.855,5.859,0
1581351678.405,16.113,13.672,22.461,3.906,0
1581351678.409,27.344,10.742,27.344,3.906,0
1581351678.413,23.926,22.461,26.855,2.441,0
1581351678.417,17.090,33.203,23.926,4.883,0
1581351678.421,9.766,29.785,25.879,3.418,0
1581351678.424,15.137,25.391,26.367,5.371,0
1581351678.428,29.785,29.785,27.344,18.066,0
1581351678.432,25.391,23.926,29.785,19.531,0
1581351678.436,16.602,5.371,35.645,11.719,0
1581351678.440,18.066,3.906,34.180,10.254,0
1581351678.442,31.250,15.625,27.344,17.578,0
1581351678.446,33.691,14.160,28.809,21.973,0
1581351678.450,16.113,7.324,33.203,11.230,0
1581351678.454,15.137,8.301,27.832,8.789,0
1581351678.458,28.809,20.020,16.113,12.695,0
1581351678.462,35.645,36.133,20.996,19.043,0
1581351678.466,15.625,27.344,21.973,11.230,0
1581351678.469,0.000,22.949,15.625,3.906,0
1581351678.473,16.602,32.227,16.602,14.648,0
1581351678.477,23.926,28.320,25.391,17.090,0
1581351678.481,11.230,20.020,28.809,11.719,0
1581351678.485,9.766,14.160,21.484,9.766,0
1581351678.487,20.020,19.531,19.043,10.742,0
1581351678.491,20.020,14.648,21.973,17.090,0
1581351678.495,10.254,8.301,20.996,16.602,0
1581351678.499,1.465,16.113,20.020,7.324,0
1581351678.503,4.395,20.508,20.020,2.930,0
1581351678.507,16.602,17.090,24.414,13.184,0
1581351678.511,17.090,14.160,27.344,16.113,0
1581351678.514,7.324,31.250,28.809,10.742,0
1581351678.518,5.371,27.832,28.320,13.184,0
1581351678.522,17.090,13.672,23.926,24.902,0
1581351678.526,16.602,20.020,24.414,21.973,0
1581351678.530,3.418,6.836,26.367,13.672,0
1581351678.547,-0.977,-6.836,29.297,18.555,0
1581351678.551,13.184,12.695,29.785,25.391,0
1581351678.555,14.648,19.043,23.438,17.578,0
1581351678.559,-0.488,19.531,19.043,12.695,0
1581351678.563,-7.324,23.926,21.484,15.137,0
1581351678.567,8.789,21.484,23.438,5.371,0
1581351678.571,25.391,23.926,20.020,7.812,0
1581351678.574,20.996,24.414,20.020,18.555,0
1581351678.578,15.137,14.648,27.344,20.508,0
1581351678.582,18.555,8.789,39.551,21.973,0
1581351678.586,35.645,12.207,41.504,20.508,0
1581351678.590,34.180,28.320,33.691,19.043,0
1581351678.592,9.277,32.227,34.668,15.625,0
1581351678.596,-0.488,25.879,35.156,9.766,0
1581351678.600,15.137,20.508,30.273,11.230,0
1581351678.604,12.695,16.602,25.391,14.648,0
1581351678.608,8.301,23.926,21.973,20.508,0
1581351678.612,19.531,23.926,25.391,20.508,0
1581351678.616,26.855,18.066,28.320,23.438,0
1581351678.619,28.809,16.113,26.367,29.297,0
1581351678.623,31.250,13.184,23.438,21.973,0
1581351678.627,23.926,19.531,23.926,11.230,0
1581351678.631,19.043,28.320,27.344,10.254,0
1581351678.635,17.090,34.180,31.250,13.184,0
1581351678.640,16.113,28.809,34.668,14.160,0
1581351678.644,14.160,10.742,31.250,6.836,0
1581351678.648,7.812,11.230,32.715,4.395,0
1581351678.652,19.043,20.508,37.109,7.324,0
1581351678.656,29.297,21.973,37.598,3.906,0
1581351678.660,21.973,14.160,36.133,11.230,0
1581351678.664,15.625,16.602,31.738,8.789,0
1581351678.667,35.156,29.297,35.645,9.766,0
1581351678.671,48.340,22.461,30.762,18.555,0
1581351678.675,31.738,16.602,21.973,13.184,0
1581351678.679,20.996,19.043,22.949,11.230,0
1581351678.683,25.879,25.879,25.391,17.090,0
1581351678.682,35.156,31.738,30.762,19.531,0
1581351678.686,28.320,28.809,34.180,17.090,0
1581351678.690,25.879,28.809,25.391,24.902,0
1581351678.694,33.203,30.273,19.043,31.250,0
1581351678.698,43.945,23.438,28.320,22.461,0
1581351678.702,42.969,10.254,33.203,15.137,0
1581351678.706,24.902,9.766,31.250,17.090,0
1581351678.709,28.320,21.973,32.227,24.414,0
1581351678.713,39.062,24.414,26.367,13.184,0
1581351678.717,35.645,22.949,21.973,3.906,0
1581351678.721,30.273,26.855,29.297,12.695,0
1581351678.725,32.715,25.879,32.227,17.090,0
1581351678.727,39.062,25.391,38.086,16.113,0
1581351678.731,44.434,29.785,37.598,22.461,0
1581351678.735,35.645,16.113,34.668,28.320,0
1581351678.739,22.461,5.371,40.039,22.949,0
1581351678.743,37.109,18.066,39.551,23.926,0
1581351678.747,58.105,25.879,40.527,35.156,0
1581351678.751,49.805,24.414,39.551,33.691,0
1581351678.754,34.180,23.926,37.598,28.809,0
1581351678.758,28.809,17.090,38.574,25.879,0
1581351678.762,33.203,-3.906,39.551,26.855,0
1581351678.766,26.855,6.348,35.645,31.738,0
1581351678.770,14.160,41.504,28.809,25.391,0
1581351678.771,16.113,47.852,34.668,23.926,0
1581351678.775,28.320,42.969,38.086,31.738,0
1581351678.779,27.344,39.062,36.621,31.250,0
1581351678.783,16.602,19.043,31.738,19.531,0
1581351678.787,17.578,15.625,28.809,18.555,0
1581351678.791,23.926,27.344,29.785,23.438,0
1581351678.795,25.879,34.668,30.273,31.738,0
1581351678.798,16.602,36.133,35.156,33.203,0
1581351678.802,7.812,23.438,36.133,14.648,0
1581351678.806,17.090,20.996,33.691,8.789,0
1581351678.810,31.738,22.949,41.016,18.555,0
1581351678.814,23.926,15.625,37.598,12.695,0
1581351678.816,8.789,14.160,30.273,8.789,0
1581351678.820,15.137,22.461,33.203,19.531,0
1581351678.824,34.180,33.203,34.668,14.160,0
1581351678.828,34.668,32.227,35.645,6.348,0
1581351678.832,25.391,27.832,35.645,14.160,0
1581351678.836,17.090,26.367,28.809,19.043,0
1581351678.840,29.297,20.508,26.855,21.973,0
1581351678.843,35.645,18.555,31.738,24.414,0
1581351678.847,14.648,17.090,32.715,29.785,0
1581351678.851,5.371,20.508,35.645,33.203,0
1581351678.855,11.719,19.043,34.180,33.203,0
1581351678.859,11.719,14.648,35.645,28.809,0
1581351678.861,5.371,20.020,41.992,20.996,0
1581351678.865,2.441,22.461,39.551,18.066,0
1581351678.869,7.812,12.695,32.227,17.578,0
1581351678.873,11.230,10.254,34.180,16.602,0
1581351678.877,9.766,17.090,36.133,17.090,0
1581351678.881,5.859,24.902,34.668,16.602,0
1581351678.885,-0.977,30.762,29.785,3.906,0
1581351678.888,7.324,29.785,24.414,7.324,0
1581351678.892,15.625,30.273,31.738,20.020,0
1581351678.896,10.254,31.738,32.227,16.602,0
1581351678.900,5.859,17.090,33.691,7.324,0
1581351678.904,9.766,0.488,33.691,7.324,0
1581351678.906,18.066,20.508,31.738,10.742,0
1581351678.910,8.789,38.574,34.668,1.953,0
1581351678.914,-0.977,25.391,33.691,-0.488,0
1581351678.918,9.766,22.461,40.039,10.254,0
1581351678.922,21.484,33.691,41.992,17.578,0
1581351678.926,15.137,23.926,34.668,13.672,0
1581351678.930,6.348,16.113,26.367,7.812,0
1581351678.933,17.090,25.391,22.949,14.648,0
1581351678.937,27.344,10.254,28.809,18.066,0
1581351678.941,15.625,2.441,35.645,13.184,0
1581351678.945,3.906,20.020,35.156,9.277,0
1581351678.949,5.371,28.809,25.879,6.836,0
1581351678.966,18.555,37.598,27.344,12.207,2
1581351678.970,23.438,31.250,32.715,14.160,0
1581351678.974,11.719,30.762,36.621,10.742,0
1581351678.978,0.000,33.691,36.133,6.836,0
1581351678.982,10.254,33.691,31.738,10.254,0
1581351678.986,20.508,31.250,24.902,15.137,0
1581351678.990,11.230,14.648,26.855,7.812,0
1581351678.993,3.418,13.672,39.062,4.883,0
1581351678.997,10.254,24.902,41.992,12.695,0
1581351679.001,20.996,20.508,40.039,12.695,0
1581351679.005,17.578,21.484,34.180,4.883,0
1581351679.009,9.766,31.738,35.156,-7.812,0
1581351679.011,19.531,29.297,35.156,-3.906,0
1581351679.015,24.902,25.879,25.879,4.883,0
1581351679.019,22.949,35.156,23.438,0.488,0
1581351679.023,18.555,26.855,35.156,3.906,0
1581351679.027,13.672,17.578,41.992,6.348,0
1581351679.031,19.531,31.250,35.156,6.348,0
1581351679.035,16.602,28.809,32.227,11.230,0
1581351679.038,9.277,22.949,38.086,14.648,0
1581351679.042,15.137,15.625,41.992,14.160,0
1581351679.046,26.855,0.977,37.598,11.719,0
1581351679.050,30.273,10.742,29.785,21.484,0
1581351679.054,22.949,19.043,29.297,25.391,0
1581351679.056,17.090,20.020,37.109,22.461,0
1581351679.060,25.391,28.320,38.574,23.438,0
1581351679.064,33.691,30.762,37.109,16.602,0
1581351679.068,20.996,31.738,33.691,10.254,0
1581351679.072,8.789,26.367,38.086,10.742,0
1581351679.076,14.648,17.578,37.109,11.719,0
1581351679.080,31.250,26.855,33.203,15.625,0
1581351679.083,26.855,25.879,38.574,11.230,0
1581351679.087,10.254,13.672,42.969,0.977,0
1581351679.091,8.301,14.160,41.504,1.953,0
1581351679.095,15.625,20.996,42.480,8.301,0
1581351679.099,21.484,17.090,42.969,11.719,0
1581351679.101,15.625,12.207,44.922,9.766,0
1581351679.105,7.324,19.043,40.039,11.719,0
1581351679.109,15.625,24.414,35.645,19.043,0
1581351679.113,25.879,22.461,40.039,21.973,0
1581351679.117,20.020,17.090,38.574,18.555,0
1581351679.121,18.555,14.648,38.574,19.531,0
1581351679.125,24.902,23.438,37.598,24.902,0
1581351679.128,33.691,31.738,39.551,24.414,0
1581351679.132,31.250,23.926,40.527,15.137,0
1581351679.136,18.066,18.555,31.738,13.672,0
1581351679.140,21.973,20.508,25.879,20.020,0
1581351679.144,33.691,15.625,29.297,18.555,0
1581351679.146,30.762,13.672,34.180,15.137,0
1581351679.150,28.809,20.996,34.180,20.508,0
1581351679.154,31.250,18.066,24.414,26.855,0
1581351679.158,37.598,22.461,21.484,23.926,0
1581351679.162,44.434,37.109,30.273,24.902,0
1581351679.166,41.504,29.297,36.621,29.297,0
1581351679.170,38.574,21.973,31.738,27.832,0
1581351679.173,39.551,20.996,17.090,20.508,0
1581351679.177,48.828,27.344,20.508,22.949,0
1581351679.181,49.316,36.621,25.879,30.273,0
1581351679.185,32.715,34.668,21.484,26.367,0
1581351679.189,30.762,28.809,24.902,22.949,0
1581351679.192,40.039,22.949,28.809,22.949,0
1581351679.196,33.203,20.020,31.250,18.066,0
1581351679.200,18.555,19.043,26.855,12.207,0
1581351679.204,23.438,21.484,31.250,18.066,0
1581351679.208,34.180,23.926,34.180,26.367,0
1581351679.212,33.691,21.484,29.785,26.855,0
1581351679.216,33.203,11.230,28.320,24.414,0
1581351679.219,26.855,12.695,33.203,25.879,0
1581351679.223,25.879,16.602,30.762,24.414,0
1581351679.227,31.250,16.602,21.484,25.391,0
1581351679.231,24.902,13.672,20.020,25.879,0
1581351679.235,16.113,0.977,22.949,19.531,0
1581351679.237,19.531,6.348,29.785,22.949,0
1581351679.241,27.344,26.367,30.762,23.438,0
1581351679.245,32.227,29.785,21.973,20.996,0
1581351679.249,20.996,29.297,18.555,13.184,0
1581351679.253,15.137,24.902,24.414,4.883,0
1581351679.257,26.855,15.137,26.855,14.648,0
1581351679.261,32.227,23.926,30.273,22.461,0
1581351679.264,19.043,27.832,34.668,19.531,0
1581351679.268,10.742,25.879,32.715,17.090,0
1581351679.272,27.832,29.785,25.879,17.578,0
1581351679.276,36.133,18.066,20.508,19.531,0
1581351679.280,16.602,1.465,24.902,16.113,0
1581351679.282,14.160,13.672,27.832,17.090,0
1581351679.286,30.762,24.414,25.879,22.461,0
1581351679.290,26.367,18.066,21.484,17.090,0
1581351679.294,18.066,16.602,21.484,13.184,0
1581351679.298,14.160,4.883,21.973,15.137,0
1581351679.302,12.207,7.324,19.531,20.508,0
1581351679.306,23.926,27.344,25.391,19.043,0
1581351679.309,24.414,29.297,19.531,8.301,0
1581351679.313,18.555,24.414,11.719,10.254,0
1581351679.317,20.996,22.949,20.996,15.625,0
1581351679.321,19.531,17.090,22.949,9.277,0
1581351679.325,4.883,2.930,13.672,5.859,0
1581351679.342,-3.906,4.883,12.695,6.348,0
1581351679.346,-6.348,14.648,21.484,4.883,0
1581351679.350,-7.812,16.113,22.949,7.324,0
1581351679.354,-3.418,26.367,13.184,6.348,0
1581351679.358,-6.348,16.113,16.602,4.883,0
1581351679.362,-3.906,7.812,20.996,6.348,0
1581351679.366,10.742,23.926,19.043,6.348,0
1581351679.369,11.719,25.391,14.648,9.277,0
1581351679.373,0.000,23.438,13.672,3.906,0
1581351679.377,-3.418,21.973,21.484,-2.930,0
1581351679.381,7.324,24.902,21.484,-4.395,0
1581351679.385,21.484,22.949,22.949,0.977,0
1581351679.387,18.555,19.043,24.414,6.348,0
1581351679.391,6.836,26.855,17.090,7.812,0
1581351679.395,9.277,28.809,12.695,11.719,0
1581351679.399,21.973,25.879,22.949,7.324,0
1581351679.403,20.508,20.996,34.180,7.324,0
1581351679.407,3.418,15.137,35.645,7.812,0
1581351679.411,5.371,22.461,25.391,7.812,0
1581351679.414,20.996,28.320,20.996,18.066,0
1581351679.418,25.879,13.184,22.949,22.461,0
1581351679.422,23.438,3.906,22.949,24.902,0
1581351679.426,19.043,16.602,24.414,21.973,0
1581351679.430,22.461,24.902,22.461,25.391,0
1581351679.432,27.832,24.902,21.973,24.414,0
1581351679.436,19.043,18.555,22.461,19.043,0
1581351679.440,14.648,12.695,17.090,18.555,0
1581351679.444,23.438,12.207,20.996,28.320,0
1581351679.448,31.250,17.090,25.391,32.227,0
1581351679.452,27.832,15.137,23.438,23.438,0
1581351679.456,20.020,7.324,25.391,20.996,0
1581351679.459,20.508,13.672,17.090,25.879,0
1581351679.463,30.762,30.273,13.672,19.531,0
1581351679.467,39.062,38.086,15.625,20.020,0
1581351679.471,30.273,26.855,17.578,26.367,0
1581351679.475,19.531,16.113,25.391,24.414,0
1581351679.477,27.344,16.113,23.438,34.180,0
1581351679.481,31.250,17.578,21.973,49.316,0
1581351679.485,28.809,20.996,22.461,56.641,0
1581351679.489,31.738,24.414,16.602,55.176,0
1581351679.493,39.062,15.625,15.137,64.453,0
1581351679.497,49.316,13.672,19.531,81.543,0
1581351679.501,39.062,21.484,20.996,83.008,0
1581351679.504,21.484,20.996,17.090,82.031,0
1581351679.508,27.832,20.996,15.625,83.984,0
1581351679.512,43.945,21.484,17.578,85.449,0
1581351679.516,48.340,25.391,19.043,90.820,0
1581351679.520,45.410,20.020,13.672,91.797,0
1581351679.522,40.527,18.066,11.230,88.867,0
1581351679.526,36.621,24.902,11.719,83.008,0
1581351679.530,38.574,31.250,14.648,84.961,0
1581351679.534,35.645,28.809,30.273,95.703,0
1581351679.538,24.414,15.625,28.809,95.215,0
1581351679.542,25.391,15.625,20.996,99.121,0
1581351679.546,26.367,22.949,18.066,103.027,0
1581351679.549,13.184,34.668,11.230,86.914,0
1581351679.553,12.695,39.062,9.277,71.289,0
1581351679.557,12.695,28.320,12.695,73.730,0
1581351679.561,14.648,28.809,20.020,82.520,0
1581351679.565,13.184,32.227,20.020,67.871,0
1581351679.567,4.883,29.297,16.602,44.434,0
1581351679.571,-4.883,28.809,19.531,43.945,0
1581351679.575,-8.789,25.391,22.949,42.480,0
1581351679.579,-20.996,5.371,26.367,30.273,0
1581351679.583,-42.480,2.930,33.691,8.301,0
1581351679.587,-37.598,22.949,34.668,-2.930,0
1581351679.591,-28.320,37.598,32.715,1.953,0
1581351679.594,-44.434,41.504,33.691,-14.648,0
1581351679.598,-67.383,39.551,31.250,-28.320,0
1581351679.602,-78.125,42.480,25.879,-31.250,0
1581351679.606,-75.195,22.949,33.691,-28.320,0
1581351679.610,-61.523,0.488,45.410,-18.066,0
1581351679.612,-69.824,13.672,30.762,-32.715,0
1581351679.616,-87.891,38.086,36.133,-40.527,0
1581351679.620,-75.684,36.621,44.922,-35.645,0
1581351679.624,-76.172,18.066,34.668,-36.133,0
1581351679.628,-83.984,18.066,30.762,-33.203,0
1581351679.632,-71.777,23.926,33.203,-30.273,0
1581351679.636,-57.129,34.180,34.668,-14.648,0
1581351679.639,-43.457,25.391,27.832,-7.324,0
1581351679.643,-34.180,16.602,12.207,-3.418,0
1581351679.647,-26.855,24.902,8.301,20.508,0
1581351679.651,-9.277,37.109,12.695,34.668,0
1581351679.655,2.441,41.016,9.277,39.551,0
1581351679.672,4.883,23.438,17.090,44.434,0
1581351679.676,11.719,13.672,26.855,52.246,0
1581351679.680,14.648,8.789,26.367,61.035,0
1581351679.684,24.902,17.578,25.391,62.500,0
1581351679.688,36.621,30.762,22.949,70.312,0
1581351679.692,34.180,23.438,18.555,74.707,0
1581351679.696,31.738,17.090,21.973,70.312,0
1581351679.699,44.434,16.602,25.879,81.543,0
1581351679.703,54.199,21.484,22.949,81.543,0
1581351679.707,49.316,17.578,18.555,71.289,0
1581351679.711,49.805,8.301,17.090,68.848,0
1581351679.715,66.406,10.254,15.137,76.660,0
1581351679.717,80.078,14.160,11.719,95.703,0
1581351679.721,78.125,29.297,16.602,93.750,0
1581351679.725,65.918,37.598,26.855,96.680,0
1581351679.729,57.129,28.320,28.320,100.586,0
1581351679.733,79.590,17.578,30.273,111.816,0
1581351679.737,94.238,20.020,29.297,125.488,0
1581351679.741,71.289,12.695,19.531,118.652,0
1581351679.744,53.711,11.230,17.090,109.375,0
1581351679.748,68.848,24.414,21.484,102.539,0
1581351679.752,81.543,23.926,21.484,103.516,0
1581351679.756,62.012,15.625,20.508,107.422,0
1581351679.760,43.457,9.766,20.996,99.121,0
1581351679.762,56.152,12.695,20.020,87.891,0
1581351679.766,67.383,22.461,13.672,86.914,0
1581351679.770,55.664,15.137,17.090,87.402,0
1581351679.774,55.176,12.695,33.203,99.121,0
1581351679.778,61.035,30.762,31.250,104.492,0
1581351679.782,65.430,30.273,20.508,93.262,0
1581351679.786,66.895,21.973,21.484,80.078,0
1581351679.789,58.594,16.602,15.625,76.660,0
1581351679.793,48.340,8.301,11.719,81.055,0
1581351679.797,46.875,10.742,21.973,72.754,0
1581351679.801,54.199,22.949,30.273,77.637,0
1581351679.805,43.457,21.973,26.367,74.707,0
1581351679.807,32.227,12.207,18.555,64.453,0
1581351679.811,43.457,11.719,24.902,79.102,0
1581351679.815,53.223,4.883,23.926,82.520,0
1581351679.819,48.340,7.324,20.020,82.031,0
1581351679.823,46.875,11.230,25.391,83.496,0
1581351679.827,51.270,13.672,27.832,83.008,0
1581351679.831,52.246,24.902,25.879,83.984,0
1581351679.834,46.875,33.203,23.926,79.102,0
1581351679.838,32.715,34.668,15.137,74.707,0
1581351679.842,32.227,31.738,10.254,62.500,0
1581351679.846,41.992,20.996,21.973,60.059,0
1581351679.850,37.598,12.695,20.508,62.988,0
1581351679.852,36.621,22.949,23.926,63.477,0
1581351679.856,38.574,23.926,26.855,55.664,0
1581351679.860,37.109,9.277,22.461,43.457,0
1581351679.864,39.551,15.137,26.855,41.992,0
1581351679.868,28.320,17.578,25.879,39.551,0
1581351679.872,16.602,16.602,26.855,35.645,0
1581351679.876,23.438,24.902,26.367,34.668,0
1581351679.879,29.297,18.555,25.391,27.344,0
1581351679.883,23.926,11.230,27.344,26.855,0
1581351679.887,14.160,19.043,20.996,31.738,0
1581351679.891,23.926,20.508,18.555,39.062,0
1581351679.895,39.062,13.672,22.461,42.969,0
1581351679.897,41.992,12.207,25.391,40.527,0
1581351679.901,33.203,20.508,22.461,41.016,0
1581351679.905,25.879,23.438,19.531,41.992,0
1581351679.909,35.156,21.484,27.832,42.969,0
1581351679.913,43.457,23.438,34.668,47.852,0
1581351679.917,31.738,22.461,32.227,44.922,0
1581351679.921,22.949,32.715,29.297,41.016,0
1581351679.924,33.203,27.344,27.832,33.691,0
1581351679.928,36.133,10.254,20.996,21.973,0
1581351679.932,23.438,13.184,13.184,25.391,0
1581351679.936,17.578,14.160,22.461,18.555,0
1581351679.940,21.484,20.020,30.273,12.695,0
1581351679.941,26.367,31.250,26.367,19.531,0
1581351679.945,21.484,29.297,23.438,16.113,0
1581351679.949,14.160,21.973,23.926,13.184,0
1581351679.953,20.020,20.508,32.715,15.625,0
1581351679.957,25.879,24.902,33.203,19.043,0
1581351679.961,22.461,27.832,30.273,18.555,0
1581351679.965,17.578,23.926,29.785,22.949,0
1581351679.968,13.184,22.461,28.809,24.414,0
1581351679.972,22.461,19.043,29.785,26.367,0
1581351679.976,33.203,22.461,32.227,28.320,0
1581351679.980,21.484,18.555,37.109,22.949,0
1581351679.984,19.531,20.996,42.969,28.320,0
1581351679.986,29.785,28.809,43.945,28.320,0
1581351679.990,30.762,20.996,31.738,18.555,0
1581351679.994,20.996,23.438,29.297,17.090,0
1581351679.998,8.789,23.926,32.715,19.043,0
1581351680.002,16.113,30.273,32.715,12.695,0
1581351680.006,26.855,23.438,37.598,10.254,0
1581351680.010,15.137,16.602,32.715,-2.930,0
1581351680.013,7.324,21.484,28.809,-7.324,0
1581351680.017,18.555,18.555,36.133,14.160,0
1581351680.021,24.414,20.508,37.598,19.531,0
1581351680.025,21.484,22.949,37.109,14.160,0
1581351680.029,17.578,30.762,33.203,13.184,0
1581351680.031,20.996,30.273,29.785,27.344,0
1581351680.035,35.645,13.184,37.598,41.504,0
1581351680.039,41.504,19.043,36.133,43.457,0
1581351680.043,36.133,27.344,33.691,42.969,0
1581351680.047,21.973,18.066,30.762,36.621,0
1581351680.051,25.391,20.508,27.832,32.227,0
1581351680.055,31.738,20.996,30.762,25.879,0
1581351680.058,20.996,20.020,34.180,27.832,0
1581351680.062,12.207,32.227,26.367,27.832,0
1581351680.066,12.695,34.668,26.855,19.043,0
1581351680.070,24.414,26.367,38.574,21.973,0
1581351680.074,28.320,15.625,39.551,27.832,1
1581351680.091,19.531,17.578,34.668,27.832,0
1581351680.095,22.949,20.996,32.227,31.738,0
1581351680.099,32.715,22.949,25.879,31.738,0
1581351680.103,34.180,27.344,23.926,32.227,0
1581351680.107,29.785,17.090,24.414,35.156,0
1581351680.111,30.762,15.137,25.391,34.180,0
1581351680.115,41.992,12.695,31.250,33.691,0
1581351680.118,43.945,6.836,36.621,33.203,0
1581351680.122,30.273,29.297,30.273,31.738,0
1581351680.126,17.578,36.621,23.926,20.996,0
1581351680.130,15.625,22.461,26.367,21.484,0
1581351680.134,26.367,24.902,26.367,33.203,0
1581351680.136,22.949,24.414,25.391,29.297,0
1581351680.140,9.277,26.367,27.344,27.832,0
1581351680.144,9.277,29.297,30.273,32.227,0
1581351680.148,19.531,28.809,31.250,31.738,0
1581351680.152,20.508,25.879,30.762,27.832,0
1581351680.156,16.113,20.020,32.227,25.391,0
1581351680.160,19.043,20.996,29.297,26.367,0
1581351680.163,28.809,19.043,24.414,32.227,0
1581351680.167,39.062,9.766,21.484,36.621,0
1581351680.171,30.273,17.090,21.973,35.645,0
1581351680.175,17.578,22.949,29.785,32.715,0
1581351680.179,21.484,25.879,30.762,28.320,0
1581351680.181,22.949,31.250,20.508,23.926,0
1581351680.185,17.578,23.438,26.367,26.367,0
1581351680.189,19.043,14.160,39.062,32.227,0
1581351680.193,21.973,13.184,30.762,30.762,0
1581351680.197,20.996,19.531,21.973,30.762,0
1581351680.201,16.113,24.414,24.414,33.203,0
1581351680.205,16.602,26.367,27.832,32.715,0
1581351680.208,28.320,20.996,25.879,35.156,0
1581351680.212,30.273,10.742,23.926,31.738,0
1581351680.216,24.902,23.926,23.926,29.785,0
1581351680.220,16.602,35.156,24.902,34.668,0
1581351680.224,13.672,26.855,30.762,33.203,0
1581351680.226,30.762,20.996,32.715,27.832,0
1581351680.230,40.039,16.113,27.832,26.367,0
1581351680.234,30.273,7.324,20.996,26.855,0
1581351680.238,30.762,16.602,26.367,29.785,0
1581351680.242,34.668,25.391,34.668,32.227,0
1581351680.246,37.598,23.926,33.203,36.133,0
1581351680.250,34.668,28.809,32.715,36.621,0
1581351680.253,22.949,21.484,31.250,36.621,0
1581351680.257,24.414,13.672,31.738,39.062,0
1581351680.261,37.109,17.578,36.133,47.852,0
1581351680.265,32.715,14.648,28.809,45.410,0
1581351680.269,20.508,24.414,24.902,31.738,0
1581351680.272,28.320,38.574,26.855,40.039,0
1581351680.276,42.480,35.156,22.461,45.898,0
1581351680.280,43.945,24.902,22.949,44.434,0
1581351680.284,34.668,26.855,26.367,43.945,0
1581351680.288,27.344,29.297,28.809,41.016,0
1581351680.292,40.527,20.020,33.203,44.434,0
1581351680.296,51.270,17.090,37.109,48.828,0
1581351680.299,32.715,26.367,32.227,39.551,0
1581351680.303,24.414,30.273,28.320,32.715,0
1581351680.307,34.668,23.926,27.344,34.668,0
1581351680.311,35.156,19.531,27.344,34.180,0
1581351680.315,29.297,15.137,29.785,35.645,0
1581351680.317,22.949,21.484,31.250,32.227,0
1581351680.321,26.367,33.203,29.785,26.855,0
1581351680.325,28.320,31.738,24.414,23.438,0
1581351680.329,17.090,22.461,22.461,23.926,0
1581351680.333,6.348,14.160,20.996,19.531,0
1581351680.337,15.137,22.461,22.949,32.227,0
1581351680.341,30.273,22.461,27.344,41.016,0
1581351680.344,26.855,11.230,27.344,26.855,0
1581351680.348,18.555,17.090,29.785,30.762,0
1581351680.352,11.230,14.160,29.785,32.715,0
1581351680.356,21.484,16.113,29.785,28.320,0
1581351680.360,31.738,29.785,29.785,27.344,0
1581351680.363,20.508,34.668,26.367,24.414,0
1581351680.367,9.277,21.973,32.715,21.484,0
1581351680.371,23.926,10.254,38.574,25.391,0
1581351680.375,31.738,18.066,33.691,26.855,0
1581351680.379,21.484,26.855,30.273,20.508,0
1581351680.383,15.137,38.574,28.809,18.555,0
1581351680.387,13.672,37.598,28.320,15.137,0
1581351680.390,24.414,16.113,28.320,18.555,0
1581351680.394,23.926,13.184,27.344,20.508,0
1581351680.398,12.207,29.785,24.414,12.207,0
1581351680.402,10.254,36.621,17.578,9.766,0
1581351680.406,22.949,39.551,20.996,21.484,0
1581351680.407,28.809,38.086,30.273,23.438,0
1581351680.411,15.137,31.738,30.273,11.230,0
1581351680.415,8.301,26.367,27.344,7.324,0
1581351680.419,20.996,30.273,33.203,18.555,0
1581351680.423,26.367,21.973,37.598,27.832,0
1581351680.427,13.184,17.090,27.344,24.902,0
1581351680.431,5.859,15.137,22.461,21.484,0
1581351680.434,8.301,5.859,26.367,15.137,0
1581351680.438,15.625,20.996,24.414,19.043,0
1581351680.442,15.625,28.320,23.926,28.809,0
1581351680.446,5.371,17.090,30.273,18.555,0
1581351680.450,12.695,21.484,30.273,15.625,0
1581351680.467,20.996,32.715,20.996,16.602,0
1581351680.471,11.719,30.273,21.973,9.277,0
1581351680.475,6.348,28.320,31.738,7.324,0
1581351680.479,6.348,30.273,32.715,7.812,0
1581351680.483,14.160,19.043,33.691,14.160,0
1581351680.487,17.090,18.555,39.062,12.695,0
1581351680.491,8.301,26.855,42.969,13.672,0
1581351680.494,0.000,17.090,42.969,13.184,0
1581351680.498,4.883,20.996,46.875,12.695,0
1581351680.502,20.020,25.879,54.199,21.484,0
1581351680.506,11.719,15.625,58.105,12.695,0
1581351680.510,-2.930,12.207,55.176,3.906,0
1581351680.513,1.953,19.043,48.828,14.160,0
1581351680.517,7.812,22.461,49.316,19.043,0
1581351680.521,2.930,22.949,50.781,16.113,0
1581351680.525,-2.930,11.230,53.223,12.207,0
1581351680.529,-1.953,4.395,52.246,19.043,0
1581351680.533,6.836,18.066,53.711,23.438,0
1581351680.537,14.160,25.391,61.523,21.973,0
1581351680.540,8.789,28.809,62.500,20.508,0
1581351680.544,9.277,34.668,52.734,20.508,0
1581351680.548,17.578,28.320,40.527,18.066,0
1581351680.552,13.672,26.855,39.062,16.113,0
1581351680.556,0.000,32.227,39.551,11.719,0
1581351680.558,-1.465,34.180,35.645,11.719,0
1581351680.562,5.371,32.715,34.668,9.766,0
1581351680.566,10.742,18.555,29.785,7.812,0
1581351680.570,6.348,19.531,21.973,9.277,0
1581351680.574,-3.906,19.531,18.066,4.883,0
1581351680.578,-2.441,4.395,14.160,3.418,0
1581351680.582,9.277,10.254,13.184,2.441,0
1581351680.585,17.578,22.949,19.043,4.883,0
1581351680.589,9.766,17.578,17.578,2.441,0
1581351680.593,7.812,16.602,18.066,-8.301,0
1581351680.597,18.066,7.812,16.113,-4.883,0
1581351680.601,20.508,17.578,9.766,0.488,0
1581351680.602,9.766,37.109,12.695,3.906,0
1581351680.606,9.766,35.156,14.648,10.254,0
1581351680.610,26.855,31.250,19.531,22.949,0
1581351680.614,25.879,23.926,18.066,20.996,0
1581351680.618,13.184,18.066,9.766,17.578,0
1581351680.622,15.625,10.742,5.371,25.879,0
1581351680.626,23.926,7.812,4.395,28.320,0
1581351680.629,27.344,20.020,5.859,23.438,0
1581351680.633,18.066,21.973,4.883,16.602,0
1581351680.637,12.695,18.555,14.648,16.602,0
1581351680.641,15.625,21.484,18.066,18.066,0
1581351680.645,20.996,21.973,8.789,16.602,0
1581351680.647,21.484,15.625,11.230,17.090,0
1581351680.651,17.578,18.555,18.555,11.719,0
1581351680.655,24.414,22.461,24.902,11.230,0
1581351680.659,33.691,28.320,27.344,19.043,0
1581351680.663,28.809,22.461,20.508,18.066,0
1581351680.667,16.602,12.207,17.090,15.625,0
1581351680.671,11.719,19.043,15.625,15.625,0
1581351680.674,15.625,25.879,16.113,10.254,0
1581351680.678,14.648,26.855,17.090,9.766,0
1581351680.682,10.742,25.391,17.578,14.648,0
1581351680.686,10.742,17.090,18.066,19.043,0
1581351680.690,15.137,19.043,21.484,20.996,0
1581351680.695,27.344,29.297,31.250,20.508,0
1581351680.699,36.621,30.273,36.133,29.297,0
1581351680.703,24.902,17.578,26.855,28.809,0
1581351680.707,17.090,13.184,20.020,25.391,0
1581351680.711,30.762,20.508,22.949,27.832,0
1581351680.715,33.203,6.348,24.414,27.344,0
1581351680.719,25.391,8.789,25.391,29.297,0
1581351680.722,27.344,28.809,19.531,26.367,0
1581351680.726,33.691,30.762,25.391,28.809,0
1581351680.730,36.133,28.320,32.227,30.273,0
1581351680.734,23.926,20.020,34.668,22.949,0
1581351680.738,11.719,13.184,32.715,19.531,0
1581351680.753,17.578,21.484,26.855,17.578,0
1581351680.757,25.879,17.090,31.250,16.602,0
1581351680.761,20.996,5.371,31.250,14.160,0
1581351680.765,13.672,6.836,29.297,12.207,0
1581351680.769,19.043,20.020,33.203,18.555,0
1581351680.773,24.414,36.133,31.250,22.461,0
1581351680.777,16.602,31.738,22.461,13.184,0
1581351680.780,11.230,27.344,15.625,9.277,0
1581351680.784,12.695,30.762,19.531,17.578,0
1581351680.788,16.602,31.738,30.762,22.461,0
1581351680.792,18.555,22.461,32.715,23.926,0
1581351680.796,12.695,13.184,31.738,25.879,0
1581351680.782,6.348,18.066,26.367,24.902,0
1581351680.786,18.555,11.230,20.508,24.414,0
1581351680.790,28.320,9.766,19.531,25.879,0
1581351680.794,18.555,21.973,11.719,20.020,0
1581351680.798,7.324,26.367,12.207,14.648,0
1581351680.802,12.695,24.902,13.184,14.160,0
1581351680.806,21.973,28.809,10.742,19.043,0
1581351680.809,13.672,17.578,9.766,16.113,0
1581351680.813,10.254,13.184,9.277,12.695,0
1581351680.817,23.438,25.391,9.277,21.973,0
1581351680.821,27.832,25.879,10.742,18.066,0
1581351680.825,26.855,19.531,15.625,11.719,0
1581351680.842,22.949,21.484,19.531,16.113,0
1581351680.846,21.973,26.367,13.672,20.020,0
1581351680.850,29.297,27.832,9.766,22.461,0
1581351680.854,33.203,30.273,20.020,21.973,0
1581351680.858,20.020,19.531,20.508,15.137,0
1581351680.862,15.625,17.090,14.160,14.160,0
1581351680.866,23.926,15.137,14.160,18.555,0
1581351680.869,28.809,16.113,17.090,22.461,0
1581351680.873,21.973,29.297,18.066,20.508,0
1581351680.877,16.602,30.762,12.695,14.648,0
1581351680.881,25.391,34.668,11.230,21.973,0
1581351680.885,29.785,25.879,16.113,25.879,0
1581351680.887,26.855,7.812,23.438,26.855,0
1581351680.891,19.043,13.672,28.320,25.879,0
1581351680.895,22.461,20.020,20.996,22.949,0
1581351680.899,33.203,23.926,5.859,30.273,0
1581351680.903,29.785,1.953,14.648,31.738,0
1581351680.907,23.926,-2.441,36.621,34.180,0
1581351680.911,27.344,37.598,42.480,39.062,0
1581351680.914,32.715,41.992,33.691,28.809,0
1581351680.918,29.297,33.203,26.855,17.090,0
1581351680.922,19.531,34.668,26.855,21.484,0
1581351680.926,20.020,34.180,23.438,31.250,0
1581351680.930,32.227,28.320,20.508,35.645,0
1581351680.932,41.016,31.250,31.738,36.133,0
1581351680.936,32.715,26.367,33.203,30.273,0
1581351680.940,26.855,16.113,27.344,25.391,0
1581351680.944,38.086,21.484,29.785,27.832,0
1581351680.948,43.457,21.973,34.668,29.297,0
1581351680.952,31.250,7.324,39.062,26.367,0
1581351680.956,18.066,11.719,34.180,22.949,0
1581351680.959,21.484,29.785,32.227,20.996,0
1581351680.963,32.715,35.645,29.785,20.508,0
1581351680.967,31.738,38.086,30.762,19.531,0
1581351680.971,20.508,32.715,36.133,17.578,0
1581351680.975,20.508,31.738,32.227,22.949,0
1581351680.977,24.414,24.902,31.738,17.090,0
1581351680.981,23.438,23.438,33.691,13.184,0
1581351680.985,16.602,22.461,27.832,16.113,0
1581351680.989,7.324,17.578,31.250,17.578,0
1581351680.993,9.277,22.461,35.645,19.043,0
1581351680.997,12.207,22.461,28.320,13.184,0
1581351681.001,9.277,3.906,30.762,16.113,0
1581351681.004,6.836,-0.977,40.527,12.695,0
1581351681.008,12.695,12.207,36.133,12.207,0
1581351681.012,26.855,12.695,30.273,19.531,0
1581351681.016,32.227,26.367,27.832,17.090,0
1581351681.020,19.531,39.062,17.578,8.301,0
1581351681.022,12.207,33.691,22.949,1.465,0
1581351681.026,22.949,31.738,38.086,8.301,0
1581351681.030,22.949,33.691,42.480,17.090,0
1581351681.034,9.277,27.832,41.016,12.207,0
1581351681.038,3.418,17.578,35.156,10.742,0
1581351681.042,15.137,12.207,34.668,12.695,0
1581351681.046,17.090,15.625,39.062,15.625,0
1581351681.049,7.812,18.066,36.133,14.648,0
1581351681.053,3.906,19.531,30.273,10.254,0
1581351681.057,10.254,27.344,28.320,19.043,0
1581351681.061,18.066,23.926,28.320,17.578,0
1581351681.065,14.160,19.043,24.902,16.602,0
1581351681.066,15.625,26.367,26.855,20.996,0
1581351681.070,23.926,31.738,31.250,11.230,0
1581351681.074,24.902,41.016,34.180,10.742,0
1581351681.078,24.902,37.598,35.645,7.812,0
1581351681.082,22.461,24.414,34.180,-3.418,0
1581351681.086,22.461,24.902,31.250,0.000,0
1581351681.090,29.785,21.973,35.156,2.930,0
1581351681.093,30.762,20.508,36.133,-5.859,0
1581351681.097,22.461,25.391,34.668,-12.695,0
1581351681.101,17.090,22.461,32.227,-18.555,0
1581351681.105,17.090,22.461,26.367,-21.973,0
1581351681.109,19.531,21.973,28.320,-26.855,0
1581351681.126,13.184,21.484,32.227,-30.762,0
1581351681.130,6.836,23.438,34.668,-29.785,0
1581351681.134,15.625,22.949,36.133,-19.043,0
1581351681.138,27.344,10.742,33.691,-4.883,0
1581351681.142,19.531,11.719,28.809,-7.812,0
1581351681.146,11.230,23.926,26.367,-11.719,0
1581351681.150,16.113,18.066,23.926,-16.113,0
1581351681.153,19.043,10.254,19.043,-18.066,0
1581351681.157,21.973,26.855,26.855,-5.859,0
1581351681.161,12.207,41.504,37.598,-4.883,0
1581351681.165,4.883,38.574,37.109,-9.766,0
1581351681.169,12.695,36.621,30.273,-8.301,0
1581351681.156,17.090,36.621,33.203,-9.766,0
1581351681.160,16.602,28.809,39.551,-5.371,0
1581351681.164,9.766,15.625,35.645,-8.789,0
1581351681.168,10.742,17.090,24.902,-13.184,0
1581351681.172,20.996,25.391,23.438,-12.695,0
1581351681.176,18.066,35.645,32.227,-14.648,0
1581351681.180,6.348,20.508,33.691,-13.672,0
1581351681.183,5.859,1.465,20.996,-13.184,0
1581351681.187,21.484,17.090,22.949,-4.883,0
1581351681.191,19.531,33.203,34.180,-5.371,0
1581351681.195,0.488,35.156,34.180,-22.949,0
1581351681.199,6.836,26.367,38.086,-20.020,0
1581351681.216,15.625,17.578,41.016,-9.277,0
1581351681.220,12.695,23.926,39.062,-1.465,0
1581351681.224,4.395,28.809,34.180,2.930,0
1581351681.228,12.207,24.414,38.574,15.137,0
1581351681.232,22.949,13.184,43.945,24.414,0
1581351681.236,20.020,8.789,44.922,25.879,0
1581351681.240,18.066,20.020,43.457,35.156,0
1581351681.243,19.531,15.625,39.551,39.551,0
1581351681.247,32.227,4.395,41.992,42.969,1
1581351681.251,32.715,18.555,43.457,45.898,0
1581351681.255,23.926,37.598,47.852,35.645,0
1581351681.259,14.648,46.387,55.664,35.645,0
1581351681.261,15.137,32.715,44.434,38.574,0
1581351681.265,12.695,26.367,34.180,28.809,0
1581351681.269,2.930,40.039,38.574,28.320,0
1581351681.273,-0.488,32.227,44.922,29.297,0
1581351681.277,11.230,26.367,53.223,28.809,0
1581351681.281,22.949,27.832,50.293,30.762,0
1581351681.285,14.648,18.555,48.828,33.691,0
1581351681.288,17.090,11.719,48.340,39.551,0
1581351681.292,13.184,20.020,39.551,42.480,0
1581351681.296,9.766,20.996,38.086,42.480,0
1581351681.300,20.996,22.461,45.898,41.504,0
1581351681.304,23.438,35.156,53.711,43.945,0
1581351681.306,18.555,39.062,52.246,44.922,0
1581351681.310,27.832,33.203,45.898,53.711,0
1581351681.314,33.203,20.996,40.527,51.758,0
1581351681.318,26.855,20.508,35.645,43.457,0
1581351681.322,25.391,24.414,41.504,48.340,0
1581351681.326,26.367,19.043,43.457,47.852,0
1581351681.330,24.902,7.812,36.621,42.969,0
1581351681.333,19.043,17.578,29.785,40.039,0
1581351681.337,9.277,28.320,30.762,31.250,0
1581351681.341,5.859,22.949,41.992,32.227,0
1581351681.345,17.090,31.250,47.363,35.645,0
1581351681.349,16.602,41.016,37.109,25.879,0
1581351681.351,7.324,30.762,34.180,19.531,0
1581351681.355,12.695,21.484,40.527,18.555,0
1581351681.359,22.461,25.391,37.109,22.949,0
1581351681.363,28.320,22.949,24.414,30.762,0
1581351681.367,20.996,17.578,20.996,27.344,0
1581351681.371,19.531,15.137,36.133,26.367,0
1581351681.375,31.250,19.043,33.691,28.320,0
1581351681.378,39.062,28.809,27.344,35.645,0
1581351681.382,38.574,21.973,23.926,41.504,0
1581351681.386,26.367,17.578,20.508,37.598,0
1581351681.390,24.902,24.902,25.879,36.133,0
1581351681.394,34.668,20.508,23.926,37.598,0
1581351681.396,38.086,27.344,23.926,43.457,0
1581351681.400,33.203,39.062,27.832,50.293,0
1581351681.404,33.203,36.621,22.461,53.223,0
1581351681.408,40.527,25.391,24.902,48.340,0
1581351681.412,40.527,19.531,27.344,40.039,0
1581351681.416,34.180,25.879,22.949,38.574,0
1581351681.420,33.203,16.602,24.414,41.016,0
1581351681.423,38.086,9.277,19.043,38.574,0
1581351681.427,42.480,20.996,15.625,32.715,0
1581351681.431,38.086,21.484,20.020,31.250,0
1581351681.435,31.250,20.508,20.020,33.203,0
1581351681.439,38.574,25.879,28.809,35.645,0
1581351681.442,55.664,27.832,36.621,43.945,0
1581351681.446,47.852,25.391,29.297,42.480,0
1581351681.450,30.273,21.973,28.809,33.691,0
1581351681.454,34.668,18.066,31.250,34.668,0
1581351681.458,37.598,20.996,26.367,36.621,0
1581351681.462,27.832,25.879,25.391,38.086,0
1581351681.466,19.043,15.625,19.531,35.645,0
1581351681.469,13.184,5.371,13.672,25.391,0
1581351681.473,20.020,16.602,15.625,26.855,0
1581351681.477,29.297,39.062,20.508,32.715,0
1581351681.481,16.602,34.668,19.531,27.344,0
1581351681.485,10.742,20.020,14.160,26.367,0
1581351681.487,23.438,15.137,20.508,29.785,0
1581351681.491,30.762,21.484,27.832,33.691,0
1581351681.495,24.902,22.949,30.273,34.180,0
1581351681.499,17.578,15.137,31.738,26.855,0
1581351681.503,19.531,26.367,25.391,24.902,0
1581351681.507,27.832,33.203,22.461,28.320,0
1581351681.511,28.320,24.902,27.344,26.855,0
1581351681.514,18.066,16.602,19.043,19.531,0
1581351681.518,18.066,15.625,10.742,21.484,0
1581351681.522,31.250,20.996,21.973,31.738,0
1581351681.526,28.320,19.043,27.832,31.250,0
1581351681.530,14.160,24.414,20.996,26.367,0
1581351681.532,18.555,29.785,25.879,28.320,0
1581351681.536,30.762,26.855,27.344,32.227,0
1581351681.540,32.227,24.902,19.531,33.203,0
1581351681.544,27.344,24.902,17.578,28.320,0
1581351681.548,26.367,24.902,26.367,27.832,0
1581351681.552,40.039,27.344,41.016,36.621,0
1581351681.556,47.852,26.855,38.086,37.598,0
1581351681.559,31.738,23.926,28.320,28.809,0
1581351681.563,18.066,23.926,22.461,20.508,0
1581351681.567,20.996,25.879,22.461,21.973,0
1581351681.571,24.414,27.344,29.785,20.996,0
1581351681.575,23.926,31.250,36.133,20.020,0
1581351681.592,18.555,29.297,40.527,24.414,0
1581351681.596,13.184,19.531,31.738,15.137,0
1581351681.600,22.949,16.113,24.902,14.160,0
1581351681.604,25.391,20.020,19.531,20.020,0
1581351681.608,16.602,28.809,20.996,14.160,0
1581351681.612,17.578,29.785,30.273,11.230,0
1581351681.616,30.273,32.715,27.344,15.137,0
1581351681.619,33.203,25.391,24.902,20.020,0
1581351681.623,31.250,6.836,36.133,20.996,0
1581351681.627,24.414,10.254,37.109,17.090,0
1581351681.631,24.902,23.926,32.227,15.625,0
1581351681.635,38.086,33.203,36.133,24.902,0
1581351681.637,25.879,32.715,20.508,26.855,0
1581351681.641,12.695,19.531,-22.949,19.043,0
1581351681.645,20.508,14.648,-55.664,23.926,0
1581351681.649,27.344,25.391,-76.660,27.344,0
1581351681.653,23.926,24.902,-90.820,21.484,0
1581351681.657,17.578,15.625,-91.797,21.484,0
1581351681.661,14.648,28.809,-96.680,19.531,0
1581351681.664,18.555,36.621,-104.492,20.996,0
1581351681.668,22.949,31.250,-99.609,24.414,0
1581351681.672,16.113,23.926,-94.727,15.625,0
1581351681.676,13.672,5.371,-93.750,13.184,0
1581351681.680,26.367,11.230,-84.473,22.949,0
1581351681.682,33.203,31.738,-81.055,24.902,0
1581351681.686,21.973,35.645,-80.078,23.438,0
1581351681.690,15.625,15.137,-70.312,27.344,0
1581351681.694,19.531,6.348,-68.359,28.320,0
1581351681.698,21.484,18.555,-69.824,29.297,0
1581351681.702,17.090,18.555,-64.941,25.879,0
1581351681.706,13.184,25.879,-59.082,24.414,0
1581351681.709,19.043,32.227,-54.688,27.832,0
1581351681.713,28.809,18.066,-50.781,24.902,0
1581351681.717,31.250,18.555,-44.922,28.809,0
1581351681.721,24.902,31.738,-45.898,36.133,0
1581351681.725,19.043,31.250,-43.945,30.762,0
1581351681.727,23.926,25.391,-36.621,30.762,0
1581351681.731,35.645,25.391,-31.738,37.109,0
1581351681.735,30.762,30.273,-24.414,39.551,0
1581351681.739,16.602,24.902,-23.438,33.203,0
1581351681.743,20.020,18.555,-22.949,26.855,0
1581351681.747,25.879,17.090,-16.602,26.855,0
1581351681.751,21.973,23.438,-18.066,26.367,0
1581351681.754,19.531,25.391,-15.625,26.855,0
1581351681.758,19.531,20.996,-8.301,23.926,0
1581351681.762,20.508,15.625,-6.836,19.531,0
1581351681.766,19.531,8.789,-3.418,24.414,0
1581351681.770,16.113,17.090,2.930,29.297,0
1581351681.772,18.066,28.320,1.465,25.879,0
1581351681.776,27.344,25.879,2.441,28.320,0
1581351681.780,25.879,17.090,2.930,26.367,0
1581351681.784,17.090,15.137,0.977,21.484,0
1581351681.788,10.254,20.020,-1.465,21.973,0
1581351681.792,20.020,24.414,-6.836,19.531,0
1581351681.796,30.762,21.973,0.488,22.949,0
1581351681.799,15.625,18.066,10.254,19.531,0
1581351681.803,16.113,21.484,8.301,14.160,0
1581351681.807,21.973,20.996,4.883,16.602,0
1581351681.811,28.320,17.578,6.836,16.602,0
1581351681.815,31.250,20.020,7.324,11.719,0
1581351681.817,20.020,26.855,12.695,9.766,0
1581351681.821,19.531,19.043,17.578,12.207,0
1581351681.825,34.180,9.766,10.254,22.461,0
1581351681.829,35.645,14.160,8.789,23.438,0
1581351681.833,20.020,14.648,9.766,13.672,0
1581351681.837,20.020,22.461,10.254,21.973,0
1581351681.841,33.691,30.273,11.719,30.273,0
1581351681.844,37.598,32.227,5.859,28.809,0
1581351681.848,25.391,33.691,5.371,28.320,0
1581351681.852,11.230,18.066,9.277,23.438,0
1581351681.856,17.090,17.090,19.043,19.043,0
1581351681.860,25.391,22.461,20.020,21.973,0
1581351681.862,22.461,19.531,15.137,18.066,0
1581351681.866,14.160,21.484,13.184,9.766,0
1581351681.870,24.414,16.602,19.043,17.090,0
1581351681.874,31.250,24.414,22.461,13.672,0
1581351681.878,19.531,18.555,20.508,9.766,0
1581351681.882,12.207,5.859,20.508,20.020,0
1581351681.886,17.090,23.926,21.484,18.066,0
1581351681.889,20.996,32.227,20.020,6.348,0
1581351681.893,11.230,26.855,17.090,-0.488,0
1581351681.897,10.742,23.438,19.531,4.395,0
1581351681.901,17.578,23.438,14.648,13.672,0
1581351681.905,30.762,30.762,11.719,23.926,0
1581351681.922,40.527,40.527,22.949,35.156,0
1581351681.926,28.809,33.691,31.250,28.809,0
1581351681.930,18.066,14.648,30.273,20.020,0
1581351681.934,31.250,11.230,25.391,26.367,0
1581351681.938,33.691,5.859,25.879,23.926,0
1581351681.942,21.973,16.113,28.809,21.484,0
1581351681.946,18.555,19.043,22.461,20.020,0
1581351681.949,24.902,15.137,15.625,21.973,0
1581351681.953,34.180,23.926,22.949,31.738,0
1581351681.957,33.203,29.297,24.902,28.809,0
1581351681.961,22.461,34.668,22.949,31.250,0
1581351681.965,26.855,32.715,21.973,35.645,0
1581351681.967,43.945,30.273,23.438,31.738,0
1581351681.971,43.457,13.672,27.832,30.273,0
1581351681.975,32.715,4.395,28.809,28.320,0
1581351681.979,23.926,20.996,27.344,22.949,0
1581351681.983,26.855,24.902,21.484,22.949,0
1581351681.987,34.180,24.414,21.973,28.320,0
1581351681.991,27.344,34.180,32.227,31.250,0
1581351681.994,20.996,14.160,32.715,28.320,0
1581351681.998,31.250,13.672,31.738,27.832,0
1581351682.002,36.133,29.785,22.949,23.926,0
1581351682.006,28.320,24.414,20.996,20.020,0
1581351682.010,19.043,27.832,34.668,19.531,0
1581351682.012,22.949,25.879,38.574,20.508,0
1581351682.016,29.785,22.461,38.574,22.461,0
1581351682.020,26.855,25.391,30.762,21.484,0
1581351682.024,17.090,24.414,33.203,19.531,0
1581351682.028,15.137,19.531,40.039,20.020,0
1581351682.032,26.367,17.090,32.227,29.297,0
1581351682.036,23.438,16.602,26.367,30.762,0
1581351682.039,10.254,19.531,23.926,22.461,0
1581351682.043,11.230,32.227,25.391,26.855,0
1581351682.047,21.484,28.809,31.250,29.785,0
1581351682.051,23.438,10.742,25.879,28.809,0
1581351682.055,17.578,18.555,22.461,33.691,0
1581351682.057,16.602,25.391,25.879,33.203,0
1581351682.061,19.531,24.414,25.879,29.297,0
1581351682.065,22.461,27.344,29.785,32.227,0
1581351682.069,24.414,28.809,35.156,27.344,0
1581351682.073,14.648,29.297,35.645,16.113,0
1581351682.077,12.207,20.020,36.621,9.766,0
1581351682.081,16.113,16.113,36.133,9.766,0
1581351682.084,12.695,20.020,27.832,13.672,0
1581351682.088,9.766,14.648,27.832,11.719,0
1581351682.092,15.137,20.020,34.180,14.160,0
1581351682.096,25.391,21.973,29.785,28.809,0
1581351682.100,23.438,26.367,29.785,26.367,0
1581351682.102,10.742,35.156,31.250,18.555,0
1581351682.106,2.930,24.902,21.973,19.043,0
1581351682.110,12.695,22.461,20.996,22.461,0
1581351682.114,20.508,27.832,31.738,24.414,0
1581351682.118,12.207,27.344,31.738,24.414,0
1581351682.122,1.465,22.461,28.320,17.578,0
1581351682.126,12.207,24.902,26.855,15.137,0
1581351682.129,21.484,24.414,13.672,17.090,0
1581351682.133,17.090,20.020,11.719,17.090,0
1581351682.137,11.719,16.113,23.438,17.578,0
1581351682.141,17.578,10.254,28.809,17.578,0
1581351682.145,26.367,19.043,31.738,21.484,0
1581351682.147,20.508,26.855,26.855,15.625,0
1581351682.151,12.695,23.438,19.531,10.742,0
1581351682.155,12.207,14.648,20.508,14.160,0
1581351682.159,22.949,10.742,24.902,15.625,0
1581351682.163,24.414,26.855,27.832,12.695,0
1581351682.167,12.695,30.762,24.902,8.301,0
1581351682.171,9.277,35.156,17.578,7.324,0
1581351682.174,15.137,31.250,19.043,13.672,0
1581351682.178,23.438,23.438,26.855,12.695,0
1581351682.182,15.137,28.809,26.855,8.301,0
1581351682.186,5.859,26.367,23.926,7.812,0
1581351682.190,15.137,26.367,25.391,9.277,0
1581351682.191,21.973,26.367,30.273,16.113,0
1581351682.195,16.602,20.508,29.785,17.578,0
1581351682.199,14.648,21.484,25.391,20.996,0
1581351682.203,12.207,13.184,19.531,24.902,0
1581351682.207,16.113,16.113,14.160,20.020,0
1581351682.211,14.648,22.949,22.949,12.207,0
1581351682.215,0.000,17.090,29.785,10.254,0
1581351682.218,-3.906,20.996,23.926,5.859,0
1581351682.222,11.719,27.832,16.602,11.230,0
1581351682.226,19.043,20.020,10.742,16.602,0
1581351682.230,8.301,11.719,14.160,18.066,0
1581351682.234,3.418,19.043,20.020,12.207,0
1581351682.251,10.742,27.344,19.531,10.254,0
1581351682.255,24.414,26.855,18.066,19.531,0
1581351682.259,12.207,18.066,15.625,11.230,0
1581351682.263,-4.395,14.160,13.672,2.930,0
1581351682.267,14.648,12.207,15.137,10.254,0
1581351682.271,21.973,16.113,20.020,13.672,0
1581351682.275,11.719,23.926,21.484,9.277,0
1581351682.278,6.836,31.738,19.531,8.301,0
1581351682.282,17.578,36.133,18.555,19.531,0
1581351682.286,37.598,28.320,21.484,27.344,0
1581351682.290,29.297,12.207,20.020,26.367,0
1581351682.294,17.090,11.719,17.578,22.461,0
1581351682.281,19.531,26.855,11.230,18.066,0
1581351682.285,25.391,25.879,6.348,15.137,0
1581351682.289,26.855,17.578,9.766,19.531,0
1581351682.293,19.043,20.996,15.625,15.137,0
1581351682.297,18.066,22.949,23.438,7.324,0
1581351682.301,23.438,26.855,23.926,13.184,0
1581351682.305,27.832,21.484,22.949,15.625,0
1581351682.308,23.926,15.625,28.320,14.648,0
1581351682.312,13.672,25.391,29.297,13.184,0
1581351682.316,18.066,27.832,29.785,12.695,0
1581351682.320,35.156,29.785,31.738,19.531,0
1581351682.324,26.367,27.344,28.809,20.020,0
1581351682.341,13.672,22.949,22.461,16.602,0
1581351682.345,21.973,21.973,25.879,23.926,0
1581351682.349,29.297,16.113,23.926,21.973,0
1581351682.353,34.668,20.996,17.090,21.973,0
1581351682.357,27.832,14.160,19.043,25.879,2
1581351682.361,16.602,13.184,18.066,19.043,0
1581351682.365,22.949,27.832,23.926,20.508,0
1581351682.368,27.832,21.484,33.203,22.949,0
1581351682.372,19.531,17.578,32.715,19.043,0
1581351682.376,17.578,24.414,35.156,16.113,0
1581351682.380,22.461,27.344,27.832,15.625,0
1581351682.384,25.879,34.180,20.996,18.555,0
1581351682.386,20.508,35.645,25.391,16.113,0
1581351682.390,10.742,26.855,21.484,10.254,0
1581351682.394,15.137,13.672,22.949,16.113,0
1581351682.398,26.855,11.719,28.809,19.531,0
1581351682.402,26.367,25.879,25.391,20.020,0
1581351682.406,19.531,31.250,19.531,15.625,0
1581351682.410,19.531,21.484,18.555,14.160,0
1581351682.413,34.180,17.578,24.902,29.785,0
1581351682.417,36.621,13.672,25.879,25.879,0
1581351682.421,23.438,16.602,21.484,15.137,0
1581351682.425,16.602,19.531,19.043,13.672,0
1581351682.429,24.414,9.766,22.461,15.625,0
1581351682.431,37.109,12.207,32.715,26.855,0
1581351682.435,29.785,35.156,35.645,28.809,0
1581351682.439,22.949,33.203,31.250,27.832,0
1581351682.443,33.691,28.320,32.715,29.785,0
1581351682.447,38.574,24.414,30.762,29.785,0
1581351682.451,31.738,22.461,30.273,34.180,0
1581351682.455,22.461,32.227,19.531,29.297,0
1581351682.458,25.391,31.738,15.137,28.320,0
1581351682.462,36.133,26.367,29.785,28.809,0
1581351682.466,37.598,23.438,33.691,24.902,0
1581351682.470,35.645,27.832,30.762,30.762,0
1581351682.474,31.738,27.344,25.391,26.855,0
1581351682.476,32.715,20.508,23.926,20.020,0
1581351682.480,36.621,20.996,25.879,21.973,0
1581351682.484,28.809,15.137,25.391,19.531,0
1581351682.488,20.020,20.020,26.855,20.996,0
1581351682.492,22.461,27.344,25.391,22.949,0
1581351682.496,27.344,22.461,19.043,21.484,0
1581351682.500,25.879,22.461,18.555,20.996,0
1581351682.503,20.996,25.879,20.020,17.578,0
1581351682.507,30.273,20.508,27.832,21.973,0
1581351682.511,39.062,16.602,24.414,22.949,0
1581351682.515,32.227,22.461,15.137,17.578,0
1581351682.519,22.461,28.320,21.973,18.555,0
1581351682.521,19.531,27.832,26.855,16.602,0
1581351682.525,22.461,14.160,22.461,20.020,0
1581351682.529,20.020,16.113,20.020,25.879,0
1581351682.533,14.160,19.043,16.113,27.344,0
1581351682.537,20.996,20.020,11.230,24.902,0
1581351682.541,37.598,23.926,9.766,29.785,0
1581351682.545,41.504,30.273,8.301,41.016,0
1581351682.548,26.367,29.785,8.789,29.785,0
1581351682.552,18.066,24.414,8.789,21.973,0
1581351682.556,31.738,32.715,9.277,30.273,0
1581351682.560,40.039,28.320,16.113,29.785,0
1581351682.564,27.832,19.043,23.438,25.391,0
1581351682.567,20.508,24.414,12.695,25.391,0
1581351682.571,28.320,20.996,15.625,32.715,0
1581351682.575,33.203,6.836,31.738,31.738,0
1581351682.579,28.809,15.625,30.273,23.438,0
1581351682.583,20.996,20.508,21.973,18.555,0
1581351682.587,20.508,7.324,18.066,18.555,0
1581351682.591,28.809,12.695,19.043,20.508,0
1581351682.594,27.344,27.832,18.555,8.789,0
1581351682.598,20.996,38.574,14.160,12.695,0
1581351682.602,23.926,40.039,19.043,21.973,0
1581351682.606,28.809,35.156,22.949,19.043,0
1581351682.610,26.367,26.367,19.043,20.020,0
1581351682.612,19.531,14.160,18.555,18.555,0
1581351682.616,17.090,20.996,28.320,16.602,0
1581351682.620,21.973,25.879,37.598,19.531,0
1581351682.624,21.484,28.320,24.902,19.531,0
1581351682.628,15.625,40.039,19.531,19.043,0
1581351682.632,12.207,37.109,25.391,16.602,0
1581351682.636,17.090,27.344,29.297,15.625,0
1581351682.639,25.879,24.902,33.203,18.555,0
1581351682.643,23.438,19.531,36.133,20.996,0
1581351682.647,10.254,19.043,32.227,18.066,0
1581351682.651,10.742,22.949,27.832,12.695,0
1581351682.655,23.926,23.438,27.344,15.625,0
1581351682.657,25.879,16.602,23.926,15.625,0
1581351682.661,18.066,16.602,32.715,15.137,0
1581351682.665,16.602,21.484,40.039,17.578,0
1581351682.669,28.320,10.254,27.344,16.602,0
1581351682.673,37.109,11.230,19.043,20.996,0
1581351682.677,24.414,16.113,16.602,21.484,0
1581351682.681,14.160,20.996,23.926,17.578,0
1581351682.684,18.555,31.738,32.715,22.461,0
1581351682.688,27.344,29.785,22.949,27.344,0
1581351682.692,20.508,25.879,20.020,26.367,0
1581351682.696,12.207,22.949,30.273,25.391,0
1581351682.700,22.461,15.137,30.762,28.320,0
1581351682.717,25.879,18.555,22.949,26.855,0
1581351682.721,21.484,33.203,21.484,20.996,0
1581351682.725,13.184,30.273,19.531,17.578,0
1581351682.729,13.672,22.461,25.391,20.508,0
1581351682.733,25.391,24.902,31.738,31.738,0
1581351682.737,27.344,20.020,32.715,33.691,0
1581351682.741,17.090,17.578,33.203,24.414,0
1581351682.744,15.137,22.949,31.738,25.391,0
1581351682.748,27.344,20.996,33.203,32.715,0
1581351682.752,30.273,18.066,39.551,31.250,0
1581351682.756,14.160,20.508,30.273,21.973,0
1581351682.760,6.836,24.414,18.066,20.508,0
1581351682.763,20.996,24.902,26.367,27.344,0
1581351682.767,33.691,22.461,32.227,28.320,0
1581351682.771,27.832,29.785,33.691,26.367,0
1581351682.775,16.113,30.273,29.297,24.414,0
1581351682.779,17.090,16.602,18.555,20.996,0
1581351682.783,24.902,16.602,25.391,20.020,0
1581351682.787,25.879,24.902,31.250,20.996,0
1581351682.790,20.996,20.996,36.621,23.926,0
1581351682.794,20.020,13.184,38.086,20.020,0
1581351682.798,26.855,13.184,34.668,19.043,0
1581351682.802,31.250,22.949,33.203,24.902,0
1581351682.806,24.414,24.902,25.879,24.902,0
1581351682.807,19.043,21.484,21.973,19.043,0
1581351682.811,20.508,29.297,20.508,17.578,0
1581351682.815,20.996,40.527,32.227,19.531,0
1581351682.819,13.184,33.691,38.086,14.648,0
1581351682.823,-0.488,14.648,27.344,4.395,0
1581351682.827,8.301,15.625,21.973,4.883,0
1581351682.831,23.926,21.973,25.879,12.207,0
1581351682.834,17.090,15.625,29.785,6.836,0
1581351682.838,8.301,14.648,28.320,-0.488,0
1581351682.842,8.789,16.113,26.855,0.977,0
1581351682.846,19.531,9.277,26.855,4.883,0
1581351682.850,26.367,16.602,25.879,10.254,0
1581351682.852,16.602,29.785,24.902,11.230,0
1581351682.856,15.625,29.785,26.855,13.184,0
1581351682.860,29.785,30.273,23.926,25.879,0
1581351682.864,41.504,23.926,23.926,28.809,0
1581351682.868,33.203,11.719,26.855,26.855,0
1581351682.872,25.391,22.949,21.973,32.227,0
1581351682.876,31.250,24.902,20.020,38.086,0
1581351682.879,33.691,18.555,23.926,35.645,0
1581351682.883,24.902,24.902,28.320,29.785,0
1581351682.887,17.090,27.344,30.273,26.367,0
1581351682.891,19.043,27.832,28.809,24.414,0
1581351682.895,30.273,22.949,25.391,25.391,0
1581351682.897,29.297,26.855,22.461,29.297,0
1581351682.901,15.625,31.250,30.273,28.320,0
1581351682.905,14.160,28.320,34.180,20.996,0
1581351682.909,28.809,31.738,31.250,17.578,0
1581351682.913,32.715,29.785,23.926,17.578,0
1581351682.917,12.695,19.043,9.277,13.672,0
1581351682.921,8.789,24.414,11.719,12.695,0
1581351682.924,14.160,34.180,22.461,12.695,0
1581351682.928,20.996,29.785,31.250,12.207,0
1581351682.932,20.508,24.414,32.715,16.113,0
1581351682.936,14.160,16.113,31.250,18.066,0
1581351682.940,23.438,17.090,28.809,19.531,0
1581351682.942,41.504,30.273,24.414,28.320,0
1581351682.946,27.344,36.133,20.996,25.391,0
1581351682.950,1.465,23.926,14.160,16.602,0
1581351682.954,16.602,25.879,14.648,23.438,0
1581351682.958,32.227,22.949,19.531,27.832,0
1581351682.962,22.461,15.625,23.926,23.926,0
1581351682.966,18.066,32.227,28.809,22.949,0
1581351682.969,22.461,37.109,28.320,20.508,0
1581351682.973,27.832,39.062,23.438,20.996,0
1581351682.977,31.250,36.621,17.578,25.391,0
1581351682.981,23.926,27.344,18.555,21.973,0
1581351682.985,16.113,27.344,25.879,19.531,0
1581351682.987,22.461,19.043,30.762,21.973,0
1581351682.991,25.391,17.090,29.785,19.531,0
1581351682.995,16.113,25.879,27.832,18.555,0
1581351682.999,11.230,26.855,36.133,12.207,0
1581351683.003,20.508,33.203,39.062,13.672,0
1581351683.007,21.973,27.832,22.461,17.090,0
1581351683.011,14.648,21.973,12.207,6.836,0
1581351683.014,10.254,25.879,20.020,6.348,0
1581351683.018,19.531,23.926,29.785,12.695,0
1581351683.022,26.855,20.996,31.738,11.719,0
1581351683.026,22.461,16.602,26.367,11.719,0
1581351683.030,19.043,4.395,24.902,6.348,0
1581351683.032,11.230,6.836,20.996,5.859,0
1581351683.036,18.555,25.879,16.113,15.625,0
1581351683.040,21.484,34.180,18.066,21.484,0
1581351683.044,10.742,29.785,14.648,15.625,0
1581351683.048,4.395,33.203,18.555,7.324,0
1581351683.052,13.184,31.250,27.344,16.113,0
1581351683.056,16.113,22.949,29.297,20.020,0
1581351683.059,1.953,28.809,33.203,16.113,0
1581351683.063,-1.465,29.785,28.320,18.066,0
1581351683.067,12.695,13.672,26.367,23.438,0
1581351683.071,30.762,12.207,31.738,29.785,0
1581351683.075,26.855,26.855,29.785,21.484,0
1581351683.092,15.625,28.320,27.832,18.555,0
1581351683.096,17.090,29.785,22.461,24.414,0
1581351683.100,28.320,23.926,18.555,29.297,0
1581351683.104,29.297,26.855,25.879,30.762,0
1581351683.108,13.184,30.762,20.020,19.531,0
1581351683.112,6.348,19.043,16.113,10.742,0
1581351683.116,19.043,24.902,32.715,16.113,0
1581351683.119,24.902,22.461,35.156,17.578,0
1581351683.123,14.648,17.090,28.809,19.531,0
1581351683.127,9.766,25.391,27.832,18.066,0
1581351683.131,19.043,28.320,25.879,18.066,0
1581351683.135,19.531,20.996,26.367,18.555,0
1581351683.137,16.113,20.020,26.855,15.137,0
1581351683.141,12.207,19.531,21.484,19.043,0
1581351683.145,11.230,14.648,17.578,13.184,0
1581351683.149,21.484,20.508,24.902,11.230,0
1581351683.153,24.414,22.461,22.461,16.602,0
1581351683.157,8.301,18.066,13.672,8.301,0
1581351683.161,4.883,24.902,23.926,7.324,0
1581351683.164,19.043,29.297,36.133,10.254,0
1581351683.168,12.695,19.531,32.715,9.766,0
1581351683.172,4.395,21.973,28.809,12.695,0
1581351683.176,12.695,35.156,33.203,17.578,0
1581351683.180,19.043,31.250,27.832,20.508,0
1581351683.182,22.461,22.461,22.949,17.578,0
1581351683.186,18.066,25.879,22.461,16.113,0
1581351683.190,17.578,31.250,27.344,24.902,0
1581351683.194,24.414,29.785,26.367,28.809,0
1581351683.198,21.484,22.949,23.926,21.973,0
1581351683.202,12.695,15.137,30.762,13.672,0
1581351683.206,6.348,12.207,31.250,12.207,0
1581351683.209,8.301,15.137,28.320,11.719,0
1581351683.213,13.672,28.320,32.715,7.324,0
1581351683.217,11.719,32.715,36.621,5.859,0
1581351683.221,-0.488,31.738,31.738,6.348,0
1581351683.225,-0.977,29.297,32.227,8.301,0
1581351683.227,11.719,22.461,34.180,14.160,0
1581351683.231,13.184,22.949,33.691,14.160,0
1581351683.235,-0.488,26.855,34.180,11.230,0
1581351683.239,-5.859,23.438,28.809,8.301,0
1581351683.243,4.883,15.625,20.020,10.742,0
1581351683.247,11.719,25.391,29.297,19.531,0
1581351683.251,1.953,32.227,34.668,15.137,0
1581351683.254,-5.859,27.344,24.902,8.301,0
1581351683.258,5.371,28.809,24.902,2.441,0
1581351683.262,13.672,30.273,27.344,7.812,0
1581351683.266,8.301,28.320,30.273,16.602,0
1581351683.270,1.465,27.832,34.180,10.254,0
1581351683.271,4.395,25.879,36.133,11.719,0
1581351683.275,17.090,15.137,35.156,17.578,0
1581351683.279,19.043,10.742,25.391,13.672,0
1581351683.283,7.812,25.391,12.695,9.766,0
1581351683.287,6.836,31.250,14.160,2.441,0
1581351683.291,20.020,30.762,27.832,3.418,0
1581351683.295,26.855,29.785,37.109,11.230,0
1581351683.298,20.020,8.789,31.738,7.324,0
1581351683.302,12.695,0.488,14.648,5.859,0
1581351683.306,21.973,15.137,12.207,9.766,0
1581351683.310,29.785,25.879,26.367,12.207,0
1581351683.314,23.926,27.832,30.273,9.766,0
1581351683.316,16.602,22.949,29.785,7.324,0
1581351683.320,22.461,24.902,34.668,11.719,0
1581351683.324,31.738,20.020,33.691,12.695,0
1581351683.328,25.391,16.113,30.762,11.719,0
1581351683.332,12.695,20.020,35.645,7.812,0
1581351683.336,13.184,15.625,30.762,9.277,0
1581351683.340,25.391,19.531,24.902,17.090,0
1581351683.343,26.855,23.926,35.156,19.043,0
1581351683.347,19.043,20.996,35.156,15.137,0
1581351683.351,21.484,11.719,30.273,14.648,0
1581351683.355,35.645,15.625,28.320,21.484,0
1581351683.359,44.434,32.227,22.461,26.855,0
1581351683.361,30.273,40.527,19.531,22.461,0
1581351683.365,20.996,37.598,20.020,17.578,0
1581351683.369,29.785,30.273,26.855,20.020,0
1581351683.373,35.645,25.879,30.273,23.438,0
1581351683.377,28.320,25.879,33.691,19.043,0
1581351683.381,14.648,19.043,33.691,9.277,0
1581351683.385,11.719,17.090,27.832,5.371,0
1581351683.388,21.973,13.672,31.738,7.812,0
1581351683.392,21.973,5.371,31.250,16.113,0
1581351683.396,11.230,4.883,21.484,12.695,0
1581351683.400,18.066,11.719,27.832,12.207,0
1581351683.404,35.645,27.344,31.738,22.949,0
1581351683.406,36.621,37.598,31.250,24.902,0
1581351683.410,27.832,20.996,27.344,23.926,0
1581351683.414,31.250,13.672,24.414,26.855,0
1581351683.418,40.527,9.766,26.367,21.973,0
1581351683.422,39.551,15.137,27.832,23.926,0
1581351683.426,24.414,34.180,36.133,23.438,0
1581351683.430,18.066,22.949,43.457,17.090,0
1581351683.433,26.367,16.602,39.062,20.020,0
1581351683.437,28.320,22.461,26.367,16.113,0
1581351683.441,20.020,14.160,31.738,12.695,0
1581351683.445,8.789,13.672,35.645,8.789,0
1581351683.449,13.184,23.926,25.879,3.906,0
1581351683.466,24.902,28.320,25.879,10.254,0
1581351683.470,25.879,31.250,34.668,19.531,1
1581351683.474,20.020,23.438,34.668,23.438,0
1581351683.478,20.996,18.555,31.738,25.391,0
1581351683.482,29.785,18.555,30.762,26.855,0
1581351683.486,29.297,17.090,30.273,25.391,0
1581351683.490,20.996,16.602,32.227,21.973,0
1581351683.493,17.090,17.090,30.273,21.973,0
1581351683.497,19.043,19.531,29.785,19.531,0
1581351683.501,20.020,20.508,28.320,17.578,0
1581351683.505,15.625,22.949,30.762,16.602,0
1581351683.509,6.348,23.926,23.438,13.184,0
1581351683.511,9.277,28.320,24.414,15.137,0
1581351683.515,20.020,24.902,34.668,14.648,0
1581351683.519,19.043,18.555,33.691,11.230,0
1581351683.523,11.230,13.184,22.949,12.695,0
1581351683.527,14.648,-0.488,19.531,17.578,0
1581351683.531,32.227,2.930,25.391,25.879,0
1581351683.535,32.715,21.973,24.902,27.344,0
1581351683.538,21.484,34.180,28.809,23.926,0
1581351683.542,22.949,35.645,25.391,26.855,0
1581351683.546,35.156,38.574,18.066,24.414,0
1581351683.550,37.109,40.527,21.973,20.508,0
1581351683.554,27.344,32.715,29.785,19.531,0
1581351683.556,23.926,24.414,30.762,23.438,0
1581351683.560,28.809,20.996,30.273,20.996,0
1581351683.564,29.785,20.020,27.344,15.625,0
1581351683.568,20.020,18.555,17.578,12.207,0
1581351683.572,16.602,24.902,16.113,14.648,0
1581351683.576,22.461,20.996,23.438,18.066,0
1581351683.580,21.973,21.484,20.996,12.207,0
1581351683.583,16.602,27.832,15.137,10.254,0
1581351683.587,6.836,23.926,20.020,2.441,0
1581351683.591,7.324,25.391,31.250,5.859,0
1581351683.595,22.461,21.484,37.109,23.438,0
1581351683.599,26.855,21.484,36.133,29.297,0
1581351683.601,20.020,17.090,32.227,29.785,0
1581351683.605,16.113,14.648,28.809,26.367,0
1581351683.609,25.391,26.855,30.762,23.438,0
1581351683.613,34.180,10.742,25.879,24.414,0
1581351683.617,27.344,-8.789,24.414,25.391,0
1581351683.621,27.344,17.578,35.645,26.367,0
1581351683.625,38.574,38.086,31.738,28.320,0
1581351683.628,39.551,32.227,20.996,29.297,0
1581351683.632,36.621,29.785,22.461,26.367,0
1581351683.636,34.180,29.785,30.762,29.785,0
1581351683.640,38.086,31.738,37.109,39.062,0
1581351683.644,40.527,31.738,34.180,34.180,0
1581351683.647,29.297,25.879,21.484,21.484,0
1581351683.651,20.508,14.648,19.531,22.949,0
1581351683.655,24.902,6.836,25.391,27.344,0
1581351683.659,37.598,21.484,22.949,21.973,0
1581351683.663,42.969,29.785,20.508,18.555,0
1581351683.667,37.109,30.273,25.879,18.066,0
1581351683.671,35.156,33.203,33.691,19.531,0
1581351683.674,45.898,24.902,34.668,19.531,0
1581351683.678,49.316,14.648,31.738,21.484,0
1581351683.682,38.574,12.207,24.902,25.391,0
1581351683.686,28.809,25.879,22.461,20.508,0
1581351683.690,28.320,27.344,27.832,21.484,0
1581351683.692,32.715,19.531,27.832,25.391,0
1581351683.696,23.926,19.043,30.762,27.832,0
1581351683.700,12.695,28.320,38.086,27.832,0
1581351683.704,13.184,28.809,31.250,20.020,0
1581351683.708,17.090,30.273,23.438,20.020,0
1581351683.712,20.996,39.062,24.902,22.949,0
1581351683.716,22.461,26.855,24.414,26.367,0
1581351683.719,19.043,18.066,21.973,24.414,0
1581351683.723,24.902,19.043,29.297,23.438,0
1581351683.727,30.762,24.414,32.227,28.320,0
1581351683.731,22.949,21.973,32.227,29.785,0
1581351683.735,19.043,17.090,25.879,30.762,0
1581351683.737,27.344,24.414,20.020,31.250,0
1581351683.741,34.668,19.043,25.879,31.738,0
1581351683.745,23.926,6.348,26.855,28.320,0
1581351683.749,14.648,15.137,34.668,20.020,0
1581351683.753,27.832,28.809,44.434,25.391,0
1581351683.757,37.598,38.574,40.039,27.832,0
1581351683.761,25.391,33.203,30.273,15.625,0
1581351683.764,17.090,27.832,32.227,16.602,0
1581351683.768,20.996,27.344,30.762,23.926,0
1581351683.772,23.926,19.531,19.531,23.926,0
1581351683.776,22.949,20.020,20.996,21.484,0
1581351683.780,18.555,15.137,26.855,19.043,0
1581351683.782,21.484,7.812,25.879,24.902,0
1581351683.786,33.203,5.859,21.484,26.855,0
1581351683.790,28.320,15.137,23.438,22.949,0
1581351683.794,14.160,32.715,27.344,15.625,0
1581351683.798,11.230,27.344,30.762,13.672,0
1581351683.802,19.043,21.484,39.551,22.949,0
1581351683.806,24.414,37.598,41.016,20.996,0
1581351683.809,18.555,30.273,33.691,19.043,0
1581351683.813,8.789,11.230,25.391,17.578,0
1581351683.817,6.836,21.973,21.973,14.160,0
1581351683.821,14.648,28.809,21.973,18.066,0
1581351683.825,19.531,18.555,23.926,15.137,0
1581351683.842,17.090,10.254,25.879,11.719,0
1581351683.846,19.531,8.789,23.926,13.672,0
1581351683.850,30.762,13.672,20.020,16.113,0
1581351683.854,33.203,24.902,22.949,18.066,0
1581351683.858,26.367,38.086,35.645,20.996,0
1581351683.862,21.973,34.180,35.645,18.066,0
1581351683.866,26.367,24.414,27.832,13.184,0
1581351683.869,33.203,30.762,24.902,18.555,0
1581351683.873,28.320,30.762,26.855,22.461,0
1581351683.877,22.949,23.926,28.809,23.926,0
1581351683.881,27.832,19.531,24.902,31.738,0
1581351683.885,31.738,9.766,29.297,30.273,0
1581351683.887,25.879,11.230,28.320,24.902,0
1581351683.891,20.508,13.672,24.414,29.297,0
1581351683.895,27.832,9.277,34.668,30.762,0
1581351683.899,35.156,10.742,31.250,29.785,0
1581351683.903,26.367,23.926,24.414,21.484,0
1581351683.907,14.648,27.832,24.414,19.531,0
1581351683.911,18.555,28.320,16.113,21.973,0
1581351683.914,29.297,27.344,14.160,16.602,0
1581351683.918,29.297,28.809,27.832,18.066,0
1581351683.922,15.625,24.902,34.180,10.742,0
1581351683.926,12.207,20.508,32.715,10.742,0
1581351683.930,17.090,21.973,33.203,14.160,0
1581351683.932,20.996,17.578,26.367,10.742,0
1581351683.936,17.090,21.973,23.438,13.184,0
1581351683.940,10.254,25.391,27.832,13.184,0
1581351683.944,16.113,21.973,30.762,13.672,0
1581351683.948,29.297,23.926,32.227,19.531,0
1581351683.952,29.785,27.832,30.762,18.555,0
1581351683.956,24.414,27.344,30.273,20.020,0
1581351683.959,27.832,19.043,20.508,26.367,0
1581351683.963,35.645,21.973,19.043,27.344,0
1581351683.967,33.691,36.133,31.250,26.855,0
1581351683.971,22.461,27.344,40.527,29.785,0
1581351683.975,17.090,8.301,30.273,30.762,0
1581351683.977,26.855,17.578,22.461,33.691,0
1581351683.981,28.320,28.320,35.645,29.785,0
1581351683.985,20.020,24.414,40.527,27.832,0
1581351683.989,20.508,31.738,32.715,26.855,0
1581351683.993,24.414,33.691,24.902,23.438,0
1581351683.997,20.020,31.250,22.949,19.043,0
1581351684.001,17.090,33.691,24.414,20.996,0
1581351684.004,12.207,33.203,30.762,16.602,0
1581351684.008,11.230,28.320,32.227,8.301,0
1581351684.012,21.484,26.855,32.227,15.625,0
1581351684.016,23.926,23.438,30.273,13.672,0
1581351684.020,19.531,22.461,27.344,6.836,0
1581351684.022,17.090,27.344,27.344,10.742,0
1581351684.026,30.762,27.832,30.273,18.066,0
1581351684.030,28.809,21.484,29.297,7.812,0
1581351684.034,8.789,22.949,25.879,-9.766,0
1581351684.038,9.766,20.996,27.344,-2.930,0
1581351684.042,21.484,19.531,31.738,6.836,0
1581351684.046,13.184,24.902,32.227,-5.371,0
1581351684.049,-11.719,26.855,30.273,-19.531,0
1581351684.053,-21.973,24.414,29.785,-20.508,0
1581351684.057,-15.625,20.996,34.180,-24.902,0
1581351684.061,-22.949,21.973,35.156,-31.250,0
1581351684.065,-47.363,24.414,33.203,-42.480,0
1581351684.067,-61.035,31.250,37.598,-58.105,0
1581351684.071,-70.801,20.508,33.691,-72.754,0
1581351684.075,-74.707,1.465,31.738,-80.078,0
1581351684.079,-87.891,10.254,36.621,-88.867,0
1581351684.083,-102.051,32.227,28.809,-101.562,0
1581351684.087,-94.238,39.062,30.762,-95.215,0
1581351684.091,-89.844,36.621,47.852,-90.820,0
1581351684.094,-93.750,40.039,54.688,-102.051,0
1581351684.098,-91.309,39.551,51.758,-99.121,0
1581351684.102,-83.008,34.668,45.898,-84.961,0
1581351684.106,-71.289,32.715,43.457,-83.984,0
1581351684.110,-67.383,23.926,40.527,-80.078,0
1581351684.112,-73.242,15.137,34.668,-73.730,0
1581351684.116,-71.289,16.602,31.738,-64.941,0
1581351684.120,-53.711,30.762,38.086,-52.246,0
1581351684.124,-38.574,39.551,37.109,-41.016,0
1581351684.128,-50.781,18.066,27.344,-48.340,0
1581351684.132,-51.270,5.371,24.902,-44.434,0
1581351684.136,-27.344,9.277,27.832,-21.973,0
1581351684.139,-3.906,26.855,29.297,-8.301,0
1581351684.143,0.488,47.852,27.832,4.395,0
1581351684.147,-6.836,42.480,22.949,2.441,0
1581351684.151,3.906,34.668,27.832,14.160,0
1581351684.155,23.926,28.809,31.738,22.949,0
1581351684.157,28.320,22.949,26.367,26.367,0
1581351684.161,21.484,18.066,24.414,32.715,0
1581351684.165,26.367,18.066,24.414,32.715,0
1581351684.169,45.898,12.207,26.855,42.480,0
1581351684.173,58.105,20.996,28.809,49.805,0
1581351684.177,47.852,29.297,22.949,44.434,0
1581351684.181,44.434,25.879,23.926,47.852,0
1581351684.184,57.617,34.668,29.297,60.059,0
1581351684.188,63.477,26.855,29.785,63.965,0
1581351684.192,56.641,5.371,26.367,61.523,0
1581351684.196,50.781,3.418,18.066,61.523,0
1581351684.200,51.758,16.113,20.020,59.082,0
1581351684.217,62.012,23.438,24.414,62.988,0
1581351684.221,64.453,14.648,26.367,70.801,0
1581351684.225,51.270,19.043,24.414,63.477,0
1581351684.229,49.316,25.879,16.113,61.035,0
1581351684.233,59.570,21.484,17.578,65.430,0
1581351684.237,65.430,17.578,28.320,67.383,0
1581351684.241,56.641,13.672,26.855,66.895,0
1581351684.244,50.293,8.301,19.531,64.941,0
1581351684.248,66.406,8.301,19.043,69.824,0
1581351684.252,71.777,7.812,21.484,64.941,0
1581351684.256,61.035,4.883,25.879,55.664,0
1581351684.260,58.105,-3.906,25.391,60.059,0
1581351684.262,63.965,-5.371,23.926,63.477,0
1581351684.266,68.359,26.367,23.438,63.477,0
1581351684.270,62.988,43.945,22.461,55.176,0
1581351684.274,57.129,40.039,16.113,47.852,0
1581351684.278,62.012,28.320,10.254,51.758,0
1581351684.282,73.242,22.461,13.672,52.246,0
1581351684.286,64.941,14.648,20.996,49.316,0
1581351684.289,49.805,9.277,21.484,45.410,0
1581351684.293,54.199,20.508,22.949,46.875,0
1581351684.297,65.918,25.391,27.344,50.781,0
1581351684.301,63.477,9.277,20.020,45.898,0
1581351684.305,51.270,-4.883,17.578,45.898,0
1581351684.307,48.828,9.766,23.926,46.875,0
1581351684.311,54.688,20.996,28.809,44.434,0
1581351684.315,60.059,20.508,25.879,47.363,0
1581351684.319,55.664,20.020,22.949,49.805,0
1581351684.323,44.922,23.926,20.996,40.527,0
1581351684.327,47.852,22.949,21.484,38.574,0
1581351684.331,50.781,12.695,22.949,37.109,0
1581351684.334,41.992,13.184,21.973,38.086,0
1581351684.338,36.133,17.090,21.484,37.109,0
1581351684.342,41.504,0.000,25.879,35.156,0
1581351684.346,46.387,2.441,35.645,41.016,0
1581351684.350,41.504,22.461,37.598,37.598,0
1581351684.352,39.062,38.086,34.668,36.133,0
1581351684.356,40.039,36.621,32.227,35.645,0
1581351684.360,50.293,28.320,32.227,39.062,0
1581351684.364,53.711,26.855,28.320,41.992,0
1581351684.368,43.457,19.043,24.902,34.180,0
1581351684.372,42.969,18.555,30.273,30.273,0
1581351684.376,45.898,13.184,32.715,30.762,0
1581351684.379,41.992,6.836,28.809,26.855,0
1581351684.383,34.668,7.812,22.461,19.531,0
1581351684.387,21.484,14.160,26.855,16.602,0
1581351684.391,19.043,25.879,35.156,17.578,0
1581351684.395,31.250,18.066,37.598,19.531,0
1581351684.397,32.715,22.461,36.133,25.391,0
1581351684.401,25.391,43.457,32.227,25.879,0
1581351684.405,31.738,37.598,30.762,25.879,0
1581351684.409,44.922,30.273,29.297,37.598,0
1581351684.413,39.062,18.066,25.391,34.668,0
1581351684.417,20.996,5.371,19.531,26.367,0
1581351684.421,17.578,25.391,25.879,27.344,0
1581351684.424,27.344,27.344,33.203,18.066,0
1581351684.428,30.273,18.555,32.227,16.113,0
1581351684.432,22.461,29.297,33.691,19.043,0
1581351684.436,12.695,27.832,30.762,13.672,0
1581351684.440,18.555,22.949,26.855,15.625,0
1581351684.441,23.926,23.438,26.855,13.672,0
1581351684.445,12.207,19.043,27.832,12.695,0
1581351684.449,4.395,21.973,27.344,9.766,0
1581351684.453,14.160,32.715,31.250,13.184,0
1581351684.457,21.484,34.180,27.832,14.160,0
1581351684.461,16.113,20.508,20.508,13.184,0
1581351684.465,11.719,16.602,31.250,22.461,0
1581351684.468,15.137,31.250,41.992,21.484,0
1581351684.472,27.832,28.809,41.016,23.438,0
1581351684.476,33.203,24.414,38.086,26.367,0
1581351684.480,24.902,31.250,36.621,23.438,0
1581351684.484,20.020,27.344,30.762,28.320,0
1581351684.486,25.879,15.625,26.367,28.320,0
1581351684.490,29.297,23.438,37.598,28.809,0
1581351684.494,19.043,37.598,42.480,21.973,0
1581351684.498,10.742,28.809,30.762,17.090,0
1581351684.502,19.531,15.137,33.691,23.926,0
1581351684.506,22.461,22.461,35.645,18.555,0
1581351684.510,13.184,24.902,31.738,14.648,0
1581351684.513,9.277,20.508,30.273,14.648,0
1581351684.517,10.254,28.320,26.855,8.301,0
1581351684.521,17.578,21.484,38.574,13.184,0
1581351684.525,21.484,15.137,41.992,14.648,0
1581351684.529,19.043,29.297,34.180,15.625,0
1581351684.531,19.531,34.668,32.715,16.602,0
1581351684.535,27.832,38.574,31.738,22.461,0
1581351684.539,35.156,26.855,32.227,28.809,0
1581351684.543,25.391,18.555,30.273,21.973,0
1581351684.547,17.578,26.367,25.879,15.137,0
1581351684.551,30.273,14.648,31.738,16.113,0
1581351684.555,37.109,12.207,33.203,18.066,0
1581351684.558,27.344,17.090,22.461,22.461,0
1581351684.562,17.578,15.625,20.996,17.578,0
1581351684.566,28.809,15.137,27.344,17.090,0
1581351684.570,37.109,17.578,25.391,22.461,0
1581351684.574,20.508,24.902,20.996,14.648,0
1581351684.591,13.672,25.391,29.297,13.672,0
1581351684.595,23.438,23.438,36.621,19.531,2
1581351684.599,31.738,21.973,29.297,25.391,0
1581351684.603,29.297,10.742,29.297,21.484,0
1581351684.607,25.391,15.625,36.621,19.043,0
1581351684.611,26.855,26.855,36.621,21.484,0
1581351684.615,37.109,34.180,34.180,25.391,0
1581351684.618,40.527,27.344,29.297,32.715,0
1581351684.622,31.738,16.113,26.855,28.809,0
1581351684.626,32.715,25.391,31.250,23.926,0
1581351684.630,44.434,29.297,26.855,29.785,0
1581351684.634,51.270,25.391,27.832,34.668,0
1581351684.636,41.504,27.344,37.598,31.250,0
1581351684.640,26.855,19.531,32.227,22.949,0
1581351684.644,30.762,16.602,25.391,21.484,0
1581351684.648,41.016,15.625,30.273,24.902,0
1581351684.652,35.156,7.812,32.227,22.461,0
1581351684.656,20.996,18.066,30.762,17.090,0
1581351684.660,17.578,34.180,30.762,11.719,0
1581351684.663,28.809,36.621,33.203,16.602,0
1581351684.667,29.785,30.762,35.156,20.020,0
1581351684.671,14.160,20.996,29.785,8.789,0
1581351684.675,16.602,27.832,30.762,13.184,0
1581351684.679,29.297,38.086,34.180,20.020,0
1581351684.681,31.250,17.090,24.902,17.090,0
1581351684.685,26.367,13.184,23.926,15.137,0
1581351684.689,23.926,22.461,28.809,11.719,0
1581351684.693,40.039,24.414,27.832,17.578,0
1581351684.697,47.363,25.391,30.762,18.555,0
1581351684.701,36.133,26.367,28.809,13.672,0
1581351684.705,34.180,43.457,33.203,20.020,0
1581351684.708,41.992,33.691,46.875,28.320,0
1581351684.712,45.898,3.418,50.781,24.414,0
1581351684.716,35.156,13.184,46.387,17.578,0
1581351684.720,23.926,27.832,41.992,26.367,0
1581351684.724,21.484,29.785,41.016,33.691,0
1581351684.726,28.809,40.039,40.039,36.621,0
1581351684.730,29.297,41.992,36.133,35.645,0
1581351684.734,14.648,30.273,38.086,29.297,0
1581351684.738,16.113,25.391,41.016,30.273,0
1581351684.742,28.320,28.320,40.527,35.645,0
1581351684.746,34.668,27.344,36.621,36.133,0
1581351684.750,31.738,24.902,40.039,36.621,0
1581351684.753,25.391,23.438,37.598,34.668,0
1581351684.757,35.156,25.391,35.645,35.645,0
1581351684.761,41.992,22.461,33.691,37.598,0
1581351684.765,29.785,27.832,30.762,28.809,0
1581351684.769,22.461,32.715,38.086,21.484,0
1581351684.772,29.785,28.320,37.598,23.926,0
1581351684.776,40.039,28.320,35.156,25.879,0
1581351684.780,37.109,20.996,33.203,27.832,0
1581351684.784,20.996,8.789,27.832,25.879,0
1581351684.788,17.578,20.996,27.832,22.461,0
1581351684.792,29.785,29.297,33.691,25.391,0
1581351684.796,29.297,12.695,38.086,27.344,0
1581351684.799,18.555,14.160,40.039,25.879,0
1581351684.803,17.578,28.320,38.086,26.367,0
1581351684.807,24.414,19.531,29.297,26.855,0
1581351684.811,28.809,17.090,28.320,25.391,0
1581351684.815,22.949,25.879,37.598,26.367,0
1581351684.817,15.625,20.996,33.203,20.020,0
1581351684.821,16.602,10.742,27.344,19.043,0
1581351684.825,19.531,9.277,24.902,18.066,0
1581351684.829,18.555,18.555,33.691,18.066,0
1581351684.833,9.277,24.414,35.156,15.625,0
1581351684.837,15.625,16.113,36.621,16.602,0
1581351684.841,33.203,13.672,41.016,26.367,0
1581351684.844,30.762,21.484,42.969,24.902,0
1581351684.848,21.484,24.902,44.434,16.113,0
1581351684.852,22.949,15.137,35.645,15.137,0
1581351684.856,28.809,4.395,30.273,19.043,0
1581351684.860,27.832,14.648,36.133,15.137,0
1581351684.862,19.531,24.902,33.691,11.719,0
1581351684.866,15.625,21.484,21.973,11.719,0
1581351684.870,20.996,16.602,26.367,15.137,0
1581351684.874,30.762,24.902,36.621,19.043,0
1581351684.878,24.902,23.926,37.598,17.578,0
1581351684.882,14.648,13.184,32.715,18.555,0
1581351684.886,20.020,20.508,28.809,18.066,0
1581351684.889,26.855,22.461,30.273,19.531,0
1581351684.893,19.043,15.625,32.227,23.438,0
1581351684.897,9.766,13.184,24.902,23.438,0
1581351684.901,15.625,14.648,25.879,26.855,0
1581351684.905,23.438,25.391,30.273,27.832,0
1581351684.907,23.926,33.203,27.344,27.832,0
1581351684.911,19.043,26.367,21.484,22.949,0
1581351684.915,19.531,23.926,21.973,20.996,0
1581351684.919,28.809,23.926,21.484,23.926,0
1581351684.923,30.273,15.625,18.066,23.438,0
1581351684.927,21.484,14.160,21.484,22.461,0
1581351684.931,21.973,26.855,24.902,20.996,0
1581351684.934,33.203,35.156,24.414,22.461,0
1581351684.938,43.457,27.344,25.391,29.297,0
1581351684.942,29.785,23.438,27.344,25.391,0
1581351684.946,14.648,20.996,30.762,20.020,0
1581351684.950,19.531,18.066,30.273,21.484,0
1581351684.967,20.996,19.043,26.855,22.949,0
1581351684.971,22.949,19.043,28.809,23.438,0
1581351684.975,21.484,20.508,32.227,20.996,0
1581351684.979,21.973,22.949,33.203,28.320,0
1581351684.983,31.250,15.137,34.180,35.645,0
1581351684.987,26.367,9.277,34.180,27.832,0
1581351684.991,16.602,16.113,29.297,21.973,0
1581351684.994,21.973,20.020,22.949,27.344,0
1581351684.998,33.203,18.555,19.043,35.156,0
1581351685.002,34.668,23.438,20.996,29.297,0
1581351685.006,24.414,28.320,27.344,22.461,0
1581351685.010,16.113,19.043,27.344,26.367,0
1581351685.012,26.855,9.277,26.367,32.227,0
1581351685.016,41.016,14.648,25.879,32.715,0
1581351685.020,30.762,22.949,28.320,25.879,0
1581351685.024,17.090,26.367,32.227,17.090,0
1581351685.028,19.531,27.344,27.832,11.719,0
1581351685.032,29.785,29.785,23.926,19.531,0
1581351685.036,29.785,24.902,22.949,23.926,0
1581351685.039,25.879,19.531,24.902,20.508,0
1581351685.043,27.344,24.902,29.785,22.949,0
1581351685.047,31.250,22.461,23.438,18.066,0
1581351685.051,34.180,15.137,18.555,18.066,0
1581351685.055,29.297,19.531,25.391,21.484,0
1581351685.057,18.555,19.531,28.320,12.207,0
1581351685.061,29.297,11.719,29.297,19.043,0
1581351685.065,36.621,7.812,28.320,19.531,0
1581351685.069,22.461,18.066,26.855,6.836,0
1581351685.073,21.484,17.090,25.879,15.137,0
1581351685.077,33.203,13.184,30.273,26.367,0
1581351685.081,34.180,28.320,37.109,26.367,0
1581351685.084,20.996,31.250,29.297,21.484,0
1581351685.088,17.090,28.809,27.832,18.555,0
1581351685.092,16.602,33.203,28.809,21.973,0
1581351685.096,20.020,25.879,25.391,24.414,0
1581351685.100,26.855,19.043,30.273,22.461,0
1581351685.102,15.137,21.484,31.738,22.949,0
1581351685.106,12.207,23.438,28.320,20.996,0
1581351685.110,25.391,19.531,30.273,20.508,0
1581351685.114,24.414,12.695,25.879,14.648,0
1581351685.118,10.254,12.695,20.508,4.395,0
1581351685.122,12.695,15.137,27.832,2.930,0
1581351685.126,27.832,11.230,33.691,11.719,0
1581351685.129,37.598,16.602,31.250,18.066,0
1581351685.133,34.180,25.879,31.738,17.090,0
1581351685.137,28.320,30.273,32.227,21.973,0
1581351685.141,28.809,35.645,22.949,21.973,0
1581351685.145,30.273,23.438,20.996,20.996,0
1581351685.147,26.367,19.531,33.203,24.414,0
1581351685.151,18.066,31.250,32.227,18.066,0
1581351685.155,18.066,27.832,18.066,18.555,0
1581351685.159,26.367,28.809,24.414,22.461,0
1581351685.163,21.973,24.414,33.203,18.555,0
1581351685.167,15.137,16.602,30.762,13.184,0
1581351685.171,13.672,20.996,27.344,14.648,0
1581351685.174,23.438,14.160,27.832,15.625,0
1581351685.178,31.250,13.184,29.297,4.883,0
1581351685.182,20.020,15.625,30.273,5.859,0
1581351685.186,14.160,16.602,28.809,12.207,0
1581351685.190,19.531,21.973,26.367,18.066,0
1581351685.192,18.555,30.273,32.715,16.602,0
1581351685.196,10.254,32.227,35.645,11.230,0
1581351685.200,6.348,36.133,41.992,14.160,0
1581351685.204,13.672,32.227,44.922,12.207,0
1581351685.208,13.672,17.090,32.715,-0.977,0
1581351685.212,11.230,6.348,26.855,0.488,0
1581351685.216,8.301,9.277,31.250,1.465,0
1581351685.219,10.742,19.531,29.297,-3.906,0
1581351685.223,25.879,18.066,19.043,0.977,0
1581351685.227,27.344,22.461,18.066,5.859,0
1581351685.231,12.695,30.762,25.391,7.812,0
1581351685.235,13.184,19.531,27.832,7.324,0
1581351685.237,34.180,15.625,29.297,15.625,0
1581351685.241,35.645,28.809,28.809,19.531,0
1581351685.245,14.648,33.691,23.438,12.695,0
1581351685.249,11.719,35.156,29.297,10.742,0
1581351685.253,23.438,35.645,40.527,10.742,0
1581351685.257,26.367,23.926,37.109,9.766,0
1581351685.261,27.344,22.461,34.668,12.207,0
1581351685.264,22.461,24.902,33.203,9.277,0
1581351685.268,11.230,17.578,21.484,1.953,0
1581351685.272,21.484,22.461,25.391,4.883,0
1581351685.276,29.297,19.531,25.879,9.277,0
1581351685.280,22.461,22.949,29.297,16.602,0
1581351685.282,23.438,28.320,41.016,21.484,0
1581351685.286,26.855,21.484,35.156,13.184,0
1581351685.290,23.438,22.949,28.320,4.883,0
1581351685.294,16.113,27.344,32.715,2.930,0
1581351685.298,11.230,29.297,34.668,3.906,0
1581351685.302,19.043,29.785,31.250,4.395,0
1581351685.306,22.949,29.785,29.785,1.465,0
1581351685.309,17.090,31.250,32.227,3.418,0
1581351685.313,13.672,27.344,34.668,15.137,0
1581351685.317,17.578,24.902,33.203,18.555,0
1581351685.321,21.484,21.484,27.832,14.160,0
1581351685.325,17.578,27.344,23.438,14.648,0
1581351685.342,17.090,44.434,35.645,14.160,0
1581351685.346,18.066,33.691,42.480,15.625,0
1581351685.350,14.648,21.973,27.344,13.184,0
1581351685.354,8.789,28.320,24.902,7.324,0
1581351685.358,-2.441,13.184,36.621,7.324,0
1581351685.362,-3.418,15.137,34.180,0.977,0
1581351685.366,9.766,36.621,22.949,0.000,0
1581351685.369,12.695,22.461,23.926,10.742,0
1581351685.373,6.836,3.906,29.785,13.672,0
1581351685.377,0.977,20.508,32.715,6.836,0
1581351685.381,12.207,41.992,38.574,7.324,0
1581351685.385,23.926,41.992,40.527,15.625,0
1581351685.387,12.695,34.668,36.621,12.207,0
1581351685.391,4.395,25.879,37.598,12.207,0
1581351685.395,8.301,15.625,27.344,14.648,0
1581351685.399,11.230,21.973,18.066,9.277,0
1581351685.403,19.531,31.738,34.180,21.484,0
1581351685.407,13.184,26.367,31.250,20.020,0
1581351685.411,8.789,27.344,22.949,9.277,0
1581351685.414,18.555,28.320,25.391,8.301,0
1581351685.418,19.531,20.996,25.879,9.766,0
1581351685.422,13.184,27.832,30.762,9.766,0
1581351685.426,10.742,26.855,33.691,14.160,0
1581351685.430,21.973,16.602,32.227,13.184,0
1581351685.432,20.996,24.414,23.926,0.977,0
1581351685.436,9.766,15.137,24.414,-3.906,0
1581351685.440,11.719,11.719,26.367,-1.953,0
1581351685.444,18.066,33.203,24.902,3.906,0
1581351685.448,20.020,36.133,32.227,8.789,0
1581351685.452,19.043,29.297,27.832,14.160,0
1581351685.456,15.625,22.461,21.973,18.066,0
1581351685.459,21.484,27.344,28.809,25.879,0
1581351685.463,30.762,34.668,33.691,29.785,0
1581351685.467,29.785,22.949,30.762,26.367,0
1581351685.471,26.367,28.320,29.297,24.902,0
1581351685.475,24.902,40.527,38.086,23.926,0
1581351685.476,31.250,33.203,36.133,24.414,0
1581351685.480,26.855,22.949,31.250,20.996,0
1581351685.484,12.207,24.902,26.855,12.695,0
1581351685.488,7.324,34.180,21.484,5.859,0
1581351685.492,13.184,26.367,22.949,0.488,0
1581351685.496,19.531,14.160,27.344,-12.207,0
1581351685.500,9.766,17.578,29.785,-20.020,0
1581351685.503,8.789,17.090,27.344,-15.137,0
1581351685.507,22.949,16.602,28.809,-15.137,0
1581351685.511,29.785,42.480,25.391,-11.230,0
1581351685.515,19.043,52.246,22.461,-13.672,0
1581351685.519,8.301,35.645,32.715,-23.926,0
1581351685.521,15.137,31.250,33.691,-14.648,0
1581351685.525,24.902,32.715,29.297,-0.977,0
1581351685.529,24.414,34.180,32.715,6.348,0
1581351685.533,22.949,37.109,35.645,9.277,0
1581351685.537,20.996,25.879,31.250,2.441,0
1581351685.541,25.879,12.695,26.855,0.000,0
1581351685.545,31.738,11.230,22.461,7.324,0
1581351685.548,24.902,17.090,22.949,7.812,0
1581351685.552,27.344,29.297,25.879,4.883,0
1581351685.556,37.109,28.320,30.273,12.695,0
1581351685.560,35.645,21.484,26.855,14.160,0
1581351685.564,25.879,24.414,20.996,17.090,0
1581351685.566,19.043,27.344,25.879,18.066,0
1581351685.570,23.926,29.297,27.832,17.090,0
1581351685.574,25.391,27.832,28.809,18.555,0
1581351685.578,21.484,26.855,35.156,18.555,0
1581351685.582,17.578,23.438,32.715,19.531,0
1581351685.586,22.461,18.066,33.691,22.949,0
1581351685.590,33.203,10.254,34.668,27.832,0
1581351685.593,28.809,13.184,28.320,19.531,0
1581351685.597,19.531,16.113,26.367,15.625,0
1581351685.601,21.484,17.090,21.484,21.484,0
1581351685.605,26.855,14.648,18.066,21.484,0
1581351685.609,24.902,14.160,25.879,16.602,0
1581351685.611,19.531,21.484,30.273,14.648,0
1581351685.615,17.578,14.160,25.879,18.066,0
1581351685.619,24.902,11.719,30.762,21.973,0
1581351685.623,32.715,20.996,32.715,25.879,0
1581351685.627,27.344,13.672,29.297,27.344,0
1581351685.631,28.809,16.113,34.180,26.855,0
1581351685.635,40.527,30.762,36.621,31.250,0
1581351685.638,46.875,31.250,36.621,33.203,0
1581351685.642,41.504,26.855,35.156,32.715,0
1581351685.646,31.250,26.367,31.250,33.203,1
1581351685.650,35.645,16.602,26.855,36.621,0
1581351685.654,43.945,9.766,22.949,38.086,0
1581351685.656,38.086,18.066,23.926,38.086,0
1581351685.660,32.227,26.367,31.738,30.273,0
1581351685.664,26.855,22.949,35.156,21.484,0
1581351685.668,32.227,19.531,33.691,23.438,0
1581351685.672,35.156,22.461,34.180,23.926,0
1581351685.676,23.926,20.020,37.598,18.555,0
1581351685.680,18.066,16.113,31.250,10.254,0
1581351685.683,27.344,22.461,31.250,12.207,0
1581351685.687,37.109,24.414,34.668,22.461,0
1581351685.691,28.320,23.438,23.438,20.020,0
1581351685.695,18.066,12.207,19.043,13.672,0
1581351685.699,26.367,-3.906,24.902,13.184,0
1581351685.716,38.086,22.949,24.414,18.555,0
1581351685.720,29.297,49.805,21.484,17.090,0
1581351685.724,13.672,43.457,19.531,8.301,0
1581351685.728,14.648,28.809,29.297,3.418,0
1581351685.732,24.902,27.344,41.992,2.930,0
1581351685.736,24.902,34.180,38.574,-0.977,0
1581351685.740,16.113,24.902,37.109,-1.465,0
1581351685.743,15.625,21.973,39.062,6.348,0
1581351685.747,27.344,25.391,33.203,10.742,0
1581351685.751,31.738,17.578,28.809,16.113,0
1581351685.755,24.902,11.230,18.555,19.531,0
1581351685.759,24.902,11.719,15.137,24.414,0
1581351685.761,37.109,21.973,35.156,35.156,0
1581351685.765,40.527,20.020,32.227,33.203,0
1581351685.769,25.879,29.785,25.391,25.391,0
1581351685.773,15.625,31.738,38.086,25.879,0
1581351685.777,15.625,29.785,36.133,22.949,0
1581351685.781,20.508,43.457,35.156,17.578,0
1581351685.785,20.508,37.109,39.062,17.578,0
1581351685.788,13.184,29.297,35.156,17.578,0
1581351685.792,12.695,20.508,31.250,17.090,0
1581351685.796,22.949,19.531,33.203,16.113,0
1581351685.800,28.809,28.320,32.715,19.043,0
1581351685.804,29.785,30.273,32.227,25.391,0
1581351685.806,30.762,21.484,32.715,29.297,0
1581351685.810,40.039,20.508,28.809,35.156,0
1581351685.814,45.410,30.273,31.250,37.598,0
1581351685.818,32.715,21.484,36.621,34.668,0
1581351685.822,23.926,18.555,37.109,32.715,0
1581351685.826,29.297,19.531,33.203,35.156,0
1581351685.830,30.273,13.672,23.926,32.715,0
1581351685.833,16.602,12.695,21.484,27.832,0
1581351685.837,6.348,21.973,27.344,21.484,0
1581351685.841,8.789,30.762,20.020,17.090,0
1581351685.845,20.020,29.297,18.555,28.320,0
1581351685.849,22.461,28.809,33.203,29.785,0
1581351685.852,14.648,19.531,38.086,22.949,0
1581351685.856,13.672,23.438,32.227,30.273,0
1581351685.860,29.297,25.879,27.832,37.109,0
1581351685.864,34.668,16.113,33.203,33.691,0
1581351685.868,25.391,19.043,34.180,29.785,0
1581351685.872,21.484,22.461,32.715,30.273,0
1581351685.876,27.832,11.230,33.691,37.109,0
1581351685.879,34.668,7.812,32.715,37.598,0
1581351685.883,26.855,13.672,35.645,32.227,0
1581351685.887,11.719,11.719,27.344,28.320,0
1581351685.891,18.555,12.695,16.602,28.320,0
1581351685.895,31.738,18.555,28.320,32.227,0
1581351685.897,22.461,18.066,33.691,24.414,0
1581351685.901,11.719,19.531,32.715,18.555,0
1581351685.905,16.602,17.090,34.180,19.043,0
1581351685.909,27.832,9.277,33.203,21.973,0
1581351685.913,27.344,14.160,30.273,27.344,0
1581351685.917,20.508,27.832,36.621,23.438,0
1581351685.921,22.949,40.039,45.410,23.926,0
1581351685.924,33.203,30.273,41.504,28.809,0
1581351685.928,32.227,12.207,30.762,26.367,0
1581351685.932,21.973,11.230,25.879,29.785,0
1581351685.936,15.137,26.855,25.391,26.367,0
1581351685.940,19.043,27.832,21.973,23.926,0
1581351685.942,23.926,17.578,26.855,31.250,0
1581351685.946,18.555,15.137,25.391,28.320,0
1581351685.950,15.625,15.625,27.344,30.273,0
1581351685.954,18.555,11.719,38.574,34.180,0
1581351685.958,23.438,12.695,41.504,32.227,0
1581351685.962,26.367,19.531,43.945,33.691,0
1581351685.966,15.137,16.602,39.062,29.297,0
1581351685.969,9.277,14.648,38.574,22.949,0
1581351685.973,19.043,12.695,37.109,23.438,0
1581351685.977,24.414,13.672,31.250,22.461,0
1581351685.981,8.789,19.043,27.832,16.602,0
1581351685.985,7.324,16.113,25.391,13.184,0
1581351686.002,22.949,23.438,27.344,13.672,0
1581351686.006,18.066,17.578,21.484,7.812,0
1581351686.010,7.324,12.207,21.973,9.277,0
1581351686.014,3.906,4.395,23.926,12.207,0
1581351686.018,11.230,5.859,23.438,14.160,0
1581351686.022,19.043,25.879,37.109,19.531,0
1581351686.026,7.812,22.461,38.574,16.602,0
1581351686.029,3.418,17.090,35.645,13.184,0
1581351686.033,14.648,21.973,28.320,21.973,0
1581351686.037,24.414,20.996,24.414,25.391,0
1581351686.041,24.902,28.809,32.715,23.438,0
1581351686.045,13.184,26.367,29.297,17.578,0
1581351686.032,13.184,14.160,29.297,20.508,0
1581351686.036,26.855,23.438,38.086,31.738,0
1581351686.040,22.949,29.785,37.598,27.344,0
1581351686.044,7.812,17.090,30.273,12.695,0
1581351686.048,6.348,16.602,31.250,5.859,0
1581351686.052,16.113,23.438,30.762,10.742,0
1581351686.056,19.043,20.996,24.414,13.672,0
1581351686.059,12.695,16.602,23.926,12.695,0
1581351686.063,10.742,7.324,33.203,15.625,0
1581351686.067,18.555,12.695,40.527,16.113,0
1581351686.071,22.461,18.066,35.156,15.625,0
1581351686.075,20.020,24.414,22.461,14.160,0
1581351686.092,16.602,33.203,21.973,10.254,0
1581351686.096,21.973,29.785,27.344,10.742,0
1581351686.100,28.320,21.973,26.367,6.348,0
1581351686.104,25.391,21.973,27.344,6.348,0
1581351686.108,23.926,21.973,20.996,14.648,0
1581351686.112,23.926,21.484,15.625,13.672,0
1581351686.116,36.621,32.227,25.879,14.648,0
1581351686.119,33.203,30.273,29.297,16.602,0
1581351686.123,13.672,28.809,22.949,8.789,0
1581351686.127,13.184,34.668,25.879,5.371,0
1581351686.131,24.414,27.344,31.738,8.789,0
1581351686.135,29.785,27.344,31.250,16.602,0
1581351686.137,20.996,19.531,23.926,14.648,0
1581351686.141,15.137,11.230,28.809,18.555,0
1581351686.145,25.391,30.762,32.227,25.879,0
1581351686.149,32.227,22.461,25.879,18.066,0
1581351686.153,26.367,7.812,26.855,20.508,0
1581351686.157,17.090,22.949,25.879,19.531,0
1581351686.161,23.926,37.598,23.926,21.973,0
1581351686.164,33.691,31.738,28.320,29.785,0
1581351686.168,29.785,26.367,32.715,24.902,0
1581351686.172,21.973,28.809,37.109,26.855,0
1581351686.176,27.344,23.438,36.621,38.086,0
1581351686.180,29.785,7.812,28.809,31.738,0
1581351686.182,31.250,2.930,29.297,20.020,0
1581351686.186,30.273,8.301,22.949,17.578,0
1581351686.190,22.461,6.348,26.367,16.602,0
1581351686.194,24.414,14.648,37.598,20.020,0
1581351686.198,33.691,16.602,30.762,21.973,0
1581351686.202,20.996,18.555,25.879,17.090,0
1581351686.206,9.277,26.855,31.250,14.648,0
1581351686.209,17.090,21.484,36.621,19.531,0
1581351686.213,25.879,35.156,43.945,18.066,0
1581351686.217,24.414,41.504,41.504,15.137,0
1581351686.221,9.766,26.855,35.645,17.578,0
1581351686.225,10.254,17.578,34.668,17.578,0
1581351686.227,27.832,22.461,28.320,18.555,0
1581351686.231,26.367,22.949,35.645,22.949,0
1581351686.235,17.578,22.461,42.480,23.438,0
1581351686.239,8.789,20.020,28.809,16.113,0
1581351686.243,13.184,18.066,23.926,13.672,0
1581351686.247,12.695,31.738,29.297,8.789,0
1581351686.251,2.930,40.527,32.227,2.441,0
1581351686.254,6.836,26.367,26.855,6.836,0
1581351686.258,10.742,12.695,24.902,7.812,0
1581351686.262,15.137,28.809,33.203,8.301,0
1581351686.266,8.301,37.598,30.273,4.395,0
1581351686.270,3.906,28.320,24.902,-2.441,0
1581351686.272,11.230,23.438,22.949,4.395,0
1581351686.276,14.160,18.555,25.391,6.348,0
1581351686.280,12.207,11.719,29.785,8.301,0
1581351686.284,-0.977,12.207,18.555,3.418,0
1581351686.288,11.230,26.855,22.461,4.883,0
1581351686.292,30.762,30.273,41.016,19.043,0
1581351686.296,20.020,19.531,32.715,20.996,0
1581351686.299,3.418,18.555,20.996,11.230,0
1581351686.303,4.883,21.973,24.414,1.465,0
1581351686.307,19.043,7.324,26.855,5.371,0
1581351686.311,24.414,-1.953,27.344,8.301,0
1581351686.315,14.648,18.066,33.691,8.789,0
1581351686.317,14.648,26.367,31.738,20.508,0
1581351686.321,20.508,23.438,27.344,21.484,0
1581351686.325,19.531,18.066,26.855,8.301,0
1581351686.329,16.602,23.926,26.367,4.883,0
1581351686.333,10.254,30.762,27.832,7.812,0
1581351686.337,13.184,27.344,21.484,8.789,0
1581351686.341,20.020,24.902,20.996,7.812,0
1581351686.344,18.066,18.066,30.762,6.836,0
1581351686.348,1.465,10.254,32.227,6.348,0
1581351686.352,0.488,11.719,39.551,14.648,0
1581351686.356,18.555,23.926,37.598,13.672,0
1581351686.360,29.785,15.625,32.227,18.066,0
1581351686.362,15.625,0.000,30.273,18.555,0
1581351686.366,4.883,18.555,24.414,10.742,0
1581351686.370,20.996,38.574,30.273,12.207,0
1581351686.374,25.879,41.504,34.180,3.906,0
1581351686.378,10.254,34.668,29.785,6.348,0
1581351686.382,1.953,19.531,25.879,13.184,0
1581351686.386,17.578,17.578,34.668,6.836,0
1581351686.389,30.762,17.090,35.156,6.348,0
1581351686.393,26.855,5.859,26.367,20.020,0
1581351686.397,16.602,9.277,26.367,15.137,0
1581351686.401,20.996,16.602,28.320,4.395,0
1581351686.405,37.109,21.484,33.691,18.555,0
1581351686.407,36.133,18.066,38.086,29.785,0
1581351686.411,22.461,17.578,38.086,28.320,0
1581351686.415,20.508,28.320,31.738,22.949,0
1581351686.419,32.715,28.809,29.785,16.113,0
1581351686.423,39.551,17.090,24.902,15.625,0
1581351686.427,31.250,23.926,32.715,27.832,0
1581351686.431,19.043,37.598,36.621,20.996,0
1581351686.434,22.461,29.297,25.879,13.672,0
1581351686.438,24.902,20.996,27.832,14.160,0
1581351686.442,22.949,21.973,32.227,10.254,0
1581351686.446,25.391,26.855,36.133,16.602,0
1581351686.450,39.062,23.438,41.016,27.344,0
1581351686.467,50.781,14.160,36.133,29.297,0
1581351686.471,40.527,8.301,30.762,24.414,0
1581351686.475,27.832,17.090,31.250,23.438,0
1581351686.479,26.855,15.625,31.250,21.973,0
1581351686.483,28.320,20.508,32.715,15.625,0
1581351686.487,30.762,24.902,27.344,7.812,0
1581351686.491,29.297,24.902,23.438,14.160,0
1581351686.494,23.926,18.555,24.902,15.625,0
1581351686.498,35.156,20.508,30.273,17.090,0
1581351686.502,34.668,30.762,33.691,20.996,0
1581351686.506,23.438,25.879,31.250,12.207,0
1581351686.510,32.715,18.066,35.156,4.395,0
1581351686.512,44.434,21.484,38.574,24.414,0
1581351686.516,42.480,16.602,35.645,30.762,0
1581351686.520,36.621,15.137,29.785,20.020,0
1581351686.524,33.203,32.715,26.855,20.996,0
1581351686.528,34.180,35.645,21.484,31.738,0
1581351686.532,43.457,34.668,18.066,48.340,0
1581351686.536,57.129,29.297,32.715,45.898,0
1581351686.539,41.016,15.137,37.109,38.574,0
1581351686.543,27.344,12.695,33.203,24.902,0
1581351686.547,38.086,21.973,39.062,23.438,0
1581351686.551,29.785,15.625,36.621,39.551,0
1581351686.555,16.602,6.836,26.855,32.715,0
1581351686.557,16.602,29.297,25.391,29.785,0
1581351686.561,20.996,37.109,25.879,29.297,0
1581351686.565,30.273,26.367,30.273,27.344,0
1581351686.569,27.832,26.855,34.668,31.738,0
1581351686.573,22.461,28.809,28.320,33.203,0
1581351686.577,35.645,27.832,22.949,36.621,0
1581351686.581,35.156,27.832,28.320,28.809,0
1581351686.584,17.578,24.414,31.738,26.367,0
1581351686.588,11.230,13.672,29.297,25.879,0
1581351686.592,12.695,8.789,33.203,23.438,0
1581351686.596,24.414,7.812,30.762,17.578,0
1581351686.600,22.949,19.043,29.785,22.949,0
1581351686.602,8.301,31.250,37.598,34.180,0
1581351686.606,13.184,34.180,34.668,19.043,0
1581351686.610,18.066,22.949,32.715,22.949,0
1581351686.614,22.461,10.742,28.809,26.855,0
1581351686.618,31.738,22.949,25.391,8.301,0
1581351686.622,15.137,27.344,37.109,17.090,0
1581351686.626,10.742,25.879,33.691,17.578,0
1581351686.629,23.438,16.113,27.832,20.996,0
1581351686.633,12.695,3.418,38.574,29.785,0
1581351686.637,8.789,14.648,37.109,18.066,0
1581351686.641,16.602,24.902,30.762,7.324,0
1581351686.645,23.926,22.949,29.297,8.301,0
1581351686.646,20.996,28.320,30.762,17.578,0
1581351686.650,3.418,31.738,33.203,19.043,0
1581351686.654,0.000,29.297,35.156,15.137,0
1581351686.658,9.277,35.645,30.273,12.695,0
1581351686.662,15.625,10.742,25.391,22.461,0
1581351686.666,13.672,3.418,27.832,31.250,0
1581351686.670,10.254,29.785,32.715,32.227,0
1581351686.673,23.926,29.297,34.668,14.160,0
1581351686.677,27.832,31.738,26.855,7.324,0
1581351686.681,28.320,25.879,27.832,30.762,0
1581351686.685,21.973,16.602,28.809,28.809,0
1581351686.689,25.879,26.855,23.926,25.879,0
1581351686.691,34.668,40.039,25.879,28.320,0
1581351686.695,13.672,36.133,34.668,13.184,0
1581351686.699,9.766,25.391,32.715,13.672,0
1581351686.703,20.020,20.996,19.043,21.973,0
1581351686.707,22.461,16.113,19.043,13.184,0
1581351686.711,15.137,16.602,35.156,11.230,0
1581351686.715,3.906,14.160,35.645,1.465,0
1581351686.718,5.859,11.230,31.738,-4.883,0
1581351686.722,22.461,19.531,35.156,8.789,0
1581351686.726,23.926,12.207,33.203,13.184,0
1581351686.730,15.625,22.461,30.273,14.648,0
1581351686.734,21.973,39.062,21.973,20.508,0
1581351686.751,27.832,32.227,20.508,37.109,0
1581351686.755,35.645,21.484,26.855,49.316,0
1581351686.759,19.043,12.695,24.414,25.391,0
1581351686.763,9.766,20.020,29.785,16.602,0
1581351686.767,22.949,17.090,29.785,31.250,0
1581351686.771,23.926,11.230,24.414,30.762,0
1581351686.775,19.043,23.926,22.461,17.578,0
1581351686.778,8.301,23.926,25.879,9.277,0
1581351686.782,12.695,23.438,33.203,16.113,0
1581351686.786,29.785,29.785,27.832,21.484,0
1581351686.790,28.320,25.391,24.902,18.066,0
1581351686.794,16.113,20.020,34.668,16.602,0
1581351686.781,16.602,20.508,34.668,14.648,0
1581351686.785,20.996,25.391,23.438,1.465,0
1581351686.789,17.578,22.949,21.484,-8.301,0
1581351686.793,6.348,16.113,17.578,-1.953,0
1581351686.797,4.395,18.555,18.555,0.000,0
1581351686.801,15.137,33.203,25.879,-1.465,0
1581351686.805,18.555,44.922,29.297,5.859,0
1581351686.808,12.207,34.180,31.738,7.324,0
1581351686.812,7.812,32.715,28.809,2.441,0
1581351686.816,15.625,36.133,30.762,4.395,0
1581351686.820,24.414,17.090,34.180,4.883,1
1581351686.824,18.555,5.371,33.203,2.930,0
1581351686.841,9.766,15.137,39.551,11.230,0
1581351686.845,10.742,22.461,39.551,11.230,0
1581351686.849,15.625,20.996,33.691,12.695,0
1581351686.853,18.066,24.902,33.691,24.902,0
1581351686.857,9.277,27.344,25.879,21.973,0
1581351686.861,7.324,27.344,21.973,11.719,0
1581351686.865,14.648,30.273,31.250,7.812,0
1581351686.868,19.043,26.367,35.156,15.625,0
1581351686.872,8.301,21.973,31.250,12.695,0
1581351686.876,6.836,17.090,35.645,6.348,0
1581351686.880,17.090,12.695,35.645,7.324,0
1581351686.884,18.555,19.531,31.738,3.418,0
1581351686.886,15.137,25.391,30.762,3.418,0
1581351686.890,9.277,21.973,22.949,-0.977,0
1581351686.894,15.137,14.648,18.066,-7.812,0
1581351686.898,25.391,15.137,23.926,-6.836,0
1581351686.902,24.902,17.090,20.020,-4.883,0
1581351686.906,21.484,24.902,17.090,-4.395,0
1581351686.910,23.438,33.691,20.020,0.000,0
