timestamps,TP9,AF7,AF8,TP10,Marker0
1581971651.956,-71.777,22.461,27.832,-70.801,0
1581971651.960,-58.594,16.113,27.344,-66.895,0
1581971651.964,-59.570,18.066,33.203,-59.570,0
1581971651.968,-47.363,25.391,45.898,-48.828,0
1581971651.972,-16.602,30.273,44.922,-34.668,0
1581971651.976,5.859,25.391,40.039,-11.719,0
1581971651.980,2.930,23.926,35.645,7.812,0
1581971651.983,16.602,21.973,28.809,20.020,0
1581971651.987,39.551,19.043,24.414,25.879,0
1581971651.991,43.945,18.555,23.438,37.598,0
1581971651.995,52.734,17.090,21.973,53.223,0
1581971651.999,70.312,17.578,18.555,62.500,0
1581971652.001,79.590,18.555,23.438,81.055,0
1581971652.005,90.332,16.113,28.809,77.637,0
1581971652.009,90.820,9.766,27.344,71.289,0
1581971652.013,89.355,4.883,23.926,86.426,0
1581971652.017,99.609,7.812,19.043,94.727,0
1581971652.021,99.121,7.324,16.113,97.656,0
1581971652.025,98.633,4.395,18.066,100.586,0
1581971652.028,105.957,13.184,18.066,111.328,0
1581971652.032,113.281,19.043,12.695,123.535,0
1581971652.036,127.441,16.113,12.207,135.742,0
1581971652.040,126.953,13.672,18.555,132.324,0
1581971652.044,121.582,17.578,25.879,120.605,0
1581971652.046,114.746,20.020,28.809,119.141,0
1581971652.050,117.676,20.508,30.273,110.840,0
1581971652.054,127.930,23.438,20.996,88.867,0
1581971652.058,135.742,21.484,16.113,67.383,0
1581971652.062,131.836,20.020,26.367,57.617,0
1581971652.066,119.141,20.508,26.855,64.941,0
1581971652.070,121.094,18.555,23.926,56.152,0
1581971652.073,121.582,18.066,21.973,47.363,0
1581971652.077,122.070,21.973,20.020,51.758,0
1581971652.081,137.695,24.414,19.043,45.898,0
1581971652.085,134.766,17.090,12.695,49.316,0
1581971652.089,126.465,12.695,13.672,54.688,0
1581971652.091,123.535,20.996,22.949,65.918,0
1581971652.095,112.793,22.949,24.902,67.871,0
1581971652.099,113.770,19.043,27.344,56.641,0
1581971652.103,115.723,16.602,23.438,60.547,0
1581971652.107,107.910,8.301,12.207,70.801,0
1581971652.111,109.375,-8.789,19.531,68.359,0
1581971652.115,104.004,-28.809,25.879,57.129,0
1581971652.118,97.656,-34.668,15.625,46.875,0
1581971652.122,96.191,-34.180,12.695,48.828,0
1581971652.126,100.098,-34.668,20.508,71.289,0
1581971652.130,108.398,-25.391,26.855,71.289,0
1581971652.134,109.375,-19.531,32.715,60.547,0
1581971652.136,97.168,-20.508,36.133,73.242,0
1581971652.140,84.961,-20.996,21.973,65.430,0
1581971652.144,83.008,-19.531,21.973,57.129,0
1581971652.148,87.891,-12.207,20.996,50.781,0
1581971652.152,86.914,-7.812,14.648,51.758,0
1581971652.156,88.379,-7.812,23.438,58.105,0
1581971652.160,93.750,-5.371,27.344,57.617,0
1581971652.163,90.820,-1.465,35.645,57.129,0
1581971652.167,83.496,-2.930,32.715,54.688,0
1581971652.171,74.219,0.977,18.555,55.176,0
1581971652.175,72.754,4.395,20.020,55.176,0
1581971652.179,80.078,5.371,18.555,53.711,0
1581971652.181,80.078,8.301,15.625,53.223,0
1581971652.185,69.824,7.324,25.879,53.223,0
1581971652.189,60.059,6.348,33.203,46.387,0
1581971652.193,54.199,6.348,26.855,45.410,0
1581971652.197,58.594,9.766,23.926,45.410,0
1581971652.201,60.059,9.766,26.367,36.133,0
1581971652.205,62.500,11.230,28.809,42.969,0
1581971652.208,62.500,17.578,24.902,40.527,0
1581971652.212,57.129,17.578,26.855,32.227,0
1581971652.216,65.430,20.020,26.367,34.180,0
1581971652.220,67.383,21.973,18.066,36.133,0
1581971652.224,71.289,21.973,22.461,39.062,0
1581971652.226,68.848,20.996,30.273,36.621,0
1581971652.230,57.129,21.484,36.133,38.574,0
1581971652.234,50.781,20.020,27.832,31.250,0
1581971652.238,44.922,21.484,29.297,34.180,0
1581971652.242,49.805,21.973,25.879,34.668,0
1581971652.246,53.223,16.602,20.020,21.973,0
1581971652.250,49.805,21.973,29.297,26.855,0
1581971652.253,50.293,29.297,35.156,40.527,0
1581971652.257,51.758,24.414,33.691,37.109,0
1581971652.261,46.875,25.879,28.809,35.645,0
1581971652.265,55.176,30.273,34.180,44.434,0
1581971652.269,56.152,31.250,39.551,49.316,0
1581971652.271,49.805,31.738,37.598,51.270,0
1581971652.275,48.828,22.461,21.973,37.598,0
1581971652.279,51.270,20.508,15.625,31.738,0
1581971652.283,52.246,23.438,25.879,44.922,0
1581971652.287,41.016,25.391,28.809,42.480,0
1581971652.291,47.363,24.902,34.668,30.273,0
1581971652.295,48.340,30.762,37.109,24.414,0
1581971652.298,42.969,37.109,32.715,28.809,0
1581971652.302,48.340,30.762,30.762,38.574,0
1581971652.306,52.734,25.879,27.832,45.898,0
1581971652.310,54.688,29.297,31.250,43.457,0
1581971652.314,54.688,38.574,42.480,49.316,0
1581971652.331,61.035,35.156,36.133,50.293,0
1581971652.335,55.176,29.785,23.926,41.992,0
1581971652.339,40.527,38.086,23.438,22.949,0
1581971652.343,31.738,39.551,24.902,7.812,0
1581971652.347,36.133,38.086,29.785,14.160,0
1581971652.351,49.316,36.621,33.203,32.715,0
1581971652.355,38.086,30.273,22.949,33.691,0
1581971652.358,37.598,28.320,24.414,29.785,0
1581971652.362,41.504,24.414,29.785,28.809,0
1581971652.366,14.160,17.578,24.414,15.625,0
1581971652.370,17.090,26.367,21.484,18.066,0
1581971652.374,32.227,29.785,20.020,27.344,0
1581971652.391,32.227,35.156,27.832,33.203,0
1581971652.395,34.668,45.410,32.227,50.293,0
1581971652.399,41.016,38.574,30.762,51.758,0
1581971652.403,43.457,26.855,36.133,41.504,0
1581971652.407,41.504,27.832,37.109,40.039,0
1581971652.411,51.270,32.715,38.086,51.270,0
1581971652.415,48.828,31.250,25.391,47.363,0
1581971652.418,46.875,30.762,20.020,34.668,0
1581971652.422,42.969,25.391,30.273,36.621,0
1581971652.426,41.992,28.320,31.250,16.602,0
1581971652.430,34.668,36.133,30.762,19.531,0
1581971652.434,27.344,32.227,27.344,25.391,0
1581971652.421,27.344,20.996,28.320,25.391,0
1581971652.425,17.578,21.484,29.297,30.762,0
1581971652.429,17.090,30.273,28.809,31.250,0
1581971652.433,21.484,34.180,36.133,34.668,0
1581971652.437,28.809,29.785,30.762,35.645,0
1581971652.441,39.551,33.691,30.273,41.016,0
1581971652.445,37.598,44.434,35.645,46.387,0
1581971652.448,34.180,35.645,26.855,42.969,0
1581971652.452,30.273,29.297,25.391,38.086,0
1581971652.456,33.203,37.598,24.902,34.668,0
1581971652.460,37.109,41.016,27.344,38.574,0
1581971652.464,30.762,36.133,38.574,41.504,0
1581971652.466,32.715,33.203,37.109,31.738,0
1581971652.470,40.527,31.250,30.762,31.738,0
1581971652.474,44.434,31.738,32.715,42.480,0
1581971652.478,30.762,29.785,33.203,42.969,0
1581971652.482,16.602,21.973,37.598,43.945,0
1581971652.486,24.414,30.273,33.691,45.898,0
1581971652.490,28.320,41.992,29.785,29.297,0
1581971652.493,29.297,37.109,31.250,24.902,0
1581971652.497,29.297,27.344,30.762,24.414,0
1581971652.501,31.250,32.715,34.668,27.344,0
1581971652.505,31.738,33.691,35.156,28.809,0
1581971652.509,26.855,36.621,31.738,24.414,0
1581971652.511,28.809,36.621,35.156,23.926,0
1581971652.515,30.762,34.180,38.086,31.250,0
1581971652.519,34.180,41.504,39.062,36.133,0
1581971652.523,35.156,39.062,35.156,25.391,0
1581971652.527,22.949,30.273,21.973,20.996,0
1581971652.531,11.719,30.762,20.508,21.973,0
1581971652.535,25.391,42.480,25.391,20.020,0
1581971652.538,37.598,44.922,31.250,19.043,0
1581971652.542,30.762,41.992,38.574,26.855,0
1581971652.546,33.203,41.992,38.086,33.691,0
1581971652.550,41.016,39.551,31.738,24.414,0
1581971652.554,37.109,40.039,29.785,27.344,0
1581971652.556,37.598,42.480,35.645,43.457,0
1581971652.560,27.832,39.551,33.203,31.738,0
1581971652.564,20.020,36.133,26.855,14.160,0
1581971652.568,14.648,32.715,32.715,3.418,0
1581971652.572,13.672,30.273,36.621,13.184,0
1581971652.576,24.414,25.391,34.668,35.645,0
1581971652.580,20.020,29.297,33.691,23.438,0
1581971652.583,16.113,38.086,36.133,4.883,0
1581971652.587,13.184,38.086,39.551,15.625,0
1581971652.591,5.371,31.250,37.109,18.555,0
1581971652.595,4.883,21.484,27.832,11.719,0
1581971652.599,15.137,23.926,18.066,29.297,0
1581971652.601,26.367,28.809,27.832,37.598,0
1581971652.605,19.531,26.855,41.016,23.926,0
1581971652.609,12.695,18.555,41.016,15.625,0
1581971652.613,19.531,20.996,37.109,18.066,0
1581971652.617,26.855,35.645,31.250,14.160,0
1581971652.621,23.926,35.645,36.133,13.184,0
1581971652.625,14.648,30.273,40.527,19.531,0
1581971652.628,24.414,21.973,38.086,20.020,0
1581971652.632,44.434,20.508,31.738,20.996,0
1581971652.636,56.152,40.527,33.203,23.926,0
1581971652.640,45.410,43.945,40.039,33.203,0
1581971652.644,38.574,36.133,46.875,43.945,0
1581971652.647,26.855,34.180,39.551,35.645,0
1581971652.651,18.066,38.574,26.367,16.602,0
1581971652.655,18.555,41.016,29.785,20.996,0
1581971652.659,24.902,38.574,36.621,32.227,0
1581971652.663,34.180,37.598,31.250,37.109,0
1581971652.667,26.367,35.645,24.902,33.691,0
1581971652.671,18.555,33.691,29.785,25.879,0
1581971652.674,27.344,33.203,37.109,35.156,0
1581971652.678,35.156,30.762,41.992,36.621,0
1581971652.682,34.180,36.133,41.992,27.344,0
1581971652.686,31.738,44.434,28.320,21.973,0
1581971652.690,39.062,41.504,25.391,27.344,0
1581971652.707,60.547,37.109,36.621,20.508,0
1581971652.711,52.734,27.832,39.551,17.578,0
1581971652.715,27.344,23.438,40.039,32.715,0
1581971652.719,24.902,29.297,35.645,34.668,0
1581971652.723,37.109,39.551,35.645,27.344,0
1581971652.727,46.875,37.598,35.156,32.715,0
1581971652.731,41.504,38.574,38.086,39.062,0
1581971652.734,35.156,45.410,44.922,36.133,0
1581971652.738,31.738,39.062,35.645,34.668,0
1581971652.742,34.668,31.738,31.250,35.156,0
1581971652.746,48.340,32.715,32.227,29.785,0
1581971652.750,43.945,40.039,28.809,20.508,0
1581971652.752,25.391,42.969,33.203,20.996,0
1581971652.756,23.438,41.992,35.645,27.344,0
1581971652.760,31.738,40.039,38.086,22.949,0
1581971652.764,29.785,41.504,33.691,31.738,0
1581971652.768,27.344,38.086,26.367,35.156,0
1581971652.772,26.855,34.668,25.879,22.461,0
1581971652.776,24.902,35.645,25.879,20.020,0
1581971652.779,26.855,34.180,30.273,23.926,0
1581971652.783,37.109,40.039,38.086,34.180,0
1581971652.787,59.570,45.898,39.551,44.434,0
1581971652.791,54.199,42.480,37.109,44.922,0
1581971652.795,41.016,40.527,41.504,43.457,0
1581971652.797,49.316,37.109,45.898,42.969,0
1581971652.801,60.547,37.109,46.387,46.387,0
1581971652.805,46.875,41.504,39.551,46.387,0
1581971652.809,29.785,31.250,38.574,26.367,0
1581971652.813,17.090,25.391,37.598,21.484,0
1581971652.817,17.090,31.738,31.250,22.461,0
1581971652.821,33.691,39.551,28.809,23.438,0
1581971652.824,35.645,42.969,31.738,31.738,0
1581971652.828,26.367,37.109,37.598,19.531,0
1581971652.832,35.645,44.922,36.621,21.484,0
1581971652.836,41.504,45.410,33.691,27.344,0
1581971652.840,27.832,34.180,29.785,15.625,0
1581971652.842,26.367,30.273,21.484,17.578,0
1581971652.846,38.574,31.250,24.414,38.574,0
1581971652.850,35.645,34.180,31.250,27.344,0
1581971652.854,13.672,37.598,31.250,2.930,0
1581971652.858,8.789,43.457,35.156,9.766,0
1581971652.862,19.043,39.062,33.203,20.508,0
1581971652.866,24.902,34.668,32.227,16.113,0
1581971652.869,33.203,41.504,40.527,26.367,0
1581971652.873,39.062,42.480,41.992,41.016,0
1581971652.877,40.039,40.039,37.598,36.133,0
1581971652.881,47.363,41.504,37.109,41.992,0
1581971652.885,50.781,28.809,28.809,35.645,0
1581971652.887,48.828,27.344,23.438,27.344,0
1581971652.891,32.227,37.109,31.250,32.227,0
1581971652.895,22.461,32.715,31.250,25.879,0
1581971652.899,15.137,23.438,24.414,15.137,0
1581971652.903,13.184,23.438,32.227,22.949,0
1581971652.907,29.297,26.367,32.227,24.902,0
1581971652.911,44.434,28.809,25.391,22.949,0
1581971652.914,39.062,34.668,22.949,38.086,0
1581971652.918,40.527,33.203,26.855,45.898,0
1581971652.922,47.363,32.715,29.785,31.250,0
1581971652.926,47.852,39.062,26.855,37.598,0
1581971652.930,48.340,38.574,28.320,43.945,0
1581971652.932,56.152,36.133,32.227,41.504,0
1581971652.936,55.664,37.109,33.203,39.551,0
1581971652.940,44.434,36.621,31.738,36.133,0
1581971652.944,44.434,37.109,35.645,34.668,0
1581971652.948,41.504,32.715,37.109,26.855,0
1581971652.952,41.504,37.598,34.180,28.809,0
1581971652.956,33.203,44.434,28.809,33.203,0
1581971652.959,31.738,45.410,30.762,30.762,0
1581971652.963,48.828,43.945,38.574,42.969,0
1581971652.967,66.895,37.598,46.387,54.199,0
1581971652.971,64.941,41.992,47.363,50.293,0
1581971652.975,44.922,38.086,27.832,36.133,0
1581971652.977,27.832,29.785,17.578,22.949,0
1581971652.981,23.926,24.414,23.438,22.949,0
1581971652.985,29.785,20.996,27.832,23.438,0
1581971652.989,30.273,26.855,27.344,21.484,0
1581971652.993,31.250,34.180,26.367,25.391,0
1581971652.997,36.133,33.203,31.250,31.738,0
1581971653.001,33.203,31.738,36.621,35.156,0
1581971653.004,25.879,31.250,35.156,30.762,0
1581971653.008,35.156,29.785,32.227,35.645,0
1581971653.012,35.156,36.133,32.715,34.668,0
1581971653.016,20.508,44.922,25.391,33.203,0
1581971653.020,24.902,47.363,33.691,35.645,0
1581971653.036,41.016,40.527,43.457,36.621,0
1581971653.040,47.852,41.016,40.039,50.781,0
1581971653.044,37.109,39.551,35.645,39.551,0
1581971653.048,22.949,35.645,29.785,23.926,0
1581971653.052,26.855,39.551,33.203,31.738,0
1581971653.056,37.598,32.715,38.086,29.785,0
1581971653.060,41.992,28.320,36.621,22.461,0
1581971653.063,38.086,31.738,37.598,31.250,0
1581971653.067,26.855,29.297,34.668,28.320,0
1581971653.071,19.531,20.508,22.949,22.461,0
1581971653.075,28.320,27.344,25.391,32.715,0
1581971653.079,33.203,44.434,35.645,23.926,0
1581971653.081,32.227,48.828,44.434,17.090,0
1581971653.085,24.902,41.992,39.551,18.066,0
1581971653.089,21.973,36.133,27.832,13.672,0
1581971653.093,34.180,27.344,27.344,28.320,0
1581971653.097,39.062,26.855,35.156,46.387,0
1581971653.101,37.598,40.527,40.039,43.457,0
1581971653.105,34.668,39.551,41.016,24.902,0
1581971653.108,41.504,35.156,37.598,31.250,0
1581971653.112,50.781,38.086,39.551,57.129,0
1581971653.116,37.109,39.551,41.992,46.387,0
1581971653.120,18.066,36.133,22.949,14.648,0
1581971653.124,26.367,39.551,18.066,14.648,0
1581971653.126,39.551,33.691,32.715,24.414,0
1581971653.130,37.109,20.996,38.574,25.879,0
1581971653.134,37.109,31.250,38.086,36.621,0
1581971653.138,32.715,34.180,26.367,32.715,0
1581971653.142,28.320,27.832,19.531,26.855,0
1581971653.146,32.715,33.203,22.461,32.715,0
1581971653.150,38.086,41.504,36.621,34.180,0
1581971653.153,39.551,39.551,50.293,30.762,0
1581971653.157,32.715,28.809,41.016,20.020,0
1581971653.161,23.438,26.855,19.531,5.859,0
1581971653.165,10.742,32.227,14.160,3.906,0
1581971653.169,14.648,33.691,22.949,14.160,0
1581971653.171,27.344,37.109,23.926,22.461,0
1581971653.175,36.133,38.574,28.320,30.273,0
1581971653.179,41.504,36.621,35.156,36.133,0
1581971653.183,38.574,38.086,38.574,33.691,0
1581971653.187,27.344,36.133,32.227,23.926,0
1581971653.191,31.250,36.133,27.832,28.320,0
1581971653.195,37.598,42.969,36.621,32.715,0
1581971653.198,46.387,38.086,35.156,32.227,0
1581971653.202,60.547,36.621,33.691,39.551,0
1581971653.206,51.758,41.504,37.109,40.039,0
1581971653.210,31.250,27.832,35.645,28.320,0
1581971653.214,37.598,28.809,36.133,33.203,0
1581971653.216,49.316,49.805,32.227,43.945,0
1581971653.220,38.086,42.969,20.020,26.367,0
1581971653.224,33.691,34.668,24.902,24.414,0
1581971653.228,32.715,40.039,36.133,32.227,0
1581971653.232,42.969,40.039,36.621,25.391,0
1581971653.236,48.340,42.969,36.621,34.668,0
1581971653.240,32.227,46.387,39.062,45.898,0
1581971653.243,41.016,48.340,39.551,43.945,0
1581971653.247,36.133,43.945,38.086,20.508,0
1581971653.251,22.949,35.156,21.973,13.672,0
1581971653.255,26.855,27.832,18.555,22.461,0
1581971653.259,31.250,25.879,27.344,29.785,0
1581971653.261,41.016,36.621,27.344,36.621,0
1581971653.265,40.527,51.758,33.203,37.109,0
1581971653.269,42.969,52.246,40.527,42.969,0
1581971653.273,39.551,46.387,37.598,29.785,0
1581971653.277,38.086,47.852,33.691,20.996,0
1581971653.281,43.457,53.223,31.738,28.320,0
1581971653.285,40.039,53.711,24.902,36.133,0
1581971653.288,39.551,47.852,3.418,32.715,0
1581971653.292,31.738,42.480,18.066,33.691,0
1581971653.296,34.668,34.668,55.176,36.133,0
1581971653.300,29.785,34.180,51.270,28.809,0
1581971653.304,36.133,43.457,44.434,36.621,0
1581971653.306,41.992,59.082,40.527,37.109,0
1581971653.310,22.949,50.293,31.250,19.043,0
1581971653.314,17.578,18.066,24.414,15.137,0
1581971653.318,41.016,20.508,24.414,22.949,0
1581971653.322,45.898,46.875,30.762,31.250,0
1581971653.326,17.578,43.457,35.156,25.879,0
1581971653.330,20.020,37.598,38.086,24.414,0
1581971653.333,37.598,42.480,43.457,22.949,0
1581971653.337,47.363,42.969,33.203,17.090,0
1581971653.341,54.199,40.039,28.320,34.180,0
1581971653.345,43.457,49.316,27.832,36.621,0
1581971653.349,36.621,48.340,17.090,32.715,0
1581971653.351,37.109,39.551,26.367,41.504,0
1581971653.355,23.438,41.016,34.668,27.832,0
1581971653.359,22.461,38.086,35.645,18.555,0
1581971653.363,30.762,38.086,42.480,29.297,0
1581971653.367,38.574,54.199,49.316,45.898,0
1581971653.371,51.270,57.617,39.062,52.246,27501
1581971653.375,53.711,48.340,33.691,39.551,0
1581971653.378,37.109,41.992,44.434,30.273,0
1581971653.382,19.043,25.879,36.621,23.926,0
1581971653.386,15.137,19.043,26.855,21.484,0
1581971653.390,23.926,26.855,18.066,22.461,0
1581971653.394,37.109,46.875,30.273,25.879,0
1581971653.396,33.691,49.316,39.062,34.180,0
1581971653.400,40.039,35.156,22.461,37.598,0
1581971653.404,40.527,34.668,24.902,29.785,0
1581971653.408,15.137,40.527,30.762,19.043,0
1581971653.412,13.184,40.527,26.367,20.996,0
1581971653.416,21.484,37.109,28.320,24.902,0
1581971653.420,28.320,45.410,34.180,24.414,0
1581971653.423,33.203,45.898,37.109,25.391,0
1581971653.427,25.391,37.598,34.668,20.508,0
1581971653.431,27.344,37.598,36.133,18.066,0
1581971653.435,29.785,42.969,34.668,23.438,0
1581971653.439,29.785,41.504,37.598,39.062,0
1581971653.456,31.738,31.738,36.621,32.715,0
1581971653.460,20.508,27.344,35.156,6.836,0
1581971653.464,14.160,31.250,42.480,13.672,0
1581971653.468,22.461,38.574,29.785,31.738,0
1581971653.472,15.625,42.480,21.484,24.414,0
1581971653.476,9.766,48.340,38.086,5.371,0
1581971653.480,3.906,43.945,43.945,-5.859,0
1581971653.483,-0.977,41.992,37.109,0.000,0
1581971653.487,13.184,47.852,36.621,2.930,0
1581971653.491,3.906,40.039,49.316,-10.742,0
1581971653.495,-17.578,45.410,52.734,-14.648,0
1581971653.499,-31.738,53.711,44.922,-27.344,0
1581971653.501,-52.734,56.641,49.316,-53.223,0
1581971653.505,-67.871,63.477,46.875,-73.242,0
1581971653.509,-77.637,70.801,49.805,-91.309,0
1581971653.513,-114.258,64.941,63.477,-112.305,0
1581971653.517,-143.066,54.688,68.359,-128.418,0
1581971653.521,-144.531,54.199,74.219,-148.438,0
1581971653.525,-161.621,54.688,67.383,-175.293,0
1581971653.528,-166.016,45.898,63.477,-188.965,0
1581971653.532,-175.781,45.898,70.801,-196.777,0
1581971653.536,-202.148,53.223,64.941,-212.891,0
1581971653.540,-201.660,54.688,59.082,-221.191,0
1581971653.544,-219.238,51.270,56.641,-225.098,0
1581971653.546,-228.516,38.086,64.453,-230.957,0
1581971653.550,-206.543,42.480,64.941,-214.844,0
1581971653.554,-191.895,56.641,58.594,-196.289,0
1581971653.558,-179.688,62.500,64.453,-199.219,0
1581971653.562,-167.969,59.082,58.105,-189.941,0
1581971653.566,-137.207,56.641,55.176,-158.203,0
1581971653.570,-105.469,52.246,55.176,-129.395,0
1581971653.573,-105.957,38.574,43.945,-114.258,0
1581971653.577,-89.844,33.203,31.250,-102.539,0
1581971653.581,-64.453,41.504,30.762,-79.102,0
1581971653.585,-41.016,47.363,37.109,-47.363,0
1581971653.589,-14.160,34.180,28.809,-22.949,0
1581971653.592,6.836,36.133,23.926,0.977,0
1581971653.596,37.598,41.992,20.020,29.785,0
1581971653.600,55.176,26.367,9.766,42.969,0
1581971653.604,58.105,20.020,10.742,41.992,0
1581971653.608,76.172,24.414,18.555,62.500,0
1581971653.612,94.727,22.949,11.719,81.055,0
1581971653.616,90.820,27.832,-1.953,78.125,0
1581971653.619,89.844,39.062,10.742,90.820,0
1581971653.623,98.145,24.414,18.555,97.168,0
1581971653.627,90.820,10.742,11.230,83.984,0
1581971653.631,106.934,27.344,3.906,97.168,0
1581971653.635,134.766,41.992,5.859,118.652,0
1581971653.637,125.488,30.762,17.578,114.746,0
1581971653.641,110.352,20.996,14.648,107.422,0
1581971653.645,114.258,17.090,8.301,106.934,0
1581971653.649,122.070,4.395,13.672,117.676,0
1581971653.653,121.094,12.207,6.348,123.047,0
1581971653.657,113.770,25.391,-3.906,122.559,0
1581971653.661,121.094,26.855,1.465,126.465,0
1581971653.664,137.207,30.762,14.160,130.859,0
1581971653.668,139.648,28.320,23.438,128.418,0
1581971653.672,125.000,16.602,13.184,127.441,0
1581971653.676,123.535,20.508,13.672,126.953,0
1581971653.680,132.324,20.508,17.578,125.977,0
1581971653.682,133.789,15.625,12.695,129.883,0
1581971653.686,131.348,28.809,11.230,128.418,0
1581971653.690,118.164,39.551,16.113,114.258,0
1581971653.694,112.305,35.645,22.949,107.910,0
1581971653.698,119.629,34.668,16.602,111.816,0
1581971653.702,111.328,28.809,12.207,103.027,0
1581971653.706,110.840,28.809,22.461,108.398,0
1581971653.709,113.281,30.273,33.203,115.723,0
1581971653.713,98.633,14.160,27.832,106.445,0
1581971653.717,100.098,16.602,15.137,104.980,0
1581971653.721,104.004,39.062,21.973,97.656,0
1581971653.725,98.145,37.598,16.113,89.355,0
1581971653.727,93.750,33.691,9.766,86.914,0
1581971653.731,94.727,35.156,17.090,82.031,0
1581971653.735,95.703,27.344,14.160,79.102,0
1581971653.739,94.727,28.809,12.207,85.938,0
1581971653.743,90.820,23.438,22.949,83.984,0
1581971653.747,85.449,13.672,22.461,75.684,0
1581971653.751,77.148,28.320,8.789,77.148,0
1581971653.754,72.754,41.016,14.160,75.195,0
1581971653.758,74.707,38.574,21.484,66.895,0
1581971653.762,77.148,34.668,21.484,69.336,0
1581971653.766,74.707,41.016,20.020,71.289,0
1581971653.770,69.336,32.227,20.508,73.730,0
1581971653.772,72.266,23.926,22.949,81.543,0
1581971653.776,71.777,34.668,17.090,73.730,0
1581971653.780,73.242,31.250,19.043,62.988,0
1581971653.784,80.078,27.832,39.551,79.102,0
1581971653.788,64.453,28.320,37.109,73.242,0
1581971653.792,59.570,32.227,22.461,57.129,0
1581971653.796,60.059,36.133,21.484,60.547,0
1581971653.799,56.641,34.180,18.066,59.082,0
1581971653.803,62.988,34.668,20.020,61.523,0
1581971653.807,73.242,36.133,26.367,74.219,0
1581971653.811,64.453,33.691,14.160,58.105,0
1581971653.815,55.176,29.785,9.277,48.340,0
1581971653.832,68.359,34.668,20.020,75.684,0
1581971653.836,59.082,42.480,32.227,77.148,0
1581971653.840,42.969,40.527,32.227,42.480,0
1581971653.844,48.340,50.781,21.484,37.598,0
1581971653.848,63.965,49.316,19.043,50.293,0
1581971653.852,38.574,24.902,13.672,32.715,0
1581971653.856,23.438,20.020,19.531,36.133,0
1581971653.859,36.621,31.738,32.227,42.480,0
1581971653.863,53.223,39.062,31.738,45.898,0
1581971653.867,54.199,19.531,20.020,42.480,0
1581971653.871,31.738,12.207,20.996,32.227,0
1581971653.875,34.668,37.598,21.484,41.016,0
1581971653.877,48.828,47.852,18.555,41.016,0
1581971653.881,40.039,39.062,28.809,38.086,0
1581971653.885,33.203,30.762,29.785,40.527,0
1581971653.889,37.598,35.156,24.414,40.039,0
1581971653.893,39.062,46.387,35.156,45.410,0
1581971653.897,39.551,42.480,39.551,53.223,0
1581971653.901,44.922,33.691,31.250,45.410,0
1581971653.904,33.691,35.156,26.367,25.879,0
1581971653.908,27.832,29.785,22.461,31.250,0
1581971653.912,34.180,29.785,22.461,32.715,0
1581971653.916,34.668,40.527,20.996,24.902,0
1581971653.920,39.551,39.551,22.461,39.062,0
1581971653.922,43.945,32.227,33.691,47.363,0
1581971653.926,33.691,27.832,30.762,28.809,0
1581971653.930,31.738,29.785,27.344,26.855,0
1581971653.934,36.621,39.062,39.551,32.715,0
1581971653.938,33.203,45.410,41.016,26.855,0
1581971653.942,28.809,43.457,33.203,24.902,0
1581971653.946,22.461,35.156,29.785,20.508,0
1581971653.949,24.902,28.320,37.598,32.227,0
1581971653.953,34.180,33.691,41.992,41.504,0
1581971653.957,37.109,35.645,32.715,22.461,0
1581971653.961,40.527,46.387,25.879,31.250,0
1581971653.965,34.180,53.223,28.809,44.922,0
1581971653.967,37.109,45.410,30.273,33.203,0
1581971653.971,34.180,37.109,28.320,25.391,0
1581971653.975,10.742,36.133,30.762,16.113,0
1581971653.979,3.906,41.016,26.855,9.277,0
1581971653.983,9.277,38.086,25.391,16.602,0
1581971653.987,23.438,27.832,32.715,24.414,0
1581971653.991,25.879,21.484,35.156,21.973,0
1581971653.994,21.973,32.715,28.809,22.461,0
1581971653.998,23.926,46.875,23.438,20.508,0
1581971654.002,28.320,48.340,33.203,11.230,0
1581971654.006,25.391,44.922,39.551,15.625,0
1581971654.010,21.973,34.668,36.133,22.461,0
1581971654.012,27.344,30.762,33.691,26.367,0
1581971654.016,21.973,32.715,28.809,23.438,0
1581971654.020,21.973,32.715,28.809,36.133,0
1581971654.024,26.367,41.016,32.715,36.133,0
1581971654.028,22.461,45.898,40.527,19.531,0
1581971654.032,21.973,43.945,36.621,28.320,0
1581971654.036,18.555,41.992,15.625,26.367,0
1581971654.039,18.555,44.922,14.160,14.160,0
1581971654.043,15.137,49.316,32.227,9.766,0
1581971654.047,3.418,45.410,30.273,3.418,0
1581971654.051,5.371,38.086,29.297,5.371,0
1581971654.055,10.742,39.551,31.250,3.418,0
1581971654.057,7.812,41.504,26.367,4.395,0
1581971654.061,11.230,36.621,17.090,9.766,0
1581971654.065,22.461,40.527,19.043,10.254,0
1581971654.069,25.391,47.852,33.203,16.602,0
1581971654.073,10.742,42.480,32.715,14.160,0
1581971654.077,9.277,33.203,23.438,11.230,0
1581971654.081,22.949,31.250,24.414,15.137,0
1581971654.084,36.133,38.574,22.949,5.371,0
1581971654.088,27.344,44.434,22.461,10.254,0
1581971654.092,21.484,41.992,37.109,32.227,0
1581971654.096,42.480,45.410,38.086,34.668,0
1581971654.100,27.344,36.621,23.926,18.555,0
1581971654.102,4.883,29.297,18.555,20.020,0
1581971654.106,7.324,36.133,14.160,19.531,0
1581971654.110,13.672,42.480,13.184,4.883,0
1581971654.114,28.809,46.387,23.438,20.508,0
1581971654.118,31.250,44.922,28.809,29.297,0
1581971654.122,14.648,31.250,20.508,11.230,0
1581971654.126,6.836,17.578,13.184,-1.953,0
1581971654.129,19.531,18.066,23.926,0.000,0
1581971654.133,25.879,27.344,28.320,7.324,0
1581971654.137,13.184,35.156,23.926,3.906,0
1581971654.141,18.066,36.133,29.785,12.695,0
1581971654.145,32.227,39.062,31.738,28.809,0
1581971654.147,23.438,36.133,32.227,31.738,0
1581971654.151,11.719,38.086,40.039,26.855,0
1581971654.155,9.277,34.668,40.527,34.180,0
1581971654.159,4.883,21.973,28.320,23.438,0
1581971654.163,11.719,29.785,24.902,4.395,0
1581971654.167,17.578,33.203,26.855,10.742,0
1581971654.171,17.578,40.039,20.508,19.531,0
1581971654.174,25.879,48.828,21.484,22.949,0
1581971654.178,20.020,39.062,24.902,11.719,0
1581971654.182,18.066,32.227,24.414,3.418,0
1581971654.186,24.902,27.344,24.902,8.789,0
1581971654.190,15.137,23.926,29.785,7.812,0
1581971654.207,18.066,25.391,31.250,16.602,0
1581971654.211,26.367,25.879,25.879,23.926,0
1581971654.215,16.113,37.598,28.809,10.742,0
1581971654.219,14.160,43.457,29.785,19.531,0
1581971654.223,17.090,44.434,25.879,27.832,0
1581971654.227,22.461,43.457,27.832,15.625,0
1581971654.231,18.066,35.645,35.645,19.043,0
1581971654.234,11.719,34.180,41.992,27.832,0
1581971654.238,24.414,39.551,40.039,35.156,0
1581971654.242,31.738,44.434,38.086,36.621,0
1581971654.246,20.020,33.203,29.785,25.879,0
1581971654.250,21.484,36.621,21.484,35.156,0
1581971654.252,36.133,46.387,33.691,46.387,0
1581971654.256,26.855,30.273,38.574,25.391,0
1581971654.260,11.719,26.855,20.996,9.766,0
1581971654.264,11.719,43.457,12.207,22.949,0
1581971654.268,11.719,44.434,26.855,19.531,0
1581971654.272,10.742,32.227,32.227,6.836,0
1581971654.276,7.812,31.738,25.879,7.324,0
1581971654.279,4.395,34.180,12.695,8.789,0
1581971654.283,13.672,35.156,18.066,12.207,0
1581971654.287,27.832,32.227,28.320,10.742,0
1581971654.291,29.297,19.043,25.879,5.371,0
1581971654.295,22.949,25.879,30.762,11.719,0
1581971654.297,19.531,43.457,25.879,18.066,0
1581971654.301,16.602,44.434,22.461,16.602,0
1581971654.305,20.020,42.480,24.902,20.996,0
1581971654.309,27.344,41.016,23.926,26.855,0
1581971654.313,21.484,29.785,18.555,28.320,0
1581971654.317,18.066,25.391,16.602,27.832,0
1581971654.321,31.738,34.180,18.555,19.043,0
1581971654.324,29.785,36.621,28.320,20.996,0
1581971654.328,30.762,37.109,33.691,25.391,0
1581971654.332,21.973,30.273,18.555,13.184,0
1581971654.336,12.207,19.531,10.254,5.371,0
1581971654.340,25.879,29.785,17.578,9.766,0
1581971654.342,30.762,35.156,20.508,14.648,0
1581971654.346,22.461,34.668,27.344,7.324,0
1581971654.350,20.020,38.574,32.227,10.254,0
1581971654.354,24.414,34.180,33.691,23.438,0
1581971654.358,32.227,34.180,37.109,26.367,0
1581971654.362,30.273,38.574,27.832,25.879,0
1581971654.366,22.461,38.574,20.020,18.066,0
1581971654.369,23.926,35.156,20.508,14.160,0
1581971654.373,39.062,43.457,25.879,19.043,0
1581971654.377,35.645,45.410,22.461,26.367,0
1581971654.381,7.812,32.227,15.625,20.020,0
1581971654.385,9.277,31.738,18.555,4.395,0
1581971654.386,20.020,31.738,25.391,20.508,0
1581971654.390,26.855,33.203,24.902,37.109,0
1581971654.394,34.180,33.691,22.949,34.180,0
1581971654.398,37.109,31.250,30.762,30.762,0
1581971654.402,42.480,27.832,41.992,27.832,0
1581971654.406,39.062,34.668,31.250,33.203,0
1581971654.410,28.809,44.434,17.578,28.809,0
1581971654.413,25.391,40.527,25.391,18.066,0
1581971654.417,31.250,38.086,31.738,23.438,0
1581971654.421,37.109,34.668,35.645,37.598,0
1581971654.425,26.855,34.180,36.133,36.621,0
1581971654.429,28.320,37.109,32.715,33.203,0
1581971654.431,41.016,32.715,39.551,30.762,0
1581971654.435,36.133,31.738,33.691,34.180,0
1581971654.439,35.645,41.016,25.879,38.086,0
1581971654.443,42.969,42.969,34.180,36.133,0
1581971654.447,41.016,36.621,34.180,25.879,0
1581971654.451,35.645,36.621,29.785,20.020,0
1581971654.455,41.992,36.621,30.762,42.480,0
1581971654.458,39.551,26.367,29.297,44.434,0
1581971654.462,33.691,29.297,17.578,21.484,0
1581971654.466,26.855,38.574,17.578,23.438,0
1581971654.470,7.812,35.645,20.508,19.043,0
1581971654.474,11.719,37.598,28.809,23.438,0
1581971654.476,24.902,43.457,30.273,28.320,0
1581971654.480,21.484,42.969,12.207,24.902,0
1581971654.484,26.855,35.156,20.508,23.438,0
1581971654.488,24.902,26.367,28.320,20.020,0
1581971654.492,12.695,22.949,22.949,17.578,0
1581971654.496,33.691,24.414,20.996,21.973,0
1581971654.500,39.551,24.414,25.391,22.949,0
1581971654.503,31.250,34.668,35.156,28.320,0
1581971654.507,30.762,44.922,32.227,39.062,0
1581971654.511,26.367,37.109,25.391,36.133,0
1581971654.515,30.273,35.645,22.461,28.320,0
1581971654.519,37.598,37.598,24.902,25.391,0
1581971654.536,30.762,40.527,24.902,20.508,0
1581971654.540,33.691,42.480,27.344,21.484,0
1581971654.544,32.715,32.715,31.738,19.043,0
1581971654.548,33.691,25.879,29.297,9.766,0
1581971654.552,31.738,30.273,31.250,15.137,0
1581971654.556,10.742,31.738,23.926,15.137,0
1581971654.560,18.555,35.645,17.090,18.555,28211
1581971654.563,20.020,30.762,9.766,20.996,0
1581971654.567,21.973,21.484,17.090,19.531,0
1581971654.571,29.785,20.996,25.879,34.668,0
1581971654.575,20.020,26.367,20.996,43.945,0
1581971654.579,22.461,36.621,27.344,28.809,0
1581971654.581,20.508,38.086,37.109,19.531,0
1581971654.585,14.648,40.039,25.391,20.508,0
1581971654.589,26.855,50.781,26.367,27.344,0
1581971654.593,30.273,42.969,36.621,28.809,0
1581971654.597,32.227,31.250,32.227,21.484,0
1581971654.601,29.297,29.785,33.691,17.090,0
1581971654.605,23.926,32.227,27.344,17.090,0
1581971654.608,23.438,36.133,20.996,22.949,0
1581971654.612,34.668,33.203,30.273,28.320,0
1581971654.616,44.922,34.668,39.551,28.809,0
1581971654.620,29.297,34.180,32.227,19.531,0
1581971654.624,25.879,33.691,26.855,26.367,0
1581971654.626,27.344,38.086,31.250,36.621,0
1581971654.630,26.855,33.203,22.949,32.227,0
1581971654.634,25.879,28.320,18.066,22.949,0
1581971654.638,23.438,25.391,20.020,16.113,0
1581971654.642,26.367,35.645,23.926,18.066,0
1581971654.646,24.902,40.527,38.086,27.344,0
1581971654.650,23.926,32.715,39.551,21.973,0
1581971654.653,30.273,33.203,29.785,19.531,0
1581971654.657,29.297,29.785,27.344,26.855,0
1581971654.661,27.344,29.785,23.438,33.691,0
1581971654.665,37.598,31.738,17.578,30.762,0
1581971654.669,30.762,28.320,29.785,19.531,0
1581971654.671,16.113,30.762,30.762,19.043,0
1581971654.675,10.742,31.738,25.391,6.348,0
1581971654.679,5.859,26.855,31.738,14.648,0
1581971654.683,9.766,23.438,35.645,28.320,0
1581971654.687,19.043,21.484,38.086,16.113,0
1581971654.691,21.484,21.973,32.227,22.461,0
1581971654.695,24.414,34.180,29.297,38.574,0
1581971654.698,30.762,39.551,37.598,44.434,0
1581971654.702,31.250,37.109,29.785,33.691,0
1581971654.706,44.922,37.598,28.320,40.527,0
1581971654.710,33.203,35.156,34.180,46.387,0
1581971654.714,21.484,39.062,36.133,31.738,0
1581971654.716,20.996,36.133,26.855,10.742,0
1581971654.720,9.766,30.762,16.602,1.465,0
1581971654.724,17.578,29.785,20.508,16.113,0
1581971654.728,24.902,32.227,27.832,19.531,0
1581971654.732,17.090,29.297,31.738,20.996,0
1581971654.736,15.137,24.414,27.344,21.973,0
1581971654.740,10.254,36.133,20.996,12.207,0
1581971654.743,5.371,44.434,29.785,17.578,0
1581971654.747,14.648,35.645,36.133,20.996,0
1581971654.751,13.672,35.156,26.855,17.090,0
1581971654.755,15.137,40.039,26.367,15.625,0
1581971654.759,17.578,39.062,28.320,14.648,0
1581971654.761,15.137,36.621,19.043,18.066,0
1581971654.765,19.531,35.156,23.438,20.508,0
1581971654.769,23.438,33.203,31.738,25.879,0
1581971654.773,18.066,29.297,37.109,21.973,0
1581971654.777,16.113,31.738,41.504,42.480,0
1581971654.781,28.809,41.504,35.645,51.758,0
1581971654.785,23.926,41.016,30.273,27.832,0
1581971654.788,12.207,36.133,28.809,19.531,0
1581971654.792,13.184,40.039,22.461,20.508,0
1581971654.796,19.531,29.785,21.973,30.273,0
1581971654.800,27.344,32.227,25.879,39.551,0
1581971654.804,38.574,36.133,36.133,40.527,0
1581971654.807,32.715,25.879,41.016,41.992,0
1581971654.811,29.785,25.391,31.250,48.828,0
1581971654.815,28.320,21.973,30.762,34.668,0
1581971654.819,18.555,25.391,30.762,18.066,0
1581971654.823,18.066,28.809,29.785,32.227,0
1581971654.827,15.625,29.785,30.762,32.715,0
1581971654.831,21.484,30.762,14.648,21.973,0
1581971654.834,19.531,29.297,15.137,15.625,0
1581971654.838,0.977,29.297,27.832,10.742,0
1581971654.842,-1.953,25.879,32.227,5.371,0
1581971654.846,8.301,25.879,34.668,11.230,0
1581971654.850,19.531,31.738,36.621,23.926,0
1581971654.852,24.902,35.156,31.250,29.785,0
1581971654.856,20.508,38.086,23.926,30.273,0
1581971654.860,15.137,35.645,27.832,28.809,0
1581971654.864,24.414,29.297,31.250,31.738,0
1581971654.868,29.785,34.180,26.367,24.902,0
1581971654.872,19.531,41.504,26.367,24.902,0
1581971654.876,20.508,36.621,33.691,33.203,0
1581971654.879,21.973,32.715,26.855,24.414,0
1581971654.883,13.672,35.645,14.648,18.555,0
1581971654.887,8.789,36.621,23.438,17.090,0
1581971654.891,6.836,34.668,32.715,13.184,0
1581971654.895,28.809,31.250,27.832,28.320,0
1581971654.897,34.668,25.391,30.762,22.461,0
1581971654.901,8.301,31.738,35.156,12.695,0
1581971654.905,9.766,37.598,30.762,26.367,0
1581971654.909,8.301,33.691,30.273,20.020,0
1581971654.913,17.090,43.457,38.574,24.414,0
1581971654.917,37.598,51.270,36.621,38.574,0
1581971654.921,26.855,39.062,18.555,20.508,0
1581971654.924,16.602,31.250,7.812,12.695,0
1581971654.928,22.949,33.691,17.090,31.250,0
1581971654.932,26.855,33.203,21.973,34.180,0
1581971654.936,28.809,32.715,23.926,21.484,0
1581971654.940,17.578,27.832,26.367,19.531,0
1581971654.957,13.184,24.414,30.762,23.438,0
1581971654.961,18.066,28.809,33.203,22.461,0
1581971654.965,20.020,29.297,28.320,23.926,0
1581971654.969,20.020,27.832,25.879,24.902,0
1581971654.973,25.391,32.715,20.996,28.320,0
1581971654.977,26.367,35.156,19.531,31.250,0
1581971654.981,22.461,35.645,25.879,24.414,0
1581971654.984,21.484,34.668,28.320,26.367,0
1581971654.988,25.391,37.109,28.320,27.832,0
1581971654.992,26.367,39.551,26.855,21.484,0
1581971654.996,22.949,37.598,26.367,17.090,0
1581971655.000,24.414,29.785,19.531,27.832,0
1581971655.002,32.227,24.902,16.113,36.133,0
1581971655.006,28.320,27.344,29.297,32.227,0
1581971655.010,29.785,28.809,31.738,40.527,0
1581971655.014,19.043,24.414,24.902,43.457,0
1581971655.018,8.789,25.391,21.973,29.297,0
1581971655.022,19.043,29.297,19.531,15.625,0
1581971655.026,12.695,22.461,17.578,12.695,0
1581971655.029,14.160,27.832,10.742,15.137,0
1581971655.033,19.043,36.133,19.531,11.719,0
1581971655.037,23.926,24.414,28.320,15.137,0
1581971655.041,25.391,16.602,20.508,28.809,0
1581971655.045,25.391,34.668,22.949,30.273,0
1581971655.047,41.504,47.363,35.156,31.738,0
1581971655.051,24.902,39.062,27.344,26.367,0
1581971655.055,4.395,28.809,16.113,17.578,0
1581971655.059,2.930,26.367,17.090,12.695,0
1581971655.063,7.324,30.273,20.996,17.090,0
1581971655.067,23.438,33.691,23.438,23.926,0
1581971655.071,27.344,30.273,20.508,20.508,0
1581971655.074,27.832,25.879,21.973,21.484,0
1581971655.078,34.668,25.391,28.320,25.391,0
1581971655.082,33.691,26.855,26.367,31.738,0
1581971655.086,21.484,25.879,30.273,24.414,0
1581971655.090,18.066,30.273,34.180,14.160,0
1581971655.092,28.809,35.645,30.762,20.996,0
1581971655.096,25.391,39.062,29.297,22.949,0
1581971655.100,29.297,37.598,25.391,30.762,0
1581971655.104,39.551,34.668,30.273,36.621,0
1581971655.108,28.320,37.598,35.645,34.668,0
1581971655.112,18.555,35.645,23.926,32.227,0
1581971655.116,20.996,27.344,21.484,29.297,0
1581971655.119,28.809,28.809,33.203,36.621,0
1581971655.123,24.414,40.039,28.809,28.320,0
1581971655.127,17.578,47.852,23.438,23.438,0
1581971655.131,18.066,49.316,32.715,32.227,0
1581971655.135,30.273,41.016,30.273,35.156,0
1581971655.137,37.598,30.762,29.297,39.062,0
1581971655.141,22.461,31.738,35.645,47.363,0
1581971655.145,18.555,34.668,33.203,38.574,0
1581971655.149,27.832,33.203,31.250,27.344,0
1581971655.153,32.715,31.738,30.762,24.902,0
1581971655.157,29.297,29.297,26.855,16.602,0
1581971655.161,32.715,32.227,33.691,18.066,0
1581971655.164,39.551,38.574,34.668,28.809,0
1581971655.168,31.250,27.832,17.090,20.020,0
1581971655.172,21.484,21.484,18.066,13.672,0
1581971655.176,19.531,33.203,25.879,31.738,0
1581971655.180,23.926,33.691,27.832,31.250,0
1581971655.182,14.648,28.809,28.320,11.719,0
1581971655.186,16.602,27.832,26.367,20.508,0
1581971655.190,40.527,31.738,30.762,39.062,0
1581971655.194,39.062,26.367,29.297,27.832,0
1581971655.198,24.902,27.832,19.043,19.043,0
1581971655.202,19.531,41.016,20.508,17.090,0
1581971655.206,18.066,39.551,25.879,18.066,0
1581971655.209,30.762,43.457,23.438,18.555,0
1581971655.213,38.574,47.852,20.020,10.254,0
1581971655.217,35.645,45.898,19.531,14.160,0
1581971655.221,27.832,39.062,21.484,17.578,0
1581971655.225,22.949,22.461,26.367,15.625,0
1581971655.227,27.344,28.320,30.762,26.367,0
1581971655.231,30.762,36.133,26.855,34.180,0
1581971655.235,34.180,34.180,31.738,32.715,0
1581971655.239,29.785,38.086,24.902,29.785,0
1581971655.243,21.973,29.297,20.508,15.625,0
1581971655.247,21.973,24.902,31.250,13.184,0
1581971655.251,32.715,39.062,24.414,11.719,0
1581971655.254,36.621,42.969,25.879,16.602,0
1581971655.258,33.691,40.527,28.809,24.414,0
1581971655.262,32.715,36.133,14.160,35.156,0
1581971655.266,31.250,31.738,20.996,39.062,0
1581971655.270,36.133,35.645,36.133,28.809,0
1581971655.272,36.621,32.715,33.691,31.738,0
1581971655.276,33.203,39.551,25.391,26.367,0
1581971655.280,33.691,45.410,24.414,13.672,0
1581971655.284,41.992,41.992,22.949,19.043,0
1581971655.288,42.480,40.039,22.949,29.785,0
1581971655.292,38.086,36.133,27.344,22.949,0
1581971655.296,41.992,36.621,27.344,19.531,0
1581971655.299,35.645,35.156,27.344,22.461,0
1581971655.303,38.086,36.621,33.203,28.809,0
1581971655.307,35.645,40.039,40.039,34.668,0
1581971655.311,20.996,31.250,24.414,28.809,0
1581971655.315,20.996,23.926,18.066,26.855,0
1581971655.332,28.809,33.691,35.156,27.832,0
1581971655.336,26.855,34.180,32.715,23.438,0
1581971655.340,24.902,30.273,17.578,23.926,0
1581971655.344,32.227,41.504,20.020,17.578,0
1581971655.348,30.762,41.016,23.438,18.066,0
1581971655.352,38.086,36.621,21.484,30.762,0
1581971655.356,36.621,37.109,28.320,30.762,0
1581971655.359,27.832,30.762,33.691,26.367,0
1581971655.363,25.391,28.809,33.691,24.902,0
1581971655.367,27.832,36.621,40.039,31.738,0
1581971655.371,35.156,34.180,36.133,26.855,0
1581971655.375,25.391,34.668,24.414,20.996,0
1581971655.377,26.855,40.527,27.832,32.227,0
1581971655.381,33.203,38.086,34.668,32.715,0
1581971655.385,29.785,26.855,26.367,22.949,0
1581971655.389,31.250,28.809,30.273,25.391,0
1581971655.393,25.391,33.691,35.156,32.227,0
1581971655.397,17.578,27.344,23.926,26.367,0
1581971655.401,30.273,31.250,25.879,28.809,0
1581971655.404,23.438,27.832,27.344,25.391,0
1581971655.408,28.320,34.180,28.809,25.879,0
1581971655.412,27.832,41.016,34.668,25.391,0
1581971655.416,9.766,30.273,32.227,11.230,0
1581971655.420,8.301,27.344,21.973,6.348,0
1581971655.422,22.461,33.691,13.184,4.395,0
1581971655.426,31.250,37.598,16.602,8.301,0
1581971655.430,20.020,38.574,22.461,29.785,0
1581971655.434,31.250,31.738,17.578,43.945,0
1581971655.438,39.062,28.809,24.902,40.527,0
1581971655.442,26.855,35.645,36.133,31.738,0
1581971655.446,22.949,34.180,34.668,26.855,0
1581971655.449,23.438,35.645,29.297,31.250,0
1581971655.453,28.809,38.086,27.832,19.043,0
1581971655.457,29.297,36.621,26.367,11.719,0
1581971655.461,18.555,29.785,26.367,15.625,0
1581971655.465,19.043,24.902,33.691,18.066,0
1581971655.467,26.855,30.762,30.762,23.926,0
1581971655.471,29.785,34.180,22.949,20.996,0
1581971655.475,23.438,31.738,32.227,18.066,0
1581971655.479,20.020,33.203,32.715,21.973,0
1581971655.483,33.203,40.527,25.391,20.508,0
1581971655.487,29.785,31.250,25.391,18.066,0
1581971655.491,29.297,23.438,29.297,32.227,0
1581971655.494,27.832,33.691,35.156,38.086,0
1581971655.498,25.391,41.992,33.203,35.156,0
1581971655.502,32.715,35.645,27.344,43.457,0
1581971655.506,33.203,25.879,26.855,42.969,0
1581971655.510,19.531,26.855,28.809,18.555,0
1581971655.512,9.277,30.273,30.273,10.254,0
1581971655.516,25.879,36.621,27.344,27.832,0
1581971655.520,22.949,38.574,18.066,28.809,0
1581971655.524,15.137,37.109,26.855,20.020,0
1581971655.528,24.902,29.785,37.598,28.320,0
1581971655.532,25.391,18.555,28.809,30.762,0
1581971655.536,24.414,27.344,33.691,24.902,0
1581971655.539,33.203,35.156,38.574,22.949,0
1581971655.543,40.039,31.250,27.344,26.855,0
1581971655.547,30.762,34.180,25.391,32.715,0
1581971655.551,40.039,37.109,31.250,31.250,0
1581971655.555,36.621,27.832,29.785,32.227,0
1581971655.556,25.879,27.344,35.645,41.504,0
1581971655.560,34.668,34.180,36.621,26.855,0
1581971655.564,26.367,31.250,33.691,19.043,0
1581971655.568,17.578,27.344,34.180,25.879,0
1581971655.572,22.949,23.926,29.785,24.902,0
1581971655.576,19.531,17.578,19.043,19.043,0
1581971655.580,18.066,25.391,19.043,8.789,0
1581971655.583,25.879,36.133,31.250,10.254,0
1581971655.587,29.785,46.875,40.527,32.227,0
1581971655.591,25.879,45.898,39.062,41.504,0
1581971655.595,30.273,29.785,37.109,23.926,0
1581971655.599,33.203,25.879,29.297,22.949,0
1581971655.601,26.367,23.926,23.926,35.156,0
1581971655.605,26.367,23.926,28.320,31.250,0
1581971655.609,22.949,31.738,27.344,13.672,0
1581971655.613,19.043,31.250,23.926,13.672,0
1581971655.617,20.020,34.668,30.273,17.578,0
1581971655.621,21.484,39.062,32.227,16.602,0
1581971655.625,23.926,37.598,31.250,16.113,0
1581971655.628,26.855,30.762,33.203,14.160,0
1581971655.632,28.320,31.250,23.438,16.113,0
1581971655.636,25.391,30.762,17.578,13.672,0
1581971655.640,26.367,24.902,25.879,26.855,0
1581971655.644,39.062,29.297,37.109,28.809,0
1581971655.646,35.645,36.621,34.668,19.043,0
1581971655.650,24.902,34.668,30.762,26.367,0
1581971655.654,20.020,31.738,34.180,25.879,0
1581971655.658,41.016,36.133,32.715,29.297,0
1581971655.662,49.805,36.133,27.344,33.203,0
1581971655.666,30.273,28.809,25.391,27.832,0
1581971655.670,29.297,30.273,26.855,20.020,0
1581971655.673,29.785,40.527,27.832,22.461,0
1581971655.677,20.508,40.527,27.832,22.949,0
1581971655.681,18.555,36.133,21.484,13.672,0
1581971655.685,23.438,36.133,16.113,18.066,0
1581971655.689,13.672,32.715,24.902,15.625,18190
1581971655.706,19.531,24.902,28.320,9.277,0
1581971655.710,31.250,26.855,26.367,14.160,0
1581971655.714,30.273,29.785,32.715,24.902,0
1581971655.718,28.320,25.391,35.645,36.133,0
1581971655.722,24.414,33.203,28.809,38.086,0
1581971655.726,28.320,36.133,23.438,33.203,0
1581971655.730,26.367,34.668,30.762,22.949,0
1581971655.733,24.414,38.086,33.203,19.043,0
1581971655.737,29.785,38.574,22.949,20.020,0
1581971655.741,26.855,34.668,26.367,10.742,0
1581971655.745,20.020,32.715,34.180,12.207,0
1581971655.749,17.578,38.086,31.250,22.949,0
1581971655.751,17.578,35.645,27.344,14.648,0
1581971655.755,26.855,32.227,35.156,18.555,0
1581971655.759,34.668,25.879,36.133,26.855,0
1581971655.763,35.156,27.832,25.879,23.438,0
1581971655.767,15.625,34.180,22.949,19.043,0
1581971655.771,10.254,29.785,29.297,20.020,0
1581971655.775,25.391,33.691,30.273,25.879,0
1581971655.778,9.277,35.156,19.531,20.020,0
1581971655.782,4.883,25.391,26.855,26.367,0
1581971655.786,11.719,28.809,36.621,30.762,0
1581971655.790,15.625,40.039,33.203,24.414,0
1581971655.794,7.324,39.062,28.320,22.461,0
1581971655.796,4.883,36.133,33.691,27.832,0
1581971655.800,20.508,38.086,38.574,29.297,0
1581971655.804,25.391,32.715,37.109,27.344,0
1581971655.808,8.789,32.227,28.809,33.691,0
1581971655.812,11.719,37.598,21.484,30.273,0
1581971655.816,23.438,38.086,28.809,20.020,0
1581971655.820,28.320,41.504,30.762,15.625,0
1581971655.823,21.484,41.016,27.344,20.020,0
1581971655.827,19.043,35.645,31.738,22.949,0
1581971655.831,23.438,37.598,29.785,20.508,0
1581971655.835,23.926,39.062,27.832,19.531,0
1581971655.839,35.156,32.227,33.203,25.391,0
1581971655.841,32.715,32.715,28.320,15.137,0
1581971655.845,22.461,37.109,28.809,13.672,0
1581971655.849,23.926,31.738,39.062,34.180,0
1581971655.853,18.555,23.438,34.180,34.180,0
1581971655.857,15.137,24.414,33.691,25.391,0
1581971655.861,17.578,29.297,35.645,22.949,0
1581971655.865,24.414,32.227,32.715,16.602,0
1581971655.868,24.414,23.438,35.156,14.648,0
1581971655.872,18.066,20.996,36.133,19.043,0
1581971655.876,22.949,30.273,35.156,24.414,0
1581971655.880,31.738,26.367,28.320,21.973,0
1581971655.884,30.762,26.367,28.320,27.344,0
1581971655.886,26.855,34.180,27.344,29.785,0
1581971655.890,24.902,38.574,24.414,29.297,0
1581971655.894,21.973,34.180,34.180,32.227,0
1581971655.898,20.996,21.484,32.715,31.250,0
1581971655.902,26.855,31.738,28.809,40.039,0
1581971655.906,27.344,32.715,35.156,45.898,0
1581971655.910,13.672,19.531,31.738,25.391,0
1581971655.913,7.812,27.344,23.438,5.371,0
1581971655.917,10.742,28.320,20.020,-3.418,0
1581971655.921,13.672,28.320,23.438,14.160,0
1581971655.925,9.766,32.227,29.785,28.320,0
1581971655.929,14.648,35.156,28.320,13.672,0
1581971655.932,21.484,31.250,19.531,11.719,0
1581971655.936,17.090,27.344,9.766,25.879,0
1581971655.940,12.695,26.855,9.766,32.715,0
1581971655.944,20.020,21.484,24.902,29.785,0
1581971655.948,30.273,24.414,32.715,25.391,0
1581971655.952,28.320,36.621,31.738,28.809,0
1581971655.956,22.461,33.691,30.273,26.367,0
1581971655.959,24.902,31.250,27.832,15.137,0
1581971655.963,36.621,36.621,30.273,15.137,0
1581971655.967,26.367,34.668,23.438,24.414,0
1581971655.971,20.508,34.180,19.043,30.273,0
1581971655.975,23.926,37.598,22.461,20.508,0
1581971655.977,27.832,33.203,21.484,14.648,0
1581971655.981,36.133,29.785,25.391,20.996,0
1581971655.985,19.043,28.809,25.879,20.996,0
1581971655.989,18.066,24.414,24.902,29.785,0
1581971655.993,33.691,31.738,30.762,36.133,0
1581971655.997,31.250,34.668,35.645,33.203,0
1581971656.001,26.855,25.391,26.367,25.879,0
1581971656.004,17.578,26.367,16.602,18.555,0
1581971656.008,16.602,20.996,12.695,16.113,0
1581971656.012,27.832,25.391,18.066,8.301,0
1581971656.016,38.574,36.133,20.020,3.906,0
1581971656.020,30.273,37.109,16.602,9.766,0
1581971656.022,18.555,37.598,14.648,14.160,0
1581971656.026,20.508,37.598,16.113,15.137,0
1581971656.030,18.555,36.133,17.090,9.766,0
1581971656.034,14.160,36.621,29.297,8.789,0
1581971656.038,26.367,39.551,38.574,15.625,0
1581971656.042,22.949,28.320,31.738,22.949,0
1581971656.046,4.883,23.926,28.320,12.207,0
1581971656.049,18.555,34.180,25.879,4.883,0
1581971656.053,14.160,35.156,20.996,20.508,0
1581971656.057,3.418,36.133,21.973,20.508,0
1581971656.061,12.207,40.039,25.879,15.625,0
1581971656.065,22.461,46.387,28.809,11.230,0
1581971656.082,22.461,35.156,27.832,4.883,0
1581971656.086,20.020,27.832,19.531,-2.441,0
1581971656.090,12.207,31.738,17.578,1.953,0
1581971656.094,10.742,30.273,26.855,14.648,0
1581971656.098,18.555,39.062,36.621,28.809,0
1581971656.102,21.484,40.039,36.621,37.598,0
1581971656.106,22.461,30.762,30.762,25.879,0
1581971656.109,22.461,23.926,26.855,15.625,0
1581971656.113,26.855,22.461,18.555,17.090,0
1581971656.117,22.949,36.133,10.742,24.902,0
1581971656.121,28.320,46.875,7.324,28.320,0
1581971656.125,30.762,42.480,20.020,22.461,0
1581971656.127,16.113,33.691,27.832,10.742,0
1581971656.131,13.672,30.762,23.438,19.043,0
1581971656.135,23.926,35.645,31.250,34.180,0
1581971656.139,22.461,37.109,34.668,34.668,0
1581971656.143,11.719,32.715,32.227,23.926,0
1581971656.147,22.461,32.227,31.250,23.438,0
1581971656.151,25.391,31.250,28.809,24.902,0
1581971656.154,26.367,30.762,29.297,21.973,0
1581971656.158,34.668,36.621,26.855,22.949,0
1581971656.162,31.250,38.086,26.367,23.438,0
1581971656.166,32.227,35.645,35.645,33.203,0
1581971656.170,21.973,31.738,31.738,26.855,0
1581971656.172,20.020,37.109,21.484,19.531,0
1581971656.176,33.203,38.574,20.020,23.438,0
1581971656.180,35.645,32.715,20.996,21.484,0
1581971656.184,26.367,26.367,23.438,19.531,0
1581971656.188,30.273,27.832,19.043,30.273,0
1581971656.192,31.738,32.715,20.996,28.809,0
1581971656.196,22.461,26.367,29.785,18.066,0
1581971656.199,20.996,23.438,27.832,20.508,0
1581971656.203,21.973,32.227,20.020,17.578,0
1581971656.207,20.020,36.133,22.949,17.578,0
1581971656.211,17.090,32.715,24.902,24.902,0
1581971656.215,20.996,33.203,28.320,25.879,0
1581971656.217,29.785,35.156,30.273,26.855,0
1581971656.221,27.832,35.645,26.367,33.203,0
1581971656.225,24.414,32.715,30.273,32.227,0
1581971656.229,23.438,31.738,32.227,24.902,0
1581971656.233,20.508,31.738,32.227,19.043,0
1581971656.237,22.461,30.273,30.273,15.137,0
1581971656.241,21.973,25.879,22.461,23.926,0
1581971656.244,37.109,20.020,23.926,29.785,0
1581971656.248,40.527,26.367,21.973,23.926,0
1581971656.252,27.832,36.133,29.297,35.156,0
1581971656.256,25.391,32.227,33.691,36.621,0
1581971656.260,19.531,29.297,27.344,28.320,0
1581971656.262,31.738,36.133,26.367,25.391,0
1581971656.266,31.250,37.109,22.461,22.949,0
1581971656.270,25.391,40.527,31.250,35.645,0
1581971656.274,40.039,44.922,46.875,52.246,0
1581971656.278,35.645,37.109,37.109,52.734,0
1581971656.282,24.902,28.809,24.414,31.738,0
1581971656.286,25.391,19.043,20.996,21.484,0
1581971656.289,35.156,21.484,13.672,29.297,0
1581971656.293,40.527,38.086,29.785,35.645,0
1581971656.297,28.320,36.133,31.738,21.484,0
1581971656.301,13.672,29.297,23.438,16.602,0
1581971656.305,12.207,29.785,24.902,17.578,0
1581971656.307,15.625,29.785,25.879,12.207,0
1581971656.311,20.020,34.180,31.250,21.484,0
1581971656.315,32.715,38.574,28.809,28.320,0
1581971656.319,28.809,35.645,26.855,29.785,0
1581971656.323,11.230,31.250,29.785,36.621,0
1581971656.327,20.020,28.320,23.438,30.762,0
1581971656.331,29.785,33.691,14.160,18.555,0
1581971656.334,27.344,37.109,20.508,18.066,0
1581971656.338,44.434,32.715,30.273,23.926,0
1581971656.342,36.133,36.133,27.344,20.508,0
1581971656.346,19.531,44.434,25.879,21.484,0
1581971656.350,30.762,43.457,33.203,30.762,0
1581971656.352,38.086,37.598,37.109,25.391,0
1581971656.356,30.762,33.203,26.367,25.879,0
1581971656.360,17.090,34.668,21.973,22.461,0
1581971656.364,22.949,40.039,28.320,14.160,0
1581971656.368,28.320,35.156,23.926,25.879,0
1581971656.372,22.461,24.902,11.719,27.832,0
1581971656.376,21.484,25.391,15.137,17.578,0
1581971656.379,28.320,27.344,26.855,13.184,0
1581971656.383,31.738,30.273,40.039,13.184,0
1581971656.387,13.672,26.367,41.992,8.789,0
1581971656.391,14.160,28.320,34.180,8.301,0
1581971656.395,27.344,38.086,20.508,20.020,0
1581971656.397,25.879,41.016,13.672,25.879,0
1581971656.401,22.461,41.016,28.809,27.344,0
1581971656.405,26.855,40.039,36.133,32.715,0
1581971656.409,24.902,31.738,21.973,23.438,0
1581971656.413,28.320,26.855,17.578,18.555,0
1581971656.417,38.086,31.738,29.785,31.738,0
1581971656.421,28.809,35.645,31.250,31.250,0
1581971656.424,19.531,36.621,20.020,23.438,0
1581971656.428,28.320,35.156,17.090,18.066,0
1581971656.432,41.504,25.391,21.973,24.414,0
1581971656.436,25.391,28.809,22.949,23.926,0
1581971656.440,4.883,32.715,25.391,11.230,0
1581971656.457,18.066,28.809,25.879,18.555,0
1581971656.461,20.020,32.227,31.250,27.832,0
1581971656.465,24.902,37.109,33.691,35.156,0
1581971656.469,31.738,33.203,27.832,30.273,0
1581971656.473,28.809,29.785,27.344,23.438,0
1581971656.477,23.926,30.273,26.367,22.461,0
1581971656.481,23.438,34.668,23.926,25.391,0
1581971656.484,33.691,41.504,20.996,25.391,0
1581971656.488,37.109,34.668,27.832,26.855,0
1581971656.492,22.949,21.484,31.738,26.367,0
1581971656.496,13.184,15.137,32.227,9.277,0
1581971656.500,15.137,20.508,29.297,9.766,0
1581971656.502,17.578,28.809,22.461,19.531,0
1581971656.506,21.484,27.832,28.320,28.809,0
1581971656.510,18.555,31.250,28.809,36.621,0
1581971656.514,20.996,30.273,24.902,41.016,0
1581971656.518,22.949,29.785,32.227,32.715,0
1581971656.522,30.762,33.691,36.133,28.320,0
1581971656.526,37.109,33.691,34.180,30.762,0
1581971656.529,33.691,37.598,21.973,21.973,0
1581971656.533,29.785,41.504,15.137,16.602,0
1581971656.537,29.297,41.992,23.926,16.113,0
1581971656.541,37.598,35.156,23.926,16.602,0
1581971656.545,36.621,31.738,23.926,20.020,0
1581971656.547,17.578,32.715,36.133,19.043,0
1581971656.551,13.672,38.574,40.039,21.484,0
1581971656.555,27.344,36.133,38.086,23.438,0
1581971656.559,23.926,31.250,33.203,33.203,0
1581971656.563,15.625,37.109,20.996,34.180,0
1581971656.567,13.672,35.156,24.902,25.391,0
1581971656.571,23.438,31.250,30.762,23.926,0
1581971656.574,30.273,30.273,29.297,29.297,0
1581971656.578,26.367,34.180,37.109,29.785,0
1581971656.582,30.273,27.832,35.645,25.391,0
1581971656.586,27.344,22.949,35.645,20.996,0
1581971656.590,20.020,33.691,36.133,12.695,0
1581971656.592,22.949,32.715,31.250,20.020,0
1581971656.596,24.902,30.762,33.691,26.367,0
1581971656.600,23.438,33.691,24.902,20.508,0
1581971656.604,26.855,29.785,21.973,18.066,0
1581971656.608,21.484,24.414,23.438,26.367,0
1581971656.612,15.625,27.344,25.391,28.320,0
1581971656.616,15.137,29.297,32.227,15.137,0
1581971656.619,20.996,33.203,30.273,17.090,0
1581971656.623,28.320,37.109,26.367,20.020,0
1581971656.627,23.438,37.598,26.367,13.184,0
1581971656.631,19.043,36.133,25.879,11.230,0
1581971656.635,22.949,38.086,33.203,21.484,0
1581971656.636,28.320,39.551,35.645,33.691,0
1581971656.640,34.180,32.227,20.996,24.902,0
1581971656.644,20.996,29.785,19.531,20.996,0
1581971656.648,15.137,35.156,25.879,32.227,0
1581971656.652,23.438,28.320,24.414,25.879,0
1581971656.656,18.555,29.297,30.762,16.113,0
1581971656.660,26.367,39.551,40.039,20.996,0
1581971656.663,29.785,39.551,35.156,26.367,0
1581971656.667,20.996,29.297,24.414,19.531,0
1581971656.671,21.484,27.344,27.344,18.555,0
1581971656.675,20.020,37.598,30.762,23.438,0
1581971656.679,30.273,46.875,35.156,30.273,0
1581971656.681,42.480,43.945,36.621,34.180,0
1581971656.685,32.715,32.227,27.344,22.461,0
1581971656.689,23.438,29.297,16.602,13.184,0
1581971656.693,26.367,27.832,16.602,16.602,0
1581971656.697,27.832,30.273,20.508,20.020,0
1581971656.701,21.973,36.621,20.996,20.020,0
1581971656.705,16.113,36.133,22.949,20.020,0
1581971656.708,20.996,31.738,24.414,16.602,0
1581971656.712,27.832,31.250,25.879,20.996,0
1581971656.716,22.461,30.273,26.855,31.250,0
1581971656.720,26.855,31.250,31.738,29.785,0
1581971656.724,23.926,36.133,32.715,30.273,0
1581971656.726,9.766,33.203,29.785,28.320,0
1581971656.730,22.949,30.273,27.832,20.508,0
1581971656.734,26.855,30.762,20.508,20.508,0
1581971656.738,9.277,30.762,20.508,23.926,0
1581971656.742,8.301,31.250,27.832,20.508,0
1581971656.746,16.602,32.715,33.691,18.066,0
1581971656.750,24.902,33.691,32.227,15.625,0
1581971656.753,32.715,32.715,30.273,20.020,0
1581971656.757,22.461,30.762,32.227,29.785,0
1581971656.761,22.461,28.320,31.738,35.645,0
1581971656.765,35.156,24.902,36.133,32.715,0
1581971656.769,37.598,27.832,34.180,32.715,0
1581971656.771,23.926,27.344,21.484,25.391,0
1581971656.775,26.855,28.809,21.484,11.719,0
1581971656.779,33.203,39.551,28.809,17.090,0
1581971656.783,25.391,47.852,30.762,20.508,0
1581971656.787,15.137,44.922,26.855,16.113,0
1581971656.791,12.695,35.645,22.461,18.555,0
1581971656.795,32.227,34.668,24.414,34.668,0
1581971656.798,28.809,37.109,24.414,38.086,0
1581971656.802,21.484,38.574,31.738,30.273,0
1581971656.806,14.648,31.738,38.574,27.344,0
1581971656.810,11.230,27.344,34.180,20.996,0
1581971656.814,24.414,33.203,26.367,25.879,0
1581971656.831,26.367,40.527,24.414,30.762,15621
1581971656.835,29.785,47.363,30.273,23.438,0
1581971656.839,36.133,42.969,32.227,20.508,0
1581971656.843,31.738,37.109,24.414,26.367,0
1581971656.847,21.973,36.133,29.785,22.949,0
1581971656.851,24.902,36.621,35.645,27.344,0
1581971656.855,22.949,31.738,33.203,29.297,0
1581971656.858,15.137,29.785,33.691,20.508,0
1581971656.862,22.949,37.598,30.273,26.367,0
1581971656.866,21.973,41.504,22.461,28.320,0
1581971656.870,17.090,37.598,24.902,18.066,0
1581971656.874,28.320,35.156,24.414,21.973,0
1581971656.876,40.527,40.527,11.230,29.297,0
1581971656.880,47.363,37.109,26.855,29.785,0
1581971656.884,35.645,29.785,43.945,24.414,0
1581971656.888,22.949,34.668,39.062,19.043,0
1581971656.892,29.785,39.551,38.086,32.227,0
1581971656.896,27.832,32.715,36.133,31.250,0
1581971656.900,26.367,28.809,31.738,21.973,0
1581971656.903,28.809,36.133,31.250,31.738,0
1581971656.907,28.809,34.668,27.344,38.086,0
1581971656.911,25.391,34.180,22.949,29.785,0
1581971656.915,25.391,30.762,20.996,21.973,0
1581971656.919,26.855,31.738,22.461,18.555,0
1581971656.921,27.344,35.156,30.273,15.625,0
1581971656.925,26.855,35.645,32.715,17.090,0
1581971656.929,18.555,36.621,25.879,21.484,0
1581971656.933,12.207,34.668,29.785,21.973,0
1581971656.937,19.531,30.762,33.203,29.785,0
1581971656.941,27.832,25.879,24.902,22.949,0
1581971656.945,21.484,28.320,27.832,17.578,0
1581971656.948,17.090,29.297,30.762,27.832,0
1581971656.952,26.855,23.438,22.949,31.250,0
1581971656.956,32.715,28.809,27.344,22.949,0
1581971656.960,18.066,37.109,28.809,13.672,0
1581971656.964,15.137,37.109,20.508,26.855,0
1581971656.966,19.043,32.715,17.578,30.762,0
1581971656.970,23.926,37.598,20.996,16.113,0
1581971656.974,22.461,36.621,23.926,15.625,0
1581971656.978,19.531,30.762,28.320,20.996,0
1581971656.982,24.902,32.227,35.645,18.555,0
1581971656.986,30.273,33.203,34.668,23.438,0
1581971656.990,27.832,33.203,27.344,29.785,0
1581971656.993,23.438,31.250,28.320,18.066,0
1581971656.997,27.344,28.809,27.832,13.672,0
1581971657.001,32.715,36.133,26.855,30.762,0
1581971657.005,34.668,39.062,33.691,33.691,0
1581971657.009,27.832,34.180,29.785,34.180,0
1581971657.011,28.809,36.133,20.996,44.434,0
1581971657.015,30.762,40.039,29.297,37.109,0
1581971657.019,31.250,37.109,36.621,31.738,0
1581971657.023,33.691,33.203,41.504,39.551,0
1581971657.027,36.621,34.180,37.598,40.527,0
1581971657.031,32.715,39.062,30.273,31.250,0
1581971657.035,29.297,40.039,37.109,32.715,0
1581971657.038,27.832,29.297,35.156,23.438,0
1581971657.042,14.160,18.555,22.949,4.883,0
1581971657.046,19.531,27.832,22.949,22.461,0
1581971657.050,28.809,36.621,23.438,28.809,0
1581971657.054,16.602,33.203,18.066,13.184,0
1581971657.057,9.277,36.621,29.785,13.672,0
1581971657.061,10.254,34.668,31.738,16.602,0
1581971657.065,21.973,32.227,21.484,16.113,0
1581971657.069,30.273,37.109,26.367,27.344,0
1581971657.073,21.484,34.180,25.879,33.203,0
1581971657.077,20.508,29.785,25.879,31.250,0
1581971657.081,31.738,32.715,26.855,47.852,0
1581971657.084,39.551,35.156,19.531,40.527,0
1581971657.088,36.621,37.109,28.809,21.973,0
1581971657.092,28.320,41.504,34.668,35.156,0
1581971657.096,25.879,43.945,35.645,27.832,0
1581971657.100,27.344,39.551,33.203,13.184,0
1581971657.102,36.621,37.109,30.273,16.113,0
1581971657.106,38.086,35.645,28.320,21.973,0
1581971657.110,14.160,33.691,27.344,20.020,0
1581971657.114,15.137,37.109,28.809,18.555,0
1581971657.118,20.508,38.574,26.855,19.043,0
1581971657.122,13.184,34.180,30.762,19.043,0
1581971657.126,22.949,32.227,31.250,28.320,0
1581971657.129,31.738,29.785,18.555,24.414,0
1581971657.133,28.809,32.227,17.578,17.090,0
1581971657.137,21.484,36.133,32.227,29.297,0
1581971657.141,17.090,34.180,41.016,28.809,0
1581971657.145,20.020,38.574,41.016,7.812,0
1581971657.147,20.508,40.527,31.738,6.836,0
1581971657.151,16.602,35.156,30.762,17.090,0
1581971657.155,12.207,31.250,38.086,14.160,0
1581971657.159,15.137,34.668,30.762,12.207,0
1581971657.163,20.996,34.180,18.066,18.555,0
1581971657.167,30.762,33.203,18.066,27.344,0
1581971657.171,32.227,33.691,19.531,18.066,0
1581971657.174,26.367,28.809,22.949,6.348,0
1581971657.178,29.297,30.273,31.738,13.672,0
1581971657.182,33.691,37.598,31.250,26.367,0
1581971657.186,27.832,38.086,33.203,24.902,0
1581971657.190,20.996,37.598,34.180,13.184,0
1581971657.207,22.461,34.668,28.809,15.625,0
1581971657.211,25.391,33.691,23.926,19.531,0
1581971657.215,29.297,36.621,26.367,39.551,0
1581971657.219,29.297,36.133,37.109,40.527,0
1581971657.223,22.949,35.645,35.645,21.973,0
1581971657.227,20.508,34.668,37.109,20.508,0
1581971657.231,24.902,31.250,33.691,13.672,0
1581971657.234,29.785,31.738,25.879,18.555,0
1581971657.238,23.438,34.668,24.414,29.297,0
1581971657.242,15.625,30.762,21.973,32.227,0
1581971657.246,18.555,29.297,26.855,35.156,0
1581971657.250,16.602,34.180,31.738,35.645,0
1581971657.252,13.672,35.156,33.203,33.691,0
1581971657.256,18.555,34.180,27.344,24.902,0
1581971657.260,21.973,31.250,26.855,19.531,0
1581971657.264,13.184,28.809,33.203,21.484,0
1581971657.268,7.812,29.297,34.180,24.414,0
1581971657.272,18.555,31.250,29.785,20.020,0
1581971657.276,34.180,33.203,26.367,23.438,0
1581971657.279,39.551,32.715,27.832,29.297,0
1581971657.283,25.391,31.738,25.879,21.484,0
1581971657.287,29.297,32.715,27.344,22.461,0
1581971657.291,31.250,26.367,34.180,27.832,0
1581971657.295,13.672,20.508,29.785,24.902,0
1581971657.297,18.066,28.320,28.320,30.273,0
1581971657.301,29.785,33.203,34.668,22.949,0
1581971657.305,28.809,28.809,37.109,16.113,0
1581971657.309,29.297,27.344,33.691,30.762,0
1581971657.313,38.574,32.715,33.691,29.785,0
1581971657.317,41.016,43.945,37.598,31.738,0
1581971657.321,31.250,39.062,34.180,25.879,0
1581971657.324,29.785,17.578,28.320,22.461,0
1581971657.328,24.414,17.578,31.250,29.785,0
1581971657.332,22.461,31.738,23.926,32.227,0
1581971657.336,30.273,32.715,22.461,26.855,0
1581971657.340,31.738,33.691,31.250,21.484,0
1581971657.342,20.996,32.227,30.762,28.809,0
1581971657.346,15.137,27.832,37.598,28.809,0
1581971657.350,15.625,26.367,42.480,21.973,0
1581971657.354,21.484,32.227,37.109,16.602,0
1581971657.358,24.414,35.156,36.133,25.879,0
1581971657.362,24.902,29.785,38.574,27.832,0
1581971657.366,37.109,24.902,33.691,24.414,0
1581971657.369,38.574,30.273,32.715,28.320,0
1581971657.373,33.203,28.809,34.180,18.555,0
1581971657.377,17.578,27.344,33.203,18.066,0
1581971657.381,14.648,37.109,32.227,24.902,0
1581971657.385,29.785,40.039,25.391,30.762,0
1581971657.387,33.203,36.133,25.391,36.621,0
1581971657.391,38.574,36.621,32.715,28.809,0
1581971657.395,35.156,41.504,28.809,23.926,0
1581971657.399,24.414,36.133,26.855,20.996,0
1581971657.403,24.902,25.879,25.879,22.461,0
1581971657.407,23.926,29.785,20.508,28.809,0
1581971657.411,20.020,35.156,21.484,19.043,0
1581971657.414,21.484,34.180,24.902,11.230,0
1581971657.418,35.645,38.574,20.996,20.508,0
1581971657.422,42.969,42.480,18.555,26.855,0
1581971657.426,29.297,35.645,25.879,22.949,0
1581971657.430,22.461,31.250,34.668,30.273,0
1581971657.432,29.297,27.344,36.133,37.109,0
1581971657.436,32.715,28.809,30.762,30.762,0
1581971657.440,29.785,36.133,27.832,24.414,0
1581971657.444,26.855,38.086,28.320,21.484,0
1581971657.448,35.645,39.551,36.133,25.391,0
1581971657.452,48.340,39.062,34.180,26.367,0
1581971657.456,33.691,34.180,23.926,16.602,0
1581971657.459,8.789,38.086,24.902,3.906,0
1581971657.463,16.602,42.480,28.809,-0.977,0
1581971657.467,21.484,38.574,25.879,4.395,0
1581971657.471,11.719,36.133,23.926,17.578,0
1581971657.475,10.742,33.203,21.484,18.555,0
1581971657.477,12.207,30.273,25.879,9.277,0
1581971657.481,25.391,27.344,24.902,21.484,0
1581971657.485,25.879,39.062,29.785,34.180,0
1581971657.489,31.250,49.805,39.551,30.273,0
1581971657.493,27.832,39.062,24.902,33.691,0
1581971657.497,24.902,38.086,13.184,18.066,0
1581971657.501,28.320,34.668,20.508,9.766,0
1581971657.504,16.602,28.809,26.855,14.160,0
1581971657.508,18.555,39.062,29.297,14.160,0
1581971657.512,29.785,41.992,27.344,12.207,0
1581971657.516,28.320,35.645,25.391,6.836,0
1581971657.520,16.602,33.203,25.391,15.137,0
1581971657.522,11.719,29.297,31.738,27.344,0
1581971657.526,23.438,31.250,36.621,25.391,0
1581971657.530,34.668,40.039,40.527,21.484,0
1581971657.534,26.855,39.062,40.527,20.996,0
1581971657.538,20.508,38.574,29.785,18.555,0
1581971657.542,21.484,47.363,31.738,15.625,0
1581971657.546,22.461,43.945,32.715,8.301,0
1581971657.549,20.508,30.762,27.832,7.324,0
1581971657.553,10.742,22.949,23.926,12.207,0
1581971657.557,14.160,29.785,24.414,15.625,0
1581971657.561,32.227,33.203,23.926,19.043,0
1581971657.565,19.531,28.320,27.832,12.695,0
1581971657.582,11.230,33.691,35.156,17.090,0
1581971657.586,15.137,34.668,33.691,24.414,0
1581971657.590,20.020,33.203,23.926,18.555,0
1581971657.594,22.461,31.250,20.508,16.113,0
1581971657.598,15.137,35.156,27.344,21.973,0
1581971657.602,9.277,35.645,31.738,16.113,0
1581971657.606,12.695,29.785,27.344,2.441,0
1581971657.609,22.461,31.738,23.926,9.766,0
1581971657.613,28.320,31.250,25.879,18.066,0
1581971657.617,26.855,26.855,31.250,18.555,0
1581971657.621,22.461,27.344,33.203,16.113,0
1581971657.625,24.902,31.738,30.273,10.254,0
1581971657.627,25.879,34.668,27.344,13.184,0
1581971657.631,20.508,31.738,27.832,19.043,0
1581971657.635,13.672,33.203,27.344,23.926,0
1581971657.639,16.113,34.668,24.902,15.625,0
1581971657.643,24.902,36.621,26.855,9.277,0
1581971657.647,19.043,34.668,25.391,20.020,0
1581971657.651,16.113,32.715,21.484,20.020,0
1581971657.654,26.855,35.645,21.484,25.391,0
1581971657.658,27.344,33.691,29.297,20.508,0
1581971657.662,15.137,29.297,31.738,15.625,0
1581971657.666,4.395,26.367,32.715,22.461,0
1581971657.670,15.137,28.320,39.062,15.137,0
1581971657.672,32.227,33.691,40.039,22.949,0
1581971657.676,26.855,38.574,34.668,26.367,0
1581971657.680,30.273,42.480,31.250,25.879,0
1581971657.684,38.086,39.551,26.855,20.020,0
1581971657.688,18.555,34.180,24.902,8.789,0
1581971657.692,10.254,28.809,31.250,10.254,0
1581971657.696,8.789,23.926,30.273,17.090,0
1581971657.699,5.371,19.531,26.855,21.484,0
1581971657.703,21.973,21.973,32.227,22.949,0
1581971657.707,25.391,23.926,30.762,20.020,0
1581971657.711,13.672,15.625,28.809,21.484,0
1581971657.715,13.184,23.438,25.879,24.902,0
1581971657.716,21.484,33.203,26.367,18.066,0
1581971657.720,23.438,32.227,21.973,22.949,0
1581971657.724,29.785,39.062,20.508,36.133,0
1581971657.728,29.297,40.039,33.203,32.715,0
1581971657.732,18.066,31.738,32.715,25.391,0
1581971657.736,12.695,27.344,22.949,19.043,0
1581971657.740,12.695,28.320,23.438,16.113,0
1581971657.743,13.672,32.715,24.414,19.531,0
1581971657.747,17.578,33.691,25.391,11.230,0
1581971657.751,18.066,37.109,35.645,17.578,0
1581971657.755,23.438,40.527,34.180,18.555,0
1581971657.759,16.602,38.086,26.367,5.371,0
1581971657.761,0.977,33.691,28.320,11.230,0
1581971657.765,8.789,31.738,30.762,12.207,0
1581971657.769,11.719,29.785,26.855,4.883,0
1581971657.773,7.324,28.320,26.367,6.836,0
1581971657.777,13.184,35.645,29.297,12.695,0
1581971657.781,19.531,38.574,29.785,15.625,0
1581971657.785,24.902,36.621,29.785,20.508,0
1581971657.788,31.738,40.039,32.715,24.414,0
1581971657.792,30.762,35.156,28.809,22.949,0
1581971657.796,28.809,31.250,25.879,25.391,0
1581971657.800,28.809,33.691,31.250,34.668,0
1581971657.804,17.090,26.367,29.297,31.250,0
1581971657.806,15.137,28.320,26.367,19.531,0
1581971657.810,24.902,38.574,28.320,23.926,0
1581971657.814,26.855,37.109,26.855,21.484,0
1581971657.818,28.320,38.574,25.391,20.020,0
1581971657.822,30.762,35.645,28.809,29.785,0
1581971657.826,36.133,32.715,28.809,30.762,0
1581971657.830,23.926,34.668,23.926,33.203,0
1581971657.833,11.719,31.738,22.461,24.902,0
1581971657.837,16.602,30.762,32.715,15.625,0
1581971657.841,15.625,27.832,39.551,20.508,0
1581971657.845,24.902,24.414,29.785,23.926,0
1581971657.849,31.250,22.949,25.391,21.484,0
1581971657.851,37.598,27.832,29.785,25.391,0
1581971657.855,28.320,38.574,29.785,35.156,0
1581971657.859,15.137,39.551,24.902,30.762,0
1581971657.863,24.902,40.039,24.414,21.484,0
1581971657.867,29.785,41.992,30.273,29.785,0
1581971657.871,23.438,34.668,30.762,29.297,0
1581971657.875,24.902,28.809,27.832,16.602,0
1581971657.878,30.762,31.738,28.320,10.742,0
1581971657.882,23.438,38.574,30.273,15.137,0
1581971657.886,23.438,37.598,31.738,21.484,0
1581971657.890,24.902,37.598,30.273,20.996,0
1581971657.894,28.809,39.062,26.855,16.113,0
1581971657.896,37.598,35.156,21.973,24.414,17040
1581971657.900,29.297,33.691,22.461,32.227,0
1581971657.904,20.996,34.180,30.273,33.691,0
1581971657.908,24.414,32.715,31.738,40.039,0
1581971657.912,36.621,34.668,32.715,36.133,0
1581971657.916,33.691,40.527,30.273,38.086,0
1581971657.920,26.855,46.875,30.762,55.664,0
1581971657.923,37.109,48.828,33.691,52.734,0
1581971657.927,31.250,34.668,28.809,21.973,0
1581971657.931,20.996,22.949,22.461,10.254,0
1581971657.935,24.414,26.855,18.555,17.578,0
1581971657.939,40.039,36.621,21.484,19.043,0
1581971657.956,31.738,39.551,20.020,16.113,0
1581971657.960,17.090,37.109,19.531,13.672,0
1581971657.964,13.184,36.133,26.855,20.020,0
1581971657.968,10.254,31.250,28.320,13.184,0
1581971657.972,13.184,30.273,22.949,18.555,0
1581971657.976,18.066,32.715,17.578,23.926,0
1581971657.980,14.648,31.738,26.367,21.484,0
1581971657.983,18.066,27.832,31.738,22.949,0
1581971657.987,25.879,26.855,25.391,34.180,0
1581971657.991,38.574,34.180,26.367,37.109,0
1581971657.995,34.668,37.598,31.250,28.809,0
1581971657.999,24.902,34.668,29.297,27.832,0
1581971658.001,31.250,38.086,26.367,24.414,0
1581971658.005,30.273,41.504,25.879,30.273,0
1581971658.009,27.832,34.180,24.902,33.203,0
1581971658.013,25.879,31.250,22.461,22.949,0
1581971658.017,26.367,34.668,25.391,16.602,0
1581971658.021,37.109,32.715,28.809,26.367,0
1581971658.025,38.574,29.785,20.020,24.902,0
1581971658.028,24.902,32.715,16.602,13.672,0
1581971658.032,9.277,31.250,21.484,13.672,0
1581971658.036,19.043,35.645,25.879,8.789,0
1581971658.040,32.715,40.527,27.832,13.184,0
1581971658.044,34.668,38.086,25.879,26.855,0
1581971658.046,31.738,34.180,23.926,31.738,0
1581971658.050,28.809,35.156,35.645,33.203,0
1581971658.054,37.598,33.203,42.480,46.875,0
1581971658.058,37.109,28.809,35.156,39.551,0
1581971658.062,32.227,31.250,29.297,37.598,0
1581971658.066,33.203,34.180,23.926,50.781,0
1581971658.070,35.645,33.691,27.344,34.668,0
1581971658.073,25.391,31.250,33.691,21.484,0
1581971658.077,13.184,29.297,34.180,19.043,0
1581971658.081,17.090,31.250,32.227,18.555,0
1581971658.085,25.391,33.691,25.391,17.090,0
1581971658.089,29.297,34.668,21.973,19.043,0
1581971658.091,20.020,36.621,22.949,29.785,0
1581971658.095,19.043,37.598,19.531,36.133,0
1581971658.099,28.809,38.574,25.879,29.785,0
1581971658.103,33.691,37.598,34.180,21.973,0
1581971658.107,36.133,34.180,24.902,26.367,0
1581971658.111,28.809,33.203,27.344,30.273,0
1581971658.115,22.461,33.691,33.203,31.250,0
1581971658.118,28.809,33.691,29.297,28.320,0
1581971658.122,25.879,33.691,24.414,27.832,0
1581971658.126,20.508,36.621,22.461,33.203,0
1581971658.130,36.133,41.992,30.762,33.691,0
1581971658.134,26.367,42.969,30.762,33.691,0
1581971658.137,14.648,40.039,25.879,32.227,0
1581971658.141,20.020,40.527,26.367,20.508,0
1581971658.145,22.461,40.527,24.902,18.066,0
1581971658.149,27.832,33.203,31.738,24.902,0
1581971658.153,34.668,30.273,34.180,26.367,0
1581971658.157,34.668,34.668,25.391,25.879,0
1581971658.161,25.391,36.133,32.227,27.344,0
1581971658.164,26.855,29.785,42.480,20.996,0
1581971658.168,36.133,27.832,41.016,18.555,0
1581971658.172,27.832,33.691,37.598,27.344,0
1581971658.176,22.461,39.551,31.738,25.879,0
1581971658.180,28.809,39.062,25.879,27.344,0
1581971658.182,25.391,31.250,25.391,24.902,0
1581971658.186,26.855,32.227,21.973,14.648,0
1581971658.190,22.949,35.156,19.043,22.461,0
1581971658.194,26.367,37.109,25.391,28.320,0
1581971658.198,33.203,43.457,26.367,20.996,0
1581971658.202,27.344,41.504,25.879,23.438,0
1581971658.206,18.066,33.691,30.762,23.926,0
1581971658.209,12.207,32.227,36.621,19.531,0
1581971658.213,11.719,32.227,32.227,20.996,0
1581971658.217,12.207,29.297,23.926,32.715,0
1581971658.221,13.672,28.320,25.879,32.715,0
1581971658.225,27.832,35.645,31.250,25.879,0
1581971658.227,41.016,44.922,26.855,25.391,0
1581971658.231,29.297,43.457,20.996,22.461,0
1581971658.235,16.602,35.645,25.879,31.738,0
1581971658.239,14.648,33.691,30.273,29.785,0
1581971658.243,27.344,36.133,32.715,26.367,0
1581971658.247,34.180,35.645,33.203,29.785,0
1581971658.251,31.738,36.133,36.133,31.250,0
1581971658.254,24.414,31.250,41.504,25.391,0
1581971658.258,15.137,29.785,23.926,18.066,0
1581971658.262,19.043,31.738,19.531,19.043,0
1581971658.266,16.602,29.785,38.574,22.461,0
1581971658.270,8.789,32.227,41.992,18.555,0
1581971658.272,6.348,32.227,38.086,13.184,0
1581971658.276,16.602,29.785,39.551,14.160,0
1581971658.280,21.973,32.227,42.480,17.578,0
1581971658.284,20.020,33.691,42.480,21.484,0
1581971658.288,22.949,33.203,39.062,30.273,0
1581971658.292,36.133,36.621,34.180,31.250,0
1581971658.296,29.297,36.133,38.086,28.809,0
1581971658.299,13.184,25.879,38.086,25.391,0
1581971658.303,9.766,19.531,36.133,23.438,0
1581971658.307,11.719,25.391,40.039,25.391,0
1581971658.311,16.113,38.086,43.945,19.043,0
1581971658.315,22.461,40.039,40.039,17.578,0
1581971658.332,17.090,37.109,33.203,17.578,0
1581971658.336,11.230,35.645,34.668,22.949,0
1581971658.340,25.879,30.762,29.785,29.297,0
1581971658.344,27.832,32.227,26.367,24.902,0
1581971658.348,19.531,37.109,31.250,23.438,0
1581971658.352,16.602,40.527,32.227,28.320,0
1581971658.356,20.508,40.039,25.879,24.414,0
1581971658.359,32.227,36.621,22.949,27.832,0
1581971658.363,22.461,34.668,29.785,28.320,0
1581971658.367,12.695,36.133,32.715,15.137,0
1581971658.371,14.160,37.598,25.391,11.230,0
1581971658.375,19.531,38.574,29.785,23.438,0
1581971658.377,25.879,35.645,39.062,24.902,0
1581971658.381,23.926,35.645,36.621,24.902,0
1581971658.385,20.508,35.156,33.203,26.855,0
1581971658.389,20.508,36.621,26.855,26.855,0
1581971658.393,23.438,39.062,25.391,30.273,0
1581971658.397,20.020,30.273,34.668,29.297,0
1581971658.401,17.090,31.250,35.156,31.738,0
1581971658.404,23.926,41.504,29.785,28.809,0
1581971658.408,28.809,38.086,32.715,22.949,0
1581971658.412,19.531,30.273,39.062,19.531,0
1581971658.416,14.648,27.832,38.086,24.902,0
1581971658.420,17.090,31.738,33.203,25.391,0
1581971658.422,13.672,33.691,35.156,15.625,0
1581971658.426,14.648,35.645,36.621,22.949,0
1581971658.430,19.043,40.527,33.691,24.902,0
1581971658.434,18.555,38.086,37.109,22.461,0
1581971658.438,25.391,32.227,38.086,20.508,0
1581971658.442,34.180,31.250,31.738,27.832,0
1581971658.446,22.461,34.668,29.785,25.391,0
1581971658.449,16.602,32.227,25.879,16.602,0
1581971658.453,21.484,26.367,24.902,19.531,0
1581971658.457,28.320,29.297,33.691,28.320,0
1581971658.461,30.273,36.133,30.762,37.109,0
1581971658.465,21.484,41.992,31.738,29.785,0
1581971658.467,20.996,39.062,39.551,20.508,0
1581971658.471,8.789,33.203,37.109,12.207,0
1581971658.475,-0.977,31.738,28.809,15.137,0
1581971658.479,12.207,29.297,25.879,28.809,0
1581971658.483,20.996,29.785,24.902,18.555,0
1581971658.487,11.230,25.879,22.461,1.953,0
1581971658.491,11.719,26.855,20.020,2.441,0
1581971658.494,20.020,31.738,9.766,18.555,0
1581971658.498,26.367,33.691,14.160,22.461,0
1581971658.502,32.227,34.668,23.438,10.742,0
1581971658.506,30.762,33.203,29.297,18.555,0
1581971658.510,25.391,28.809,25.391,26.367,0
1581971658.512,16.602,25.391,16.113,18.066,0
1581971658.516,17.090,23.926,26.367,16.602,0
1581971658.520,22.949,29.785,34.668,17.090,0
1581971658.524,22.461,32.715,30.273,20.020,0
1581971658.528,21.973,22.949,25.879,22.949,0
1581971658.532,27.832,23.926,25.879,15.625,0
1581971658.536,26.367,29.297,22.461,19.043,0
1581971658.539,32.227,34.180,17.578,27.832,0
1581971658.543,26.855,32.227,26.367,22.461,0
1581971658.547,12.695,24.902,32.715,9.766,0
1581971658.551,22.461,32.715,28.320,14.160,0
1581971658.555,28.809,39.062,23.926,24.414,0
1581971658.557,34.668,37.598,19.531,18.555,0
1581971658.561,35.156,33.691,24.902,12.207,0
1581971658.565,29.785,29.297,29.297,9.766,0
1581971658.569,31.250,28.809,27.344,11.230,0
1581971658.573,21.484,34.668,27.344,13.184,0
1581971658.577,17.578,36.133,23.926,13.184,0
1581971658.581,23.926,35.645,25.879,14.160,0
1581971658.584,25.391,41.504,33.691,11.230,0
1581971658.588,20.996,37.598,29.297,14.648,0
1581971658.592,22.461,29.785,20.508,23.438,0
1581971658.596,30.273,29.297,19.531,22.949,0
1581971658.600,34.668,32.715,22.949,19.043,0
1581971658.602,37.109,35.645,23.926,20.508,0
1581971658.606,31.738,36.621,22.949,23.438,0
1581971658.610,32.715,35.645,29.297,25.391,0
1581971658.614,35.645,34.668,33.691,22.461,0
1581971658.618,24.414,32.715,38.086,26.855,0
1581971658.622,20.508,31.250,36.133,23.926,0
1581971658.626,22.461,35.156,25.391,13.672,0
1581971658.629,19.531,35.156,28.320,18.066,0
1581971658.633,19.043,26.367,30.762,25.879,0
1581971658.637,25.391,27.832,33.203,28.320,0
1581971658.641,29.297,35.156,40.039,21.973,0
1581971658.645,26.367,36.133,35.645,12.695,0
1581971658.647,28.320,47.363,31.738,10.742,0
1581971658.651,33.691,49.805,38.574,18.555,0
1581971658.655,25.391,36.621,34.668,22.461,0
1581971658.659,30.762,25.879,16.602,25.391,0
1581971658.663,29.785,30.273,16.113,28.809,0
1581971658.667,19.531,34.668,30.762,21.973,0
1581971658.671,27.344,29.297,33.203,17.578,0
1581971658.674,29.785,35.645,33.691,16.113,0
1581971658.678,22.461,44.434,28.320,7.812,0
1581971658.682,13.672,41.992,16.113,0.977,0
1581971658.686,11.719,38.574,18.555,12.695,0
1581971658.690,18.066,32.715,31.738,22.949,0
1581971658.707,28.320,24.414,31.738,8.789,0
1581971658.711,26.367,24.902,27.832,19.043,0
1581971658.715,20.508,33.203,27.344,31.250,0
1581971658.719,23.926,39.551,31.738,20.508,0
1581971658.723,34.180,35.156,34.668,17.090,0
1581971658.727,25.391,25.391,35.156,24.902,0
1581971658.731,19.043,34.668,36.621,36.133,0
1581971658.734,23.438,39.551,31.738,38.574,0
1581971658.738,19.043,25.391,29.297,34.668,0
1581971658.742,17.090,23.438,34.668,28.809,0
1581971658.746,20.020,28.320,38.574,31.250,0
1581971658.750,13.184,27.832,34.180,31.250,0
1581971658.767,11.719,30.273,35.156,29.785,0
1581971658.771,26.855,36.133,38.086,34.668,0
1581971658.775,32.227,42.480,30.273,32.227,0
1581971658.779,20.020,40.039,27.832,29.785,0
1581971658.783,9.766,35.156,34.180,19.043,0
1581971658.787,17.090,39.551,35.645,11.230,0
1581971658.791,14.160,36.621,34.668,12.695,0
1581971658.794,10.742,32.715,27.344,8.789,0
1581971658.798,13.672,29.785,29.785,4.883,0
1581971658.802,15.137,29.297,36.621,8.301,0
1581971658.806,22.949,23.438,37.109,12.695,0
1581971658.810,23.438,25.879,40.527,14.160,0
1581971658.797,18.555,42.969,25.391,14.648,0
1581971658.801,15.137,47.852,28.809,20.508,0
1581971658.805,19.531,44.434,42.969,23.438,0
1581971658.809,29.297,33.203,41.504,27.832,0
1581971658.813,22.461,28.809,41.504,23.438,0
1581971658.817,18.066,35.156,40.527,26.367,0
1581971658.821,32.715,36.621,41.992,29.297,0
1581971658.824,36.133,38.086,41.504,20.996,0
1581971658.828,33.691,39.062,41.016,22.949,0
1581971658.832,37.598,39.062,48.340,31.738,0
1581971658.836,34.180,36.133,51.270,34.668,0
1581971658.840,34.180,38.574,51.758,27.832,0
1581971658.842,29.785,44.922,47.852,24.414,0
1581971658.846,22.461,40.039,41.504,24.902,0
1581971658.850,19.043,37.109,51.270,29.785,0
1581971658.854,20.508,35.645,54.688,30.762,0
1581971658.858,20.020,30.273,43.945,25.391,0
1581971658.862,20.020,34.668,43.457,25.391,0
1581971658.866,12.207,36.621,45.410,24.414,0
1581971658.869,16.602,40.039,44.434,25.879,0
1581971658.873,22.949,31.738,46.875,24.902,0
1581971658.877,25.391,25.879,44.434,28.809,0
1581971658.881,28.320,38.086,41.016,22.949,0
1581971658.885,20.020,42.969,38.086,15.137,0
1581971658.886,21.484,42.969,39.062,28.320,0
1581971658.890,24.414,41.504,37.109,29.785,0
1581971658.894,26.367,42.969,34.180,24.902,0
1581971658.898,32.227,41.504,40.527,29.297,0
1581971658.902,29.297,37.109,45.410,35.156,0
1581971658.906,37.109,40.039,43.457,34.180,0
1581971658.910,33.691,32.227,41.504,26.855,0
1581971658.913,25.879,28.809,45.898,27.344,0
1581971658.917,32.227,37.109,50.781,28.320,0
1581971658.921,25.879,36.621,44.922,23.926,0
1581971658.925,21.484,29.785,45.410,26.367,0
1581971658.929,27.344,28.809,43.945,34.180,0
1581971658.931,23.438,36.621,39.062,29.297,0
1581971658.935,18.555,39.551,46.387,23.438,0
1581971658.939,19.043,32.715,41.504,19.531,0
1581971658.943,17.090,29.785,37.109,24.414,0
1581971658.947,31.250,31.250,39.551,27.832,0
1581971658.951,34.180,27.344,44.434,33.691,0
1581971658.955,18.066,27.344,45.898,30.273,0
1581971658.958,21.484,37.598,50.293,26.855,0
1581971658.962,26.855,40.039,51.758,31.738,0
1581971658.966,23.438,31.738,40.039,20.996,0
1581971658.970,27.832,33.203,41.992,19.043,0
1581971658.974,36.133,46.387,47.852,23.438,0
1581971658.976,23.926,43.945,47.363,18.555,0
1581971658.980,18.066,32.227,44.434,17.090,0
1581971658.984,17.578,35.645,37.598,18.066,0
1581971658.988,11.230,38.086,37.598,19.043,0
1581971658.992,18.066,28.809,38.086,21.973,0
1581971658.996,23.926,27.344,33.691,31.250,0
1581971659.000,21.973,34.668,31.738,26.367,0
1581971659.003,17.090,38.086,33.203,17.578,0
1581971659.007,13.672,42.480,38.574,25.879,0
1581971659.011,16.602,42.480,41.504,35.645,0
1581971659.015,24.902,38.086,37.109,41.504,0
1581971659.019,26.367,27.832,35.156,42.969,0
1581971659.021,20.508,26.367,40.527,29.297,0
1581971659.025,17.090,28.809,38.574,11.230,0
1581971659.029,19.531,25.879,39.062,10.254,0
1581971659.033,16.113,27.344,37.109,13.184,0
1581971659.037,13.672,30.273,28.320,13.672,0
1581971659.041,19.043,36.133,23.926,17.090,0
1581971659.045,25.879,42.969,22.461,16.602,0
1581971659.048,31.738,42.480,31.250,14.160,0
1581971659.052,20.020,37.598,37.598,23.926,0
1581971659.056,10.742,34.668,32.715,25.391,0
1581971659.060,18.066,36.621,39.551,20.996,0
1581971659.064,20.996,34.180,43.457,24.414,0
1581971659.081,15.137,32.227,38.574,24.414,0
1581971659.085,16.602,29.785,39.551,27.832,0
1581971659.089,28.809,33.203,37.598,27.344,28475
1581971659.093,33.691,37.109,31.738,32.715,0
1581971659.097,19.531,31.738,27.344,29.785,0
1581971659.101,17.090,31.738,32.715,19.531,0
1581971659.105,21.973,37.109,35.156,26.367,0
1581971659.108,20.020,35.156,31.738,25.391,0
1581971659.112,21.484,32.227,29.785,17.090,0
1581971659.116,28.809,33.691,29.297,18.555,0
1581971659.120,32.227,37.598,34.668,20.996,0
1581971659.124,37.598,43.457,41.992,26.367,0
1581971659.126,41.992,37.109,40.039,26.855,0
1581971659.130,25.391,28.809,25.391,22.461,0
1581971659.134,20.508,35.645,22.461,22.461,0
1581971659.138,28.809,38.086,28.320,19.043,0
1581971659.142,15.137,22.461,28.320,11.719,0
1581971659.146,9.277,23.438,32.227,16.602,0
1581971659.150,16.113,37.598,36.621,32.715,0
1581971659.153,22.949,34.668,34.180,32.715,0
1581971659.157,25.391,27.832,27.832,16.602,0
1581971659.161,20.508,30.273,23.438,15.625,0
1581971659.165,18.066,35.156,29.297,20.996,0
1581971659.169,22.949,35.156,31.738,27.344,0
1581971659.171,32.715,38.574,28.809,29.297,0
1581971659.175,22.461,38.086,29.297,30.762,0
1581971659.179,11.230,30.273,27.344,32.715,0
1581971659.183,19.531,30.273,27.344,28.809,0
1581971659.187,23.926,32.227,27.832,29.785,0
1581971659.191,22.461,36.621,31.738,35.156,0
1581971659.195,14.160,38.574,34.668,30.762,0
1581971659.198,17.090,34.668,25.391,17.578,0
1581971659.202,25.391,34.668,29.297,20.020,0
1581971659.206,25.391,36.133,35.156,20.508,0
1581971659.210,21.484,32.715,29.785,24.414,0
1581971659.214,15.625,33.203,32.227,37.598,0
1581971659.216,20.996,36.133,32.715,31.738,0
1581971659.220,21.484,24.902,33.203,28.320,0
1581971659.224,22.949,26.367,30.273,30.762,0
1581971659.228,22.949,33.203,28.320,23.926,0
1581971659.232,21.484,34.180,34.668,28.320,0
1581971659.236,23.438,35.156,31.738,37.109,0
1581971659.240,22.949,30.762,30.273,41.992,0
1581971659.243,23.438,27.832,28.809,37.598,0
1581971659.247,23.438,33.691,21.973,24.414,0
1581971659.251,22.461,39.551,26.855,31.250,0
1581971659.255,33.203,36.621,31.738,36.621,0
1581971659.259,37.598,35.156,31.250,28.320,0
1581971659.261,26.855,40.039,27.344,26.855,0
1581971659.265,20.996,31.250,28.320,23.438,0
1581971659.269,20.020,23.926,34.668,25.879,0
1581971659.273,24.414,33.203,35.156,35.156,0
1581971659.277,21.973,36.133,30.762,32.227,0
1581971659.281,17.578,33.203,22.949,31.738,0
1581971659.285,23.438,30.273,20.508,31.738,0
1581971659.288,28.320,34.668,30.762,34.668,0
1581971659.292,29.297,42.480,29.297,34.180,0
1581971659.296,32.715,35.645,21.484,25.879,0
1581971659.300,35.645,30.762,26.855,18.555,0
1581971659.304,26.855,32.227,34.668,20.020,0
1581971659.307,15.137,27.344,39.062,20.020,0
1581971659.311,11.230,26.855,39.062,17.090,0
1581971659.315,21.973,29.785,44.922,23.438,0
1581971659.319,36.133,27.344,37.598,30.762,0
1581971659.323,36.621,25.391,19.043,27.344,0
1581971659.327,27.344,31.738,25.391,42.480,0
1581971659.331,21.484,30.762,24.414,37.109,0
1581971659.334,17.578,28.320,13.184,5.859,0
1581971659.338,8.301,33.691,21.484,3.906,0
1581971659.342,7.324,34.668,29.785,10.742,0
1581971659.346,11.230,31.250,32.227,11.230,0
1581971659.350,17.090,30.273,37.109,7.812,0
1581971659.352,20.996,30.762,34.668,13.672,0
1581971659.356,19.531,34.668,28.809,19.043,0
1581971659.360,20.508,40.039,32.227,15.137,0
1581971659.364,26.855,39.062,28.809,13.184,0
1581971659.368,31.738,35.156,22.949,23.438,0
1581971659.372,20.020,28.809,22.461,20.996,0
1581971659.376,19.531,28.320,18.066,16.113,0
1581971659.379,37.598,32.715,20.996,14.648,0
1581971659.383,20.508,30.273,22.949,19.043,0
1581971659.387,16.113,34.668,22.461,33.203,0
1581971659.391,29.297,38.574,26.367,35.156,0
1581971659.395,20.996,30.762,24.414,23.438,0
1581971659.397,19.043,32.715,19.531,13.672,0
1581971659.401,24.414,36.621,15.625,17.578,0
1581971659.405,18.066,35.156,20.508,20.020,0
1581971659.409,20.996,32.715,24.414,12.695,0
1581971659.413,30.273,30.273,17.578,10.742,0
1581971659.417,24.414,29.297,17.090,13.672,0
1581971659.421,23.438,31.738,24.902,18.066,0
1581971659.424,25.391,35.156,24.414,23.926,0
1581971659.428,30.273,26.367,23.926,26.367,0
1581971659.432,28.809,25.879,22.949,28.809,0
1581971659.436,16.602,35.156,22.461,28.320,0
1581971659.440,15.625,37.109,26.855,30.273,0
1581971659.457,24.902,35.645,25.391,30.273,0
1581971659.461,26.367,38.574,28.809,21.484,0
1581971659.465,13.672,39.551,32.227,16.602,0
1581971659.469,20.020,30.273,26.855,16.113,0
1581971659.473,32.715,24.414,21.484,24.902,0
1581971659.477,24.902,27.832,21.484,21.484,0
1581971659.481,8.789,32.227,23.926,7.324,0
1581971659.484,11.230,31.250,25.391,15.137,0
1581971659.488,23.438,28.320,25.879,24.414,0
1581971659.492,30.762,32.715,27.344,20.020,0
1581971659.496,19.043,36.133,31.250,22.949,0
1581971659.500,14.648,38.086,35.156,28.809,0
1581971659.502,21.973,37.109,33.203,31.250,0
1581971659.506,20.020,29.785,30.762,29.785,0
1581971659.510,14.160,27.832,33.203,25.391,0
1581971659.514,14.648,34.180,25.879,26.855,0
1581971659.518,20.996,37.109,25.879,30.273,0
1581971659.522,19.531,40.527,30.273,27.344,0
1581971659.526,20.508,39.062,25.879,29.785,0
1581971659.529,27.344,32.227,24.902,32.715,0
1581971659.533,27.344,36.133,30.762,26.855,0
1581971659.537,28.320,38.086,32.227,31.738,0
1581971659.541,47.852,33.691,22.949,31.738,0
1581971659.545,42.969,30.273,22.949,27.344,0
1581971659.547,11.230,30.273,20.996,20.996,0
1581971659.551,12.695,26.855,14.648,20.020,0
1581971659.555,25.391,34.668,20.996,30.762,0
1581971659.559,21.973,41.016,33.203,29.297,0
1581971659.563,20.020,32.715,37.598,26.367,0
1581971659.567,23.926,36.621,40.039,27.832,0
1581971659.571,32.715,37.109,36.621,21.484,0
1581971659.574,35.156,37.109,36.133,23.926,0
1581971659.578,20.996,38.574,26.367,26.855,0
1581971659.582,20.996,34.180,15.625,15.137,0
1581971659.586,28.320,23.926,26.855,14.160,0
1581971659.590,37.598,24.902,35.156,20.020,0
1581971659.607,36.621,35.645,32.227,28.809,0
1581971659.611,25.391,33.691,28.320,24.902,0
1581971659.615,22.949,31.738,32.715,17.090,0
1581971659.619,30.273,36.621,38.086,17.090,0
1581971659.623,34.180,37.109,34.668,21.973,0
1581971659.627,30.762,35.156,30.273,25.879,0
1581971659.631,29.785,35.645,26.367,22.461,0
1581971659.634,30.273,35.156,23.438,17.090,0
1581971659.638,27.832,36.133,26.855,16.602,0
1581971659.642,21.484,37.598,29.785,21.973,0
1581971659.646,17.090,31.738,25.879,18.066,0
1581971659.650,39.062,30.762,31.738,15.137,0
1581971659.637,40.527,30.762,36.133,19.531,0
1581971659.641,20.020,24.414,24.902,29.785,0
1581971659.645,22.949,21.484,24.902,26.367,0
1581971659.649,29.785,25.879,32.227,26.855,0
1581971659.653,38.574,29.297,33.691,32.227,0
1581971659.657,26.855,24.414,28.809,27.832,0
1581971659.661,7.812,27.344,25.391,23.438,0
1581971659.664,13.672,29.785,34.668,15.625,0
1581971659.668,13.184,26.367,36.621,10.742,0
1581971659.672,8.301,31.738,32.227,14.160,0
1581971659.676,13.672,29.297,28.809,13.672,0
1581971659.680,12.695,10.742,26.855,7.324,0
1581971659.682,20.508,15.625,30.762,9.766,0
1581971659.686,29.297,39.551,25.391,20.996,0
1581971659.690,21.973,41.504,18.555,27.344,0
1581971659.694,13.672,36.621,21.973,14.648,0
1581971659.698,21.484,37.109,25.879,13.184,0
1581971659.702,30.762,35.645,28.320,23.438,0
1581971659.706,22.461,35.645,30.762,22.461,0
1581971659.709,21.484,31.738,32.227,22.461,0
1581971659.713,30.273,27.832,31.738,31.250,0
1581971659.717,27.344,30.273,27.832,40.039,0
1581971659.721,15.137,25.879,27.832,27.344,0
1581971659.725,10.254,22.949,30.273,21.484,0
1581971659.727,24.414,33.203,33.203,24.414,0
1581971659.731,38.086,34.668,31.738,27.344,0
1581971659.735,34.668,28.809,24.902,30.762,0
1581971659.739,27.832,34.668,19.531,19.531,0
1581971659.743,22.461,42.480,26.367,13.184,0
1581971659.747,24.414,39.551,41.016,17.090,0
1581971659.751,33.203,39.062,41.504,26.367,0
1581971659.754,29.297,40.039,33.691,31.738,0
1581971659.758,27.344,26.855,32.227,26.367,0
1581971659.762,28.809,23.926,32.227,27.832,0
1581971659.766,21.973,37.109,26.855,22.461,0
1581971659.770,20.020,40.039,27.832,18.555,0
1581971659.772,16.113,28.809,29.297,19.043,0
1581971659.776,12.207,24.414,26.855,28.320,0
1581971659.780,22.461,32.227,29.785,43.945,0
1581971659.784,29.785,32.715,38.086,30.273,0
1581971659.788,25.879,34.668,37.598,19.531,0
1581971659.792,25.879,37.109,28.809,17.090,0
1581971659.796,28.320,31.250,30.762,14.648,0
1581971659.799,22.949,34.180,33.203,14.648,0
1581971659.803,21.484,37.598,34.180,13.184,0
1581971659.807,21.973,38.574,33.203,11.719,0
1581971659.811,25.391,35.645,32.227,19.531,0
1581971659.815,32.715,34.180,29.785,19.531,0
1581971659.832,27.832,41.016,20.996,17.090,0
1581971659.836,23.438,46.387,18.555,20.996,0
1581971659.840,39.551,36.133,19.531,24.414,0
1581971659.844,40.039,29.785,22.461,32.227,0
1581971659.848,18.555,36.621,31.250,27.344,0
1581971659.852,16.113,36.621,34.668,17.090,0
1581971659.856,19.043,34.668,31.738,16.113,0
1581971659.859,14.648,37.598,26.855,15.137,0
1581971659.863,10.254,40.527,28.809,5.859,0
1581971659.867,10.254,44.434,32.227,9.277,0
1581971659.871,8.789,42.480,30.273,10.254,0
1581971659.875,12.207,35.645,32.715,4.883,0
1581971659.877,10.742,30.762,31.738,12.207,0
1581971659.881,6.836,31.250,31.738,20.020,0
1581971659.885,19.531,33.691,40.527,21.973,0
1581971659.889,27.344,32.227,40.527,24.414,0
1581971659.893,15.137,32.715,34.668,27.832,0
1581971659.897,10.254,35.156,33.691,22.461,0
1581971659.901,4.883,38.574,32.227,12.207,0
1581971659.904,1.953,37.109,27.832,8.301,0
1581971659.908,10.254,34.180,27.832,8.789,0
1581971659.912,8.301,38.574,29.297,8.301,0
1581971659.916,9.766,37.109,31.250,6.348,0
1581971659.920,22.949,32.227,28.320,6.348,0
1581971659.922,25.879,33.203,25.879,21.484,0
1581971659.926,18.066,32.715,20.508,19.531,0
1581971659.930,15.137,32.227,20.020,4.395,0
1581971659.934,21.484,32.227,29.297,16.602,0
1581971659.938,23.926,28.320,31.738,20.508,0
1581971659.942,16.602,20.020,32.715,18.555,0
1581971659.946,13.184,26.367,28.809,20.508,0
1581971659.949,19.531,36.133,25.879,24.414,0
1581971659.953,41.992,37.109,32.227,27.832,0
1581971659.957,48.828,39.062,28.809,26.367,0
1581971659.961,26.855,39.062,24.902,23.926,0
1581971659.965,19.043,37.109,24.902,25.391,0
1581971659.967,26.855,40.039,25.879,25.879,0
1581971659.971,29.297,39.062,25.879,16.602,0
1581971659.975,20.996,28.809,23.926,19.043,0
1581971659.979,18.555,33.203,19.043,27.344,0
1581971659.983,26.367,41.016,15.625,29.785,0
1581971659.987,26.367,36.133,17.090,24.902,0
1581971659.991,11.230,29.785,20.996,12.207,0
1581971659.994,8.301,27.832,23.438,11.719,0
1581971659.998,16.602,33.691,26.367,19.531,0
1581971660.002,21.484,37.598,31.250,19.531,0
1581971660.006,19.043,36.133,27.832,11.719,0
1581971660.010,19.043,38.086,23.926,7.812,0
1581971660.012,17.090,39.062,29.297,10.742,0
1581971660.016,21.973,35.645,32.715,17.090,0
1581971660.020,28.809,32.227,31.738,19.531,0
1581971660.024,19.531,34.180,31.250,22.949,0
1581971660.028,9.766,34.180,24.414,26.855,0
1581971660.032,11.719,30.762,17.090,23.926,0
1581971660.036,16.113,25.391,20.508,25.879,0
1581971660.039,15.625,29.297,35.156,21.973,0
1581971660.043,17.578,34.668,40.039,14.160,0
1581971660.047,20.508,31.738,31.738,13.184,0
1581971660.051,22.461,35.156,26.367,21.973,0
1581971660.055,29.297,36.133,30.273,30.273,0
1581971660.057,34.180,30.273,35.156,34.180,0
1581971660.061,30.762,30.762,32.227,42.480,0
1581971660.065,38.574,27.832,25.391,44.922,0
1581971660.069,33.203,31.738,23.926,35.156,0
1581971660.073,16.113,38.086,29.297,20.996,0
1581971660.077,13.184,36.621,34.180,15.137,0
1581971660.081,19.531,34.668,33.203,17.578,0
1581971660.084,21.484,35.645,30.273,15.137,0
1581971660.088,26.367,34.180,32.715,26.855,0
1581971660.092,20.020,34.668,26.367,36.621,0
1581971660.096,17.090,34.668,28.320,30.762,0
1581971660.100,33.691,34.668,36.621,31.738,0
1581971660.101,34.668,35.156,34.180,22.949,0
1581971660.105,22.461,34.180,36.133,23.438,0
1581971660.109,20.996,35.156,31.738,24.902,0
1581971660.113,30.273,41.504,27.344,31.738,0
1581971660.117,35.156,44.434,34.668,36.621,0
1581971660.121,27.832,34.180,38.086,24.902,0
1581971660.125,21.973,26.367,35.156,26.855,0
1581971660.128,24.414,33.691,27.832,30.273,0
1581971660.132,25.879,38.086,27.832,32.227,0
1581971660.136,27.344,36.133,33.691,40.039,0
1581971660.140,26.367,31.738,38.086,41.504,0
1581971660.144,25.879,29.297,36.621,35.156,0
1581971660.146,31.738,35.156,32.227,29.785,0
1581971660.150,33.203,37.109,28.320,31.250,0
1581971660.154,25.391,35.156,31.250,31.738,0
1581971660.158,19.043,34.180,34.668,22.461,0
1581971660.162,26.855,31.738,32.227,27.344,0
1581971660.166,28.320,33.203,31.250,31.250,0
1581971660.170,24.902,35.156,30.273,27.344,0
1581971660.173,28.320,33.691,29.297,31.250,0
1581971660.177,32.227,35.156,24.902,27.344,0
1581971660.181,29.297,34.668,18.555,23.926,0
1581971660.185,21.973,26.855,27.832,23.926,0
1581971660.189,26.367,22.949,37.109,27.832,0
1581971660.206,28.809,32.715,36.133,35.156,0
1581971660.210,32.227,31.738,28.320,28.320,0
1581971660.214,42.969,26.855,21.484,23.438,0
1581971660.218,31.738,30.762,26.367,28.320,0
1581971660.222,13.672,33.691,28.320,20.996,0
1581971660.226,16.602,28.809,26.855,17.578,0
1581971660.230,19.043,26.855,29.785,20.996,0
1581971660.233,16.602,35.156,29.297,22.949,0
1581971660.237,20.508,39.551,30.273,18.555,0
1581971660.241,33.691,35.645,30.273,17.090,0
1581971660.245,28.809,33.203,17.578,22.461,0
1581971660.249,18.066,36.133,18.555,25.391,0
1581971660.251,25.879,34.668,34.668,24.902,0
1581971660.255,36.133,32.227,36.621,28.320,0
1581971660.259,38.574,38.574,27.832,35.645,0
1581971660.263,37.598,41.992,22.949,31.250,0
1581971660.267,38.086,37.109,26.855,26.367,0
1581971660.271,32.227,32.715,29.785,28.809,0
1581971660.275,24.414,31.738,27.344,20.020,0
1581971660.278,15.137,32.715,26.855,21.973,0
1581971660.282,16.602,35.645,29.785,26.855,17100
1581971660.286,20.020,34.668,31.738,21.973,0
1581971660.290,15.625,32.227,28.809,18.066,0
1581971660.294,14.648,32.227,21.973,11.719,0
1581971660.296,15.137,33.203,20.996,14.160,0
1581971660.300,16.113,34.668,24.414,23.926,0
1581971660.304,24.902,35.156,21.484,29.297,0
1581971660.308,24.414,32.715,16.113,16.113,0
1581971660.312,21.973,25.391,23.926,14.648,0
1581971660.316,24.414,25.391,25.879,22.461,0
1581971660.320,31.250,40.039,23.438,19.531,0
1581971660.323,21.484,34.668,29.785,18.555,0
1581971660.327,12.695,27.344,28.809,6.348,0
1581971660.331,15.137,34.180,31.738,5.859,0
1581971660.335,15.625,34.180,34.668,18.555,0
1581971660.339,24.902,32.715,27.344,22.461,0
1581971660.341,27.344,35.645,24.414,23.438,0
1581971660.345,21.484,39.062,24.414,18.066,0
1581971660.349,23.926,38.086,22.949,20.996,0
1581971660.353,20.996,31.738,25.391,22.949,0
1581971660.357,19.531,30.762,27.832,21.484,0
1581971660.361,24.902,33.203,29.297,21.973,0
1581971660.365,24.902,36.621,31.250,23.926,0
1581971660.368,25.391,41.504,32.715,20.020,0
1581971660.372,26.367,41.016,36.133,15.137,0
1581971660.376,18.555,36.133,38.086,17.578,0
1581971660.380,19.531,33.691,31.250,20.996,0
1581971660.384,25.879,36.621,30.273,20.508,0
1581971660.386,30.273,32.715,33.691,21.484,0
1581971660.390,23.438,31.250,25.391,22.949,0
1581971660.394,25.391,37.598,20.996,30.762,0
1581971660.398,30.273,39.062,36.133,33.691,0
1581971660.402,25.879,35.645,41.016,25.879,0
1581971660.406,27.344,34.668,29.297,27.832,0
1581971660.410,28.809,38.086,26.855,36.133,0
1581971660.413,30.762,39.062,28.809,32.715,0
1581971660.417,32.715,38.086,28.320,21.973,0
1581971660.421,26.367,33.691,30.273,19.531,0
1581971660.425,13.672,22.949,30.762,24.414,0
1581971660.429,12.207,26.855,34.180,30.273,0
1581971660.431,20.020,36.621,30.273,33.203,0
1581971660.435,18.555,38.574,29.785,33.691,0
1581971660.439,19.531,41.504,37.598,28.809,0
1581971660.443,21.973,36.133,31.250,20.996,0
1581971660.447,19.043,31.738,22.949,23.438,0
1581971660.451,24.414,31.738,27.832,20.020,0
1581971660.455,23.926,26.855,34.180,22.461,0
1581971660.458,17.578,30.762,32.227,20.996,0
1581971660.462,19.043,41.016,33.691,16.113,0
1581971660.466,26.855,37.598,30.273,23.438,0
1581971660.470,22.461,34.668,28.320,26.367,0
1581971660.474,19.531,36.133,34.180,32.715,0
1581971660.476,30.273,34.668,34.668,30.762,0
1581971660.480,37.109,31.250,34.180,30.273,0
1581971660.484,30.762,27.832,38.574,31.250,0
1581971660.488,18.555,31.250,36.133,34.668,0
1581971660.492,23.438,39.062,31.250,41.504,0
1581971660.496,34.668,30.762,32.227,38.086,0
1581971660.500,32.227,23.438,32.715,22.949,0
1581971660.503,31.738,32.227,31.250,19.043,0
1581971660.507,27.344,36.133,24.902,18.066,0
1581971660.511,15.625,38.086,24.414,13.672,0
1581971660.515,21.973,33.203,34.180,27.832,0
1581971660.519,25.879,26.855,35.156,28.809,0
1581971660.522,22.461,25.391,32.227,33.691,0
1581971660.526,30.762,29.297,29.785,33.691,0
1581971660.530,41.016,39.551,20.020,20.508,0
1581971660.534,37.109,39.062,26.855,34.180,0
1581971660.538,33.203,34.668,34.668,34.668,0
1581971660.542,32.715,35.645,33.691,27.832,0
1581971660.546,34.180,31.738,35.156,25.391,0
1581971660.549,40.039,29.297,34.668,32.715,0
1581971660.553,32.227,30.273,32.227,41.016,0
1581971660.557,29.785,34.668,30.273,36.621,0
1581971660.561,41.992,39.551,31.250,43.457,0
1581971660.565,40.527,39.551,27.832,46.387,0
1581971660.582,28.809,42.969,26.367,34.668,0
1581971660.586,9.766,37.109,32.715,24.902,0
1581971660.590,9.277,29.785,34.668,20.508,0
1581971660.594,20.996,33.691,42.480,27.344,0
1581971660.598,14.160,36.621,40.039,26.855,0
1581971660.602,17.578,35.156,33.203,23.926,0
1581971660.606,32.227,35.156,34.180,34.668,0
1581971660.609,33.691,30.762,24.414,32.715,0
1581971660.613,25.391,26.855,26.855,17.090,0
1581971660.617,22.461,28.809,28.809,18.555,0
1581971660.621,19.531,29.785,24.902,17.090,0
1581971660.625,21.973,30.273,33.203,20.020,0
1581971660.627,18.555,31.250,40.039,30.273,0
1581971660.631,15.625,33.691,39.062,30.762,0
1581971660.635,24.902,29.297,37.109,32.715,0
1581971660.639,18.555,27.344,34.668,28.809,0
1581971660.643,11.719,31.738,27.832,30.273,0
1581971660.647,13.184,32.227,25.879,32.715,0
1581971660.651,11.719,30.762,29.297,26.855,0
1581971660.654,20.508,30.762,25.879,31.738,0
1581971660.658,27.344,33.691,24.902,31.738,0
1581971660.662,19.531,34.668,24.902,30.762,0
1581971660.666,25.391,34.180,26.367,33.691,0
1581971660.670,31.250,32.227,28.809,29.785,0
1581971660.672,28.809,29.785,20.020,22.461,0
1581971660.676,26.855,34.180,20.508,28.320,0
1581971660.680,20.996,35.156,32.715,30.273,0
1581971660.684,20.508,39.551,36.621,29.297,0
1581971660.688,27.832,43.457,35.156,38.574,0
1581971660.692,41.992,40.039,28.809,33.691,0
1581971660.696,31.250,37.598,27.832,24.902,0
1581971660.699,6.348,37.598,30.273,27.832,0
1581971660.703,7.324,37.598,27.832,28.320,0
1581971660.707,12.207,36.621,26.367,27.344,0
1581971660.711,11.230,34.668,25.879,23.926,0
1581971660.715,17.090,36.621,27.832,20.996,0
1581971660.717,32.715,41.992,33.691,39.062,0
1581971660.721,36.621,42.969,30.762,33.691,0
1581971660.725,38.086,41.016,21.484,15.137,0
1581971660.729,39.062,35.645,18.555,20.020,0
1581971660.733,33.203,28.809,20.508,20.996,0
1581971660.737,27.832,22.949,26.855,20.020,0
1581971660.741,31.738,27.832,24.902,19.531,0
1581971660.744,29.297,34.180,17.578,21.973,0
1581971660.748,33.691,35.645,23.438,25.879,0
1581971660.752,36.621,35.645,26.367,22.949,0
1581971660.756,31.738,37.109,25.879,22.461,0
1581971660.760,28.320,33.203,23.926,26.367,0
1581971660.762,20.020,26.855,24.414,28.320,0
1581971660.766,29.785,33.203,27.344,24.414,0
1581971660.770,30.273,35.645,31.250,22.461,0
1581971660.774,29.297,32.715,34.180,33.203,0
1581971660.778,32.227,25.391,29.297,28.809,0
1581971660.782,35.645,30.273,29.297,27.832,0
1581971660.786,31.250,40.527,34.180,31.738,0
1581971660.789,24.902,40.527,35.645,18.555,0
1581971660.793,35.645,37.598,30.762,13.672,0
1581971660.797,30.762,33.203,22.949,18.066,0
1581971660.801,15.625,31.250,28.320,23.926,0
1581971660.805,22.461,28.809,37.109,25.391,0
1581971660.807,24.414,21.484,35.156,20.996,0
1581971660.811,23.438,20.996,31.250,16.602,0
1581971660.815,35.645,28.320,32.715,21.484,0
1581971660.819,39.551,34.668,33.203,25.879,0
1581971660.823,20.020,33.691,30.273,23.926,0
1581971660.827,20.508,36.621,30.273,29.785,0
1581971660.831,28.809,40.527,25.879,34.180,0
1581971660.834,29.297,32.227,26.367,22.461,0
1581971660.838,24.414,29.785,31.738,13.184,0
1581971660.842,20.508,31.738,30.762,19.043,0
1581971660.846,20.996,32.227,32.227,24.414,0
1581971660.850,20.996,33.203,30.273,28.809,0
1581971660.852,15.137,32.227,27.832,23.438,0
1581971660.856,12.207,30.762,33.203,22.949,0
1581971660.860,18.555,25.391,32.227,21.484,0
1581971660.864,23.438,27.832,23.926,19.531,0
1581971660.868,25.391,29.297,24.414,23.438,0
1581971660.872,20.508,28.320,20.508,27.832,0
1581971660.876,19.531,36.621,18.066,21.973,0
1581971660.879,36.621,38.086,24.414,7.324,0
1581971660.883,27.344,33.691,29.297,0.000,0
1581971660.887,0.488,30.273,33.203,4.395,0
1581971660.891,12.207,30.762,34.180,10.254,0
1581971660.895,20.508,33.691,27.344,16.602,0
1581971660.897,20.508,35.156,25.391,19.531,0
1581971660.901,25.391,36.133,31.738,22.461,0
1581971660.905,21.484,33.691,31.738,21.973,0
1581971660.909,19.043,33.203,29.785,15.137,0
1581971660.913,17.578,33.691,30.762,12.207,0
1581971660.917,5.859,36.133,33.691,8.789,0
1581971660.921,0.000,37.109,35.156,4.395,0
1581971660.924,0.000,34.180,33.691,-4.883,0
1581971660.928,0.488,29.297,33.691,-6.836,0
1581971660.932,-0.977,30.273,38.574,-7.812,0
1581971660.936,-5.371,37.109,46.387,-14.648,0
1581971660.940,-16.602,39.062,39.062,-19.043,0
1581971660.957,-21.484,41.992,38.086,-18.555,0
1581971660.961,-10.742,41.992,41.016,-20.996,0
1581971660.965,-20.508,39.551,35.645,-25.879,0
1581971660.969,-35.645,39.062,33.203,-25.879,0
1581971660.973,-41.992,33.203,28.809,-33.691,0
1581971660.977,-37.109,26.367,37.598,-45.898,0
1581971660.981,-27.344,28.320,51.270,-32.715,0
1581971660.984,-21.484,38.086,48.340,-20.996,0
1581971660.988,-14.648,39.551,38.086,-23.438,0
1581971660.992,3.906,33.691,35.156,-20.996,0
1581971660.996,3.418,33.691,35.645,-16.602,0
1581971661.000,-14.160,31.250,32.715,-14.160,0
1581971661.002,-2.930,29.297,28.320,-4.395,0
1581971661.006,8.789,34.668,29.297,2.441,0
1581971661.010,6.348,28.320,30.762,2.441,0
1581971661.014,21.484,30.273,41.992,18.555,0
1581971661.018,27.832,41.016,43.457,20.020,0
1581971661.022,11.719,33.203,31.738,9.277,0
1581971661.026,15.625,28.809,29.785,14.648,0
1581971661.029,16.602,31.738,21.973,11.230,0
1581971661.033,16.602,30.762,19.043,10.254,0
1581971661.037,29.785,34.668,21.973,16.602,0
1581971661.041,33.691,38.086,16.602,21.484,0
1581971661.045,24.414,33.203,20.996,18.555,0
1581971661.047,21.973,27.832,29.297,25.391,0
1581971661.051,21.484,25.879,29.297,27.832,0
1581971661.055,30.762,29.785,30.762,23.926,0
1581971661.059,36.133,36.133,30.762,34.180,0
1581971661.063,19.531,29.785,21.973,30.762,0
1581971661.067,8.789,24.902,18.066,15.137,0
1581971661.071,16.602,31.250,18.555,12.207,0
1581971661.074,24.414,32.227,18.555,13.672,0
1581971661.078,25.879,34.668,31.250,20.508,0
1581971661.082,34.180,33.203,27.832,22.949,0
1581971661.086,37.109,25.391,21.973,17.090,0
1581971661.090,38.574,27.344,23.926,22.461,0
1581971661.092,35.645,30.762,24.414,33.203,0
1581971661.096,29.297,34.668,27.832,28.809,0
1581971661.100,37.109,38.086,28.809,29.785,0
1581971661.104,44.434,43.457,31.250,38.574,0
1581971661.108,35.156,40.527,23.438,39.062,0
1581971661.112,35.156,35.156,27.344,45.410,0
1581971661.116,33.203,34.180,32.715,31.738,0
1581971661.119,23.438,37.109,29.297,20.020,0
1581971661.123,24.414,43.457,30.273,28.320,0
1581971661.127,24.902,46.387,30.762,28.809,0
1581971661.131,30.762,48.340,32.715,31.738,0
1581971661.135,44.922,41.992,32.715,30.273,0
1581971661.137,37.598,38.574,32.227,27.344,0
1581971661.141,32.715,39.551,33.203,30.273,0
1581971661.145,25.879,34.668,27.344,27.832,0
1581971661.149,19.043,40.527,25.879,25.879,0
1581971661.153,36.621,42.480,37.109,32.715,0
1581971661.157,41.504,34.668,38.086,31.738,0
1581971661.161,40.527,40.527,23.926,24.414,0
1581971661.164,39.062,43.457,21.973,27.832,0
1581971661.168,37.598,40.527,34.668,34.180,0
1581971661.172,30.273,34.180,39.551,31.738,0
1581971661.176,17.090,28.809,31.738,25.879,0
1581971661.180,24.902,33.203,21.973,23.926,0
1581971661.182,27.832,32.715,21.973,23.438,0
1581971661.186,22.461,31.250,23.926,23.926,0
1581971661.190,28.809,36.133,24.902,26.855,0
1581971661.194,27.344,38.086,28.320,35.156,0
1581971661.198,32.715,37.598,29.785,32.227,0
1581971661.202,41.016,40.527,27.832,24.414,0
1581971661.206,43.945,41.504,27.832,28.809,0
1581971661.209,41.016,35.645,32.715,34.668,0
1581971661.213,35.156,33.203,36.621,34.668,0
1581971661.217,34.180,36.621,31.738,37.598,0
1581971661.221,27.344,37.598,36.133,37.109,0
1581971661.225,25.879,33.203,40.527,33.203,0
1581971661.226,25.879,31.250,30.273,23.926,0
1581971661.230,30.762,35.156,20.508,28.320,0
1581971661.234,29.297,38.574,24.902,30.762,0
1581971661.238,27.832,36.621,24.902,30.762,0
1581971661.242,33.691,39.062,22.949,37.598,0
1581971661.246,34.668,39.062,24.414,31.250,0
1581971661.250,37.598,35.645,27.344,34.668,0
1581971661.253,33.691,30.273,37.109,41.504,0
1581971661.257,31.738,26.855,37.109,41.992,0
1581971661.261,39.062,30.273,33.203,46.875,0
1581971661.265,34.180,34.668,32.227,40.039,0
1581971661.269,21.484,37.109,35.156,33.691,0
1581971661.271,22.949,40.039,35.645,30.762,0
1581971661.275,30.762,42.480,34.180,32.227,0
1581971661.279,33.203,41.992,33.691,41.992,0
1581971661.283,32.715,38.574,28.809,31.738,0
1581971661.287,40.527,35.645,24.902,20.996,0
1581971661.291,35.645,37.109,28.320,29.785,0
1581971661.295,22.949,37.109,32.715,28.320,0
1581971661.298,27.832,32.227,30.762,27.344,0
1581971661.302,29.785,25.879,29.297,26.367,0
1581971661.306,22.949,27.344,30.762,25.391,0
1581971661.310,31.250,37.598,27.344,25.391,0
1581971661.314,36.133,37.109,27.832,28.320,0
1581971661.331,19.043,34.668,29.297,23.926,0
1581971661.335,15.137,39.062,28.809,28.809,0
1581971661.339,21.484,36.621,30.762,35.645,0
1581971661.343,25.391,36.133,28.320,24.414,0
1581971661.347,31.738,32.715,27.832,26.367,0
1581971661.351,38.574,32.227,41.016,39.551,0
1581971661.355,36.133,36.133,40.527,35.645,0
1581971661.358,33.203,33.691,20.996,33.691,0
1581971661.362,31.738,29.297,12.695,27.832,0
1581971661.366,39.062,33.691,20.508,27.832,0
1581971661.370,51.270,40.527,32.227,42.480,0
1581971661.374,46.387,33.691,39.551,37.598,0
1581971661.376,41.504,28.320,26.855,27.344,0
1581971661.380,21.484,29.785,23.926,21.973,0
1581971661.384,16.602,38.574,34.668,23.926,0
1581971661.388,22.461,34.180,32.227,24.414,0
1581971661.392,18.066,20.508,29.785,26.367,0
1581971661.396,25.879,29.297,38.086,39.062,0
1581971661.400,32.227,37.109,33.691,34.180,0
1581971661.403,33.203,34.180,26.367,23.926,0
1581971661.407,32.715,34.668,28.809,36.133,0
1581971661.411,32.227,39.062,34.180,26.855,17235
1581971661.415,23.926,39.551,32.715,16.602,0
1581971661.419,30.762,41.992,28.809,21.484,0
1581971661.421,44.434,45.410,30.273,22.461,0
1581971661.425,41.504,39.551,32.227,28.809,0
1581971661.429,27.344,39.551,26.855,22.949,0
1581971661.433,29.297,39.551,21.484,26.367,0
1581971661.437,47.852,35.645,27.832,37.598,0
1581971661.441,39.062,27.344,27.344,24.414,0
1581971661.445,33.203,23.438,22.949,29.297,0
1581971661.448,37.109,40.527,24.902,40.527,0
1581971661.452,34.668,50.293,34.180,35.645,0
1581971661.456,32.715,47.852,33.203,35.156,0
1581971661.460,24.902,44.434,23.438,34.668,0
1581971661.464,29.785,47.363,30.273,38.086,0
1581971661.466,34.668,43.945,32.227,25.879,0
1581971661.470,28.809,35.645,23.438,13.184,0
1581971661.474,26.855,30.273,27.344,20.020,0
1581971661.478,23.438,26.855,33.203,34.180,0
1581971661.482,22.461,23.438,31.250,34.668,0
1581971661.486,32.715,23.926,26.367,28.809,0
1581971661.490,39.062,30.273,24.414,44.434,0
1581971661.493,36.621,36.621,29.785,44.434,0
1581971661.497,32.715,39.551,27.832,18.066,0
1581971661.501,40.527,33.691,19.043,15.137,0
1581971661.505,38.086,30.273,22.461,29.785,0
1581971661.509,30.762,34.668,27.344,30.273,0
1581971661.511,26.855,36.133,28.809,23.438,0
1581971661.515,40.527,34.668,27.832,29.785,0
1581971661.519,45.410,29.785,31.738,39.551,0
1581971661.523,30.762,30.273,41.992,43.457,0
1581971661.527,36.621,35.156,36.621,47.852,0
1581971661.531,36.621,35.156,24.902,45.410,0
1581971661.535,28.320,32.715,30.273,36.621,0
1581971661.538,30.273,33.203,38.574,26.367,0
1581971661.542,30.273,33.203,33.691,24.902,0
1581971661.546,29.785,32.715,32.715,33.691,0
1581971661.550,36.133,33.691,37.598,35.156,0
1581971661.554,31.738,33.691,35.645,34.180,0
1581971661.556,36.133,35.645,33.203,42.969,0
1581971661.560,38.086,30.762,38.574,41.992,0
1581971661.564,30.273,29.785,36.133,34.180,0
1581971661.568,34.180,40.039,30.273,37.109,0
1581971661.572,41.992,39.062,31.738,41.504,0
1581971661.576,38.574,31.738,28.809,31.738,0
1581971661.580,31.250,30.762,28.320,29.297,0
1581971661.583,30.762,32.715,32.227,28.809,0
1581971661.587,34.180,27.344,31.250,21.973,0
1581971661.591,40.527,27.832,29.785,22.949,0
1581971661.595,32.227,35.156,22.461,19.043,0
1581971661.599,14.648,34.668,19.531,19.043,0
1581971661.601,9.766,34.668,29.297,22.949,0
1581971661.605,9.766,30.762,31.250,6.836,0
1581971661.609,15.137,31.250,25.879,11.719,0
1581971661.613,30.762,34.180,21.484,21.973,0
1581971661.617,37.109,33.203,23.926,16.113,0
1581971661.621,27.832,33.203,27.832,22.461,0
1581971661.625,23.438,34.668,31.250,22.949,0
1581971661.628,25.391,37.109,36.133,18.555,0
1581971661.632,26.855,40.527,38.086,26.367,0
1581971661.636,35.156,37.598,33.203,27.344,0
1581971661.640,43.457,40.039,31.250,35.156,0
1581971661.644,40.527,45.898,35.156,43.945,0
1581971661.647,27.344,38.574,29.785,33.691,0
1581971661.651,25.879,34.180,23.438,25.391,0
1581971661.655,40.527,41.016,29.785,24.414,0
1581971661.659,34.180,39.062,38.086,24.902,0
1581971661.663,26.367,30.762,36.621,26.855,0
1581971661.667,26.367,33.691,29.785,19.531,0
1581971661.671,20.020,40.527,27.832,20.508,0
1581971661.674,20.996,40.039,27.832,18.066,0
1581971661.678,34.668,37.109,27.832,14.648,0
1581971661.682,36.621,33.203,31.738,20.508,0
1581971661.686,24.902,36.621,33.203,21.484,0
1581971661.690,28.809,37.109,29.785,31.250,0
1581971661.707,31.738,31.250,35.156,32.715,0
1581971661.711,22.949,29.297,41.016,27.832,0
1581971661.715,20.508,33.203,32.715,25.391,0
1581971661.719,20.020,34.180,30.273,26.855,0
1581971661.723,16.113,33.691,34.180,26.367,0
1581971661.727,17.090,30.762,28.320,21.973,0
1581971661.731,8.301,27.344,21.484,13.184,0
1581971661.734,5.371,27.832,24.902,5.371,0
1581971661.738,13.672,31.738,28.320,4.395,0
1581971661.742,20.996,32.715,33.203,8.789,0
1581971661.746,21.973,23.926,35.156,10.742,0
1581971661.750,20.020,25.879,30.273,16.113,0
1581971661.752,34.180,32.715,27.832,24.414,0
1581971661.756,23.438,34.668,29.297,26.855,0
1581971661.760,17.578,35.645,32.227,32.715,0
1581971661.764,23.926,35.645,33.203,35.645,0
1581971661.768,16.113,31.738,25.879,22.461,0
1581971661.772,20.020,31.250,24.902,18.066,0
1581971661.776,19.531,29.297,27.344,22.461,0
1581971661.779,14.160,26.855,26.855,15.137,0
1581971661.783,15.625,28.320,23.926,17.090,0
1581971661.787,21.973,34.180,29.785,20.996,0
1581971661.791,22.949,33.203,32.715,26.855,0
1581971661.795,23.926,31.250,32.227,38.574,0
1581971661.797,29.785,34.180,34.180,44.434,0
1581971661.801,25.879,32.227,31.250,39.062,0
1581971661.805,24.902,27.832,30.762,29.297,0
1581971661.809,28.320,24.902,35.156,35.156,0
1581971661.813,21.973,26.367,36.133,39.062,0
1581971661.817,15.137,30.273,36.133,37.598,0
1581971661.821,20.996,33.203,36.133,32.227,0
1581971661.824,34.668,39.062,34.180,32.227,0
1581971661.828,22.949,41.016,34.180,35.156,0
1581971661.832,20.508,36.621,29.785,34.668,0
1581971661.836,24.414,39.551,26.367,27.832,0
1581971661.840,20.020,40.039,28.320,28.809,0
1581971661.842,21.484,31.738,31.738,34.180,0
1581971661.846,25.879,27.832,37.109,21.973,0
1581971661.850,21.484,25.391,36.133,18.555,0
1581971661.854,21.484,30.762,27.832,27.344,0
1581971661.858,28.809,39.551,21.973,27.344,0
1581971661.862,22.461,36.621,26.367,20.996,0
1581971661.866,23.926,36.133,30.273,21.484,0
1581971661.869,28.809,39.551,22.949,22.461,0
1581971661.873,31.250,37.598,18.066,24.414,0
1581971661.877,25.879,33.691,25.879,21.973,0
1581971661.881,14.160,33.203,30.762,20.508,0
1581971661.885,14.648,29.785,31.250,25.391,0
1581971661.887,35.156,30.762,29.297,27.344,0
1581971661.891,24.414,39.551,27.832,25.879,0
1581971661.895,12.207,41.016,24.414,21.484,0
1581971661.899,19.531,23.926,20.508,21.484,0
1581971661.903,22.949,20.508,20.020,23.438,0
1581971661.907,28.320,31.738,17.090,18.555,0
1581971661.911,21.973,34.668,21.973,20.020,0
1581971661.914,23.438,37.109,32.715,24.414,0
1581971661.918,25.391,35.156,34.668,22.949,0
1581971661.922,25.879,33.203,35.645,32.715,0
1581971661.926,27.344,33.691,36.133,32.715,0
1581971661.930,24.414,35.645,29.785,31.250,0
1581971661.932,20.508,36.133,32.227,30.273,0
1581971661.936,32.715,40.039,30.273,19.043,0
1581971661.940,33.203,41.992,24.902,14.160,0
1581971661.944,12.695,33.691,24.902,10.742,0
1581971661.948,17.090,29.785,25.391,11.230,0
1581971661.952,19.531,33.691,30.762,20.996,0
1581971661.956,8.789,33.691,34.668,23.438,0
1581971661.959,5.371,35.156,31.250,19.043,0
1581971661.963,9.277,31.250,24.902,14.648,0
1581971661.967,24.414,25.879,23.926,9.277,0
1581971661.971,32.227,30.762,34.180,21.973,0
1581971661.975,22.461,39.062,34.668,23.438,0
1581971661.977,22.949,38.086,23.926,19.043,0
1581971661.981,33.691,37.109,28.809,24.902,0
1581971661.985,31.738,41.504,34.668,18.066,0
1581971661.989,14.648,35.156,25.879,10.254,0
1581971661.993,11.719,27.832,16.602,12.695,0
1581971661.997,20.508,27.832,25.879,20.508,0
1581971662.001,25.391,26.367,37.598,24.414,0
1581971662.004,20.508,24.414,33.691,23.926,0
1581971662.008,15.625,24.902,28.809,27.344,0
1581971662.012,15.625,27.832,32.227,20.508,0
1581971662.016,19.531,36.133,37.109,11.719,0
1581971662.020,23.438,41.504,32.715,10.742,0
1581971662.022,30.762,41.992,24.902,15.625,0
1581971662.026,30.273,37.598,22.949,17.578,0
1581971662.030,16.113,30.762,23.926,22.461,0
1581971662.034,8.789,28.320,23.438,19.043,0
1581971662.038,12.207,26.855,31.250,15.137,0
1581971662.042,16.113,26.367,34.180,24.902,0
1581971662.046,23.926,30.762,30.273,22.949,0
1581971662.049,31.250,32.715,25.879,18.555,0
1581971662.053,28.320,30.762,26.855,18.555,0
1581971662.057,28.320,36.621,28.320,21.484,0
1581971662.061,32.715,40.039,24.414,20.508,0
1581971662.065,22.949,39.062,24.902,15.137,0
1581971662.082,12.695,35.645,27.344,16.113,0
1581971662.086,16.113,27.832,22.949,17.578,0
1581971662.090,23.926,26.855,25.879,18.066,0
1581971662.094,27.344,26.367,41.992,26.367,0
1581971662.098,15.137,20.996,33.203,25.879,0
1581971662.102,18.066,20.508,23.438,23.438,0
1581971662.106,27.344,26.367,34.668,35.156,0
1581971662.109,24.902,31.738,38.574,27.344,0
1581971662.113,17.090,27.832,34.668,14.648,0
1581971662.117,8.789,29.297,33.691,20.508,0
1581971662.121,-0.977,25.391,26.367,18.555,0
1581971662.125,4.883,22.949,27.344,16.113,0
1581971662.127,20.020,34.668,37.109,19.043,0
1581971662.131,23.926,38.574,29.297,24.414,0
1581971662.135,26.367,38.574,21.484,36.133,0
1581971662.139,38.086,34.180,28.320,34.180,0
1581971662.143,29.297,25.391,32.715,20.508,0
1581971662.147,21.973,29.785,30.273,18.555,0
1581971662.151,28.809,34.180,28.809,15.137,0
1581971662.154,19.043,30.273,26.855,11.719,0
1581971662.158,17.578,25.879,28.320,22.461,0
1581971662.162,26.367,29.297,34.180,23.438,0
1581971662.166,22.461,35.156,28.809,21.484,0
1581971662.170,14.160,36.133,20.508,10.742,0
1581971662.172,20.996,35.645,21.484,2.441,0
1581971662.176,27.832,34.668,20.020,20.508,0
1581971662.180,17.578,30.762,23.438,22.949,0
1581971662.184,20.020,25.391,26.367,16.602,0
1581971662.188,44.922,28.320,22.949,27.832,0
1581971662.192,40.039,33.203,27.832,32.227,0
1581971662.196,17.578,33.691,33.203,17.578,0
1581971662.199,23.438,30.762,36.133,17.578,0
1581971662.203,25.391,34.668,33.691,22.949,0
1581971662.207,22.949,39.062,33.691,16.113,0
1581971662.211,32.227,32.227,30.762,25.879,0
1581971662.215,30.273,34.668,26.367,33.691,0
1581971662.217,18.555,37.109,27.832,21.973,0
1581971662.221,19.043,38.574,26.367,13.672,0
1581971662.225,21.973,43.457,26.367,17.578,0
1581971662.229,25.879,41.992,35.156,22.949,0
1581971662.233,30.762,40.527,35.645,20.996,0
1581971662.237,38.086,40.039,34.180,25.391,0
1581971662.241,32.715,38.086,34.180,29.785,0
1581971662.244,22.949,41.504,30.762,32.715,0
1581971662.248,23.926,41.992,33.691,24.902,0
1581971662.252,33.691,45.410,32.227,31.250,0
1581971662.256,36.133,40.527,33.691,27.832,0
1581971662.260,42.969,27.832,36.133,19.531,0
1581971662.262,37.109,24.414,34.180,31.738,0
1581971662.266,19.043,31.738,30.273,30.762,0
1581971662.270,23.438,38.086,23.926,23.926,0
1581971662.274,19.531,36.133,29.297,21.484,0
1581971662.278,20.020,37.109,32.227,23.438,0
1581971662.282,29.297,40.527,30.762,18.555,0
1581971662.286,37.598,39.551,34.668,25.879,0
1581971662.289,31.250,39.062,31.250,22.461,0
1581971662.293,25.879,36.133,26.367,18.066,0
1581971662.297,26.855,37.109,23.926,25.879,0
1581971662.301,23.438,33.691,23.438,25.879,0
1581971662.305,23.926,30.273,28.320,24.902,0
1581971662.307,28.809,36.621,28.320,29.297,0
1581971662.311,25.879,37.598,26.855,17.578,0
1581971662.315,17.578,31.738,29.785,12.207,0
1581971662.319,25.879,22.949,28.320,13.672,0
1581971662.323,16.602,25.879,26.855,5.371,0
1581971662.327,1.953,38.574,28.320,4.883,0
1581971662.331,12.695,42.480,26.367,9.766,0
1581971662.334,19.531,37.109,23.926,10.254,0
1581971662.338,24.414,31.738,26.855,15.137,0
1581971662.342,26.367,36.621,29.297,20.020,0
1581971662.346,20.508,34.180,25.391,15.625,0
1581971662.350,22.949,25.879,22.949,29.785,0
1581971662.352,27.344,21.484,23.438,34.668,0
1581971662.356,22.949,23.926,28.320,23.926,0
