,timestamps,TP9,AF7,AF8,TP10,Right AUX,Marker0
0,1581362106.464,26.855,32.227,17.578,28.32,0.0,0
1,1581362106.468,31.738000000000003,33.691,28.32,24.901999999999997,0.0,0
2,1581362106.4720001,31.25,33.691,28.809,21.973000000000003,0.0,0
3,1581362106.476,27.344,22.949,22.461,25.391,0.0,0
4,1581362106.48,22.461,16.113,22.461,25.879,0.0,0
5,1581362106.484,30.273000000000003,30.761999999999997,21.973000000000003,24.901999999999997,0.0,0
6,1581362106.488,27.344,31.738000000000003,15.137,16.602,0.0,0
7,1581362106.4910002,14.16,15.137,5.371,13.672,0.0,0
8,1581362106.495,14.16,10.742,9.277000000000001,24.901999999999997,0.0,0
9,1581362106.4989998,31.25,16.113,24.901999999999997,36.133,0.0,0
10,1581362106.5029998,40.527,20.508000000000003,14.648,20.02,0.0,0
11,1581362106.5070002,16.602,32.227,-1.953,0.488,0.0,0
12,1581362106.494,9.277000000000001,41.504,-2.93,8.301,0.0,0
13,1581362106.498,24.901999999999997,46.875,-2.441,13.672,0.0,0
14,1581362106.502,30.761999999999997,47.852,1.953,10.742,0.0,0
15,1581362106.506,21.973000000000003,37.109,4.883,6.348,0.0,0
16,1581362106.51,10.254000000000001,33.691,1.953,8.789,0.0,0
17,1581362106.514,17.09,31.25,-5.371,14.648,0.0,0
18,1581362106.518,31.25,25.391,-1.953,14.648,0.0,0
19,1581362106.5210001,35.156,29.785,6.348,18.066,0.0,0
20,1581362106.525,27.344,36.133,6.348,22.461,0.0,0
21,1581362106.529,28.32,33.691,7.324,28.32,0.0,0
22,1581362106.533,39.062,33.203,10.254000000000001,28.32,0.0,0
23,1581362106.5370002,37.109,35.156,10.742,22.461,0.0,0
24,1581362106.539,31.738000000000003,33.203,15.137,25.879,0.0,0
25,1581362106.543,33.203,29.296999999999997,10.254000000000001,28.32,0.0,0
26,1581362106.5470002,31.25,21.484,-1.465,28.32,0.0,0
27,1581362106.551,36.133,23.926,-0.977,29.296999999999997,0.0,0
28,1581362106.555,34.668,26.366999999999997,2.441,24.901999999999997,0.0,0
29,1581362106.559,29.785,27.831999999999997,5.859,22.949,0.0,0
30,1581362106.563,33.691,31.738000000000003,10.742,27.344,0.0,0
31,1581362106.566,33.203,30.761999999999997,11.719000000000001,26.366999999999997,0.0,0
32,1581362106.57,23.926,26.855,24.901999999999997,16.602,0.0,0
33,1581362106.574,18.555,26.366999999999997,20.02,16.602,0.0,0
34,1581362106.5779998,20.508000000000003,26.366999999999997,13.184000000000001,22.949,0.0,0
35,1581362106.582,28.32,20.02,14.16,15.625,0.0,0
36,1581362106.5839999,37.598,26.855,11.719000000000001,17.09,0.0,0
37,1581362106.5879998,28.809,32.715,13.672,25.391,0.0,0
38,1581362106.592,19.531,26.855,11.719000000000001,23.926,0.0,0
39,1581362106.596,27.831999999999997,24.414,5.859,19.531,0.0,0
40,1581362106.6,34.668,23.438000000000002,7.812,21.973000000000003,0.0,0
41,1581362106.6039999,33.203,22.949,5.859,26.366999999999997,0.0,0
42,1581362106.6079998,22.461,25.391,-2.93,18.555,0.0,0
43,1581362106.611,15.625,26.855,8.301,12.207,0.0,0
44,1581362106.615,20.508000000000003,29.785,25.879,16.602,0.0,0
45,1581362106.619,18.555,28.809,16.602,20.02,0.0,0
46,1581362106.623,13.672,17.578,7.324,21.484,0.0,0
47,1581362106.627,13.672,15.625,10.742,23.438000000000002,0.0,0
48,1581362106.644,18.066,18.066,12.695,17.09,0.0,0
49,1581362106.6479998,13.672,23.438000000000002,16.602,12.207,0.0,0
50,1581362106.6520002,10.742,27.344,16.113,11.23,0.0,0
51,1581362106.6560001,13.672,20.996,14.16,11.719000000000001,0.0,0
52,1581362106.66,15.625,9.277000000000001,17.578,8.789,0.0,0
53,1581362106.664,20.02,12.695,15.625,3.906,0.0,0
54,1581362106.668,15.625,34.668,15.137,5.371,0.0,0
55,1581362106.671,12.207,38.086,24.414,4.883,0.0,0
56,1581362106.675,19.531,26.366999999999997,23.926,6.836,0.0,0
57,1581362106.679,26.366999999999997,22.461,13.672,10.254000000000001,0.0,0
58,1581362106.6829998,21.484,27.344,15.137,13.184000000000001,0.0,0
59,1581362106.687,16.602,30.761999999999997,20.996,16.602,0.0,0
60,1581362106.69,21.973000000000003,24.901999999999997,23.926,16.113,0.0,0
61,1581362106.694,31.25,20.02,33.691,20.02,0.0,0
62,1581362106.698,23.438000000000002,19.531,28.32,19.531,0.0,0
63,1581362106.7020001,13.184000000000001,17.09,14.648,16.602,0.0,0
64,1581362106.706,11.719000000000001,18.555,18.555,18.066,0.0,0
65,1581362106.71,12.207,19.043,18.066,13.184000000000001,0.0,0
66,1581362106.714,8.789,20.508000000000003,13.184000000000001,8.301,0.0,0
67,1581362106.717,-3.418,23.438000000000002,27.831999999999997,4.883,0.0,0
68,1581362106.721,-11.23,27.344,36.133,1.465,0.0,0
69,1581362106.725,-18.555,32.227,23.438000000000002,-8.301,0.0,0
70,1581362106.7289999,-29.785,29.296999999999997,13.184000000000001,-26.855,0.0,0
71,1581362106.7329998,-43.945,28.809,14.648,-33.203,0.0,0
72,1581362106.735,-55.663999999999994,32.715,18.555,-37.598,0.0,0
73,1581362106.7389998,-67.87100000000001,26.366999999999997,18.066,-58.593999999999994,0.0,0
74,1581362106.7429998,-78.613,22.949,20.02,-75.195,0.0,0
75,1581362106.7470002,-94.727,34.18,18.066,-87.891,0.0,0
76,1581362106.7510002,-119.62899999999999,40.039,4.395,-113.77,0.0,0
77,1581362106.755,-140.625,32.715,-11.719000000000001,-145.50799999999998,0.0,0
78,1581362106.7589998,-146.97299999999998,31.738000000000003,-12.207,-162.109,0.0,0
79,1581362106.762,-163.57399999999998,32.715,-1.465,-175.293,0.0,0
80,1581362106.766,-194.33599999999998,35.156,-3.906,-195.801,0.0,0
81,1581362106.77,-208.00799999999998,41.016000000000005,-18.555,-215.332,0.0,0
82,1581362106.774,-213.37900000000002,45.898,-22.461,-232.91,0.0,0
83,1581362106.7779999,-221.19099999999997,39.062,-23.438000000000002,-232.422,0.0,0
84,1581362106.78,-219.727,26.366999999999997,-21.973000000000003,-218.75,0.0,0
85,1581362106.784,-210.938,28.32,-22.461,-210.449,0.0,0
86,1581362106.7879999,-201.172,35.645,-20.996,-202.148,0.0,0
87,1581362106.792,-185.547,35.156,-29.785,-197.266,0.0,0
88,1581362106.796,-165.52700000000002,39.062,-31.25,-179.199,0.0,0
89,1581362106.8,-164.062,38.086,-20.02,-162.59799999999998,0.0,0
90,1581362106.804,-163.086,29.296999999999997,-11.719000000000001,-159.668,0.0,0
91,1581362106.8070002,-141.602,45.41,3.418,-139.16,0.0,0
92,1581362106.811,-131.34799999999998,54.199,2.441,-126.95299999999999,0.0,0
93,1581362106.815,-127.93,39.062,2.93,-122.07,0.0,0
94,1581362106.819,-119.141,30.761999999999997,9.766,-115.234,0.0,0
95,1581362106.823,-97.16799999999999,27.344,8.301,-105.95700000000001,0.0,0
96,1581362106.825,-82.52,33.203,4.883,-84.473,0.0,0
97,1581362106.829,-78.613,38.574,5.859,-74.219,0.0,0
98,1581362106.833,-68.848,29.785,1.953,-67.87100000000001,0.0,0
99,1581362106.8370001,-51.27,29.785,-7.324,-57.617,0.0,0
100,1581362106.841,-40.527,35.156,-7.812,-53.223,0.0,0
101,1581362106.845,-29.785,39.062,-3.906,-32.715,0.0,0
102,1581362106.849,-11.23,36.621,5.371,-11.23,0.0,0
103,1581362106.8520002,-6.348,33.203,11.719000000000001,-12.695,0.0,0
104,1581362106.856,-0.977,31.25,4.883,-12.207,0.0,0
105,1581362106.86,9.277000000000001,23.926,12.695,11.23,0.0,0
106,1581362106.8639998,11.719000000000001,19.531,16.602,35.156,0.0,0
107,1581362106.8679998,20.508000000000003,21.973000000000003,6.348,35.156,0.0,0
108,1581362106.87,41.504,24.414,4.395,41.504,0.0,0
109,1581362106.8739998,57.129,26.855,12.207,63.965,0.0,0
110,1581362106.8779998,53.223,22.461,8.789,60.547,0.0,0
111,1581362106.8820002,51.758,16.113,3.418,61.523,0.0,0
112,1581362106.8860002,66.895,17.09,15.625,71.777,0.0,0
113,1581362106.89,75.195,20.508000000000003,23.438000000000002,78.125,0.0,0
114,1581362106.894,74.219,23.438000000000002,17.09,87.402,0.0,0
115,1581362106.897,74.219,23.438000000000002,8.789,82.031,0.0,0
116,1581362106.901,86.914,16.602,14.648,82.031,0.0,0
117,1581362106.905,92.285,12.695,22.949,89.355,0.0,0
118,1581362106.909,85.93799999999999,13.184000000000001,20.996,91.309,0.0,0
119,1581362106.9129999,83.49600000000001,8.789,15.625,94.727,0.0,0
120,1581362106.915,86.914,10.254000000000001,19.531,99.12100000000001,0.0,0
121,1581362106.919,97.656,15.137,30.761999999999997,101.56200000000001,0.0,0
122,1581362106.9229999,103.027,12.695,27.831999999999997,103.516,0.0,0
123,1581362106.927,102.051,12.207,22.461,112.305,0.0,0
124,1581362106.931,104.98,14.16,24.414,109.375,0.0,0
125,1581362106.935,112.305,16.113,22.949,97.16799999999999,0.0,0
126,1581362106.939,117.18799999999999,20.996,15.137,103.027,0.0,0
127,1581362106.9420002,117.18799999999999,20.02,17.09,108.398,0.0,0
128,1581362106.946,119.141,15.625,27.831999999999997,106.445,0.0,0
129,1581362106.95,118.652,8.789,16.113,108.887,0.0,0
130,1581362106.954,113.281,1.465,5.859,106.445,0.0,0
131,1581362106.958,106.934,-2.93,9.277000000000001,104.98,0.0,0
132,1581362106.96,103.027,-0.488,11.23,107.42200000000001,0.0,0
133,1581362106.964,105.95700000000001,6.348,7.812,103.516,0.0,0
134,1581362106.968,103.516,6.836,-1.465,102.539,0.0,0
135,1581362106.9720001,101.56200000000001,4.395,-2.441,109.863,0.0,0
136,1581362106.976,99.609,15.625,3.906,109.375,0.0,0
137,1581362106.98,96.68,12.695,3.906,102.051,0.0,0
138,1581362106.984,99.609,2.93,0.977,96.68,0.0,0
139,1581362106.9870002,94.727,12.695,12.207,98.633,0.0,0
140,1581362106.9910002,88.37899999999999,22.461,21.484,103.027,0.0,0
141,1581362106.995,95.215,24.901999999999997,15.137,99.609,0.0,0
142,1581362106.9989998,98.633,23.438000000000002,16.113,91.79700000000001,0.0,0
143,1581362107.0029998,95.215,21.973000000000003,16.602,86.914,0.0,0
144,1581362107.02,91.309,14.648,14.16,92.773,0.0,0
145,1581362107.024,93.75,5.371,12.207,96.191,0.0,0
146,1581362107.0279999,99.609,13.184000000000001,10.742,86.426,0.0,0
147,1581362107.032,98.633,29.785,16.113,84.961,0.0,0
148,1581362107.036,91.309,18.066,15.137,99.12100000000001,0.0,0
149,1581362107.04,84.473,-4.883,4.883,86.426,0.0,0
150,1581362107.044,88.37899999999999,-3.906,9.277000000000001,71.777,0.0,0
151,1581362107.0470002,91.309,9.277000000000001,26.855,76.172,0.0,0
152,1581362107.051,87.402,22.949,29.296999999999997,78.125,0.0,0
153,1581362107.055,82.52,20.996,20.508000000000003,79.59,0.0,0
154,1581362107.059,86.914,17.578,20.996,75.195,0.0,0
155,1581362107.063,85.449,19.043,20.508000000000003,71.777,0.0,0
156,1581362107.065,70.801,13.672,10.742,68.848,0.0,0
157,1581362107.069,67.383,16.602,9.766,63.965,0.0,0
158,1581362107.073,68.848,19.043,11.23,65.43,0.0,0
159,1581362107.0770001,72.75399999999999,14.648,14.648,67.383,0.0,0
160,1581362107.081,71.289,20.02,17.09,63.965,0.0,0
161,1581362107.085,61.035,13.672,15.137,65.43,0.0,0
162,1581362107.089,57.129,-0.488,20.996,61.035,0.0,0
163,1581362107.092,59.082,12.695,27.344,53.711000000000006,0.0,0
164,1581362107.096,59.57,24.901999999999997,23.926,55.176,0.0,0
165,1581362107.1,53.711000000000006,24.414,16.113,50.293,0.0,0
166,1581362107.1039999,50.293,20.508000000000003,23.438000000000002,48.828,0.0,0
167,1581362107.1079998,54.199,11.23,19.531,51.758,0.0,0
168,1581362107.11,60.059,15.137,4.395,50.293,0.0,0
169,1581362107.1139998,53.223,32.227,6.348,51.758,0.0,0
170,1581362107.1179998,47.363,38.086,6.348,49.805,0.0,0
171,1581362107.1220002,56.641000000000005,38.086,3.418,47.852,0.0,0
172,1581362107.1260002,57.617,23.926,-3.906,45.898,0.0,0
173,1581362107.13,49.805,10.742,-2.441,45.898,0.0,0
174,1581362107.1339998,46.387,24.901999999999997,10.742,42.48,0.0,0
175,1581362107.137,47.363,36.133,20.02,35.156,0.0,0
176,1581362107.141,47.363,36.133,14.16,33.203,0.0,0
177,1581362107.145,44.922,40.039,8.301,31.25,0.0,0
178,1581362107.149,41.016000000000005,35.645,23.438000000000002,35.645,0.0,0
179,1581362107.1529999,37.598,31.25,22.949,34.668,0.0,0
180,1581362107.155,41.992,34.668,16.113,30.761999999999997,0.0,0
181,1581362107.159,42.968999999999994,30.761999999999997,14.16,32.227,0.0,0
182,1581362107.1629999,32.715,29.785,16.602,28.32,0.0,0
183,1581362107.167,25.391,20.996,26.855,27.344,0.0,0
184,1581362107.171,31.738000000000003,15.137,27.344,32.715,0.0,0
185,1581362107.175,43.457,25.879,24.414,44.922,0.0,0
186,1581362107.179,38.086,24.901999999999997,38.086,43.457,0.0,0
187,1581362107.1820002,30.273000000000003,17.578,49.316,41.016000000000005,0.0,0
188,1581362107.186,33.203,26.855,40.527,44.434,0.0,0
189,1581362107.19,37.598,32.227,44.922,37.598,0.0,0
190,1581362107.194,33.203,19.043,50.293,29.785,0.0,0
191,1581362107.198,31.25,16.113,31.738000000000003,29.296999999999997,0.0,0
192,1581362107.2,36.133,25.879,21.973000000000003,33.203,0.0,0
193,1581362107.204,43.945,31.25,25.391,31.738000000000003,0.0,0
194,1581362107.208,44.434,28.809,21.484,28.32,0.0,0
195,1581362107.2120001,36.133,26.855,19.043,27.344,0.0,0
196,1581362107.216,31.738000000000003,27.831999999999997,21.484,28.809,0.0,0
197,1581362107.22,33.203,19.043,27.831999999999997,25.879,0.0,0
198,1581362107.224,30.273000000000003,12.207,33.691,20.508000000000003,0.0,0
199,1581362107.2270002,21.973000000000003,12.207,26.366999999999997,22.949,0.0,0
200,1581362107.231,19.043,15.137,24.414,24.414,0.0,0
201,1581362107.235,24.901999999999997,21.973000000000003,35.156,21.484,0.0,0
202,1581362107.2389998,32.227,20.02,33.203,20.02,0.0,0
203,1581362107.2429998,23.438000000000002,12.695,29.785,18.066,0.0,0
204,1581362107.244,7.324,19.043,30.761999999999997,19.531,0.0,0
205,1581362107.248,8.301,10.742,27.344,16.602,0.0,0
206,1581362107.252,20.996,4.883,23.926,14.16,0.0,0
207,1581362107.256,21.484,16.602,25.879,14.648,0.0,0
208,1581362107.26,12.695,22.461,27.831999999999997,19.531,0.0,0
209,1581362107.264,17.09,28.809,26.366999999999997,25.879,0.0,0
210,1581362107.268,26.855,30.761999999999997,25.391,25.879,0.0,0
211,1581362107.2710001,24.414,24.414,22.949,24.414,0.0,0
212,1581362107.275,20.02,20.508000000000003,27.831999999999997,23.926,0.0,0
213,1581362107.279,11.719000000000001,14.648,36.621,20.996,0.0,0
214,1581362107.283,11.719000000000001,20.02,39.062,13.672,0.0,0
215,1581362107.2870002,20.508000000000003,26.855,36.133,19.043,0.0,0
216,1581362107.289,17.09,9.766,43.945,28.809,0.0,0
217,1581362107.293,20.02,11.23,45.41,24.901999999999997,0.0,0
218,1581362107.2970002,23.926,23.926,41.016000000000005,19.531,0.0,0
219,1581362107.301,26.366999999999997,22.949,44.922,15.625,0.0,0
220,1581362107.305,29.296999999999997,21.484,55.663999999999994,20.508000000000003,0.0,0
221,1581362107.309,23.438000000000002,20.996,66.406,27.831999999999997,0.0,0
222,1581362107.313,26.855,30.273000000000003,67.383,25.879,0.0,0
223,1581362107.316,33.691,32.227,64.453,17.578,0.0,0
224,1581362107.32,31.738000000000003,27.344,71.289,17.09,0.0,0
225,1581362107.324,24.901999999999997,25.879,66.895,19.043,0.0,0
226,1581362107.3279998,21.484,24.414,66.895,13.672,0.0,0
227,1581362107.332,26.855,27.344,68.359,14.648,0.0,0
228,1581362107.3339999,28.809,25.391,59.082,17.09,0.0,0
229,1581362107.3379998,25.391,23.926,60.547,25.391,0.0,0
230,1581362107.342,24.901999999999997,19.043,61.035,28.809,0.0,0
231,1581362107.346,30.761999999999997,19.043,58.105,23.926,0.0,0
232,1581362107.35,30.761999999999997,15.625,59.082,19.531,0.0,0
233,1581362107.3539999,22.949,3.906,58.593999999999994,20.996,0.0,0
234,1581362107.3579998,20.508000000000003,10.254000000000001,52.246,28.32,0.0,0
235,1581362107.361,22.461,20.508000000000003,53.711000000000006,22.461,0.0,0
236,1581362107.365,26.855,20.02,70.801,16.113,0.0,0
237,1581362107.369,20.996,23.438000000000002,66.406,20.02,0.0,0
238,1581362107.373,17.09,33.203,47.363,27.344,0.0,0
239,1581362107.377,17.578,25.391,46.387,24.414,0.0,0
240,1581362107.394,17.578,18.066,44.434,17.578,0.0,0
241,1581362107.3979998,13.184000000000001,18.555,31.738000000000003,12.695,0.0,0
242,1581362107.4020002,7.812,10.254000000000001,25.879,14.16,0.0,0
243,1581362107.4060001,12.695,9.766,27.831999999999997,21.484,0.0,0
244,1581362107.41,19.531,19.531,22.949,20.996,0.0,0
245,1581362107.414,20.508000000000003,15.137,5.371,20.508000000000003,0.0,0
246,1581362107.418,15.625,8.301,5.371,19.531,0.0,0
247,1581362107.421,13.672,10.742,22.949,18.066,0.0,0
248,1581362107.425,19.043,13.184000000000001,24.414,23.438000000000002,0.0,0
249,1581362107.429,23.926,14.648,19.531,22.461,0.0,0
250,1581362107.4329998,20.02,19.531,21.484,23.926,0.0,0
251,1581362107.437,19.043,26.855,27.344,36.133,0.0,0
252,1581362107.439,24.901999999999997,29.296999999999997,31.25,33.203,0.0,0
253,1581362107.4429998,28.809,30.761999999999997,29.785,24.901999999999997,0.0,0
254,1581362107.447,24.414,29.785,25.879,27.344,0.0,0
255,1581362107.451,19.531,32.715,27.344,22.461,0.0,0
256,1581362107.455,24.901999999999997,32.227,23.438000000000002,14.648,0.0,0
257,1581362107.4589999,29.785,23.926,26.366999999999997,12.695,0.0,0
258,1581362107.4629998,26.855,25.879,31.738000000000003,16.113,0.0,2
259,1581362107.466,20.996,24.901999999999997,28.32,17.09,0.0,0
260,1581362107.47,16.602,23.926,25.879,16.113,0.0,0
261,1581362107.474,24.414,33.691,19.531,7.812,0.0,0
262,1581362107.478,27.344,36.133,18.066,4.883,0.0,0
263,1581362107.482,19.531,34.18,12.695,14.648,0.0,0
264,1581362107.484,19.043,32.227,7.324,21.484,0.0,0
265,1581362107.488,26.855,34.668,12.207,26.855,0.0,0
266,1581362107.492,31.25,41.504,24.414,22.949,0.0,0
267,1581362107.496,25.391,39.062,28.809,20.02,0.0,0
268,1581362107.5,17.09,33.691,11.23,25.391,0.0,0
269,1581362107.504,18.066,22.949,6.348,21.973000000000003,0.0,0
270,1581362107.508,21.973000000000003,18.066,20.508000000000003,19.043,0.0,0
271,1581362107.5110002,20.996,23.438000000000002,26.366999999999997,25.879,0.0,0
272,1581362107.515,19.043,32.715,14.648,26.855,0.0,0
273,1581362107.519,19.531,33.203,8.789,21.973000000000003,0.0,0
274,1581362107.5229998,27.831999999999997,31.25,14.648,23.438000000000002,0.0,0
275,1581362107.5270002,27.831999999999997,26.366999999999997,5.859,26.855,0.0,0
276,1581362107.529,19.531,18.555,0.977,23.438000000000002,0.0,0
277,1581362107.533,21.484,35.645,-2.93,23.438000000000002,0.0,0
278,1581362107.5370002,25.879,47.363,-8.789,25.391,0.0,0
279,1581362107.5410001,26.855,27.831999999999997,-0.488,17.578,0.0,0
280,1581362107.545,18.066,20.508000000000003,5.371,15.625,0.0,0
281,1581362107.549,15.625,32.715,1.953,15.625,0.0,0
282,1581362107.553,25.879,35.156,11.719000000000001,15.625,0.0,0
283,1581362107.556,25.391,34.18,21.973000000000003,12.207,0.0,0
284,1581362107.56,15.137,31.25,13.184000000000001,6.348,0.0,0
285,1581362107.564,10.742,21.973000000000003,13.672,7.324,0.0,0
286,1581362107.5679998,15.137,19.531,23.926,10.254000000000001,0.0,0
287,1581362107.572,23.438000000000002,28.809,26.855,12.695,0.0,0
288,1581362107.574,27.344,20.508000000000003,28.32,19.531,0.0,0
289,1581362107.5779998,18.066,14.16,31.25,22.949,0.0,0
290,1581362107.582,16.113,23.926,29.296999999999997,20.508000000000003,0.0,0
291,1581362107.586,23.438000000000002,23.438000000000002,20.508000000000003,14.648,0.0,0
292,1581362107.59,22.949,14.16,24.414,16.602,0.0,0
293,1581362107.5939999,18.555,10.254000000000001,27.831999999999997,23.926,0.0,0
294,1581362107.5979998,20.02,16.602,23.926,27.344,0.0,0
295,1581362107.601,26.855,17.09,15.137,30.273000000000003,0.0,0
296,1581362107.605,28.809,17.09,14.648,23.926,0.0,0
297,1581362107.609,17.578,17.09,27.831999999999997,21.973000000000003,0.0,0
298,1581362107.613,12.207,16.113,23.926,27.831999999999997,0.0,0
299,1581362107.617,18.066,9.277000000000001,20.996,14.648,0.0,0
300,1581362107.619,26.366999999999997,5.371,26.855,10.254000000000001,0.0,0
301,1581362107.623,23.438000000000002,11.719000000000001,30.273000000000003,20.508000000000003,0.0,0
302,1581362107.627,18.066,6.836,23.438000000000002,24.414,0.0,0
303,1581362107.631,17.09,-2.441,33.691,26.366999999999997,0.0,0
304,1581362107.635,20.996,-8.301,47.852,17.09,0.0,0
305,1581362107.639,21.484,-5.859,50.293,11.719000000000001,0.0,0
306,1581362107.643,15.137,11.719000000000001,57.129,16.602,0.0,0
307,1581362107.6460001,17.09,18.066,59.57,15.137,0.0,0
308,1581362107.65,25.879,14.648,67.87100000000001,9.766,0.0,0
309,1581362107.654,24.901999999999997,17.578,74.219,2.441,0.0,0
310,1581362107.658,21.973000000000003,18.555,66.895,6.348,0.0,0
311,1581362107.6620002,26.855,22.461,61.523,15.625,0.0,0
312,1581362107.665,29.296999999999997,25.879,58.105,12.207,0.0,0
313,1581362107.669,25.879,21.484,56.152,3.418,0.0,0
314,1581362107.6729999,26.855,20.508000000000003,60.547,19.043,0.0,0
315,1581362107.677,22.949,22.949,59.57,31.738000000000003,0.0,0
316,1581362107.681,20.508000000000003,17.578,56.152,16.113,0.0,0
317,1581362107.685,22.461,9.766,51.27,9.766,0.0,0
318,1581362107.689,21.973000000000003,15.625,40.039,15.625,0.0,0
319,1581362107.6920002,22.949,14.648,39.062,23.926,0.0,0
320,1581362107.696,25.391,5.859,50.293,28.32,0.0,0
321,1581362107.7,33.203,8.789,48.828,27.344,0.0,0
322,1581362107.704,34.18,13.672,42.968999999999994,27.831999999999997,0.0,0
323,1581362107.708,27.831999999999997,18.066,44.434,28.32,0.0,0
324,1581362107.71,20.508000000000003,24.901999999999997,37.109,25.391,0.0,0
325,1581362107.714,23.926,23.438000000000002,37.598,23.438000000000002,0.0,0
326,1581362107.718,29.785,10.254000000000001,41.504,12.695,0.0,0
327,1581362107.7220001,24.901999999999997,10.742,38.086,12.695,0.0,0
328,1581362107.726,21.973000000000003,15.137,36.621,21.484,0.0,0
329,1581362107.73,26.855,5.371,24.414,16.113,0.0,0
330,1581362107.734,34.18,8.789,13.672,18.066,0.0,0
331,1581362107.7370002,33.203,22.461,21.973000000000003,22.461,0.0,0
332,1581362107.7410002,22.461,13.184000000000001,34.668,23.438000000000002,0.0,0
333,1581362107.745,21.973000000000003,4.395,30.761999999999997,21.484,0.0,0
334,1581362107.7489998,29.785,14.16,21.973000000000003,20.02,0.0,0
335,1581362107.7529998,25.879,24.901999999999997,28.809,21.484,0.0,0
336,1581362107.755,20.996,25.391,33.203,23.438000000000002,0.0,0
337,1581362107.7589998,22.949,18.066,21.484,26.366999999999997,0.0,0
338,1581362107.7629998,21.973000000000003,11.719000000000001,11.719000000000001,19.043,0.0,0
339,1581362107.7670002,17.09,13.672,15.137,16.113,0.0,0
340,1581362107.7710001,11.23,20.02,23.438000000000002,21.973000000000003,0.0,0
341,1581362107.775,15.625,21.973000000000003,20.02,20.996,0.0,0
342,1581362107.779,17.09,24.901999999999997,19.043,13.184000000000001,0.0,0
343,1581362107.782,18.555,31.738000000000003,34.668,15.137,0.0,0
344,1581362107.786,29.785,26.855,48.34,31.738000000000003,0.0,0
345,1581362107.79,20.508000000000003,19.043,58.593999999999994,32.227,0.0,0
346,1581362107.794,-3.906,19.043,69.336,3.906,0.0,0
347,1581362107.7979999,-2.93,14.648,76.66,-1.465,0.0,0
348,1581362107.815,10.254000000000001,18.066,81.543,18.066,0.0,0
349,1581362107.819,5.859,17.578,78.125,18.066,0.0,0
350,1581362107.823,7.812,11.719000000000001,72.266,19.531,0.0,0
351,1581362107.8270001,23.926,17.578,70.312,20.996,0.0,0
352,1581362107.831,21.484,20.996,68.359,8.301,0.0,0
353,1581362107.835,10.742,21.484,70.312,7.324,0.0,0
354,1581362107.839,10.254000000000001,22.949,73.73,8.789,0.0,0
355,1581362107.842,15.625,22.461,73.73,3.906,0.0,0
356,1581362107.846,19.531,24.901999999999997,72.266,5.859,0.0,0
357,1581362107.85,16.602,22.949,66.895,17.578,0.0,0
358,1581362107.8539999,11.719000000000001,22.949,66.406,17.578,0.0,0
359,1581362107.8579998,20.02,21.484,67.383,13.184000000000001,0.0,0
360,1581362107.86,28.32,17.578,62.988,16.602,0.0,0
361,1581362107.8639998,20.02,22.461,54.199,15.137,0.0,0
362,1581362107.8679998,17.09,28.32,50.293,21.484,0.0,0
363,1581362107.8720002,22.461,19.043,55.176,24.901999999999997,0.0,0
364,1581362107.8760002,25.879,7.324,47.852,17.09,0.0,0
365,1581362107.88,28.809,10.742,42.48,22.461,0.0,0
366,1581362107.8839998,23.926,14.16,44.922,28.809,0.0,0
367,1581362107.887,24.414,17.09,43.945,29.296999999999997,0.0,0
368,1581362107.891,34.18,18.066,31.738000000000003,23.438000000000002,0.0,0
369,1581362107.895,34.668,21.973000000000003,30.761999999999997,23.926,0.0,0
370,1581362107.899,26.366999999999997,27.344,45.898,33.203,0.0,0
371,1581362107.9029999,25.879,24.414,47.852,34.18,0.0,0
372,1581362107.905,35.156,25.879,48.34,31.25,0.0,0
373,1581362107.909,38.574,26.366999999999997,42.968999999999994,33.691,0.0,0
374,1581362107.9129999,31.738000000000003,27.344,34.18,39.551,0.0,0
375,1581362107.917,23.438000000000002,24.901999999999997,25.879,34.668,0.0,0
376,1581362107.921,24.901999999999997,12.695,25.391,25.391,0.0,0
377,1581362107.925,33.203,6.836,30.761999999999997,26.366999999999997,0.0,0
378,1581362107.929,26.366999999999997,8.301,37.109,28.809,0.0,0
379,1581362107.9320002,13.672,7.324,35.645,21.484,0.0,0
380,1581362107.936,18.555,4.395,20.508000000000003,11.719000000000001,0.0,0
381,1581362107.94,23.926,8.301,21.484,12.695,0.0,0
382,1581362107.944,19.531,13.672,25.391,17.578,0.0,0
383,1581362107.948,17.09,10.742,13.184000000000001,19.531,0.0,0
384,1581362107.95,21.973000000000003,10.254000000000001,13.184000000000001,21.973000000000003,0.0,0
385,1581362107.954,24.901999999999997,11.23,17.09,19.531,0.0,0
386,1581362107.958,17.578,22.949,15.625,18.555,0.0,0
387,1581362107.9620001,17.578,33.691,15.625,24.901999999999997,0.0,0
388,1581362107.966,20.02,30.273000000000003,13.184000000000001,28.809,0.0,0
389,1581362107.97,27.344,29.785,11.719000000000001,30.273000000000003,0.0,0
390,1581362107.974,30.273000000000003,22.461,17.578,22.461,0.0,0
391,1581362107.9770002,20.508000000000003,18.555,11.719000000000001,13.672,0.0,0
392,1581362107.981,18.066,22.949,17.578,16.602,0.0,0
393,1581362107.985,20.02,9.766,35.156,12.695,0.0,0
394,1581362107.9889998,24.901999999999997,0.488,35.156,14.16,0.0,0
395,1581362107.9929998,22.461,3.906,27.831999999999997,18.066,0.0,0
396,1581362107.995,14.648,7.324,27.344,17.578,0.0,0
397,1581362107.9989998,20.508000000000003,19.531,33.691,18.066,0.0,0
398,1581362108.0029998,29.785,24.901999999999997,32.227,14.648,0.0,0
399,1581362108.0070002,31.25,20.02,28.809,18.555,0.0,0
400,1581362108.0110002,25.879,26.855,29.296999999999997,25.879,0.0,0
401,1581362108.015,27.344,36.133,25.391,25.391,0.0,0
402,1581362108.019,37.109,32.227,15.137,24.414,0.0,0
403,1581362108.022,32.227,23.438000000000002,5.859,21.484,0.0,0
404,1581362108.026,20.996,18.066,8.301,17.578,0.0,0
405,1581362108.03,18.066,20.996,21.973000000000003,20.996,0.0,0
406,1581362108.034,20.996,20.996,25.391,20.996,0.0,0
407,1581362108.0379999,17.578,10.254000000000001,23.438000000000002,16.602,0.0,0
408,1581362108.04,11.719000000000001,13.184000000000001,32.715,12.695,0.0,0
409,1581362108.044,13.672,29.785,32.227,12.695,0.0,0
410,1581362108.0479999,21.484,23.926,22.949,11.719000000000001,0.0,0
411,1581362108.052,22.949,17.578,25.391,8.301,0.0,0
412,1581362108.056,20.508000000000003,20.996,28.809,6.348,0.0,0
413,1581362108.06,16.113,19.043,26.855,9.277000000000001,0.0,0
414,1581362108.064,17.09,17.09,24.414,13.184000000000001,0.0,0
415,1581362108.0670002,27.344,23.438000000000002,28.809,14.648,0.0,0
416,1581362108.071,27.344,27.344,32.227,17.578,0.0,0
417,1581362108.075,20.508000000000003,24.414,23.438000000000002,21.484,0.0,0
418,1581362108.079,17.09,21.973000000000003,26.366999999999997,20.508000000000003,0.0,0
419,1581362108.083,22.461,24.901999999999997,31.738000000000003,17.09,0.0,0
420,1581362108.085,23.438000000000002,29.785,28.809,10.742,0.0,0
421,1581362108.089,14.648,28.32,23.926,8.789,0.0,0
422,1581362108.093,13.184000000000001,19.043,21.484,16.113,0.0,0
423,1581362108.0970001,22.949,22.949,15.625,16.602,0.0,0
424,1581362108.101,28.809,30.761999999999997,6.836,14.16,0.0,0
425,1581362108.105,21.973000000000003,28.809,4.395,16.602,0.0,0
426,1581362108.109,13.672,21.973000000000003,10.254000000000001,18.066,0.0,0
427,1581362108.1120002,16.602,16.602,20.508000000000003,26.855,0.0,0
428,1581362108.1160002,22.949,19.043,23.926,25.391,0.0,0
429,1581362108.12,21.484,25.879,17.09,26.366999999999997,0.0,0
430,1581362108.1239998,25.879,22.461,19.531,41.992,0.0,0
431,1581362108.1279998,29.296999999999997,17.578,20.996,31.738000000000003,0.0,0
432,1581362108.145,19.531,24.414,7.324,6.836,0.0,0
433,1581362108.149,14.16,20.996,1.953,0.488,0.0,0
434,1581362108.1529999,13.184000000000001,23.438000000000002,4.883,14.648,0.0,0
435,1581362108.157,11.719000000000001,24.901999999999997,4.883,16.113,0.0,0
436,1581362108.161,6.836,22.461,-2.441,2.441,0.0,0
437,1581362108.165,7.324,28.32,-7.812,0.977,0.0,0
438,1581362108.169,12.695,27.344,0.488,13.672,0.0,0
439,1581362108.1720002,12.207,16.602,7.324,17.09,0.0,0
440,1581362108.176,14.648,18.066,6.836,6.836,0.0,0
441,1581362108.18,21.973000000000003,20.996,0.977,8.301,0.0,0
442,1581362108.184,23.926,21.973000000000003,2.441,17.578,0.0,0
443,1581362108.188,19.043,32.227,15.625,14.648,0.0,0
444,1581362108.19,24.901999999999997,31.25,17.09,12.207,0.0,0
445,1581362108.194,29.296999999999997,20.02,15.137,11.719000000000001,0.0,0
446,1581362108.198,20.996,17.09,18.066,11.719000000000001,0.0,0
447,1581362108.2020001,18.066,19.531,20.996,23.926,0.0,0
448,1581362108.206,18.555,13.672,23.438000000000002,19.043,0.0,0
449,1581362108.21,27.344,22.949,21.973000000000003,16.113,0.0,0
450,1581362108.214,28.32,22.949,22.949,22.949,0.0,0
451,1581362108.217,17.09,9.277000000000001,27.344,24.414,0.0,0
452,1581362108.221,14.16,14.648,28.809,23.926,0.0,0
453,1581362108.225,20.996,27.831999999999997,25.879,22.949,0.0,0
454,1581362108.2289999,25.879,30.761999999999997,29.296999999999997,22.949,0.0,0
455,1581362108.2329998,19.531,20.508000000000003,27.344,14.648,0.0,0
456,1581362108.235,18.555,16.113,19.531,15.625,0.0,0
457,1581362108.2389998,28.809,20.996,15.625,21.973000000000003,0.0,0
458,1581362108.2429998,36.133,19.043,20.508000000000003,13.672,0.0,0
459,1581362108.2470002,30.761999999999997,15.137,20.508000000000003,13.184000000000001,0.0,0
460,1581362108.2510002,27.344,14.648,10.254000000000001,12.207,0.0,0
461,1581362108.255,33.691,20.996,14.16,14.648,0.0,0
462,1581362108.2589998,31.738000000000003,32.715,22.461,16.602,0.0,0
463,1581362108.262,25.391,29.296999999999997,26.855,15.625,0.0,0
464,1581362108.266,25.879,21.484,22.949,20.996,0.0,0
465,1581362108.27,23.926,23.926,16.113,12.695,0.0,0
466,1581362108.274,21.973000000000003,20.02,27.831999999999997,2.93,0.0,0
467,1581362108.2779999,29.296999999999997,22.949,33.203,12.695,0.0,0
468,1581362108.28,29.785,31.738000000000003,25.879,18.555,0.0,0
469,1581362108.284,25.879,26.366999999999997,25.391,19.531,0.0,0
470,1581362108.2879999,35.645,15.625,35.645,21.973000000000003,0.0,0
471,1581362108.292,39.062,18.555,36.621,16.602,0.0,0
472,1581362108.296,27.344,22.461,30.273000000000003,19.043,0.0,0
473,1581362108.3,27.344,25.391,36.133,31.25,0.0,0
474,1581362108.304,33.691,28.32,44.434,27.831999999999997,0.0,0
475,1581362108.3070002,34.18,27.344,41.016000000000005,12.207,0.0,0
476,1581362108.311,28.809,24.901999999999997,32.227,14.16,0.0,0
477,1581362108.315,20.02,26.366999999999997,34.668,19.043,0.0,0
478,1581362108.319,20.508000000000003,25.879,32.227,18.555,0.0,0
479,1581362108.323,27.344,16.113,18.066,23.438000000000002,0.0,0
480,1581362108.325,26.855,18.555,17.578,28.32,0.0,0
481,1581362108.329,23.926,14.648,22.461,25.879,0.0,0
482,1581362108.333,23.926,5.371,29.296999999999997,23.926,0.0,0
483,1581362108.3370001,20.508000000000003,12.207,29.785,28.32,0.0,0
484,1581362108.341,20.02,20.02,23.438000000000002,31.25,0.0,0
485,1581362108.345,20.02,30.273000000000003,19.043,29.785,0.0,0
486,1581362108.349,14.648,38.574,24.414,29.296999999999997,0.0,0
487,1581362108.3520002,20.996,35.645,22.461,23.438000000000002,0.0,0
488,1581362108.356,26.855,24.901999999999997,9.277000000000001,13.184000000000001,0.0,0
489,1581362108.36,16.113,18.066,11.23,9.277000000000001,0.0,0
490,1581362108.3639998,11.23,23.438000000000002,12.207,8.301,0.0,0
491,1581362108.3679998,22.949,30.761999999999997,11.719000000000001,10.254000000000001,0.0,0
492,1581362108.37,21.973000000000003,25.879,12.207,5.371,0.0,0
493,1581362108.3739998,8.789,24.414,11.719000000000001,1.465,0.0,0
494,1581362108.3779998,12.695,27.344,11.23,9.766,0.0,0
495,1581362108.3820002,16.113,19.043,4.883,16.113,0.0,0
496,1581362108.3860002,14.648,10.254000000000001,7.812,16.113,0.0,0
497,1581362108.39,16.602,9.277000000000001,16.602,20.02,0.0,0
498,1581362108.394,16.113,10.742,19.531,22.949,0.0,0
499,1581362108.397,14.648,11.719000000000001,27.831999999999997,21.973000000000003,0.0,0
500,1581362108.401,16.113,24.901999999999997,40.039,13.672,0.0,0
501,1581362108.405,15.625,29.296999999999997,38.086,11.23,0.0,0
502,1581362108.409,14.16,19.043,28.32,16.113,0.0,0
503,1581362108.4129999,14.648,21.484,20.508000000000003,17.578,0.0,0
504,1581362108.415,15.625,23.438000000000002,17.578,13.672,0.0,0
505,1581362108.419,18.555,20.508000000000003,17.09,8.301,0.0,0
506,1581362108.4229999,17.09,20.996,11.23,16.113,0.0,0
507,1581362108.427,13.672,19.043,12.695,25.391,0.0,0
508,1581362108.431,20.996,14.648,17.09,26.855,0.0,0
509,1581362108.435,31.738000000000003,19.043,18.555,31.25,0.0,0
510,1581362108.439,27.831999999999997,30.273000000000003,16.602,32.715,0.0,0
511,1581362108.4420002,12.695,33.203,13.184000000000001,33.691,0.0,0
512,1581362108.446,9.766,20.02,17.578,33.691,0.0,0
513,1581362108.45,19.043,7.324,21.484,34.668,0.0,0
514,1581362108.454,21.973000000000003,13.672,27.344,35.156,0.0,0
515,1581362108.458,17.09,13.184000000000001,29.296999999999997,41.504,0.0,0
516,1581362108.46,16.113,4.395,26.366999999999997,36.133,0.0,0
517,1581362108.464,23.926,5.859,23.926,24.414,0.0,0
518,1581362108.468,21.484,12.207,19.531,28.32,0.0,0
519,1581362108.4720001,9.766,29.296999999999997,14.648,28.32,0.0,0
520,1581362108.476,6.836,31.25,14.16,28.809,0.0,0
521,1581362108.48,14.16,18.555,14.16,26.855,0.0,0
522,1581362108.484,19.531,24.414,10.742,16.113,0.0,0
523,1581362108.4870002,16.113,28.809,12.207,12.695,0.0,0
524,1581362108.4910002,12.695,16.602,24.414,15.137,0.0,0
525,1581362108.495,15.137,13.672,24.901999999999997,16.113,0.0,0
526,1581362108.4989998,18.066,20.508000000000003,22.949,14.16,0.0,0
527,1581362108.5029998,11.719000000000001,25.879,28.32,7.812,0.0,0
528,1581362108.52,10.742,23.438000000000002,25.879,12.695,0.0,0
529,1581362108.524,17.09,16.113,16.602,19.043,0.0,0
530,1581362108.5279999,18.066,22.461,8.789,10.742,0.0,0
531,1581362108.532,15.137,23.438000000000002,6.348,7.324,0.0,0
532,1581362108.536,15.137,15.625,4.395,13.672,0.0,0
533,1581362108.54,15.625,13.672,0.977,13.672,0.0,0
534,1581362108.544,14.16,14.648,6.348,7.812,0.0,0
535,1581362108.5470002,18.555,20.02,17.09,3.906,0.0,0
536,1581362108.551,14.16,20.02,8.789,11.23,0.0,0
537,1581362108.555,9.277000000000001,11.719000000000001,3.906,25.391,0.0,0
538,1581362108.559,15.137,10.742,7.324,27.344,0.0,0
539,1581362108.563,23.926,16.113,7.324,18.555,0.0,0
540,1581362108.564,25.879,21.973000000000003,4.883,16.602,0.0,0
541,1581362108.5679998,16.113,11.719000000000001,15.625,17.578,0.0,0
542,1581362108.572,15.625,0.0,23.438000000000002,20.508000000000003,0.0,0
543,1581362108.576,23.926,15.625,18.555,20.996,0.0,0
544,1581362108.58,20.996,23.438000000000002,25.391,21.973000000000003,0.0,0
545,1581362108.5839999,15.625,22.461,25.391,19.531,0.0,0
546,1581362108.5879998,22.949,27.831999999999997,24.901999999999997,20.508000000000003,0.0,0
547,1581362108.591,31.25,21.973000000000003,30.761999999999997,17.09,0.0,0
548,1581362108.595,32.227,16.113,21.973000000000003,20.996,0.0,0
549,1581362108.599,30.761999999999997,26.366999999999997,9.277000000000001,23.438000000000002,0.0,0
550,1581362108.603,24.901999999999997,30.273000000000003,18.555,12.695,0.0,0
551,1581362108.607,28.32,27.344,25.879,11.719000000000001,0.0,0
552,1581362108.609,33.691,31.738000000000003,19.043,12.695,0.0,0
553,1581362108.613,25.879,32.715,20.02,10.742,0.0,0
554,1581362108.617,22.461,26.855,21.973000000000003,16.602,0.0,0
555,1581362108.621,20.508000000000003,16.602,19.531,16.113,0.0,0
556,1581362108.625,18.066,13.672,14.16,11.23,0.0,0
557,1581362108.629,15.137,14.648,16.602,20.996,0.0,0
558,1581362108.633,11.23,17.578,23.438000000000002,28.32,0.0,0
559,1581362108.6360002,17.578,27.344,20.508000000000003,23.438000000000002,0.0,0
560,1581362108.64,30.761999999999997,30.761999999999997,14.16,17.578,0.0,0
561,1581362108.644,32.715,21.484,17.578,18.555,0.0,0
562,1581362108.6479998,21.484,9.766,28.809,23.438000000000002,0.0,0
563,1581362108.6520002,17.578,7.812,20.996,25.391,0.0,0
564,1581362108.654,23.926,12.207,10.742,21.973000000000003,0.0,0
565,1581362108.658,21.484,13.672,12.207,19.531,0.0,0
566,1581362108.6620002,18.066,23.926,10.742,22.949,0.0,0
567,1581362108.6660001,19.043,30.273000000000003,4.395,25.391,0.0,0
568,1581362108.67,19.043,22.461,4.883,24.901999999999997,0.0,0
569,1581362108.674,25.391,18.066,12.695,28.809,0.0,2
570,1581362108.678,23.926,16.113,19.531,31.738000000000003,0.0,0
571,1581362108.681,19.043,17.578,17.09,34.18,0.0,0
572,1581362108.685,26.855,22.461,20.996,28.32,0.0,0
573,1581362108.689,29.785,26.366999999999997,27.344,21.484,0.0,0
574,1581362108.6929998,24.414,26.855,30.273000000000003,26.855,0.0,0
575,1581362108.697,22.949,22.461,29.296999999999997,31.25,0.0,0
576,1581362108.699,20.508000000000003,16.113,24.901999999999997,27.344,0.0,0
577,1581362108.7029998,24.414,17.09,23.438000000000002,21.973000000000003,0.0,0
578,1581362108.707,22.461,17.09,16.602,24.901999999999997,0.0,0
579,1581362108.711,17.578,5.371,11.719000000000001,25.391,0.0,0
580,1581362108.715,19.043,5.859,21.484,12.207,0.0,0
581,1581362108.7189999,20.508000000000003,18.066,28.809,6.348,0.0,0
582,1581362108.7229998,21.484,15.625,29.296999999999997,6.836,0.0,0
583,1581362108.726,15.625,16.113,20.02,9.277000000000001,0.0,0
584,1581362108.73,13.672,25.391,18.555,11.719000000000001,0.0,0
585,1581362108.734,20.508000000000003,21.484,30.273000000000003,12.695,0.0,0
586,1581362108.738,25.391,15.137,27.831999999999997,14.16,0.0,0
587,1581362108.742,22.949,22.461,23.926,14.648,0.0,0
588,1581362108.744,22.461,26.855,21.973000000000003,23.438000000000002,0.0,0
589,1581362108.748,27.344,21.973000000000003,21.973000000000003,21.973000000000003,0.0,0
590,1581362108.752,32.227,24.414,22.949,17.578,0.0,0
591,1581362108.756,31.738000000000003,28.809,20.02,23.438000000000002,0.0,0
592,1581362108.76,22.949,22.461,14.648,21.973000000000003,0.0,0
593,1581362108.764,17.578,20.508000000000003,14.16,19.043,0.0,0
594,1581362108.768,19.043,20.508000000000003,14.16,12.207,0.0,0
595,1581362108.7710001,24.901999999999997,21.973000000000003,4.883,4.395,0.0,0
596,1581362108.775,23.438000000000002,26.855,3.906,12.207,0.0,0
597,1581362108.779,20.02,31.738000000000003,14.16,20.508000000000003,0.0,0
598,1581362108.783,30.761999999999997,36.133,16.113,20.02,0.0,0
599,1581362108.7870002,44.434,30.761999999999997,11.23,20.996,0.0,0
600,1581362108.789,32.715,14.16,16.602,20.996,0.0,0
601,1581362108.793,2.93,4.395,25.391,11.23,0.0,0
602,1581362108.7970002,1.465,12.207,25.879,6.348,0.0,0
603,1581362108.801,13.184000000000001,24.414,15.625,11.23,0.0,0
604,1581362108.805,14.648,22.949,13.672,13.184000000000001,0.0,0
605,1581362108.809,10.742,21.484,10.254000000000001,12.695,0.0,0
606,1581362108.813,7.812,24.901999999999997,2.441,6.348,0.0,0
607,1581362108.816,10.742,16.113,6.348,1.953,0.0,0
608,1581362108.82,13.184000000000001,18.066,25.879,6.836,0.0,0
609,1581362108.824,15.625,21.484,29.785,14.648,0.0,0
610,1581362108.8279998,23.438000000000002,7.324,24.901999999999997,18.555,0.0,0
611,1581362108.832,34.18,10.254000000000001,27.831999999999997,19.043,0.0,0
612,1581362108.8339999,30.761999999999997,23.926,29.296999999999997,20.508000000000003,0.0,0
613,1581362108.8379998,20.508000000000003,25.391,30.761999999999997,26.855,0.0,0
614,1581362108.842,21.973000000000003,20.02,27.344,28.809,0.0,0
615,1581362108.846,28.32,16.113,23.438000000000002,23.926,0.0,0
616,1581362108.85,28.32,16.602,30.273000000000003,23.926,0.0,0
617,1581362108.8539999,20.996,16.113,26.366999999999997,28.809,0.0,0
618,1581362108.8579998,17.09,21.973000000000003,16.602,20.02,0.0,0
619,1581362108.861,21.973000000000003,18.066,23.926,10.254000000000001,0.0,0
620,1581362108.865,29.296999999999997,13.184000000000001,21.973000000000003,20.02,0.0,0
621,1581362108.869,28.809,24.901999999999997,17.09,31.25,0.0,0
622,1581362108.873,24.414,32.227,22.949,30.761999999999997,0.0,0
623,1581362108.877,19.043,26.855,23.438000000000002,21.973000000000003,0.0,0
624,1581362108.895,18.555,19.531,19.043,18.066,0.0,0
625,1581362108.899,23.438000000000002,30.273000000000003,16.602,21.973000000000003,0.0,0
626,1581362108.9029999,22.949,36.133,16.602,28.32,0.0,0
627,1581362108.907,19.531,32.227,13.672,25.879,0.0,0
628,1581362108.911,23.926,23.926,15.625,20.996,0.0,0
629,1581362108.915,29.785,15.137,18.555,21.973000000000003,0.0,0
630,1581362108.919,23.926,13.672,15.625,24.414,0.0,0
631,1581362108.9220002,20.02,18.066,27.831999999999997,26.855,0.0,0
632,1581362108.926,23.438000000000002,24.414,39.551,23.438000000000002,0.0,0
633,1581362108.93,24.414,25.879,38.086,20.508000000000003,0.0,0
634,1581362108.934,20.02,19.043,35.156,17.578,0.0,0
635,1581362108.938,16.113,14.16,41.016000000000005,15.625,0.0,0
636,1581362108.94,20.996,18.555,44.434,19.531,0.0,0
637,1581362108.944,23.438000000000002,27.831999999999997,40.527,19.043,0.0,0
638,1581362108.948,19.043,32.715,37.598,18.066,0.0,0
639,1581362108.9520001,18.555,34.18,38.086,18.066,0.0,0
640,1581362108.956,20.996,32.715,35.645,20.02,0.0,0
641,1581362108.96,25.391,24.901999999999997,31.25,21.973000000000003,0.0,0
642,1581362108.964,24.901999999999997,16.113,30.273000000000003,13.184000000000001,0.0,0
643,1581362108.967,20.996,11.719000000000001,35.156,13.672,0.0,0
644,1581362108.971,21.484,11.23,32.715,18.555,0.0,0
645,1581362108.975,30.761999999999997,16.113,19.531,14.16,0.0,0
646,1581362108.9789999,32.715,25.391,32.227,14.16,0.0,0
647,1581362108.9829998,22.461,22.949,46.387,17.578,0.0,0
648,1581362108.985,18.555,3.906,41.016000000000005,19.531,0.0,0
649,1581362108.9889998,21.973000000000003,5.371,36.133,10.254000000000001,0.0,0
650,1581362108.9929998,24.414,19.043,32.227,7.812,0.0,0
651,1581362108.9970002,22.461,27.831999999999997,27.831999999999997,17.09,0.0,0
652,1581362109.0010002,19.531,35.645,27.831999999999997,18.555,0.0,0
653,1581362109.005,24.901999999999997,36.133,26.855,20.02,0.0,0
654,1581362109.0089998,31.25,24.414,26.366999999999997,15.625,0.0,0
655,1581362109.012,31.25,22.949,32.715,14.648,0.0,0
656,1581362109.016,23.438000000000002,27.831999999999997,22.461,17.578,0.0,0
657,1581362109.02,20.996,20.02,16.113,18.555,0.0,0
658,1581362109.024,28.32,19.531,24.414,19.531,0.0,0
659,1581362109.0279999,26.855,22.949,14.648,16.602,0.0,0
660,1581362109.03,24.414,23.926,21.484,22.949,0.0,0
661,1581362109.034,23.926,18.555,27.344,24.901999999999997,0.0,0
662,1581362109.0379999,21.973000000000003,18.066,16.602,18.066,0.0,0
663,1581362109.042,25.879,19.531,19.531,19.043,0.0,0
664,1581362109.046,20.02,10.254000000000001,19.531,19.043,0.0,0
665,1581362109.05,18.555,21.973000000000003,14.648,21.484,0.0,0
666,1581362109.054,29.296999999999997,32.715,9.766,17.578,0.0,0
667,1581362109.0570002,31.738000000000003,22.949,8.301,12.207,0.0,0
668,1581362109.061,22.949,18.066,9.277000000000001,16.113,0.0,0
669,1581362109.065,23.926,28.809,15.625,25.879,0.0,0
670,1581362109.069,33.203,32.715,20.996,32.715,0.0,0
671,1581362109.073,37.109,19.043,14.16,22.949,0.0,0
672,1581362109.075,38.574,15.137,5.371,22.461,0.0,0
673,1581362109.079,32.715,27.344,8.301,30.761999999999997,0.0,0
674,1581362109.083,23.926,35.156,10.742,28.32,0.0,0
675,1581362109.0870001,29.296999999999997,32.227,14.648,24.414,0.0,0
676,1581362109.091,29.296999999999997,30.761999999999997,29.296999999999997,28.809,0.0,0
677,1581362109.095,23.926,30.761999999999997,27.831999999999997,34.18,0.0,0
678,1581362109.099,24.414,32.715,20.02,36.133,0.0,0
679,1581362109.1020002,27.831999999999997,31.25,18.066,33.203,0.0,0
680,1581362109.106,32.715,28.809,23.926,31.738000000000003,0.0,0
681,1581362109.11,26.855,34.18,27.344,35.645,0.0,0
682,1581362109.1139998,23.438000000000002,33.203,26.366999999999997,38.574,0.0,0
683,1581362109.1179998,34.18,29.785,30.273000000000003,40.039,0.0,0
684,1581362109.12,36.133,24.414,28.809,32.715,0.0,0
685,1581362109.1239998,25.879,8.789,23.926,27.831999999999997,0.0,0
686,1581362109.1279998,22.461,19.531,20.996,32.227,0.0,0
687,1581362109.1320002,26.366999999999997,38.086,16.602,32.227,0.0,0
688,1581362109.1360002,29.296999999999997,32.227,17.578,23.438000000000002,0.0,0
689,1581362109.14,24.901999999999997,29.785,21.973000000000003,19.531,0.0,0
690,1581362109.144,19.043,35.645,25.879,25.391,0.0,0
691,1581362109.147,20.508000000000003,31.25,23.926,21.484,0.0,0
692,1581362109.151,24.414,23.926,34.18,15.625,0.0,0
693,1581362109.155,22.949,24.901999999999997,41.504,16.602,0.0,0
694,1581362109.159,13.184000000000001,30.761999999999997,27.344,17.578,0.0,0
695,1581362109.1629999,10.254000000000001,27.831999999999997,19.043,20.996,0.0,0
696,1581362109.165,16.113,19.531,16.113,18.555,0.0,0
697,1581362109.169,22.949,10.742,10.742,24.901999999999997,0.0,0
698,1581362109.1729999,21.484,12.695,9.766,32.227,0.0,0
699,1581362109.177,20.508000000000003,31.25,12.207,31.25,0.0,0
700,1581362109.181,28.32,33.691,16.113,41.504,0.0,0
701,1581362109.185,35.156,18.555,17.09,44.922,0.0,0
702,1581362109.189,25.391,26.855,14.648,25.391,0.0,0
703,1581362109.1920002,13.672,41.016000000000005,18.066,10.254000000000001,0.0,0
704,1581362109.196,19.043,36.133,32.227,11.23,0.0,0
705,1581362109.2,24.901999999999997,28.809,38.086,15.137,0.0,0
706,1581362109.204,20.02,18.555,43.945,18.555,0.0,0
707,1581362109.208,10.742,17.09,42.968999999999994,21.973000000000003,0.0,0
708,1581362109.21,16.113,27.344,38.574,23.926,0.0,0
709,1581362109.214,31.25,26.366999999999997,31.25,25.391,0.0,0
710,1581362109.218,35.156,23.438000000000002,23.926,26.855,0.0,0
711,1581362109.2220001,24.901999999999997,17.578,27.344,28.32,0.0,0
712,1581362109.226,17.578,17.09,30.761999999999997,30.761999999999997,0.0,0
713,1581362109.23,22.461,30.761999999999997,33.203,29.785,0.0,0
714,1581362109.234,30.761999999999997,34.18,35.156,22.461,0.0,0
715,1581362109.2370002,29.785,26.366999999999997,46.387,25.391,0.0,0
716,1581362109.2410002,22.949,29.785,57.617,31.738000000000003,0.0,0
717,1581362109.245,23.438000000000002,30.761999999999997,44.922,24.414,0.0,0
718,1581362109.2489998,32.715,21.484,43.945,18.066,0.0,0
719,1581362109.2529998,33.203,19.531,47.363,24.901999999999997,0.0,0
720,1581362109.27,30.761999999999997,30.273000000000003,39.062,31.738000000000003,0.0,0
721,1581362109.274,29.785,32.227,39.062,33.203,0.0,0
722,1581362109.2779999,30.273000000000003,24.414,43.457,32.715,0.0,0
723,1581362109.282,31.25,29.785,43.945,34.18,0.0,0
724,1581362109.286,28.809,22.949,41.504,34.18,0.0,0
725,1581362109.29,27.831999999999997,23.926,34.18,33.691,0.0,0
726,1581362109.294,27.831999999999997,40.039,28.32,29.296999999999997,0.0,0
727,1581362109.2970002,31.738000000000003,40.039,33.691,29.296999999999997,0.0,0
728,1581362109.301,34.18,28.809,33.203,27.831999999999997,0.0,0
729,1581362109.305,27.344,25.879,24.901999999999997,22.949,0.0,0
730,1581362109.309,26.366999999999997,26.366999999999997,18.066,17.09,0.0,0
731,1581362109.313,34.18,20.02,24.901999999999997,18.066,0.0,0
732,1581362109.315,37.109,19.531,17.578,24.414,0.0,0
733,1581362109.319,33.203,22.949,5.371,26.855,0.0,0
734,1581362109.323,37.598,26.366999999999997,3.418,29.785,0.0,0
735,1581362109.3270001,43.457,24.414,7.324,28.32,0.0,0
736,1581362109.331,32.715,28.809,5.371,24.901999999999997,0.0,0
737,1581362109.335,27.831999999999997,22.949,-1.465,32.715,0.0,0
738,1581362109.339,34.668,6.836,-0.977,32.715,0.0,0
739,1581362109.342,37.598,22.461,4.395,25.391,0.0,0
740,1581362109.346,37.598,36.133,6.836,29.785,0.0,0
741,1581362109.35,31.738000000000003,29.785,2.93,27.831999999999997,0.0,0
742,1581362109.3539999,27.344,30.273000000000003,12.207,23.926,0.0,0
743,1581362109.3579998,30.273000000000003,32.715,27.344,22.461,0.0,0
744,1581362109.361,31.738000000000003,36.621,26.366999999999997,20.508000000000003,0.0,0
745,1581362109.365,27.831999999999997,21.973000000000003,21.973000000000003,24.901999999999997,0.0,0
746,1581362109.369,23.926,20.996,24.414,33.203,0.0,0
747,1581362109.373,27.344,29.785,19.043,30.273000000000003,0.0,0
748,1581362109.377,38.086,23.438000000000002,10.742,28.809,0.0,0
749,1581362109.381,33.203,19.531,10.254000000000001,27.344,0.0,0
750,1581362109.385,22.461,13.672,17.09,19.531,0.0,0
751,1581362109.3879998,25.391,19.043,28.32,17.09,0.0,0
752,1581362109.3920002,31.25,31.25,25.879,15.625,0.0,0
753,1581362109.3960001,26.855,33.203,20.02,10.254000000000001,0.0,0
754,1581362109.4,16.602,28.32,34.18,14.648,0.0,0
755,1581362109.404,18.555,31.25,37.598,20.508000000000003,0.0,0
756,1581362109.405,23.926,37.109,33.203,16.113,0.0,0
757,1581362109.409,26.366999999999997,35.156,37.109,20.508000000000003,0.0,0
758,1581362109.4129999,22.461,26.855,30.761999999999997,23.438000000000002,0.0,0
759,1581362109.417,20.508000000000003,25.879,25.879,18.555,0.0,0
760,1581362109.421,28.32,26.855,31.738000000000003,27.831999999999997,0.0,0
761,1581362109.425,30.273000000000003,20.02,31.25,31.25,0.0,0
762,1581362109.429,23.438000000000002,16.602,35.645,26.366999999999997,0.0,0
763,1581362109.4320002,21.973000000000003,18.066,34.18,24.414,0.0,0
764,1581362109.436,26.366999999999997,26.855,33.691,21.484,0.0,0
765,1581362109.44,21.484,37.598,41.992,20.02,0.0,0
766,1581362109.444,7.812,33.203,40.039,17.09,0.0,0
767,1581362109.448,0.977,29.785,27.831999999999997,20.508000000000003,0.0,0
768,1581362109.45,10.254000000000001,34.18,19.531,20.02,0.0,0
769,1581362109.454,19.043,33.691,23.926,12.207,0.0,0
770,1581362109.458,20.508000000000003,31.25,20.02,16.113,0.0,0
771,1581362109.4620001,20.02,27.344,16.113,20.996,0.0,0
772,1581362109.466,17.09,23.926,17.09,23.438000000000002,0.0,0
773,1581362109.47,23.438000000000002,21.973000000000003,20.996,23.438000000000002,0.0,0
774,1581362109.474,23.926,28.809,27.344,15.625,0.0,0
775,1581362109.4770002,15.137,26.855,17.09,15.625,0.0,0
776,1581362109.481,10.254000000000001,17.09,19.043,18.555,0.0,0
777,1581362109.485,16.113,27.344,39.062,24.901999999999997,0.0,0
778,1581362109.4889998,25.879,31.738000000000003,45.898,31.738000000000003,0.0,0
779,1581362109.4929998,18.066,30.273000000000003,33.203,20.02,0.0,0
780,1581362109.495,-2.441,29.296999999999997,13.672,0.977,0.0,0
781,1581362109.4989998,-1.953,31.25,10.254000000000001,-9.277000000000001,0.0,0
782,1581362109.5029998,14.16,33.203,10.254000000000001,0.488,0.0,0
783,1581362109.5070002,9.277000000000001,31.738000000000003,6.836,-1.465,0.0,0
784,1581362109.5110002,-0.488,27.831999999999997,-1.953,-3.418,0.0,0
785,1581362109.515,10.254000000000001,30.761999999999997,-7.812,9.766,0.0,0
786,1581362109.519,23.438000000000002,40.039,-2.441,14.648,0.0,0
787,1581362109.522,26.366999999999997,34.668,-10.254000000000001,11.719000000000001,0.0,0
788,1581362109.526,27.344,27.344,-5.371,16.602,0.0,0
789,1581362109.53,25.391,24.901999999999997,5.371,24.414,0.0,0
790,1581362109.534,25.391,20.508000000000003,6.348,20.996,0.0,0
791,1581362109.5379999,28.32,19.531,10.254000000000001,16.113,0.0,0
792,1581362109.539,23.438000000000002,24.414,14.16,17.09,0.0,0
793,1581362109.543,26.366999999999997,19.531,16.602,20.508000000000003,0.0,0
794,1581362109.5470002,33.203,19.043,10.742,21.484,0.0,0
795,1581362109.551,32.227,24.414,6.348,20.996,0.0,0
796,1581362109.555,28.809,25.391,0.0,21.973000000000003,0.0,0
797,1581362109.559,25.879,33.203,-6.836,24.901999999999997,0.0,0
798,1581362109.563,31.25,32.227,-1.953,24.901999999999997,0.0,0
799,1581362109.566,40.039,25.391,9.277000000000001,20.02,0.0,0
800,1581362109.57,36.621,28.32,19.531,22.461,0.0,0
801,1581362109.574,33.203,30.273000000000003,18.066,24.901999999999997,0.0,0
802,1581362109.5779998,37.109,29.296999999999997,11.23,17.578,0.0,0
803,1581362109.582,35.645,23.438000000000002,7.812,11.23,0.0,0
804,1581362109.5839999,33.691,22.949,12.695,11.23,0.0,0
805,1581362109.5879998,25.879,24.414,15.625,15.137,0.0,0
806,1581362109.592,18.555,26.366999999999997,13.184000000000001,18.066,0.0,0
807,1581362109.596,25.391,32.227,20.02,22.461,0.0,0
808,1581362109.6,32.227,30.761999999999997,26.855,16.602,0.0,0
809,1581362109.6039999,21.484,25.879,28.32,15.137,0.0,0
810,1581362109.6079998,11.23,23.926,21.484,19.531,0.0,0
811,1581362109.611,12.207,28.32,26.855,10.254000000000001,0.0,0
812,1581362109.615,15.137,26.366999999999997,34.18,8.789,0.0,0
813,1581362109.619,14.648,20.996,23.926,16.113,0.0,0
814,1581362109.623,10.254000000000001,18.555,24.414,16.602,0.0,0
815,1581362109.627,17.578,13.672,33.203,20.996,0.0,0
816,1581362109.629,29.296999999999997,12.207,35.156,26.855,0.0,0
817,1581362109.633,23.438000000000002,17.578,31.25,26.366999999999997,0.0,0
818,1581362109.637,13.184000000000001,24.901999999999997,30.761999999999997,26.855,0.0,0
819,1581362109.641,18.066,26.366999999999997,32.227,26.855,0.0,0
820,1581362109.645,23.438000000000002,23.438000000000002,30.273000000000003,26.366999999999997,0.0,0
821,1581362109.649,22.461,23.438000000000002,20.508000000000003,23.926,0.0,0
822,1581362109.6529999,20.996,26.366999999999997,17.09,20.02,0.0,0
823,1581362109.6560001,19.043,23.438000000000002,23.438000000000002,18.066,0.0,0
824,1581362109.66,24.901999999999997,18.555,23.926,19.531,0.0,0
825,1581362109.664,29.296999999999997,17.09,27.831999999999997,20.02,0.0,0
826,1581362109.668,22.461,13.672,26.855,16.602,0.0,0
827,1581362109.6720002,18.555,11.23,29.785,17.578,0.0,0
828,1581362109.689,20.02,10.742,31.738000000000003,13.672,0.0,0
829,1581362109.6929998,23.438000000000002,17.09,30.273000000000003,2.93,0.0,0
830,1581362109.697,16.602,23.926,26.855,2.93,0.0,0
831,1581362109.701,14.16,29.785,27.344,9.766,0.0,0
832,1581362109.705,25.391,25.879,29.785,14.648,0.0,0
833,1581362109.7089999,32.715,15.137,22.461,16.602,0.0,0
834,1581362109.7129998,33.691,20.508000000000003,26.366999999999997,21.973000000000003,0.0,0
835,1581362109.716,29.296999999999997,24.414,29.785,23.438000000000002,0.0,0
836,1581362109.72,26.366999999999997,21.484,22.461,30.273000000000003,0.0,0
837,1581362109.724,32.227,20.508000000000003,20.996,27.344,0.0,0
838,1581362109.728,31.25,10.254000000000001,28.32,18.066,0.0,0
839,1581362109.732,20.02,9.766,23.438000000000002,23.438000000000002,0.0,0
840,1581362109.734,14.16,23.438000000000002,4.883,23.926,0.0,0
841,1581362109.738,19.531,34.18,2.441,20.508000000000003,0.0,1
842,1581362109.742,25.879,37.598,8.789,24.414,0.0,0
843,1581362109.746,21.484,41.504,9.766,23.926,0.0,0
844,1581362109.75,12.207,34.668,8.301,15.137,0.0,0
845,1581362109.754,12.695,18.066,7.812,10.742,0.0,0
846,1581362109.758,19.043,15.625,9.766,10.742,0.0,0
847,1581362109.7610002,19.043,21.973000000000003,6.348,13.672,0.0,0
848,1581362109.765,17.09,20.508000000000003,2.441,17.578,0.0,0
849,1581362109.769,20.996,14.648,12.695,23.926,0.0,0
850,1581362109.7729998,29.785,15.137,26.855,23.926,0.0,0
851,1581362109.7770002,28.809,17.09,18.555,17.578,0.0,0
852,1581362109.779,20.02,23.926,9.277000000000001,19.531,0.0,0
853,1581362109.783,19.043,34.18,-0.488,20.508000000000003,0.0,0
854,1581362109.7870002,23.438000000000002,38.574,0.0,15.625,0.0,0
855,1581362109.7910001,21.973000000000003,33.691,10.254000000000001,16.602,0.0,0
856,1581362109.795,13.672,28.809,14.16,22.949,0.0,0
857,1581362109.799,12.207,25.879,16.113,24.901999999999997,0.0,0
858,1581362109.803,22.949,24.901999999999997,13.184000000000001,17.578,0.0,0
859,1581362109.806,34.668,22.461,5.371,17.578,0.0,0
860,1581362109.81,39.062,20.996,-10.254000000000001,29.296999999999997,0.0,0
861,1581362109.814,25.879,21.973000000000003,-1.465,31.738000000000003,0.0,0
862,1581362109.8179998,3.418,16.602,7.812,13.184000000000001,0.0,0
863,1581362109.822,1.953,12.207,4.883,3.418,0.0,0
864,1581362109.824,11.23,16.113,9.766,16.602,0.0,0
865,1581362109.8279998,10.742,13.672,7.812,27.344,0.0,0
866,1581362109.832,15.137,17.578,7.812,21.973000000000003,0.0,0
867,1581362109.836,23.438000000000002,33.691,8.301,6.348,0.0,0
868,1581362109.84,22.949,38.086,8.789,-0.977,0.0,0
869,1581362109.8439999,16.602,31.25,13.184000000000001,11.719000000000001,0.0,0
870,1581362109.8479998,16.602,26.366999999999997,13.184000000000001,20.508000000000003,0.0,0
871,1581362109.851,25.879,21.484,7.324,20.02,0.0,0
872,1581362109.855,24.901999999999997,21.484,11.23,19.043,0.0,0
873,1581362109.859,16.602,21.973000000000003,20.508000000000003,13.672,0.0,0
874,1581362109.863,9.277000000000001,19.043,10.742,12.695,0.0,0
875,1581362109.867,9.766,19.531,4.883,14.648,0.0,0
876,1581362109.869,17.578,24.414,14.648,13.672,0.0,0
877,1581362109.873,18.555,19.043,20.02,20.508000000000003,0.0,0
878,1581362109.877,11.23,12.207,18.555,24.901999999999997,0.0,0
879,1581362109.881,14.16,19.531,14.648,17.09,0.0,0
880,1581362109.885,26.366999999999997,27.831999999999997,15.625,16.113,0.0,0
881,1581362109.889,32.227,26.855,18.066,27.344,0.0,0
882,1581362109.893,28.32,27.344,21.484,34.18,0.0,0
883,1581362109.8960001,20.996,27.344,18.066,22.949,0.0,0
884,1581362109.9,19.043,20.508000000000003,19.531,12.695,0.0,0
885,1581362109.904,19.043,20.996,24.901999999999997,11.719000000000001,0.0,0
886,1581362109.908,13.672,25.391,19.043,17.09,0.0,0
887,1581362109.9120002,10.254000000000001,25.391,15.625,23.926,0.0,0
888,1581362109.914,14.648,23.926,24.414,16.602,0.0,0
889,1581362109.918,17.578,20.02,33.203,17.578,0.0,0
890,1581362109.9220002,13.672,13.184000000000001,29.785,20.996,0.0,0
891,1581362109.926,17.09,16.602,28.32,25.879,0.0,0
892,1581362109.93,27.831999999999997,27.831999999999997,28.809,29.296999999999997,0.0,0
893,1581362109.934,34.18,32.715,22.949,22.461,0.0,0
894,1581362109.938,27.831999999999997,38.574,14.16,22.461,0.0,0
895,1581362109.941,12.207,25.391,8.789,20.02,0.0,0
896,1581362109.945,8.789,14.648,17.578,15.625,0.0,0
897,1581362109.949,20.996,14.648,17.578,10.742,0.0,0
898,1581362109.9529998,24.414,13.672,13.184000000000001,6.836,0.0,0
899,1581362109.957,15.137,14.16,20.02,13.672,0.0,0
900,1581362109.96,19.043,13.184000000000001,25.879,17.09,0.0,0
901,1581362109.964,26.855,20.508000000000003,23.438000000000002,15.625,0.0,0
902,1581362109.968,24.414,21.484,29.785,19.531,0.0,0
903,1581362109.9720001,17.578,21.484,33.203,24.414,0.0,0
904,1581362109.976,14.16,23.926,27.344,28.32,0.0,0
905,1581362109.98,21.484,26.366999999999997,23.438000000000002,27.344,0.0,0
906,1581362109.984,27.831999999999997,24.901999999999997,22.461,28.809,0.0,0
907,1581362109.9870002,20.508000000000003,25.391,27.831999999999997,23.926,0.0,0
908,1581362109.9910002,9.277000000000001,28.32,30.761999999999997,16.602,0.0,0
909,1581362109.995,12.695,22.461,18.066,18.555,0.0,0
910,1581362109.9989998,18.066,17.578,14.648,17.09,0.0,0
911,1581362110.0029998,15.137,17.578,20.508000000000003,11.719000000000001,0.0,0
912,1581362110.005,9.277000000000001,22.461,21.484,15.137,0.0,0
913,1581362110.0089998,9.766,22.949,22.461,11.719000000000001,0.0,0
914,1581362110.0129998,18.555,19.043,22.949,10.742,0.0,0
915,1581362110.0170002,15.625,28.809,23.438000000000002,17.09,0.0,0
916,1581362110.0210001,5.371,26.855,26.855,17.578,0.0,0
917,1581362110.025,9.277000000000001,17.09,20.996,20.996,0.0,0
918,1581362110.029,19.043,23.438000000000002,13.184000000000001,16.602,0.0,0
919,1581362110.032,20.996,25.879,26.366999999999997,13.184000000000001,0.0,0
920,1581362110.036,17.09,29.785,31.738000000000003,20.996,0.0,0
921,1581362110.04,11.719000000000001,32.715,32.227,26.855,0.0,0
922,1581362110.044,19.531,24.901999999999997,46.875,25.879,0.0,0
923,1581362110.0479999,28.809,21.484,52.246,21.973000000000003,0.0,0
924,1581362110.065,25.391,20.508000000000003,46.875,28.809,0.0,0
925,1581362110.069,19.531,17.578,35.645,31.25,0.0,0
926,1581362110.073,21.973000000000003,21.973000000000003,28.32,22.461,0.0,0
927,1581362110.0770001,22.461,23.926,34.18,17.09,0.0,0
928,1581362110.081,14.16,21.484,37.598,16.602,0.0,0
929,1581362110.085,13.184000000000001,21.484,36.621,17.09,0.0,0
930,1581362110.089,14.648,23.926,38.574,17.09,0.0,0
931,1581362110.092,23.926,29.296999999999997,38.574,18.555,0.0,0
932,1581362110.096,25.391,23.926,30.761999999999997,17.09,0.0,0
933,1581362110.1,15.137,16.113,27.831999999999997,16.113,0.0,0
934,1581362110.1039999,15.625,21.484,30.761999999999997,20.996,0.0,0
935,1581362110.1079998,20.996,27.344,28.32,14.648,0.0,0
936,1581362110.11,23.438000000000002,27.344,28.809,11.719000000000001,0.0,0
937,1581362110.1139998,20.996,25.879,27.831999999999997,16.113,0.0,0
938,1581362110.1179998,16.602,20.508000000000003,24.414,7.812,0.0,0
939,1581362110.1220002,23.926,11.23,26.855,8.301,0.0,0
940,1581362110.1260002,32.715,9.277000000000001,26.366999999999997,13.672,0.0,0
941,1581362110.13,28.809,8.301,17.578,17.09,0.0,0
942,1581362110.1339998,19.531,15.625,14.648,16.113,0.0,0
943,1581362110.137,23.438000000000002,20.996,13.184000000000001,17.578,0.0,0
944,1581362110.141,34.668,15.625,6.348,22.461,0.0,0
945,1581362110.145,30.761999999999997,20.02,10.742,22.461,0.0,0
946,1581362110.149,19.043,23.438000000000002,20.996,24.414,0.0,0
947,1581362110.1529999,18.066,27.831999999999997,15.137,24.901999999999997,0.0,0
948,1581362110.155,30.761999999999997,32.227,6.836,22.949,0.0,0
949,1581362110.159,30.761999999999997,28.32,0.0,24.901999999999997,0.0,0
950,1581362110.1629999,23.438000000000002,24.414,-0.977,28.809,0.0,0
951,1581362110.167,25.879,29.296999999999997,0.977,26.855,0.0,0
952,1581362110.171,35.645,30.761999999999997,0.488,27.831999999999997,0.0,0
953,1581362110.175,40.039,22.461,6.348,29.296999999999997,0.0,0
954,1581362110.179,27.831999999999997,23.438000000000002,13.184000000000001,26.366999999999997,0.0,0
955,1581362110.1820002,21.484,29.296999999999997,14.648,28.809,0.0,0
956,1581362110.186,29.785,21.973000000000003,16.113,26.366999999999997,0.0,0
957,1581362110.19,28.809,16.602,20.508000000000003,14.648,0.0,0
958,1581362110.194,18.555,23.438000000000002,24.414,14.16,0.0,0
959,1581362110.198,15.625,24.414,17.578,22.949,0.0,0
960,1581362110.2,17.578,25.879,14.16,21.484,0.0,0
961,1581362110.204,25.879,28.809,20.02,22.461,0.0,0
962,1581362110.208,28.809,31.25,25.391,24.414,0.0,0
963,1581362110.2120001,20.02,20.02,20.02,19.043,0.0,0
964,1581362110.216,19.531,10.742,13.184000000000001,18.066,0.0,0
965,1581362110.22,26.855,14.648,6.836,17.09,0.0,0
966,1581362110.224,31.25,17.09,15.137,23.926,0.0,0
967,1581362110.2270002,35.156,23.438000000000002,29.296999999999997,29.785,0.0,0
968,1581362110.231,26.366999999999997,35.156,28.32,26.855,0.0,0
969,1581362110.235,24.414,35.156,31.738000000000003,22.949,0.0,0
970,1581362110.2389998,27.831999999999997,31.25,26.366999999999997,17.578,0.0,0
971,1581362110.2429998,20.508000000000003,24.414,24.901999999999997,21.484,0.0,0
972,1581362110.245,14.16,10.742,25.391,22.949,0.0,0
973,1581362110.2489998,20.508000000000003,16.113,21.973000000000003,24.414,0.0,0
974,1581362110.2529998,27.831999999999997,30.273000000000003,18.066,24.414,0.0,0
975,1581362110.2570002,24.901999999999997,33.203,17.578,24.901999999999997,0.0,0
976,1581362110.2610002,21.484,33.691,20.508000000000003,27.344,0.0,0
977,1581362110.265,22.949,35.156,17.578,13.672,0.0,0
978,1581362110.269,25.391,27.344,14.16,7.812,0.0,0
979,1581362110.272,21.973000000000003,20.02,3.418,15.137,0.0,0
980,1581362110.276,16.602,17.09,7.324,14.16,0.0,0
981,1581362110.28,20.996,7.812,20.02,18.066,0.0,0
982,1581362110.284,25.879,9.277000000000001,20.508000000000003,19.043,0.0,0
983,1581362110.2879999,26.366999999999997,25.879,19.043,14.16,0.0,0
984,1581362110.29,20.996,24.414,12.695,20.508000000000003,0.0,0
985,1581362110.294,11.719000000000001,14.16,1.953,16.602,0.0,0
986,1581362110.2979999,15.137,10.742,3.906,6.348,0.0,0
987,1581362110.302,21.484,16.113,9.277000000000001,6.348,0.0,0
988,1581362110.306,18.066,22.461,11.719000000000001,7.324,0.0,0
989,1581362110.31,11.719000000000001,25.391,9.766,9.766,0.0,0
990,1581362110.314,17.578,23.438000000000002,1.465,10.742,0.0,0
991,1581362110.3170002,26.366999999999997,9.766,-0.488,8.789,0.0,0
992,1581362110.321,22.949,9.766,13.672,13.184000000000001,0.0,0
993,1581362110.325,20.508000000000003,21.484,17.578,16.602,0.0,0
994,1581362110.329,12.207,17.578,7.812,18.066,0.0,0
995,1581362110.333,11.23,12.695,4.395,17.09,0.0,0
996,1581362110.335,19.531,19.043,5.859,16.113,0.0,0
997,1581362110.339,14.16,17.09,3.906,14.648,0.0,0
998,1581362110.343,4.395,18.066,3.418,15.137,0.0,0
999,1581362110.3470001,8.789,27.831999999999997,5.859,20.996,0.0,0
1000,1581362110.351,17.578,24.901999999999997,2.93,13.184000000000001,0.0,0
1001,1581362110.355,13.672,16.602,1.953,14.648,0.0,0
1002,1581362110.359,11.23,12.695,-3.906,18.555,0.0,0
1003,1581362110.3620002,15.137,18.555,-1.953,13.184000000000001,0.0,0
1004,1581362110.3660002,18.066,24.901999999999997,15.137,16.602,0.0,0
1005,1581362110.37,15.137,26.855,18.066,23.438000000000002,0.0,0
1006,1581362110.3739998,13.672,31.25,13.184000000000001,24.414,0.0,0
1007,1581362110.3779998,19.531,31.738000000000003,8.789,19.531,0.0,0
1008,1581362110.395,18.066,24.414,-7.324,15.625,0.0,0
1009,1581362110.399,15.137,15.137,-9.277000000000001,13.672,0.0,0
1010,1581362110.4029999,18.066,13.672,2.93,16.602,0.0,0
1011,1581362110.407,16.113,20.02,6.348,17.578,0.0,0
1012,1581362110.411,20.508000000000003,20.02,3.418,19.043,0.0,0
1013,1581362110.415,22.949,18.066,-6.348,20.508000000000003,0.0,0
1014,1581362110.419,15.137,17.09,-1.953,14.16,0.0,0
1015,1581362110.4220002,10.742,22.949,7.812,11.23,0.0,0
1016,1581362110.426,20.02,33.691,-7.812,10.742,0.0,0
1017,1581362110.43,23.926,35.156,-20.508000000000003,5.859,0.0,0
1018,1581362110.434,21.484,33.691,-13.184000000000001,6.836,0.0,0
1019,1581362110.438,22.461,29.785,-0.977,10.254000000000001,0.0,0
1020,1581362110.44,30.273000000000003,19.043,5.859,19.043,0.0,0
1021,1581362110.444,36.133,16.113,1.465,20.996,0.0,0
1022,1581362110.448,27.344,12.695,-6.836,13.184000000000001,0.0,0
1023,1581362110.4520001,20.508000000000003,18.555,-4.883,20.996,0.0,0
1024,1581362110.456,22.461,28.809,-0.977,25.391,0.0,0
1025,1581362110.46,20.02,31.25,0.488,17.578,0.0,0
1026,1581362110.464,20.02,31.738000000000003,1.465,18.555,0.0,0
1027,1581362110.467,16.602,35.156,10.742,22.949,0.0,0
1028,1581362110.471,12.695,34.668,11.23,21.973000000000003,0.0,0
1029,1581362110.475,19.531,25.879,4.395,24.414,0.0,0
1030,1581362110.4789999,21.484,21.484,9.766,22.461,0.0,0
1031,1581362110.4829998,19.531,15.625,19.531,24.901999999999997,0.0,0
1032,1581362110.485,16.113,8.301,22.461,29.785,0.0,0
1033,1581362110.4889998,14.648,11.719000000000001,21.484,20.996,0.0,0
1034,1581362110.4929998,18.066,19.043,27.831999999999997,13.672,0.0,0
1035,1581362110.4970002,11.719000000000001,23.926,34.18,12.695,0.0,0
1036,1581362110.5010002,7.812,26.366999999999997,27.344,16.113,0.0,0
1037,1581362110.505,18.555,32.227,23.926,21.973000000000003,0.0,0
1038,1581362110.5089998,24.414,30.761999999999997,27.831999999999997,20.508000000000003,0.0,0
1039,1581362110.512,19.043,25.879,32.227,20.996,0.0,0
1040,1581362110.516,14.648,20.996,24.414,23.438000000000002,0.0,0
1041,1581362110.52,19.531,28.32,20.996,20.996,0.0,0
1042,1581362110.524,23.438000000000002,23.438000000000002,31.738000000000003,20.508000000000003,0.0,0
1043,1581362110.5279999,20.508000000000003,10.254000000000001,32.227,22.461,0.0,0
1044,1581362110.53,16.602,15.625,31.25,27.831999999999997,0.0,0
1045,1581362110.534,18.555,20.508000000000003,36.621,29.785,0.0,0
1046,1581362110.5379999,21.484,30.761999999999997,26.855,22.461,0.0,0
1047,1581362110.542,19.043,34.668,6.836,20.996,0.0,0
1048,1581362110.546,9.277000000000001,30.273000000000003,5.859,19.531,0.0,0
1049,1581362110.55,5.371,20.508000000000003,11.719000000000001,13.184000000000001,0.0,0
1050,1581362110.554,11.719000000000001,18.066,14.16,17.578,0.0,0
1051,1581362110.5570002,14.648,21.484,19.531,19.043,0.0,0
1052,1581362110.561,10.742,16.602,13.184000000000001,12.207,0.0,0
1053,1581362110.565,9.277000000000001,20.02,20.508000000000003,15.625,0.0,0
1054,1581362110.569,16.602,27.344,29.296999999999997,19.531,0.0,0
1055,1581362110.573,26.366999999999997,17.09,25.879,19.043,0.0,0
1056,1581362110.575,22.461,12.207,26.855,23.438000000000002,0.0,0
1057,1581362110.579,18.555,29.296999999999997,32.227,27.344,0.0,0
1058,1581362110.583,24.901999999999997,36.133,37.109,26.855,0.0,0
1059,1581362110.5870001,23.438000000000002,24.901999999999997,35.645,23.438000000000002,0.0,0
1060,1581362110.591,26.855,28.32,29.296999999999997,28.809,0.0,0
1061,1581362110.595,22.949,29.785,20.508000000000003,36.621,0.0,0
1062,1581362110.599,16.602,18.555,13.184000000000001,29.296999999999997,0.0,0
1063,1581362110.6020002,28.32,18.066,9.277000000000001,27.344,0.0,0
1064,1581362110.606,32.715,19.043,7.812,27.344,0.0,0
1065,1581362110.61,19.531,22.461,15.625,26.855,0.0,0
1066,1581362110.6139998,15.625,33.691,14.16,29.296999999999997,0.0,0
1067,1581362110.6179998,27.831999999999997,33.691,13.672,28.809,0.0,0
1068,1581362110.619,26.855,21.484,19.043,22.461,0.0,0
1069,1581362110.623,17.578,12.695,12.207,22.949,0.0,0
1070,1581362110.627,16.602,15.137,13.184000000000001,25.391,0.0,0
1071,1581362110.631,23.438000000000002,22.949,14.648,22.949,0.0,0
1072,1581362110.635,26.366999999999997,19.531,16.602,22.949,0.0,0
1073,1581362110.639,24.901999999999997,21.973000000000003,16.113,28.32,0.0,0
1074,1581362110.643,24.901999999999997,38.574,14.648,33.203,0.0,0
1075,1581362110.6460001,23.926,33.691,15.625,29.296999999999997,0.0,0
1076,1581362110.65,23.438000000000002,17.578,18.066,22.461,0.0,0
1077,1581362110.654,25.879,18.066,22.949,21.973000000000003,0.0,0
1078,1581362110.658,24.414,24.901999999999997,32.227,31.738000000000003,0.0,0
1079,1581362110.6620002,20.996,27.344,43.457,39.551,0.0,0
1080,1581362110.664,26.855,31.25,49.805,33.691,0.0,0
1081,1581362110.668,32.227,35.645,48.828,25.879,0.0,0
1082,1581362110.6720002,29.785,23.926,42.48,32.227,0.0,0
1083,1581362110.676,21.484,17.09,33.691,29.296999999999997,0.0,0
1084,1581362110.68,20.996,19.531,20.996,17.09,0.0,0
1085,1581362110.684,23.438000000000002,21.973000000000003,13.184000000000001,9.766,0.0,0
1086,1581362110.688,17.578,28.32,8.301,9.766,0.0,0
1087,1581362110.691,17.09,24.414,15.625,18.555,0.0,0
1088,1581362110.695,24.414,18.555,25.391,22.461,0.0,0
1089,1581362110.699,31.738000000000003,27.831999999999997,24.414,24.901999999999997,0.0,0
1090,1581362110.7029998,33.203,29.785,20.996,27.831999999999997,0.0,0
1091,1581362110.707,21.484,29.785,18.066,26.366999999999997,0.0,0
1092,1581362110.7089999,14.648,31.25,18.555,20.508000000000003,0.0,0
1093,1581362110.7129998,26.366999999999997,26.855,22.949,20.996,0.0,0
1094,1581362110.717,28.809,27.831999999999997,26.855,24.414,0.0,0
1095,1581362110.721,17.578,25.391,24.414,26.366999999999997,0.0,0
1096,1581362110.725,20.02,27.831999999999997,23.438000000000002,25.391,0.0,0
1097,1581362110.7289999,31.25,34.668,14.16,25.879,0.0,0
1098,1581362110.7329998,31.738000000000003,27.831999999999997,5.371,23.438000000000002,0.0,0
1099,1581362110.736,25.391,21.484,18.066,19.043,0.0,0
1100,1581362110.74,20.996,20.02,24.901999999999997,29.785,0.0,0
1101,1581362110.744,22.461,25.391,16.602,29.296999999999997,0.0,0
1102,1581362110.748,33.203,25.879,12.695,24.901999999999997,0.0,0
1103,1581362110.752,32.715,21.484,17.578,26.855,0.0,0
1104,1581362110.754,20.02,26.855,22.461,24.414,0.0,0
1105,1581362110.758,22.461,25.879,27.831999999999997,24.414,0.0,0
1106,1581362110.762,34.18,18.555,25.879,23.438000000000002,0.0,0
1107,1581362110.766,30.761999999999997,21.973000000000003,18.555,22.461,0.0,0
1108,1581362110.77,21.973000000000003,34.668,11.23,21.484,0.0,0
1109,1581362110.774,19.043,34.668,1.465,20.508000000000003,0.0,0
1110,1581362110.7779999,21.973000000000003,30.273000000000003,10.742,18.555,0.0,0
1111,1581362110.7810001,29.296999999999997,29.296999999999997,30.761999999999997,10.742,0.0,0
1112,1581362110.785,24.901999999999997,31.738000000000003,32.227,13.672,0.0,0
1113,1581362110.789,18.066,38.086,30.273000000000003,19.043,0.0,0
1114,1581362110.793,19.531,41.992,39.062,12.695,0.0,0
1115,1581362110.7970002,22.949,37.598,45.898,11.719000000000001,0.0,0
1116,1581362110.814,22.461,23.926,36.133,13.672,0.0,2
1117,1581362110.8179998,17.578,23.438000000000002,38.086,8.301,0.0,0
1118,1581362110.822,19.531,35.156,48.828,8.301,0.0,0
1119,1581362110.826,26.366999999999997,34.668,42.968999999999994,7.324,0.0,0
1120,1581362110.83,23.926,28.809,39.062,5.859,0.0,0
1121,1581362110.8339999,12.207,22.461,42.968999999999994,8.789,0.0,0
1122,1581362110.8379998,16.113,27.831999999999997,40.039,13.672,0.0,0
1123,1581362110.841,23.438000000000002,42.968999999999994,39.062,17.578,0.0,0
1124,1581362110.845,23.926,37.109,41.504,23.438000000000002,0.0,0
1125,1581362110.849,20.996,31.738000000000003,27.344,28.32,0.0,0
1126,1581362110.853,14.648,26.855,21.973000000000003,11.719000000000001,0.0,0
1127,1581362110.857,12.207,27.344,24.414,-5.371,0.0,0
1128,1581362110.859,14.16,23.926,25.879,0.488,0.0,0
1129,1581362110.863,16.113,20.508000000000003,32.715,6.348,0.0,0
1130,1581362110.867,17.578,35.156,41.992,11.23,0.0,0
1131,1581362110.871,20.996,40.039,39.551,6.836,0.0,0
1132,1581362110.875,24.414,36.621,32.227,3.906,0.0,0
1133,1581362110.879,19.043,26.366999999999997,25.391,10.254000000000001,0.0,0
1134,1581362110.883,13.672,19.043,28.32,12.207,0.0,0
1135,1581362110.8860002,14.648,21.484,37.109,11.719000000000001,0.0,0
1136,1581362110.89,19.531,23.438000000000002,31.25,8.789,0.0,0
1137,1581362110.894,19.043,25.879,25.391,7.812,0.0,0
1138,1581362110.8979998,12.695,22.949,40.039,10.742,0.0,0
1139,1581362110.9020002,16.113,30.761999999999997,53.223,9.766,0.0,0
1140,1581362110.904,18.066,38.086,48.828,8.301,0.0,0
1141,1581362110.908,14.648,36.621,44.434,5.859,0.0,0
1142,1581362110.9120002,8.301,30.273000000000003,41.016000000000005,13.184000000000001,0.0,0
1143,1581362110.9160001,9.277000000000001,22.461,41.016000000000005,27.344,0.0,0
1144,1581362110.92,20.02,20.996,50.293,20.996,0.0,0
1145,1581362110.924,20.996,18.066,51.758,13.672,0.0,0
1146,1581362110.928,15.625,9.277000000000001,49.316,18.555,0.0,0
1147,1581362110.931,11.719000000000001,17.09,46.387,23.926,0.0,0
1148,1581362110.935,13.672,28.809,27.831999999999997,15.625,0.0,0
1149,1581362110.939,13.672,24.414,30.761999999999997,8.301,0.0,0
1150,1581362110.9429998,10.254000000000001,29.785,42.968999999999994,16.602,0.0,0
1151,1581362110.947,10.254000000000001,35.156,34.668,20.02,0.0,0
1152,1581362110.949,22.461,31.738000000000003,31.25,24.901999999999997,0.0,0
1153,1581362110.9529998,29.785,23.438000000000002,31.25,32.715,0.0,0
1154,1581362110.957,27.344,22.461,33.691,28.809,0.0,0
1155,1581362110.961,23.926,26.366999999999997,34.18,28.809,0.0,0
1156,1581362110.965,20.508000000000003,25.879,33.203,26.366999999999997,0.0,0
1157,1581362110.9689999,21.484,27.831999999999997,29.296999999999997,22.461,0.0,0
1158,1581362110.9729998,24.901999999999997,23.926,25.391,25.391,0.0,0
1159,1581362110.976,22.461,20.02,21.973000000000003,26.366999999999997,0.0,0
1160,1581362110.98,24.901999999999997,12.695,14.16,23.926,0.0,0
1161,1581362110.984,24.414,10.742,23.926,20.508000000000003,0.0,0
1162,1581362110.988,20.996,24.414,23.438000000000002,15.625,0.0,0
1163,1581362110.992,22.461,32.715,13.672,19.531,0.0,0
1164,1581362110.995,18.066,34.18,23.438000000000002,23.438000000000002,0.0,0
1165,1581362110.9989998,15.625,37.598,33.691,20.02,0.0,0
1166,1581362111.0029998,21.484,39.551,29.296999999999997,16.113,0.0,0
1167,1581362111.0070002,20.02,30.273000000000003,24.901999999999997,15.137,0.0,0
1168,1581362111.0110002,13.184000000000001,28.809,21.484,17.578,0.0,0
1169,1581362111.015,12.695,26.855,13.672,16.113,0.0,0
1170,1581362111.019,18.066,15.137,15.137,17.578,0.0,0
1171,1581362111.022,20.996,13.184000000000001,11.719000000000001,18.066,0.0,0
1172,1581362111.026,12.207,27.831999999999997,18.066,19.043,0.0,0
1173,1581362111.03,7.812,36.621,28.32,21.973000000000003,0.0,0
1174,1581362111.034,15.625,26.366999999999997,27.344,17.09,0.0,0
1175,1581362111.0379999,17.09,26.366999999999997,30.761999999999997,16.602,0.0,0
1176,1581362111.04,10.742,33.203,35.156,19.531,0.0,0
1177,1581362111.044,6.836,26.366999999999997,34.668,20.02,0.0,0
1178,1581362111.0479999,12.695,15.137,21.484,17.578,0.0,0
1179,1581362111.052,20.508000000000003,17.09,13.672,13.672,0.0,0
1180,1581362111.056,16.113,20.508000000000003,26.855,11.719000000000001,0.0,0
1181,1581362111.06,9.766,15.137,28.809,5.859,0.0,0
1182,1581362111.064,13.672,20.508000000000003,28.809,9.766,0.0,0
1183,1581362111.0670002,17.578,23.926,36.621,15.137,0.0,0
1184,1581362111.071,17.578,26.855,41.992,12.207,0.0,0
1185,1581362111.075,11.719000000000001,29.785,34.668,8.789,0.0,0
1186,1581362111.079,14.648,18.066,33.203,8.301,0.0,0
1187,1581362111.083,21.484,18.066,34.668,10.254000000000001,0.0,0
1188,1581362111.085,17.09,25.879,30.761999999999997,6.348,0.0,0
1189,1581362111.089,9.277000000000001,30.273000000000003,30.273000000000003,8.301,0.0,0
1190,1581362111.093,8.789,38.574,24.414,3.906,0.0,0
1191,1581362111.0970001,15.625,37.109,25.391,-4.883,0.0,0
1192,1581362111.101,19.043,27.344,31.738000000000003,-0.977,0.0,0
1193,1581362111.105,11.23,17.578,24.414,4.395,0.0,0
1194,1581362111.109,7.324,9.766,11.719000000000001,3.418,0.0,0
1195,1581362111.1120002,12.207,8.301,16.602,7.324,0.0,0
1196,1581362111.1160002,20.996,17.09,27.831999999999997,6.836,0.0,0
1197,1581362111.12,21.973000000000003,32.227,27.831999999999997,7.812,0.0,0
1198,1581362111.1239998,19.043,33.203,32.715,19.531,0.0,0
1199,1581362111.1279998,32.227,20.02,35.645,23.926,0.0,0
1200,1581362111.145,46.875,21.973000000000003,38.086,23.438000000000002,0.0,0
1201,1581362111.149,47.363,35.156,32.715,22.949,0.0,0
1202,1581362111.1529999,29.785,32.715,20.996,14.648,0.0,0
1203,1581362111.157,11.719000000000001,27.831999999999997,30.761999999999997,1.953,0.0,0
1204,1581362111.161,13.672,25.391,37.598,-2.93,0.0,0
1205,1581362111.165,14.648,16.113,30.761999999999997,0.977,0.0,0
1206,1581362111.169,7.324,14.648,33.203,8.301,0.0,0
1207,1581362111.1720002,14.16,17.578,45.898,20.508000000000003,0.0,0
1208,1581362111.176,22.949,21.484,47.852,22.949,0.0,0
1209,1581362111.18,21.973000000000003,24.414,40.527,19.531,0.0,0
1210,1581362111.184,14.648,20.02,38.086,20.508000000000003,0.0,0
1211,1581362111.188,15.137,22.949,38.086,29.296999999999997,0.0,0
1212,1581362111.19,23.926,17.578,37.109,30.273000000000003,0.0,0
1213,1581362111.194,29.785,15.137,38.574,25.879,0.0,0
1214,1581362111.198,28.32,32.227,36.621,29.296999999999997,0.0,0
1215,1581362111.2020001,27.831999999999997,43.945,39.062,34.668,0.0,0
1216,1581362111.206,33.691,46.875,42.48,35.645,0.0,0
1217,1581362111.21,36.133,38.086,38.086,34.668,0.0,0
1218,1581362111.214,33.203,28.32,41.504,41.016000000000005,0.0,0
1219,1581362111.217,24.901999999999997,30.761999999999997,49.805,40.527,0.0,0
1220,1581362111.221,20.508000000000003,27.344,41.504,35.156,0.0,0
1221,1581362111.225,23.926,18.555,33.691,27.344,0.0,0
1222,1581362111.2289999,30.273000000000003,24.414,37.598,24.414,0.0,0
1223,1581362111.2329998,26.366999999999997,38.574,37.109,27.344,0.0,0
1224,1581362111.235,20.996,37.109,33.691,27.831999999999997,0.0,0
1225,1581362111.2389998,27.344,20.02,28.32,25.391,0.0,0
1226,1581362111.2429998,34.668,21.973000000000003,21.484,20.02,0.0,0
1227,1581362111.2470002,27.344,29.785,25.391,19.531,0.0,0
1228,1581362111.2510002,20.996,30.273000000000003,25.879,20.02,0.0,0
1229,1581362111.255,24.414,37.109,20.508000000000003,13.672,0.0,0
1230,1581362111.2589998,26.366999999999997,29.296999999999997,28.809,14.16,0.0,0
1231,1581362111.262,28.32,23.438000000000002,38.574,20.508000000000003,0.0,0
1232,1581362111.266,26.855,26.855,27.344,22.949,0.0,0
1233,1581362111.27,26.366999999999997,21.484,14.648,14.648,0.0,0
1234,1581362111.274,29.785,25.879,30.273000000000003,13.672,0.0,0
1235,1581362111.2779999,27.831999999999997,31.738000000000003,35.645,17.578,0.0,0
1236,1581362111.28,25.879,31.25,32.227,17.578,0.0,0
1237,1581362111.284,20.02,23.438000000000002,32.715,24.414,0.0,0
1238,1581362111.2879999,22.461,26.366999999999997,35.645,20.996,0.0,0
1239,1581362111.292,26.366999999999997,26.855,38.086,15.625,0.0,0
1240,1581362111.296,14.16,20.508000000000003,20.996,12.207,0.0,0
1241,1581362111.3,10.742,22.949,8.789,14.16,0.0,0
1242,1581362111.304,21.973000000000003,16.113,9.277000000000001,21.484,0.0,0
1243,1581362111.3070002,26.366999999999997,7.324,13.672,20.996,0.0,0
1244,1581362111.311,20.02,14.648,9.766,20.508000000000003,0.0,0
1245,1581362111.315,15.137,22.949,9.766,13.672,0.0,0
1246,1581362111.319,25.391,13.184000000000001,20.02,13.672,0.0,0
1247,1581362111.323,37.598,15.137,18.555,14.648,0.0,0
1248,1581362111.325,36.621,22.461,17.09,12.695,0.0,0
1249,1581362111.329,31.25,16.113,19.043,15.137,0.0,0
1250,1581362111.333,25.879,12.207,21.484,11.23,0.0,0
1251,1581362111.3370001,25.391,14.648,15.625,4.883,0.0,0
1252,1581362111.341,22.461,15.625,11.23,12.695,0.0,0
1253,1581362111.345,10.254000000000001,21.484,9.766,14.16,0.0,0
1254,1581362111.349,11.719000000000001,26.855,6.836,10.254000000000001,0.0,0
1255,1581362111.3520002,22.949,20.02,0.488,8.301,0.0,0
1256,1581362111.356,18.066,13.184000000000001,-6.836,0.0,0.0,0
1257,1581362111.36,14.16,14.648,11.23,0.488,0.0,0
1258,1581362111.3639998,10.254000000000001,16.602,25.391,5.859,0.0,0
1259,1581362111.3679998,12.207,17.578,20.508000000000003,2.93,0.0,0
1260,1581362111.37,23.438000000000002,10.742,22.461,3.418,0.0,0
1261,1581362111.3739998,16.602,-0.977,26.855,8.789,0.0,0
1262,1581362111.3779998,8.789,8.301,20.996,13.672,0.0,0
1263,1581362111.3820002,20.02,22.949,17.578,10.742,0.0,0
1264,1581362111.3860002,29.785,32.227,19.043,9.277000000000001,0.0,0
1265,1581362111.39,24.901999999999997,26.855,18.066,18.555,0.0,0
1266,1581362111.394,19.043,10.254000000000001,17.09,23.438000000000002,0.0,0
1267,1581362111.397,20.02,8.789,19.043,19.043,0.0,0
1268,1581362111.401,25.879,19.043,28.809,8.301,0.0,0
1269,1581362111.405,24.414,30.273000000000003,34.18,10.254000000000001,0.0,0
1270,1581362111.409,21.973000000000003,32.227,29.785,20.02,0.0,0
1271,1581362111.4129999,22.949,24.901999999999997,20.02,25.879,0.0,0
1272,1581362111.415,29.296999999999997,19.531,26.855,27.831999999999997,0.0,0
1273,1581362111.419,32.227,18.066,37.109,22.949,0.0,0
1274,1581362111.4229999,24.901999999999997,10.254000000000001,25.391,22.949,0.0,0
1275,1581362111.427,16.602,5.859,18.555,22.461,0.0,0
1276,1581362111.431,17.09,15.625,17.09,16.113,0.0,0
1277,1581362111.435,22.461,27.344,13.672,13.672,0.0,0
1278,1581362111.439,27.344,20.02,24.414,11.23,0.0,0
1279,1581362111.4420002,24.901999999999997,20.508000000000003,32.715,17.578,0.0,0
1280,1581362111.446,21.973000000000003,27.344,44.434,13.672,0.0,0
1281,1581362111.45,30.273000000000003,17.578,49.805,11.23,0.0,0
1282,1581362111.454,30.273000000000003,7.812,49.805,18.066,0.0,0
1283,1581362111.458,15.625,8.301,61.523,16.113,0.0,0
1284,1581362111.46,16.113,11.23,77.637,18.066,0.0,0
1285,1581362111.464,24.901999999999997,19.531,88.867,20.508000000000003,0.0,0
1286,1581362111.468,23.926,19.043,97.16799999999999,11.23,0.0,0
1287,1581362111.4720001,19.531,16.113,102.051,7.812,0.0,0
1288,1581362111.476,16.602,26.366999999999997,104.00399999999999,10.254000000000001,0.0,0
1289,1581362111.48,20.02,24.901999999999997,97.656,10.254000000000001,0.0,0
1290,1581362111.484,24.901999999999997,14.648,85.449,4.883,0.0,0
1291,1581362111.4870002,17.09,11.719000000000001,90.82,6.348,0.0,0
1292,1581362111.4910002,13.672,16.602,97.16799999999999,22.461,0.0,0
1293,1581362111.495,30.761999999999997,22.461,87.891,31.738000000000003,0.0,0
1294,1581362111.4989998,39.062,30.273000000000003,84.961,30.761999999999997,0.0,0
1295,1581362111.5029998,27.831999999999997,36.133,78.125,16.602,0.0,0
1296,1581362111.505,21.973000000000003,39.551,74.707,11.719000000000001,0.0,0
1297,1581362111.5089998,18.066,30.273000000000003,75.195,17.09,0.0,0
1298,1581362111.5129998,11.23,19.043,79.102,5.371,0.0,0
1299,1581362111.5170002,4.395,12.207,88.37899999999999,-2.441,0.0,0
1300,1581362111.5210001,2.93,9.277000000000001,89.844,6.836,0.0,0
1301,1581362111.525,8.301,3.418,76.66,14.16,0.0,0
1302,1581362111.529,13.672,-6.348,68.848,10.742,0.0,0
1303,1581362111.532,15.137,1.953,77.148,9.766,0.0,0
1304,1581362111.536,14.16,13.672,76.172,20.02,0.0,0
1305,1581362111.54,12.695,28.809,71.777,25.391,0.0,0
1306,1581362111.544,17.578,32.227,79.102,19.043,0.0,0
1307,1581362111.5479999,27.344,25.879,84.473,17.578,0.0,0
1308,1581362111.565,22.949,24.901999999999997,83.49600000000001,19.531,0.0,0
1309,1581362111.569,13.184000000000001,19.531,81.543,21.973000000000003,0.0,0
1310,1581362111.573,17.578,18.066,86.914,19.531,0.0,0
1311,1581362111.5770001,20.508000000000003,17.09,91.79700000000001,12.695,0.0,0
1312,1581362111.581,20.996,8.301,86.914,15.137,0.0,0
1313,1581362111.585,20.02,6.836,78.613,18.066,0.0,0
1314,1581362111.589,19.043,15.625,71.777,15.137,0.0,0
1315,1581362111.592,27.831999999999997,17.09,71.777,17.09,0.0,0
1316,1581362111.596,29.296999999999997,19.043,66.406,21.973000000000003,0.0,0
1317,1581362111.6,16.113,21.484,58.105,17.09,0.0,0
1318,1581362111.6039999,17.578,25.879,54.199,14.16,0.0,0
1319,1581362111.6079998,25.879,20.996,58.593999999999994,13.672,0.0,0
1320,1581362111.61,23.926,12.695,65.918,13.672,0.0,0
1321,1581362111.6139998,25.879,16.602,72.75399999999999,29.785,0.0,0
1322,1581362111.6179998,22.461,26.855,62.012,31.25,0.0,0
1323,1581362111.6220002,16.602,24.901999999999997,49.316,22.461,0.0,0
1324,1581362111.6260002,20.996,12.695,43.945,22.949,0.0,0
1325,1581362111.63,19.531,13.184000000000001,39.062,22.949,0.0,0
1326,1581362111.6339998,15.137,30.761999999999997,41.992,22.949,0.0,0
1327,1581362111.637,21.973000000000003,37.109,40.527,26.855,0.0,0
1328,1581362111.641,32.227,30.761999999999997,20.02,26.366999999999997,0.0,0
1329,1581362111.645,30.761999999999997,34.18,17.578,20.996,0.0,0
1330,1581362111.649,20.508000000000003,27.344,41.016000000000005,15.137,0.0,0
1331,1581362111.6529999,14.16,4.883,36.133,16.602,0.0,0
1332,1581362111.655,20.02,-1.465,30.273000000000003,22.461,0.0,0
1333,1581362111.659,26.366999999999997,13.184000000000001,35.645,19.043,0.0,0
1334,1581362111.6629999,20.508000000000003,21.973000000000003,29.785,19.531,0.0,0
1335,1581362111.667,21.973000000000003,13.184000000000001,26.855,20.996,0.0,0
1336,1581362111.671,33.203,14.16,30.761999999999997,16.113,0.0,0
1337,1581362111.675,33.203,27.344,29.785,13.184000000000001,0.0,0
1338,1581362111.679,23.926,24.901999999999997,26.366999999999997,11.719000000000001,0.0,0
1339,1581362111.6820002,17.578,17.09,27.831999999999997,15.137,0.0,0
1340,1581362111.686,20.996,14.16,34.18,10.254000000000001,0.0,0
1341,1581362111.69,25.391,8.301,44.434,7.812,0.0,0
1342,1581362111.694,21.973000000000003,3.418,44.434,17.09,0.0,0
1343,1581362111.698,18.555,6.836,36.621,19.043,0.0,0
1344,1581362111.7,24.901999999999997,14.16,31.25,18.066,0.0,0
1345,1581362111.704,27.831999999999997,11.719000000000001,33.203,15.625,0.0,0
1346,1581362111.708,22.949,-2.441,35.156,17.09,0.0,0
1347,1581362111.7120001,16.602,3.418,34.668,19.043,0.0,0
1348,1581362111.716,14.16,15.137,37.598,17.578,0.0,0
1349,1581362111.72,15.625,16.602,40.039,18.555,0.0,0
1350,1581362111.724,15.137,18.555,41.016000000000005,17.09,0.0,0
1351,1581362111.7270002,10.742,15.625,37.109,20.02,0.0,0
1352,1581362111.731,14.648,15.137,29.785,22.949,0.0,0
1353,1581362111.735,19.043,16.602,38.086,16.113,0.0,0
1354,1581362111.7389998,20.508000000000003,13.184000000000001,38.086,14.16,0.0,0
1355,1581362111.7429998,17.578,11.23,28.809,19.043,0.0,0
1356,1581362111.744,14.16,17.578,23.438000000000002,21.484,0.0,0
1357,1581362111.748,14.16,13.672,22.949,12.207,0.0,0
1358,1581362111.752,17.09,9.766,25.879,5.371,0.0,0
1359,1581362111.756,18.066,9.766,22.461,12.695,0.0,0
1360,1581362111.76,12.695,15.137,15.625,15.137,0.0,0
1361,1581362111.764,14.648,20.02,15.137,10.254000000000001,0.0,0
1362,1581362111.768,19.531,17.09,21.973000000000003,13.672,0.0,0
1363,1581362111.7710001,20.02,17.578,16.602,19.043,0.0,0
1364,1581362111.775,13.672,22.949,18.066,12.207,0.0,0
1365,1581362111.779,11.23,19.531,30.273000000000003,3.906,0.0,0
1366,1581362111.783,17.578,12.695,30.273000000000003,6.348,0.0,0
1367,1581362111.7870002,20.996,16.113,26.855,9.277000000000001,0.0,0
1368,1581362111.789,20.996,18.555,26.366999999999997,19.531,0.0,0
1369,1581362111.793,23.926,14.16,28.32,31.738000000000003,0.0,0
1370,1581362111.7970002,30.761999999999997,17.09,22.461,28.809,0.0,0
1371,1581362111.801,29.785,18.066,22.461,24.414,0.0,0
1372,1581362111.805,20.508000000000003,12.207,24.414,31.25,0.0,0
1373,1581362111.809,18.555,20.996,20.02,37.598,0.0,0
1374,1581362111.813,23.438000000000002,22.461,23.926,32.715,0.0,0
1375,1581362111.816,20.02,15.625,19.531,24.901999999999997,0.0,0
1376,1581362111.82,14.16,17.09,25.391,27.831999999999997,0.0,0
1377,1581362111.824,13.184000000000001,15.625,29.785,28.809,0.0,0
1378,1581362111.8279998,14.648,15.625,27.831999999999997,24.414,0.0,0
1379,1581362111.832,18.555,12.207,34.18,14.648,0.0,0
1380,1581362111.8339999,20.508000000000003,14.648,33.203,9.277000000000001,0.0,0
1381,1581362111.8379998,19.043,25.391,32.227,17.578,0.0,0
1382,1581362111.842,17.578,16.602,27.831999999999997,17.578,0.0,0
1383,1581362111.846,25.391,13.184000000000001,24.414,9.766,0.0,0
1384,1581362111.85,29.296999999999997,25.879,19.531,8.789,0.0,0
1385,1581362111.8539999,17.578,23.926,14.648,7.324,0.0,0
1386,1581362111.8579998,9.766,15.137,11.719000000000001,5.371,0.0,0
1387,1581362111.861,19.043,21.484,21.484,10.742,0.0,0
1388,1581362111.865,26.855,21.484,32.715,15.137,0.0,0
1389,1581362111.869,21.973000000000003,20.996,30.273000000000003,20.02,0.0,0
1390,1581362111.873,16.602,28.32,27.344,29.785,0.0,0
1391,1581362111.877,14.648,17.09,23.438000000000002,27.831999999999997,0.0,0
1392,1581362111.894,20.02,8.789,34.18,22.949,0.0,0
1393,1581362111.8979998,28.809,15.137,38.086,33.691,0.0,0
1394,1581362111.9020002,20.02,11.23,29.296999999999997,36.621,0.0,0
1395,1581362111.9060001,12.695,5.371,22.461,24.901999999999997,0.0,0
1396,1581362111.91,19.531,3.906,19.531,20.508000000000003,0.0,0
1397,1581362111.914,18.066,0.488,14.648,22.461,0.0,0
1398,1581362111.918,16.602,21.973000000000003,20.508000000000003,28.32,0.0,0
1399,1581362111.921,19.531,38.086,24.901999999999997,34.668,0.0,0
1400,1581362111.925,20.508000000000003,26.366999999999997,18.555,29.785,0.0,0
1401,1581362111.929,21.973000000000003,11.23,20.508000000000003,26.366999999999997,0.0,2
1402,1581362111.9329998,22.949,15.137,26.366999999999997,28.809,0.0,0
1403,1581362111.937,18.066,26.366999999999997,29.296999999999997,22.461,0.0,0
1404,1581362111.939,18.066,24.901999999999997,24.901999999999997,14.16,0.0,0
1405,1581362111.9429998,23.926,26.855,24.901999999999997,14.648,0.0,0
1406,1581362111.947,20.02,37.109,32.227,19.531,0.0,0
1407,1581362111.951,18.066,44.434,27.344,20.996,0.0,0
1408,1581362111.955,19.531,36.621,26.366999999999997,17.09,0.0,0
1409,1581362111.9589999,25.879,32.227,31.25,11.23,0.0,0
1410,1581362111.9629998,23.926,26.366999999999997,27.344,3.906,0.0,0
1411,1581362111.966,13.184000000000001,14.648,32.715,4.883,0.0,0
1412,1581362111.97,13.184000000000001,17.578,28.32,3.418,0.0,0
1413,1581362111.974,24.414,24.414,18.066,6.348,0.0,0
1414,1581362111.978,28.809,31.25,28.32,13.184000000000001,0.0,0
1415,1581362111.982,20.02,29.296999999999997,40.527,12.207,0.0,0
1416,1581362111.984,19.043,26.366999999999997,36.133,19.043,0.0,0
1417,1581362111.988,19.531,31.25,31.25,23.438000000000002,0.0,0
1418,1581362111.992,16.113,30.761999999999997,28.809,15.137,0.0,0
1419,1581362111.996,18.555,29.296999999999997,22.461,15.625,0.0,0
1420,1581362112.0,25.391,26.855,28.32,27.831999999999997,0.0,0
1421,1581362112.004,17.578,27.344,36.621,21.973000000000003,0.0,0
1422,1581362112.008,4.395,18.066,34.668,4.883,0.0,0
1423,1581362112.0110002,4.883,10.254000000000001,37.109,17.578,0.0,0
1424,1581362112.015,10.254000000000001,12.695,33.691,34.18,0.0,0
1425,1581362112.019,19.531,13.184000000000001,27.344,31.738000000000003,0.0,0
1426,1581362112.0229998,28.809,17.578,27.831999999999997,26.855,0.0,0
1427,1581362112.0270002,19.043,22.949,21.484,14.648,0.0,0
1428,1581362112.029,7.812,23.438000000000002,18.555,10.742,0.0,0
1429,1581362112.033,10.742,20.996,23.926,15.137,0.0,0
1430,1581362112.0370002,15.625,19.043,28.32,15.137,0.0,0
1431,1581362112.0410001,27.344,31.738000000000003,28.809,18.555,0.0,0
1432,1581362112.045,31.25,41.016000000000005,23.438000000000002,27.831999999999997,0.0,0
1433,1581362112.049,26.855,33.203,16.602,27.344,0.0,0
1434,1581362112.053,28.32,25.879,28.32,16.602,0.0,0
1435,1581362112.056,26.366999999999997,15.137,35.156,12.695,0.0,0
1436,1581362112.06,18.555,14.648,24.414,14.16,0.0,0
1437,1581362112.064,7.812,21.973000000000003,27.831999999999997,12.207,0.0,0
1438,1581362112.0679998,10.742,19.531,33.203,13.184000000000001,0.0,0
1439,1581362112.072,23.438000000000002,20.02,32.227,21.973000000000003,0.0,0
1440,1581362112.074,22.461,25.391,25.879,24.414,0.0,0
1441,1581362112.0779998,20.508000000000003,32.227,23.926,27.344,0.0,0
1442,1581362112.082,22.949,32.227,23.926,27.344,0.0,0
1443,1581362112.086,25.879,22.949,13.184000000000001,21.973000000000003,0.0,0
1444,1581362112.09,26.366999999999997,19.043,9.766,21.973000000000003,0.0,0
1445,1581362112.0939999,27.344,20.996,20.996,25.391,0.0,0
1446,1581362112.0979998,33.203,21.484,37.109,31.738000000000003,0.0,0
1447,1581362112.101,37.109,20.996,36.133,31.738000000000003,0.0,0
1448,1581362112.105,40.039,14.16,34.18,29.296999999999997,0.0,0
1449,1581362112.109,41.016000000000005,11.23,38.086,26.366999999999997,0.0,0
1450,1581362112.113,35.156,22.461,23.926,28.32,0.0,0
1451,1581362112.117,33.203,24.414,20.508000000000003,30.273000000000003,0.0,0
1452,1581362112.119,30.761999999999997,16.602,23.926,23.438000000000002,0.0,0
1453,1581362112.123,22.949,23.438000000000002,23.438000000000002,28.32,0.0,0
1454,1581362112.127,18.555,35.645,26.855,34.668,0.0,0
1455,1581362112.131,21.973000000000003,43.457,24.901999999999997,34.668,0.0,0
1456,1581362112.135,30.761999999999997,38.086,18.555,37.109,0.0,0
1457,1581362112.139,20.996,24.901999999999997,11.719000000000001,24.901999999999997,0.0,0
1458,1581362112.143,13.672,25.391,4.883,18.066,0.0,0
1459,1581362112.1460001,21.484,29.296999999999997,12.207,18.555,0.0,0
1460,1581362112.15,22.461,11.23,32.715,13.184000000000001,0.0,0
1461,1581362112.154,22.949,8.789,44.922,16.602,0.0,0
1462,1581362112.158,19.043,35.156,45.41,20.996,0.0,0
1463,1581362112.1620002,10.254000000000001,43.945,40.527,15.137,0.0,0
1464,1581362112.165,15.625,33.691,36.133,5.859,0.0,0
1465,1581362112.169,21.973000000000003,25.391,32.715,8.301,0.0,0
1466,1581362112.1729999,12.207,19.043,28.809,13.184000000000001,0.0,0
1467,1581362112.177,6.348,18.555,29.785,16.113,0.0,0
1468,1581362112.181,14.16,22.949,31.738000000000003,20.508000000000003,0.0,0
1469,1581362112.185,18.555,27.831999999999997,33.203,25.879,0.0,0
1470,1581362112.189,17.578,11.719000000000001,27.344,23.926,0.0,0
1471,1581362112.1920002,16.602,-1.465,20.996,20.996,0.0,0
1472,1581362112.196,19.043,24.901999999999997,34.668,20.02,0.0,0
1473,1581362112.2,28.32,44.434,40.527,18.066,0.0,0
1474,1581362112.204,20.02,35.156,32.715,12.695,0.0,0
1475,1581362112.208,2.441,21.484,38.086,14.16,0.0,0
1476,1581362112.21,13.184000000000001,17.578,41.992,21.973000000000003,0.0,0
1477,1581362112.214,21.484,20.508000000000003,38.086,22.461,0.0,0
1478,1581362112.218,19.531,17.09,45.41,18.066,0.0,0
1479,1581362112.2220001,24.414,11.719000000000001,39.062,18.066,0.0,0
1480,1581362112.226,22.461,11.719000000000001,32.227,22.461,0.0,0
1481,1581362112.23,25.391,17.578,37.598,28.809,0.0,0
1482,1581362112.234,32.227,16.113,24.414,30.273000000000003,0.0,0
1483,1581362112.2370002,27.831999999999997,11.23,20.02,25.391,0.0,0
1484,1581362112.2410002,20.508000000000003,21.484,30.761999999999997,24.414,0.0,0
1485,1581362112.245,21.484,28.809,29.785,29.296999999999997,0.0,0
1486,1581362112.2489998,29.785,23.926,24.901999999999997,37.109,0.0,0
1487,1581362112.2529998,27.344,26.366999999999997,22.949,36.621,0.0,0
1488,1581362112.27,21.484,29.785,23.926,30.273000000000003,0.0,0
1489,1581362112.274,24.901999999999997,31.738000000000003,23.926,23.926,0.0,0
1490,1581362112.2779999,26.855,27.831999999999997,21.484,24.901999999999997,0.0,0
1491,1581362112.282,25.879,11.719000000000001,26.366999999999997,23.926,0.0,0
1492,1581362112.286,23.926,7.812,22.461,22.461,0.0,0
1493,1581362112.29,23.438000000000002,12.695,0.977,22.461,0.0,0
1494,1581362112.294,28.32,17.09,5.859,18.066,0.0,0
1495,1581362112.2970002,30.273000000000003,20.02,22.461,20.02,0.0,0
1496,1581362112.301,21.973000000000003,22.461,19.531,27.344,0.0,0
1497,1581362112.305,18.555,31.25,13.184000000000001,24.414,0.0,0
1498,1581362112.309,27.831999999999997,35.156,14.648,17.09,0.0,0
1499,1581362112.313,27.831999999999997,36.621,11.719000000000001,11.23,0.0,0
1500,1581362112.314,20.508000000000003,30.761999999999997,2.93,11.719000000000001,0.0,0
1501,1581362112.3179998,24.414,20.996,3.418,19.043,0.0,0
1502,1581362112.322,29.785,16.602,3.906,21.484,0.0,0
1503,1581362112.326,23.926,15.625,7.812,17.578,0.0,0
1504,1581362112.33,22.461,7.812,13.672,13.184000000000001,0.0,0
1505,1581362112.3339999,21.484,2.441,11.23,13.672,0.0,0
1506,1581362112.3379998,19.531,19.043,12.207,16.602,0.0,0
1507,1581362112.341,22.461,25.879,10.742,10.742,0.0,0
1508,1581362112.345,20.02,17.578,2.93,8.789,0.0,0
1509,1581362112.349,19.531,23.926,-2.93,16.602,0.0,0
1510,1581362112.353,22.461,24.414,5.859,19.531,0.0,0
1511,1581362112.357,25.879,20.996,19.531,20.02,0.0,0
1512,1581362112.359,31.25,26.366999999999997,16.602,23.438000000000002,0.0,0
1513,1581362112.363,20.996,28.32,17.578,16.113,0.0,0
1514,1581362112.367,12.695,33.691,20.02,7.812,0.0,0
1515,1581362112.371,20.508000000000003,28.32,22.949,13.184000000000001,0.0,0
1516,1581362112.375,26.855,20.508000000000003,20.996,15.625,0.0,0
1517,1581362112.379,23.926,21.973000000000003,13.184000000000001,14.648,0.0,0
1518,1581362112.383,20.996,20.508000000000003,12.695,14.648,0.0,0
1519,1581362112.3860002,29.296999999999997,17.578,11.23,10.254000000000001,0.0,0
1520,1581362112.39,37.598,17.578,2.441,12.207,0.0,0
1521,1581362112.394,31.25,20.508000000000003,2.441,17.578,0.0,0
1522,1581362112.3979998,19.531,28.32,15.625,16.602,0.0,0
1523,1581362112.4020002,18.555,31.25,18.555,17.09,0.0,0
1524,1581362112.405,26.366999999999997,23.926,17.09,18.555,0.0,0
1525,1581362112.409,25.391,12.207,18.066,22.461,0.0,0
1526,1581362112.4129999,17.09,11.23,16.602,26.855,0.0,0
1527,1581362112.417,18.066,25.391,17.09,24.901999999999997,0.0,0
1528,1581362112.421,25.879,30.761999999999997,22.949,21.484,0.0,0
1529,1581362112.425,26.366999999999997,25.879,17.09,17.578,0.0,0
1530,1581362112.429,18.555,19.043,18.066,21.484,0.0,0
1531,1581362112.4320002,10.742,19.043,28.32,23.438000000000002,0.0,0
1532,1581362112.436,11.23,23.438000000000002,20.508000000000003,13.672,0.0,0
1533,1581362112.44,15.137,14.648,23.926,4.395,0.0,0
1534,1581362112.444,14.16,12.207,39.551,8.789,0.0,0
1535,1581362112.448,17.578,22.949,28.809,23.438000000000002,0.0,0
1536,1581362112.45,16.602,16.113,16.113,19.531,0.0,0
1537,1581362112.454,19.531,9.277000000000001,19.531,9.766,0.0,0
1538,1581362112.458,18.555,16.113,23.926,17.09,0.0,0
1539,1581362112.4620001,11.719000000000001,15.625,19.043,19.531,0.0,0
1540,1581362112.466,12.695,11.719000000000001,14.648,16.113,0.0,0
1541,1581362112.47,19.043,19.043,18.066,18.066,0.0,0
1542,1581362112.474,28.32,23.926,30.761999999999997,27.831999999999997,0.0,0
1543,1581362112.4770002,26.366999999999997,20.996,32.715,27.831999999999997,0.0,0
1544,1581362112.481,14.648,21.973000000000003,12.695,1.953,0.0,0
1545,1581362112.485,20.02,29.785,10.254000000000001,-5.371,0.0,0
1546,1581362112.4889998,23.926,35.156,16.113,4.395,0.0,0
1547,1581362112.4929998,7.812,27.344,8.301,8.789,0.0,0
1548,1581362112.495,-3.418,16.602,9.277000000000001,13.184000000000001,0.0,0
1549,1581362112.4989998,1.953,16.113,15.625,1.465,0.0,0
1550,1581362112.5029998,15.625,21.484,5.859,-3.418,0.0,0
1551,1581362112.5070002,19.043,17.578,3.906,8.301,0.0,0
1552,1581362112.5110002,13.184000000000001,17.09,13.672,15.625,0.0,0
1553,1581362112.515,15.625,26.855,27.344,15.625,0.0,0
1554,1581362112.519,24.414,30.761999999999997,27.831999999999997,20.508000000000003,0.0,0
1555,1581362112.522,24.414,20.996,16.113,20.996,0.0,0
1556,1581362112.526,17.09,15.625,19.043,17.578,0.0,0
1557,1581362112.53,14.648,23.926,23.926,18.066,0.0,0
1558,1581362112.534,20.02,25.391,20.508000000000003,14.16,0.0,0
1559,1581362112.5379999,22.949,22.461,23.926,14.16,0.0,0
1560,1581362112.54,19.531,19.043,31.25,17.09,0.0,0
1561,1581362112.544,17.09,19.531,36.133,14.16,0.0,0
1562,1581362112.5479999,27.344,21.484,41.016000000000005,15.137,0.0,0
1563,1581362112.552,30.273000000000003,17.09,43.945,16.113,0.0,0
1564,1581362112.556,20.996,22.461,46.875,15.137,0.0,0
1565,1581362112.56,18.066,23.438000000000002,41.016000000000005,20.02,0.0,0
1566,1581362112.564,18.066,12.695,32.227,22.949,0.0,0
1567,1581362112.5670002,20.508000000000003,8.301,27.831999999999997,15.137,0.0,0
1568,1581362112.571,19.531,8.789,41.504,8.301,0.0,0
1569,1581362112.575,13.184000000000001,14.16,50.293,9.766,0.0,0
1570,1581362112.579,13.672,18.555,41.992,13.184000000000001,0.0,0
1571,1581362112.583,29.785,26.366999999999997,39.551,16.113,0.0,0
1572,1581362112.585,23.926,21.484,37.109,12.695,0.0,0
1573,1581362112.589,6.348,4.883,30.273000000000003,9.766,0.0,0
1574,1581362112.593,12.207,3.906,25.391,15.625,0.0,0
1575,1581362112.5970001,19.531,18.066,29.785,20.508000000000003,0.0,0
1576,1581362112.601,20.996,24.901999999999997,32.715,21.484,0.0,0
1577,1581362112.605,15.625,16.602,25.879,28.809,0.0,0
1578,1581362112.609,12.695,10.254000000000001,20.02,24.901999999999997,0.0,0
1579,1581362112.6120002,14.648,16.602,29.296999999999997,12.695,0.0,0
1580,1581362112.6160002,13.672,19.043,40.527,10.254000000000001,0.0,0
1581,1581362112.62,15.137,20.508000000000003,41.016000000000005,19.043,0.0,0
1582,1581362112.6239998,16.113,22.949,40.527,29.296999999999997,0.0,0
1583,1581362112.6279998,17.578,20.02,40.039,24.901999999999997,0.0,0
1584,1581362112.63,27.344,16.602,39.062,17.578,0.0,0
1585,1581362112.6339998,31.25,24.414,33.691,19.043,0.0,0
1586,1581362112.6379998,19.531,24.414,21.973000000000003,10.254000000000001,0.0,0
1587,1581362112.6420002,13.184000000000001,8.789,20.02,2.93,0.0,0
1588,1581362112.6460001,20.508000000000003,9.277000000000001,19.043,0.488,0.0,0
1589,1581362112.65,21.973000000000003,18.555,17.09,-2.441,0.0,0
1590,1581362112.654,14.648,22.949,19.531,0.0,0.0,0
1591,1581362112.657,16.602,19.043,19.531,7.324,0.0,0
1592,1581362112.661,22.949,6.836,23.926,8.301,0.0,0
1593,1581362112.665,21.973000000000003,2.93,20.508000000000003,6.836,0.0,0
1594,1581362112.669,18.555,10.254000000000001,15.137,11.23,0.0,0
1595,1581362112.6729999,16.602,9.766,16.602,9.766,0.0,0
1596,1581362112.69,17.578,3.418,12.695,10.254000000000001,0.0,0
1597,1581362112.694,20.02,2.93,14.16,11.719000000000001,0.0,0
1598,1581362112.698,19.531,7.812,23.438000000000002,12.207,0.0,0
1599,1581362112.7020001,19.043,18.555,30.273000000000003,21.973000000000003,0.0,0
1600,1581362112.706,20.996,29.785,30.761999999999997,23.926,0.0,0
1601,1581362112.71,18.066,22.461,20.02,11.719000000000001,0.0,0
1602,1581362112.714,14.648,6.348,23.438000000000002,16.602,0.0,0
1603,1581362112.717,12.695,4.883,25.879,22.949,0.0,0
1604,1581362112.721,14.648,10.742,15.625,17.09,0.0,0
1605,1581362112.725,23.926,28.809,15.625,17.578,0.0,0
1606,1581362112.7289999,25.879,35.156,25.391,18.066,0.0,0
1607,1581362112.7329998,13.672,25.391,18.066,20.996,0.0,0
1608,1581362112.735,10.742,18.066,7.812,21.484,0.0,0
1609,1581362112.7389998,19.043,12.695,9.766,11.23,0.0,0
1610,1581362112.7429998,22.461,17.09,12.695,2.93,0.0,0
1611,1581362112.7470002,14.648,18.555,10.254000000000001,-0.488,0.0,0
1612,1581362112.7510002,10.742,20.996,2.441,-1.465,0.0,0
1613,1581362112.755,20.996,32.227,9.766,0.977,0.0,0
1614,1581362112.7589998,21.973000000000003,37.109,24.414,2.441,0.0,0
1615,1581362112.762,17.09,27.344,24.414,12.695,0.0,0
1616,1581362112.766,15.625,12.207,14.16,16.602,0.0,0
1617,1581362112.77,14.648,10.742,13.672,11.23,0.0,0
1618,1581362112.774,13.184000000000001,13.672,27.344,6.836,0.0,0
1619,1581362112.7779999,12.207,9.277000000000001,33.203,9.277000000000001,0.0,0
1620,1581362112.78,9.766,13.672,32.227,17.09,0.0,0
1621,1581362112.784,14.16,26.366999999999997,19.531,18.555,0.0,0
1622,1581362112.7879999,19.531,32.227,10.254000000000001,13.184000000000001,0.0,0
1623,1581362112.792,24.414,23.926,10.742,14.648,0.0,0
1624,1581362112.796,26.366999999999997,17.578,17.09,30.761999999999997,0.0,0
1625,1581362112.8,9.766,16.602,20.996,25.879,0.0,0
1626,1581362112.804,-4.395,9.277000000000001,24.414,3.418,0.0,0
1627,1581362112.8070002,6.348,11.23,32.715,9.277000000000001,0.0,0
1628,1581362112.811,12.695,20.508000000000003,19.043,23.926,0.0,0
1629,1581362112.815,8.301,18.555,11.23,20.996,0.0,0
1630,1581362112.819,9.766,15.137,23.926,14.648,0.0,0
1631,1581362112.823,8.789,14.648,24.901999999999997,4.883,0.0,0
1632,1581362112.825,2.441,13.672,23.438000000000002,0.488,0.0,0
1633,1581362112.829,2.93,13.672,26.855,4.883,0.0,0
1634,1581362112.833,6.348,18.066,28.32,3.906,0.0,0
1635,1581362112.8370001,8.789,13.672,24.414,4.883,0.0,0
1636,1581362112.841,14.16,11.719000000000001,22.949,14.648,0.0,0
1637,1581362112.845,17.578,11.23,24.901999999999997,19.043,0.0,0
1638,1581362112.849,16.113,13.184000000000001,22.949,10.254000000000001,0.0,0
1639,1581362112.8520002,13.672,15.625,17.578,5.371,0.0,0
1640,1581362112.856,10.254000000000001,19.531,12.695,7.324,0.0,0
1641,1581362112.86,9.766,24.414,25.391,18.555,0.0,0
1642,1581362112.8639998,9.277000000000001,26.366999999999997,28.809,22.949,0.0,0
1643,1581362112.8679998,14.648,22.949,26.855,13.184000000000001,0.0,0
1644,1581362112.869,18.066,15.625,21.973000000000003,8.789,0.0,0
1645,1581362112.873,16.113,18.555,18.555,17.578,0.0,0
1646,1581362112.877,11.23,23.438000000000002,24.901999999999997,19.531,0.0,0
1647,1581362112.881,12.695,26.855,20.02,12.695,0.0,0
1648,1581362112.885,25.879,20.02,25.391,14.16,0.0,0
1649,1581362112.889,21.973000000000003,13.184000000000001,20.02,18.555,0.0,0
1650,1581362112.893,11.719000000000001,17.09,6.836,21.484,0.0,0
1651,1581362112.8960001,20.508000000000003,22.461,13.184000000000001,19.043,0.0,0
1652,1581362112.9,25.391,29.785,21.973000000000003,14.648,0.0,0
1653,1581362112.904,24.901999999999997,28.809,29.296999999999997,15.137,0.0,0
1654,1581362112.908,22.461,16.602,23.926,20.508000000000003,0.0,0
1655,1581362112.9120002,20.508000000000003,15.137,26.366999999999997,20.996,0.0,0
1656,1581362112.914,26.366999999999997,21.484,31.25,16.602,0.0,0
1657,1581362112.918,22.461,12.207,20.02,11.23,0.0,0
1658,1581362112.9220002,15.137,11.23,18.555,10.742,0.0,0
1659,1581362112.926,19.043,24.901999999999997,23.438000000000002,17.09,0.0,0
1660,1581362112.93,19.043,21.973000000000003,32.227,14.648,0.0,0
1661,1581362112.934,20.996,7.812,34.18,14.16,0.0,0
1662,1581362112.938,20.508000000000003,9.766,14.16,19.043,0.0,0
1663,1581362112.941,10.254000000000001,17.578,10.254000000000001,17.578,0.0,0
1664,1581362112.945,10.254000000000001,20.996,27.344,13.672,0.0,0
1665,1581362112.949,16.113,14.648,28.809,13.184000000000001,0.0,0
1666,1581362112.9529998,14.16,15.625,22.949,11.23,0.0,0
1667,1581362112.957,8.301,25.391,19.531,12.207,0.0,0
1668,1581362112.9589999,6.836,16.113,16.113,10.254000000000001,0.0,0
1669,1581362112.9629998,15.137,6.348,9.277000000000001,12.695,0.0,0
1670,1581362112.967,25.391,11.23,14.648,15.137,0.0,0
1671,1581362112.971,22.949,6.348,26.366999999999997,12.695,0.0,0
1672,1581362112.975,23.438000000000002,5.859,19.531,18.066,0.0,0
1673,1581362112.9789999,32.715,14.16,10.254000000000001,20.02,0.0,0
1674,1581362112.9829998,37.598,12.695,15.137,13.672,0.0,0
1675,1581362112.986,27.344,12.695,22.949,12.695,0.0,0
1676,1581362112.99,16.602,12.695,15.625,17.09,0.0,0
1677,1581362112.994,20.996,8.301,7.324,15.137,0.0,0
1678,1581362112.998,23.438000000000002,9.277000000000001,13.184000000000001,14.648,0.0,0
1679,1581362113.002,17.09,12.695,23.438000000000002,19.043,0.0,0
1680,1581362113.004,6.348,21.484,26.366999999999997,18.555,0.0,0
1681,1581362113.008,8.301,29.785,21.973000000000003,14.648,0.0,0
1682,1581362113.012,12.207,20.508000000000003,17.09,10.742,0.0,0
1683,1581362113.016,10.254000000000001,2.93,17.09,9.277000000000001,0.0,0
1684,1581362113.02,8.789,6.348,22.949,18.066,0.0,0
1685,1581362113.024,13.672,23.438000000000002,23.438000000000002,20.02,0.0,0
1686,1581362113.0279999,17.578,19.531,21.484,5.371,0.0,0
1687,1581362113.0310001,13.672,2.93,32.715,6.348,0.0,0
1688,1581362113.035,9.766,13.672,30.761999999999997,16.602,0.0,0
1689,1581362113.039,11.23,21.484,24.901999999999997,18.555,0.0,2
1690,1581362113.043,19.043,12.695,31.738000000000003,19.043,0.0,0
1691,1581362113.0470002,22.949,16.113,38.574,18.555,0.0,0
1692,1581362113.064,19.531,21.484,36.133,23.438000000000002,0.0,0
1693,1581362113.0679998,19.043,15.625,19.043,27.831999999999997,0.0,0
1694,1581362113.072,18.555,7.324,16.602,26.366999999999997,0.0,0
1695,1581362113.076,19.531,12.695,18.066,22.461,0.0,0
1696,1581362113.08,14.16,20.508000000000003,0.0,15.137,0.0,0
1697,1581362113.0839999,14.16,22.949,-2.93,16.602,0.0,0
1698,1581362113.0879998,21.973000000000003,12.695,5.371,13.184000000000001,0.0,0
1699,1581362113.091,26.366999999999997,9.766,11.23,12.207,0.0,0
1700,1581362113.095,27.344,27.344,18.555,15.625,0.0,0
1701,1581362113.099,20.508000000000003,26.855,13.672,11.719000000000001,0.0,0
1702,1581362113.103,18.066,14.648,21.484,13.184000000000001,0.0,0
1703,1581362113.107,21.973000000000003,11.23,27.831999999999997,8.789,0.0,0
1704,1581362113.109,26.855,11.23,20.996,9.277000000000001,0.0,0
1705,1581362113.113,20.02,18.555,20.996,19.531,0.0,0
1706,1581362113.117,11.719000000000001,24.901999999999997,19.531,18.066,0.0,0
1707,1581362113.121,18.066,25.879,18.066,18.555,0.0,0
1708,1581362113.125,20.02,22.949,18.555,20.508000000000003,0.0,0
1709,1581362113.129,13.184000000000001,16.602,13.672,14.16,0.0,0
1710,1581362113.133,11.23,10.254000000000001,13.672,12.695,0.0,0
1711,1581362113.1360002,16.602,17.09,18.555,13.672,0.0,0
1712,1581362113.14,24.414,22.949,10.742,9.277000000000001,0.0,0
1713,1581362113.144,23.926,12.207,4.395,10.254000000000001,0.0,0
1714,1581362113.1479998,18.555,6.836,12.207,16.602,0.0,0
1715,1581362113.1520002,24.414,14.648,14.16,18.555,0.0,0
1716,1581362113.154,32.227,20.508000000000003,10.742,20.02,0.0,0
1717,1581362113.158,25.879,8.301,15.625,18.066,0.0,0
1718,1581362113.1620002,14.16,6.836,20.02,13.672,0.0,0
1719,1581362113.1660001,19.531,17.09,22.461,20.996,0.0,0
1720,1581362113.17,30.273000000000003,17.578,27.831999999999997,32.227,0.0,0
1721,1581362113.174,30.273000000000003,15.625,30.761999999999997,32.715,0.0,0
1722,1581362113.178,21.484,8.789,31.738000000000003,21.484,0.0,0
1723,1581362113.181,21.973000000000003,9.277000000000001,31.25,26.366999999999997,0.0,0
1724,1581362113.185,34.18,17.09,26.366999999999997,34.668,0.0,0
1725,1581362113.189,28.32,16.113,24.414,23.438000000000002,0.0,0
1726,1581362113.1929998,18.555,24.414,21.484,18.066,0.0,0
1727,1581362113.197,20.02,28.809,14.16,27.831999999999997,0.0,0
1728,1581362113.199,24.414,27.344,13.184000000000001,23.438000000000002,0.0,0
1729,1581362113.2029998,28.32,28.32,14.648,18.555,0.0,0
1730,1581362113.207,24.901999999999997,21.973000000000003,19.531,27.831999999999997,0.0,0
1731,1581362113.211,17.578,17.578,21.484,30.761999999999997,0.0,0
1732,1581362113.215,19.531,13.184000000000001,21.973000000000003,32.715,0.0,0
1733,1581362113.2189999,25.391,10.254000000000001,20.02,27.344,0.0,0
1734,1581362113.2229998,19.531,17.578,13.672,13.672,0.0,0
1735,1581362113.226,14.16,23.926,14.16,17.578,0.0,0
1736,1581362113.23,18.066,20.508000000000003,22.949,24.901999999999997,0.0,0
1737,1581362113.234,23.926,21.973000000000003,24.901999999999997,20.508000000000003,0.0,0
1738,1581362113.238,24.414,30.761999999999997,16.113,13.672,0.0,0
1739,1581362113.242,17.578,23.926,10.742,15.625,0.0,0
1740,1581362113.245,15.625,26.366999999999997,7.324,19.531,0.0,0
1741,1581362113.2489998,18.555,28.32,9.277000000000001,19.043,0.0,0
1742,1581362113.2529998,23.438000000000002,17.578,17.578,20.02,0.0,0
1743,1581362113.2570002,21.973000000000003,16.113,14.648,15.625,0.0,0
1744,1581362113.2610002,19.043,18.066,5.859,15.137,0.0,0
1745,1581362113.265,21.484,27.831999999999997,5.371,22.461,0.0,0
1746,1581362113.269,26.855,23.926,8.301,22.461,0.0,0
1747,1581362113.272,20.508000000000003,7.324,4.883,12.207,0.0,0
1748,1581362113.276,15.137,8.789,11.719000000000001,15.137,0.0,0
1749,1581362113.28,19.043,25.391,27.831999999999997,26.366999999999997,0.0,0
1750,1581362113.284,20.02,29.296999999999997,27.831999999999997,21.973000000000003,0.0,0
1751,1581362113.2879999,21.484,19.531,31.738000000000003,21.484,0.0,0
1752,1581362113.29,24.414,11.23,41.992,26.366999999999997,0.0,0
1753,1581362113.294,18.066,7.324,38.574,22.949,0.0,0
1754,1581362113.2979999,12.207,7.812,32.715,15.625,0.0,0
1755,1581362113.302,15.137,5.859,36.621,14.16,0.0,0
1756,1581362113.306,10.742,7.812,39.062,15.625,0.0,0
1757,1581362113.31,8.301,13.184000000000001,34.668,18.066,0.0,0
1758,1581362113.314,11.719000000000001,16.602,27.831999999999997,12.207,0.0,0
1759,1581362113.3170002,16.602,14.16,23.926,5.371,0.0,0
1760,1581362113.321,11.719000000000001,12.207,34.18,4.395,0.0,0
1761,1581362113.325,0.0,10.254000000000001,37.109,4.395,0.0,0
1762,1581362113.329,4.883,8.789,31.25,7.324,0.0,0
1763,1581362113.333,10.254000000000001,11.719000000000001,27.831999999999997,10.742,0.0,0
1764,1581362113.335,9.766,15.137,37.598,10.742,0.0,0
1765,1581362113.339,5.371,19.043,51.27,11.719000000000001,0.0,0
1766,1581362113.343,7.812,20.02,47.852,13.184000000000001,0.0,0
1767,1581362113.3470001,8.301,11.23,44.434,4.883,0.0,0
1768,1581362113.351,4.395,5.859,46.875,-2.93,0.0,0
1769,1581362113.355,2.441,7.812,48.34,9.277000000000001,0.0,0
1770,1581362113.359,9.766,20.508000000000003,49.316,17.578,0.0,0
1771,1581362113.3620002,21.484,34.18,54.688,18.066,0.0,0
1772,1581362113.3660002,23.926,36.133,60.547,20.996,0.0,0
1773,1581362113.37,22.461,21.973000000000003,54.199,19.043,0.0,0
1774,1581362113.3739998,12.695,8.789,36.621,16.113,0.0,0
1775,1581362113.3779998,13.184000000000001,5.859,27.831999999999997,9.277000000000001,0.0,0
1776,1581362113.395,23.438000000000002,12.207,37.598,9.277000000000001,0.0,0
1777,1581362113.399,20.508000000000003,26.366999999999997,36.133,20.508000000000003,0.0,0
1778,1581362113.4029999,16.602,31.25,35.645,25.879,0.0,0
1779,1581362113.407,17.09,25.391,35.645,16.113,0.0,0
1780,1581362113.411,16.602,22.949,33.203,6.348,0.0,0
1781,1581362113.415,18.555,21.973000000000003,37.598,6.836,0.0,0
1782,1581362113.419,11.23,16.113,38.574,7.324,0.0,0
1783,1581362113.4220002,9.277000000000001,15.137,39.062,5.859,0.0,0
1784,1581362113.426,16.602,19.531,31.738000000000003,3.906,0.0,0
1785,1581362113.43,18.555,22.461,25.879,6.836,0.0,0
1786,1581362113.434,12.207,9.766,27.831999999999997,5.859,0.0,0
1787,1581362113.438,9.277000000000001,0.488,28.32,7.324,0.0,0
1788,1581362113.44,15.137,15.137,23.926,12.207,0.0,0
1789,1581362113.444,18.555,30.761999999999997,32.227,12.695,0.0,0
1790,1581362113.448,16.113,26.366999999999997,45.898,14.648,0.0,0
1791,1581362113.4520001,12.207,20.508000000000003,47.363,22.949,0.0,0
1792,1581362113.456,15.625,21.973000000000003,39.062,19.043,0.0,0
1793,1581362113.46,22.461,17.09,31.25,10.742,0.0,0
1794,1581362113.464,18.555,13.184000000000001,28.809,8.789,0.0,0
1795,1581362113.467,9.766,20.02,33.203,11.719000000000001,0.0,0
1796,1581362113.471,9.766,25.879,41.504,16.113,0.0,0
1797,1581362113.475,19.043,16.113,41.504,12.695,0.0,0
1798,1581362113.4789999,22.461,4.883,41.992,16.113,0.0,0
1799,1581362113.4829998,17.578,12.695,43.457,23.438000000000002,0.0,0
1800,1581362113.485,17.09,18.555,32.227,27.344,0.0,0
1801,1581362113.4889998,20.996,19.531,35.645,24.901999999999997,0.0,0
1802,1581362113.4929998,19.043,22.461,43.457,12.695,0.0,0
1803,1581362113.4970002,11.719000000000001,20.508000000000003,39.551,9.766,0.0,0
1804,1581362113.5010002,12.207,14.16,38.574,18.555,0.0,0
1805,1581362113.505,17.578,2.441,35.156,21.484,0.0,0
1806,1581362113.5089998,17.09,4.883,35.156,11.719000000000001,0.0,0
1807,1581362113.512,13.672,15.137,39.551,5.859,0.0,0
1808,1581362113.516,9.766,17.09,38.086,12.695,0.0,0
1809,1581362113.52,9.766,19.531,38.574,6.348,0.0,0
1810,1581362113.524,13.672,20.508000000000003,45.898,-6.348,0.0,0
1811,1581362113.5279999,12.695,15.625,40.039,-1.465,0.0,0
1812,1581362113.53,10.742,11.23,34.18,5.859,0.0,0
1813,1581362113.534,10.742,10.254000000000001,38.086,0.0,0.0,0
1814,1581362113.5379999,13.672,17.09,43.457,-0.977,0.0,0
1815,1581362113.542,15.137,14.648,43.457,5.859,0.0,0
1816,1581362113.546,7.812,12.695,41.504,9.277000000000001,0.0,0
1817,1581362113.55,9.277000000000001,24.414,38.086,8.789,0.0,0
1818,1581362113.554,20.508000000000003,34.668,41.504,4.883,0.0,0
1819,1581362113.5570002,23.438000000000002,33.691,48.828,5.859,0.0,0
1820,1581362113.561,15.625,25.879,40.527,11.23,0.0,0
1821,1581362113.565,11.719000000000001,23.926,43.457,20.508000000000003,0.0,0
1822,1581362113.569,15.137,30.761999999999997,51.758,15.625,0.0,0
1823,1581362113.573,15.137,30.273000000000003,43.945,15.137,0.0,0
1824,1581362113.575,12.695,15.625,50.293,18.066,0.0,0
1825,1581362113.579,6.836,8.301,51.27,12.207,0.0,0
1826,1581362113.583,13.672,19.531,43.945,19.043,0.0,0
1827,1581362113.5870001,22.461,25.391,34.18,18.066,0.0,0
1828,1581362113.591,20.02,22.461,28.32,11.23,0.0,0
1829,1581362113.595,14.648,22.461,34.668,13.184000000000001,0.0,0
1830,1581362113.599,16.113,28.32,38.574,12.695,0.0,0
1831,1581362113.6020002,22.949,34.668,33.203,12.695,0.0,0
1832,1581362113.606,26.855,39.062,30.761999999999997,13.184000000000001,0.0,0
1833,1581362113.61,22.949,26.366999999999997,44.434,9.766,0.0,0
1834,1581362113.6139998,19.043,11.23,38.574,13.672,0.0,0
1835,1581362113.6179998,24.414,23.926,30.761999999999997,19.531,0.0,0
1836,1581362113.62,25.879,36.133,41.992,11.719000000000001,0.0,0
1837,1581362113.6239998,18.555,29.785,43.457,5.371,0.0,0
1838,1581362113.6279998,6.836,15.137,35.156,7.812,0.0,0
1839,1581362113.6320002,7.812,14.648,31.25,11.719000000000001,0.0,0
1840,1581362113.6360002,18.555,21.484,29.296999999999997,13.672,0.0,0
1841,1581362113.64,18.555,25.879,28.32,13.672,0.0,0
1842,1581362113.644,15.137,31.738000000000003,38.574,16.602,0.0,0
1843,1581362113.647,18.555,35.156,38.574,17.578,0.0,0
1844,1581362113.651,24.901999999999997,25.879,38.574,17.578,0.0,0
1845,1581362113.655,26.855,14.16,41.016000000000005,25.879,0.0,0
1846,1581362113.659,30.273000000000003,21.973000000000003,36.133,41.992,0.0,0
1847,1581362113.6629999,22.461,33.203,31.738000000000003,28.32,0.0,0
1848,1581362113.665,17.09,41.016000000000005,26.366999999999997,3.906,0.0,0
1849,1581362113.669,18.555,36.133,28.32,5.859,0.0,0
1850,1581362113.6729999,6.836,31.25,26.855,10.742,0.0,0
1851,1581362113.677,-2.93,32.715,26.855,10.742,0.0,0
1852,1581362113.681,3.906,20.508000000000003,35.645,10.254000000000001,0.0,0
1853,1581362113.685,13.184000000000001,11.719000000000001,37.598,15.137,0.0,0
1854,1581362113.689,15.625,19.531,28.809,20.508000000000003,0.0,0
1855,1581362113.6920002,19.043,27.831999999999997,35.156,22.461,0.0,0
1856,1581362113.696,19.531,20.508000000000003,46.875,13.672,0.0,0
1857,1581362113.7,23.438000000000002,23.926,46.875,3.906,0.0,0
1858,1581362113.704,20.508000000000003,29.785,41.016000000000005,7.324,0.0,0
1859,1581362113.708,12.695,19.043,33.203,14.16,0.0,0
1860,1581362113.71,11.719000000000001,14.648,27.831999999999997,10.742,0.0,0
1861,1581362113.714,12.695,22.949,21.484,8.789,0.0,0
1862,1581362113.718,20.996,21.484,17.09,13.672,0.0,0
1863,1581362113.7220001,15.137,20.996,18.066,12.695,0.0,0
1864,1581362113.726,3.906,31.25,22.949,10.742,0.0,0
1865,1581362113.73,11.719000000000001,34.18,13.184000000000001,5.371,0.0,0
1866,1581362113.734,20.02,22.461,2.441,7.812,0.0,0
1867,1581362113.7370002,15.137,19.043,7.812,15.625,0.0,0
1868,1581362113.7410002,6.836,25.879,17.578,17.578,0.0,0
1869,1581362113.745,15.625,24.901999999999997,21.973000000000003,22.461,0.0,0
1870,1581362113.7489998,27.831999999999997,22.949,21.484,27.831999999999997,0.0,0
1871,1581362113.7529998,20.996,22.461,17.578,24.901999999999997,0.0,0
1872,1581362113.755,17.578,18.066,22.949,20.996,0.0,0
1873,1581362113.7589998,26.366999999999997,17.578,26.366999999999997,23.926,0.0,0
1874,1581362113.7629998,26.855,27.344,23.926,20.02,0.0,0
1875,1581362113.7670002,18.066,29.785,28.32,13.672,0.0,0
1876,1581362113.7710001,13.184000000000001,25.879,37.598,20.02,0.0,0
1877,1581362113.775,19.043,20.996,38.086,21.484,0.0,0
