timestamps,TP9,AF7,AF8,TP10,Right AUX,Marker0
1581712843.8479998,-96.191,262.207,43.945,-123.535,0.0,0
1581712843.8520002,-93.262,367.1880000000001,45.898,-121.094,0.0,0
1581712843.856,-106.934,600.0980000000002,53.223,-136.719,0.0,0
1581712843.86,-145.50799999999995,663.086,53.71100000000001,-178.22299999999996,0.0,0
1581712843.8639998,-169.922,583.008,47.363,-204.102,0.0,0
1581712843.8679998,-173.34,492.676,48.34,-207.52,0.0,0
1581712843.8720002,-171.875,533.691,52.734,-200.195,0.0,0
1581712843.875,-171.875,499.512,50.78100000000001,-209.961,0.0,0
1581712843.879,-170.898,290.527,51.758,-214.844,0.0,0
1581712843.883,-160.645,531.25,55.664,-198.73,0.0,0
1581712843.887,-154.785,689.453,51.758,-187.988,0.0,0
1581712843.891,-148.92600000000004,517.09,46.875,-185.547,0.0,0
1581712843.8920002,-133.30100000000002,456.055,43.457,-176.27,0.0,0
1581712843.896,-119.141,565.918,40.039,-162.59799999999996,0.0,0
1581712843.9,-100.586,616.6990000000002,38.086,-144.043,0.0,0
1581712843.904,-82.031,507.324,39.551,-128.906,0.0,0
1581712843.908,-68.359,358.398,43.457,-116.211,0.0,0
1581712843.9120002,-52.246,318.848,38.574,-97.168,0.0,0
1581712843.916,-43.945,323.242,30.273000000000003,-87.891,0.0,0
1581712843.919,-29.785,200.68400000000003,27.832,-74.707,0.0,0
1581712843.923,-7.324,240.723,28.32,-52.246,0.0,0
1581712843.927,13.184,488.281,23.926,-29.785,0.0,0
1581712843.931,28.32,444.336,20.996,-9.766,0.0,0
1581712843.935,37.109,324.707,20.02,8.789,0.0,0
1581712843.937,48.828,323.242,16.113,18.555,0.0,0
1581712843.941,58.105,304.199,9.766,21.973000000000006,0.0,0
1581712843.945,66.406,156.738,4.395,34.18,0.0,0
1581712843.949,78.613,112.793,9.277,53.71100000000001,0.0,0
1581712843.9529998,85.449,106.445,10.254,68.359,0.0,0
1581712843.957,82.52,-34.18,0.488,65.43,0.0,0
1581712843.961,87.891,-227.539,-1.953,63.965,0.0,0
1581712843.964,97.168,-255.371,-3.418,77.148,0.0,0
1581712843.968,102.539,2.93,-3.906,90.332,0.0,0
1581712843.972,109.863,44.922,-0.488,99.121,0.0,0
1581712843.976,118.164,-145.996,2.441,110.84,0.0,0
1581712843.98,119.629,-137.695,0.488,114.746,0.0,0
1581712843.9829998,125.488,-80.078,2.441,117.188,0.0,0
1581712843.9870002,135.254,-185.05900000000003,7.324,131.34799999999998,0.0,0
1581712843.9910002,135.254,-304.199,9.277,132.812,0.0,0
1581712843.995,134.27700000000002,-309.082,10.742,132.812,0.0,0
1581712843.9989998,140.137,-228.516,9.277,140.625,0.0,0
1581712844.0029998,140.137,-324.219,7.812,138.672,0.0,0
1581712844.0070002,135.74200000000002,-529.297,7.812,133.30100000000002,0.0,0
1581712844.01,137.207,-470.215,5.859,134.766,0.0,0
1581712844.014,139.648,-204.59,10.254,139.648,0.0,0
1581712844.018,140.625,-229.492,11.23,138.672,0.0,0
1581712844.022,142.09,-364.746,11.719,140.625,0.0,0
1581712844.026,137.207,-355.957,11.23,143.066,0.0,0
1581712844.042,133.789,-269.043,8.301,143.066,0.0,0
1581712844.046,134.27700000000002,-280.273,9.766,141.602,0.0,0
1581712844.05,133.30100000000002,-359.86300000000006,10.254,136.23,0.0,0
1581712844.054,134.27700000000002,-299.805,14.16,135.254,0.0,0
1581712844.0579998,131.836,-210.449,19.043,141.602,0.0,0
1581712844.062,127.93,-321.777,17.09,141.602,0.0,0
1581712844.066,124.512,-465.82,18.066,128.418,0.0,0
1581712844.069,116.699,-280.273,20.02,122.07,0.0,0
1581712844.073,118.164,-128.906,20.508000000000006,126.953,0.0,0
1581712844.077,122.07,-155.762,21.484,125.488,0.0,0
1581712844.081,112.793,-161.13299999999995,21.973000000000006,116.699,0.0,0
1581712844.085,108.887,-133.30100000000002,27.344,112.793,0.0,0
1581712844.0879998,109.375,-206.543,26.855,110.352,0.0,0
1581712844.092,109.375,-296.387,29.297,109.863,0.0,0
1581712844.096,105.957,-186.523,33.691,110.84,0.0,0
1581712844.1,95.215,-160.156,29.297,103.516,0.0,0
1581712844.104,91.797,-211.426,25.879,99.609,0.0,0
1581712844.1079998,89.844,-314.453,24.902,100.098,0.0,0
1581712844.1120002,88.37899999999998,-342.285,24.414,97.656,0.0,0
1581712844.115,87.402,-205.566,24.902,90.82,0.0,0
1581712844.119,84.961,-160.156,22.949,90.332,0.0,0
1581712844.123,84.961,-347.168,23.438,92.285,0.0,0
1581712844.127,82.031,-357.422,26.367,84.473,0.0,0
1581712844.131,78.613,-102.051,27.832,81.055,0.0,0
1581712844.133,80.566,-215.332,25.879,78.613,0.0,0
1581712844.137,78.125,-286.621,23.438,74.707,0.0,0
1581712844.141,72.266,-164.062,23.926,75.684,0.0,0
1581712844.145,70.801,-205.078,24.414,73.73,0.0,0
1581712844.149,70.801,-352.051,24.414,66.895,0.0,0
1581712844.153,69.336,-376.953,24.414,68.848,0.0,0
1581712844.157,68.359,-247.07,27.344,73.242,0.0,0
1581712844.16,62.988,-97.168,26.367,70.312,0.0,0
1581712844.164,57.617,-283.203,24.414,63.965,0.0,0
1581712844.168,59.57,-435.547,25.879,62.988,0.0,0
1581712844.1720002,63.965,-128.906,31.25,73.73,0.0,0
1581712844.176,60.547,-51.758,29.785,72.75399999999998,0.0,0
1581712844.178,52.246,-157.227,23.438,57.129,0.0,0
1581712844.1820002,56.64100000000001,-170.41,24.414,56.64100000000001,0.0,0
1581712844.186,55.176,-128.906,26.367,60.547,0.0,0
1581712844.19,49.805,-83.008,25.879,58.594,0.0,0
1581712844.194,46.387,-128.906,22.949,48.828,0.0,0
1581712844.198,40.527,-274.902,22.949,42.969,0.0,0
1581712844.202,39.062,-307.617,26.855,45.41,0.0,0
1581712844.205,44.434,-144.531,27.344,51.758,0.0,0
1581712844.209,44.434,-295.41,26.367,48.34,0.0,0
1581712844.2129998,41.504,-326.172,28.32,41.01600000000001,0.0,0
1581712844.217,44.922,-30.762,30.762,44.434,0.0,0
1581712844.221,41.992,-64.941,28.32,45.898,0.0,0
1581712844.2229998,41.504,-163.57399999999996,27.832,46.387,0.0,0
1581712844.2270002,47.363,-124.512,30.273000000000003,43.945,0.0,0
1581712844.231,49.316,-82.031,28.32,44.434,0.0,0
1581712844.235,46.875,-141.113,28.32,42.969,0.0,0
1581712844.2389998,43.945,-169.43400000000003,31.25,38.574,0.0,0
1581712844.2429998,39.062,-238.77,29.297,36.133,0.0,0
1581712844.2470002,35.645,-181.152,20.508000000000006,27.832,0.0,0
1581712844.25,42.969,-177.734,19.531,28.809,0.0,0
1581712844.254,45.898,-269.043,24.902,31.738000000000003,0.0,0
1581712844.258,43.945,-141.602,23.926,29.785,0.0,0
1581712844.262,43.945,-103.516,24.414,32.227,0.0,0
1581712844.266,41.992,-61.523,27.832,37.598,0.0,0
1581712844.2670002,38.574,21.484,25.391,39.062,0.0,0
1581712844.271,41.01600000000001,67.87100000000001,23.926,37.598,0.0,0
1581712844.275,40.527,-27.344,26.367,36.133,0.0,0
1581712844.279,36.621,-130.371,27.832,33.203,0.0,0
1581712844.283,37.598,-54.688,23.438,35.156,0.0,0
1581712844.2870002,35.156,-116.699,24.414,36.621,0.0,0
1581712844.291,32.715,-164.551,26.367,33.691,0.0,0
1581712844.294,31.738000000000003,-278.809,27.344,28.809,0.0,0
1581712844.298,33.691,-191.406,28.32,29.297,0.0,0
1581712844.302,35.156,93.75,27.832,32.715,0.0,0
1581712844.306,35.156,20.508000000000006,31.738000000000003,35.645,0.0,0
1581712844.31,32.715,-40.527,28.809,31.738000000000003,0.0,0
1581712844.313,28.32,-29.785,27.344,30.273000000000003,0.0,0
1581712844.3170002,31.25,-34.668,33.691,37.109,0.0,0
1581712844.321,33.691,-15.137,34.18,35.156,0.0,0
1581712844.325,31.738000000000003,-43.457,29.297,31.738000000000003,0.0,0
1581712844.329,32.715,22.461,26.367,37.598,0.0,0
1581712844.333,34.668,-16.602,24.902,37.598,0.0,0
1581712844.337,42.969,-142.578,27.344,30.762,0.0,0
1581712844.34,41.01600000000001,-189.453,28.809,26.855,0.0,0
1581712844.344,33.203,1.465,26.367,26.855,0.0,0
1581712844.3479998,37.598,119.629,26.855,34.668,0.0,0
1581712844.3520002,37.109,-10.254,28.32,35.156,0.0,0
1581712844.356,36.621,-50.293,28.809,27.832,0.0,0
1581712844.3579998,34.18,40.527,29.785,26.855,0.0,0
1581712844.3620002,32.715,91.309,32.227,28.809,0.0,0
1581712844.3660002,38.574,57.617,30.273000000000003,30.273000000000003,0.0,0
1581712844.37,36.621,-104.98,26.855,24.902,0.0,0
1581712844.3739998,31.25,-44.922,27.832,23.438,0.0,0
1581712844.3779998,26.855,50.78100000000001,27.832,21.484,0.0,0
1581712844.3820002,30.762,-154.785,29.297,22.461,0.0,0
1581712844.385,34.18,-86.426,30.273000000000003,24.902,0.0,0
1581712844.389,24.414,134.27700000000002,23.926,20.02,0.0,0
1581712844.393,24.414,90.332,22.461,21.973000000000006,0.0,0
1581712844.397,31.25,25.391,24.414,27.344,0.0,0
1581712844.401,28.32,61.035,26.855,27.344,0.0,0
1581712844.418,25.879,81.055,29.297,26.367,0.0,0
1581712844.4220002,25.391,-29.785,28.809,23.926,0.0,0
1581712844.426,22.949,-53.71100000000001,28.32,23.438,0.0,0
1581712844.43,25.391,88.37899999999998,27.344,24.902,0.0,0
1581712844.434,26.367,96.68,27.344,22.461,0.0,0
1581712844.438,30.273000000000003,-116.211,29.297,26.367,0.0,0
1581712844.4420002,35.156,-248.535,27.344,28.32,0.0,0
1581712844.445,31.738000000000003,-8.789,27.344,27.344,0.0,0
1581712844.449,34.668,147.461,27.832,28.32,0.0,0
1581712844.4529998,33.691,52.246,25.879,22.461,0.0,0
1581712844.457,29.297,62.988,24.902,19.531,0.0,0
1581712844.461,39.551,102.539,27.832,29.297,0.0,0
1581712844.4629998,43.945,96.191,33.203,36.621,0.0,0
1581712844.467,33.203,37.109,35.645,24.902,0.0,0
1581712844.471,30.762,4.883,34.18,20.508000000000006,0.0,0
1581712844.475,33.691,108.887,33.691,30.273000000000003,0.0,0
1581712844.479,30.762,141.113,34.18,27.832,0.0,0
1581712844.4829998,33.691,-16.602,33.203,20.508000000000006,0.0,0
1581712844.4870002,38.086,-72.266,32.715,21.973000000000006,0.0,0
1581712844.49,37.598,67.87100000000001,36.621,30.273000000000003,0.0,0
1581712844.494,40.527,137.695,41.01600000000001,33.691,0.0,0
1581712844.498,40.527,-105.957,41.01600000000001,30.273000000000003,0.0,0
1581712844.502,33.203,-117.188,38.086,21.973000000000006,0.0,0
1581712844.506,30.762,148.92600000000004,36.133,23.438,0.0,0
1581712844.508,30.762,104.492,35.645,29.785,0.0,0
1581712844.512,28.32,11.23,36.621,25.879,0.0,0
1581712844.516,27.832,38.086,36.133,20.508000000000006,0.0,0
1581712844.52,30.273000000000003,89.844,37.109,29.785,0.0,0
1581712844.524,27.344,64.941,35.156,35.156,0.0,0
1581712844.528,22.949,-66.406,35.645,32.227,0.0,0
1581712844.532,26.855,-38.086,39.551,33.203,0.0,0
1581712844.535,20.508000000000006,107.422,34.18,30.273000000000003,0.0,0
1581712844.539,18.555,39.062,30.762,23.438,0.0,0
1581712844.543,18.555,-79.102,34.668,24.414,0.0,0
1581712844.5470002,26.367,79.102,35.645,31.738000000000003,0.0,0
1581712844.551,62.988,125.488,28.32,53.71100000000001,0.0,0
1581712844.553,75.684,56.64100000000001,26.855,70.312,0.0,0
1581712844.5570002,32.227,13.184,41.01600000000001,40.039,0.0,0
1581712844.561,18.066,76.66,46.387,20.508000000000006,0.0,0
1581712844.565,36.133,112.793,37.598,35.645,0.0,0
1581712844.569,42.969,37.598,35.645,47.363,0.0,0
1581712844.573,46.387,3.906,38.574,57.617,0.0,0
1581712844.577,31.25,-3.906,44.434,51.758,0.0,0
1581712844.58,28.32,71.289,46.875,50.293,0.0,0
1581712844.584,33.203,-58.105,43.457,56.64100000000001,0.0,0
1581712844.5879998,26.855,-38.086,43.457,59.082,0.0,0
1581712844.592,35.645,216.30900000000003,42.969,75.195,0.0,0
1581712844.596,34.668,123.535,41.504,75.195,0.0,0
1581712844.5979998,27.832,22.949,40.527,68.359,0.0,0
1581712844.6020002,27.344,118.652,40.527,66.895,0.0,0
1581712844.606,31.738000000000003,134.766,41.504,75.195,0.0,0
1581712844.61,40.039,-9.766,43.945,84.961,0.0,0
1581712844.6139998,43.945,-22.461,43.457,82.52,0.0,0
1581712844.6179998,49.805,15.625,41.01600000000001,83.49600000000002,0.0,0
1581712844.6220002,48.828,88.867,40.039,83.49600000000002,0.0,0
1581712844.625,43.945,4.883,38.574,75.684,0.0,0
1581712844.629,53.223,-152.832,40.527,75.195,0.0,0
1581712844.633,54.688,89.355,40.527,78.613,0.0,0
1581712844.637,48.828,227.539,35.156,76.172,0.0,0
1581712844.641,53.223,153.809,35.156,77.148,0.0,0
1581712844.643,53.71100000000001,94.238,38.086,74.707,0.0,0
1581712844.647,53.71100000000001,103.027,36.133,68.848,0.0,0
1581712844.651,50.78100000000001,143.555,33.203,70.312,0.0,0
1581712844.655,48.828,71.289,35.645,68.359,0.0,0
1581712844.659,46.387,13.672,34.668,63.965,0.0,0
1581712844.663,46.875,-1.953,34.668,63.965,0.0,0
1581712844.667,52.246,-20.996,37.109,64.941,0.0,0
1581712844.67,51.758,-123.047,33.691,62.012,0.0,0
1581712844.674,48.34,-40.039,31.25,54.199,0.0,0
1581712844.678,47.363,171.387,34.18,58.594,0.0,0
1581712844.6820002,47.852,159.18,35.156,64.941,0.0,0
1581712844.686,45.41,146.484,31.738000000000003,60.059,0.0,0
1581712844.688,53.223,132.812,29.297,59.57,0.0,0
1581712844.6920002,58.105,103.516,30.762,56.152,0.0,0
1581712844.696,51.758,67.87100000000001,33.203,54.199,0.0,0
1581712844.7,53.223,97.168,29.785,57.129,0.0,0
1581712844.704,54.688,130.371,28.32,54.199,0.0,0
1581712844.708,51.758,6.836,30.273000000000003,53.223,0.0,0
1581712844.712,58.105,-102.051,32.227,61.035,0.0,0
1581712844.715,57.617,-55.176,31.738000000000003,59.57,0.0,0
1581712844.719,48.828,170.41,27.344,48.828,0.0,0
1581712844.7229998,46.387,181.152,26.855,48.828,0.0,0
1581712844.7270002,46.387,-54.199,29.297,49.316,0.0,0
1581712844.731,47.363,1.953,29.785,50.78100000000001,0.0,0
1581712844.748,46.387,237.305,31.25,53.223,0.0,0
1581712844.752,43.945,177.734,32.715,50.293,0.0,0
1581712844.756,41.01600000000001,52.734,29.785,45.41,0.0,0
1581712844.76,36.621,57.129,26.855,40.039,0.0,0
1581712844.764,38.574,142.578,29.297,39.551,0.0,0
1581712844.768,39.062,54.199,26.855,38.574,0.0,0
1581712844.772,35.645,-189.453,26.855,35.156,0.0,0
1581712844.775,35.645,-92.285,32.227,35.645,0.0,0
1581712844.779,36.133,220.215,31.25,37.109,0.0,0
1581712844.783,36.621,170.41,31.738000000000003,37.109,0.0,0
1581712844.7870002,33.203,41.504,35.645,35.156,0.0,0
1581712844.791,31.25,148.92600000000004,31.738000000000003,32.227,0.0,0
1581712844.794,35.156,189.453,29.297,37.598,0.0,0
1581712844.798,33.203,28.32,31.738000000000003,39.062,0.0,0
1581712844.802,35.156,20.508000000000006,31.738000000000003,35.645,0.0,0
1581712844.806,36.621,134.27700000000002,29.785,37.109,0.0,0
1581712844.81,31.25,169.43400000000003,24.902,29.297,0.0,0
1581712844.814,39.062,12.207,27.832,27.832,0.0,0
1581712844.8179998,41.504,-50.293,29.297,32.715,0.0,0
1581712844.821,30.762,128.418,27.344,32.227,0.0,0
1581712844.825,34.668,237.305,30.762,35.156,0.0,0
1581712844.829,39.551,54.199,31.25,32.227,0.0,0
1581712844.833,35.645,-104.004,29.785,28.32,0.0,0
1581712844.837,35.645,92.773,29.297,27.832,0.0,0
1581712844.853,33.691,175.78099999999995,26.855,29.297,0.0,0
1581712844.857,32.227,154.785,26.367,33.203,0.0,0
1581712844.861,32.715,151.855,26.855,28.809,0.0,0
1581712844.865,30.762,110.84,26.855,21.973000000000006,0.0,0
1581712844.869,25.391,73.242,24.902,17.09,0.0,0
1581712844.873,28.809,27.832,29.785,22.949,0.0,0
1581712844.877,32.715,17.09,32.715,25.391,0.0,0
1581712844.88,21.484,144.531,26.855,12.695,0.0,0
1581712844.8839998,20.02,206.055,25.879,10.254,0.0,0
1581712844.8879998,20.02,-17.09,27.344,16.113,0.0,0
1581712844.8920002,20.996,47.852,26.367,20.508000000000006,0.0,0
1581712844.896,23.438,266.113,26.855,19.043,0.0,0
1581712844.883,17.578,127.93,29.297,17.09,0.0,0
1581712844.887,33.203,41.992,29.785,33.203,0.0,0
1581712844.891,52.246,150.391,26.367,48.828,0.0,0
1581712844.895,49.316,198.73,23.926,42.48,0.0,0
1581712844.899,36.621,82.031,30.273000000000003,37.109,0.0,0
1581712844.903,27.344,-8.789,29.785,28.809,0.0,0
1581712844.907,31.25,32.715,22.461,28.32,0.0,0
1581712844.91,40.039,51.27,22.949,37.598,0.0,0
1581712844.914,48.828,31.25,19.043,42.48,0.0,0
1581712844.918,61.035,70.312,14.16,55.664,0.0,0
1581712844.9220002,62.988,199.219,17.09,57.617,0.0,0
1581712844.926,58.594,237.305,19.043,52.246,0.0,0
1581712844.928,64.941,28.32,17.09,59.082,0.0,0
1581712844.9320002,72.266,-92.285,17.578,67.383,0.0,0
1581712844.936,72.75399999999998,203.125,20.02,78.125,0.0,0
1581712844.94,82.52,300.293,18.555,91.797,0.0,0
1581712844.944,88.867,149.414,17.578,95.703,0.0,0
1581712844.948,87.402,31.25,18.555,91.309,0.0,0
1581712844.952,99.121,106.445,18.066,104.98,0.0,0
1581712844.955,109.375,315.918,17.578,115.723,0.0,0
1581712844.959,108.398,157.227,15.625,108.398,0.0,0
1581712844.9629998,109.375,-17.09,13.672,107.91,0.0,0
1581712844.967,109.863,267.09,14.16,111.816,0.0,0
1581712844.971,113.281,344.727,15.625,118.164,0.0,0
1581712844.9729998,109.863,187.012,12.207,113.281,0.0,0
1581712844.9770002,105.957,222.656,14.648,104.98,0.0,0
1581712844.981,108.398,324.707,20.02,106.445,0.0,0
1581712844.985,108.398,249.512,16.602,104.98,0.0,0
1581712844.9889998,104.492,200.195,14.16,99.121,0.0,0
1581712844.9929998,96.68,135.254,15.625,93.262,0.0,0
1581712844.9970002,95.703,128.418,17.578,93.262,0.0,0
1581712845.0,95.703,159.18,19.043,91.797,0.0,0
1581712845.004,95.215,70.312,20.996,88.37899999999998,0.0,0
1581712845.008,89.844,219.727,23.438,87.891,0.0,0
1581712845.012,84.961,296.875,23.438,86.914,0.0,0
1581712845.016,81.543,220.703,21.973000000000006,79.59,0.0,0
1581712845.018,81.055,179.688,23.926,77.148,0.0,0
1581712845.022,75.684,133.789,25.391,75.195,0.0,0
1581712845.026,68.359,165.52700000000004,21.973000000000006,69.824,0.0,0
1581712845.03,65.918,212.891,18.066,69.336,0.0,0
1581712845.034,64.453,216.30900000000003,19.531,67.87100000000001,0.0,0
1581712845.038,62.988,149.90200000000004,20.996,61.523,0.0,0
1581712845.042,61.035,137.695,19.531,58.594,0.0,0
1581712845.045,56.64100000000001,34.668,17.09,57.129,0.0,0
1581712845.049,59.082,60.059,19.531,62.012,0.0,0
1581712845.053,62.988,314.941,21.484,64.941,0.0,0
1581712845.0570002,56.152,229.492,21.484,59.082,0.0,0
1581712845.061,54.199,158.203,22.949,57.129,0.0,0
1581712845.063,55.176,167.96900000000005,24.902,58.594,0.0,0
1581712845.0670002,54.199,242.188,24.414,58.105,0.0,0
1581712845.071,52.246,182.129,25.391,51.758,0.0,0
1581712845.075,47.852,-25.391,26.367,49.805,0.0,0
1581712845.079,44.922,104.492,24.414,50.293,0.0,0
1581712845.083,48.828,158.691,23.438,47.363,0.0,0
1581712845.087,49.316,39.062,25.391,44.434,0.0,0
1581712845.09,42.48,-16.113,26.855,43.457,0.0,0
1581712845.094,41.992,182.129,26.367,42.969,0.0,0
1581712845.0979998,41.01600000000001,322.266,22.461,42.969,0.0,0
1581712845.1020002,39.551,196.777,20.996,42.48,0.0,0
1581712845.106,41.504,116.699,24.902,37.598,0.0,0
1581712845.1079998,40.039,176.75799999999995,23.926,31.738000000000003,0.0,0
1581712845.1120002,41.992,219.238,24.902,36.133,0.0,0
1581712845.1160002,43.945,170.41,27.832,40.527,0.0,0
1581712845.12,38.574,142.09,24.414,36.133,0.0,0
1581712845.1239998,36.621,153.809,22.461,33.203,0.0,0
1581712845.1279998,36.133,110.84,23.438,32.227,0.0,0
1581712845.1320002,35.645,-60.547,25.879,33.203,0.0,2
1581712845.135,35.645,-33.691,23.926,32.227,0.0,0
1581712845.139,36.133,224.609,22.949,31.738000000000003,0.0,0
1581712845.143,38.574,197.266,23.438,36.133,0.0,0
1581712845.147,39.551,169.43400000000003,24.902,38.086,0.0,0
1581712845.151,40.527,217.285,24.902,32.715,0.0,0
1581712845.168,44.434,162.109,23.438,33.203,0.0,0
1581712845.1720002,45.898,129.88299999999998,25.391,35.156,0.0,0
1581712845.176,38.086,142.578,23.438,32.715,0.0,0
1581712845.18,36.133,173.34,23.926,33.691,0.0,0
1581712845.184,38.086,193.848,24.902,32.227,0.0,0
1581712845.188,34.18,-7.324,25.391,29.785,0.0,0
1581712845.1920002,45.898,-145.50799999999995,27.832,42.48,0.0,0
1581712845.195,64.941,159.18,25.879,66.406,0.0,0
1581712845.199,58.105,260.254,18.066,54.199,0.0,0
1581712845.2029998,32.715,69.824,11.23,13.184,0.0,0
1581712845.207,31.738000000000003,131.34799999999998,15.625,15.137,0.0,0
1581712845.211,51.758,250.977,19.043,44.434,0.0,0
1581712845.2129998,59.57,212.891,15.137,48.34,0.0,0
1581712845.217,56.64100000000001,112.305,11.23,38.086,0.0,0
1581712845.221,51.27,103.027,11.23,34.18,0.0,0
1581712845.225,52.734,218.262,9.277,38.086,0.0,0
1581712845.229,48.34,209.961,6.836,33.203,0.0,0
1581712845.2329998,47.852,45.898,10.254,35.156,0.0,0
1581712845.2370002,52.246,-5.371,12.207,36.621,0.0,0
1581712845.24,49.805,154.785,11.719,34.668,0.0,0
1581712845.244,52.246,239.746,14.648,38.574,0.0,0
1581712845.248,51.27,10.254,16.113,32.715,0.0,0
1581712845.252,49.316,45.41,19.043,37.598,0.0,0
1581712845.256,51.758,281.25,18.555,42.969,0.0,0
1581712845.258,46.387,164.551,16.113,39.062,0.0,0
1581712845.262,44.922,94.238,19.531,38.086,0.0,0
1581712845.266,44.434,200.195,21.484,34.18,0.0,0
1581712845.27,44.434,260.742,20.02,33.203,0.0,0
1581712845.274,42.969,197.754,18.066,31.738000000000003,0.0,0
1581712845.278,37.598,59.082,18.066,28.809,0.0,0
1581712845.282,39.551,31.25,22.461,31.25,0.0,0
1581712845.285,40.039,201.172,22.949,33.203,0.0,0
1581712845.289,41.01600000000001,167.96900000000005,21.973000000000006,35.156,0.0,0
1581712845.293,40.527,39.062,19.043,30.762,0.0,0
1581712845.2970002,38.086,186.035,17.09,24.414,0.0,0
1581712845.301,39.551,241.211,18.066,29.297,0.0,0
1581712845.303,40.039,190.918,19.043,29.297,0.0,0
1581712845.3070002,36.621,192.383,21.973000000000006,25.391,0.0,0
1581712845.311,39.062,223.633,24.902,29.785,0.0,0
1581712845.315,42.48,134.766,25.391,33.203,0.0,0
1581712845.319,42.48,134.27700000000002,23.926,40.039,0.0,0
1581712845.323,41.504,125.0,24.902,43.945,0.0,0
1581712845.327,38.086,75.195,27.344,39.062,0.0,0
1581712845.33,35.645,190.918,25.879,33.691,0.0,0
1581712845.334,36.133,110.84,26.855,31.738000000000003,0.0,0
1581712845.3379998,34.668,123.535,30.273000000000003,32.715,0.0,0
1581712845.342,32.227,320.312,30.273000000000003,32.715,0.0,0
1581712845.346,35.645,221.68,29.785,27.344,0.0,0
1581712845.3479998,36.133,159.18,29.785,25.879,0.0,0
1581712845.3520002,37.109,247.55900000000003,31.25,31.25,0.0,0
1581712845.356,37.598,244.141,31.738000000000003,37.109,0.0,0
1581712845.36,35.156,125.0,27.832,31.738000000000003,0.0,0
1581712845.3639998,26.855,65.43,28.32,26.855,0.0,0
1581712845.3679998,34.668,59.57,30.762,45.41,0.0,0
1581712845.3720002,66.895,99.609,29.785,70.312,0.0,0
1581712845.375,40.527,55.664,26.855,25.391,0.0,0
1581712845.379,-12.207,-10.254,25.879,-29.785,0.0,0
1581712845.383,-30.762,221.68,29.297,-39.551,0.0,0
1581712845.387,-37.598,320.312,30.273000000000003,-49.316,0.0,0
1581712845.391,-75.684,188.965,28.809,-92.773,0.0,0
1581712845.393,-109.863,100.098,29.785,-129.395,0.0,0
1581712845.397,-131.836,170.41,32.715,-154.785,0.0,0
1581712845.401,-161.621,265.137,34.668,-183.105,0.0,0
1581712845.405,-175.293,165.52700000000004,36.621,-203.613,0.0,0
1581712845.409,-200.68400000000003,101.562,38.574,-237.793,0.0,0
1581712845.413,-214.355,95.215,40.527,-248.047,0.0,0
1581712845.417,-221.191,185.547,44.434,-255.371,0.0,0
1581712845.42,-223.633,93.262,50.293,-265.137,0.0,0
1581712845.424,-222.168,93.262,44.922,-269.043,0.0,0
1581712845.428,-231.93400000000003,285.156,42.48,-284.668,0.0,0
1581712845.4320002,-228.027,260.254,48.828,-272.949,0.0,0
1581712845.436,-223.145,287.598,48.828,-261.719,0.0,0
1581712845.438,-210.449,281.738,49.316,-253.418,0.0,0
1581712845.4420002,-200.195,262.695,51.758,-244.629,0.0,0
1581712845.446,-188.965,174.31599999999997,49.316,-234.863,0.0,0
1581712845.45,-167.48,159.18,44.922,-211.426,0.0,0
1581712845.454,-153.32,203.613,44.434,-196.777,0.0,0
1581712845.458,-130.859,111.816,48.828,-172.363,0.0,0
1581712845.462,-124.512,-7.812,44.434,-168.457,0.0,0
1581712845.465,-113.77,35.156,39.551,-155.762,0.0,0
1581712845.469,-92.285,215.82,39.551,-129.395,0.0,0
1581712845.4729998,-78.125,246.582,36.133,-117.676,0.0,0
1581712845.4770002,-59.082,187.5,31.738000000000003,-97.168,0.0,0
1581712845.481,-43.457,158.203,29.785,-77.148,0.0,0
1581712845.4829998,-29.297,158.203,29.785,-60.547,0.0,0
1581712845.4870002,-15.137,125.488,28.809,-43.457,0.0,0
1581712845.4910002,-1.953,105.957,23.926,-29.785,0.0,0
1581712845.495,5.371,106.934,18.555,-22.949,0.0,0
1581712845.4989998,15.137,142.09,17.09,-7.324,0.0,0
1581712845.5029998,30.273000000000003,90.332,16.602,9.277,0.0,0
1581712845.5070002,34.668,-190.43,15.137,12.695,0.0,0
1581712845.51,35.645,-100.098,15.625,18.555,0.0,0
1581712845.514,48.34,215.82,14.16,32.227,0.0,0
1581712845.518,58.594,165.52700000000004,16.113,36.621,0.0,0
1581712845.522,62.988,19.043,20.02,40.039,0.0,0
1581712845.526,66.406,2.441,16.602,46.875,0.0,0
1581712845.543,65.918,97.168,12.207,49.805,0.0,0
1581712845.5470002,70.801,43.945,11.719,58.594,0.0,0
1581712845.551,74.707,-71.289,13.672,62.988,0.0,0
1581712845.555,75.195,-62.5,15.625,61.523,0.0,0
1581712845.559,79.59,54.199,13.184,65.918,0.0,0
1581712845.563,81.543,-59.082,11.719,71.289,0.0,0
1581712845.5670002,81.543,-234.863,11.23,67.383,0.0,0
1581712845.57,85.93799999999997,-37.109,13.672,71.777,0.0,0
1581712845.574,88.867,95.215,15.625,75.195,0.0,0
1581712845.5779998,85.449,32.715,10.742,71.777,0.0,0
1581712845.582,81.543,-2.93,12.695,72.75399999999998,0.0,0
1581712845.586,81.543,5.859,18.066,70.801,0.0,0
1581712845.5879998,83.49600000000002,22.949,20.508000000000006,73.242,0.0,0
1581712845.592,83.008,22.461,20.996,75.684,0.0,0
1581712845.596,80.566,-2.441,22.949,72.75399999999998,0.0,0
1581712845.6,74.219,1.465,22.949,68.848,0.0,0
1581712845.604,71.777,-2.93,22.949,69.824,0.0,0
1581712845.6079998,75.195,-51.27,23.926,70.312,0.0,0
1581712845.6120002,72.75399999999998,-82.031,23.438,67.383,0.0,0
1581712845.615,70.312,-70.801,24.902,69.336,0.0,0
1581712845.619,67.87100000000001,4.395,23.926,68.359,0.0,0
1581712845.623,65.43,-118.164,21.973000000000006,60.059,0.0,0
1581712845.627,68.848,-87.402,27.832,58.594,0.0,0
1581712845.631,65.43,137.695,28.32,58.105,0.0,0
1581712845.633,58.594,48.34,22.461,54.688,0.0,0
1581712845.637,55.664,-27.344,23.926,56.64100000000001,0.0,0
1581712845.641,50.293,45.898,29.297,51.27,0.0,0
1581712845.645,47.852,95.703,29.785,47.363,0.0,0
1581712845.649,46.875,27.344,25.879,41.992,0.0,0
1581712845.653,47.363,-76.66,31.25,45.41,0.0,0
1581712845.657,46.387,-33.203,34.668,47.852,0.0,0
1581712845.66,47.852,119.629,32.227,46.875,0.0,0
1581712845.664,51.758,-26.855,31.738000000000003,44.434,0.0,0
1581712845.668,54.199,-177.734,30.762,41.992,0.0,0
1581712845.6720002,53.71100000000001,82.52,30.273000000000003,45.898,0.0,0
1581712845.676,47.363,187.012,29.785,41.992,0.0,0
1581712845.678,46.875,24.902,28.809,41.992,0.0,0
1581712845.6820002,48.828,-22.949,27.344,45.898,0.0,0
1581712845.686,43.457,135.74200000000002,27.832,43.945,0.0,0
1581712845.69,43.457,151.855,30.762,44.922,0.0,0
1581712845.694,44.434,41.01600000000001,28.809,40.527,0.0,0
1581712845.698,46.875,-42.969,30.762,43.457,0.0,0
1581712845.702,44.922,-48.828,32.227,44.434,0.0,0
1581712845.705,41.992,98.145,23.926,39.551,0.0,0
1581712845.709,39.062,-35.156,24.414,37.109,0.0,0
1581712845.7129998,32.715,-83.984,26.855,36.133,0.0,0
1581712845.717,35.645,182.617,23.926,39.062,0.0,0
1581712845.721,41.504,138.184,23.926,41.504,0.0,0
1581712845.724,42.969,55.664,23.438,41.504,0.0,0
1581712845.728,41.992,76.172,24.902,40.527,0.0,0
1581712845.732,41.992,124.512,27.832,40.527,0.0,0
1581712845.736,44.434,121.094,27.344,40.039,0.0,0
1581712845.74,41.01600000000001,58.594,27.832,37.109,0.0,0
1581712845.744,39.551,-15.137,30.273000000000003,36.621,0.0,0
1581712845.748,46.387,-5.371,28.809,37.109,0.0,0
1581712845.7510002,45.41,38.574,27.344,37.109,0.0,0
1581712845.755,38.086,-17.09,28.809,35.645,0.0,0
1581712845.7589998,36.133,134.27700000000002,28.32,35.645,0.0,0
1581712845.7629998,35.156,172.363,28.32,36.621,0.0,0
1581712845.7670002,38.574,78.613,33.691,38.574,0.0,0
1581712845.768,40.527,156.738,32.227,41.504,0.0,0
1581712845.772,36.133,224.609,27.344,34.668,0.0,0
1581712845.776,38.574,123.047,29.785,30.762,0.0,0
1581712845.78,41.992,25.391,30.762,34.18,0.0,0
1581712845.784,39.551,127.441,29.297,35.156,0.0,0
1581712845.788,37.109,121.094,25.879,33.203,0.0,0
1581712845.792,38.574,3.418,28.32,35.645,0.0,0
1581712845.795,40.039,-71.289,30.273000000000003,30.762,0.0,0
1581712845.799,37.598,52.246,29.297,28.809,0.0,0
1581712845.803,36.133,311.523,31.738000000000003,35.156,0.0,0
1581712845.8070002,39.551,195.312,32.227,36.133,0.0,0
1581712845.811,37.598,74.707,32.227,35.645,0.0,0
1581712845.813,35.156,97.656,27.832,28.809,0.0,0
1581712845.8170002,37.109,171.875,27.344,36.621,0.0,0
1581712845.821,37.109,102.051,31.738000000000003,40.527,0.0,0
1581712845.825,39.062,7.812,31.25,33.691,0.0,0
1581712845.829,38.574,95.703,28.809,36.621,0.0,0
1581712845.833,36.133,82.52,29.297,37.598,0.0,0
1581712845.837,44.434,-1.953,32.715,41.01600000000001,0.0,0
1581712845.84,45.898,-37.109,33.691,40.527,0.0,0
1581712845.844,42.969,124.023,29.297,47.363,0.0,0
1581712845.8479998,47.852,230.469,26.855,53.223,0.0,0
1581712845.8520002,32.227,162.59799999999996,26.367,27.832,0.0,0
1581712845.856,24.414,107.91,26.855,19.531,0.0,0
1581712845.8579998,34.668,160.156,27.832,34.668,0.0,0
1581712845.8620002,35.156,228.516,25.879,33.203,0.0,0
1581712845.8660002,27.344,155.273,21.484,17.09,0.0,0
1581712845.87,31.738000000000003,43.945,17.578,16.602,0.0,0
1581712845.8739998,36.621,98.145,22.949,24.414,0.0,0
1581712845.8779998,23.438,70.312,29.297,18.555,0.0,0
1581712845.8820002,25.879,-82.52,28.809,23.438,0.0,0
1581712845.885,30.273000000000003,7.812,30.273000000000003,18.555,0.0,0
1581712845.889,28.32,213.867,30.762,13.672,0.0,0
1581712845.893,33.691,117.676,30.273000000000003,26.855,0.0,0
1581712845.897,34.18,119.141,35.156,32.227,0.0,0
1581712845.901,28.32,200.195,31.25,22.461,0.0,0
1581712845.918,26.367,212.402,28.809,14.648,0.0,0
1581712845.9220002,29.785,148.92600000000004,29.785,17.09,0.0,0
1581712845.926,28.32,91.309,27.344,19.531,0.0,0
1581712845.93,30.273000000000003,187.5,30.762,24.902,0.0,0
1581712845.934,38.086,168.945,30.762,27.832,0.0,0
1581712845.938,36.621,-44.922,30.762,24.414,0.0,0
1581712845.9420002,33.691,-74.707,31.25,22.949,0.0,0
1581712845.945,38.574,164.062,31.738000000000003,26.367,0.0,0
1581712845.949,39.062,217.773,32.227,25.879,0.0,0
1581712845.9529998,33.691,76.66,35.645,27.344,0.0,0
1581712845.957,37.109,77.148,38.086,32.715,0.0,0
1581712845.961,42.48,145.996,33.691,32.227,0.0,0
1581712845.964,40.039,134.766,36.133,35.645,0.0,0
1581712845.968,32.715,125.977,36.621,27.832,0.0,0
1581712845.972,27.832,81.543,30.762,23.926,0.0,0
1581712845.976,31.25,181.152,32.227,31.738000000000003,0.0,0
1581712845.98,30.273000000000003,178.71099999999996,32.715,29.785,0.0,0
1581712845.984,32.227,8.789,32.715,26.367,0.0,0
1581712845.988,36.621,-26.367,35.156,24.414,0.0,0
1581712845.9910002,34.668,168.457,33.691,27.344,0.0,0
1581712845.995,36.621,212.402,29.785,31.25,0.0,0
1581712845.9989998,36.621,-33.691,27.832,25.879,0.0,0
1581712846.0029998,33.203,-1.953,27.344,26.855,0.0,0
1581712846.0070002,28.809,195.801,25.879,31.25,0.0,0
1581712846.008,33.203,156.25,29.785,34.668,0.0,0
1581712846.012,37.109,99.121,27.344,33.691,0.0,0
1581712846.016,36.621,58.105,28.809,30.762,0.0,0
1581712846.02,35.645,105.469,34.18,31.25,0.0,0
1581712846.024,28.32,120.117,29.297,28.32,0.0,0
1581712846.028,27.832,-16.602,27.832,26.367,0.0,0
1581712846.032,36.621,-58.105,31.25,29.785,0.0,0
1581712846.035,36.621,78.125,31.738000000000003,30.762,0.0,0
1581712846.039,33.691,100.098,32.227,31.25,0.0,0
1581712846.043,37.598,-53.223,32.715,34.668,0.0,0
1581712846.0470002,35.156,82.031,34.18,31.738000000000003,0.0,0
1581712846.051,35.645,187.012,37.109,35.156,0.0,0
1581712846.053,38.574,119.629,37.598,37.598,0.0,0
1581712846.0570002,36.621,109.863,35.645,33.691,0.0,0
1581712846.061,35.645,129.395,34.18,29.785,0.0,0
1581712846.065,37.109,147.461,37.109,32.227,0.0,0
1581712846.069,40.527,88.867,38.574,36.621,0.0,0
1581712846.073,37.109,41.992,31.25,30.273000000000003,0.0,0
1581712846.077,35.645,38.086,25.879,27.344,0.0,0
1581712846.08,35.156,58.105,27.832,30.273000000000003,0.0,0
1581712846.084,37.598,0.488,27.832,28.809,0.0,0
1581712846.0879998,38.086,34.18,29.297,30.273000000000003,0.0,0
1581712846.092,39.062,229.004,32.715,31.25,0.0,0
1581712846.096,36.621,168.945,34.668,29.297,0.0,0
1581712846.0979998,34.668,70.312,36.621,33.203,0.0,0
1581712846.1020002,39.062,133.789,34.668,33.691,0.0,0
1581712846.106,38.086,194.824,32.715,29.297,0.0,0
1581712846.11,33.203,74.707,33.203,22.461,0.0,0
1581712846.1139998,29.297,-7.324,32.715,18.555,0.0,0
1581712846.1179998,32.715,29.297,30.273000000000003,22.461,0.0,0
1581712846.1220002,34.668,105.469,28.32,23.438,0.0,0
1581712846.125,35.645,92.285,33.203,23.438,0.0,0
1581712846.129,38.574,-82.52,29.785,20.996,0.0,0
1581712846.133,32.715,88.867,21.973000000000006,17.09,0.0,0
1581712846.137,29.297,243.652,28.32,25.879,0.0,0
1581712846.141,32.227,135.254,34.18,28.32,0.0,0
1581712846.143,31.25,109.375,32.227,22.949,0.0,0
1581712846.147,27.832,163.086,32.227,27.832,0.0,0
1581712846.151,26.367,172.363,32.227,31.738000000000003,0.0,0
1581712846.155,29.297,74.219,31.738000000000003,31.25,0.0,0
1581712846.159,32.715,55.664,33.691,34.668,0.0,0
1581712846.163,36.621,32.715,35.156,43.457,0.0,0
1581712846.167,40.527,80.566,34.668,44.922,0.0,0
1581712846.17,39.551,-10.254,35.156,40.039,0.0,0
1581712846.174,36.621,-29.297,35.156,37.598,0.0,0
1581712846.178,36.621,218.262,36.133,40.527,0.0,0
1581712846.1820002,41.504,203.125,42.48,46.875,0.0,0
1581712846.186,38.574,43.945,38.574,42.969,0.0,0
1581712846.188,30.273000000000003,12.695,31.25,29.785,0.0,0
1581712846.1920002,28.809,140.625,31.738000000000003,26.855,0.0,0
1581712846.196,27.344,137.695,29.785,33.691,0.0,0
1581712846.2,27.832,102.539,28.809,34.18,0.0,0
1581712846.204,29.297,99.121,27.832,31.25,0.0,0
1581712846.208,28.809,26.367,25.391,30.273000000000003,0.0,0
1581712846.212,25.879,-16.602,26.855,26.855,0.0,0
1581712846.215,23.926,-46.875,26.367,22.461,0.0,0
1581712846.219,25.879,127.441,22.461,19.531,0.0,0
1581712846.2229998,26.367,229.492,24.902,22.461,0.0,0
1581712846.2270002,24.414,106.445,25.391,22.949,0.0,0
1581712846.231,22.461,104.492,25.391,20.508000000000006,0.0,1
1581712846.2329998,20.996,116.211,27.344,18.066,0.0,0
1581712846.2370002,24.414,120.605,29.785,18.066,0.0,0
1581712846.2410002,26.367,100.098,34.668,21.973000000000006,0.0,0
1581712846.245,23.926,92.773,32.715,25.391,0.0,0
1581712846.2489998,20.996,216.797,29.785,25.879,0.0,0
1581712846.2529998,22.949,115.234,32.715,22.461,0.0,0
1581712846.2570002,27.832,-46.875,33.203,25.391,0.0,0
1581712846.26,26.367,76.66,33.203,27.832,0.0,0
1581712846.264,25.391,249.512,32.227,30.762,0.0,0
1581712846.268,24.414,188.965,32.227,26.855,0.0,0
1581712846.272,21.484,0.0,32.227,17.09,0.0,0
1581712846.276,23.438,73.242,33.203,21.484,0.0,0
1581712846.293,27.832,233.398,35.645,25.391,0.0,0
1581712846.2970002,28.809,163.57399999999996,35.645,26.367,0.0,0
1581712846.301,26.367,90.82,30.762,29.297,0.0,0
1581712846.305,28.809,167.48,31.25,28.32,0.0,0
1581712846.309,31.738000000000003,186.523,34.18,27.344,0.0,0
1581712846.313,29.297,50.78100000000001,27.832,27.832,0.0,0
1581712846.3170002,31.738000000000003,-79.59,26.367,25.391,0.0,0
1581712846.32,30.273000000000003,83.49600000000002,27.832,25.391,0.0,0
1581712846.324,29.785,292.969,27.832,36.621,0.0,0
1581712846.3279998,32.227,134.27700000000002,29.785,39.551,0.0,0
1581712846.332,31.738000000000003,-9.766,28.809,31.738000000000003,0.0,0
1581712846.336,35.645,153.809,28.32,30.273000000000003,0.0,0
1581712846.3379998,36.133,194.336,28.32,34.18,0.0,0
1581712846.342,33.691,145.50799999999995,26.367,39.551,0.0,0
1581712846.346,34.18,155.273,29.297,37.109,0.0,0
1581712846.35,39.062,155.762,34.668,34.668,0.0,0
1581712846.354,34.668,122.07,30.273000000000003,36.621,0.0,0
1581712846.3579998,27.832,48.828,25.879,34.18,0.0,0
1581712846.3620002,31.738000000000003,30.762,28.32,30.273000000000003,0.0,0
1581712846.365,26.855,191.406,27.832,26.367,0.0,0
1581712846.369,24.902,249.512,26.367,27.344,0.0,0
1581712846.373,27.832,46.387,25.879,27.344,0.0,0
1581712846.377,27.832,112.305,24.902,27.344,0.0,0
1581712846.381,31.738000000000003,325.684,25.391,32.227,0.0,0
1581712846.3979998,31.25,224.121,25.879,30.273000000000003,0.0,0
1581712846.4020002,36.133,127.441,22.949,29.297,0.0,0
1581712846.406,40.527,198.73,23.926,35.156,0.0,0
1581712846.41,39.551,177.24599999999995,23.926,31.738000000000003,0.0,0
1581712846.414,41.992,68.359,24.414,30.762,0.0,0
1581712846.418,41.01600000000001,35.156,26.855,37.598,0.0,0
1581712846.4220002,39.062,73.242,29.297,40.039,0.0,0
1581712846.425,40.527,199.707,28.809,37.109,0.0,0
1581712846.429,39.551,114.258,26.855,31.25,0.0,0
1581712846.4329998,38.086,-39.062,24.414,27.344,0.0,0
1581712846.437,38.574,213.867,22.461,29.297,0.0,0
1581712846.441,38.086,199.707,22.949,29.785,0.0,0
1581712846.4429998,37.109,18.066,26.855,26.367,0.0,0
1581712846.447,35.156,153.32,28.809,28.809,0.0,0
1581712846.451,37.109,248.535,27.832,33.691,0.0,0
1581712846.455,38.086,208.008,27.832,36.621,0.0,0
1581712846.459,39.062,115.234,26.855,32.715,0.0,0
1581712846.4629998,38.574,20.02,25.391,30.762,0.0,0
1581712846.467,36.133,39.551,24.902,30.762,0.0,0
1581712846.47,36.621,148.92600000000004,25.391,35.156,0.0,0
1581712846.474,38.574,100.586,25.391,34.668,0.0,0
1581712846.478,41.504,68.359,32.715,32.715,0.0,0
1581712846.482,43.457,218.262,34.668,37.598,0.0,0
1581712846.486,41.992,231.93400000000003,25.879,37.109,0.0,0
1581712846.4729998,41.01600000000001,16.113,25.879,30.273000000000003,0.0,0
1581712846.4770002,41.504,40.039,27.344,27.344,0.0,0
1581712846.481,40.527,184.57,28.809,25.879,0.0,0
1581712846.485,40.527,84.473,27.344,29.297,0.0,0
1581712846.4889998,41.992,124.023,28.32,32.715,0.0,0
1581712846.4929998,40.527,96.191,31.25,25.879,0.0,0
1581712846.4970002,38.086,24.414,31.25,22.949,0.0,0
1581712846.5,34.668,43.457,35.156,23.438,0.0,0
1581712846.504,35.156,82.52,34.18,21.973000000000006,0.0,0
1581712846.508,49.316,201.66,26.367,32.227,0.0,0
1581712846.512,45.898,201.172,27.344,31.738000000000003,0.0,0
1581712846.516,31.738000000000003,-6.836,34.668,22.461,0.0,0
1581712846.518,26.855,-74.707,32.715,18.555,0.0,0
1581712846.522,14.16,168.457,29.297,8.789,0.0,0
1581712846.526,17.09,194.336,31.738000000000003,13.672,0.0,0
1581712846.53,19.043,96.191,32.715,19.531,0.0,0
1581712846.534,18.555,112.793,35.156,19.043,0.0,0
1581712846.538,24.414,75.195,33.691,18.555,0.0,0
1581712846.542,27.344,-10.254,35.156,22.949,0.0,0
1581712846.545,29.785,-98.145,34.18,24.902,0.0,0
1581712846.549,29.297,6.348,32.227,24.902,0.0,0
1581712846.553,27.832,259.277,33.203,30.273000000000003,0.0,0
1581712846.5570002,26.855,165.52700000000004,31.738000000000003,27.832,0.0,0
1581712846.561,30.762,96.68,35.156,29.785,0.0,0
1581712846.563,31.738000000000003,199.219,34.668,35.156,0.0,0
1581712846.5670002,25.391,228.027,28.809,30.273000000000003,0.0,0
1581712846.571,26.367,124.023,26.855,25.391,0.0,0
1581712846.575,31.25,86.426,28.809,23.926,0.0,0
1581712846.579,30.273000000000003,113.77,30.273000000000003,24.414,0.0,0
1581712846.583,28.32,46.875,26.855,29.297,0.0,0
1581712846.587,33.203,-30.273000000000003,25.391,30.762,0.0,0
1581712846.59,31.25,-67.87100000000001,25.391,24.414,0.0,0
1581712846.594,29.297,80.566,27.344,28.32,0.0,0
1581712846.5979998,30.762,157.227,27.344,31.738000000000003,0.0,0
1581712846.6020002,30.762,148.92600000000004,26.367,27.832,0.0,0
1581712846.606,29.297,122.559,29.297,25.879,0.0,0
1581712846.6079998,27.832,153.809,26.855,24.902,0.0,0
1581712846.6120002,29.785,187.5,25.391,24.902,0.0,0
1581712846.6160002,34.668,125.488,27.832,26.855,0.0,0
1581712846.62,29.785,87.402,23.926,21.484,0.0,0
1581712846.6239998,24.902,103.516,22.949,18.555,0.0,0
1581712846.6279998,28.32,32.715,27.344,23.926,0.0,0
1581712846.6320002,28.809,-97.168,31.25,23.926,0.0,0
1581712846.635,29.297,-14.16,31.738000000000003,20.996,0.0,0
1581712846.639,29.785,194.824,31.25,23.926,0.0,0
1581712846.643,32.715,166.50400000000005,32.227,29.297,0.0,0
1581712846.647,36.621,142.578,31.25,37.109,0.0,0
1581712846.651,30.273000000000003,102.051,25.879,29.297,0.0,0
1581712846.668,25.879,49.805,24.902,20.996,0.0,0
1581712846.6720002,31.738000000000003,46.387,27.344,26.367,0.0,0
1581712846.676,30.762,103.027,30.762,29.297,0.0,0
1581712846.68,27.832,185.05900000000003,31.738000000000003,25.391,0.0,0
1581712846.684,29.297,118.652,28.32,22.461,0.0,0
1581712846.688,28.32,-23.438,27.344,22.461,0.0,0
1581712846.6920002,23.438,-36.133,28.809,21.484,0.0,0
1581712846.695,17.578,150.879,28.32,14.648,0.0,0
1581712846.699,13.672,206.543,28.809,7.812,0.0,0
1581712846.7029998,15.137,54.688,27.344,7.324,0.0,0
1581712846.707,14.16,39.062,27.832,10.254,0.0,0
1581712846.711,13.672,199.219,25.879,7.812,0.0,0
1581712846.7129998,11.719,198.242,28.809,4.395,0.0,0
1581712846.717,12.695,72.75399999999998,39.551,6.836,0.0,0
1581712846.721,11.23,29.297,34.668,10.254,0.0,0
1581712846.725,12.695,101.074,28.32,13.672,0.0,0
1581712846.729,19.531,176.27,32.715,12.695,0.0,0
1581712846.7329998,20.996,53.71100000000001,33.203,13.672,0.0,0
1581712846.7370002,18.555,-6.348,29.297,17.578,0.0,0
1581712846.74,20.996,117.676,28.809,20.508000000000006,0.0,0
1581712846.744,23.438,193.359,29.785,20.996,0.0,0
1581712846.748,27.344,-29.785,31.738000000000003,23.438,0.0,0
1581712846.752,28.809,-56.152,32.227,22.949,0.0,0
1581712846.756,23.438,183.594,25.879,20.02,0.0,0
1581712846.758,27.344,139.16,26.855,21.973000000000006,0.0,0
1581712846.762,30.762,54.199,29.297,20.996,0.0,0
1581712846.766,29.785,96.68,26.855,22.949,0.0,0
1581712846.77,32.715,166.50400000000005,21.973000000000006,27.832,0.0,0
1581712846.774,34.18,91.309,20.02,26.367,0.0,0
1581712846.778,31.738000000000003,-38.574,20.508000000000006,23.926,0.0,0
1581712846.782,35.156,-57.129,21.484,24.414,0.0,0
1581712846.785,36.621,125.488,20.996,24.902,0.0,0
1581712846.789,34.668,114.258,21.484,28.809,0.0,0
1581712846.793,32.715,-84.961,24.414,25.391,0.0,0
1581712846.7970002,35.156,103.027,29.297,25.391,0.0,0
1581712846.801,33.203,211.426,25.879,25.391,0.0,0
1581712846.803,26.367,95.703,16.602,21.484,0.0,0
1581712846.8070002,26.855,54.688,18.555,23.926,0.0,0
1581712846.811,27.832,122.07,21.973000000000006,20.508000000000006,0.0,0
1581712846.815,26.855,95.215,22.949,19.531,0.0,0
1581712846.819,29.297,51.758,23.926,24.414,0.0,0
1581712846.823,32.227,-5.859,24.414,23.926,0.0,0
1581712846.827,30.273000000000003,-44.434,22.949,19.531,0.0,0
1581712846.83,28.32,72.75399999999998,19.531,16.602,0.0,0
1581712846.834,30.762,-29.297,19.043,20.996,0.0,0
1581712846.8379998,31.25,-32.227,19.043,27.344,0.0,0
1581712846.842,34.668,196.289,19.531,26.855,0.0,0
1581712846.846,37.109,119.629,21.484,27.832,0.0,0
1581712846.8479998,36.133,85.449,19.531,30.762,0.0,0
1581712846.8520002,36.621,176.75799999999995,22.461,31.738000000000003,0.0,0
1581712846.856,32.715,155.762,25.391,31.25,0.0,0
1581712846.86,32.227,91.797,23.926,28.809,0.0,0
1581712846.8639998,34.668,65.43,23.438,28.809,0.0,0
1581712846.8679998,35.645,86.426,22.949,30.762,0.0,0
1581712846.8720002,36.621,62.012,23.438,30.762,0.0,0
1581712846.875,40.039,-30.762,25.391,32.715,0.0,0
1581712846.879,34.18,-69.824,25.879,28.809,0.0,0
1581712846.883,34.668,149.414,24.414,30.273000000000003,0.0,0
1581712846.887,32.715,224.121,24.902,36.621,0.0,0
1581712846.891,36.133,73.242,30.762,35.156,0.0,0
1581712846.893,40.527,35.645,31.25,33.691,0.0,0
1581712846.897,37.598,115.723,26.855,32.227,0.0,0
1581712846.901,38.086,156.738,27.832,31.738000000000003,0.0,0
1581712846.905,33.691,64.453,24.902,27.344,0.0,0
1581712846.909,31.738000000000003,29.785,23.926,25.879,0.0,0
1581712846.913,35.156,10.254,28.32,28.32,0.0,0
1581712846.917,41.01600000000001,3.418,30.762,32.227,0.0,0
1581712846.92,46.387,-80.566,29.785,33.691,0.0,0
1581712846.924,46.387,-33.691,26.855,30.273000000000003,0.0,0
1581712846.928,41.992,194.824,24.414,30.762,0.0,0
1581712846.9320002,42.969,179.688,23.438,34.668,0.0,0
1581712846.936,41.01600000000001,108.398,23.926,35.156,0.0,0
1581712846.9529998,37.109,131.836,24.902,29.297,0.0,0
1581712846.957,34.18,149.90200000000004,22.949,27.344,0.0,0
1581712846.961,38.574,63.965,26.367,35.156,0.0,0
1581712846.965,41.01600000000001,61.523,29.297,39.551,0.0,0
1581712846.969,35.645,120.117,25.391,34.18,0.0,0
1581712846.9729998,35.156,35.645,25.879,30.762,0.0,0
1581712846.9770002,31.25,-61.035,28.809,30.273000000000003,0.0,0
1581712846.98,34.18,-53.223,30.762,30.273000000000003,0.0,0
1581712846.984,38.086,106.934,31.25,34.668,0.0,0
1581712846.988,34.18,156.25,30.273000000000003,32.227,0.0,0
1581712846.992,29.785,48.828,29.785,28.32,0.0,0
1581712846.996,28.809,37.109,24.902,29.297,0.0,0
1581712846.9829998,32.227,120.117,25.879,32.715,0.0,0
1581712846.9870002,30.762,79.59,29.297,32.227,0.0,0
1581712846.9910002,30.273000000000003,-14.16,28.32,28.809,0.0,0
1581712846.995,35.156,41.01600000000001,29.785,33.203,0.0,0
1581712846.9989998,34.18,136.719,27.832,31.25,0.0,0
1581712847.0029998,37.109,33.203,29.785,29.297,0.0,0
1581712847.0070002,37.598,-83.008,31.738000000000003,31.738000000000003,0.0,0
1581712847.01,29.297,31.25,27.344,29.297,0.0,0
1581712847.014,27.832,124.023,27.832,30.762,0.0,0
1581712847.018,31.738000000000003,121.094,29.297,30.273000000000003,0.0,0
1581712847.022,30.273000000000003,-79.102,25.879,23.438,0.0,0
1581712847.026,30.273000000000003,-48.34,26.855,28.32,0.0,0
1581712847.043,30.762,212.891,30.273000000000003,34.668,0.0,0
1581712847.0470002,28.809,121.582,32.227,30.762,0.0,0
1581712847.051,33.203,-24.902,32.715,27.832,0.0,0
1581712847.055,36.133,47.852,29.297,28.32,0.0,0
1581712847.059,36.621,139.648,29.297,32.715,0.0,0
1581712847.063,37.598,-6.836,31.25,29.297,0.0,0
1581712847.0670002,34.18,-120.117,28.809,21.484,0.0,0
1581712847.07,33.203,39.551,25.391,21.484,0.0,0
1581712847.074,38.574,106.445,27.832,29.297,0.0,0
1581712847.0779998,38.086,77.637,26.855,29.297,0.0,0
1581712847.082,30.762,83.49600000000002,23.438,25.391,0.0,0
1581712847.086,30.762,161.621,23.926,27.344,0.0,0
1581712847.0879998,29.785,136.23,27.832,29.297,0.0,0
1581712847.092,30.762,76.172,29.785,33.691,0.0,0
1581712847.096,36.621,113.281,31.25,37.109,0.0,0
1581712847.1,36.133,124.023,29.297,29.785,0.0,0
1581712847.104,37.109,116.699,29.785,34.18,0.0,0
1581712847.1079998,39.551,41.504,29.297,41.01600000000001,0.0,0
1581712847.1120002,40.039,18.555,27.344,37.598,0.0,0
1581712847.115,41.992,105.957,31.25,38.574,0.0,0
1581712847.119,41.992,104.492,30.762,32.715,0.0,0
1581712847.123,41.01600000000001,-51.758,30.273000000000003,33.691,0.0,0
1581712847.127,40.039,19.043,34.18,37.109,0.0,0
1581712847.131,34.668,131.34799999999998,29.297,28.32,0.0,0
1581712847.133,34.18,49.805,23.926,26.367,0.0,0
1581712847.137,30.762,59.57,29.297,26.855,0.0,0
1581712847.141,29.785,124.023,31.25,30.762,0.0,0
1581712847.145,32.715,96.68,29.785,30.762,0.0,0
1581712847.149,34.18,20.508000000000006,30.762,27.344,0.0,0
1581712847.153,35.156,-58.105,29.297,30.762,0.0,0
1581712847.157,35.645,-41.01600000000001,27.344,32.715,0.0,0
1581712847.16,40.039,97.656,26.367,30.762,0.0,0
1581712847.164,36.621,-1.953,26.367,26.367,0.0,0
1581712847.168,34.668,-159.18,26.367,26.855,0.0,0
1581712847.1720002,33.691,55.664,26.367,33.203,0.0,0
1581712847.176,31.738000000000003,154.297,27.344,33.203,0.0,0
1581712847.178,33.203,25.879,25.391,30.762,0.0,0
1581712847.1820002,36.133,-12.695,33.203,36.133,0.0,0
1581712847.186,36.621,5.371,36.621,41.01600000000001,0.0,0
1581712847.19,33.691,31.738000000000003,32.715,36.621,0.0,0
1581712847.194,32.715,25.879,34.668,31.738000000000003,0.0,0
1581712847.198,34.18,-83.008,36.621,32.227,0.0,0
1581712847.202,39.062,-75.195,37.109,37.109,0.0,0
1581712847.205,35.645,59.082,31.25,37.109,0.0,0
1581712847.209,31.738000000000003,-69.824,31.738000000000003,30.762,0.0,0
1581712847.2129998,34.668,-110.84,34.18,32.227,0.0,0
1581712847.217,30.762,107.91,32.715,37.109,0.0,0
1581712847.221,30.273000000000003,93.75,35.645,36.621,0.0,0
1581712847.2229998,32.227,-15.137,37.598,32.715,0.0,0
1581712847.2270002,27.832,-27.344,32.715,26.367,0.0,0
1581712847.231,29.785,7.812,30.273000000000003,26.367,0.0,0
1581712847.235,28.809,-15.137,34.18,33.203,0.0,0
1581712847.2389998,26.855,-17.578,35.156,32.227,0.0,0
1581712847.2429998,32.715,-74.707,36.133,29.297,0.0,0
1581712847.2470002,39.062,-112.305,41.504,37.598,0.0,0
1581712847.25,34.668,-69.824,39.551,37.598,0.0,0
1581712847.254,30.762,-99.121,34.18,35.156,0.0,0
1581712847.258,30.273000000000003,28.809,36.621,33.691,0.0,0
1581712847.262,29.785,100.098,38.086,30.273000000000003,0.0,0
1581712847.266,36.621,39.551,37.109,35.645,0.0,0
1581712847.268,32.715,57.617,36.133,34.18,0.0,0
1581712847.272,27.832,105.469,33.203,26.367,0.0,0
1581712847.276,34.668,63.965,33.691,29.297,0.0,0
1581712847.28,36.133,22.461,35.156,31.25,0.0,0
1581712847.284,29.785,55.664,33.203,28.809,0.0,0
1581712847.288,30.762,-20.508000000000006,28.809,27.832,0.0,0
1581712847.292,33.203,-9.277,29.297,25.391,0.0,0
1581712847.295,36.621,-51.27,32.227,26.855,0.0,0
1581712847.299,39.062,-90.82,32.715,29.297,0.0,2
1581712847.303,36.133,138.672,37.109,32.227,0.0,0
1581712847.3070002,34.668,103.027,34.668,30.273000000000003,0.0,0
1581712847.311,33.691,35.645,33.203,27.832,0.0,0
1581712847.313,32.715,118.164,34.18,32.227,0.0,0
1581712847.3170002,33.691,161.621,32.715,29.785,0.0,0
1581712847.321,30.762,51.27,33.203,21.973000000000006,0.0,0
1581712847.325,26.367,-33.203,33.203,17.09,0.0,0
1581712847.329,28.32,78.613,31.738000000000003,21.484,0.0,0
1581712847.333,28.32,76.172,30.273000000000003,24.414,0.0,0
1581712847.337,23.438,-52.246,30.273000000000003,21.484,0.0,0
1581712847.34,24.414,-123.535,32.227,19.043,0.0,0
1581712847.344,25.391,76.66,34.18,20.996,0.0,0
1581712847.3479998,27.344,187.988,31.738000000000003,26.367,0.0,0
1581712847.3520002,26.367,83.008,31.738000000000003,23.926,0.0,0
1581712847.356,27.344,3.906,36.133,21.484,0.0,0
1581712847.3579998,31.738000000000003,83.008,33.691,26.855,0.0,0
1581712847.3620002,32.715,132.32399999999998,31.738000000000003,30.762,0.0,0
1581712847.3660002,29.785,88.37899999999998,32.715,26.855,0.0,0
1581712847.37,30.273000000000003,62.012,30.273000000000003,22.949,0.0,0
1581712847.3739998,32.227,50.293,30.273000000000003,23.926,0.0,0
1581712847.3779998,34.668,0.977,33.691,31.25,0.0,0
1581712847.3820002,31.25,-107.422,34.18,28.809,0.0,0
1581712847.385,29.785,-44.922,29.785,23.926,0.0,0
1581712847.389,31.738000000000003,129.395,26.855,23.438,0.0,0
1581712847.393,32.227,104.98,29.297,23.926,0.0,0
1581712847.397,38.086,101.562,30.273000000000003,28.809,0.0,0
1581712847.401,31.25,105.957,30.273000000000003,25.391,0.0,0
1581712847.418,27.832,85.449,33.691,23.438,0.0,0
1581712847.4220002,31.738000000000003,44.434,33.203,24.902,0.0,0
1581712847.426,30.273000000000003,-27.344,29.785,23.438,0.0,0
1581712847.43,32.715,37.109,35.645,27.832,0.0,0
1581712847.434,29.785,97.168,32.715,24.902,0.0,0
1581712847.438,27.344,-40.039,26.855,19.043,0.0,0
1581712847.4420002,31.738000000000003,-110.84,31.25,23.438,0.0,0
1581712847.445,35.156,96.191,33.203,30.273000000000003,0.0,0
1581712847.449,32.715,174.805,33.203,29.297,0.0,0
1581712847.4529998,31.25,36.621,32.227,26.855,0.0,0
1581712847.457,34.668,25.879,31.738000000000003,33.203,0.0,0
1581712847.461,35.645,98.633,28.809,35.645,0.0,0
1581712847.4629998,34.668,75.195,28.32,27.832,0.0,0
1581712847.467,38.086,-10.742,32.715,26.367,0.0,0
1581712847.471,44.922,13.672,34.18,33.203,0.0,0
1581712847.475,40.039,99.609,31.738000000000003,32.715,0.0,0
1581712847.479,35.156,26.367,30.273000000000003,29.297,0.0,0
1581712847.4829998,38.574,-66.895,31.25,31.25,0.0,0
1581712847.4870002,36.133,-76.172,32.227,31.738000000000003,0.0,0
1581712847.49,32.715,36.621,31.25,34.18,0.0,0
1581712847.494,35.645,112.305,37.109,41.01600000000001,0.0,0
1581712847.498,38.574,-72.75399999999998,36.621,37.598,0.0,0
1581712847.502,30.273000000000003,-124.512,28.809,24.902,0.0,0
1581712847.506,26.855,101.562,32.715,25.391,0.0,0
1581712847.508,29.297,63.477,35.156,30.273000000000003,0.0,0
1581712847.512,30.762,-16.602,30.273000000000003,26.855,0.0,0
1581712847.516,27.832,64.941,25.879,22.949,0.0,0
1581712847.52,26.367,116.211,31.738000000000003,26.855,0.0,0
1581712847.524,32.715,69.824,32.715,30.762,0.0,0
1581712847.528,30.273000000000003,-56.152,26.855,28.809,0.0,0
1581712847.532,27.832,-27.832,29.297,26.855,0.0,0
1581712847.535,32.715,109.375,28.809,25.879,0.0,0
1581712847.539,29.785,23.926,27.832,24.902,0.0,0
1581712847.543,37.109,-93.75,26.855,28.809,0.0,0
1581712847.5470002,42.969,65.918,23.438,32.227,0.0,0
1581712847.551,32.715,141.113,25.879,24.902,0.0,0
1581712847.553,32.227,78.125,28.32,25.879,0.0,0
1581712847.5570002,21.484,42.48,26.367,18.066,0.0,0
1581712847.561,16.602,71.289,29.297,11.719,0.0,0
1581712847.565,28.809,56.152,33.691,22.949,0.0,0
1581712847.569,26.367,26.855,28.32,19.043,0.0,0
1581712847.573,25.879,-27.344,28.32,18.555,0.0,0
1581712847.577,31.738000000000003,-13.672,30.273000000000003,23.438,0.0,0
1581712847.58,37.109,117.676,28.809,26.367,0.0,0
1581712847.584,38.574,-15.625,30.762,28.809,0.0,0
1581712847.5879998,33.691,-35.156,29.297,27.344,0.0,0
1581712847.592,34.668,138.184,27.344,27.832,0.0,0
1581712847.596,35.156,22.949,27.344,27.344,0.0,0
1581712847.5979998,38.086,-9.277,28.32,31.738000000000003,0.0,0
1581712847.6020002,38.086,113.77,29.297,34.668,0.0,0
1581712847.606,37.598,137.207,28.809,31.738000000000003,0.0,0
1581712847.61,38.574,39.062,30.762,31.738000000000003,0.0,0
1581712847.6139998,36.133,-17.578,26.855,30.762,0.0,0
1581712847.6179998,41.992,6.836,27.832,37.109,0.0,0
1581712847.6220002,41.992,63.965,34.18,42.969,0.0,0
1581712847.625,32.715,13.672,31.25,32.227,0.0,0
1581712847.629,34.668,-99.121,32.227,25.391,0.0,0
1581712847.633,35.156,80.566,35.156,32.715,0.0,0
1581712847.637,33.203,183.105,35.645,36.133,0.0,0
1581712847.641,28.809,71.289,34.668,29.785,0.0,0
1581712847.643,27.344,28.809,27.832,25.391,0.0,0
1581712847.647,35.156,83.984,25.879,28.809,0.0,0
1581712847.651,35.645,106.445,26.367,29.785,0.0,0
1581712847.655,34.18,101.562,23.438,27.344,0.0,0
1581712847.659,33.203,85.449,26.855,26.855,0.0,0
1581712847.663,31.738000000000003,51.27,29.297,29.297,0.0,0
1581712847.667,34.18,81.543,28.809,33.691,0.0,0
1581712847.67,30.762,12.695,26.855,31.25,0.0,0
1581712847.674,31.25,-12.695,29.785,30.762,0.0,0
1581712847.678,33.691,188.965,33.203,33.691,0.0,0
1581712847.6820002,33.691,175.293,31.25,35.156,0.0,0
1581712847.686,37.109,88.37899999999998,30.273000000000003,36.133,0.0,0
1581712847.688,33.691,96.191,27.832,32.227,0.0,0
1581712847.6920002,31.25,143.555,29.297,32.227,0.0,0
1581712847.696,34.668,91.309,29.785,34.18,0.0,0
1581712847.7,35.156,40.039,26.855,33.203,0.0,0
1581712847.704,37.598,73.242,27.344,32.227,0.0,0
1581712847.708,37.109,28.809,27.344,31.738000000000003,0.0,0
1581712847.712,37.109,-54.688,26.367,35.645,0.0,0
1581712847.715,38.574,-67.383,26.367,37.598,0.0,0
1581712847.719,34.18,124.512,25.879,34.668,0.0,0
1581712847.7229998,35.645,176.27,27.344,33.203,0.0,0
1581712847.7270002,38.086,41.504,27.832,32.227,0.0,0
1581712847.731,35.645,45.898,28.32,33.203,0.0,0
1581712847.748,33.203,131.34799999999998,27.344,31.738000000000003,0.0,0
1581712847.752,33.203,98.633,26.855,31.738000000000003,0.0,0
1581712847.756,34.668,28.809,32.227,32.227,0.0,0
1581712847.76,34.668,54.688,29.297,32.227,0.0,0
1581712847.764,31.738000000000003,83.008,20.508000000000006,27.344,0.0,0
1581712847.768,30.273000000000003,-34.18,20.996,24.414,0.0,0
1581712847.772,27.344,-141.113,22.461,22.461,0.0,0
1581712847.775,24.902,-50.78100000000001,22.461,23.926,0.0,0
1581712847.779,27.344,139.16,25.879,29.297,0.0,0
1581712847.783,30.273000000000003,131.34799999999998,31.738000000000003,31.738000000000003,0.0,0
1581712847.7870002,29.297,61.523,32.715,29.785,0.0,0
1581712847.791,29.297,113.77,29.785,27.344,0.0,0
1581712847.793,28.32,153.32,30.273000000000003,25.879,0.0,0
1581712847.7970002,29.785,90.82,28.32,26.367,0.0,0
1581712847.801,32.715,54.199,22.949,23.438,0.0,0
1581712847.805,32.227,107.91,21.973000000000006,23.438,0.0,0
1581712847.809,33.203,167.96900000000005,22.461,28.32,0.0,0
1581712847.813,29.785,18.555,22.949,24.902,0.0,0
1581712847.8170002,28.32,-23.438,25.879,20.996,0.0,0
1581712847.82,32.715,131.34799999999998,29.785,26.855,0.0,0
1581712847.824,24.902,181.152,26.367,21.973000000000006,0.0,0
1581712847.8279998,21.484,67.383,19.043,14.648,0.0,0
1581712847.832,25.391,-140.625,25.391,13.672,0.0,0
1581712847.836,29.297,-5.371,31.738000000000003,17.09,0.0,0
1581712847.8379998,34.18,160.156,27.344,24.414,0.0,0
1581712847.842,32.227,125.488,27.832,27.344,0.0,0
1581712847.846,30.273000000000003,103.516,31.25,27.344,0.0,0
1581712847.85,29.297,105.469,29.785,26.367,0.0,0
1581712847.854,28.809,98.633,29.297,27.832,0.0,0
1581712847.8579998,31.738000000000003,33.691,29.785,29.297,0.0,0
1581712847.8620002,37.109,-16.602,31.25,32.715,0.0,0
1581712847.865,42.48,106.934,28.32,37.109,0.0,0
1581712847.869,41.504,183.594,26.855,35.156,0.0,0
1581712847.873,43.457,-58.594,27.832,41.504,0.0,0
1581712847.877,41.992,6.836,28.809,43.945,0.0,0
1581712847.881,36.621,184.57,30.273000000000003,35.156,0.0,0
1581712847.883,39.551,72.75399999999998,29.785,33.691,0.0,0
1581712847.887,39.062,51.758,31.738000000000003,36.621,0.0,0
1581712847.891,34.18,71.289,32.715,34.668,0.0,0
1581712847.895,31.738000000000003,143.555,28.809,30.762,0.0,0
1581712847.899,39.551,65.918,33.691,35.156,0.0,0
1581712847.903,42.48,-8.789,36.133,39.062,0.0,0
1581712847.907,34.668,40.527,31.25,32.715,0.0,0
1581712847.91,34.668,161.621,28.809,31.25,0.0,0
1581712847.914,30.273000000000003,95.215,27.832,22.461,0.0,0
1581712847.918,31.25,-28.809,27.832,20.996,0.0,0
1581712847.9220002,33.691,233.887,29.785,30.273000000000003,0.0,0
1581712847.926,30.762,292.969,32.715,29.297,0.0,0
1581712847.928,28.809,102.051,30.762,24.414,0.0,0
1581712847.9320002,24.414,155.762,30.273000000000003,19.531,0.0,0
1581712847.936,24.902,250.977,30.273000000000003,20.996,0.0,0
1581712847.94,21.973000000000006,205.078,30.273000000000003,20.02,0.0,0
1581712847.944,20.508000000000006,113.281,31.25,16.602,0.0,0
1581712847.948,25.391,30.762,32.227,20.02,0.0,0
1581712847.952,22.949,68.848,33.691,21.973000000000006,0.0,0
1581712847.955,24.414,198.73,32.715,24.902,0.0,0
1581712847.959,29.785,65.43,29.785,20.996,0.0,0
1581712847.9629998,29.785,27.344,30.762,21.484,0.0,0
1581712847.967,34.668,230.957,31.25,37.109,0.0,0
1581712847.971,38.086,186.523,33.203,41.504,0.0,0
1581712847.9729998,36.621,120.117,36.133,35.156,0.0,0
1581712847.9770002,32.227,135.74200000000002,32.715,33.203,0.0,0
1581712847.981,39.062,175.293,36.133,40.039,0.0,0
1581712847.985,36.621,144.531,36.133,39.062,0.0,0
1581712847.9889998,26.367,62.5,30.273000000000003,28.32,0.0,0
1581712847.9929998,30.273000000000003,21.484,32.227,28.32,0.0,0
1581712847.9970002,30.762,66.406,34.18,29.785,0.0,0
1581712848.0,31.25,57.129,35.645,31.25,0.0,0
1581712848.004,31.738000000000003,-7.324,35.156,30.762,0.0,0
1581712848.008,29.785,100.586,32.715,26.855,0.0,0
1581712848.012,33.203,142.09,31.738000000000003,28.32,0.0,0
1581712848.016,36.621,81.055,32.715,31.738000000000003,0.0,0
1581712848.018,33.691,46.875,34.668,30.762,0.0,0
1581712848.022,24.902,79.102,34.668,23.438,0.0,0
1581712848.026,24.414,58.105,34.18,20.02,0.0,0
1581712848.03,29.297,35.645,34.668,22.949,0.0,0
1581712848.034,31.738000000000003,90.82,35.156,28.32,0.0,0
1581712848.038,28.32,29.785,35.645,26.855,0.0,0
1581712848.042,27.832,20.02,36.621,24.414,0.0,0
1581712848.045,34.668,-52.246,37.598,26.855,0.0,0
1581712848.049,38.574,-51.27,39.062,30.273000000000003,0.0,0
1581712848.053,29.297,200.68400000000003,36.621,27.832,0.0,0
1581712848.0570002,25.879,77.148,30.762,24.902,0.0,0
1581712848.061,25.391,10.254,29.297,24.902,0.0,0
1581712848.063,20.508000000000006,127.441,29.785,25.391,0.0,0
1581712848.0670002,26.367,161.621,30.273000000000003,29.785,0.0,0
1581712848.071,28.809,97.168,29.785,27.344,0.0,0
1581712848.075,26.855,53.223,31.738000000000003,21.973000000000006,0.0,0
1581712848.079,32.715,175.293,33.203,27.344,0.0,0
1581712848.083,35.156,146.97299999999996,33.691,35.645,0.0,0
1581712848.087,26.855,5.859,32.715,30.273000000000003,0.0,0
1581712848.09,28.809,-13.184,32.715,23.926,0.0,0
1581712848.094,29.297,161.621,35.156,25.879,0.0,0
1581712848.0979998,26.855,264.16,31.738000000000003,27.344,0.0,0
1581712848.1020002,29.297,166.016,31.25,29.297,0.0,0
1581712848.106,38.086,100.586,40.039,35.156,0.0,0
1581712848.1079998,39.062,155.762,36.621,37.109,0.0,0
1581712848.1120002,26.855,105.469,26.367,29.785,0.0,0
1581712848.1160002,30.273000000000003,39.551,29.785,36.133,0.0,0
1581712848.12,47.852,104.492,33.691,52.734,0.0,0
1581712848.1239998,47.852,153.32,27.832,41.01600000000001,0.0,0
1581712848.1279998,32.227,80.566,23.926,21.484,0.0,0
1581712848.1320002,32.227,-88.37899999999998,26.855,22.461,0.0,0
1581712848.135,36.621,-27.832,27.832,21.973000000000006,0.0,0
1581712848.139,29.785,177.24599999999995,24.414,15.625,0.0,0
1581712848.143,35.645,178.22299999999996,27.832,25.391,0.0,0
1581712848.147,37.598,107.422,32.715,30.273000000000003,0.0,0
1581712848.151,26.855,80.566,30.273000000000003,21.973000000000006,0.0,0
1581712848.168,24.902,122.559,32.715,23.438,0.0,0
1581712848.1720002,27.832,98.633,33.203,25.391,0.0,0
1581712848.176,35.156,61.035,28.32,26.367,0.0,0
1581712848.18,35.645,139.648,26.855,25.879,0.0,0
1581712848.184,38.574,117.188,29.297,26.367,0.0,0
1581712848.188,43.945,-32.715,33.691,31.738000000000003,0.0,0
1581712848.1920002,37.598,0.488,28.809,28.32,0.0,0
1581712848.195,34.18,170.898,24.414,22.461,0.0,0
1581712848.199,32.227,213.379,25.391,20.996,0.0,0
1581712848.2029998,32.715,85.93799999999997,27.832,18.066,0.0,0
1581712848.207,32.227,23.926,32.715,20.02,0.0,0
1581712848.211,25.879,198.73,31.25,25.391,0.0,0
1581712848.2129998,25.879,205.566,28.809,24.414,0.0,0
1581712848.217,27.344,109.375,31.738000000000003,26.855,0.0,0
1581712848.221,30.273000000000003,117.676,32.715,24.902,0.0,0
1581712848.225,31.25,204.59,33.203,21.973000000000006,0.0,0
1581712848.229,31.738000000000003,193.359,35.156,20.508000000000006,0.0,0
1581712848.2329998,33.203,76.172,31.738000000000003,20.996,0.0,0
1581712848.2370002,37.598,122.07,33.203,31.25,0.0,0
1581712848.24,34.18,182.129,34.18,32.715,0.0,0
1581712848.244,29.785,182.129,30.762,29.785,0.0,0
1581712848.248,32.715,41.01600000000001,30.762,24.414,0.0,0
1581712848.252,36.621,45.898,30.762,26.855,0.0,0
1581712848.256,38.574,282.715,32.227,34.668,0.0,0
1581712848.258,38.574,201.66,30.762,33.203,0.0,0
1581712848.262,39.062,97.168,29.297,34.18,0.0,0
1581712848.266,37.109,143.066,31.738000000000003,36.621,0.0,0
1581712848.27,38.574,188.477,33.691,37.598,0.0,0
1581712848.274,39.551,160.645,32.715,37.598,0.0,0
1581712848.278,36.133,7.324,27.832,33.203,0.0,0
1581712848.282,35.645,-19.531,26.367,25.391,0.0,0
1581712848.285,31.738000000000003,166.50400000000005,25.879,23.926,0.0,0
1581712848.289,29.297,119.141,23.926,27.832,0.0,0
1581712848.293,30.273000000000003,-32.715,28.809,30.762,0.0,0
1581712848.2970002,26.855,40.527,27.832,22.461,0.0,0
1581712848.301,26.855,92.285,22.949,20.996,0.0,0
1581712848.303,33.691,134.766,24.902,28.809,0.0,0
1581712848.3070002,32.715,93.262,25.879,31.25,0.0,0
1581712848.311,31.25,67.87100000000001,24.902,27.832,0.0,0
1581712848.315,34.668,60.059,24.414,30.762,0.0,0
1581712848.319,36.621,30.762,24.414,35.156,0.0,0
1581712848.323,36.133,-50.78100000000001,27.344,39.062,0.0,0
1581712848.327,34.668,-32.715,28.32,36.133,0.0,0
1581712848.33,38.086,87.891,24.414,30.273000000000003,0.0,0
1581712848.334,45.898,-48.828,22.461,35.645,0.0,0
1581712848.3379998,40.039,-68.848,21.973000000000006,33.203,0.0,0
1581712848.342,35.645,120.117,22.461,30.273000000000003,0.0,0
1581712848.346,40.527,67.383,24.414,38.086,0.0,0
1581712848.3479998,44.922,-5.859,24.414,40.039,0.0,0
1581712848.3520002,46.875,8.789,26.367,41.01600000000001,0.0,0
1581712848.356,50.293,3.906,29.785,39.062,0.0,0
1581712848.36,45.898,-18.555,26.367,27.832,0.0,0
1581712848.3639998,36.621,-44.922,22.949,24.414,0.0,0
1581712848.3679998,30.762,-28.32,24.414,23.926,0.0,0
1581712848.3720002,30.762,-24.414,27.832,23.926,0.0,0
1581712848.375,34.18,-74.707,29.297,21.973000000000006,0.0,1
1581712848.379,33.203,-140.137,29.785,15.137,0.0,0
1581712848.383,29.297,61.523,31.25,21.973000000000006,0.0,0
1581712848.387,26.367,157.715,31.738000000000003,26.367,0.0,0
1581712848.391,24.414,-0.488,29.297,20.02,0.0,0
1581712848.393,25.879,-26.855,27.832,17.09,0.0,0
1581712848.397,30.762,82.031,31.25,24.414,0.0,0
1581712848.401,34.668,86.426,32.715,28.32,0.0,0
1581712848.405,33.691,6.348,31.738000000000003,24.902,0.0,0
1581712848.409,30.762,-31.738000000000003,29.785,22.461,0.0,0
1581712848.413,33.691,-56.64100000000001,32.227,26.367,0.0,0
1581712848.417,33.691,63.965,34.668,28.809,0.0,0
1581712848.42,29.785,-18.555,30.762,22.461,0.0,0
1581712848.424,37.598,-54.688,34.18,27.832,0.0,0
1581712848.428,43.945,199.219,37.109,36.133,0.0,0
1581712848.4320002,33.203,202.637,31.25,28.809,0.0,0
1581712848.436,30.273000000000003,117.188,33.203,27.344,0.0,0
1581712848.438,37.598,95.215,33.691,33.203,0.0,0
1581712848.4420002,38.574,129.395,29.785,28.809,0.0,0
1581712848.446,31.738000000000003,87.891,28.809,25.879,0.0,0
1581712848.45,33.691,60.547,32.227,32.715,0.0,0
1581712848.454,35.156,118.652,30.273000000000003,26.855,0.0,0
1581712848.458,31.25,60.547,29.785,20.996,0.0,0
1581712848.462,30.762,-24.414,33.203,23.438,0.0,0
1581712848.465,26.855,-42.48,32.227,20.996,0.0,0
1581712848.469,21.973000000000006,103.516,30.762,19.043,0.0,0
1581712848.4729998,24.414,144.043,31.25,19.043,0.0,0
1581712848.4770002,23.926,41.504,32.715,19.043,0.0,0
1581712848.481,20.02,67.87100000000001,26.855,22.461,0.0,0
1581712848.4829998,28.809,87.891,27.832,32.715,0.0,0
1581712848.4870002,32.227,74.707,31.738000000000003,33.203,0.0,0
1581712848.4910002,30.762,58.594,26.855,29.297,0.0,0
1581712848.495,37.598,62.012,30.273000000000003,37.598,0.0,0
1581712848.4989998,36.621,102.051,32.227,35.156,0.0,0
1581712848.5029998,32.715,-26.855,27.832,26.367,0.0,0
1581712848.5070002,37.598,-192.871,30.762,26.367,0.0,0
1581712848.51,36.133,-46.387,34.668,28.32,0.0,0
1581712848.514,33.691,174.805,30.273000000000003,28.809,0.0,0
1581712848.518,33.203,108.398,27.344,26.855,0.0,0
1581712848.522,34.18,-43.457,28.32,24.902,0.0,0
1581712848.526,36.133,40.527,27.344,32.715,0.0,0
1581712848.528,33.691,170.898,28.32,39.551,0.0,0
1581712848.532,33.691,72.75399999999998,31.25,39.062,0.0,0
1581712848.536,32.715,-24.414,31.738000000000003,32.715,0.0,0
1581712848.54,29.785,46.387,33.203,30.762,0.0,0
1581712848.544,26.367,78.613,31.738000000000003,33.691,0.0,0
1581712848.548,23.926,-29.785,30.273000000000003,27.344,0.0,0
1581712848.552,19.531,-134.766,30.273000000000003,17.09,0.0,0
1581712848.555,23.438,23.438,33.203,20.508000000000006,0.0,0
1581712848.559,24.902,152.832,31.738000000000003,26.367,0.0,0
1581712848.563,20.996,50.78100000000001,24.414,21.973000000000006,0.0,0
1581712848.5670002,20.996,18.066,25.879,20.02,0.0,0
1581712848.571,26.367,110.352,28.809,22.461,0.0,0
1581712848.5879998,24.902,110.352,29.297,26.367,0.0,0
1581712848.592,22.949,34.668,30.273000000000003,30.762,0.0,0
1581712848.596,28.32,0.977,31.738000000000003,33.691,0.0,0
1581712848.6,30.762,44.434,30.762,27.832,0.0,0
1581712848.604,46.875,36.621,25.879,41.992,0.0,0
1581712848.6079998,47.363,-25.879,27.832,49.316,0.0,0
1581712848.6120002,19.043,-25.879,36.133,30.762,0.0,0
1581712848.615,12.207,62.5,34.18,24.414,0.0,0
1581712848.619,16.113,82.52,31.738000000000003,24.414,0.0,0
1581712848.623,12.207,-52.734,35.156,22.461,0.0,0
1581712848.627,20.02,-8.301,39.551,29.785,0.0,0
1581712848.631,20.996,104.004,38.574,29.785,0.0,0
1581712848.633,11.719,38.574,32.715,24.414,0.0,0
1581712848.637,13.672,37.598,32.227,29.297,0.0,0
1581712848.641,20.02,73.73,32.227,28.809,0.0,0
1581712848.645,21.484,44.434,33.691,26.367,0.0,0
1581712848.649,22.949,-48.34,35.645,27.344,0.0,0
1581712848.653,28.32,-83.49600000000002,34.668,33.203,0.0,0
1581712848.657,28.809,30.762,34.668,38.086,0.0,0
1581712848.66,32.227,97.168,37.598,33.203,0.0,0
1581712848.664,32.227,-56.152,35.156,31.738000000000003,0.0,0
1581712848.668,25.391,-152.344,35.156,35.156,0.0,0
1581712848.6720002,31.25,88.37899999999998,36.133,43.945,0.0,0
1581712848.676,39.551,133.30100000000002,34.18,41.992,0.0,0
1581712848.678,34.18,25.391,35.156,36.621,0.0,0
1581712848.6820002,34.18,12.695,35.645,38.574,0.0,0
1581712848.686,42.969,83.49600000000002,43.457,47.852,0.0,0
1581712848.69,39.551,111.816,41.992,49.316,0.0,0
1581712848.694,32.227,32.227,35.156,37.598,0.0,0
1581712848.698,31.738000000000003,-35.645,38.574,38.086,0.0,0
1581712848.702,35.645,29.297,36.621,39.062,0.0,0
1581712848.705,37.109,78.125,33.203,39.551,0.0,0
1581712848.709,39.062,-58.594,34.18,40.039,0.0,0
1581712848.7129998,40.039,-14.648,35.156,42.48,0.0,0
1581712848.717,37.598,154.785,34.18,41.504,0.0,0
1581712848.721,37.109,100.586,32.227,40.527,0.0,0
1581712848.7229998,34.668,50.293,29.785,38.086,0.0,0
1581712848.7270002,32.227,66.895,32.227,33.691,0.0,0
1581712848.731,30.762,74.707,31.25,39.062,0.0,0
1581712848.735,33.203,22.949,29.785,42.48,0.0,0
1581712848.7389998,35.156,-20.996,34.18,41.01600000000001,0.0,0
1581712848.7429998,41.01600000000001,-80.078,39.062,45.898,0.0,0
1581712848.7470002,44.922,-30.273000000000003,36.621,47.852,0.0,0
1581712848.75,37.598,-32.715,27.344,39.062,0.0,0
1581712848.754,35.645,-161.621,27.832,42.969,0.0,0
1581712848.758,38.086,-15.137,28.32,41.992,0.0,0
1581712848.762,36.621,-50.78100000000001,27.832,39.551,0.0,0
1581712848.766,40.527,-133.789,30.273000000000003,49.805,0.0,0
1581712848.768,40.527,-65.918,28.809,49.805,0.0,0
1581712848.772,34.18,-60.547,26.367,39.551,0.0,0
1581712848.776,35.156,-83.984,28.32,36.621,0.0,0
1581712848.78,34.668,-110.352,28.809,38.574,0.0,0
1581712848.784,35.645,-108.398,28.809,41.504,0.0,0
1581712848.788,35.156,-208.008,30.762,37.598,0.0,0
1581712848.792,33.203,-214.844,29.297,34.18,0.0,0
1581712848.795,34.668,-254.395,27.344,31.25,0.0,0
1581712848.799,34.668,-229.98,27.832,30.273000000000003,0.0,0
1581712848.803,36.621,-42.48,35.156,31.738000000000003,0.0,0
1581712848.8070002,35.645,-163.086,34.668,26.855,0.0,0
1581712848.811,32.227,-229.492,30.273000000000003,27.344,0.0,0
1581712848.813,29.297,-137.695,32.227,30.762,0.0,0
1581712848.8170002,34.668,-131.34799999999998,28.32,30.273000000000003,0.0,0
1581712848.821,36.133,-229.004,27.344,28.809,0.0,0
1581712848.825,30.273000000000003,-253.418,30.273000000000003,24.902,0.0,0
1581712848.829,29.785,-145.02,28.32,25.879,0.0,0
1581712848.833,36.133,-182.129,27.344,32.227,0.0,0
1581712848.837,32.227,-278.32,32.715,32.227,0.0,0
1581712848.84,28.809,-284.18,34.668,30.762,0.0,0
1581712848.844,33.691,-127.441,33.203,35.645,0.0,0
1581712848.8479998,33.203,-72.266,33.203,39.551,0.0,0
1581712848.8520002,30.762,-173.34,32.227,36.133,0.0,0
1581712848.856,33.203,-199.219,28.32,27.832,0.0,0
1581712848.8579998,37.109,-150.391,29.297,33.691,0.0,0
1581712848.8620002,34.668,-135.254,30.273000000000003,40.527,0.0,0
1581712848.8660002,36.133,-194.824,28.809,39.551,0.0,0
1581712848.87,36.133,-219.238,31.738000000000003,37.109,0.0,0
1581712848.8739998,36.133,-226.074,32.715,36.133,0.0,0
1581712848.8779998,43.945,-226.074,35.645,42.969,0.0,0
1581712848.8820002,47.852,-310.547,35.156,42.969,0.0,0
1581712848.885,42.48,-286.133,30.762,37.109,0.0,0
1581712848.889,43.945,-106.934,32.715,38.574,0.0,0
1581712848.893,47.852,-138.184,33.691,40.039,0.0,0
1581712848.897,45.41,-176.27,29.297,41.504,0.0,0
1581712848.901,44.922,-177.734,31.25,43.457,0.0,0
1581712848.918,40.039,-198.242,35.156,40.039,0.0,0
1581712848.9220002,37.598,-215.82,36.133,35.645,0.0,0
1581712848.926,36.621,-213.379,33.691,37.598,0.0,0
1581712848.93,40.039,-144.043,30.762,41.504,0.0,0
1581712848.934,37.598,-160.156,29.297,35.645,0.0,0
1581712848.938,42.969,-267.09,34.668,46.875,0.0,0
1581712848.9420002,52.246,-311.035,38.574,62.988,0.0,0
1581712848.945,43.457,-225.586,31.738000000000003,44.922,0.0,0
1581712848.949,28.32,-119.141,28.32,22.949,0.0,0
1581712848.9529998,33.691,-166.50400000000005,32.227,32.227,0.0,0
1581712848.957,37.598,-191.406,30.762,36.133,0.0,0
1581712848.961,34.18,-109.375,27.344,30.762,0.0,0
1581712848.9629998,36.621,-146.484,30.273000000000003,30.273000000000003,0.0,0
1581712848.967,28.809,-235.84,29.785,24.414,0.0,0
1581712848.971,30.273000000000003,-205.566,28.32,31.25,0.0,0
1581712848.975,35.645,-101.562,31.25,37.109,0.0,0
1581712848.979,40.527,-148.438,31.738000000000003,35.645,0.0,0
1581712848.9829998,40.527,-245.605,32.227,37.598,0.0,0
1581712848.9870002,38.086,-257.812,34.18,40.039,0.0,0
1581712848.99,42.969,-207.52,35.156,38.086,0.0,0
1581712848.994,38.086,-103.027,33.203,35.645,0.0,0
1581712848.998,37.598,-227.539,31.25,32.715,0.0,0
1581712849.002,35.156,-267.578,32.715,30.762,0.0,0
1581712849.006,29.297,-56.64100000000001,28.32,35.156,0.0,0
1581712849.008,29.785,-89.355,25.391,33.691,0.0,0
1581712849.012,25.879,-181.152,27.344,30.273000000000003,0.0,0
1581712849.016,26.855,-154.297,28.809,27.344,0.0,0
1581712849.02,24.902,-58.594,31.25,25.391,0.0,0
1581712849.024,24.414,-92.285,33.203,31.738000000000003,0.0,0
1581712849.028,26.855,-212.891,36.133,27.832,0.0,0
1581712849.032,27.344,-199.707,36.621,23.926,0.0,0
1581712849.035,28.32,-74.219,33.203,30.273000000000003,0.0,0
1581712849.039,28.809,-72.75399999999998,32.715,33.691,0.0,0
1581712849.043,30.273000000000003,-222.656,29.297,32.715,0.0,0
1581712849.0470002,28.809,-128.418,23.926,27.832,0.0,0
1581712849.051,28.32,-26.367,28.32,29.297,0.0,0
1581712849.053,26.855,-72.266,29.297,32.227,0.0,0
1581712849.0570002,29.297,-86.426,32.715,34.18,0.0,0
1581712849.061,31.738000000000003,-61.035,35.645,32.227,0.0,0
1581712849.065,24.902,-69.824,30.273000000000003,25.391,0.0,0
1581712849.069,23.926,-108.398,27.344,28.809,0.0,0
1581712849.073,25.391,-163.57399999999996,25.391,29.785,0.0,0
1581712849.077,26.855,-154.297,25.391,25.879,0.0,0
1581712849.08,30.273000000000003,-97.168,25.391,25.391,0.0,0
1581712849.084,29.785,-226.562,25.391,22.461,0.0,0
1581712849.0879998,28.809,-198.242,25.391,19.531,0.0,0
1581712849.092,31.25,-29.785,25.879,22.461,0.0,0
1581712849.096,27.832,-109.375,26.367,19.043,0.0,0
1581712849.0979998,31.25,-123.535,22.461,16.602,0.0,0
1581712849.1020002,34.668,-83.984,21.484,22.461,0.0,0
1581712849.106,33.203,-90.332,24.902,25.879,0.0,0
1581712849.11,29.785,-146.484,25.391,22.461,0.0,0
1581712849.1139998,29.785,-195.312,29.297,22.949,0.0,0
1581712849.1179998,34.18,-175.293,26.367,23.926,0.0,0
1581712849.1220002,30.273000000000003,-118.652,21.973000000000006,19.531,0.0,0
1581712849.125,26.855,-160.645,24.902,18.066,0.0,0
1581712849.129,25.879,-249.023,23.926,14.16,0.0,0
1581712849.133,25.391,-62.012,24.902,18.066,0.0,0
1581712849.137,24.414,-12.695,23.926,19.043,0.0,0
1581712849.141,27.344,-140.625,23.438,20.02,0.0,0
1581712849.143,27.344,-155.273,25.391,23.438,0.0,0
1581712849.147,24.902,-56.152,26.367,24.902,0.0,0
1581712849.151,30.273000000000003,-34.668,26.855,31.738000000000003,0.0,0
1581712849.155,30.762,-120.117,24.902,25.391,0.0,0
1581712849.159,27.344,-153.809,26.367,20.508000000000006,0.0,0
1581712849.163,23.926,-133.30100000000002,28.32,22.949,0.0,0
1581712849.167,21.484,-62.988,29.785,24.902,0.0,0
1581712849.17,27.344,-179.688,30.273000000000003,25.879,0.0,0
1581712849.174,31.25,-204.102,30.762,24.414,0.0,0
1581712849.178,24.902,-0.977,27.832,20.508000000000006,0.0,0
1581712849.1820002,20.508000000000006,-16.113,23.926,20.996,0.0,0
1581712849.186,21.973000000000006,-60.059,22.949,23.438,0.0,0
1581712849.188,25.391,-102.051,24.902,21.973000000000006,0.0,0
1581712849.1920002,26.855,-63.965,23.926,22.949,0.0,0
1581712849.196,26.855,-68.848,24.414,27.344,0.0,0
1581712849.2,28.809,-109.863,26.367,29.297,0.0,0
1581712849.204,33.691,-34.18,23.438,24.414,0.0,0
1581712849.208,32.715,-85.449,22.461,23.926,0.0,0
1581712849.212,30.762,-174.805,22.461,28.32,0.0,0
1581712849.215,28.809,-157.715,20.996,25.879,0.0,0
1581712849.219,33.691,-30.273000000000003,24.414,25.391,0.0,0
1581712849.2229998,33.691,-14.16,26.855,22.949,0.0,0
1581712849.2270002,31.738000000000003,-105.957,26.367,23.926,0.0,0
1581712849.231,34.18,-46.875,30.762,29.785,0.0,0
1581712849.234,23.438,-5.371,30.762,20.02,0.0,0
1581712849.238,20.996,-41.504,26.855,15.625,0.0,0
1581712849.242,26.855,-61.035,27.832,20.508000000000006,0.0,0
1581712849.246,23.926,-15.625,27.832,22.949,0.0,0
1581712849.25,26.855,21.973000000000006,30.273000000000003,26.367,0.0,0
1581712849.254,30.273000000000003,-79.59,31.738000000000003,26.855,0.0,0
1581712849.258,29.785,-198.242,32.715,27.832,0.0,0
1581712849.2610002,31.738000000000003,-105.957,34.18,30.762,0.0,0
1581712849.265,33.203,96.68,31.25,32.227,0.0,0
1581712849.269,29.785,46.875,27.344,26.367,0.0,0
1581712849.2729998,24.902,-72.75399999999998,26.367,23.926,0.0,0
1581712849.2770002,28.809,-10.254,30.762,28.32,0.0,0
1581712849.278,27.832,73.242,31.25,35.645,0.0,0
1581712849.282,28.32,-17.09,27.344,30.762,0.0,0
1581712849.286,33.691,-59.082,30.273000000000003,27.344,0.0,0
1581712849.29,26.367,31.25,31.738000000000003,29.785,0.0,0
1581712849.294,20.02,75.195,24.902,25.391,0.0,0
1581712849.298,23.438,-48.828,25.391,24.414,0.0,0
1581712849.302,22.461,-162.59799999999996,28.32,18.555,0.0,0
1581712849.305,24.414,-17.09,26.367,21.484,0.0,0
1581712849.309,22.461,129.395,21.973000000000006,26.855,0.0,0
1581712849.313,22.461,32.227,21.973000000000006,23.926,0.0,0
1581712849.3170002,27.344,-52.246,24.414,22.461,0.0,0
1581712849.321,26.367,24.902,25.391,21.484,0.0,0
1581712849.3379998,27.344,71.777,24.414,21.973000000000006,0.0,0
1581712849.342,30.762,10.254,26.367,25.391,0.0,0
1581712849.346,29.785,17.578,28.809,24.902,0.0,0
1581712849.35,29.785,41.01600000000001,29.785,25.391,0.0,0
1581712849.354,32.227,-7.812,30.762,31.25,0.0,0
1581712849.3579998,30.762,-82.031,28.32,34.18,0.0,0
1581712849.3620002,29.297,-38.086,24.902,29.297,0.0,0
1581712849.365,33.203,93.262,26.367,31.25,0.0,0
1581712849.369,35.156,77.148,29.785,36.133,0.0,0
1581712849.373,28.809,-61.035,25.879,31.738000000000003,0.0,0
1581712849.377,30.762,-40.039,24.902,29.785,0.0,0
1581712849.381,31.25,47.852,23.438,32.715,0.0,0
1581712849.383,32.715,26.855,22.949,39.551,0.0,0
1581712849.387,36.133,6.348,26.855,46.875,0.0,0
1581712849.391,33.691,49.805,27.344,40.039,0.0,0
1581712849.395,30.273000000000003,67.87100000000001,24.414,29.785,0.0,0
1581712849.399,27.344,-22.461,24.414,27.832,0.0,0
1581712849.403,33.203,-47.363,27.832,27.832,0.0,0
1581712849.407,33.203,5.859,27.832,25.391,0.0,0
1581712849.41,31.738000000000003,36.621,26.855,23.438,0.0,0
1581712849.414,33.203,-36.621,27.832,19.043,0.0,0
1581712849.418,33.691,-68.359,26.367,16.602,0.0,0
1581712849.4220002,37.598,126.953,25.391,25.879,0.0,0
1581712849.426,33.203,159.668,23.438,22.949,0.0,0
1581712849.428,26.367,14.648,15.625,14.16,0.0,0
1581712849.4320002,30.762,8.789,19.043,18.066,0.0,0
1581712849.436,33.203,118.164,22.949,23.926,0.0,0
1581712849.44,30.273000000000003,97.656,23.926,26.367,0.0,0
1581712849.444,28.809,12.207,25.879,22.461,0.0,0
1581712849.448,30.273000000000003,-19.043,24.414,21.484,0.0,0
1581712849.452,32.715,14.16,25.391,29.297,0.0,0
1581712849.455,31.25,95.215,28.32,33.691,0.0,0
1581712849.459,24.902,-30.762,29.785,25.391,0.0,0
1581712849.4629998,23.438,-56.152,30.762,18.555,0.0,0
1581712849.467,26.367,106.934,28.809,23.926,0.0,0
1581712849.471,28.32,127.93,24.902,25.879,0.0,0
1581712849.4729998,29.297,62.012,23.926,22.461,0.0,0
1581712849.4770002,29.297,57.129,25.879,19.043,0.0,0
1581712849.481,32.227,79.59,26.855,21.973000000000006,0.0,0
1581712849.485,36.621,38.574,27.832,27.832,0.0,0
1581712849.4889998,32.227,18.066,24.902,22.461,0.0,0
1581712849.4929998,29.297,-36.621,23.438,17.09,0.0,0
1581712849.4970002,31.25,-4.395,22.461,18.066,0.0,0
1581712849.5,38.086,56.64100000000001,23.438,27.832,0.0,0
1581712849.504,34.668,-24.902,25.391,29.297,0.0,0
1581712849.508,29.785,78.125,27.344,21.973000000000006,0.0,0
1581712849.512,32.715,131.836,27.832,22.949,0.0,1
1581712849.516,33.203,47.363,27.832,23.438,0.0,0
1581712849.518,30.273000000000003,16.602,23.926,20.508000000000006,0.0,0
1581712849.522,29.785,19.043,21.484,17.578,0.0,0
1581712849.526,31.25,49.805,23.926,17.578,0.0,0
1581712849.53,30.273000000000003,47.363,25.879,20.508000000000006,0.0,0
1581712849.534,29.297,61.523,25.391,21.484,0.0,0
1581712849.538,29.297,13.184,22.949,17.09,0.0,0
1581712849.542,27.344,-1.465,23.438,14.648,0.0,0
1581712849.545,29.297,-32.715,24.414,18.066,0.0,0
1581712849.549,29.785,-3.418,26.367,20.02,0.0,0
1581712849.553,25.879,145.50799999999995,30.273000000000003,20.02,0.0,0
1581712849.5570002,27.832,82.031,31.738000000000003,15.625,0.0,0
1581712849.561,31.25,32.227,29.785,17.09,0.0,0
1581712849.563,30.762,55.664,28.809,25.391,0.0,0
1581712849.5670002,27.832,75.195,31.25,27.344,0.0,0
1581712849.571,26.367,19.043,31.25,23.438,0.0,0
1581712849.575,30.273000000000003,-41.992,30.762,26.367,0.0,0
1581712849.579,26.367,17.09,25.879,27.344,0.0,0
1581712849.583,27.832,32.715,23.438,26.855,0.0,0
1581712849.587,30.273000000000003,-63.965,26.855,26.855,0.0,0
1581712849.59,31.738000000000003,-103.027,28.809,27.344,0.0,0
1581712849.594,33.203,59.082,27.344,31.25,0.0,0
1581712849.5979998,29.297,138.184,23.926,30.273000000000003,0.0,0
1581712849.6020002,34.18,35.156,23.926,28.809,0.0,0
1581712849.606,34.668,23.926,25.879,23.926,0.0,0
1581712849.6079998,32.715,38.086,27.832,27.344,0.0,0
1581712849.6120002,31.738000000000003,45.898,27.344,32.227,0.0,0
1581712849.6160002,27.344,47.852,26.367,29.297,0.0,0
1581712849.62,30.762,-27.344,27.344,28.809,0.0,0
1581712849.6239998,34.668,-13.184,29.297,27.344,0.0,0
1581712849.6279998,38.574,20.02,30.762,30.762,0.0,0
1581712849.6320002,45.41,-85.449,35.156,38.086,0.0,0
1581712849.635,38.574,-103.027,31.25,29.785,0.0,0
1581712849.639,30.273000000000003,104.492,22.461,26.855,0.0,0
1581712849.643,35.645,106.934,24.414,38.086,0.0,0
1581712849.647,33.203,44.922,26.855,37.598,0.0,0
1581712849.651,26.855,44.922,29.785,26.855,0.0,0
1581712849.653,26.367,33.691,31.25,23.926,0.0,0
1581712849.657,30.273000000000003,16.602,30.273000000000003,29.297,0.0,0
1581712849.661,29.785,-0.488,32.227,32.227,0.0,0
1581712849.665,25.391,49.805,31.738000000000003,29.785,0.0,0
1581712849.669,20.996,42.48,28.809,25.391,0.0,0
1581712849.673,23.926,-72.266,28.809,28.32,0.0,0
1581712849.677,27.344,-87.891,32.227,32.227,0.0,0
1581712849.68,22.461,66.406,30.762,26.367,0.0,0
1581712849.684,22.949,125.488,29.785,23.438,0.0,0
1581712849.688,25.879,-7.812,29.785,25.391,0.0,0
1581712849.6920002,25.391,-5.859,28.809,33.203,0.0,0
1581712849.696,27.832,112.305,30.273000000000003,32.715,0.0,0
1581712849.7129998,27.344,95.703,31.25,24.414,0.0,0
1581712849.717,28.809,24.902,31.25,23.438,0.0,0
1581712849.721,34.18,22.461,28.32,25.879,0.0,0
1581712849.725,35.156,124.512,29.297,30.273000000000003,0.0,0
1581712849.729,35.156,75.684,35.156,32.227,0.0,0
1581712849.7329998,36.133,-58.594,32.227,28.809,0.0,0
1581712849.7370002,37.598,-10.254,25.879,27.344,0.0,0
1581712849.74,37.598,96.68,29.297,32.227,0.0,0
1581712849.744,37.598,101.074,31.738000000000003,35.156,0.0,0
1581712849.748,37.598,-24.902,29.297,32.227,0.0,0
1581712849.752,32.227,-20.02,27.344,28.809,0.0,0
1581712849.756,31.738000000000003,133.30100000000002,27.344,31.25,0.0,0
1581712849.758,33.203,51.758,26.367,31.25,0.0,0
1581712849.762,38.086,-49.805,29.297,28.809,0.0,0
1581712849.766,40.527,49.805,29.785,31.738000000000003,0.0,0
1581712849.77,35.645,110.352,26.367,33.691,0.0,0
1581712849.774,34.668,67.383,29.297,32.715,0.0,0
1581712849.778,36.133,-56.64100000000001,32.715,27.344,0.0,0
1581712849.782,41.504,-63.965,34.18,29.297,0.0,0
1581712849.785,41.992,80.078,32.715,33.203,0.0,0
1581712849.789,37.598,59.082,28.809,32.715,0.0,0
1581712849.793,38.574,-69.824,28.809,27.832,0.0,0
1581712849.7970002,39.062,44.922,31.25,27.344,0.0,0
1581712849.801,39.551,145.996,31.738000000000003,35.645,0.0,0
1581712849.803,40.039,84.961,28.809,35.645,0.0,0
1581712849.8070002,37.109,57.129,29.785,32.715,0.0,0
1581712849.811,33.203,109.863,27.832,29.297,0.0,0
1581712849.815,33.203,32.227,24.414,26.367,0.0,0
1581712849.819,33.203,18.066,21.484,27.832,0.0,0
1581712849.823,37.109,45.898,24.902,27.832,0.0,0
1581712849.827,39.551,-0.977,29.297,24.414,0.0,0
1581712849.83,35.156,86.914,28.32,21.484,0.0,0
1581712849.834,32.715,7.812,26.367,20.508000000000006,0.0,0
1581712849.8379998,38.574,1.465,32.227,25.879,0.0,0
1581712849.842,37.598,183.594,34.18,27.344,0.0,0
1581712849.846,31.25,122.07,29.297,21.484,0.0,0
1581712849.8479998,33.203,82.52,30.762,27.832,0.0,0
1581712849.8520002,39.062,145.02,32.227,34.668,0.0,0
1581712849.856,41.504,121.582,34.18,36.133,0.0,0
1581712849.86,44.434,41.992,36.133,38.574,0.0,0
1581712849.8639998,40.527,24.902,36.133,37.598,0.0,0
1581712849.8679998,35.156,53.223,35.156,41.504,0.0,0
1581712849.8720002,36.621,21.973000000000006,36.133,42.969,0.0,0
1581712849.875,36.133,-24.902,38.086,39.551,0.0,0
1581712849.879,34.18,-39.551,35.645,39.062,0.0,0
1581712849.883,33.691,136.719,32.715,40.039,0.0,0
1581712849.887,31.738000000000003,217.773,31.738000000000003,37.598,0.0,0
1581712849.891,29.785,64.453,33.691,29.297,0.0,0
1581712849.893,31.25,24.414,35.156,26.855,0.0,0
1581712849.897,34.668,143.066,38.086,32.227,0.0,0
1581712849.901,35.156,160.156,35.645,35.156,0.0,0
1581712849.905,27.344,24.902,28.809,24.414,0.0,0
1581712849.909,25.879,3.418,29.785,15.137,0.0,0
1581712849.913,33.691,21.484,32.227,21.484,0.0,0
1581712849.917,31.25,108.398,29.297,28.809,0.0,0
1581712849.92,27.344,33.203,30.273000000000003,24.902,0.0,0
1581712849.924,29.297,-33.203,33.691,20.508000000000006,0.0,0
1581712849.928,30.762,84.473,28.32,20.996,0.0,0
1581712849.9320002,30.273000000000003,62.988,26.855,27.344,0.0,0
1581712849.936,29.785,127.441,29.785,33.203,0.0,0
1581712849.938,36.133,156.738,27.344,31.25,0.0,0
1581712849.9420002,42.48,115.723,29.785,32.227,0.0,0
1581712849.946,41.01600000000001,81.055,35.156,34.668,0.0,0
1581712849.95,36.133,95.215,35.645,34.18,0.0,0
1581712849.954,36.133,102.051,36.621,30.762,0.0,0
1581712849.958,30.273000000000003,37.598,39.062,18.555,0.0,0
1581712849.962,20.02,-8.301,34.668,10.254,0.0,0
1581712849.965,16.113,-1.953,30.762,7.324,0.0,0
1581712849.969,20.508000000000006,122.559,42.48,9.277,0.0,0
1581712849.9729998,14.16,161.13299999999995,45.898,5.859,0.0,0
1581712849.9770002,-1.465,120.605,37.109,-10.742,0.0,0
1581712849.981,-20.508000000000006,165.52700000000004,37.109,-30.273000000000003,0.0,0
1581712849.9829998,-36.621,145.50799999999995,40.527,-44.434,0.0,0
1581712849.9870002,-42.48,92.773,44.922,-52.246,0.0,0
1581712849.9910002,-60.547,134.27700000000002,47.363,-75.684,0.0,0
1581712849.995,-80.078,220.215,41.992,-98.145,0.0,0
1581712849.9989998,-103.516,295.898,37.598,-118.652,0.0,0
1581712850.0029998,-121.094,237.305,37.109,-139.16,0.0,0
1581712850.0070002,-130.859,156.738,36.133,-154.297,0.0,0
1581712850.01,-141.113,272.949,40.039,-166.50400000000005,0.0,0
1581712850.014,-157.715,482.422,43.945,-181.641,0.0,0
1581712850.018,-175.293,475.098,44.434,-202.148,0.0,0
1581712850.022,-181.152,409.668,43.457,-215.82,0.0,0
1581712850.026,-179.688,454.59,43.945,-210.449,0.0,0
1581712850.028,-179.199,473.145,47.363,-198.73,0.0,0
1581712850.032,-178.71099999999996,382.812,52.246,-206.055,0.0,0
1581712850.036,-171.875,344.727,56.152,-201.66,0.0,0
1581712850.04,-160.156,355.469,55.176,-185.05900000000003,0.0,0
1581712850.044,-147.94899999999996,364.258,58.105,-171.387,0.0,0
1581712850.048,-142.09,320.801,59.57,-166.50400000000005,0.0,0
1581712850.052,-137.695,248.047,53.71100000000001,-169.43400000000003,0.0,0
1581712850.055,-121.582,371.094,54.199,-148.438,0.0,0
1581712850.059,-105.957,456.543,51.27,-126.953,0.0,0
1581712850.063,-93.262,342.285,42.48,-118.652,0.0,0
1581712850.0670002,-84.473,271.973,41.992,-111.816,0.0,0
1581712850.071,-71.777,306.152,48.828,-93.262,0.0,0
1581712850.0879998,-51.758,344.727,52.246,-66.895,0.0,0
1581712850.092,-45.898,265.137,46.875,-54.199,0.0,0
1581712850.096,-33.203,186.523,41.01600000000001,-43.945,0.0,0
1581712850.1,-20.508000000000006,231.445,37.598,-34.668,0.0,0
1581712850.104,-5.859,224.121,34.18,-11.23,0.0,0
1581712850.1079998,15.137,144.043,29.785,12.207,0.0,0
1581712850.1120002,27.344,120.117,25.879,17.578,0.0,0
1581712850.115,38.574,114.258,23.926,27.344,0.0,0
1581712850.119,52.734,143.066,22.949,45.898,0.0,0
1581712850.123,62.988,102.539,22.461,59.082,0.0,0
1581712850.127,69.336,103.516,21.484,68.359,0.0,0
1581712850.131,79.102,158.203,20.508000000000006,74.707,0.0,0
1581712850.133,86.426,99.121,20.508000000000006,79.102,0.0,0
1581712850.137,95.215,79.102,22.949,91.797,0.0,0
1581712850.141,102.051,94.727,20.508000000000006,97.168,0.0,0
1581712850.145,97.656,81.055,13.672,92.285,0.0,0
1581712850.149,102.051,11.23,12.695,96.68,0.0,0
1581712850.153,113.281,-56.152,14.16,109.375,0.0,0
1581712850.157,118.652,8.789,15.137,116.211,0.0,0
1581712850.16,119.141,90.82,17.09,116.211,0.0,0
1581712850.164,122.07,-36.133,16.113,121.094,0.0,0
1581712850.168,127.441,-149.414,14.648,129.395,0.0,0
1581712850.1720002,125.488,66.406,14.16,134.766,0.0,0
1581712850.176,126.465,110.84,12.695,133.789,0.0,0
1581712850.178,136.23,-39.551,18.555,136.719,0.0,0
1581712850.1820002,132.812,-16.602,19.531,135.254,0.0,0
1581712850.186,129.395,37.598,17.578,135.74200000000002,0.0,0
1581712850.19,129.88299999999998,20.508000000000006,18.555,136.719,0.0,0
1581712850.194,128.906,-72.266,15.625,130.371,0.0,0
1581712850.198,130.859,-115.723,14.648,124.512,0.0,0
1581712850.202,126.953,-33.691,12.695,125.0,0.0,0
1581712850.205,123.047,40.527,8.789,120.117,0.0,0
1581712850.209,120.605,-105.957,11.23,110.84,0.0,0
1581712850.2129998,113.77,-110.84,9.766,107.422,0.0,0
1581712850.217,112.305,58.594,7.812,112.305,0.0,0
1581712850.221,109.863,52.734,7.812,110.84,0.0,0
1581712850.2229998,102.539,-36.621,11.23,103.027,0.0,0
1581712850.2270002,102.051,-91.309,17.09,102.539,0.0,0
1581712850.231,105.957,-22.461,15.625,108.887,0.0,0
1581712850.235,108.887,-2.93,17.09,114.746,0.0,0
1581712850.2389998,106.445,-34.668,17.578,110.352,0.0,0
1581712850.2429998,97.656,-71.289,11.23,98.145,0.0,0
1581712850.2470002,99.609,-85.449,14.648,99.609,0.0,0
1581712850.25,103.027,-62.5,17.09,107.422,0.0,0
1581712850.254,97.168,-56.152,14.16,105.469,0.0,0
1581712850.258,93.262,35.645,13.672,99.121,0.0,0
1581712850.262,93.75,92.773,17.09,95.215,0.0,0
1581712850.266,93.262,51.758,21.973000000000006,101.074,0.0,0
1581712850.268,88.867,64.453,20.508000000000006,102.051,0.0,0
1581712850.272,84.961,98.145,17.578,95.215,0.0,0
1581712850.276,83.008,33.691,18.555,91.797,0.0,0
1581712850.28,77.148,-7.324,18.555,88.37899999999998,0.0,0
1581712850.284,73.242,-19.531,20.508000000000006,90.82,0.0,0
1581712850.288,74.219,-69.336,21.973000000000006,87.402,0.0,0
1581712850.292,74.707,-25.391,23.926,81.055,0.0,0
1581712850.295,66.895,-88.867,20.508000000000006,73.73,0.0,0
1581712850.299,60.547,-68.359,16.113,69.336,0.0,0
1581712850.303,60.547,110.352,16.602,70.312,0.0,0
1581712850.3070002,57.129,74.219,17.09,65.918,0.0,0
1581712850.311,55.664,29.785,20.508000000000006,67.383,0.0,0
1581712850.314,58.105,47.363,19.043,71.777,0.0,0
1581712850.3179998,58.594,58.105,17.578,67.383,0.0,0
1581712850.322,55.664,-10.742,20.02,62.988,0.0,0
1581712850.326,53.71100000000001,-42.48,21.973000000000006,61.035,0.0,0
1581712850.33,54.199,20.508000000000006,20.508000000000006,63.965,0.0,0
1581712850.334,51.27,-25.879,21.973000000000006,67.87100000000001,0.0,0
1581712850.3379998,51.27,-108.398,23.926,62.5,0.0,0
1581712850.341,53.223,-119.629,24.414,58.594,0.0,0
1581712850.345,52.734,32.227,26.855,65.43,0.0,0
1581712850.349,52.734,87.891,26.367,67.383,0.0,0
1581712850.353,56.64100000000001,-34.18,33.691,65.43,0.0,0
1581712850.357,55.176,-52.734,34.18,59.57,0.0,0
1581712850.3739998,49.316,37.598,26.855,53.71100000000001,0.0,0
1581712850.3779998,42.969,6.836,27.832,52.734,0.0,0
1581712850.3820002,42.48,-51.27,28.809,50.78100000000001,0.0,0
1581712850.3860002,46.875,-35.156,30.762,47.852,0.0,0
1581712850.39,47.852,-9.277,32.227,51.758,0.0,0
1581712850.394,43.457,-29.297,30.762,53.223,0.0,0
1581712850.3979998,40.527,-135.254,31.25,48.828,0.0,0
1581712850.401,41.504,-125.0,30.762,43.457,0.0,0
1581712850.405,38.086,28.32,27.344,39.062,0.0,0
1581712850.409,35.645,-15.137,25.879,37.598,0.0,0
1581712850.413,36.133,-43.945,29.297,38.574,0.0,0
1581712850.417,34.668,0.977,32.227,34.668,0.0,0
1581712850.403,33.691,4.883,28.809,31.738000000000003,0.0,0
1581712850.407,34.668,18.066,24.902,33.691,0.0,0
1581712850.411,34.668,-23.926,23.926,33.203,0.0,0
1581712850.415,37.598,9.277,27.832,30.762,0.0,0
1581712850.419,40.039,28.809,33.203,32.227,0.0,0
1581712850.423,32.227,-108.398,24.902,27.832,0.0,0
1581712850.427,30.273000000000003,-77.637,20.508000000000006,27.344,0.0,0
1581712850.43,35.645,54.199,24.902,31.738000000000003,0.0,0
1581712850.434,31.738000000000003,45.898,26.855,31.25,0.0,0
1581712850.438,28.809,-85.449,27.344,30.762,0.0,0
1581712850.4420002,27.832,-131.34799999999998,26.367,27.832,0.0,0
1581712850.446,27.344,59.57,24.414,28.32,0.0,0
1581712850.4629998,25.391,25.879,25.391,26.855,0.0,0
1581712850.467,25.879,-96.68,25.879,28.32,0.0,0
1581712850.471,26.855,7.812,25.879,33.691,0.0,0
1581712850.475,25.879,102.539,29.297,36.621,0.0,0
1581712850.479,27.344,36.133,29.297,35.645,0.0,0
1581712850.4829998,24.414,-80.566,28.809,29.297,0.0,0
1581712850.4870002,26.855,-57.129,29.297,35.645,0.0,0
1581712850.49,32.715,76.172,32.227,44.922,0.0,0
1581712850.494,28.32,75.684,24.414,39.062,0.0,0
1581712850.498,25.879,-92.285,19.043,31.738000000000003,0.0,0
1581712850.502,32.227,-56.64100000000001,25.391,34.18,0.0,0
1581712850.506,32.227,102.539,25.391,38.086,0.0,0
1581712850.508,31.738000000000003,50.293,25.879,34.668,0.0,0
1581712850.512,33.203,-16.113,27.832,34.18,0.0,0
1581712850.516,32.715,23.438,28.32,36.621,0.0,0
1581712850.52,34.18,43.457,31.25,39.551,0.0,0
1581712850.524,33.203,-29.785,32.715,41.01600000000001,0.0,0
1581712850.528,30.273000000000003,-90.82,29.297,35.645,0.0,0
1581712850.532,32.227,-38.086,29.297,33.691,0.0,0
1581712850.535,32.715,64.453,32.227,36.133,0.0,0
1581712850.539,32.227,6.836,30.273000000000003,36.621,0.0,0
1581712850.543,31.25,-108.398,30.273000000000003,35.156,0.0,0
1581712850.5470002,32.227,10.742,32.227,34.18,0.0,0
1581712850.551,34.18,82.031,32.227,35.645,0.0,0
1581712850.553,32.715,24.414,33.203,36.621,0.0,0
1581712850.5570002,32.715,-1.465,33.203,34.18,0.0,0
1581712850.561,34.668,-10.254,37.598,33.203,0.0,0
1581712850.565,32.227,-8.789,39.062,33.691,0.0,0
1581712850.569,27.832,-29.297,36.621,30.762,0.0,0
1581712850.573,27.832,-76.172,40.527,32.227,0.0,0
1581712850.577,30.762,-92.773,40.527,32.227,0.0,0
1581712850.58,29.297,-63.477,35.156,27.832,0.0,0
1581712850.584,28.809,-105.957,36.621,30.762,0.0,0
1581712850.5879998,24.902,-54.688,37.598,29.785,0.0,0
1581712850.592,21.973000000000006,72.75399999999998,34.668,23.438,0.0,0
1581712850.596,25.391,-4.883,32.227,23.926,0.0,0
1581712850.5979998,24.902,-45.898,32.715,26.855,0.0,0
1581712850.6020002,27.344,9.766,30.273000000000003,27.344,0.0,0
1581712850.606,28.32,30.762,27.344,26.367,0.0,0
1581712850.61,29.297,-67.383,26.367,21.973000000000006,0.0,0
1581712850.6139998,31.25,-121.582,26.855,18.555,0.0,0
1581712850.6179998,27.344,-96.191,29.297,22.949,0.0,0
1581712850.6220002,27.344,-65.43,27.344,22.461,0.0,0
1581712850.625,32.227,-119.141,27.832,17.09,0.0,0
1581712850.629,39.062,-166.99200000000005,30.762,19.043,0.0,0
1581712850.633,35.645,-54.688,23.438,20.508000000000006,0.0,0
1581712850.637,29.785,-1.465,17.578,21.484,0.0,0
1581712850.641,34.668,-53.71100000000001,19.531,24.414,0.0,0
1581712850.643,39.062,-84.473,21.973000000000006,25.391,0.0,0
1581712850.647,35.156,-40.527,21.484,24.414,0.0,0
1581712850.651,37.109,-25.879,22.461,26.367,0.0,0
1581712850.655,38.086,-88.867,26.855,24.902,0.0,0
1581712850.659,32.715,-112.793,27.344,21.973000000000006,0.0,0
1581712850.663,33.691,-95.215,27.344,23.438,0.0,0
1581712850.667,36.133,-52.734,27.832,24.414,0.0,0
1581712850.67,33.691,-133.789,28.32,20.02,0.0,0
1581712850.674,35.645,-145.50799999999995,29.297,20.508000000000006,0.0,0
1581712850.678,37.109,20.996,29.785,23.438,0.0,0
1581712850.6820002,36.621,25.391,28.809,21.484,0.0,0
1581712850.686,37.109,-47.363,25.879,19.531,0.0,0
1581712850.688,34.668,-81.055,22.461,13.672,0.0,0
1581712850.6920002,27.832,-15.137,22.461,8.789,0.0,0
1581712850.696,32.715,-30.762,28.32,17.09,0.0,0
1581712850.7,31.25,-61.035,29.297,19.043,0.0,0
1581712850.704,22.949,-26.855,24.902,9.766,0.0,0
1581712850.708,22.949,-114.258,24.902,5.371,0.0,0
1581712850.712,22.461,-136.23,25.391,7.324,0.0,0
1581712850.715,22.949,-98.145,24.414,12.695,0.0,0
1581712850.719,24.902,6.348,23.438,12.207,0.0,2
1581712850.7229998,23.926,30.762,23.438,9.766,0.0,0
1581712850.7270002,21.973000000000006,-62.5,23.926,11.719,0.0,0
1581712850.731,23.926,-33.691,26.855,17.578,0.0,0
1581712850.7329998,33.203,8.301,27.344,20.02,0.0,0
1581712850.7370002,36.621,-21.484,26.367,18.555,0.0,0
1581712850.7410002,30.273000000000003,-37.598,25.879,13.184,0.0,0
1581712850.745,30.762,-22.949,24.414,16.602,0.0,0
1581712850.7489998,32.715,21.973000000000006,22.949,17.578,0.0,0
1581712850.7529998,32.227,-0.977,23.438,9.766,0.0,0
1581712850.7570002,35.156,-132.812,25.391,9.277,0.0,0
1581712850.76,36.621,-73.242,25.391,14.16,0.0,0
1581712850.764,34.668,120.117,25.391,16.602,0.0,0
1581712850.768,36.133,93.262,31.738000000000003,16.113,0.0,0
1581712850.772,35.645,3.418,29.297,9.766,0.0,0
1581712850.776,29.785,43.945,27.832,6.348,0.0,0
1581712850.778,28.32,119.141,30.762,9.277,0.0,0
1581712850.782,34.668,23.926,27.344,11.23,0.0,0
1581712850.786,34.668,-26.855,26.855,8.789,0.0,0
1581712850.79,32.715,45.41,26.855,9.277,0.0,0
1581712850.794,35.156,64.941,24.414,14.16,0.0,0
1581712850.798,34.18,-29.785,24.414,12.695,0.0,0
1581712850.802,32.227,-99.121,26.367,9.766,0.0,0
1581712850.805,34.18,29.297,24.414,13.672,0.0,0
1581712850.809,35.156,105.469,27.344,20.996,0.0,0
1581712850.813,38.086,20.996,28.809,22.461,0.0,0
1581712850.8170002,39.062,-13.672,25.391,18.066,0.0,0
1581712850.821,40.039,43.457,27.832,20.508000000000006,0.0,0
1581712850.8379998,36.133,64.941,24.414,15.625,0.0,0
1581712850.842,27.344,33.691,21.973000000000006,9.277,0.0,0
1581712850.846,26.367,22.949,26.855,13.184,0.0,0
1581712850.85,26.367,31.738000000000003,29.785,9.766,0.0,0
1581712850.854,28.32,25.391,31.738000000000003,11.719,0.0,0
1581712850.8579998,34.18,-14.16,32.715,22.461,0.0,0
1581712850.8620002,29.297,-37.598,29.785,16.602,0.0,0
1581712850.865,24.414,40.039,26.367,11.23,0.0,0
1581712850.869,29.297,85.93799999999997,28.32,17.578,0.0,0
1581712850.873,31.25,-13.672,30.273000000000003,21.973000000000006,0.0,0
1581712850.877,29.785,-14.648,29.297,20.508000000000006,0.0,0
1581712850.881,32.227,60.547,33.203,20.02,0.0,0
1581712850.883,32.715,6.836,34.18,25.391,0.0,0
1581712850.887,32.715,36.621,27.832,28.809,0.0,0
1581712850.891,31.25,107.91,25.879,29.785,0.0,0
1581712850.895,29.297,80.078,29.297,32.227,0.0,0
1581712850.899,38.086,22.949,33.203,39.551,0.0,0
1581712850.903,33.691,-28.809,31.738000000000003,38.086,0.0,0
1581712850.907,24.902,17.09,27.344,28.32,0.0,0
1581712850.91,30.273000000000003,114.258,24.414,26.367,0.0,0
1581712850.914,36.133,34.668,28.32,30.273000000000003,0.0,0
1581712850.918,36.133,-41.992,33.203,35.645,0.0,0
1581712850.9220002,33.691,154.785,31.25,38.086,0.0,0
1581712850.926,36.621,165.52700000000004,30.273000000000003,40.527,0.0,0
1581712850.928,40.039,23.926,29.785,43.457,0.0,0
1581712850.9320002,41.504,83.984,30.273000000000003,44.434,0.0,0
1581712850.936,41.504,165.52700000000004,33.203,49.316,0.0,0
1581712850.94,38.574,132.32399999999998,31.25,47.852,0.0,0
1581712850.944,37.109,61.523,29.297,43.945,0.0,0
1581712850.948,38.574,32.715,30.273000000000003,46.875,0.0,0
1581712850.952,36.621,80.078,27.344,46.387,0.0,0
1581712850.955,37.598,139.16,26.855,42.969,0.0,0
1581712850.959,43.457,14.648,34.18,44.922,0.0,0
1581712850.9629998,32.715,-6.348,32.715,41.01600000000001,0.0,0
1581712850.967,25.879,175.293,24.414,39.062,0.0,0
1581712850.971,33.691,157.227,24.414,45.41,0.0,0
1581712850.9729998,30.762,69.824,26.367,43.457,0.0,0
1581712850.9770002,31.738000000000003,106.445,22.949,40.527,0.0,0
1581712850.981,34.668,128.418,20.02,40.527,0.0,0
1581712850.985,32.227,66.895,20.508000000000006,41.504,0.0,0
1581712850.9889998,30.273000000000003,86.914,20.996,36.133,0.0,0
1581712850.9929998,28.809,40.039,19.531,28.809,0.0,0
1581712850.9970002,36.133,60.059,16.113,34.668,0.0,0
1581712851.0,36.133,89.844,18.555,41.992,0.0,0
1581712851.004,23.438,-17.09,27.344,33.691,0.0,0
1581712851.008,14.648,70.312,33.203,23.438,0.0,0
1581712851.012,11.23,149.90200000000004,32.227,23.438,0.0,0
1581712851.016,11.719,78.613,29.297,26.855,0.0,0
1581712851.018,14.16,36.621,27.344,26.855,0.0,0
1581712851.022,17.578,57.617,26.855,22.949,0.0,0
1581712851.026,17.09,83.008,25.391,20.996,0.0,0
1581712851.03,23.438,56.152,28.32,27.344,0.0,0
1581712851.034,28.32,79.59,31.738000000000003,33.691,0.0,0
1581712851.038,21.484,22.461,23.926,23.438,0.0,0
1581712851.042,22.949,-17.09,24.902,23.438,0.0,0
1581712851.045,26.855,-49.805,26.367,27.344,0.0,0
1581712851.049,27.832,-2.93,25.879,28.32,0.0,0
1581712851.053,33.691,150.391,31.738000000000003,39.551,0.0,0
1581712851.0570002,32.715,80.566,34.18,36.621,0.0,0
1581712851.061,32.227,34.668,31.738000000000003,28.809,0.0,0
1581712851.063,32.227,84.961,28.32,29.785,0.0,0
1581712851.0670002,30.273000000000003,72.266,31.25,29.297,0.0,0
1581712851.071,34.18,-14.648,29.785,25.879,0.0,0
1581712851.075,27.344,-32.227,28.32,19.531,0.0,0
1581712851.079,22.949,59.57,31.738000000000003,20.508000000000006,0.0,0
1581712851.083,26.367,27.344,31.738000000000003,24.414,0.0,0
1581712851.087,26.367,-64.453,29.785,21.973000000000006,0.0,0
1581712851.09,29.297,-99.609,33.203,22.949,0.0,0
1581712851.094,32.227,41.504,35.645,28.32,0.0,0
1581712851.0979998,20.508000000000006,116.699,32.227,20.996,0.0,0
1581712851.1020002,14.648,35.645,35.156,12.695,0.0,0
1581712851.106,17.09,23.926,39.551,11.719,0.0,0
1581712851.123,3.906,62.012,40.527,-1.953,0.0,0
1581712851.127,1.953,93.75,47.852,-4.883,0.0,0
1581712851.131,-3.418,29.785,46.387,-10.254,0.0,0
1581712851.135,-19.043,20.02,46.875,-28.32,0.0,0
1581712851.139,-26.367,101.074,47.852,-40.527,0.0,0
1581712851.143,-39.062,59.57,45.898,-50.293,0.0,0
1581712851.147,-59.57,-20.02,46.387,-75.684,0.0,0
1581712851.15,-72.75399999999998,44.434,42.969,-91.797,0.0,0
1581712851.154,-86.914,177.734,41.992,-98.633,0.0,0
1581712851.158,-107.91,187.5,44.434,-121.582,0.0,0
1581712851.1620002,-124.512,214.355,45.898,-145.50799999999995,0.0,0
1581712851.166,-141.113,223.145,43.945,-162.109,0.0,0
1581712851.153,-163.086,188.477,45.898,-180.176,0.0,0
1581712851.157,-177.734,216.30900000000003,48.828,-194.824,0.0,0
1581712851.161,-184.082,224.609,47.852,-202.637,0.0,0
1581712851.165,-178.22299999999996,226.074,48.828,-199.219,0.0,0
1581712851.169,-169.922,226.074,49.805,-194.336,0.0,0
1581712851.173,-173.828,154.297,43.945,-199.219,0.0,0
1581712851.177,-164.062,143.066,40.527,-184.082,0.0,0
1581712851.18,-150.879,246.094,41.504,-167.96900000000005,0.0,0
1581712851.184,-151.855,270.02,43.457,-167.96900000000005,0.0,0
1581712851.188,-130.371,160.645,43.945,-151.36700000000005,0.0,0
1581712851.1920002,-99.609,121.582,45.41,-123.047,0.0,0
1581712851.196,-91.797,265.625,35.645,-110.84,0.0,0
1581712851.228,-76.66,248.535,33.203,-96.68,0.0,0
1581712851.232,-52.246,142.09,34.18,-71.777,0.0,0
1581712851.236,-36.133,129.395,22.949,-51.758,0.0,0
1581712851.24,-18.066,151.855,21.484,-32.227,0.0,0
1581712851.244,2.441,145.996,20.508000000000006,-17.09,0.0,0
1581712851.248,17.09,56.64100000000001,15.137,-4.395,0.0,0
1581712851.252,23.926,51.27,14.648,10.254,0.0,0
1581712851.255,36.621,145.996,13.184,26.367,0.0,0
1581712851.2589998,46.387,124.023,9.766,33.203,0.0,0
1581712851.2629998,52.246,-35.156,10.254,38.086,0.0,0
1581712851.2670002,58.105,-24.902,13.672,46.875,0.0,0
1581712851.271,68.848,114.746,9.766,61.523,0.0,0
1581712851.258,75.684,52.246,6.836,69.824,0.0,0
1581712851.262,83.49600000000002,-52.246,8.789,73.73,0.0,0
1581712851.266,93.262,-24.414,7.812,81.055,0.0,0
1581712851.27,104.004,44.922,14.16,95.703,0.0,0
1581712851.274,108.887,3.906,15.625,104.004,0.0,0
1581712851.278,104.492,-80.566,8.789,96.68,0.0,0
1581712851.282,106.445,-83.008,6.348,97.168,0.0,0
1581712851.285,108.398,-26.367,5.859,103.516,0.0,0
1581712851.289,104.004,-40.527,7.324,100.586,0.0,0
1581712851.293,101.074,-55.664,10.254,98.145,0.0,0
1581712851.2970002,105.957,-8.301,11.719,97.656,0.0,0
1581712851.301,106.445,-7.324,15.137,98.145,0.0,0
1581712851.304,103.516,-70.312,19.043,105.469,0.0,0
1581712851.3079998,100.098,-156.738,16.113,98.145,0.0,0
1581712851.312,101.074,-38.574,13.184,91.309,0.0,0
1581712851.316,98.633,22.949,13.184,92.285,0.0,0
1581712851.32,98.145,-29.785,18.555,96.68,0.0,0
1581712851.324,100.586,-62.988,18.555,100.586,0.0,0
1581712851.3279998,89.844,-63.477,16.113,87.402,0.0,0
1581712851.331,85.449,14.16,20.02,83.008,0.0,0
1581712851.335,89.844,-50.293,23.438,91.309,0.0,0
1581712851.339,83.984,-65.43,23.438,91.797,0.0,0
1581712851.343,80.566,84.961,21.973000000000006,89.844,0.0,0
1581712851.347,82.52,30.762,25.391,91.309,0.0,0
1581712851.3479998,83.984,8.301,21.973000000000006,92.285,0.0,0
1581712851.3520002,85.449,56.64100000000001,22.949,92.773,0.0,0
1581712851.356,86.914,39.062,25.879,90.82,0.0,0
1581712851.36,88.867,-0.977,21.973000000000006,88.37899999999998,0.0,0
1581712851.3639998,86.426,5.371,21.973000000000006,90.82,0.0,0
1581712851.3679998,85.93799999999997,26.367,25.391,95.703,0.0,0
1581712851.3720002,85.449,41.992,23.438,94.727,0.0,0
1581712851.375,83.49600000000002,31.25,25.391,94.238,0.0,0
1581712851.379,83.984,2.441,30.273000000000003,92.773,0.0,0
1581712851.383,78.613,115.234,26.855,88.37899999999998,0.0,0
1581712851.387,73.242,188.477,25.879,84.473,0.0,0
1581712851.391,72.266,89.844,29.785,78.125,0.0,0
1581712851.393,69.336,51.27,29.297,76.172,0.0,0
1581712851.397,65.43,146.97299999999996,23.926,73.73,0.0,0
1581712851.401,63.965,138.184,23.926,70.312,0.0,0
1581712851.405,65.918,50.78100000000001,27.832,68.848,0.0,0
1581712851.409,63.477,37.109,27.344,67.87100000000001,0.0,0
1581712851.413,58.105,54.199,29.297,67.383,0.0,0
1581712851.417,55.664,104.492,32.715,65.918,0.0,0
1581712851.42,55.176,20.996,27.832,63.477,0.0,0
1581712851.424,50.78100000000001,11.23,21.484,55.664,0.0,0
1581712851.428,49.805,155.273,20.996,53.223,0.0,0
1581712851.4320002,54.688,106.934,26.367,57.129,0.0,0
1581712851.436,54.199,79.102,30.273000000000003,59.57,0.0,0
1581712851.438,47.852,83.984,27.344,52.734,0.0,0
1581712851.4420002,48.828,101.074,25.391,45.898,0.0,0
1581712851.446,49.316,84.473,25.879,49.316,0.0,0
1581712851.45,46.387,15.625,26.367,50.78100000000001,0.0,0
1581712851.454,49.316,34.18,26.367,48.828,0.0,0
1581712851.458,47.852,45.41,28.32,48.828,0.0,0
1581712851.462,41.992,30.273000000000003,32.227,48.828,0.0,0
1581712851.465,42.48,27.344,34.18,50.78100000000001,0.0,0
1581712851.469,41.01600000000001,80.566,31.25,44.434,0.0,0
1581712851.4729998,38.086,97.168,28.32,41.01600000000001,0.0,0
1581712851.4770002,39.551,50.78100000000001,31.738000000000003,46.387,0.0,0
1581712851.481,39.551,102.051,31.25,42.969,0.0,0
1581712851.484,37.109,137.207,25.879,39.062,0.0,0
1581712851.488,39.062,92.285,26.855,41.01600000000001,0.0,0
1581712851.492,36.621,55.664,26.367,36.621,0.0,0
1581712851.496,37.109,77.148,23.926,38.086,0.0,0
1581712851.5,42.48,129.395,25.391,41.992,0.0,0
1581712851.504,35.645,23.926,21.973000000000006,33.691,0.0,0
1581712851.508,32.227,-87.402,21.973000000000006,28.809,0.0,0
1581712851.5110002,39.551,26.367,24.902,34.18,0.0,0
1581712851.515,39.062,176.75799999999995,24.414,36.133,0.0,0
1581712851.519,33.691,120.605,22.461,30.762,0.0,0
1581712851.5229998,36.133,64.941,22.461,32.227,0.0,0
1581712851.5270002,34.668,94.727,26.367,32.227,0.0,0
1581712851.528,33.203,158.691,27.832,31.25,0.0,0
1581712851.532,33.203,108.887,27.344,30.762,0.0,0
1581712851.536,32.715,10.254,27.344,29.785,0.0,0
1581712851.54,34.18,95.215,30.762,32.715,0.0,0
1581712851.544,33.691,155.273,30.762,33.203,0.0,0
1581712851.548,33.691,21.484,28.809,31.25,0.0,0
1581712851.552,34.18,-32.227,31.25,27.344,0.0,0
1581712851.555,32.227,150.391,29.785,29.297,0.0,0
1581712851.559,33.203,179.688,27.832,32.227,0.0,0
1581712851.563,40.527,66.895,32.227,39.551,0.0,0
1581712851.5670002,37.109,76.172,31.25,35.645,0.0,0
1581712851.571,29.785,116.699,28.32,25.879,0.0,0
1581712851.5879998,31.25,132.812,26.367,30.273000000000003,0.0,0
1581712851.592,35.156,78.613,23.438,34.668,0.0,0
1581712851.596,46.387,56.152,23.438,44.434,0.0,0
1581712851.6,52.246,96.68,21.973000000000006,47.363,0.0,0
1581712851.604,33.203,117.188,21.973000000000006,28.32,0.0,0
1581712851.6079998,20.996,48.828,25.391,20.508000000000006,0.0,0
1581712851.6120002,30.762,34.18,25.391,25.391,0.0,0
1581712851.615,37.109,112.793,25.879,31.25,0.0,0
1581712851.619,34.668,130.371,24.414,32.227,0.0,0
1581712851.623,32.227,29.785,23.438,24.902,0.0,0
1581712851.627,36.621,75.195,23.438,27.832,0.0,0
1581712851.631,34.18,122.07,24.902,25.879,0.0,0
1581712851.633,36.133,74.219,24.414,24.902,0.0,0
1581712851.637,42.969,92.285,26.367,36.621,0.0,0
1581712851.641,41.992,98.633,28.32,41.01600000000001,0.0,0
1581712851.645,36.621,112.793,22.949,31.738000000000003,0.0,0
1581712851.649,38.574,72.266,25.879,34.668,0.0,0
1581712851.653,41.01600000000001,56.64100000000001,28.809,42.48,0.0,0
1581712851.657,32.715,78.613,25.391,35.156,0.0,0
1581712851.66,29.785,124.512,24.902,30.273000000000003,0.0,0
1581712851.664,32.227,66.406,25.879,32.227,0.0,0
1581712851.668,30.273000000000003,-30.762,26.855,30.762,0.0,0
1581712851.6720002,32.227,115.723,28.32,32.227,0.0,0
1581712851.676,36.133,146.97299999999996,27.832,33.691,0.0,0
1581712851.678,33.691,31.25,27.832,29.297,0.0,0
1581712851.6820002,29.297,65.43,28.32,30.273000000000003,0.0,0
1581712851.686,34.18,85.449,26.855,38.574,0.0,0
1581712851.69,35.156,53.223,29.297,38.086,0.0,0
1581712851.694,33.691,54.199,29.785,33.203,0.0,0
1581712851.698,34.668,33.691,29.297,33.691,0.0,0
1581712851.702,34.18,74.707,29.785,33.691,0.0,0
1581712851.705,38.574,134.27700000000002,29.297,36.621,0.0,0
1581712851.709,40.039,7.324,28.809,33.203,0.0,0
1581712851.7129998,40.039,-36.621,28.809,31.738000000000003,0.0,0
1581712851.717,48.828,173.828,32.227,42.48,0.0,0
1581712851.721,43.945,164.062,28.32,39.551,0.0,0
1581712851.7229998,38.086,64.453,22.949,33.691,0.0,0
1581712851.7270002,35.645,83.49600000000002,25.391,36.621,0.0,0
1581712851.731,34.18,105.469,27.344,33.691,0.0,0
1581712851.735,39.062,83.984,27.344,38.086,0.0,0
1581712851.7389998,35.156,49.805,25.879,38.574,0.0,0
1581712851.7429998,35.156,17.578,28.809,33.691,0.0,0
1581712851.7470002,39.551,58.105,30.273000000000003,36.133,0.0,0
1581712851.75,36.621,77.637,30.762,38.574,0.0,0
1581712851.754,32.227,11.719,28.32,33.203,0.0,0
1581712851.758,28.809,92.285,29.297,31.738000000000003,0.0,0
1581712851.762,30.273000000000003,158.691,29.785,32.227,0.0,0
1581712851.766,30.762,101.074,25.391,38.574,0.0,0
1581712851.768,29.785,90.82,27.344,41.01600000000001,0.0,0
1581712851.772,28.32,89.355,27.344,31.25,0.0,0
1581712851.776,28.32,49.805,27.832,34.18,0.0,0
1581712851.78,32.715,56.152,32.227,41.01600000000001,0.0,0
1581712851.784,34.18,89.844,28.809,38.574,0.0,0
1581712851.788,33.203,13.184,25.879,33.203,0.0,0
1581712851.792,27.344,41.504,29.785,31.738000000000003,0.0,0
1581712851.795,26.855,20.508000000000006,31.738000000000003,36.621,0.0,0
1581712851.799,31.25,-19.531,30.273000000000003,39.551,0.0,0
1581712851.803,31.738000000000003,130.859,27.832,38.086,0.0,0
1581712851.8070002,31.25,111.816,24.902,33.691,0.0,0
1581712851.811,32.715,67.87100000000001,24.414,30.762,0.0,0
1581712851.813,31.25,115.723,24.414,31.738000000000003,0.0,0
1581712851.8170002,23.926,128.418,22.949,30.273000000000003,0.0,0
1581712851.821,21.973000000000006,59.57,26.367,28.809,0.0,0
1581712851.825,28.32,26.855,27.344,31.738000000000003,0.0,0
1581712851.829,26.855,99.121,27.344,34.18,0.0,0
1581712851.833,23.926,70.801,29.297,33.203,0.0,0
1581712851.837,25.391,7.324,30.762,31.25,0.0,0
1581712851.84,21.973000000000006,0.977,28.809,21.973000000000006,0.0,0
1581712851.844,20.02,111.816,25.879,21.484,0.0,0
1581712851.8479998,22.461,163.57399999999996,30.273000000000003,25.391,0.0,0
1581712851.8520002,25.391,77.148,32.715,26.367,0.0,0
1581712851.856,25.879,-1.953,28.809,26.367,0.0,0
1581712851.8579998,23.926,60.547,27.344,21.973000000000006,0.0,0
1581712851.8620002,24.414,122.559,28.809,22.461,0.0,0
1581712851.8660002,24.414,49.805,26.855,20.02,0.0,0
1581712851.87,22.461,38.574,23.438,16.113,0.0,0
1581712851.8739998,21.973000000000006,81.055,24.902,18.066,0.0,0
1581712851.8779998,26.367,51.27,24.902,25.879,0.0,0
1581712851.8820002,27.344,-43.945,26.855,28.809,0.0,0
1581712851.885,27.344,-22.461,28.32,23.926,0.0,2
1581712851.889,31.738000000000003,125.0,25.391,25.391,0.0,0
1581712851.893,36.621,136.23,26.367,30.762,0.0,0
1581712851.897,36.621,91.309,30.273000000000003,32.715,0.0,0
1581712851.901,32.715,81.055,32.227,28.809,0.0,0
1581712851.918,35.156,92.285,27.832,29.785,0.0,0
1581712851.9220002,42.48,101.562,27.832,36.621,0.0,0
1581712851.926,38.086,40.527,28.32,34.18,0.0,0
1581712851.93,38.086,58.594,28.809,32.715,0.0,0
1581712851.934,40.527,121.582,29.785,30.273000000000003,0.0,0
1581712851.938,35.156,27.832,26.367,27.832,0.0,0
1581712851.9420002,28.809,-0.488,24.902,26.367,0.0,0
1581712851.945,27.832,123.535,24.902,23.926,0.0,0
1581712851.949,28.809,158.691,24.902,25.879,0.0,0
1581712851.9529998,28.32,95.703,26.855,28.32,0.0,0
1581712851.957,33.203,84.961,28.809,34.668,0.0,0
1581712851.961,34.18,140.137,26.855,35.156,0.0,0
1581712851.9629998,32.715,107.91,22.949,30.762,0.0,0
1581712851.967,35.645,39.551,21.973000000000006,29.785,0.0,0
1581712851.971,34.668,69.824,25.391,33.203,0.0,0
1581712851.975,30.273000000000003,136.23,25.391,34.18,0.0,0
1581712851.979,28.32,118.164,23.438,27.832,0.0,0
1581712851.9829998,35.645,35.156,28.809,31.738000000000003,0.0,0
1581712851.9870002,41.992,23.926,32.227,40.039,0.0,0
1581712851.99,36.133,132.812,24.902,36.133,0.0,0
1581712851.994,31.738000000000003,153.809,20.508000000000006,28.32,0.0,0
1581712851.998,31.738000000000003,-8.789,23.438,21.484,0.0,0
1581712852.002,31.738000000000003,38.574,24.414,24.414,0.0,0
1581712852.006,32.715,195.801,23.438,32.715,0.0,0
1581712852.008,35.156,145.996,22.949,31.25,0.0,0
1581712852.012,33.691,85.93799999999997,20.02,27.832,0.0,0
1581712852.016,33.203,93.262,20.02,29.785,0.0,0
1581712852.02,36.133,139.648,22.949,34.668,0.0,0
1581712852.024,33.691,84.473,23.438,31.738000000000003,0.0,0
1581712852.028,29.785,19.531,21.973000000000006,27.344,0.0,0
1581712852.032,31.25,43.457,21.484,26.367,0.0,0
1581712852.035,32.715,119.629,23.438,28.32,0.0,0
1581712852.039,29.785,77.637,23.926,31.25,0.0,0
1581712852.043,30.762,-9.277,20.996,30.273000000000003,0.0,0
1581712852.0470002,31.738000000000003,120.117,21.484,30.762,0.0,0
1581712852.051,30.762,173.34,20.02,31.25,0.0,0
1581712852.053,34.668,92.285,20.508000000000006,36.621,0.0,0
1581712852.0570002,35.645,89.355,20.996,36.133,0.0,0
1581712852.061,31.738000000000003,108.887,14.648,28.809,0.0,0
1581712852.065,27.832,116.211,15.137,25.879,0.0,0
1581712852.069,26.367,107.91,17.09,27.344,0.0,0
1581712852.073,25.391,48.828,12.207,28.32,0.0,0
1581712852.077,25.879,21.484,14.16,23.926,0.0,0
1581712852.08,26.367,98.633,18.066,22.949,0.0,0
1581712852.084,24.902,56.64100000000001,17.578,26.367,0.0,0
1581712852.0879998,24.414,41.992,18.066,21.484,0.0,0
1581712852.092,23.438,185.05900000000003,17.09,22.949,0.0,0
1581712852.096,20.996,98.633,17.09,28.32,0.0,0
1581712852.0979998,24.414,83.984,16.113,24.902,0.0,0
1581712852.1020002,26.855,154.297,13.184,25.879,0.0,0
1581712852.106,26.367,120.117,11.23,26.855,0.0,0
1581712852.11,28.32,95.703,9.277,24.414,0.0,0
1581712852.1139998,30.273000000000003,52.734,9.766,29.297,0.0,0
1581712852.1179998,27.832,60.059,9.766,31.738000000000003,0.0,0
1581712852.1220002,28.809,114.258,14.16,35.156,0.0,0
1581712852.125,35.156,89.844,14.648,36.621,0.0,0
1581712852.129,31.25,28.809,4.883,26.367,0.0,0
1581712852.133,27.832,141.602,4.395,26.855,0.0,0
1581712852.137,30.273000000000003,200.195,4.883,32.227,0.0,0
1581712852.141,27.832,82.52,3.906,29.297,0.0,0
1581712852.143,25.879,28.809,5.859,29.785,0.0,0
1581712852.147,28.32,132.812,6.836,32.227,0.0,0
1581712852.151,27.832,122.07,5.371,34.18,0.0,0
1581712852.155,28.809,36.133,5.371,33.691,0.0,0
1581712852.159,24.902,88.867,3.906,24.902,0.0,0
1581712852.163,33.203,86.914,0.977,27.832,0.0,0
1581712852.167,45.41,101.562,2.93,39.551,0.0,0
1581712852.17,32.227,13.184,8.301,26.367,0.0,0
1581712852.174,24.414,10.254,8.789,20.02,0.0,0
1581712852.178,21.973000000000006,161.621,11.719,28.32,0.0,0
1581712852.1820002,18.066,144.531,11.719,21.484,0.0,0
1581712852.186,19.043,98.633,11.23,19.043,0.0,0
1581712852.188,21.973000000000006,91.309,16.113,21.973000000000006,0.0,0
1581712852.1920002,23.438,115.723,13.184,21.973000000000006,0.0,0
1581712852.196,26.367,96.68,13.184,28.809,0.0,0
1581712852.2,23.438,63.477,13.184,28.809,0.0,0
1581712852.204,14.16,107.422,8.789,17.09,0.0,0
1581712852.208,18.555,76.66,7.812,20.508000000000006,0.0,0
1581712852.212,25.879,22.461,8.789,26.855,0.0,0
1581712852.215,24.902,26.367,4.883,21.973000000000006,0.0,0
1581712852.219,24.414,131.836,1.465,21.973000000000006,0.0,0
1581712852.2229998,26.855,161.13299999999995,3.906,29.785,0.0,0
1581712852.2270002,28.32,71.289,3.906,30.273000000000003,0.0,0
1581712852.231,34.18,88.37899999999998,1.953,32.227,0.0,0
1581712852.234,35.645,152.344,3.418,33.691,0.0,0
1581712852.238,36.621,112.305,4.395,30.762,0.0,0
1581712852.242,35.645,53.223,0.977,27.344,0.0,0
1581712852.246,30.762,97.168,-3.906,24.902,0.0,0
1581712852.25,37.109,111.816,2.93,29.785,0.0,0
1581712852.254,37.598,31.738000000000003,4.395,26.367,0.0,0
1581712852.258,34.668,-25.879,-1.953,23.438,0.0,0
1581712852.2610002,38.574,58.594,-1.465,30.762,0.0,0
1581712852.265,37.109,142.09,0.488,32.715,0.0,0
1581712852.269,35.645,92.285,-0.488,30.273000000000003,0.0,0
1581712852.2729998,35.645,121.582,-0.977,32.715,0.0,0
1581712852.2770002,39.551,160.156,5.371,37.109,0.0,0
1581712852.278,41.01600000000001,175.78099999999995,8.789,38.086,0.0,0
1581712852.282,34.668,118.652,5.371,29.785,0.0,0
1581712852.286,31.738000000000003,66.406,2.93,24.414,0.0,0
1581712852.29,37.109,125.977,2.93,30.273000000000003,0.0,0
1581712852.294,43.945,160.645,4.883,35.156,0.0,0
1581712852.298,40.527,55.176,4.395,31.25,0.0,0
1581712852.302,34.668,-12.207,4.883,27.832,0.0,0
1581712852.305,34.668,108.887,11.719,29.785,0.0,0
1581712852.309,33.203,180.176,16.602,32.227,0.0,0
1581712852.313,33.203,122.07,15.625,33.691,0.0,0
1581712852.3170002,32.715,64.453,16.113,30.762,0.0,0
1581712852.321,30.762,75.195,22.949,30.762,0.0,0
1581712852.3379998,34.668,134.27700000000002,31.738000000000003,36.133,0.0,0
1581712852.342,35.645,114.746,34.668,34.18,0.0,0
1581712852.346,32.715,81.543,35.645,29.785,0.0,0
1581712852.35,32.715,145.50799999999995,37.598,27.344,0.0,0
1581712852.354,33.691,131.34799999999998,38.086,28.809,0.0,0
1581712852.3579998,30.762,52.734,46.875,29.297,0.0,0
1581712852.3620002,26.855,67.87100000000001,47.852,23.926,0.0,0
1581712852.365,33.203,140.137,45.41,24.414,0.0,0
1581712852.369,32.227,164.551,45.898,24.414,0.0,0
1581712852.373,30.273000000000003,53.223,46.387,23.926,0.0,0
1581712852.377,32.227,69.824,46.875,27.344,0.0,0
1581712852.381,29.785,169.43400000000003,46.875,27.832,0.0,0
1581712852.383,34.668,130.859,50.78100000000001,30.273000000000003,0.0,0
1581712852.387,34.668,165.03900000000004,51.758,35.156,0.0,0
1581712852.391,33.691,134.27700000000002,54.199,37.109,0.0,0
1581712852.395,36.133,85.93799999999997,62.012,38.086,0.0,0
1581712852.399,37.109,132.812,60.059,40.039,0.0,0
1581712852.403,44.434,98.145,56.152,45.41,0.0,0
1581712852.407,49.805,100.586,60.547,48.34,0.0,0
1581712852.41,41.992,137.695,57.617,39.062,0.0,0
1581712852.414,41.504,96.191,55.176,36.133,0.0,0
1581712852.418,42.969,44.922,54.688,37.598,0.0,0
1581712852.4220002,41.01600000000001,160.645,53.223,35.156,0.0,0
1581712852.426,39.062,177.24599999999995,53.71100000000001,32.227,0.0,0
1581712852.428,37.598,110.352,55.176,30.273000000000003,0.0,0
1581712852.4320002,36.621,95.703,56.64100000000001,32.227,0.0,0
1581712852.436,37.598,126.465,57.617,36.133,0.0,0
1581712852.44,32.227,126.953,57.129,29.297,0.0,0
1581712852.444,29.297,46.387,51.758,20.02,0.0,0
1581712852.448,33.691,48.34,51.27,24.902,0.0,0
1581712852.452,33.203,107.91,55.176,28.809,0.0,0
1581712852.455,26.855,144.531,54.688,23.438,0.0,0
1581712852.459,25.391,46.387,55.664,17.09,0.0,0
1581712852.4629998,28.809,38.086,56.64100000000001,18.555,0.0,0
1581712852.467,30.762,182.129,59.082,24.414,0.0,0
1581712852.471,27.832,138.184,56.64100000000001,20.996,0.0,0
1581712852.4729998,25.879,84.473,53.71100000000001,16.113,0.0,0
