timestamps,TP9,AF7,AF8,TP10,Marker0
1582311044.762,71.777,18.555,46.875,76.172,0
1582311044.766,72.754,29.297,41.504,63.965,0
1582311044.770,76.172,30.762,42.480,66.895,0
1582311044.774,62.012,17.578,45.410,76.660,0
1582311044.778,60.059,18.066,41.992,63.477,0
1582311044.782,73.730,27.344,38.574,55.176,0
1582311044.786,71.289,27.832,40.527,64.453,0
1582311044.789,69.824,27.832,39.062,63.965,0
1582311044.793,73.242,26.855,39.551,49.805,0
1582311044.797,62.988,27.832,37.598,50.781,0
1582311044.801,60.547,32.715,35.645,61.035,0
1582311044.805,61.035,32.715,38.086,52.246,0
1582311044.807,58.105,27.832,38.574,56.641,0
1582311044.811,61.523,26.855,39.062,66.406,0
1582311044.815,58.594,27.832,39.551,61.523,0
1582311044.819,64.941,28.809,39.062,55.176,0
1582311044.823,70.312,29.785,36.133,61.035,0
1582311044.827,62.500,31.250,34.180,60.059,0
1582311044.831,62.988,35.156,36.133,53.223,0
1582311044.834,61.035,33.691,34.668,59.082,0
1582311044.838,49.805,28.320,33.203,56.641,0
1582311044.842,52.246,28.809,34.668,55.664,0
1582311044.846,51.758,29.785,33.691,45.410,0
1582311044.850,45.410,26.855,39.062,45.410,0
1582311044.852,49.316,27.344,41.016,50.781,0
1582311044.856,61.035,32.227,34.180,50.781,0
1582311044.860,62.012,29.785,33.203,53.223,0
1582311044.864,51.758,29.785,36.133,50.781,0
1582311044.868,46.875,34.180,36.133,53.223,0
1582311044.872,43.945,33.691,34.668,27.344,0
1582311044.876,46.875,30.762,37.109,43.945,0
1582311044.879,44.922,29.785,39.551,62.012,0
1582311044.883,41.504,30.273,36.621,33.203,0
1582311044.887,50.293,33.691,33.203,57.129,0
1582311044.891,50.781,34.180,37.109,62.988,0
1582311044.895,46.875,32.715,38.574,47.363,0
1582311044.897,50.781,33.203,35.156,25.391,0
1582311044.901,50.781,34.668,29.297,26.367,0
1582311044.905,49.316,37.109,32.715,52.246,0
1582311044.909,42.969,35.156,38.086,47.852,0
1582311044.913,44.434,37.109,34.180,44.434,0
1582311044.917,47.852,41.016,27.344,32.715,0
1582311044.921,41.992,37.109,30.273,41.016,0
1582311044.924,41.016,36.621,33.203,31.250,0
1582311044.928,37.598,36.133,27.832,20.996,0
1582311044.932,38.086,32.715,31.250,38.574,0
1582311044.936,44.922,35.156,30.273,27.344,0
1582311044.940,37.109,37.598,24.902,21.484,0
1582311044.942,25.391,35.156,31.250,18.555,0
1582311044.946,21.484,33.203,35.156,7.812,0
1582311044.950,24.414,33.203,32.715,8.301,0
1582311044.954,29.785,33.203,31.738,24.414,0
1582311044.958,23.438,32.715,34.180,10.742,0
1582311044.962,14.648,37.109,32.227,-0.977,0
1582311044.966,12.695,36.133,34.668,8.789,0
1582311044.969,15.625,37.598,37.109,20.020,0
1582311044.973,6.348,36.133,34.668,11.719,0
1582311044.977,-4.395,33.203,31.738,-3.418,0
1582311044.981,-3.906,41.504,34.180,-5.859,0
1582311044.985,-15.137,40.527,35.645,-17.578,0
1582311044.987,-24.414,37.598,35.156,-22.949,0
1582311044.991,-24.414,38.574,40.527,-20.020,0
1582311044.995,-30.273,36.621,39.062,-24.902,0
1582311044.999,-24.902,43.457,35.645,-28.809,0
1582311045.003,-29.785,51.758,31.250,-39.551,0
1582311045.007,-52.734,53.711,26.855,-62.988,0
1582311045.011,-64.941,55.664,29.785,-68.848,0
1582311045.014,-85.449,60.059,27.344,-82.031,0
1582311045.018,-87.402,66.895,24.414,-101.562,0
1582311045.022,-85.449,69.336,23.438,-106.445,0
1582311045.026,-99.609,72.754,20.996,-109.863,0
1582311045.030,-97.656,75.684,16.113,-111.816,0
1582311045.032,-95.703,75.195,13.672,-119.141,0
1582311045.036,-104.004,74.219,11.230,-128.418,0
1582311045.040,-103.027,75.195,9.277,-133.789,0
1582311045.044,-103.516,73.730,11.719,-130.859,0
1582311045.048,-113.281,67.871,7.324,-136.230,0
1582311045.052,-114.258,69.336,2.441,-135.742,0
1582311045.056,-105.957,70.312,3.418,-131.836,0
1582311045.059,-98.145,70.312,2.441,-135.254,0
1582311045.063,-96.680,71.777,1.465,-131.836,0
1582311045.067,-94.727,71.777,0.000,-132.324,0
1582311045.071,-86.426,73.242,-2.441,-128.418,0
1582311045.075,-79.102,74.219,-0.977,-119.629,0
1582311045.077,-83.008,67.871,0.977,-116.211,0
1582311045.081,-77.148,64.453,0.977,-109.375,0
1582311045.085,-69.336,64.941,1.953,-104.492,0
1582311045.089,-58.105,65.430,0.977,-90.332,0
1582311045.093,-42.969,66.895,-1.953,-81.055,0
1582311045.097,-37.598,62.988,-1.465,-76.660,0
1582311045.101,-31.250,59.082,1.953,-67.383,0
1582311045.104,-27.344,59.082,4.883,-63.965,0
1582311045.108,-15.625,55.176,6.836,-50.781,0
1582311045.112,3.418,54.199,9.277,-38.086,0
1582311045.116,3.418,54.199,11.230,-32.227,0
1582311045.120,3.418,47.852,14.648,-20.508,0
1582311045.138,16.113,42.480,17.578,-8.789,0
1582311045.142,7.324,41.992,19.043,-1.465,0
1582311045.146,3.418,41.016,20.996,8.301,0
1582311045.150,43.457,39.551,24.902,22.461,0
1582311045.154,65.918,42.480,27.344,32.715,0
1582311045.158,54.688,40.039,27.344,32.715,0
1582311045.162,59.570,37.598,26.367,36.621,0
1582311045.165,63.965,33.691,28.320,49.316,0
1582311045.169,63.965,29.297,31.250,52.246,0
1582311045.173,65.430,28.809,33.691,59.570,0
1582311045.177,62.012,28.809,33.203,65.430,0
1582311045.181,75.684,29.297,31.250,67.383,0
1582311045.183,90.820,32.715,32.227,74.707,0
1582311045.187,88.867,33.691,32.227,73.730,0
1582311045.191,87.891,32.227,32.227,71.289,0
1582311045.195,81.055,32.227,31.250,73.730,0
1582311045.199,77.637,31.250,30.762,75.684,0
1582311045.203,94.238,31.738,31.738,74.707,0
1582311045.207,94.238,31.250,29.297,68.848,0
1582311045.210,84.473,29.297,32.227,71.289,0
1582311045.214,76.660,28.809,35.156,70.801,0
1582311045.218,71.289,29.297,32.715,65.430,0
1582311045.222,72.266,25.879,32.227,63.477,0
1582311045.226,67.871,25.391,32.715,58.594,0
1582311045.244,65.430,27.344,31.738,58.105,0
1582311045.248,72.266,27.344,30.273,62.012,0
1582311045.252,73.242,28.320,28.320,64.453,0
1582311045.256,72.754,27.344,29.297,62.500,0
1582311045.260,78.613,25.391,30.762,69.824,0
1582311045.264,81.055,27.832,31.250,72.754,0
1582311045.268,71.777,27.832,31.738,66.895,0
1582311045.271,65.430,24.414,34.180,72.754,0
1582311045.275,62.988,27.832,35.645,69.336,0
1582311045.279,65.430,29.297,34.180,63.965,0
1582311045.283,67.871,25.879,34.668,73.242,0
1582311045.287,81.055,28.809,35.156,73.242,0
1582311045.273,87.891,30.762,33.203,67.383,0
1582311045.277,71.777,29.785,32.227,61.523,0
1582311045.281,73.730,30.762,32.715,59.082,0
1582311045.285,70.801,30.273,33.691,56.641,0
1582311045.289,62.500,28.809,33.691,53.223,0
1582311045.293,67.871,27.344,31.738,54.199,0
1582311045.297,67.871,30.273,31.250,52.734,0
1582311045.300,67.383,32.715,31.250,50.293,0
1582311045.304,61.523,33.691,30.762,47.363,0
1582311045.308,56.152,30.762,30.273,39.551,0
1582311045.312,48.828,29.297,28.809,36.133,0
1582311045.316,49.316,31.738,31.250,40.527,0
1582311045.318,53.223,28.809,32.227,34.180,0
1582311045.322,36.621,27.344,32.227,27.344,0
1582311045.326,30.273,28.320,32.227,31.250,0
1582311045.330,37.109,28.809,30.273,26.367,0
1582311045.334,33.203,30.273,28.809,24.414,0
1582311045.338,42.480,29.785,31.738,27.832,0
1582311045.342,47.852,29.297,29.785,26.855,0
1582311045.345,47.852,31.250,28.809,32.715,0
1582311045.349,45.410,29.297,32.715,36.621,0
1582311045.353,42.480,29.785,33.691,38.086,0
1582311045.357,42.969,34.180,33.691,34.180,0
1582311045.361,46.387,34.668,35.156,29.785,0
1582311045.363,46.875,35.645,33.203,23.438,0
1582311045.367,42.480,34.180,29.785,19.043,0
1582311045.371,42.480,33.203,29.297,24.902,0
1582311045.375,44.922,35.156,27.832,23.438,0
1582311045.379,45.898,33.691,27.344,25.391,0
1582311045.383,54.688,33.203,28.320,39.062,0
1582311045.387,53.223,39.551,29.297,33.203,0
1582311045.390,62.012,47.363,29.785,21.484,0
1582311045.394,68.848,49.316,27.832,24.414,0
1582311045.398,59.082,49.805,25.879,34.668,0
1582311045.402,61.523,51.270,23.926,42.480,0
1582311045.406,72.754,56.641,18.066,41.016,0
1582311045.408,81.543,59.570,16.602,41.992,0
1582311045.412,88.867,58.105,15.625,55.176,0
1582311045.416,104.004,63.477,13.672,66.406,0
1582311045.420,108.398,64.941,16.113,64.941,0
1582311045.424,103.027,61.035,16.113,62.500,0
1582311045.428,108.398,58.594,16.113,63.965,0
1582311045.432,106.445,58.105,20.508,65.918,0
1582311045.435,95.703,57.617,21.973,65.430,0
1582311045.439,96.680,53.711,21.973,59.082,0
1582311045.443,97.656,51.270,21.973,58.594,0
1582311045.447,94.238,52.246,24.902,58.105,0
1582311045.451,85.938,52.734,26.855,48.340,0
1582311045.453,71.289,49.805,22.949,42.480,0
1582311045.457,62.012,47.363,22.949,45.898,0
1582311045.461,63.965,47.363,26.367,46.875,0
1582311045.465,64.941,46.875,27.344,40.527,0
1582311045.469,58.105,45.898,27.344,39.062,0
1582311045.473,53.223,46.387,27.832,38.574,0
1582311045.477,56.152,44.434,25.879,34.668,0
1582311045.480,54.688,43.945,23.926,29.297,0
1582311045.484,57.129,47.852,24.902,25.391,0
1582311045.488,57.617,50.781,27.832,32.227,0
1582311045.492,49.316,51.758,30.273,31.250,0
1582311045.496,50.293,48.828,30.762,21.973,0
1582311045.513,53.223,48.340,31.738,24.902,0
1582311045.517,47.852,50.293,30.273,25.391,0
1582311045.521,43.457,47.363,28.809,23.926,0
1582311045.525,56.641,47.852,28.320,20.508,0
1582311045.529,56.152,48.828,28.809,20.996,0
1582311045.533,57.129,51.270,30.273,31.250,0
1582311045.537,62.988,54.688,30.273,32.227,0
1582311045.540,61.523,49.805,32.227,29.297,0
1582311045.544,60.059,46.387,34.668,32.715,0
1582311045.548,46.875,45.410,33.203,29.785,0
1582311045.552,39.062,43.945,32.715,28.320,0
1582311045.556,25.879,42.969,34.180,26.855,0
1582311045.558,21.484,44.434,32.715,19.531,0
1582311045.562,34.668,47.852,32.715,23.438,0
1582311045.566,47.363,46.387,33.203,28.320,0
1582311045.570,63.965,42.480,29.785,24.414,0
1582311045.574,62.500,42.480,28.320,21.484,0
1582311045.578,44.434,42.969,29.297,18.066,0
1582311045.582,43.457,40.527,29.785,22.461,0
1582311045.585,48.828,37.109,31.250,26.367,0
1582311045.589,41.992,38.086,32.715,23.438,0
1582311045.593,43.945,37.598,35.645,20.508,0
1582311045.597,35.645,37.598,34.180,14.160,0
1582311045.601,19.043,35.156,28.320,10.254,0
1582311045.603,20.508,37.598,30.273,10.742,0
1582311045.607,36.621,41.992,32.715,14.648,0
1582311045.611,25.391,39.551,33.203,11.230,0
1582311045.615,20.508,36.621,31.250,11.719,0
1582311045.619,38.086,38.086,31.250,20.020,0
1582311045.623,35.645,41.504,34.668,22.949,0
1582311045.627,36.621,41.016,33.203,16.113,0
1582311045.630,44.922,41.504,29.785,14.648,0
1582311045.634,42.480,46.387,27.832,19.531,0
1582311045.638,44.434,42.969,32.227,26.855,0
1582311045.642,32.227,35.645,37.598,27.344,0
1582311045.646,2.930,30.762,39.551,6.836,0
1582311045.648,3.906,23.438,41.992,0.977,0
1582311045.652,20.996,23.926,45.898,5.371,0
1582311045.656,12.695,24.902,46.387,-0.488,0
1582311045.660,-6.836,23.438,45.410,-8.789,0
1582311045.664,-13.672,22.949,45.898,-11.230,0
1582311045.668,-11.230,23.926,48.828,-17.578,0
1582311045.672,-26.367,21.973,48.340,-29.785,0
1582311045.675,-26.367,17.090,48.828,-23.438,0
1582311045.679,-6.836,19.043,48.340,-14.160,0
1582311045.683,5.859,17.090,48.828,-16.602,0
1582311045.687,1.953,19.043,50.293,-14.648,0
1582311045.691,-0.488,21.973,49.316,-3.906,0
1582311045.693,-9.766,22.461,48.340,-3.418,0
1582311045.697,-24.902,21.484,46.387,-13.184,0
1582311045.701,-0.977,22.949,43.945,-6.836,0
1582311045.705,8.301,24.902,45.410,-0.977,0
1582311045.709,6.836,21.973,46.387,0.977,0
1582311045.713,31.250,28.809,41.992,8.789,0
1582311045.717,31.738,30.762,40.527,3.906,0
1582311045.720,19.043,26.367,41.992,0.977,0
1582311045.724,25.391,28.809,42.480,0.000,0
1582311045.728,30.273,28.809,41.504,1.953,0
1582311045.732,34.668,29.297,42.480,8.789,0
1582311045.736,20.996,28.809,42.480,3.418,0
1582311045.737,7.324,27.344,42.969,-0.488,0
1582311045.741,11.719,26.855,40.039,-0.488,0
1582311045.745,25.879,30.762,34.180,6.348,0
1582311045.749,20.996,31.250,45.898,-4.395,0
1582311045.753,12.207,28.809,50.781,-8.301,0
1582311045.757,25.879,33.203,34.668,11.719,0
1582311045.761,21.484,33.691,32.227,14.648,0
1582311045.764,26.367,32.715,29.785,13.672,0
1582311045.768,53.711,29.297,29.785,13.672,0
1582311045.772,50.781,28.320,32.227,16.113,0
1582311045.776,38.574,30.273,33.203,13.184,0
1582311045.780,37.598,30.762,33.203,9.277,0
1582311045.782,35.156,30.273,34.668,13.672,0
1582311045.786,27.832,37.109,33.203,23.926,0
1582311045.790,37.109,37.109,40.527,25.391,0
1582311045.794,45.898,33.691,41.992,23.438,0
1582311045.798,48.340,36.621,34.180,20.020,0
1582311045.802,43.457,36.621,37.109,22.949,0
1582311045.806,42.969,38.086,38.086,25.391,0
1582311045.809,37.109,32.227,34.668,21.973,0
1582311045.813,30.273,28.809,35.645,24.414,0
1582311045.817,48.828,30.762,49.316,11.719,0
1582311045.821,49.316,35.156,40.527,10.254,0
1582311045.825,48.828,37.109,30.273,30.273,0
1582311045.827,55.176,36.133,35.645,41.016,0
1582311045.831,45.898,40.039,31.250,25.879,0
1582311045.835,41.016,39.062,32.227,17.090,0
1582311045.839,49.805,38.086,36.621,29.785,0
1582311045.843,43.945,41.016,36.133,33.691,0
1582311045.847,45.410,38.086,34.180,41.992,0
1582311045.851,45.898,41.992,37.598,36.133,0
1582311045.854,37.109,50.293,35.156,22.949,0
1582311045.858,50.781,50.293,28.809,19.531,0
1582311045.862,57.617,57.129,25.391,10.742,0
1582311045.866,45.898,58.105,23.926,5.371,0
1582311045.870,55.664,52.246,33.203,12.207,0
1582311045.887,66.406,58.594,24.414,27.832,0
1582311045.891,69.824,62.988,10.254,28.809,0
1582311045.895,73.730,61.035,12.695,32.715,0
1582311045.899,67.871,62.500,12.695,26.367,0
1582311045.903,60.059,60.059,7.812,1.953,0
1582311045.907,77.148,57.129,13.184,16.602,0
1582311045.911,85.449,59.082,16.113,35.156,0
1582311045.914,43.945,56.152,17.578,8.789,0
1582311045.918,52.734,53.223,17.578,5.859,0
1582311045.922,93.750,57.617,15.137,31.250,0
1582311045.926,78.613,54.199,17.578,34.180,0
1582311045.930,62.988,50.293,19.531,33.691,0
1582311045.932,46.387,45.898,24.414,28.320,0
1582311045.936,50.781,46.387,25.879,21.484,0
1582311045.940,49.805,44.922,21.973,34.668,0
1582311045.944,44.434,43.457,23.926,30.762,0
1582311045.948,51.758,42.969,27.344,23.926,0
1582311045.952,40.039,43.457,30.762,2.441,0
1582311045.956,40.039,44.922,28.809,-10.254,0
1582311045.959,49.805,41.504,27.344,30.762,17000
1582311045.963,42.969,41.016,26.855,13.672,0
1582311045.967,37.109,41.992,24.902,6.348,0
1582311045.971,43.457,44.434,20.508,23.926,0
1582311045.975,52.734,45.898,20.020,25.391,0
1582311045.977,49.805,45.410,23.926,39.062,0
1582311045.981,46.387,45.410,24.414,10.254,0
1582311045.985,38.086,44.434,22.949,-12.207,0
1582311045.989,41.992,42.480,26.855,19.043,0
1582311045.993,49.316,46.875,34.668,29.297,0
1582311045.997,42.969,48.340,35.645,2.930,0
1582311046.001,40.039,42.969,34.668,-3.418,0
1582311046.004,40.527,44.922,35.156,34.180,0
1582311046.008,43.457,47.363,32.715,40.527,0
1582311046.012,45.898,47.852,30.273,22.461,0
1582311046.016,42.969,46.875,29.297,6.836,0
1582311046.020,49.805,42.480,27.832,10.742,0
1582311046.022,38.086,41.016,26.855,2.930,0
1582311046.026,21.973,41.504,32.227,9.277,0
1582311046.030,23.438,43.457,30.273,3.418,0
1582311046.034,25.879,44.922,31.250,-7.324,0
1582311046.038,39.062,46.387,30.762,8.301,0
1582311046.042,42.480,41.992,26.855,11.719,0
1582311046.046,36.621,42.480,25.879,15.137,0
1582311046.049,37.598,44.922,24.414,16.113,0
1582311046.053,36.133,40.039,29.297,21.973,0
1582311046.057,25.879,39.062,25.879,-17.090,0
1582311046.061,24.902,43.945,19.043,-27.832,0
1582311046.065,25.391,45.410,23.926,0.000,0
1582311046.067,24.902,40.527,28.809,14.648,0
1582311046.071,25.879,38.574,30.762,23.926,0
1582311046.075,22.949,39.062,28.320,7.812,0
1582311046.079,31.738,37.109,27.832,2.930,0
1582311046.083,36.621,36.133,25.391,0.000,0
1582311046.087,23.926,36.621,22.949,-5.371,0
1582311046.091,20.996,35.156,29.297,-0.977,0
1582311046.094,28.320,35.645,29.297,13.184,0
1582311046.098,28.809,34.668,22.949,17.578,0
1582311046.102,30.273,33.203,26.855,2.441,0
1582311046.106,32.715,36.133,29.785,11.719,0
1582311046.110,30.273,36.621,27.832,11.719,0
1582311046.112,32.227,36.133,27.832,11.230,0
1582311046.116,31.250,35.156,26.855,6.836,0
1582311046.120,35.156,38.086,25.391,3.418,0
1582311046.124,38.086,36.621,28.320,10.742,0
1582311046.128,31.250,36.133,28.320,4.883,0
1582311046.132,32.715,39.062,24.902,5.371,0
1582311046.136,42.480,38.086,28.320,9.277,0
1582311046.139,44.434,39.551,29.785,6.836,0
1582311046.143,29.297,40.039,26.855,1.953,0
1582311046.147,27.832,40.527,30.762,0.977,0
1582311046.151,46.387,45.898,31.250,7.812,0
1582311046.155,43.945,44.922,28.809,5.859,0
1582311046.158,42.969,41.504,30.273,16.602,0
1582311046.162,39.062,37.109,38.574,32.227,0
1582311046.166,14.160,30.762,45.410,6.348,0
1582311046.170,-4.883,30.273,42.969,-23.926,0
1582311046.174,-5.859,28.809,46.387,-23.438,0
1582311046.178,-8.301,25.879,49.316,-18.555,0
1582311046.182,-20.020,23.926,57.129,-30.762,0
1582311046.185,-28.809,17.578,61.035,-38.086,0
1582311046.189,-26.855,15.137,53.223,-26.367,0
1582311046.193,-30.273,16.113,56.641,-15.137,0
1582311046.197,-30.273,13.672,58.105,-25.879,0
1582311046.201,-23.926,12.695,52.246,-23.438,0
1582311046.203,-22.949,10.742,49.316,-16.113,0
1582311046.207,-23.926,9.766,54.688,-13.184,0
1582311046.211,-15.137,16.602,49.316,-12.207,0
1582311046.215,-3.418,18.555,44.434,-12.695,0
1582311046.219,2.441,19.531,45.898,-18.066,0
1582311046.223,8.301,23.438,42.969,-5.371,0
1582311046.227,7.324,26.367,43.945,7.812,0
1582311046.230,-9.277,21.484,48.340,4.395,0
1582311046.234,-2.930,20.508,45.898,-2.930,0
1582311046.238,5.371,24.902,43.457,4.883,0
1582311046.242,0.977,24.414,45.898,9.277,0
1582311046.246,0.488,24.902,44.434,6.836,0
1582311046.263,6.836,25.391,41.992,16.113,0
1582311046.267,11.719,25.391,43.945,0.488,0
1582311046.271,13.184,25.879,41.992,0.000,0
1582311046.275,18.066,24.902,43.457,14.648,0
1582311046.279,18.066,23.438,44.922,-1.465,0
1582311046.283,11.719,23.926,42.969,1.953,0
1582311046.287,11.719,23.438,40.039,9.766,0
1582311046.290,17.090,24.414,36.133,7.324,0
1582311046.294,19.531,27.344,34.180,10.254,0
1582311046.298,17.090,28.809,36.133,17.578,0
1582311046.302,14.648,31.738,34.668,-7.324,0
1582311046.306,19.043,31.250,31.738,-2.441,0
1582311046.309,18.555,29.297,37.109,24.414,0
1582311046.313,30.762,29.297,37.109,22.949,0
1582311046.317,33.691,28.320,34.668,18.066,0
1582311046.321,24.414,28.809,33.203,7.324,0
1582311046.325,26.367,30.273,30.762,2.930,0
1582311046.329,36.133,33.203,29.785,7.324,0
1582311046.333,30.762,31.738,27.344,2.930,0
1582311046.336,23.438,29.297,29.785,8.301,0
1582311046.340,30.273,32.227,34.180,16.602,0
1582311046.344,29.785,33.691,31.738,-10.742,0
1582311046.348,25.879,35.645,22.461,-28.809,0
1582311046.352,31.738,35.645,26.855,10.742,0
1582311046.353,28.320,33.691,35.645,33.691,0
1582311046.357,26.855,35.645,32.227,6.836,0
1582311046.361,23.438,36.133,30.273,1.953,0
1582311046.365,20.020,36.621,26.855,6.348,0
1582311046.369,20.508,34.668,28.809,5.371,0
1582311046.373,22.949,32.715,27.344,-4.395,0
1582311046.377,33.203,35.645,21.973,0.000,0
1582311046.380,34.180,38.086,25.391,20.996,0
1582311046.384,29.297,37.598,30.273,17.578,0
1582311046.388,25.391,35.156,30.762,-3.906,0
1582311046.392,18.066,31.738,30.762,-8.789,0
1582311046.396,19.043,32.227,33.203,5.859,0
1582311046.413,20.996,31.738,33.203,17.578,0
1582311046.417,19.043,28.809,31.250,6.348,0
1582311046.421,24.414,29.785,30.273,3.418,0
1582311046.425,35.156,35.156,33.203,35.156,0
1582311046.429,37.598,36.133,31.250,26.367,0
1582311046.433,28.320,35.156,29.297,8.789,0
1582311046.437,18.066,35.645,31.250,-2.441,0
1582311046.440,22.461,35.645,31.250,7.812,0
1582311046.444,25.391,37.109,31.250,21.973,0
1582311046.448,25.391,34.668,28.320,10.742,0
1582311046.452,27.344,34.180,25.879,-12.695,0
1582311046.456,30.273,34.668,25.879,1.953,0
1582311046.443,25.879,33.203,32.227,20.020,0
1582311046.447,17.090,31.250,33.203,-4.883,0
1582311046.451,20.508,31.250,31.738,1.465,0
1582311046.455,23.438,33.203,31.250,-0.977,0
1582311046.459,23.438,33.691,25.879,-24.414,0
1582311046.463,23.438,32.715,30.762,-1.465,0
1582311046.467,29.785,31.250,36.133,17.578,0
1582311046.470,25.879,34.180,32.227,12.695,0
1582311046.474,25.879,33.691,30.762,2.930,0
1582311046.478,31.738,29.297,31.250,2.441,0
1582311046.482,22.949,30.762,32.227,4.883,0
1582311046.486,15.137,33.203,32.227,-8.301,0
1582311046.488,23.926,32.715,31.738,10.742,0
1582311046.492,28.809,33.691,29.785,25.879,0
1582311046.496,20.996,32.715,27.832,0.000,0
1582311046.500,20.996,31.250,26.855,-3.906,0
1582311046.504,24.414,33.203,28.809,1.465,0
1582311046.508,29.297,36.133,29.785,-1.465,0
1582311046.512,32.715,34.668,29.785,6.836,0
1582311046.515,37.109,36.133,31.738,17.090,0
1582311046.519,24.414,39.551,30.762,12.207,0
1582311046.523,23.438,38.086,33.691,11.230,0
1582311046.527,31.738,37.598,35.645,12.207,0
1582311046.531,30.273,40.527,32.227,13.672,0
1582311046.533,31.250,41.504,32.227,10.742,0
1582311046.537,31.250,39.062,31.738,-1.465,0
1582311046.541,29.297,37.598,34.668,5.371,0
1582311046.545,26.367,39.551,34.668,14.160,0
1582311046.549,27.344,40.039,32.715,5.859,0
1582311046.553,31.738,39.551,31.250,-7.812,0
1582311046.557,33.203,38.574,30.273,4.883,0
1582311046.560,26.855,35.156,29.785,14.648,0
1582311046.564,25.879,34.668,31.250,11.719,0
1582311046.568,26.367,36.133,33.691,7.324,0
1582311046.572,26.367,36.621,27.832,-6.836,0
1582311046.576,24.902,37.109,29.785,5.371,0
1582311046.578,15.137,36.133,34.668,1.953,0
1582311046.582,20.020,33.691,31.738,4.883,0
1582311046.586,27.832,32.227,30.273,10.254,0
1582311046.590,27.832,34.180,32.715,6.836,0
1582311046.594,22.949,36.133,32.227,8.789,0
1582311046.598,20.508,36.133,26.367,1.953,0
1582311046.602,21.973,36.621,29.297,-5.371,0
1582311046.605,23.926,35.645,37.109,9.277,0
1582311046.609,25.391,35.645,34.180,6.348,0
1582311046.613,30.762,38.086,33.691,-2.930,0
1582311046.617,33.203,37.598,38.574,17.090,0
1582311046.621,33.691,37.109,35.645,14.160,0
1582311046.638,34.668,38.574,34.180,13.672,0
1582311046.642,34.668,38.574,33.691,11.230,0
1582311046.646,39.062,40.039,31.738,3.906,0
1582311046.650,37.109,39.551,31.738,4.883,0
1582311046.654,33.203,37.598,32.227,15.137,0
1582311046.658,36.133,40.527,33.691,19.531,0
1582311046.662,40.039,42.480,34.668,12.207,0
1582311046.665,33.691,41.504,31.738,5.859,0
1582311046.669,32.227,41.504,33.691,5.859,0
1582311046.673,32.227,43.457,32.715,14.648,0
1582311046.677,31.250,43.945,28.809,11.719,0
1582311046.681,33.203,42.969,28.809,1.953,0
1582311046.683,33.691,39.551,32.715,6.348,0
1582311046.687,35.645,38.086,31.250,9.766,0
1582311046.691,30.762,38.086,30.273,6.836,0
1582311046.695,22.949,36.621,35.156,5.859,0
1582311046.699,21.973,38.574,36.133,10.254,0
1582311046.703,21.973,39.062,35.156,13.672,0
1582311046.707,20.996,36.621,37.109,1.953,0
1582311046.710,18.555,38.574,35.645,0.000,0
1582311046.714,24.902,41.504,30.762,3.906,0
1582311046.718,23.926,41.016,33.203,7.324,0
1582311046.722,18.066,39.551,34.668,8.789,0
1582311046.726,23.438,37.109,36.621,3.906,0
1582311046.728,22.461,37.109,33.691,0.977,0
1582311046.732,21.484,37.109,32.227,6.348,0
1582311046.736,21.484,37.598,32.715,4.883,0
1582311046.740,22.949,36.621,29.297,-0.488,0
1582311046.744,26.367,36.621,30.762,6.348,0
1582311046.748,21.484,37.109,33.203,8.789,0
1582311046.752,21.484,37.598,30.762,-3.418,0
1582311046.755,27.344,38.086,29.297,0.488,0
1582311046.759,29.297,37.598,32.227,9.766,0
1582311046.763,27.344,37.598,32.715,3.418,0
1582311046.767,25.879,36.621,28.320,2.930,0
1582311046.771,30.762,36.621,29.785,4.395,0
1582311046.773,32.715,36.621,31.738,5.371,0
1582311046.777,18.066,36.133,32.227,11.719,0
1582311046.781,8.789,34.668,31.738,10.742,0
1582311046.785,13.672,32.715,30.273,7.812,0
1582311046.789,18.555,33.691,33.203,6.836,0
1582311046.793,21.484,35.156,33.203,6.348,0
1582311046.797,20.020,33.691,33.203,9.766,0
1582311046.800,18.066,33.691,33.691,6.348,0
1582311046.804,21.484,36.133,32.715,11.719,0
1582311046.808,22.949,36.133,32.715,17.090,0
1582311046.812,18.555,35.156,31.738,11.719,0
1582311046.816,18.066,35.156,31.250,10.742,0
1582311046.817,24.414,38.086,32.715,13.184,0
1582311046.821,18.555,36.133,32.227,5.859,0
1582311046.825,19.043,33.691,31.738,7.324,0
1582311046.829,32.227,35.645,28.809,14.160,0
1582311046.833,35.156,35.156,28.809,13.672,0
1582311046.837,30.762,34.180,30.762,12.695,0
1582311046.841,20.508,33.203,28.320,10.254,0
1582311046.844,17.578,31.738,27.344,6.836,0
1582311046.848,22.461,34.668,27.344,6.348,0
1582311046.852,17.578,34.180,30.273,1.953,0
1582311046.856,17.578,32.227,32.227,0.000,0
1582311046.860,19.043,34.668,32.227,-0.977,0
1582311046.862,18.066,35.156,32.227,1.465,0
1582311046.866,20.996,33.691,33.691,6.836,0
1582311046.870,23.926,34.668,33.691,3.418,0
1582311046.874,21.484,34.180,34.180,2.441,0
1582311046.878,13.184,31.738,32.715,-6.348,0
1582311046.882,21.484,33.203,33.691,-7.812,0
1582311046.886,17.090,35.645,34.180,2.930,0
1582311046.889,13.672,37.109,34.180,0.977,0
1582311046.893,20.508,36.133,35.156,-2.441,0
1582311046.897,19.531,35.156,34.180,2.441,0
1582311046.901,18.066,36.621,34.180,0.000,0
1582311046.905,20.508,36.133,33.203,4.395,0
1582311046.907,19.043,32.227,33.691,6.836,0
1582311046.911,15.625,32.227,35.645,-1.953,0
1582311046.915,16.602,36.621,34.180,0.977,0
1582311046.919,21.484,37.598,32.227,9.277,0
1582311046.923,23.926,37.598,29.785,7.324,0
1582311046.927,21.484,39.062,28.809,4.395,0
1582311046.931,24.902,38.574,30.273,8.789,0
1582311046.934,20.020,37.109,28.809,1.953,0
1582311046.938,13.672,37.109,26.367,4.395,0
1582311046.942,22.461,40.039,30.273,7.324,0
1582311046.946,29.785,40.039,33.203,1.465,0
1582311046.950,23.926,37.598,33.691,3.418,0
1582311046.952,20.020,36.133,32.227,5.859,0
1582311046.956,20.508,37.109,32.227,10.254,0
1582311046.960,24.414,38.086,31.250,11.719,0
1582311046.964,28.320,39.551,27.344,6.836,0
1582311046.968,21.973,39.062,29.785,6.836,0
1582311046.972,22.461,36.621,33.203,14.648,0
1582311046.976,33.691,37.598,34.180,15.137,0
1582311046.979,29.297,36.621,32.715,12.207,0
1582311046.983,11.719,35.156,31.738,10.254,0
1582311046.987,11.230,35.156,33.691,3.418,0
1582311046.991,10.254,36.133,33.203,5.859,0
1582311046.995,7.812,38.574,33.203,11.230,0
1582311047.012,13.184,37.109,36.133,10.742,0
1582311047.016,20.996,37.109,31.250,2.441,0
1582311047.020,21.484,38.574,27.832,1.953,0
1582311047.024,25.879,38.086,29.785,4.883,0
1582311047.028,40.039,39.551,28.809,-2.441,27502
1582311047.032,44.434,41.016,31.738,-3.418,0
1582311047.036,39.551,40.527,34.180,0.000,0
1582311047.039,35.156,40.527,31.250,-4.883,0
1582311047.043,35.156,41.992,29.297,-3.418,0
1582311047.047,29.297,43.945,28.809,6.348,0
1582311047.051,19.531,41.992,30.273,7.812,0
1582311047.055,14.160,39.551,30.762,1.465,0
1582311047.057,13.672,37.109,30.273,9.277,0
1582311047.061,13.184,37.109,31.250,10.742,0
1582311047.065,16.113,39.551,31.738,2.930,0
1582311047.069,15.625,38.086,33.203,5.859,0
1582311047.073,19.043,36.133,30.762,9.766,0
1582311047.077,22.461,38.574,29.297,9.277,0
1582311047.081,17.090,40.039,33.203,9.766,0
1582311047.084,12.207,38.086,32.227,3.906,0
1582311047.088,13.184,37.598,29.297,-1.465,0
1582311047.092,11.719,40.527,30.762,5.371,0
1582311047.096,1.465,39.551,30.273,1.465,0
1582311047.100,0.977,35.645,29.297,-2.441,0
1582311047.102,4.395,35.156,29.297,-3.418,0
1582311047.106,5.371,32.715,31.250,-0.977,0
1582311047.110,6.348,30.273,32.227,9.766,0
1582311047.114,11.719,33.203,31.250,13.672,0
1582311047.118,15.137,35.156,32.227,10.742,0
1582311047.122,8.301,33.203,31.250,3.418,0
1582311047.126,10.254,35.156,26.367,-3.906,0
1582311047.129,11.230,35.156,26.367,-2.930,0
1582311047.133,7.324,32.227,30.273,2.441,0
1582311047.137,11.719,34.668,28.809,6.348,0
1582311047.141,13.672,35.156,30.762,6.348,0
1582311047.145,8.301,32.715,30.762,-0.488,0
1582311047.147,5.371,32.227,29.785,-1.465,0
1582311047.151,7.812,31.250,32.715,0.488,0
1582311047.155,8.789,33.203,32.227,-2.441,0
1582311047.159,16.113,34.180,32.715,-2.930,0
1582311047.163,24.902,34.180,31.250,-3.418,0
1582311047.167,24.414,36.621,27.344,3.906,0
1582311047.171,24.902,35.645,27.344,1.465,0
1582311047.174,24.414,37.598,26.855,9.766,0
1582311047.178,22.461,41.992,25.879,7.812,0
1582311047.182,22.461,41.504,25.391,-2.441,0
1582311047.186,19.531,37.109,25.391,-12.695,0
1582311047.190,22.461,37.598,26.367,-3.906,0
1582311047.192,20.996,36.133,29.297,16.113,0
1582311047.196,17.090,35.645,32.715,17.090,0
1582311047.200,19.531,41.016,30.762,11.230,0
1582311047.204,26.855,42.480,27.832,9.277,0
1582311047.208,31.738,42.480,28.320,10.254,0
1582311047.212,26.367,44.434,28.809,-4.395,0
1582311047.216,26.855,44.434,26.367,3.418,0
1582311047.219,29.297,41.504,28.809,13.672,0
1582311047.223,28.320,42.480,24.414,9.277,0
1582311047.227,29.297,41.016,19.531,18.066,0
1582311047.231,31.250,37.109,24.902,21.484,0
1582311047.235,29.785,38.574,25.391,3.906,0
1582311047.238,25.391,36.133,25.391,10.742,0
1582311047.242,25.391,31.738,26.855,17.090,0
1582311047.246,27.344,34.180,26.367,4.395,0
1582311047.250,27.832,36.621,28.809,1.953,0
1582311047.254,33.203,39.062,28.320,16.113,0
1582311047.258,33.203,38.574,25.391,1.953,0
1582311047.262,29.785,37.109,27.344,-15.137,0
1582311047.265,28.809,37.598,26.367,9.766,0
1582311047.269,28.320,39.062,27.832,19.043,0
1582311047.273,28.320,40.039,28.809,3.906,0
1582311047.277,32.715,36.621,25.391,5.371,0
1582311047.281,37.109,35.156,25.879,8.789,0
1582311047.283,30.273,33.691,25.879,3.906,0
1582311047.287,25.879,34.180,24.902,7.324,0
1582311047.291,24.414,38.574,27.344,10.742,0
1582311047.295,22.461,38.574,28.320,6.836,0
1582311047.299,20.996,35.645,27.344,1.465,0
1582311047.303,23.438,37.598,25.879,11.230,0
1582311047.307,20.996,39.062,26.855,5.371,0
1582311047.310,16.602,37.109,27.832,-0.488,0
1582311047.314,19.043,36.621,25.391,-2.930,0
1582311047.318,17.578,37.598,28.320,-4.883,0
1582311047.322,23.926,38.086,27.344,5.371,0
1582311047.326,26.367,38.574,27.344,5.859,0
1582311047.328,17.090,37.109,25.879,6.348,0
1582311047.332,16.602,36.621,23.926,3.418,0
1582311047.336,20.020,37.598,27.344,4.395,0
1582311047.340,20.020,36.133,29.297,3.906,0
1582311047.344,18.066,35.645,27.344,-4.883,0
1582311047.348,15.137,38.574,26.367,-2.441,0
1582311047.352,17.090,41.504,30.273,6.836,0
1582311047.355,14.648,38.086,31.738,4.395,0
1582311047.359,11.230,39.062,30.762,3.906,0
1582311047.363,9.277,42.969,27.344,0.977,0
1582311047.367,9.766,38.574,26.855,1.465,0
1582311047.371,13.184,35.645,28.809,3.906,0
1582311047.388,14.648,39.062,26.855,3.418,0
1582311047.392,11.230,38.574,27.832,9.277,0
1582311047.396,5.859,39.551,27.344,1.953,0
1582311047.400,6.348,37.598,25.879,-0.977,0
1582311047.404,12.695,33.203,27.344,10.254,0
1582311047.408,23.926,36.133,30.762,10.254,0
1582311047.412,31.738,38.574,31.250,13.184,0
1582311047.415,31.250,36.621,28.320,1.953,0
1582311047.419,23.926,37.598,28.809,0.488,0
1582311047.423,15.137,40.039,27.832,7.812,0
1582311047.427,12.695,38.574,25.391,-5.859,0
1582311047.431,15.137,37.109,26.367,-6.836,0
1582311047.433,16.602,38.086,30.762,-2.930,0
1582311047.437,19.043,38.086,29.785,5.371,0
1582311047.441,20.508,36.621,27.344,10.742,0
1582311047.445,19.531,36.133,29.785,-8.789,0
1582311047.449,20.508,35.156,32.715,-3.418,0
1582311047.453,19.043,35.645,30.762,15.137,0
1582311047.457,15.625,35.156,27.832,6.348,0
1582311047.460,12.207,33.691,28.809,1.953,0
1582311047.464,16.113,35.645,29.297,2.441,0
1582311047.468,18.066,38.574,26.855,2.441,0
1582311047.472,13.184,36.621,25.391,-4.395,0
1582311047.476,9.766,32.715,26.855,-10.742,0
1582311047.478,11.230,34.180,30.762,-0.488,0
1582311047.482,12.695,36.133,32.227,-3.418,0
1582311047.486,17.090,36.133,29.785,-7.812,0
1582311047.490,20.020,35.645,30.762,0.000,0
1582311047.494,19.531,36.133,31.738,1.465,0
1582311047.498,20.020,36.621,32.715,2.930,0
1582311047.502,17.090,33.691,31.738,15.137,0
1582311047.505,16.113,32.227,30.273,11.719,0
1582311047.509,26.855,34.668,30.762,8.301,0
1582311047.513,32.227,36.621,30.762,8.789,0
1582311047.517,26.855,36.133,29.785,6.836,0
1582311047.521,25.391,35.645,30.762,8.789,0
1582311047.523,24.902,34.668,32.227,2.930,0
1582311047.527,18.066,33.691,32.227,4.395,0
1582311047.531,16.602,32.715,32.715,5.859,0
1582311047.535,22.949,33.691,30.762,7.324,0
1582311047.539,28.320,36.133,26.855,12.207,0
1582311047.543,29.785,35.645,26.367,8.789,0
1582311047.547,25.391,35.645,28.809,10.254,0
1582311047.550,24.414,35.156,29.785,15.137,0
1582311047.554,24.414,35.156,31.250,8.789,0
1582311047.558,19.531,34.180,33.691,2.441,0
1582311047.562,14.160,34.668,32.715,5.371,0
1582311047.566,11.230,36.621,33.691,-1.465,0
1582311047.568,14.160,35.645,35.156,3.418,0
1582311047.572,19.043,33.691,33.203,14.160,0
1582311047.576,16.113,33.203,30.273,8.789,0
1582311047.580,10.742,31.738,26.367,1.953,0
1582311047.584,15.625,33.203,24.414,8.301,0
1582311047.588,18.066,36.621,26.367,10.254,0
1582311047.592,17.578,35.645,28.809,8.789,0
1582311047.595,19.531,36.621,27.832,12.695,0
1582311047.599,25.391,37.598,29.297,8.301,0
1582311047.603,23.438,36.133,33.691,9.766,0
1582311047.607,15.137,38.086,33.203,16.113,0
1582311047.611,16.602,38.574,31.250,15.137,0
1582311047.613,17.090,41.016,30.762,5.859,0
1582311047.617,18.555,43.457,27.344,9.766,0
1582311047.621,23.438,41.504,27.344,11.230,0
1582311047.625,26.855,40.527,28.809,8.789,0
1582311047.629,18.066,39.551,29.297,12.207,0
1582311047.633,16.602,41.016,33.691,7.324,0
1582311047.637,15.137,40.039,33.691,4.883,0
1582311047.640,12.695,41.016,32.715,2.441,0
1582311047.644,19.043,42.480,33.203,8.789,0
1582311047.648,16.602,42.480,32.227,10.254,0
1582311047.652,18.555,46.387,33.203,6.836,0
1582311047.656,23.926,48.340,32.715,2.441,0
1582311047.658,19.043,45.898,32.715,5.371,0
1582311047.662,13.672,42.969,37.109,13.672,0
1582311047.666,16.113,41.016,38.086,13.672,0
1582311047.670,19.531,40.039,37.109,6.348,0
1582311047.674,13.184,39.551,37.598,-3.418,0
1582311047.678,13.184,39.062,37.109,4.883,0
1582311047.682,24.902,38.574,35.645,13.184,0
1582311047.685,18.555,37.109,33.691,10.254,0
1582311047.689,0.977,35.156,33.691,1.465,0
1582311047.693,11.719,36.133,34.668,1.465,0
1582311047.697,14.160,37.598,35.645,12.207,0
1582311047.701,8.789,38.086,35.645,15.137,0
1582311047.703,8.789,39.062,34.180,3.418,0
1582311047.707,13.184,36.621,36.133,-1.465,0
1582311047.711,10.742,33.691,34.668,6.836,0
1582311047.715,9.766,35.645,32.227,2.930,0
1582311047.719,21.484,38.574,28.320,0.000,0
1582311047.723,12.695,39.062,32.227,4.883,0
1582311047.727,8.789,37.598,35.645,6.836,0
1582311047.730,22.461,39.551,31.738,4.395,0
1582311047.734,16.113,39.062,32.715,0.000,0
1582311047.738,6.348,38.574,32.715,1.953,0
1582311047.742,8.789,38.086,32.227,4.883,0
1582311047.746,13.672,37.598,35.645,6.836,0
1582311047.763,9.277,37.109,35.645,0.977,0
1582311047.767,5.859,37.598,34.180,-1.465,0
1582311047.771,8.301,39.062,33.691,-4.883,0
1582311047.775,5.859,34.668,34.668,-7.324,0
1582311047.779,11.719,35.645,35.645,-0.977,0
1582311047.783,13.184,38.574,32.227,10.254,0
1582311047.787,18.555,37.598,30.762,6.836,0
1582311047.790,23.438,36.133,31.738,8.789,0
1582311047.794,17.090,36.133,32.715,14.160,0
1582311047.798,19.043,36.133,32.715,9.277,0
1582311047.802,22.949,35.156,34.180,8.789,0
1582311047.806,17.578,34.668,32.227,3.418,0
1582311047.808,17.578,36.133,30.762,2.930,0
1582311047.812,29.297,36.133,31.250,6.836,0
1582311047.816,31.250,37.598,30.273,6.836,0
1582311047.820,25.391,38.086,31.250,10.742,0
1582311047.824,20.020,36.621,29.785,11.230,0
1582311047.828,14.648,36.133,30.762,12.207,0
1582311047.832,13.184,37.109,30.273,7.324,0
1582311047.835,15.137,39.062,29.785,7.812,0
1582311047.839,19.531,41.016,32.715,10.742,0
1582311047.843,18.066,38.574,32.227,1.465,0
1582311047.847,16.113,35.156,32.227,7.812,0
1582311047.851,19.531,38.086,28.320,1.953,0
1582311047.853,22.949,39.551,28.809,3.906,0
1582311047.857,20.508,38.574,32.227,14.648,0
1582311047.861,20.508,39.062,33.691,13.184,0
1582311047.865,25.391,39.062,33.203,14.160,0
1582311047.869,23.438,39.551,35.156,11.719,0
1582311047.873,22.461,40.527,36.621,15.137,0
1582311047.877,23.926,41.504,36.133,10.742,0
1582311047.880,24.414,41.504,36.133,12.695,0
1582311047.884,24.902,41.016,36.621,18.066,0
1582311047.888,26.855,41.992,33.203,16.113,0
1582311047.892,24.902,40.039,31.250,13.672,0
1582311047.896,28.320,40.039,32.227,14.160,0
1582311047.897,26.367,43.457,29.297,8.789,0
1582311047.901,18.066,40.527,29.297,3.906,0
1582311047.905,20.996,41.016,32.227,4.883,0
1582311047.909,19.531,42.969,34.180,1.465,0
1582311047.913,22.461,41.504,33.691,10.742,0
1582311047.917,30.273,41.504,31.738,9.277,0
1582311047.921,22.949,41.504,32.715,4.395,0
1582311047.924,22.949,41.992,33.691,5.371,0
1582311047.928,25.879,41.992,32.715,9.277,0
1582311047.932,22.949,42.969,33.203,14.648,0
1582311047.936,25.879,42.480,31.250,7.324,0
1582311047.940,24.414,41.992,31.250,-1.465,0
1582311047.942,22.461,41.504,33.691,6.836,0
1582311047.946,20.020,41.016,32.227,9.766,0
1582311047.950,18.066,40.527,32.715,9.277,0
1582311047.954,16.602,42.969,33.203,10.742,0
1582311047.958,13.672,43.457,30.762,6.348,0
1582311047.962,20.020,44.434,30.762,2.930,0
1582311047.966,19.531,42.480,27.832,1.953,0
1582311047.969,16.602,40.527,29.297,6.836,0
1582311047.973,20.020,42.480,31.250,4.395,0
1582311047.977,23.438,44.434,28.809,3.418,0
1582311047.981,25.391,44.434,28.320,5.859,0
1582311047.985,23.926,44.434,27.344,-7.812,0
1582311047.987,21.484,45.410,27.832,-1.953,0
1582311047.991,26.367,44.434,32.227,16.602,0
1582311047.995,35.645,41.992,35.156,18.066,0
1582311047.999,35.156,41.016,34.180,13.184,0
1582311048.003,30.273,42.480,33.203,7.812,0
1582311048.007,30.762,44.922,32.715,12.207,0
1582311048.011,31.250,45.410,32.227,10.254,0
1582311048.014,30.273,43.457,33.691,12.695,0
1582311048.018,26.855,41.504,35.156,12.695,0
1582311048.022,28.809,41.992,35.156,10.254,0
1582311048.026,27.344,40.527,33.691,8.301,0
1582311048.030,20.508,36.621,31.250,3.906,0
1582311048.032,22.461,37.598,32.227,8.301,0
1582311048.036,23.926,38.086,32.227,9.766,0
1582311048.040,25.879,37.598,34.180,13.184,0
1582311048.044,24.902,37.109,33.203,6.348,0
1582311048.048,24.414,34.180,28.809,-0.977,0
1582311048.052,29.297,34.180,30.762,8.301,0
1582311048.056,32.227,37.598,35.156,15.137,0
1582311048.059,31.738,38.574,35.645,19.043,0
1582311048.063,26.855,37.598,34.668,13.672,0
1582311048.067,26.855,36.133,33.691,5.859,0
1582311048.071,28.320,36.133,31.250,11.719,0
1582311048.075,28.809,39.551,30.273,10.742,0
1582311048.077,28.320,38.086,29.297,2.930,0
1582311048.081,22.461,39.551,30.273,4.395,17705
1582311048.085,18.066,41.504,32.715,9.766,0
1582311048.089,16.113,38.574,31.738,9.277,0
1582311048.093,20.020,38.086,26.367,4.395,0
1582311048.097,25.391,40.039,24.414,4.883,0
1582311048.101,24.902,41.504,26.367,12.207,0
1582311048.104,24.414,41.016,25.879,10.254,0
1582311048.108,20.996,39.062,25.879,7.812,0
1582311048.112,22.949,38.574,29.297,10.742,0
1582311048.116,22.949,38.574,30.762,10.742,0
1582311048.120,12.695,38.574,30.762,3.418,0
1582311048.137,9.766,37.598,29.785,5.371,0
1582311048.141,14.648,34.668,32.227,8.301,0
1582311048.145,12.695,35.645,34.668,3.418,0
1582311048.149,10.742,36.133,30.762,2.930,0
1582311048.153,18.066,35.645,31.250,6.348,0
1582311048.157,21.484,37.598,32.227,9.277,0
1582311048.161,14.648,38.086,31.250,8.301,0
1582311048.164,13.184,38.574,32.715,1.465,0
1582311048.168,14.648,38.574,32.715,4.395,0
1582311048.172,18.555,39.551,31.738,10.742,0
1582311048.176,23.438,42.480,32.227,10.254,0
1582311048.180,19.043,41.016,34.668,14.648,0
1582311048.182,20.508,41.504,33.691,8.301,0
1582311048.186,29.785,43.457,31.738,8.301,0
1582311048.190,32.715,41.992,32.227,12.207,0
1582311048.194,35.156,41.016,30.273,4.395,0
1582311048.198,35.645,42.969,27.344,-7.324,0
1582311048.202,33.691,42.480,28.320,-2.930,0
1582311048.206,33.203,40.527,30.273,6.348,0
1582311048.209,36.133,42.480,28.809,9.277,0
1582311048.213,28.320,41.992,29.785,12.695,0
1582311048.217,14.160,37.109,33.691,16.602,0
1582311048.221,14.160,36.621,33.691,14.160,0
1582311048.225,20.020,40.039,32.715,17.090,0
1582311048.227,16.113,37.109,32.715,20.020,0
1582311048.231,14.160,37.109,33.691,15.137,0
1582311048.235,18.555,39.551,33.691,13.672,0
1582311048.239,15.137,37.598,32.227,14.648,0
1582311048.243,18.066,37.598,31.250,15.137,0
1582311048.247,19.531,37.598,30.762,15.137,0
1582311048.251,17.090,35.645,30.273,14.648,0
1582311048.254,16.602,34.180,30.273,7.812,0
1582311048.258,13.672,36.621,30.273,11.719,0
1582311048.262,14.160,36.621,31.250,12.207,0
1582311048.266,13.184,31.738,33.691,9.766,0
1582311048.270,11.230,32.715,34.180,12.207,0
1582311048.272,7.812,35.645,32.227,7.812,0
1582311048.276,6.348,34.668,31.738,8.789,0
1582311048.280,12.695,35.645,33.203,12.207,0
1582311048.284,13.672,37.109,34.180,17.090,0
1582311048.288,12.695,35.645,33.203,12.207,0
1582311048.292,17.090,35.156,31.738,15.137,0
1582311048.296,18.555,37.109,32.715,23.438,0
1582311048.299,21.484,35.156,33.691,19.043,0
1582311048.303,28.320,36.621,31.738,17.578,0
1582311048.307,28.320,40.527,31.250,12.207,0
1582311048.311,21.484,37.598,35.156,13.672,0
1582311048.315,7.324,35.156,36.621,14.160,0
1582311048.318,7.812,33.691,35.645,7.324,0
1582311048.322,8.301,32.227,35.645,7.324,0
1582311048.326,6.348,32.715,36.133,11.719,0
1582311048.330,10.254,32.715,36.621,18.555,0
1582311048.334,11.719,34.668,34.668,15.137,0
1582311048.338,18.066,36.621,34.668,14.648,0
1582311048.342,21.484,35.645,36.621,20.020,0
1582311048.345,18.555,37.598,34.668,21.484,0
1582311048.349,20.508,39.062,33.691,17.090,0
1582311048.353,20.508,34.180,34.668,11.719,0
1582311048.357,17.090,30.762,34.180,10.254,0
1582311048.361,18.555,33.203,32.227,9.766,0
1582311048.363,17.090,33.691,32.227,5.859,0
1582311048.367,19.531,32.715,35.645,9.277,0
1582311048.371,24.414,34.180,37.109,17.090,0
1582311048.375,27.344,35.156,38.086,20.996,0
1582311048.379,27.832,36.133,38.574,23.438,0
1582311048.383,28.320,37.109,35.645,19.043,0
1582311048.387,30.762,38.086,35.156,15.625,0
1582311048.390,26.367,40.039,34.668,12.695,0
1582311048.394,24.902,39.551,32.227,10.254,0
1582311048.398,27.344,37.598,29.297,8.301,0
1582311048.402,25.391,36.621,27.832,3.906,0
1582311048.406,24.902,39.551,29.785,12.207,0
1582311048.408,26.367,41.992,30.762,16.113,0
1582311048.412,28.809,42.480,32.715,8.301,0
1582311048.416,29.785,41.992,36.621,10.742,0
1582311048.420,26.855,41.016,34.668,14.648,0
1582311048.424,22.461,39.062,31.738,15.137,0
1582311048.428,21.973,36.133,32.715,13.184,0
1582311048.432,25.879,36.133,32.227,7.812,0
1582311048.435,30.762,36.133,31.738,9.766,0
1582311048.439,32.227,37.109,31.250,11.719,0
1582311048.443,24.902,37.598,29.785,10.742,0
1582311048.447,23.926,37.598,27.344,7.324,0
1582311048.451,27.832,37.598,26.367,5.859,0
1582311048.453,23.438,37.109,29.297,6.836,0
1582311048.457,18.066,38.086,29.785,6.836,0
1582311048.461,17.578,37.598,27.832,2.930,0
1582311048.465,18.555,38.086,28.809,0.000,0
1582311048.469,19.531,40.527,28.320,-0.977,0
1582311048.473,17.578,42.480,26.855,3.418,0
1582311048.477,19.043,40.527,27.832,7.812,0
1582311048.480,17.578,40.527,29.297,6.836,0
1582311048.484,19.043,41.016,28.809,4.883,0
1582311048.488,17.090,41.016,31.250,4.395,0
1582311048.492,9.277,41.016,32.227,0.000,0
1582311048.496,13.672,43.457,31.250,-1.953,0
1582311048.513,8.301,45.410,31.250,-2.930,0
1582311048.517,0.000,45.410,30.762,-11.719,0
1582311048.521,0.488,45.410,29.297,-11.230,0
1582311048.525,4.395,49.805,28.320,-14.648,0
1582311048.529,-1.465,48.340,33.203,-21.484,0
1582311048.533,-19.531,47.363,34.180,-21.973,0
1582311048.537,-23.438,52.246,34.180,-26.367,0
1582311048.540,-28.320,51.758,34.180,-36.133,0
1582311048.544,-32.227,51.758,33.691,-45.410,0
1582311048.548,-37.598,51.270,30.273,-55.176,0
1582311048.552,-53.223,49.316,28.320,-64.941,0
1582311048.556,-59.570,51.270,35.156,-65.430,0
1582311048.558,-58.594,55.664,33.691,-70.801,0
1582311048.562,-65.430,56.641,31.250,-83.496,0
1582311048.566,-68.848,55.664,35.156,-87.891,0
1582311048.570,-78.125,55.176,34.180,-98.145,0
1582311048.574,-89.844,56.152,32.227,-106.934,0
1582311048.578,-87.402,61.035,35.645,-106.445,0
1582311048.582,-94.727,63.477,37.109,-113.770,0
1582311048.585,-100.098,64.453,34.180,-124.512,0
1582311048.589,-102.051,63.477,34.668,-129.395,0
1582311048.593,-108.398,60.547,37.109,-135.254,0
1582311048.597,-114.258,58.105,36.133,-141.602,0
1582311048.601,-119.629,59.082,34.180,-138.184,0
1582311048.603,-122.559,57.129,34.180,-135.254,0
1582311048.607,-114.746,57.617,32.715,-134.277,0
1582311048.611,-104.492,59.570,30.762,-129.883,0
1582311048.615,-99.609,56.152,32.227,-123.047,0
1582311048.619,-96.191,53.711,30.273,-121.094,0
1582311048.623,-88.379,57.617,29.785,-113.770,0
1582311048.627,-83.984,57.129,34.180,-104.492,0
1582311048.630,-83.008,52.246,34.668,-97.168,0
1582311048.634,-73.730,56.641,34.180,-83.984,0
1582311048.638,-66.895,55.176,34.180,-77.637,0
1582311048.642,-63.965,48.828,31.738,-81.055,0
1582311048.646,-47.363,50.781,32.227,-71.289,0
1582311048.648,-41.016,48.340,29.785,-60.059,0
1582311048.652,-39.062,44.434,25.879,-55.176,0
1582311048.656,-27.344,43.945,27.344,-47.363,0
1582311048.660,-18.555,42.969,28.809,-34.668,0
1582311048.664,-10.742,41.992,25.879,-23.438,0
1582311048.668,-3.418,41.992,23.438,-16.602,0
1582311048.672,8.301,41.504,26.855,-4.883,0
1582311048.675,19.043,37.598,29.297,9.277,0
1582311048.679,20.996,36.133,28.320,12.695,0
1582311048.683,25.879,37.598,25.879,13.184,0
1582311048.687,35.645,38.086,26.855,21.973,0
1582311048.691,46.875,38.574,27.832,27.832,0
1582311048.693,53.223,37.109,28.809,37.109,0
1582311048.697,44.434,34.180,29.785,43.945,0
1582311048.701,43.945,33.691,29.297,46.387,0
1582311048.705,49.805,31.738,28.320,49.316,0
1582311048.709,52.734,30.273,27.832,52.734,0
1582311048.713,61.035,31.738,28.320,54.688,0
1582311048.717,61.035,30.762,28.809,55.176,0
1582311048.720,57.129,28.809,28.320,55.664,0
1582311048.724,60.059,28.809,28.809,55.664,0
1582311048.728,60.547,30.273,29.785,54.199,0
1582311048.732,59.082,31.738,29.785,57.617,0
1582311048.736,62.500,31.738,27.344,57.129,0
1582311048.738,63.965,31.250,28.320,58.105,0
1582311048.742,63.477,31.738,30.273,58.105,0
1582311048.746,67.383,33.691,31.738,59.082,0
1582311048.750,71.777,33.203,33.691,63.965,0
1582311048.754,71.777,31.250,29.785,60.059,0
1582311048.758,65.918,29.785,27.344,58.105,0
1582311048.762,62.500,30.273,27.344,61.523,0
1582311048.765,63.965,31.250,27.832,59.570,0
1582311048.769,58.105,28.320,28.809,47.852,0
1582311048.773,56.152,28.320,27.344,46.387,0
1582311048.777,53.711,30.762,30.273,47.363,0
1582311048.781,50.293,30.273,29.785,44.434,0
1582311048.783,49.316,28.809,26.855,45.898,0
1582311048.787,47.363,28.320,26.855,44.922,0
1582311048.791,51.270,30.273,27.344,44.434,0
1582311048.795,57.617,31.738,28.320,52.246,0
1582311048.799,58.105,30.273,28.809,51.270,0
1582311048.803,58.594,31.250,31.250,49.316,0
1582311048.807,53.711,31.738,28.809,51.758,0
1582311048.810,49.805,30.762,26.855,47.852,0
1582311048.814,49.316,29.785,27.344,48.340,0
1582311048.818,54.199,29.297,27.832,50.781,0
1582311048.822,53.711,30.762,29.297,48.340,0
1582311048.826,48.828,31.738,28.809,47.852,0
1582311048.828,48.340,29.785,28.809,41.504,0
1582311048.832,50.781,29.297,28.320,35.645,0
1582311048.836,54.688,30.762,26.855,41.016,0
1582311048.840,52.246,28.809,27.344,47.363,0
1582311048.844,51.758,27.832,28.320,47.852,0
1582311048.848,53.711,29.297,30.273,48.340,0
1582311048.852,49.805,30.762,29.785,45.410,0
1582311048.855,47.363,29.785,28.320,41.016,0
1582311048.859,41.992,29.297,28.809,37.109,0
1582311048.863,36.133,32.227,29.297,33.691,0
1582311048.867,36.621,34.668,30.762,35.645,0
1582311048.871,37.109,34.668,29.785,35.645,0
1582311048.888,41.016,33.691,29.785,36.621,0
1582311048.892,47.363,36.133,32.227,40.039,0
1582311048.896,44.922,36.133,31.738,41.016,0
1582311048.900,41.504,32.715,31.738,40.039,0
1582311048.904,45.898,33.203,33.203,41.504,0
1582311048.908,45.898,37.598,33.691,39.551,0
1582311048.912,41.504,39.062,31.738,35.156,0
1582311048.915,38.574,37.598,31.738,34.668,0
1582311048.919,33.691,36.621,30.273,32.715,0
1582311048.923,35.156,37.109,32.715,36.133,0
1582311048.927,39.551,37.598,34.668,34.180,0
1582311048.931,36.621,35.645,32.227,28.809,0
1582311048.933,33.691,34.180,34.180,34.668,0
1582311048.937,35.645,35.156,34.180,31.250,0
1582311048.941,36.621,37.109,35.156,26.367,0
1582311048.945,31.250,37.598,37.598,26.855,0
1582311048.949,33.203,36.133,36.621,30.273,0
1582311048.953,38.086,34.180,35.645,32.227,0
1582311048.957,34.180,35.156,35.156,26.855,0
1582311048.960,30.762,36.133,34.668,26.367,0
1582311048.964,28.809,36.133,32.227,25.391,0
1582311048.968,29.785,38.086,32.227,20.996,0
1582311048.972,27.832,37.598,34.668,22.461,0
1582311048.976,24.414,36.133,33.691,19.531,0
1582311048.977,27.832,37.109,33.691,18.066,0
1582311048.981,26.367,37.109,34.668,19.531,0
1582311048.985,20.508,35.156,35.645,17.090,0
1582311048.989,23.438,34.180,35.156,19.043,0
1582311048.993,21.484,36.133,35.645,18.555,0
1582311048.997,22.461,38.086,34.668,19.043,0
1582311049.001,25.879,35.645,32.227,20.508,0
1582311049.004,24.902,33.691,33.203,16.602,0
1582311049.008,28.320,36.621,33.691,17.578,0
1582311049.012,25.879,35.645,32.227,24.902,0
1582311049.016,26.855,32.715,33.203,25.879,0
1582311049.020,34.180,34.180,33.691,28.809,0
1582311049.022,30.762,35.645,33.691,29.297,0
1582311049.026,22.949,34.668,32.715,24.902,0
1582311049.030,24.414,33.203,29.785,23.926,0
1582311049.034,24.902,33.203,28.320,23.438,0
1582311049.038,21.484,34.180,29.785,20.020,0
1582311049.042,18.555,31.738,31.250,19.531,0
1582311049.046,18.066,31.250,30.273,20.020,0
1582311049.049,25.391,30.273,29.297,19.043,0
1582311049.053,26.855,32.227,31.738,18.066,0
1582311049.057,23.926,36.621,33.203,16.602,0
1582311049.061,24.902,36.621,33.203,19.043,0
1582311049.065,27.832,39.062,32.715,23.926,0
1582311049.067,29.785,40.527,30.273,18.555,0
1582311049.071,26.855,38.086,29.785,11.719,0
1582311049.075,22.949,39.062,31.738,14.160,0
1582311049.079,26.855,40.527,29.785,16.602,0
1582311049.083,36.133,40.527,27.832,19.043,0
1582311049.087,38.574,41.504,30.273,22.949,0
1582311049.091,29.785,40.527,32.227,24.902,0
1582311049.094,31.250,41.016,31.738,23.926,0
1582311049.098,36.621,40.039,32.227,21.484,0
1582311049.102,32.227,38.574,32.715,20.020,0
1582311049.106,35.156,40.039,31.738,18.555,0
1582311049.110,36.621,41.504,32.715,25.391,0
1582311049.112,37.598,41.016,32.715,27.344,0
1582311049.116,38.086,40.039,31.738,23.438,0
1582311049.120,37.598,40.039,32.227,24.414,0
1582311049.124,31.738,40.039,32.227,22.461,0
1582311049.128,24.414,37.598,33.203,18.555,0
1582311049.132,25.391,36.133,33.203,15.137,0
1582311049.136,25.879,37.598,32.227,13.184,0
1582311049.139,28.320,39.062,32.715,14.160,0
1582311049.143,20.996,36.133,33.691,12.207,0
1582311049.147,19.531,34.668,33.203,5.859,0
1582311049.151,21.484,36.621,30.273,10.254,0
1582311049.155,15.625,37.109,29.785,15.625,0
1582311049.157,16.113,37.598,30.273,11.230,0
1582311049.161,21.484,38.574,26.855,4.883,0
1582311049.165,26.367,38.574,28.320,4.883,0
1582311049.169,26.855,40.039,30.762,7.324,0
1582311049.173,25.391,40.527,29.785,11.230,17030
1582311049.177,23.926,37.598,28.809,14.648,0
1582311049.181,20.508,35.645,28.320,12.207,0
1582311049.184,22.949,38.086,28.809,11.230,0
1582311049.188,20.996,36.621,29.785,13.672,0
1582311049.192,15.625,33.203,30.762,12.695,0
1582311049.196,23.926,34.668,32.227,12.695,0
1582311049.200,27.344,36.133,33.203,14.160,0
1582311049.217,26.367,36.133,31.738,15.625,0
1582311049.221,23.926,35.156,30.273,12.695,0
1582311049.225,22.461,33.691,32.227,13.672,0
1582311049.229,22.949,31.738,32.227,16.602,0
1582311049.233,17.578,31.738,31.738,10.742,0
1582311049.237,18.555,32.715,31.738,9.277,0
1582311049.241,22.949,33.203,33.203,10.254,0
1582311049.244,19.531,32.227,30.273,5.859,0
1582311049.248,14.648,30.762,27.832,5.371,0
1582311049.252,13.672,32.227,31.250,7.324,0
1582311049.256,17.578,32.227,32.715,8.301,0
1582311049.260,20.020,30.762,30.273,7.812,0
1582311049.262,12.695,30.273,29.297,4.883,0
1582311049.266,14.160,32.227,27.832,7.812,0
1582311049.270,16.602,32.227,28.320,10.742,0
1582311049.274,16.113,30.273,27.344,9.277,0
1582311049.278,20.020,32.227,27.832,13.672,0
1582311049.282,22.949,34.180,29.785,16.113,0
1582311049.286,21.973,34.668,29.785,20.508,0
1582311049.289,23.438,36.621,29.785,23.926,0
1582311049.293,30.762,36.133,30.273,20.996,0
1582311049.297,30.273,34.180,29.297,18.555,0
1582311049.301,25.879,34.668,28.809,20.508,0
1582311049.305,26.855,32.715,28.809,22.461,0
1582311049.307,29.297,32.227,28.320,20.508,0
1582311049.311,30.762,33.203,30.762,17.090,0
1582311049.315,30.762,33.691,31.738,18.066,0
1582311049.319,25.879,33.203,31.738,20.996,0
1582311049.323,25.879,33.203,31.250,20.508,0
1582311049.327,26.367,33.691,31.738,18.555,0
1582311049.331,17.578,32.715,32.227,16.113,0
1582311049.334,15.137,32.715,30.762,15.137,0
1582311049.338,20.508,33.203,31.250,19.043,0
1582311049.342,24.414,33.691,31.738,18.066,0
1582311049.346,16.602,32.715,30.762,11.719,0
1582311049.350,15.625,35.156,30.762,13.184,0
1582311049.352,21.973,36.133,30.273,10.254,0
1582311049.356,19.043,34.180,30.273,9.277,0
1582311049.360,24.414,37.109,28.320,8.301,0
1582311049.364,33.203,38.574,26.855,3.906,0
1582311049.368,32.715,37.598,27.832,1.953,0
1582311049.372,36.621,37.598,26.367,-1.465,0
1582311049.376,39.062,39.062,24.414,4.883,0
1582311049.379,36.133,39.062,24.414,7.812,0
1582311049.383,32.227,36.133,26.855,8.301,0
1582311049.387,23.926,36.133,27.344,11.719,0
1582311049.391,18.066,36.621,30.273,13.672,0
1582311049.395,11.230,35.645,29.785,12.695,0
1582311049.398,9.277,34.668,26.367,10.742,0
1582311049.402,17.578,35.645,28.320,8.789,0
1582311049.406,21.973,36.133,28.320,5.859,0
1582311049.410,18.555,37.109,27.832,4.883,0
1582311049.414,14.160,37.109,28.809,3.906,0
1582311049.418,15.137,37.109,27.344,4.395,0
1582311049.422,14.648,37.598,26.855,2.930,0
1582311049.425,13.672,41.992,28.809,6.348,0
1582311049.429,13.672,43.457,30.273,8.301,0
1582311049.433,16.602,41.992,30.273,7.324,0
1582311049.437,12.207,38.574,31.738,6.348,0
1582311049.441,14.648,39.062,32.227,6.348,0
1582311049.443,16.602,40.527,31.738,10.742,0
1582311049.447,13.672,41.016,31.738,13.672,0
1582311049.451,16.602,40.039,31.250,10.254,0
1582311049.455,15.625,40.039,31.738,10.254,0
1582311049.459,12.695,40.527,32.715,11.719,0
1582311049.463,16.602,38.086,31.250,10.742,0
1582311049.467,19.531,37.598,31.738,10.742,0
1582311049.470,10.742,38.574,34.180,10.254,0
1582311049.474,13.672,38.574,35.156,12.695,0
1582311049.478,21.484,39.062,36.621,18.066,0
1582311049.482,20.020,41.992,34.668,14.648,0
1582311049.486,16.602,41.504,32.227,7.324,0
1582311049.488,15.625,38.574,30.273,10.742,0
1582311049.492,19.043,36.133,28.320,10.742,0
1582311049.496,21.484,35.645,27.344,9.766,0
1582311049.500,20.996,35.156,27.344,10.254,0
1582311049.504,17.578,33.691,26.367,5.371,0
1582311049.508,17.090,35.156,25.391,4.883,0
1582311049.512,16.602,36.133,25.391,6.836,0
1582311049.515,18.066,34.668,24.902,0.977,0
1582311049.519,18.555,33.691,24.414,4.883,0
1582311049.523,20.508,33.691,25.879,8.301,0
1582311049.527,19.043,33.691,28.809,3.906,0
1582311049.531,20.996,34.668,26.855,5.859,0
1582311049.533,20.508,35.645,26.367,3.906,0
1582311049.537,9.277,37.109,29.785,5.371,0
1582311049.541,12.207,38.574,31.738,8.789,0
1582311049.545,24.902,37.598,33.691,11.719,0
1582311049.549,30.762,35.645,34.180,10.742,0
1582311049.553,31.738,36.133,35.156,15.625,0
1582311049.557,29.785,35.645,35.645,20.996,0
1582311049.560,31.738,35.645,33.203,19.531,0
1582311049.564,35.645,37.598,33.203,20.996,0
1582311049.568,37.109,39.551,36.133,23.926,0
1582311049.572,28.320,38.086,37.109,22.461,0
1582311049.576,23.926,41.992,35.156,23.926,0
1582311049.578,28.320,43.457,36.133,20.508,0
1582311049.582,25.879,40.527,38.574,18.555,0
1582311049.586,23.926,41.016,37.598,17.090,0
1582311049.590,21.484,38.086,37.109,8.789,0
1582311049.594,19.531,40.039,37.598,10.742,0
1582311049.598,22.461,41.504,36.133,10.254,0
1582311049.602,20.996,40.039,35.156,5.371,0
1582311049.605,18.555,40.039,33.691,2.930,0
1582311049.609,22.949,39.551,33.691,-1.953,0
1582311049.613,23.926,38.574,36.621,-2.930,0
1582311049.617,18.555,39.551,38.086,-1.465,0
1582311049.621,18.066,41.992,36.133,0.000,0
1582311049.638,12.695,40.039,34.180,-0.977,0
1582311049.642,12.207,37.598,32.227,-7.324,0
1582311049.646,17.090,37.109,30.762,-3.906,0
1582311049.650,18.066,37.598,29.785,2.930,0
1582311049.654,19.043,35.645,26.855,1.953,0
1582311049.658,19.531,38.086,25.391,3.418,0
1582311049.662,20.508,39.551,25.879,2.441,0
1582311049.665,17.578,35.156,26.367,1.953,0
1582311049.669,14.160,36.621,26.367,4.395,0
1582311049.673,17.578,39.551,26.367,2.930,0
1582311049.677,18.555,38.574,27.344,1.953,0
1582311049.681,13.672,37.598,25.879,3.418,0
1582311049.683,12.695,40.039,24.414,3.418,0
1582311049.687,15.137,41.016,25.391,3.906,0
1582311049.691,9.277,38.086,23.926,3.906,0
1582311049.695,3.418,37.109,24.902,2.930,0
1582311049.699,6.836,39.551,25.879,3.906,0
1582311049.703,9.277,39.551,26.367,3.418,0
1582311049.707,4.883,40.039,25.879,-2.930,0
1582311049.710,-0.977,41.016,26.367,-3.906,0
1582311049.714,0.000,40.527,28.809,-4.395,0
1582311049.718,-1.465,44.434,31.738,-6.348,0
1582311049.722,-13.672,42.480,34.668,-11.719,0
1582311049.726,-25.879,42.480,32.227,-24.414,0
1582311049.728,-24.414,46.387,34.668,-25.879,0
1582311049.732,-36.133,39.551,35.156,-39.062,0
1582311049.736,-46.875,43.457,29.785,-55.664,0
1582311049.740,-48.828,55.176,33.691,-62.988,0
1582311049.744,-60.059,58.594,39.551,-66.895,0
1582311049.748,-81.543,58.594,36.621,-81.055,0
1582311049.752,-93.750,59.570,34.180,-103.027,0
1582311049.755,-89.355,62.500,37.109,-107.910,0
1582311049.759,-98.145,63.965,37.598,-114.746,0
1582311049.763,-122.070,63.965,33.203,-131.348,0
1582311049.767,-131.836,63.477,33.203,-142.578,0
1582311049.771,-126.953,62.988,36.133,-145.508,0
1582311049.773,-130.371,63.965,36.133,-148.438,0
1582311049.777,-143.066,64.941,35.156,-157.227,0
1582311049.781,-145.020,62.012,34.668,-161.621,0
1582311049.785,-142.090,60.059,35.645,-159.668,0
1582311049.789,-141.113,59.570,36.133,-159.180,0
1582311049.793,-142.578,57.617,32.227,-161.621,0
1582311049.797,-140.625,53.711,32.715,-153.809,0
1582311049.800,-136.230,48.828,38.086,-148.438,0
1582311049.804,-128.906,51.270,37.109,-149.414,0
1582311049.808,-120.117,51.270,34.668,-141.113,0
1582311049.812,-118.164,45.410,36.621,-131.836,0
1582311049.816,-110.352,45.410,38.086,-122.559,0
1582311049.818,-96.191,43.457,36.621,-113.770,0
1582311049.822,-85.938,41.504,36.133,-103.516,0
1582311049.826,-73.242,46.387,35.156,-89.355,0
1582311049.830,-69.336,45.898,33.691,-85.938,0
1582311049.834,-60.547,43.945,30.273,-82.520,0
1582311049.838,-39.551,45.898,28.809,-66.406,0
1582311049.842,-25.879,49.316,30.762,-52.734,0
1582311049.845,-11.719,49.805,28.320,-37.109,0
1582311049.849,-2.441,44.434,26.855,-22.461,0
1582311049.853,0.488,40.527,29.297,-11.719,0
1582311049.857,11.230,42.480,28.320,2.441,0
1582311049.861,30.273,43.457,28.809,16.113,0
1582311049.863,37.109,38.086,33.691,30.273,0
1582311049.867,43.945,34.668,35.156,33.691,0
1582311049.871,58.105,36.621,31.738,37.598,0
1582311049.875,61.035,35.156,30.273,44.922,0
1582311049.879,62.988,34.668,30.762,48.340,0
1582311049.883,69.336,38.574,31.250,53.223,0
1582311049.887,71.289,36.133,31.250,55.664,0
1582311049.890,70.801,34.668,28.320,61.523,0
1582311049.894,71.777,36.621,27.344,65.430,0
1582311049.898,76.660,35.645,28.809,68.359,0
1582311049.902,81.543,34.180,27.344,69.336,0
1582311049.906,86.426,33.203,28.320,75.195,0
1582311049.908,90.332,32.715,28.809,78.613,0
1582311049.912,89.844,33.203,28.320,80.078,0
1582311049.916,88.867,34.668,28.320,78.125,0
1582311049.920,84.473,32.715,28.320,75.195,0
1582311049.924,83.496,32.227,27.344,73.242,0
1582311049.928,86.426,35.645,27.344,72.266,0
1582311049.932,87.891,36.621,28.809,73.730,0
1582311049.935,90.820,36.133,27.344,73.242,0
1582311049.939,83.008,32.715,27.344,70.801,0
1582311049.943,78.613,31.738,28.809,66.895,0
1582311049.947,81.543,33.691,29.297,71.289,0
1582311049.951,87.891,31.250,29.785,76.660,0
1582311049.953,86.426,29.785,31.250,75.195,0
1582311049.957,77.637,30.273,30.273,76.172,0
1582311049.961,73.242,29.785,28.809,75.684,0
1582311049.965,69.824,29.785,28.320,66.895,0
1582311049.969,67.383,27.832,27.832,61.035,0
1582311049.973,61.035,25.879,28.320,61.035,0
1582311049.977,55.664,26.367,26.367,59.082,0
1582311049.980,58.105,26.855,25.391,57.129,0
1582311049.984,62.012,24.902,26.855,54.688,0
1582311049.988,60.547,25.391,26.855,53.711,0
1582311049.992,60.547,28.809,26.855,53.223,0
1582311049.996,58.105,28.809,27.832,53.223,0
1582311050.013,58.594,28.809,28.320,52.734,0
1582311050.017,62.012,29.785,31.250,54.688,0
1582311050.021,61.035,28.320,34.180,56.641,0
1582311050.025,63.477,30.273,30.762,52.734,0
1582311050.029,66.406,31.250,30.273,53.711,0
1582311050.033,62.012,32.227,29.785,55.176,0
1582311050.037,61.035,32.715,27.832,51.758,0
1582311050.040,57.617,31.250,27.344,46.387,0
1582311050.044,49.805,32.227,27.832,42.969,0
1582311050.048,53.223,33.203,29.297,45.898,0
1582311050.052,55.664,32.715,29.785,48.828,0
1582311050.056,52.734,34.180,29.785,49.316,0
1582311050.057,55.176,33.691,32.715,47.852,0
1582311050.061,57.617,32.227,36.133,52.246,0
1582311050.065,52.246,33.691,37.109,54.688,0
1582311050.069,50.781,33.691,37.109,51.270,0
1582311050.073,51.758,33.691,38.574,46.387,0
1582311050.077,51.758,34.668,35.156,42.480,0
1582311050.081,53.711,36.133,30.762,42.480,0
1582311050.084,49.805,36.621,31.738,41.016,0
1582311050.088,42.480,34.668,32.227,35.645,0
1582311050.092,41.992,36.133,28.320,33.691,0
1582311050.096,40.039,35.645,27.344,28.809,0
1582311050.100,34.180,32.715,29.297,24.902,0
1582311050.102,39.062,32.715,29.785,30.273,0
1582311050.106,44.434,35.156,31.250,29.785,0
1582311050.110,39.551,33.691,34.180,27.832,0
1582311050.114,37.598,32.227,32.715,30.273,0
1582311050.118,41.504,34.180,31.738,28.320,0
1582311050.122,43.945,36.621,32.715,27.832,0
1582311050.126,41.504,36.133,30.762,25.879,0
1582311050.129,36.133,34.668,31.250,25.879,0
1582311050.133,32.227,34.180,31.738,32.227,0
1582311050.137,31.738,35.645,29.785,27.832,0
1582311050.141,29.297,35.156,29.785,23.438,0
1582311050.145,24.902,32.715,31.738,27.832,0
1582311050.147,27.832,32.715,32.227,29.785,0
1582311050.151,30.762,32.227,32.227,24.414,0
1582311050.155,27.832,32.227,32.227,22.949,0
1582311050.159,28.809,34.180,35.156,26.367,0
1582311050.163,31.250,35.645,34.668,24.902,0
1582311050.167,31.738,34.180,29.785,20.020,0
1582311050.171,34.668,32.715,28.320,15.625,0
1582311050.174,35.156,32.227,27.344,16.602,0
1582311050.178,32.227,34.668,27.832,16.602,0
1582311050.182,26.855,33.691,29.785,15.137,0
1582311050.186,22.461,30.762,29.785,13.184,0
1582311050.190,22.949,29.785,30.273,14.160,0
1582311050.192,27.344,32.715,31.250,20.508,0
1582311050.196,27.344,32.715,30.762,19.043,0
1582311050.200,26.855,31.250,32.715,17.578,0
1582311050.204,32.227,33.691,33.691,20.508,0
1582311050.208,36.133,33.691,32.227,20.508,0
1582311050.212,28.320,31.738,30.273,20.996,0
1582311050.216,23.926,29.297,29.297,20.020,0
1582311050.219,28.809,30.762,32.715,22.461,0
1582311050.223,30.273,33.691,33.691,24.414,0
1582311050.227,24.902,33.691,31.250,20.996,0
1582311050.231,22.949,32.227,29.785,21.973,0
1582311050.235,24.902,33.203,29.785,20.508,0
1582311050.237,26.367,32.715,31.250,22.949,0
1582311050.241,26.367,32.227,34.668,28.320,0
1582311050.245,35.645,36.133,37.109,29.785,0
1582311050.249,34.668,36.621,36.621,26.367,0
1582311050.253,25.391,35.156,39.062,26.367,28211
1582311050.257,28.809,35.156,38.086,27.832,0
1582311050.261,25.879,35.645,36.133,19.531,0
1582311050.264,20.996,37.598,35.156,14.160,0
1582311050.268,19.043,35.645,34.180,11.719,0
1582311050.272,20.020,33.203,34.668,12.207,0
1582311050.276,23.926,35.645,34.180,10.742,0
1582311050.280,22.949,35.645,34.180,10.742,0
1582311050.282,19.531,35.156,34.180,10.742,0
1582311050.286,18.066,35.645,32.715,8.301,0
1582311050.290,18.066,33.203,30.762,10.742,0
1582311050.294,18.066,33.203,31.738,10.742,0
1582311050.298,23.926,34.180,33.691,11.230,0
1582311050.302,27.832,34.180,30.762,15.625,0
1582311050.306,24.414,32.715,28.809,18.066,0
1582311050.309,25.391,33.203,30.762,18.555,0
1582311050.313,24.902,32.227,30.762,15.137,0
1582311050.317,27.832,30.762,33.203,14.648,0
1582311050.321,29.297,31.738,34.668,18.066,0
1582311050.325,25.391,33.203,37.109,21.484,0
1582311050.327,28.320,34.668,35.645,24.414,0
1582311050.331,30.762,34.180,33.691,23.926,0
1582311050.335,34.180,33.203,33.203,24.414,0
1582311050.339,30.273,34.180,33.691,25.391,0
1582311050.343,25.391,33.691,33.691,22.461,0
1582311050.347,30.273,36.133,36.133,20.996,0
1582311050.351,26.855,39.062,33.691,15.137,0
1582311050.354,24.414,38.086,30.762,10.254,0
1582311050.358,23.926,36.133,34.180,6.836,0
1582311050.362,19.531,36.621,34.668,4.395,0
1582311050.366,14.648,36.621,34.668,3.906,0
1582311050.370,8.789,34.668,37.109,-0.488,0
1582311050.387,15.137,35.156,38.086,1.953,0
1582311050.391,21.973,35.156,37.109,8.301,0
1582311050.395,24.902,36.133,36.133,10.254,0
1582311050.399,22.461,38.086,34.180,11.719,0
1582311050.403,18.066,37.109,33.203,14.160,0
1582311050.407,22.461,35.645,33.691,14.648,0
1582311050.411,26.367,35.645,33.691,15.137,0
1582311050.414,24.902,36.621,32.715,17.578,0
1582311050.418,29.297,38.086,31.738,21.484,0
1582311050.422,26.367,40.039,29.785,19.043,0
1582311050.426,21.973,40.039,31.250,16.602,0
1582311050.430,27.344,39.062,33.203,18.555,0
1582311050.432,27.344,39.062,33.203,22.949,0
1582311050.436,28.809,39.551,33.203,23.438,0
1582311050.440,34.180,40.527,31.250,23.438,0
1582311050.444,31.250,40.039,32.715,24.902,0
1582311050.448,33.203,41.504,33.691,21.973,0
1582311050.452,32.715,39.551,32.227,19.531,0
1582311050.456,25.391,37.109,32.227,20.020,0
1582311050.459,25.879,40.527,33.691,20.508,0
1582311050.463,30.762,42.480,31.738,15.625,0
1582311050.467,40.039,42.969,30.762,13.672,0
1582311050.471,45.898,41.992,32.227,11.230,0
1582311050.475,45.898,43.945,31.250,8.301,0
1582311050.478,47.363,46.387,28.809,3.418,0
1582311050.482,47.363,44.922,28.809,6.348,0
1582311050.486,41.992,44.434,31.250,9.277,0
1582311050.490,40.527,43.945,33.691,5.859,0
1582311050.494,35.645,41.504,38.574,12.207,0
1582311050.498,25.391,40.039,38.086,20.508,0
1582311050.502,17.578,40.039,35.156,20.996,0
1582311050.505,17.578,38.086,33.691,11.719,0
1582311050.509,21.484,37.109,33.691,5.859,0
1582311050.513,21.973,39.062,34.668,9.277,0
1582311050.517,19.531,40.039,35.156,12.207,0
1582311050.521,21.973,39.062,35.645,10.254,0
1582311050.523,27.344,41.992,35.645,13.184,0
1582311050.527,26.367,44.434,35.645,18.066,0
1582311050.531,26.855,43.457,35.645,18.066,0
1582311050.535,23.926,43.457,35.645,15.625,0
1582311050.539,19.043,41.992,33.203,11.719,0
1582311050.543,20.996,40.527,33.691,13.184,0
1582311050.547,24.414,41.992,34.180,14.648,0
1582311050.550,24.902,41.504,31.738,11.719,0
1582311050.554,17.578,41.016,32.715,11.230,0
1582311050.558,14.160,42.969,36.133,12.207,0
1582311050.562,17.578,41.992,35.156,13.672,0
1582311050.566,20.996,41.016,33.691,15.137,0
1582311050.568,25.879,41.504,34.180,18.555,0
1582311050.572,25.879,41.016,33.691,17.090,0
1582311050.576,23.926,42.480,34.180,16.113,0
1582311050.580,31.738,42.480,32.227,21.973,0
1582311050.584,30.762,42.480,29.785,22.461,0
1582311050.588,21.973,42.969,29.785,22.461,0
1582311050.592,20.996,42.480,31.250,20.996,0
1582311050.595,20.996,44.922,31.738,19.531,0
1582311050.599,20.996,43.457,31.738,18.066,0
1582311050.603,24.902,40.527,35.156,15.625,0
1582311050.607,24.902,42.969,35.645,13.184,0
1582311050.611,18.555,41.504,34.180,12.695,0
1582311050.613,20.020,39.062,36.621,16.113,0
1582311050.617,21.973,41.016,38.086,13.184,0
1582311050.621,22.461,42.969,36.621,11.230,0
1582311050.625,22.461,41.504,36.621,14.160,0
1582311050.629,15.137,39.062,35.645,11.719,0
1582311050.633,14.160,39.551,34.180,11.230,0
1582311050.637,17.090,40.527,34.180,14.648,0
1582311050.640,22.461,41.016,33.691,11.230,0
1582311050.644,36.133,43.945,31.250,13.672,0
1582311050.648,33.203,43.457,31.250,14.648,0
1582311050.652,16.602,39.551,37.109,8.301,0
1582311050.656,13.672,35.645,40.527,9.766,0
1582311050.658,22.461,37.598,39.062,17.090,0
1582311050.662,28.809,38.574,38.574,25.391,0
1582311050.666,38.574,36.621,41.504,32.227,0
1582311050.670,50.781,36.621,44.922,39.062,0
1582311050.674,51.758,34.668,47.363,46.387,0
1582311050.678,54.199,33.203,51.270,56.152,0
1582311050.682,53.711,31.738,51.758,56.641,0
1582311050.685,54.199,32.227,53.711,57.617,0
1582311050.689,50.293,32.715,53.223,54.688,0
1582311050.693,50.781,35.156,51.758,54.199,0
1582311050.697,56.641,32.715,51.758,58.594,0
1582311050.701,55.664,29.785,50.781,52.734,0
1582311050.703,52.734,33.691,48.828,51.270,0
1582311050.707,48.828,36.133,46.387,50.781,0
1582311050.711,47.852,34.668,44.922,44.434,0
1582311050.715,47.363,33.203,42.480,42.480,0
1582311050.719,43.945,33.203,42.969,40.039,0
1582311050.723,42.480,32.715,43.457,40.039,0
1582311050.727,41.504,33.203,41.504,37.109,0
1582311050.730,40.527,32.715,41.016,29.297,0
1582311050.734,38.574,31.738,41.016,28.809,0
1582311050.738,40.039,34.180,41.016,33.691,0
1582311050.742,45.410,36.621,39.551,31.738,0
1582311050.746,47.363,37.598,40.527,29.297,0
1582311050.763,34.668,38.574,41.016,27.832,0
1582311050.767,29.297,38.086,37.598,27.344,0
1582311050.771,32.227,39.551,38.574,29.297,0
1582311050.775,33.203,39.062,39.062,25.879,0
1582311050.779,34.180,36.621,37.598,18.066,0
1582311050.783,34.180,38.086,37.109,17.578,0
1582311050.787,23.926,39.551,37.598,19.531,0
1582311050.790,13.672,38.574,39.062,17.578,0
1582311050.794,18.555,36.133,36.621,16.602,0
1582311050.798,22.461,38.086,36.621,17.578,0
1582311050.802,19.531,41.504,39.062,15.625,0
1582311050.806,20.508,41.016,40.039,16.602,0
1582311050.808,22.461,41.016,39.551,17.090,0
1582311050.812,20.996,41.504,36.621,12.695,0
1582311050.816,21.484,40.039,36.133,12.207,0
1582311050.820,17.578,37.109,35.156,18.066,0
1582311050.824,16.113,38.574,36.621,19.043,0
1582311050.828,22.461,41.992,38.086,19.531,0
1582311050.832,23.438,40.527,37.598,20.020,0
1582311050.835,18.066,37.109,36.133,17.090,0
1582311050.839,21.973,39.062,37.598,16.602,0
1582311050.843,28.320,40.527,39.551,17.578,0
1582311050.847,23.438,39.062,40.039,17.090,0
1582311050.851,15.137,36.133,38.574,16.113,0
1582311050.853,20.508,36.133,39.062,18.066,0
1582311050.857,21.973,37.109,38.574,15.625,0
1582311050.861,19.531,39.062,36.133,17.090,0
1582311050.865,26.855,41.504,36.133,23.926,0
1582311050.869,24.902,39.062,37.598,20.996,0
1582311050.873,22.949,39.062,40.527,18.066,0
1582311050.877,23.438,40.039,41.992,19.043,0
1582311050.880,19.043,36.133,42.480,22.461,0
1582311050.884,16.602,35.645,41.992,21.973,0
1582311050.888,18.066,36.621,41.016,20.020,0
1582311050.892,18.066,33.691,42.969,20.508,0
1582311050.896,21.484,32.715,43.945,24.414,0
1582311050.898,21.973,36.133,41.992,22.461,0
1582311050.902,21.973,38.086,40.039,19.043,0
1582311050.906,27.344,38.574,39.551,22.461,0
1582311050.910,26.367,41.504,40.039,25.391,0
1582311050.914,30.762,42.480,39.551,25.391,0
1582311050.918,31.250,41.992,40.039,25.879,0
1582311050.922,28.320,42.480,40.527,24.414,0
1582311050.925,32.715,41.992,40.039,24.414,0
1582311050.929,32.227,41.504,39.062,23.438,0
1582311050.933,28.809,40.039,38.086,22.949,0
1582311050.937,26.855,39.062,38.574,23.438,0
1582311050.941,25.879,38.574,38.086,20.508,0
1582311050.943,21.484,40.039,36.133,16.602,0
1582311050.947,21.973,40.039,34.668,19.043,0
1582311050.951,27.832,41.504,35.156,20.996,0
1582311050.955,28.320,43.457,35.156,20.508,0
1582311050.959,21.484,42.480,34.668,22.949,0
1582311050.963,21.484,43.945,36.133,20.996,0
1582311050.967,25.391,43.945,35.156,14.648,0
1582311050.970,27.832,41.016,31.250,16.113,0
1582311050.974,26.367,41.992,31.738,17.090,0
1582311050.978,23.926,44.434,31.738,16.602,0
1582311050.982,29.785,43.945,30.762,17.090,0
1582311050.986,32.715,45.410,33.691,17.090,0
1582311050.988,25.879,45.410,32.715,17.090,0
1582311050.992,21.484,43.945,32.715,15.137,0
1582311050.996,24.414,44.922,32.227,12.207,0
1582311051.000,20.020,42.969,29.785,9.766,0
1582311051.004,13.184,41.016,28.809,9.277,0
1582311051.008,15.625,40.039,29.297,10.254,0
1582311051.012,17.090,39.062,30.273,15.625,0
1582311051.015,17.090,38.574,32.227,15.625,0
1582311051.019,13.672,38.574,33.203,13.672,0
1582311051.023,9.766,39.551,34.668,13.672,0
1582311051.027,15.625,41.504,36.133,14.648,0
1582311051.031,20.020,41.992,37.109,16.602,0
1582311051.033,17.578,41.504,35.156,9.277,0
1582311051.037,20.020,43.457,33.691,9.277,0
1582311051.041,21.484,43.945,36.133,14.160,0
1582311051.045,13.672,41.992,33.203,8.789,0
1582311051.049,7.812,41.016,29.297,4.883,0
1582311051.053,4.883,41.992,31.250,6.836,0
1582311051.057,1.465,41.504,32.715,8.301,0
1582311051.060,5.859,41.016,31.250,8.789,0
1582311051.064,10.742,41.016,31.250,8.301,0
1582311051.068,14.648,41.016,31.250,13.672,0
1582311051.072,19.531,41.016,31.738,18.555,0
1582311051.076,24.902,39.551,32.227,19.531,0
1582311051.078,28.320,40.039,32.227,18.555,0
1582311051.082,23.438,43.457,32.227,15.625,0
1582311051.086,18.066,43.457,32.227,14.160,0
1582311051.090,20.508,41.016,32.715,12.207,0
1582311051.094,20.020,39.551,34.180,10.742,0
1582311051.098,14.648,39.062,36.133,9.277,0
1582311051.102,15.137,40.039,37.109,12.695,0
1582311051.105,18.555,40.527,37.598,16.602,0
1582311051.109,22.461,40.039,36.621,17.578,0
1582311051.113,26.855,42.480,34.668,15.625,0
1582311051.117,24.902,44.434,35.156,16.602,0
1582311051.121,22.461,44.434,36.133,15.137,0
1582311051.138,24.902,44.434,36.621,14.648,0
1582311051.142,29.785,44.434,35.156,18.066,0
1582311051.146,31.738,45.898,35.156,18.066,0
1582311051.150,26.855,45.898,33.691,16.113,0
1582311051.154,26.855,44.434,30.273,11.719,0
1582311051.158,28.809,44.434,33.691,13.184,0
1582311051.162,20.508,45.898,36.133,15.625,0
1582311051.165,16.602,45.410,34.668,12.207,0
1582311051.169,20.508,44.434,35.645,10.742,0
1582311051.173,30.762,48.340,36.621,12.207,0
1582311051.177,34.180,52.734,36.133,13.672,0
1582311051.181,27.344,52.734,37.109,16.602,0
1582311051.183,25.879,51.270,35.156,14.648,0
1582311051.187,26.855,51.270,33.691,14.648,0
1582311051.191,31.250,51.758,35.156,20.508,0
1582311051.195,25.391,46.875,36.621,12.695,0
1582311051.199,6.348,41.016,38.086,-3.906,0
1582311051.203,0.977,40.039,36.621,-5.859,0
1582311051.207,2.930,39.551,36.133,-2.930,0
1582311051.210,-2.930,35.645,37.598,-11.719,0
1582311051.214,-0.977,36.133,35.645,-14.648,0
1582311051.218,-0.977,38.086,36.133,-9.766,0
1582311051.222,-7.812,34.668,38.086,-11.719,0
1582311051.226,-8.789,32.227,39.062,-11.719,0
1582311051.227,-2.930,33.691,37.598,-9.766,0
1582311051.231,2.441,37.598,37.109,-5.371,0
1582311051.235,3.418,38.574,37.598,-3.906,0
1582311051.239,4.395,37.109,35.645,-6.348,0
1582311051.243,8.301,39.062,35.156,-2.930,0
1582311051.247,3.418,41.504,33.691,-0.977,0
1582311051.251,0.000,40.527,32.227,0.488,0
1582311051.254,10.742,39.551,33.691,4.395,0
1582311051.258,14.648,41.016,37.109,7.812,0
1582311051.262,11.230,40.039,37.109,3.906,0
1582311051.266,8.301,37.109,37.109,5.371,0
1582311051.270,9.277,39.062,38.574,8.789,0
1582311051.272,14.160,41.992,37.598,10.742,0
1582311051.276,14.160,40.527,36.621,9.766,0
1582311051.280,14.160,40.039,37.109,3.906,0
1582311051.284,21.484,39.062,36.133,5.371,0
1582311051.288,20.508,38.574,35.645,6.836,0
1582311051.292,11.719,38.574,35.156,9.277,0
1582311051.296,18.555,40.039,35.645,14.160,0
1582311051.299,27.344,43.945,38.574,16.113,0
1582311051.303,26.855,44.922,39.551,15.137,0
1582311051.307,27.344,43.457,39.062,15.625,0
1582311051.311,28.809,42.480,39.062,15.137,0
1582311051.315,18.066,42.480,36.621,11.719,0
1582311051.317,12.207,44.434,36.133,10.742,0
1582311051.321,16.602,46.387,38.574,10.254,0
1582311051.325,14.160,43.457,39.551,6.836,0
1582311051.329,11.230,41.504,37.598,2.930,0
1582311051.333,15.625,43.457,36.621,3.418,0
1582311051.337,16.602,43.457,37.109,-1.465,0
1582311051.341,11.230,41.992,34.668,-4.395,0
1582311051.344,11.230,41.016,34.668,1.465,0
1582311051.348,9.766,40.527,35.645,1.465,0
1582311051.352,3.418,41.016,35.156,-4.395,0
1582311051.356,5.371,43.945,36.621,-1.953,0
1582311051.360,8.301,43.945,40.527,1.953,0
1582311051.362,8.301,44.922,45.410,0.000,0
1582311051.366,7.324,45.410,45.410,-10.254,0
1582311051.370,1.953,49.805,47.363,-13.672,0
1582311051.374,-12.207,51.758,45.898,-14.648,0
1582311051.378,-20.508,45.410,42.480,-22.461,0
1582311051.382,-18.555,42.480,46.875,-26.367,0
1582311051.386,-26.855,46.875,51.758,-33.691,0
1582311051.389,-38.086,48.340,56.641,-36.133,0
1582311051.393,-46.387,45.410,57.617,-40.527,0
1582311051.397,-61.523,44.434,57.617,-62.988,0
1582311051.401,-67.383,50.293,55.176,-74.707,0
1582311051.405,-80.566,55.664,59.570,-88.867,0
1582311051.407,-100.586,49.805,63.477,-109.375,0
1582311051.411,-107.910,48.340,59.570,-118.164,0
1582311051.415,-108.887,58.594,61.523,-124.512,0
1582311051.419,-120.605,62.988,59.570,-138.672,25950
1582311051.423,-137.207,58.594,53.711,-159.180,0
1582311051.427,-144.531,60.547,53.711,-165.527,0
1582311051.431,-149.902,61.035,53.711,-166.992,0
1582311051.434,-150.391,55.664,50.781,-166.504,0
1582311051.438,-147.461,53.223,48.828,-165.527,0
1582311051.442,-140.137,56.152,47.363,-160.645,0
1582311051.446,-145.508,55.176,44.434,-159.668,0
1582311051.450,-153.320,56.152,40.527,-164.062,0
1582311051.452,-147.949,59.570,37.598,-164.062,0
1582311051.456,-137.695,58.105,36.133,-156.738,0
1582311051.460,-123.535,56.152,35.645,-147.949,0
1582311051.464,-115.234,54.199,33.691,-144.043,0
1582311051.468,-112.305,53.223,30.273,-134.277,0
1582311051.472,-105.469,56.152,27.832,-123.535,0
1582311051.476,-95.703,60.059,25.391,-120.605,0
1582311051.479,-83.984,60.547,23.926,-112.793,0
1582311051.483,-70.801,59.082,24.414,-98.145,0
1582311051.487,-57.617,57.617,22.949,-81.543,0
1582311051.491,-44.434,55.176,21.484,-69.824,0
1582311051.495,-26.855,54.199,20.508,-55.176,0
1582311051.512,-9.766,54.199,19.531,-34.180,0
1582311051.516,0.488,54.688,17.090,-23.438,0
1582311051.520,15.625,55.176,14.648,-16.602,0
1582311051.524,28.809,53.223,15.137,-1.465,0
1582311051.528,35.156,51.270,15.137,13.184,0
1582311051.532,42.969,49.805,12.695,21.484,0
1582311051.536,50.781,49.316,13.672,25.879,0
1582311051.539,60.059,47.363,14.648,32.715,0
1582311051.543,66.895,47.852,14.160,41.016,0
1582311051.547,67.383,47.363,17.090,45.898,0
1582311051.551,69.824,44.434,18.555,51.758,0
1582311051.555,75.684,42.480,16.602,60.547,0
1582311051.557,81.055,41.016,15.625,62.988,0
1582311051.561,81.543,39.551,16.602,61.523,0
1582311051.565,77.148,37.598,16.602,59.570,0
1582311051.569,73.730,36.133,16.113,57.129,0
1582311051.573,75.684,37.109,16.602,57.617,0
1582311051.577,79.102,38.086,17.090,62.012,0
1582311051.581,79.102,37.109,20.020,61.523,0
1582311051.584,69.824,32.715,20.020,60.059,0
1582311051.588,71.777,32.715,19.531,64.941,0
1582311051.592,85.449,38.574,23.438,71.777,0
1582311051.596,87.891,37.109,22.461,65.430,0
1582311051.600,79.102,34.180,22.461,61.035,0
1582311051.602,75.195,37.598,24.902,68.359,0
1582311051.606,79.590,40.039,25.879,69.824,0
1582311051.610,79.102,38.574,27.832,68.848,0
1582311051.614,79.102,39.551,28.320,68.848,0
1582311051.618,82.031,39.551,25.391,66.406,0
1582311051.622,78.125,38.574,26.367,63.965,0
1582311051.626,72.266,38.086,29.785,60.059,0
1582311051.629,64.453,38.086,27.832,60.059,0
1582311051.633,64.941,36.621,28.809,61.523,0
1582311051.637,74.219,36.133,32.227,56.641,0
1582311051.641,66.406,35.156,31.250,55.176,0
1582311051.645,58.594,33.691,29.297,52.246,0
1582311051.648,60.547,35.156,28.809,54.199,0
1582311051.652,61.523,37.598,28.320,52.246,0
1582311051.656,58.594,36.621,26.855,40.039,0
1582311051.660,60.059,34.668,28.809,44.434,0
1582311051.664,61.035,37.598,30.273,48.340,0
1582311051.668,60.547,38.086,31.250,46.875,0
1582311051.672,62.500,36.621,33.203,47.363,0
1582311051.675,63.477,37.109,32.227,47.852,0
1582311051.679,58.594,36.133,30.273,46.387,0
1582311051.683,54.199,34.668,30.273,40.527,0
1582311051.687,60.059,37.109,27.344,37.109,0
1582311051.691,57.129,39.062,25.391,39.551,0
1582311051.693,54.199,38.086,27.832,44.434,0
1582311051.697,57.617,37.109,27.832,45.410,0
1582311051.701,52.734,37.109,26.855,41.992,0
1582311051.705,49.316,37.109,27.344,37.109,0
1582311051.709,50.293,32.715,27.344,41.504,0
1582311051.713,59.082,29.297,30.273,55.176,0
1582311051.717,58.105,38.086,31.250,52.734,0
1582311051.720,45.898,45.410,24.902,28.320,0
1582311051.724,39.551,47.363,19.531,21.484,0
1582311051.728,30.762,49.316,12.695,19.043,0
1582311051.732,39.062,52.246,9.277,20.996,0
1582311051.736,48.340,52.734,10.742,24.414,0
1582311051.738,43.457,52.246,8.789,20.996,0
1582311051.742,38.574,49.805,8.789,22.949,0
1582311051.746,44.434,47.852,11.230,25.879,0
1582311051.750,46.875,47.852,14.648,25.391,0
1582311051.754,30.273,43.945,17.578,21.484,0
1582311051.758,24.414,42.969,17.090,20.996,0
1582311051.762,28.809,43.945,18.066,20.508,0
1582311051.765,35.645,42.969,19.531,18.066,0
1582311051.769,46.387,43.457,19.043,17.578,0
1582311051.773,52.246,45.410,18.555,19.043,0
1582311051.777,56.641,46.875,20.508,19.043,0
1582311051.781,60.059,46.387,19.531,13.672,0
1582311051.783,59.082,45.898,17.090,9.277,0
1582311051.787,50.781,43.457,17.578,10.254,0
1582311051.791,39.551,44.434,20.020,18.066,0
1582311051.795,30.273,44.434,20.996,22.461,0
1582311051.799,28.809,42.480,21.484,22.949,0
1582311051.803,31.738,45.898,22.461,22.949,0
1582311051.807,32.227,48.340,22.461,22.461,0
1582311051.810,35.645,46.875,22.949,22.461,0
1582311051.814,35.156,46.387,21.973,20.020,0
1582311051.818,27.832,44.922,22.461,21.484,0
1582311051.822,25.879,44.434,24.414,20.996,0
1582311051.826,31.250,44.922,25.391,20.020,0
1582311051.828,29.297,43.945,24.414,19.531,0
1582311051.832,26.367,42.969,25.879,15.625,0
1582311051.836,22.949,41.016,27.832,17.090,0
1582311051.840,24.414,44.434,27.832,19.531,0
1582311051.844,27.832,44.434,25.879,17.090,0
1582311051.848,23.438,41.504,25.391,17.090,0
1582311051.852,27.344,44.434,25.391,18.066,0
1582311051.855,30.762,43.457,26.367,17.090,0
1582311051.859,34.180,42.480,26.367,16.113,0
1582311051.863,35.156,41.504,25.879,19.531,0
1582311051.867,34.180,40.527,29.297,23.438,0
1582311051.871,31.738,39.062,30.762,19.531,0
1582311051.888,31.738,39.062,30.273,18.555,0
1582311051.892,36.133,40.039,32.715,22.461,0
1582311051.896,33.691,39.551,32.715,22.461,0
1582311051.900,32.715,39.551,30.762,25.391,0
1582311051.904,34.180,38.574,30.762,27.344,0
1582311051.908,40.527,40.527,31.250,19.531,0
1582311051.912,42.969,41.992,30.762,17.578,0
1582311051.915,38.086,39.062,29.785,18.066,0
1582311051.919,27.344,36.621,31.738,18.555,0
1582311051.923,23.926,37.109,31.738,18.066,0
1582311051.927,30.273,38.086,28.809,15.137,0
1582311051.931,27.832,37.109,27.832,14.648,0
1582311051.933,28.809,37.598,29.297,16.602,0
1582311051.937,37.109,38.086,30.273,18.555,0
1582311051.941,38.574,36.133,30.762,20.508,0
1582311051.945,37.109,36.621,32.227,20.996,0
1582311051.949,28.320,37.109,28.809,18.066,0
1582311051.953,22.461,39.062,26.855,20.020,0
1582311051.957,25.879,39.551,28.809,20.020,0
1582311051.960,27.832,37.598,28.809,20.020,0
1582311051.964,29.297,38.086,30.273,23.438,0
1582311051.968,32.715,39.062,30.762,23.926,0
1582311051.972,35.156,37.109,29.297,18.555,0
1582311051.976,37.598,37.109,30.762,20.020,0
1582311051.978,37.598,41.016,34.180,28.320,0
1582311051.982,31.250,41.992,35.156,27.832,0
1582311051.986,32.715,40.527,32.227,25.391,0
1582311051.990,37.109,41.016,30.762,26.855,0
1582311051.994,37.109,42.480,31.250,26.367,0
1582311051.998,33.203,40.039,30.273,23.926,0
1582311052.002,25.391,38.086,29.785,20.996,0
1582311052.005,23.926,38.574,29.785,20.020,0
1582311052.009,31.250,39.062,31.250,21.973,0
1582311052.013,32.715,38.574,32.227,21.484,0
1582311052.017,28.809,37.109,33.203,21.484,0
1582311052.021,30.273,40.039,32.715,17.090,0
1582311052.023,36.621,40.527,31.738,9.766,0
1582311052.027,31.250,36.621,32.227,9.277,0
1582311052.031,19.531,36.133,31.738,9.277,0
1582311052.035,21.484,39.551,29.297,10.742,0
1582311052.039,25.879,41.016,29.297,12.207,0
1582311052.043,27.344,39.551,31.250,13.184,0
1582311052.047,29.297,35.156,31.738,14.160,0
1582311052.050,32.715,34.668,27.832,11.230,0
1582311052.054,32.715,39.062,28.320,11.230,0
1582311052.058,28.320,41.016,30.273,10.254,0
1582311052.062,22.949,39.551,27.344,6.836,0
1582311052.066,26.367,41.992,25.879,9.277,0
1582311052.068,31.738,44.434,26.367,11.230,0
1582311052.072,31.738,41.992,27.344,10.742,0
1582311052.076,30.762,41.992,26.367,8.789,0
1582311052.080,29.297,41.504,28.809,11.230,0
1582311052.084,27.344,38.574,30.762,13.672,0
1582311052.088,22.461,38.086,29.785,10.254,0
1582311052.092,19.043,39.062,27.832,8.301,0
1582311052.095,18.066,40.039,27.832,10.254,0
1582311052.099,16.602,38.574,27.344,6.836,0
1582311052.103,18.555,36.621,28.320,7.324,0
1582311052.107,19.043,39.062,30.273,13.184,0
1582311052.111,16.113,39.551,31.250,14.648,0
1582311052.113,15.625,36.133,32.227,11.230,0
1582311052.117,14.648,33.691,30.273,9.766,0
1582311052.121,12.207,34.180,28.809,6.836,0
1582311052.125,13.672,36.621,28.809,7.324,0
1582311052.129,11.719,35.156,31.250,11.230,0
1582311052.133,16.113,35.156,31.250,9.277,0
1582311052.137,20.996,36.133,29.785,5.859,0
1582311052.140,17.578,35.156,29.785,8.789,0
1582311052.144,21.973,35.645,31.250,15.625,0
1582311052.148,27.344,36.133,32.227,19.531,0
1582311052.152,29.785,35.645,34.180,22.461,0
1582311052.156,36.621,37.109,34.668,21.973,0
1582311052.158,37.598,37.598,33.203,23.438,0
1582311052.162,29.297,35.645,31.738,22.461,0
1582311052.166,25.391,35.645,32.227,17.090,0
1582311052.170,23.926,36.621,32.227,12.207,0
1582311052.174,21.484,36.133,31.250,8.301,0
1582311052.178,20.996,36.133,32.715,11.230,0
1582311052.182,25.391,36.621,32.715,12.207,0
1582311052.185,22.461,35.156,32.227,9.277,0
1582311052.189,15.137,35.645,31.250,9.277,0
1582311052.193,17.578,39.062,31.250,11.230,0
1582311052.197,17.578,38.574,32.715,9.766,0
1582311052.201,17.090,39.551,33.203,8.301,0
1582311052.203,23.926,39.062,31.738,10.742,0
1582311052.207,24.414,39.551,29.297,7.324,0
1582311052.211,15.625,41.016,29.785,1.465,0
1582311052.215,15.137,40.527,31.250,2.441,0
1582311052.219,17.090,38.574,30.273,4.883,0
1582311052.223,18.066,39.551,30.762,9.277,0
1582311052.227,22.461,41.016,33.203,12.695,0
1582311052.230,21.973,38.086,33.203,11.719,0
1582311052.234,14.160,38.574,32.715,11.719,0
1582311052.238,16.602,39.062,34.668,12.695,0
1582311052.242,20.508,38.574,34.180,11.719,0
1582311052.246,19.531,37.598,31.738,9.277,0
1582311052.263,16.602,38.086,30.762,4.395,0
1582311052.267,15.625,39.062,31.250,6.348,0
1582311052.271,18.555,37.109,31.250,7.324,0
1582311052.275,16.113,36.621,30.273,2.930,0
1582311052.279,17.578,38.574,29.297,5.371,0
1582311052.283,20.996,39.062,29.297,9.277,0
1582311052.287,21.484,37.598,29.785,12.207,0
1582311052.290,23.926,36.621,28.809,7.812,0
1582311052.294,27.344,39.062,29.785,3.906,0
1582311052.298,22.949,40.527,31.738,1.465,0
1582311052.302,16.602,39.551,34.180,1.953,0
1582311052.306,13.672,38.574,33.691,1.953,0
1582311052.308,10.254,39.551,33.203,2.441,0
1582311052.312,10.742,39.551,34.180,3.906,0
1582311052.316,15.625,39.062,35.645,3.906,0
1582311052.320,21.484,40.527,37.598,5.371,0
1582311052.324,15.625,38.574,36.621,8.789,0
1582311052.328,12.207,36.133,34.668,10.742,0
1582311052.332,18.066,37.598,35.156,14.648,0
1582311052.335,18.066,36.621,35.645,13.672,0
1582311052.339,22.949,36.621,35.156,15.625,0
1582311052.343,28.320,38.574,36.133,13.672,0
1582311052.347,24.902,38.086,34.668,7.812,0
1582311052.351,20.020,37.598,32.227,8.789,0
1582311052.353,21.484,38.574,31.250,8.789,0
1582311052.357,24.414,38.086,30.273,6.836,0
1582311052.361,22.949,38.086,30.273,6.348,0
1582311052.365,20.020,38.574,30.273,6.348,0
1582311052.369,20.996,40.039,31.250,9.277,0
1582311052.373,22.949,40.039,33.203,8.789,0
1582311052.377,24.902,39.551,30.273,3.906,0
1582311052.380,17.578,37.598,27.832,0.000,0
1582311052.384,14.648,36.133,31.738,-2.441,0
1582311052.388,17.578,38.574,31.738,-3.418,0
1582311052.392,16.602,38.086,30.273,-1.465,0
1582311052.396,20.020,37.109,31.250,0.488,0
1582311052.397,18.555,37.598,30.273,1.465,0
1582311052.401,19.043,37.598,28.320,7.324,0
1582311052.405,26.367,39.062,30.273,19.043,0
1582311052.409,14.648,40.039,30.273,9.766,0
1582311052.413,-1.953,43.945,27.832,-9.277,0
1582311052.417,-5.371,42.969,25.391,-11.230,0
1582311052.421,0.977,42.969,25.391,-13.672,0
1582311052.424,0.000,41.992,27.344,-18.555,0
1582311052.428,-8.789,40.527,27.832,-19.043,0
1582311052.432,-6.348,44.434,27.344,-17.578,0
1582311052.436,-7.812,43.457,25.391,-22.461,0
1582311052.440,-4.395,43.457,24.414,-21.484,0
1582311052.442,3.418,42.969,26.855,-16.602,0
1582311052.446,6.348,42.480,27.832,-13.184,0
1582311052.450,10.742,42.969,27.344,-6.836,0
1582311052.454,11.719,39.062,29.297,0.000,0
1582311052.458,13.672,37.109,30.762,0.977,0
1582311052.462,14.648,38.574,28.809,-1.953,0
1582311052.466,16.113,35.645,27.344,-0.488,0
1582311052.469,24.414,34.180,27.344,1.465,0
1582311052.473,20.508,34.180,26.855,-1.465,0
1582311052.477,12.207,33.203,27.832,-1.465,0
1582311052.481,18.066,33.203,27.832,0.977,0
1582311052.485,16.602,34.668,24.902,-0.977,0
1582311052.487,8.301,34.668,23.438,-1.953,0
1582311052.491,15.137,34.180,24.902,2.441,0
1582311052.495,19.043,34.668,26.855,0.977,0
1582311052.499,18.066,36.621,29.297,1.465,0
1582311052.503,16.113,36.621,30.762,6.348,0
1582311052.507,13.672,34.668,31.250,3.418,0
1582311052.511,17.090,36.621,30.273,3.906,0
1582311052.514,20.996,38.086,30.273,4.395,0
1582311052.518,26.855,38.574,30.762,4.395,0
1582311052.522,26.367,38.086,30.762,4.395,0
1582311052.526,21.973,38.574,31.250,6.348,0
1582311052.530,23.438,38.086,30.273,6.836,0
1582311052.532,22.461,35.645,29.297,3.906,0
1582311052.536,17.090,33.691,30.762,3.906,0
1582311052.540,18.066,34.668,30.762,5.371,0
1582311052.544,22.461,36.133,31.250,7.324,0
1582311052.548,19.043,34.180,30.273,8.789,0
1582311052.552,21.973,34.180,29.785,9.766,0
1582311052.556,28.809,37.109,32.227,10.254,0
1582311052.559,30.273,39.062,32.715,11.719,0
1582311052.563,18.555,37.109,33.203,5.859,0
1582311052.567,10.742,36.133,33.203,4.883,0
1582311052.571,15.137,37.109,31.250,10.742,0
1582311052.575,21.484,36.133,30.762,6.348,0
1582311052.577,27.832,32.715,28.809,-0.488,28190
1582311052.581,26.367,33.203,28.809,-0.977,0
1582311052.585,7.324,35.645,29.297,-7.324,0
1582311052.589,-4.395,33.203,28.809,-14.160,0
1582311052.593,0.488,33.691,26.855,-15.137,0
1582311052.597,1.953,36.133,24.902,-17.578,0
1582311052.601,5.371,35.645,26.367,-15.137,0
1582311052.604,0.000,34.668,27.344,-13.672,0
1582311052.608,-3.906,37.598,28.809,-12.695,0
1582311052.612,5.859,39.551,30.273,-6.836,0
1582311052.616,8.301,35.156,30.762,-4.395,0
1582311052.620,5.371,34.668,30.762,-5.859,0
1582311052.637,9.277,33.691,31.250,-0.977,0
1582311052.641,19.043,31.738,34.668,5.371,0
1582311052.645,22.949,35.156,33.691,6.836,0
1582311052.649,20.508,38.086,31.250,7.324,0
1582311052.653,21.484,37.109,30.273,10.742,0
1582311052.657,22.949,37.598,31.738,10.254,0
1582311052.661,19.043,35.645,30.273,6.348,0
1582311052.664,20.508,33.691,28.809,5.859,0
1582311052.668,23.438,35.156,30.762,7.812,0
1582311052.672,21.973,35.645,31.250,8.301,0
1582311052.676,24.902,37.109,34.180,10.254,0
1582311052.680,21.484,36.621,36.621,12.207,0
1582311052.682,18.066,36.621,35.645,16.113,0
1582311052.686,21.484,39.551,32.715,6.348,0
1582311052.690,21.973,39.062,32.227,-4.395,0
1582311052.694,18.066,35.645,32.227,-1.953,0
1582311052.698,15.625,37.109,32.715,-0.488,0
1582311052.702,15.625,37.109,31.738,1.465,0
1582311052.706,17.090,35.156,32.227,1.953,0
1582311052.709,21.973,36.133,34.668,4.395,0
1582311052.713,20.996,37.109,34.668,9.277,0
1582311052.717,16.113,37.598,32.715,11.230,0
1582311052.721,21.484,37.109,33.203,9.277,0
1582311052.725,26.367,38.086,38.086,13.184,0
1582311052.727,24.902,40.039,40.039,18.555,0
1582311052.731,25.879,39.551,37.598,21.484,0
1582311052.735,29.297,40.039,37.109,22.461,0
1582311052.739,28.809,39.062,37.598,21.973,0
1582311052.743,20.996,37.109,35.645,17.578,0
1582311052.747,16.113,36.621,35.156,14.648,0
1582311052.751,20.020,35.645,37.109,17.090,0
1582311052.754,20.996,33.691,38.086,17.090,0
1582311052.758,22.461,33.691,37.109,15.625,0
1582311052.762,20.996,36.621,35.645,13.672,0
1582311052.766,23.926,36.621,35.645,14.648,0
1582311052.770,26.367,37.109,35.156,17.578,0
1582311052.773,20.996,38.574,33.203,14.648,0
1582311052.777,19.043,37.598,32.227,10.742,0
1582311052.781,17.578,34.180,31.738,9.277,0
1582311052.785,23.438,33.691,32.227,17.578,0
1582311052.789,30.762,34.180,33.203,14.160,0
1582311052.793,32.715,32.227,35.645,9.277,0
1582311052.797,28.320,32.715,36.133,20.508,0
1582311052.800,19.531,34.668,35.645,15.625,0
1582311052.804,22.461,37.109,34.668,8.301,0
1582311052.808,27.344,38.574,33.691,11.230,0
1582311052.812,30.273,39.062,34.180,14.160,0
1582311052.816,34.180,40.039,35.156,19.043,0
1582311052.818,41.016,39.551,37.109,24.902,0
1582311052.822,42.969,38.574,38.086,29.785,0
1582311052.826,38.086,36.133,36.621,32.715,0
1582311052.830,39.062,36.621,38.086,33.691,0
1582311052.834,45.898,37.598,38.086,34.668,0
1582311052.838,54.199,35.156,36.621,40.039,0
1582311052.842,62.500,34.668,37.109,47.363,0
1582311052.845,62.988,35.645,39.551,57.617,0
1582311052.849,61.523,36.133,40.527,61.523,0
1582311052.853,70.312,35.156,39.062,60.059,0
1582311052.857,70.312,36.621,39.551,57.129,0
1582311052.861,62.500,38.574,39.062,54.199,0
1582311052.863,59.082,38.086,37.109,49.805,0
1582311052.867,54.199,38.574,36.133,43.945,0
1582311052.871,53.223,41.016,35.156,43.457,0
1582311052.875,52.734,42.480,36.621,42.969,0
1582311052.879,55.176,44.434,39.062,43.457,0
1582311052.883,60.547,45.410,37.109,44.434,0
1582311052.887,64.941,44.922,34.668,41.016,0
1582311052.890,54.688,44.434,36.133,40.039,0
1582311052.894,41.992,41.016,36.133,39.551,0
1582311052.898,42.969,38.086,35.645,35.156,0
1582311052.902,42.480,40.039,36.133,29.297,0
1582311052.906,42.480,40.527,36.621,32.715,0
1582311052.908,39.062,39.551,37.109,31.250,0
1582311052.912,36.621,39.551,34.180,24.902,0
1582311052.916,37.109,41.504,34.180,24.414,0
1582311052.920,32.715,41.016,33.691,26.855,0
1582311052.924,28.320,39.551,32.227,22.949,0
1582311052.928,30.273,37.598,32.715,18.066,0
1582311052.932,36.621,39.062,32.227,18.555,0
1582311052.935,33.691,40.039,33.203,17.090,0
1582311052.939,26.855,37.598,35.645,19.043,0
1582311052.943,26.367,35.645,37.109,21.973,0
1582311052.947,31.250,35.645,38.086,23.926,0
1582311052.951,31.738,38.574,39.062,20.508,0
1582311052.953,26.855,36.621,38.086,20.508,0
1582311052.957,25.391,33.691,37.109,20.996,0
1582311052.961,25.391,34.180,36.621,13.672,0
1582311052.965,22.949,33.691,36.133,11.719,0
1582311052.969,20.996,34.180,36.621,13.672,0
1582311052.973,22.461,35.645,37.598,12.207,0
1582311052.977,25.391,38.086,36.621,13.184,0
1582311052.980,31.250,39.551,35.156,10.254,0
1582311052.984,29.785,38.086,34.180,8.301,0
1582311052.988,24.902,37.109,33.691,18.555,0
1582311052.992,23.926,38.086,34.668,21.484,0
1582311052.996,23.438,39.062,34.668,18.066,0
1582311053.013,24.414,38.086,33.203,16.113,0
1582311053.017,25.879,37.109,33.203,15.625,0
1582311053.021,30.273,40.527,35.156,18.066,0
1582311053.025,26.367,41.504,33.691,17.578,0
1582311053.029,22.461,40.527,31.250,19.043,0
1582311053.033,26.855,39.062,33.691,24.414,0
1582311053.037,24.902,39.062,37.598,23.438,0
1582311053.040,28.809,38.574,37.109,21.484,0
1582311053.044,32.715,35.156,36.133,24.902,0
1582311053.048,23.438,38.086,36.133,22.461,0
1582311053.052,22.461,39.551,33.691,20.020,0
1582311053.056,28.809,40.039,32.715,19.043,0
1582311053.058,34.180,44.434,33.203,13.672,0
1582311053.062,44.434,45.410,32.227,9.766,0
1582311053.066,44.434,44.434,29.297,6.348,0
1582311053.070,35.156,42.969,29.297,6.348,0
1582311053.074,33.691,41.992,31.250,5.859,0
1582311053.078,35.156,43.457,30.762,2.441,0
1582311053.082,26.367,41.504,29.785,10.254,0
1582311053.085,15.625,38.086,29.785,22.461,0
1582311053.089,13.184,40.039,30.762,17.578,0
1582311053.093,17.090,42.480,32.227,13.184,0
1582311053.097,16.602,40.039,28.809,14.160,0
1582311053.101,10.742,41.992,27.832,8.301,0
1582311053.103,10.254,44.922,28.320,6.836,0
1582311053.107,12.695,46.387,26.367,5.859,0
1582311053.111,15.137,44.922,26.855,1.465,0
1582311053.115,9.766,42.969,26.855,-1.953,0
1582311053.119,3.418,44.434,29.785,-4.395,0
1582311053.123,0.488,46.875,31.738,-8.789,0
1582311053.127,-5.371,47.363,31.250,-17.578,0
1582311053.130,-11.719,47.852,30.762,-23.926,0
1582311053.134,-10.742,52.246,32.227,-20.020,0
1582311053.138,-15.625,54.688,35.156,-30.762,0
1582311053.142,-32.227,52.246,32.715,-48.340,0
1582311053.146,-32.227,51.758,31.738,-46.387,0
1582311053.148,-29.297,55.664,34.180,-43.457,0
1582311053.152,-42.969,58.105,36.621,-53.711,0
1582311053.156,-54.199,57.129,37.109,-66.895,0
1582311053.160,-67.383,58.594,34.180,-83.496,0
1582311053.164,-83.496,62.988,31.738,-96.191,0
1582311053.168,-84.961,63.965,31.250,-102.539,0
1582311053.172,-83.008,63.477,28.809,-105.469,0
1582311053.175,-90.332,62.988,30.762,-109.375,0
1582311053.179,-97.168,62.500,33.203,-116.699,0
1582311053.183,-95.215,62.012,34.668,-119.629,0
1582311053.187,-99.121,59.082,33.691,-122.559,0
1582311053.191,-101.074,62.988,28.809,-127.441,0
1582311053.193,-96.680,66.406,28.320,-121.582,0
1582311053.197,-96.191,63.965,32.227,-118.164,0
1582311053.201,-101.074,62.012,32.715,-125.000,0
1582311053.205,-99.121,62.012,32.227,-122.070,0
1582311053.209,-91.797,62.012,35.156,-117.188,0
1582311053.213,-84.961,61.523,35.645,-116.211,0
1582311053.217,-84.473,62.500,33.691,-111.816,0
1582311053.220,-81.055,64.941,32.227,-104.492,0
1582311053.224,-73.730,62.988,32.715,-98.633,0
1582311053.228,-74.219,57.617,32.227,-96.680,0
1582311053.232,-66.895,56.152,33.203,-85.938,0
1582311053.236,-56.152,55.176,35.156,-78.125,0
1582311053.238,-44.434,53.711,33.203,-76.660,0
1582311053.242,-39.062,53.223,31.250,-68.848,0
1582311053.246,-43.945,52.734,33.203,-62.500,0
1582311053.250,-36.133,48.828,34.668,-54.688,0
1582311053.254,-22.461,45.410,34.668,-44.434,0
1582311053.258,-12.207,45.410,34.180,-36.621,0
1582311053.262,-3.906,44.434,36.133,-29.297,0
1582311053.265,3.418,44.922,34.668,-18.555,0
1582311053.269,15.137,43.457,34.180,-8.301,0
1582311053.273,23.926,39.062,36.133,1.953,0
1582311053.277,28.320,39.062,35.156,14.648,0
1582311053.281,38.086,38.086,34.180,26.855,0
1582311053.283,53.711,37.598,32.715,33.203,0
1582311053.287,54.199,39.062,31.250,36.621,0
1582311053.291,49.805,38.574,36.133,43.457,0
1582311053.295,58.594,36.133,38.086,48.340,0
1582311053.299,75.684,37.109,35.156,49.316,0
1582311053.303,77.148,39.062,35.645,50.781,0
1582311053.307,74.219,38.574,37.598,54.688,0
1582311053.310,78.613,37.598,38.086,58.105,0
1582311053.314,71.289,33.203,37.109,61.523,0
1582311053.318,66.406,30.762,37.598,64.453,0
1582311053.322,64.453,30.762,36.133,66.895,0
1582311053.326,70.801,31.250,33.203,67.871,0
1582311053.328,78.125,30.762,33.691,63.477,0
1582311053.332,72.266,27.832,34.180,59.570,0
1582311053.336,70.801,27.344,35.156,59.082,0
1582311053.340,68.359,29.297,35.156,58.594,0
1582311053.344,66.406,28.809,34.668,60.059,0
1582311053.348,73.730,28.320,36.133,63.965,0
1582311053.352,78.125,31.250,35.156,64.941,0
1582311053.355,76.172,29.785,33.691,62.500,0
1582311053.359,75.195,27.344,34.668,62.012,0
1582311053.363,72.754,27.344,34.180,66.406,0
1582311053.367,69.336,26.855,31.738,64.453,0
1582311053.371,67.383,27.832,31.250,62.988,0
1582311053.388,67.871,26.855,31.250,66.406,0
1582311053.392,71.777,26.855,32.227,67.871,0
1582311053.396,74.707,29.297,32.715,65.430,0
1582311053.400,71.777,28.809,31.738,63.477,0
1582311053.404,69.336,26.855,33.203,63.477,0
1582311053.408,72.266,26.367,34.668,62.988,0
1582311053.412,71.777,26.367,34.668,61.035,0
1582311053.415,62.988,27.344,34.180,59.570,0
1582311053.419,54.688,24.902,33.691,54.199,0
1582311053.423,59.082,25.879,34.180,53.223,0
1582311053.427,62.500,28.320,33.203,54.199,0
1582311053.431,58.594,29.297,31.738,56.641,0
1582311053.433,54.199,31.250,29.297,58.105,0
1582311053.437,53.223,29.297,28.320,49.805,0
1582311053.441,52.734,26.367,28.809,47.852,0
1582311053.445,51.758,26.367,29.785,47.363,0
1582311053.449,51.270,29.297,31.250,44.922,0
1582311053.453,52.734,31.738,31.250,48.828,0
1582311053.457,55.176,31.738,32.227,46.875,0
1582311053.460,46.387,32.227,31.738,41.504,0
1582311053.464,49.805,32.715,30.273,41.504,0
1582311053.468,61.035,35.645,30.762,44.434,0
1582311053.472,52.246,34.180,30.762,44.922,0
1582311053.476,45.410,30.762,31.250,41.504,0
1582311053.477,44.922,31.738,33.203,42.480,0
1582311053.481,44.922,35.156,32.227,42.969,0
1582311053.485,44.922,36.133,29.785,40.527,0
1582311053.489,44.922,34.668,28.809,40.039,0
1582311053.493,40.527,34.668,29.297,40.527,0
1582311053.497,40.039,33.691,30.762,42.969,0
1582311053.501,45.898,33.203,33.203,41.992,0
1582311053.504,44.922,34.668,32.715,35.645,0
1582311053.508,43.457,35.156,32.227,39.062,0
1582311053.512,42.969,36.133,33.691,41.992,0
1582311053.516,40.527,32.227,33.203,38.574,0
1582311053.520,45.898,33.203,33.203,29.785,0
1582311053.537,46.387,35.645,30.273,21.973,0
1582311053.541,38.086,34.668,31.738,25.879,0
1582311053.545,33.691,36.133,35.156,33.203,0
1582311053.549,30.273,36.133,33.691,27.832,0
1582311053.553,31.738,36.133,33.691,29.297,0
1582311053.557,36.621,35.645,36.133,30.762,0
1582311053.561,32.715,33.203,35.156,23.926,0
1582311053.564,28.320,33.203,35.645,28.809,0
1582311053.568,29.785,35.156,35.156,26.367,0
1582311053.572,32.715,34.668,30.762,20.508,0
1582311053.576,35.156,37.109,32.227,22.461,0
1582311053.580,34.668,38.086,34.180,24.414,0
1582311053.567,33.203,35.645,34.180,22.461,0
1582311053.571,36.621,34.668,34.180,20.508,0
1582311053.575,40.039,34.668,33.203,19.531,0
1582311053.579,29.297,36.621,32.715,21.484,0
1582311053.583,23.926,37.598,30.273,24.902,0
1582311053.587,27.344,36.621,26.855,21.484,0
1582311053.591,34.668,35.156,28.320,16.113,0
1582311053.594,31.250,36.621,30.762,19.531,0
1582311053.598,25.391,38.086,28.320,20.996,0
1582311053.602,34.180,37.109,28.809,18.066,0
1582311053.606,35.156,37.109,31.250,16.113,0
1582311053.610,30.762,40.039,31.738,18.066,0
1582311053.612,27.832,40.039,31.738,19.531,0
1582311053.616,27.832,38.086,32.227,17.578,0
1582311053.620,29.785,36.621,34.180,18.066,0
1582311053.624,31.250,36.133,37.109,20.020,0
1582311053.628,35.645,36.621,34.180,17.578,0
1582311053.632,26.855,34.180,32.227,17.090,0
1582311053.636,22.461,34.180,32.715,16.602,0
1582311053.639,21.484,35.156,32.227,9.766,0
1582311053.643,22.949,35.156,32.227,13.672,0
1582311053.647,26.367,36.621,30.762,18.066,0
1582311053.651,29.785,37.598,29.297,17.090,0
1582311053.655,31.250,36.621,30.273,16.113,21560
1582311053.657,26.367,36.621,33.203,17.578,0
1582311053.661,23.926,37.598,35.156,17.578,0
1582311053.665,24.414,36.133,32.715,17.090,0
1582311053.669,20.996,35.156,31.738,15.625,0
1582311053.673,23.438,36.133,30.762,14.648,0
1582311053.677,21.973,37.598,31.250,17.090,0
1582311053.681,25.879,38.574,32.715,16.602,0
1582311053.684,31.250,37.598,29.297,12.207,0
1582311053.688,16.602,36.133,28.809,10.254,0
1582311053.692,16.602,35.156,30.762,10.742,0
1582311053.696,21.484,35.156,30.273,9.277,0
1582311053.700,20.508,34.668,29.297,9.277,0
1582311053.702,26.367,35.156,28.809,9.766,0
1582311053.706,26.855,35.156,32.227,12.695,0
1582311053.710,18.555,34.668,35.156,11.719,0
1582311053.714,17.578,34.668,31.738,8.789,0
1582311053.718,24.414,34.668,31.738,7.324,0
1582311053.722,24.414,35.645,33.691,12.695,0
1582311053.726,18.555,34.668,33.691,14.648,0
1582311053.729,19.043,34.180,35.156,9.766,0
1582311053.733,21.484,33.203,35.156,9.766,0
1582311053.737,20.508,33.203,34.668,14.648,0
1582311053.741,18.066,35.156,32.227,16.113,0
1582311053.745,19.531,35.156,30.762,7.324,0
1582311053.762,24.902,37.109,32.715,4.883,0
1582311053.766,22.949,36.133,33.203,11.230,0
1582311053.770,20.020,35.156,33.691,9.766,0
1582311053.774,32.715,34.180,35.156,8.301,0
1582311053.778,27.344,33.203,34.668,6.348,0
1582311053.782,12.207,34.668,34.180,6.836,0
1582311053.786,11.230,35.645,34.180,8.789,0
1582311053.789,11.230,35.156,34.180,7.812,0
1582311053.793,14.648,37.109,33.691,6.348,0
1582311053.797,20.508,38.574,33.203,3.906,0
1582311053.801,25.879,37.109,32.227,4.883,0
1582311053.805,20.020,37.598,33.203,8.301,0
1582311053.807,14.648,39.062,35.645,9.277,0
1582311053.811,12.207,38.086,36.133,10.254,0
1582311053.815,16.602,39.062,33.203,9.277,0
1582311053.819,27.344,38.086,30.273,8.301,0
1582311053.823,27.832,36.133,32.227,8.789,0
1582311053.827,24.902,38.086,33.203,10.254,0
1582311053.831,20.996,38.086,31.738,6.348,0
1582311053.834,23.438,37.109,31.250,4.883,0
1582311053.838,29.297,39.551,31.250,8.301,0
1582311053.842,28.320,40.039,31.738,10.742,0
1582311053.846,26.367,37.109,30.273,9.766,0
1582311053.850,20.508,38.086,30.273,8.789,0
1582311053.852,18.555,39.551,30.273,11.230,0
1582311053.856,19.531,38.086,31.738,8.301,0
1582311053.860,23.438,37.598,31.738,10.254,0
1582311053.864,26.855,39.062,29.785,9.277,0
1582311053.868,28.809,40.039,31.738,10.254,0
1582311053.872,29.785,38.574,33.691,13.672,0
1582311053.876,20.996,34.668,34.180,10.742,0
1582311053.879,15.625,35.645,33.203,9.766,0
1582311053.883,19.531,36.133,33.691,9.766,0
1582311053.887,24.902,32.715,35.156,8.301,0
1582311053.891,22.949,31.250,35.156,3.418,0
1582311053.895,20.508,33.203,35.156,2.930,0
1582311053.898,18.066,32.715,34.668,10.254,0
1582311053.902,19.531,35.156,33.203,11.719,0
1582311053.906,21.973,37.598,33.203,6.836,0
1582311053.910,22.949,35.156,33.203,4.395,0
1582311053.914,25.391,33.691,32.227,7.324,0
1582311053.918,21.484,34.180,30.762,6.836,0
1582311053.922,15.625,33.203,31.250,3.906,0
1582311053.925,16.113,30.762,30.762,10.254,0
1582311053.929,26.855,31.250,27.832,15.625,0
1582311053.933,28.809,35.645,27.832,9.766,0
1582311053.937,20.996,40.039,28.320,3.906,0
1582311053.941,24.414,42.969,29.297,5.371,0
1582311053.943,26.855,41.992,32.715,5.859,0
1582311053.947,25.391,39.551,32.227,5.371,0
1582311053.951,22.461,40.527,31.250,5.859,0
1582311053.955,18.555,40.039,32.227,6.348,0
1582311053.959,24.902,36.133,32.227,7.812,0
1582311053.963,34.180,33.203,32.715,12.207,0
1582311053.967,28.809,32.715,34.668,14.160,0
1582311053.970,28.809,34.668,35.156,11.719,0
1582311053.974,41.016,35.156,34.180,10.742,0
1582311053.978,37.109,31.738,31.250,9.766,0
1582311053.982,26.855,28.809,29.297,8.301,0
1582311053.986,27.832,31.738,31.250,6.836,0
1582311053.988,29.785,35.156,32.715,11.719,0
1582311053.992,26.855,34.668,32.227,15.625,0
1582311053.996,23.438,34.180,31.738,13.672,0
1582311054.000,29.785,36.621,31.738,8.301,0
1582311054.004,31.738,37.109,33.691,9.277,0
1582311054.008,22.461,34.668,33.203,10.742,0
1582311054.012,22.949,33.203,33.203,8.301,0
1582311054.015,25.391,33.203,31.250,9.277,0
1582311054.019,31.250,33.691,30.762,8.301,0
1582311054.023,41.016,33.691,32.715,6.836,0
1582311054.027,27.832,37.598,32.227,10.254,0
1582311054.031,21.973,39.551,34.180,15.137,0
1582311054.033,26.855,38.086,34.180,14.160,0
1582311054.037,34.180,38.574,32.715,12.695,0
1582311054.041,32.227,38.086,30.762,11.719,0
1582311054.045,26.855,37.598,31.738,11.230,0
1582311054.049,29.297,39.551,33.203,13.184,0
1582311054.053,25.879,41.504,32.227,13.184,0
1582311054.057,26.367,41.016,32.715,15.625,0
1582311054.060,24.414,41.016,31.250,12.695,0
1582311054.064,21.484,41.992,30.762,11.719,0
1582311054.068,20.508,41.992,32.715,15.625,0
1582311054.072,20.020,40.039,33.203,16.113,0
1582311054.076,23.438,38.574,35.156,16.602,0
1582311054.078,24.414,39.551,34.668,11.719,0
1582311054.082,24.414,36.621,33.691,10.742,0
1582311054.086,20.996,35.156,32.715,12.695,0
1582311054.090,19.043,35.645,31.738,8.789,0
1582311054.094,16.602,33.691,33.203,9.766,0
1582311054.098,17.090,34.668,32.227,9.766,0
1582311054.102,26.367,37.598,33.203,4.395,0
1582311054.105,29.297,38.574,36.133,4.883,0
1582311054.109,22.949,33.691,35.156,5.371,0
1582311054.113,19.531,32.715,32.227,2.930,0
1582311054.117,22.461,35.645,31.250,9.766,0
1582311054.121,19.531,34.668,31.250,12.207,0
1582311054.138,19.043,33.691,31.250,8.789,0
1582311054.142,27.344,34.668,30.273,13.184,0
1582311054.146,33.203,34.668,29.785,14.648,0
1582311054.150,31.250,36.133,30.762,15.137,0
1582311054.154,31.250,38.574,32.715,19.531,0
1582311054.158,35.645,40.039,33.203,23.438,0
1582311054.162,36.133,42.480,33.691,16.113,0
1582311054.165,32.715,42.969,35.156,11.719,0
1582311054.169,25.391,42.969,34.180,13.184,0
1582311054.173,21.484,42.969,33.691,11.719,0
1582311054.177,23.926,42.480,32.715,10.742,0
1582311054.181,21.973,42.969,30.762,6.836,0
1582311054.183,19.043,42.969,31.250,3.906,0
1582311054.187,18.555,41.504,32.227,1.465,0
1582311054.191,10.742,40.527,32.227,0.000,0
1582311054.195,2.930,37.109,31.738,-1.953,0
1582311054.199,0.977,36.133,31.250,-2.441,0
1582311054.203,-3.418,36.133,30.762,-5.859,0
1582311054.207,-4.395,38.574,29.785,-7.812,0
1582311054.210,-1.953,40.527,30.762,-7.812,0
1582311054.214,-8.301,42.480,29.297,-18.066,0
1582311054.218,-17.090,45.898,29.297,-22.949,0
1582311054.222,-17.578,48.340,34.180,-20.996,0
1582311054.226,-26.367,48.828,34.668,-30.273,0
1582311054.228,-28.809,48.828,38.086,-35.156,0
1582311054.232,-26.855,49.316,37.109,-35.156,0
1582311054.236,-30.762,53.223,33.691,-38.086,0
1582311054.240,-43.945,56.152,34.668,-46.875,0
1582311054.244,-57.129,58.105,33.691,-64.453,0
1582311054.248,-59.570,62.988,31.738,-75.684,0
1582311054.252,-62.500,62.988,30.273,-82.520,0
1582311054.255,-67.383,65.430,26.367,-100.586,0
1582311054.259,-60.059,70.801,26.855,-116.211,0
1582311054.263,-67.383,73.730,25.391,-120.117,0
1582311054.267,-84.961,74.707,19.043,-131.836,0
1582311054.271,-85.449,78.125,19.531,-138.672,0
1582311054.273,-97.656,79.590,20.508,-145.996,0
1582311054.277,-118.164,77.637,18.555,-152.832,0
1582311054.281,-129.883,75.684,16.602,-154.297,0
1582311054.285,-139.648,72.754,16.602,-159.668,0
1582311054.289,-136.719,74.707,16.113,-165.039,0
1582311054.293,-133.301,76.172,16.113,-166.504,0
1582311054.297,-141.602,74.219,15.137,-167.969,0
1582311054.300,-137.207,73.730,14.160,-170.410,0
1582311054.304,-133.789,71.289,14.160,-169.922,0
1582311054.308,-131.348,70.312,13.184,-169.434,0
1582311054.312,-127.441,70.801,11.230,-169.434,0
1582311054.316,-125.977,70.801,13.672,-162.109,0
1582311054.318,-127.930,70.801,14.160,-158.203,0
1582311054.322,-116.211,71.777,10.254,-158.203,0
1582311054.326,-108.398,71.777,8.789,-152.344,0
1582311054.330,-110.352,68.848,10.742,-145.508,0
1582311054.334,-101.074,68.359,11.230,-136.719,0
1582311054.338,-100.586,66.895,12.695,-139.160,0
1582311054.342,-102.051,65.430,14.160,-137.207,0
1582311054.345,-99.121,65.430,15.625,-129.395,0
1582311054.349,-88.379,65.430,19.531,-121.582,0
1582311054.353,-81.543,60.059,21.484,-119.141,0
1582311054.357,-83.984,54.688,24.414,-118.164,0
1582311054.361,-87.402,55.176,24.902,-109.375,0
1582311054.363,-80.566,53.711,23.926,-105.469,0
1582311054.367,-68.848,51.758,25.391,-100.586,0
1582311054.371,-66.895,51.270,25.879,-94.238,0
1582311054.375,-65.430,50.293,27.344,-89.844,0
1582311054.379,-58.105,48.828,29.297,-82.031,0
1582311054.383,-50.781,49.316,30.762,-73.242,0
1582311054.387,-45.410,47.363,30.273,-66.406,0
1582311054.390,-41.504,41.504,29.785,-58.105,0
1582311054.394,-30.273,41.504,29.297,-50.781,0
1582311054.398,-20.508,39.551,29.297,-36.133,0
1582311054.402,-14.648,35.156,32.227,-18.066,0
1582311054.406,-2.441,36.133,33.691,-8.789,0
1582311054.408,11.230,33.691,37.109,1.953,0
1582311054.412,20.020,27.832,41.016,18.555,0
1582311054.416,33.691,27.832,41.992,27.344,0
1582311054.420,49.316,24.414,39.551,41.992,0
1582311054.424,61.035,19.531,40.527,60.059,0
1582311054.428,81.055,19.531,41.504,69.336,0
1582311054.432,86.426,17.090,41.504,71.777,0
1582311054.435,80.078,15.625,42.969,80.078,0
1582311054.439,84.473,14.648,43.457,93.262,0
1582311054.443,98.633,11.719,42.480,104.492,0
1582311054.447,119.629,10.742,43.945,116.699,0
1582311054.451,123.047,11.230,44.922,126.953,0
1582311054.453,120.605,10.742,41.992,128.906,0
1582311054.457,124.512,9.766,41.504,127.441,0
1582311054.461,128.418,10.742,43.457,131.348,0
1582311054.465,132.324,10.742,46.387,135.742,0
1582311054.469,136.230,8.301,45.898,137.207,0
1582311054.473,134.766,7.812,43.945,139.160,0
1582311054.477,135.254,9.766,43.945,139.648,0
1582311054.480,140.137,10.742,41.016,135.742,0
1582311054.484,137.695,9.277,40.039,130.859,0
1582311054.488,129.883,8.301,41.992,133.301,0
1582311054.492,125.488,10.742,40.039,131.836,0
1582311054.496,128.906,12.695,38.574,129.395,0
1582311054.513,131.348,13.184,41.504,129.883,0
1582311054.517,130.371,11.230,41.992,128.906,0
1582311054.521,122.070,9.277,37.598,127.441,0
1582311054.525,124.023,9.766,35.645,124.023,0
1582311054.529,128.418,10.742,36.133,119.629,0
1582311054.533,125.977,10.742,37.109,116.699,0
1582311054.537,125.000,13.672,37.598,116.211,0
1582311054.540,109.375,15.625,36.133,115.234,0
1582311054.544,103.516,17.090,34.180,110.840,0
1582311054.548,103.516,15.625,34.180,98.633,0
1582311054.552,101.562,15.137,35.645,99.609,0
1582311054.556,108.887,18.066,38.574,102.539,0
1582311054.558,104.004,17.578,38.086,95.703,0
1582311054.562,87.402,16.602,36.621,89.355,0
1582311054.566,82.520,17.090,36.133,82.520,0
1582311054.570,80.566,16.602,32.715,79.590,0
1582311054.574,81.543,18.555,32.227,83.008,0
1582311054.578,88.379,22.461,33.203,80.078,0
1582311054.582,82.520,24.902,31.738,77.637,0
1582311054.585,80.078,22.949,32.715,81.055,0
1582311054.589,83.984,20.996,35.645,80.566,0
1582311054.593,80.566,24.902,36.133,80.078,0
1582311054.597,78.613,26.367,35.156,79.590,0
1582311054.601,80.078,24.414,34.668,77.637,0
1582311054.603,79.102,22.949,33.203,76.172,0
1582311054.607,81.055,20.996,33.203,74.707,0
1582311054.611,72.266,23.926,34.180,73.242,0
1582311054.615,62.500,26.367,34.180,69.336,0
1582311054.619,60.059,26.855,31.738,63.965,0
1582311054.623,58.105,24.902,31.738,61.523,0
1582311054.627,57.617,23.438,32.227,59.570,0
1582311054.630,59.082,25.879,27.832,54.688,0
1582311054.634,62.988,29.297,29.297,53.223,0
1582311054.638,58.594,31.250,30.762,49.316,0
1582311054.642,52.246,28.809,30.762,41.504,0
1582311054.646,52.246,30.762,32.715,42.969,0
1582311054.647,56.152,32.227,30.762,46.875,0
1582311054.651,56.641,31.250,31.250,44.434,0
1582311054.655,54.199,31.250,33.203,41.016,0
1582311054.659,49.805,30.762,33.691,41.016,0
1582311054.663,45.410,32.715,33.691,40.039,0
1582311054.667,45.410,34.180,31.250,35.645,0
1582311054.671,45.898,34.668,29.297,29.297,0
1582311054.674,40.039,31.250,26.855,29.785,0
1582311054.678,43.457,32.227,28.320,36.133,0
1582311054.682,50.781,34.668,31.250,37.598,0
1582311054.686,49.316,32.227,31.250,37.109,0
1582311054.690,51.758,32.715,32.715,35.156,0
1582311054.692,48.828,31.250,31.738,33.203,0
1582311054.696,49.805,30.762,32.715,37.109,0
1582311054.700,45.898,30.762,33.691,31.738,0
1582311054.704,37.109,28.809,31.738,29.297,0
1582311054.708,36.133,28.809,32.227,32.227,0
1582311054.712,34.180,28.809,33.203,27.344,0
1582311054.716,30.762,28.809,32.715,25.391,0
1582311054.719,30.762,29.297,30.762,26.367,0
1582311054.723,34.180,28.809,29.297,21.484,0
1582311054.727,35.156,28.320,30.273,16.602,0
1582311054.731,33.691,29.297,32.227,15.625,0
1582311054.735,31.250,30.762,31.738,15.137,0
1582311054.737,26.367,30.273,31.250,19.043,0
1582311054.741,18.066,30.273,31.250,17.090,0
1582311054.745,22.461,32.227,31.250,13.672,0
1582311054.749,32.715,34.180,32.227,17.090,0
1582311054.753,30.762,30.273,34.180,17.090,0
1582311054.757,25.391,29.785,33.691,14.648,0
1582311054.761,30.762,32.227,30.762,15.137,0
1582311054.764,25.879,30.762,30.273,14.648,0
1582311054.768,18.066,29.785,31.250,9.277,0
1582311054.772,27.832,29.785,31.250,13.184,0
1582311054.776,31.738,31.738,30.273,23.438,0
1582311054.780,27.832,32.715,31.250,20.508,0
1582311054.782,28.320,32.715,34.180,19.531,0
1582311054.786,33.691,35.156,35.156,26.367,0
1582311054.790,34.180,34.180,33.691,27.832,0
1582311054.794,32.227,36.133,36.133,29.297,0
1582311054.798,36.621,38.086,37.598,29.297,0
1582311054.802,41.992,36.621,38.574,28.809,0
1582311054.806,44.922,37.598,37.598,29.785,0
1582311054.809,36.133,38.086,33.691,24.414,0
1582311054.813,27.832,34.180,34.668,20.996,0
1582311054.817,26.367,33.691,35.156,20.020,0
1582311054.821,23.926,34.668,32.715,20.020,0
1582311054.825,22.461,34.180,34.180,20.508,0
1582311054.827,26.855,33.203,36.133,17.578,0
1582311054.831,27.832,31.738,37.109,16.602,0
1582311054.835,22.461,33.691,36.621,17.578,0
1582311054.839,18.555,36.621,33.691,13.184,0
1582311054.843,22.461,36.621,33.691,12.207,25629
1582311054.847,22.949,34.180,36.133,17.090,0
1582311054.851,13.672,38.574,33.203,9.277,0
1582311054.854,18.555,34.668,31.738,5.371,0
1582311054.858,20.996,34.668,32.715,8.789,0
1582311054.862,14.648,39.551,30.273,7.324,0
1582311054.866,6.348,36.133,29.297,4.883,0
1582311054.870,7.812,33.691,29.297,9.277,0
1582311054.872,17.578,30.762,30.762,-2.441,0
1582311054.876,17.578,29.785,32.715,2.930,0
1582311054.880,16.602,31.738,32.227,14.160,0
1582311054.884,15.625,34.668,29.785,10.254,0
1582311054.888,17.578,32.227,31.738,24.414,0
1582311054.892,23.926,33.691,31.250,8.301,0
1582311054.896,30.273,33.203,31.738,-4.395,0
1582311054.899,26.855,32.715,33.691,4.883,0
1582311054.903,18.066,32.227,30.762,7.812,0
1582311054.907,16.602,29.297,30.762,30.273,0
1582311054.911,20.508,28.809,31.250,23.438,0
1582311054.915,26.367,31.738,29.297,16.602,0
1582311054.932,29.785,33.203,29.785,34.668,0
1582311054.936,23.926,31.738,30.273,28.809,0
1582311054.940,27.832,35.156,29.297,31.250,0
1582311054.944,33.691,34.668,30.762,27.832,0
1582311054.948,29.785,32.715,29.785,25.391,0
1582311054.952,30.273,33.203,27.832,22.461,0
1582311054.956,24.902,34.668,28.809,14.648,0
1582311054.959,18.555,35.156,29.785,13.184,0
1582311054.963,15.137,34.668,30.273,9.766,0
1582311054.967,16.113,37.598,30.273,14.160,0
1582311054.971,22.949,39.062,27.344,-19.531,0
1582311054.975,21.973,34.180,28.320,-15.137,0
1582311054.977,18.066,37.109,29.785,39.062,0
1582311054.981,20.020,39.551,30.273,27.344,0
1582311054.985,29.785,35.645,29.785,22.949,0
1582311054.989,35.156,34.180,28.809,28.320,0
1582311054.993,31.250,36.133,26.855,23.926,0
1582311054.997,35.156,35.645,26.367,20.020,0
1582311055.001,34.180,34.180,27.344,15.625,0
1582311055.004,23.438,37.109,27.344,6.836,0
1582311055.008,27.344,39.551,25.391,8.789,0
1582311055.012,31.738,40.527,28.809,19.531,0
1582311055.016,33.691,41.504,28.320,12.695,0
1582311055.020,36.621,43.945,23.438,6.836,0
1582311055.022,30.762,41.016,24.414,23.438,0
1582311055.026,25.391,37.109,23.438,17.090,0
1582311055.030,22.461,37.598,22.461,17.578,0
1582311055.034,22.949,36.621,24.902,11.230,0
1582311055.038,25.879,37.598,25.879,-1.465,0
1582311055.042,16.602,38.086,23.438,-6.836,0
1582311055.046,20.020,35.156,21.484,0.000,0
1582311055.049,26.855,32.715,23.438,12.207,0
1582311055.053,25.879,35.156,24.902,-12.207,0
1582311055.057,21.973,37.598,29.297,-9.277,0
1582311055.061,24.414,36.621,27.832,6.348,0
1582311055.065,23.926,38.574,19.043,-20.508,0
1582311055.068,13.184,37.598,20.020,-5.371,0
1582311055.072,16.602,32.227,25.391,15.137,0
1582311055.076,24.414,32.227,26.367,12.695,0
1582311055.080,21.484,34.180,24.902,10.742,0
1582311055.084,19.043,36.621,24.902,1.953,0
1582311055.088,28.809,36.621,23.926,10.254,0
1582311055.092,34.668,36.133,26.855,26.855,0
1582311055.095,36.133,41.016,27.832,26.855,0
1582311055.099,29.297,37.598,29.297,10.254,0
1582311055.103,23.438,29.785,34.668,6.348,0
1582311055.107,27.832,30.762,33.203,5.859,0
1582311055.111,29.785,31.250,30.273,6.348,0
1582311055.113,27.832,32.227,40.039,-1.465,0
1582311055.117,16.113,34.668,47.852,-9.766,0
1582311055.121,16.113,33.203,34.180,14.648,0
1582311055.125,36.133,30.762,30.273,43.457,0
1582311055.129,28.809,35.156,32.715,19.043,0
1582311055.133,21.484,33.691,31.738,-9.277,0
1582311055.137,29.297,31.738,32.715,24.902,0
1582311055.140,32.227,37.109,34.668,22.949,0
1582311055.144,25.879,36.133,35.156,-3.906,0
1582311055.148,25.879,33.691,37.109,24.414,0
1582311055.152,30.762,35.156,33.691,4.883,0
1582311055.156,9.277,32.227,36.621,-14.648,0
1582311055.158,8.301,26.367,44.922,14.648,0
