timestamps,TP9,AF7,AF8,TP10,Marker0
1582145112.061,-59.082,1.953,-972.168,-1.953,0
1582145112.065,-48.340,2.930,-972.168,8.301,0
1582145112.069,-47.852,0.977,-972.168,-8.789,0
1582145112.073,-59.082,0.977,-972.168,-20.996,0
1582145112.077,-60.547,-3.906,-972.168,-0.488,0
1582145112.081,-50.781,-13.184,-972.168,4.883,0
1582145112.085,-45.410,-16.113,-972.168,8.789,0
1582145112.088,-59.082,-7.812,-972.168,-7.812,0
1582145112.092,-64.453,0.488,-972.168,-20.020,0
1582145112.096,-53.711,3.906,-972.168,0.000,0
1582145112.100,-47.363,2.441,-972.168,2.441,0
1582145112.104,-51.270,-2.441,-972.168,1.465,0
1582145112.106,-58.594,-4.395,-972.168,-13.672,0
1582145112.110,-61.035,-1.465,-972.168,-14.160,0
1582145112.114,-57.617,-3.906,-972.168,3.418,0
1582145112.118,-60.059,-8.301,-972.168,-6.348,0
1582145112.122,-62.988,-3.906,-972.168,-4.395,0
1582145112.126,-61.035,-6.348,-972.168,-7.812,0
1582145112.130,-56.641,-16.113,-972.168,-11.719,0
1582145112.133,-57.617,-13.672,-972.168,1.953,0
1582145112.137,-58.105,-8.789,-972.168,2.930,0
1582145112.141,-57.129,-8.301,-972.168,-2.441,0
1582145112.145,-46.387,-5.859,-972.168,-15.137,0
1582145112.149,-37.598,-2.930,-972.168,-17.090,0
1582145112.151,-35.645,3.418,-972.168,3.418,0
1582145112.155,-20.996,11.719,-972.168,24.414,0
1582145112.159,-23.438,-0.488,-972.168,21.484,0
1582145112.163,-64.453,-9.766,-972.168,-30.273,0
1582145112.167,-101.562,-12.695,-972.168,-66.895,0
1582145112.171,-133.301,-24.414,-972.168,-72.754,0
1582145112.175,-156.738,-28.809,-972.168,-101.562,0
1582145112.178,-166.016,-50.781,-972.168,-113.770,0
1582145112.182,-192.871,-66.895,-972.168,-139.648,0
1582145112.186,-239.258,-55.664,-972.168,-183.105,0
1582145112.190,-256.348,-45.898,-972.168,-181.152,0
1582145112.194,-268.066,-52.734,-972.168,-189.941,0
1582145112.211,-301.758,-69.824,-972.168,-223.633,0
1582145112.215,-319.824,-68.848,-972.168,-246.582,0
1582145112.219,-302.246,-61.523,-972.168,-236.816,0
1582145112.223,-271.973,-63.965,-972.168,-193.848,0
1582145112.227,-252.930,-67.383,-972.168,-173.828,0
1582145112.231,-252.441,-71.289,-972.168,-169.922,0
1582145112.235,-248.047,-71.777,-972.168,-169.434,0
1582145112.238,-225.098,-69.824,-972.168,-151.855,0
1582145112.242,-197.754,-58.594,-972.168,-119.141,0
1582145112.246,-181.641,-39.551,-972.168,-114.746,0
1582145112.250,-175.293,-34.180,-972.168,-109.863,0
1582145112.254,-161.621,-34.180,-972.168,-102.539,0
1582145112.256,-149.902,-30.273,-972.168,-89.355,0
1582145112.260,-147.461,-32.715,-972.168,-76.172,0
1582145112.264,-147.949,-34.180,-972.168,-77.637,0
1582145112.268,-139.160,-31.250,-972.168,-69.824,0
1582145112.272,-123.047,-38.574,-972.168,-67.871,0
1582145112.276,-112.793,-45.898,-972.168,-59.082,0
1582145112.280,-118.164,-37.109,-972.168,-48.340,0
1582145112.283,-116.699,-26.855,-972.168,-44.434,0
1582145112.287,-100.098,-16.602,-972.168,-23.926,0
1582145112.291,-85.938,-10.254,-972.168,-38.574,0
1582145112.295,-86.426,-13.184,-972.168,-45.410,0
1582145112.299,-91.797,-18.555,-972.168,-22.461,0
1582145112.301,-87.402,-26.367,-972.168,-16.602,0
1582145112.305,-78.613,-29.297,-972.168,-10.742,0
1582145112.309,-78.125,-25.391,-972.168,-27.344,0
1582145112.313,-87.402,-16.602,-972.168,-38.574,0
1582145112.317,-89.355,-10.254,-972.168,-9.277,0
1582145112.321,-78.613,-10.254,-972.168,3.906,0
1582145112.325,-73.242,-5.371,-972.168,9.766,0
1582145112.328,-81.543,-4.883,-972.168,-5.371,0
1582145112.332,-79.590,-11.719,-972.168,-9.277,0
1582145112.336,-64.453,-13.184,-972.168,20.020,0
1582145112.340,-55.176,-19.043,-972.168,21.484,0
1582145112.344,-61.523,-16.113,-972.168,14.160,0
1582145112.346,-60.547,-6.836,-972.168,2.441,0
1582145112.350,-51.758,-10.254,-972.168,6.348,0
1582145112.354,-46.387,-5.859,-972.168,20.020,0
1582145112.358,-48.340,0.488,-972.168,18.066,0
1582145112.362,-49.805,-10.254,-972.168,31.738,0
1582145112.366,-42.480,-18.555,-972.168,20.020,0
1582145112.370,-35.156,-7.324,-972.168,11.719,0
1582145112.373,-43.457,-0.977,-972.168,31.250,0
1582145112.377,-56.152,0.000,-972.168,19.531,0
1582145112.381,-58.105,1.465,-972.168,20.996,0
1582145112.385,-49.316,-3.418,-972.168,29.785,0
1582145112.389,-47.363,-18.066,-972.168,24.414,0
1582145112.391,-61.035,-21.973,-972.168,39.062,0
1582145112.395,-63.477,-13.184,-972.168,35.645,0
1582145112.399,-47.852,-11.230,-972.168,37.109,0
1582145112.403,-37.598,-12.207,-972.168,34.668,0
1582145112.407,-42.969,-16.113,-972.168,14.160,0
1582145112.411,-49.316,-17.090,-972.168,14.648,0
1582145112.415,-47.852,-16.113,-972.168,23.438,0
1582145112.418,-43.457,-13.672,-972.168,32.227,0
1582145112.422,-51.270,-8.789,-972.168,17.090,0
1582145112.426,-62.012,-8.301,-972.168,14.648,0
1582145112.430,-50.781,-3.906,-972.168,31.250,0
1582145112.434,-38.574,1.465,-972.168,21.973,0
1582145112.437,-37.109,-3.418,-972.168,22.949,0
1582145112.441,-40.527,-6.348,-972.168,9.766,0
1582145112.445,-43.457,-5.371,-972.168,-0.977,0
1582145112.449,-39.551,-3.906,-972.168,25.391,0
1582145112.453,-36.621,-11.230,-972.168,27.344,0
1582145112.457,-39.551,-19.531,-972.168,17.578,0
1582145112.461,-41.504,-16.602,-972.168,14.160,0
1582145112.464,-39.551,-11.719,-972.168,17.578,0
1582145112.468,-38.574,-7.812,-972.168,18.555,0
1582145112.472,-45.410,-2.441,-972.168,3.418,0
1582145112.476,-51.758,0.000,-972.168,11.719,0
1582145112.480,-45.410,-4.395,-972.168,11.230,0
1582145112.481,-34.668,-0.488,-972.168,6.348,0
1582145112.485,-36.621,0.488,-972.168,18.555,0
1582145112.489,-41.504,-5.859,-972.168,13.672,0
1582145112.493,-35.156,-3.418,-972.168,13.672,0
1582145112.497,-29.785,-1.953,-972.168,1.465,0
1582145112.501,-28.320,-8.301,-972.168,-7.812,0
1582145112.505,-33.203,-11.719,-972.168,-2.930,0
1582145112.508,-32.227,-10.254,-972.168,0.977,0
1582145112.512,-20.020,-7.812,-972.168,29.297,0
1582145112.516,-17.090,-0.977,-972.168,11.719,0
1582145112.520,-34.180,0.977,-972.168,-10.254,0
1582145112.524,-43.945,-3.906,-972.168,10.742,0
1582145112.526,-32.227,-7.812,-972.168,11.230,0
1582145112.530,-26.855,-5.371,-972.168,10.742,0
1582145112.534,-36.621,-0.977,-972.168,-12.207,0
1582145112.538,-45.898,7.812,-972.168,-40.527,0
1582145112.542,-41.992,9.277,-972.168,-32.227,0
1582145112.546,-29.785,4.883,-972.168,-36.133,0
1582145112.550,-30.762,2.441,-972.168,-49.316,0
1582145112.553,-39.062,0.000,-972.168,-62.012,0
1582145112.557,-36.133,3.418,-972.168,-64.941,0
1582145112.561,-27.832,3.418,-972.168,-69.336,0
1582145112.565,-32.227,-0.977,-972.168,-104.004,0
1582145112.569,-47.363,-7.812,-972.168,-131.348,0
1582145112.586,-44.434,-19.043,-972.168,-150.391,0
1582145112.590,-35.645,-14.160,-972.168,-172.363,0
1582145112.594,-36.621,-0.977,-972.168,-182.129,0
1582145112.598,-41.016,1.465,-972.168,-206.055,0
1582145112.602,-47.363,4.395,-972.168,-260.254,0
1582145112.606,-23.438,1.953,-972.168,-287.109,0
1582145112.610,23.438,-3.906,-972.168,-254.395,0
1582145112.613,11.719,11.230,-972.168,-260.742,0
1582145112.617,-34.668,21.484,-972.168,-328.125,0
1582145112.621,-25.879,17.578,-972.168,-362.793,0
1582145112.625,1.465,24.414,-972.168,-373.535,0
1582145112.629,8.789,36.621,-972.168,-365.234,0
1582145112.631,21.973,44.434,-972.168,-397.949,0
1582145112.635,47.363,50.293,-972.168,-446.777,0
1582145112.639,74.707,54.199,-972.168,-465.332,0
1582145112.643,93.262,62.500,-972.168,-486.328,0
1582145112.647,97.168,69.336,-972.168,-473.145,0
1582145112.651,107.910,71.289,-972.168,-437.988,0
1582145112.655,129.883,73.730,-972.168,-472.656,0
1582145112.658,142.090,81.543,-972.168,-563.477,0
1582145112.662,144.043,94.727,-972.168,-671.387,0
1582145112.666,142.578,102.051,-972.168,-749.023,0
1582145112.670,145.996,97.656,-972.168,-799.805,0
1582145112.674,160.645,81.055,-972.168,-890.625,0
1582145112.677,152.832,67.383,-972.168,-927.246,0
1582145112.681,127.441,74.219,-972.168,-813.965,0
1582145112.685,117.188,87.891,-972.168,-726.074,0
1582145112.689,114.258,81.543,-972.168,-833.984,0
1582145112.693,107.422,65.918,-972.168,-959.961,0
1582145112.697,94.238,62.500,-972.168,-966.309,0
1582145112.701,83.008,59.082,-972.168,-979.492,0
1582145112.704,83.984,57.129,-972.168,-883.301,0
1582145112.708,81.055,62.012,-972.168,-705.078,0
1582145112.712,68.359,64.453,-972.168,-665.039,0
1582145112.716,54.199,65.918,-972.168,-772.949,0
1582145112.720,43.457,62.012,-972.168,-707.031,0
1582145112.721,42.480,47.363,-972.168,-166.992,0
1582145112.725,41.016,37.109,-972.168,114.746,0
1582145112.729,34.180,41.016,-970.703,-16.113,0
1582145112.733,30.762,45.410,-976.074,-24.902,0
1582145112.737,38.086,48.340,-955.078,123.535,0
1582145112.741,34.668,46.387,-955.078,275.879,0
1582145112.745,21.484,36.621,-971.191,664.551,0
1582145112.748,30.273,33.691,-844.727,755.859,0
1582145112.752,36.133,34.668,-801.758,41.992,0
1582145112.756,28.809,29.785,-776.367,-397.949,0
1582145112.760,23.438,22.461,-752.930,-263.184,0
1582145112.764,15.625,22.461,-877.930,-31.250,0
1582145112.767,18.066,23.926,-946.289,13.184,0
1582145112.771,20.996,26.367,-839.844,22.949,0
1582145112.775,6.836,31.250,-858.887,53.711,0
1582145112.779,-0.488,34.180,-987.305,83.496,0
1582145112.783,9.277,26.855,-903.809,108.398,0
1582145112.787,11.719,17.578,-724.121,124.023,0
1582145112.791,8.789,13.184,-575.684,120.117,0
1582145112.794,9.766,7.324,-676.758,70.801,0
1582145112.798,6.348,7.812,-720.703,60.547,0
1582145112.802,5.859,12.695,-387.207,112.305,0
1582145112.806,-1.465,17.578,-179.688,144.043,0
1582145112.810,-20.020,21.484,-244.141,137.207,0
1582145112.812,-21.484,21.484,-245.117,82.031,0
1582145112.816,-6.348,20.020,-53.223,66.895,0
1582145112.820,-8.301,20.020,49.805,113.281,0
1582145112.824,-19.531,21.973,-85.449,162.598,0
1582145112.828,-16.602,19.531,-185.059,169.922,0
1582145112.832,-6.836,8.301,-138.184,189.941,0
1582145112.836,-4.395,-3.906,-89.844,204.102,0
1582145112.839,-20.020,1.953,-164.551,199.219,0
1582145112.843,-11.230,8.789,-126.465,193.848,0
1582145112.847,1.465,19.043,168.457,169.434,0
1582145112.851,-16.113,17.578,302.734,198.730,0
1582145112.855,-19.531,10.742,381.836,240.234,0
1582145112.856,-16.602,41.504,519.043,236.816,0
1582145112.860,-2.930,51.758,627.441,225.098,0
1582145112.864,15.137,11.230,725.098,228.516,0
1582145112.868,9.277,-2.930,823.730,145.020,0
1582145112.872,-7.324,26.367,854.492,72.266,0
1582145112.876,1.953,11.230,761.719,50.781,0
1582145112.880,12.207,1.953,595.215,3.418,0
1582145112.883,8.789,0.488,613.281,-35.156,0
1582145112.887,10.254,-1.953,759.277,-38.574,0
1582145112.891,-0.488,21.973,752.930,-32.227,0
1582145112.895,-26.367,36.621,799.805,-52.246,0
1582145112.899,3.906,21.973,891.113,-32.227,0
1582145112.902,32.715,2.441,979.004,42.969,0
1582145112.906,8.301,17.578,910.645,48.828,0
1582145112.910,34.180,-3.418,830.078,72.266,0
1582145112.914,39.062,-15.625,924.805,112.305,0
1582145112.918,24.902,-4.395,-998.535,128.906,0
1582145112.922,18.066,1.465,839.355,144.531,0
1582145112.926,-4.395,5.859,568.359,92.285,0
1582145112.929,4.395,27.832,620.605,90.332,0
1582145112.933,2.441,45.410,792.480,115.723,0
1582145112.937,-25.391,36.621,585.449,75.195,0
1582145112.941,15.625,-11.719,420.898,92.285,0
1582145112.945,32.715,-3.418,541.504,74.219,0
1582145112.962,18.066,26.855,499.512,46.387,0
1582145112.966,32.227,-4.883,333.496,76.172,0
1582145112.970,16.113,-16.602,202.148,77.637,0
1582145112.974,21.973,-3.906,229.980,99.609,0
1582145112.978,15.625,-8.789,354.980,90.332,0
1582145112.982,-9.277,-2.930,104.492,93.262,0
1582145112.986,25.391,-12.695,-121.582,130.859,0
1582145112.989,34.668,-29.297,62.012,139.648,0
1582145112.993,30.762,-25.391,179.688,160.645,0
1582145112.997,20.020,13.672,56.152,154.297,0
1582145113.001,-25.391,55.664,-35.156,123.535,0
1582145113.005,-20.996,33.203,20.508,158.203,0
1582145113.007,20.020,-3.906,37.598,201.660,0
1582145113.011,36.133,-3.418,-9.766,198.242,0
1582145113.015,-3.418,14.160,-167.969,156.250,0
1582145113.019,1.953,-9.277,-239.258,201.172,0
1582145113.023,20.996,-4.883,-153.809,228.027,0
1582145113.027,1.953,22.461,-236.328,217.285,0
1582145113.031,2.930,35.645,-281.738,246.094,0
1582145113.034,-5.371,3.418,-234.863,207.520,0
1582145113.038,-2.930,-29.785,-283.691,197.754,0
1582145113.042,-21.973,23.926,-494.141,210.449,0
1582145113.046,-35.156,47.363,-480.469,208.008,0
1582145113.050,5.859,-6.836,-333.496,253.906,0
1582145113.052,-14.160,-30.273,-428.223,240.234,0
1582145113.056,-66.895,51.270,-477.539,190.918,0
1582145113.060,-27.344,75.684,-413.086,221.191,0
1582145113.064,31.738,1.465,-422.363,267.090,0
1582145113.068,-23.926,38.574,-585.938,211.914,0
1582145113.072,-46.875,41.504,-727.051,166.016,0
1582145113.076,26.367,-31.738,-729.980,234.863,0
1582145113.079,14.648,-23.926,-739.746,228.027,0
1582145113.083,-25.879,41.504,-887.695,145.508,0
1582145113.087,-16.602,19.531,-873.047,151.367,0
1582145113.091,-7.324,21.973,-533.203,149.902,0
1582145113.095,17.090,40.527,-475.098,177.734,0
1582145113.096,-33.691,29.297,-601.074,190.918,0
1582145113.100,-132.812,22.949,-506.836,125.488,0
1582145113.104,-83.984,-62.500,-334.961,80.566,0
1582145113.108,-122.559,-73.242,-352.051,6.836,0
1582145113.112,-248.047,30.762,-467.285,-86.914,0
1582145113.116,-295.410,80.566,-515.625,-161.621,0
1582145113.120,-295.410,-11.230,-368.652,-271.973,0
1582145113.123,-311.035,-51.758,-168.457,-476.562,0
1582145113.127,-476.562,-30.762,-247.070,-819.336,0
1582145113.131,-562.988,1.953,-100.098,-985.840,0
1582145113.135,-553.223,33.203,263.184,-962.402,0
1582145113.139,-539.551,4.883,391.602,-971.191,0
1582145113.142,-496.094,-21.973,398.926,-972.656,0
1582145113.146,-536.621,-5.859,487.305,-972.168,0
1582145113.150,-557.617,19.043,665.527,-972.168,0
1582145113.154,-573.730,64.453,697.754,-971.680,0
1582145113.158,-575.195,-37.109,718.262,-970.703,0
1582145113.162,-508.301,-50.781,649.414,-971.191,0
1582145113.166,-515.137,-50.781,683.594,-939.453,0
1582145113.169,-494.629,-56.152,742.188,-839.355,0
1582145113.173,-421.875,-21.484,672.852,-727.051,0
1582145113.177,-430.664,-36.621,921.875,-636.719,0
1582145113.181,-398.926,-50.293,-985.840,-578.613,0
1582145113.185,-388.184,21.973,990.234,-558.594,0
1582145113.187,-366.211,38.086,999.512,-505.371,0
1582145113.191,-248.535,-44.434,999.512,-366.211,0
1582145113.195,-235.840,-29.297,999.512,-283.691,0
1582145113.199,-232.910,-42.969,999.512,-213.867,0
1582145113.203,-189.453,-37.598,998.047,-159.668,0
1582145113.207,-195.312,-24.414,-999.512,-126.953,0
1582145113.211,-167.969,24.902,-1000.000,-4.395,0
1582145113.214,-156.250,14.648,973.633,52.734,0
1582145113.218,-110.840,-28.320,987.305,47.363,0
1582145113.222,-32.715,-45.410,-996.094,63.477,0
1582145113.226,-118.652,-22.461,997.559,62.500,0
1582145113.230,-73.242,-20.508,-1000.000,312.988,0
1582145113.231,7.324,-54.688,999.512,429.199,0
1582145113.235,0.977,-42.969,-1000.000,390.137,0
1582145113.239,7.324,-43.457,998.535,447.754,0
1582145113.243,-16.602,-39.551,990.723,393.555,0
1582145113.247,0.000,-27.344,-999.023,331.055,0
1582145113.251,37.598,-32.227,868.164,282.715,0
1582145113.255,46.875,-56.641,403.809,222.656,0
1582145113.258,-5.371,13.672,38.574,189.941,0
1582145113.262,37.598,18.066,90.332,197.754,0
1582145113.266,66.895,-28.809,86.426,159.180,0
1582145113.270,-8.301,-28.320,-168.945,106.445,0
1582145113.274,27.344,-55.664,-373.535,110.352,0
1582145113.277,55.176,-18.555,-448.242,111.816,0
1582145113.281,25.879,-1.953,-473.145,91.797,0
1582145113.285,75.684,-6.836,-661.621,86.426,0
1582145113.289,57.617,13.672,-865.723,70.801,0
1582145113.293,7.812,-8.301,-923.340,77.637,0
1582145113.297,26.855,-46.387,-973.633,52.246,0
1582145113.301,41.016,-46.387,-970.703,15.137,0
1582145113.304,50.293,2.441,-971.680,44.922,0
1582145113.308,42.969,20.508,-972.168,7.812,0
1582145113.312,28.809,-10.254,-972.168,-23.926,0
1582145113.316,24.902,-3.906,-972.168,-41.016,0
1582145113.320,39.062,-27.832,-972.168,-67.871,0
1582145113.336,22.461,-25.879,-972.168,-76.660,0
1582145113.340,41.016,-28.809,-972.168,-94.238,0
1582145113.344,58.594,-39.062,-972.168,-122.070,0
1582145113.348,38.574,-17.578,-972.168,-121.582,0
1582145113.352,37.109,-40.527,-972.168,-95.703,0
1582145113.356,2.441,-1.465,-972.168,-153.320,0
1582145113.360,24.414,11.719,-973.633,-143.555,0
1582145113.363,72.266,-12.207,-966.309,-112.793,0
1582145113.367,36.621,6.348,-964.355,-187.500,0
1582145113.371,30.273,-14.648,-973.633,-220.703,0
1582145113.375,29.785,-11.719,-663.086,-218.262,0
1582145113.379,-12.695,-41.016,-255.859,-236.816,0
1582145113.382,-1.465,-45.898,-146.484,-218.750,0
1582145113.386,7.812,7.812,-179.688,-206.055,0
1582145113.390,-13.672,-1.465,-156.250,-229.004,0
1582145113.394,32.227,-17.090,-70.312,-231.934,0
1582145113.398,38.086,-19.531,-135.254,-227.539,0
1582145113.402,1.953,2.441,-356.934,-258.789,0
1582145113.406,-11.719,16.602,-319.336,-274.902,0
1582145113.409,-9.766,3.906,15.137,-270.020,0
1582145113.413,-24.414,-1.953,81.055,-295.898,0
1582145113.417,-11.719,12.695,-155.762,-281.738,0
1582145113.421,13.672,7.812,-57.129,-232.910,0
1582145113.425,26.367,-9.277,183.594,-212.402,0
1582145113.427,10.254,-40.039,57.129,-241.699,0
1582145113.431,-22.949,-7.812,80.566,-260.254,0
1582145113.435,-4.395,-10.742,294.922,-228.516,0
1582145113.439,-0.977,-29.297,446.777,-222.656,0
1582145113.443,-20.508,15.625,445.801,-274.902,0
1582145113.447,-53.711,-11.719,346.191,-316.406,0
1582145113.451,-74.707,-15.137,343.262,-291.504,0
1582145113.454,-11.230,-3.418,577.637,-243.164,0
1582145113.458,5.859,-20.508,593.262,-250.977,0
1582145113.462,-29.785,-22.461,458.496,-251.465,0
1582145113.466,-38.574,-16.113,639.160,-229.980,0
1582145113.470,-20.508,-25.391,724.609,-210.938,0
1582145113.472,-15.625,-36.133,718.750,-254.395,0
1582145113.476,-43.945,-7.812,751.465,-274.414,0
1582145113.480,-36.133,-9.277,609.375,-260.742,0
1582145113.484,-26.367,-26.855,454.102,-267.578,0
1582145113.488,-28.320,-24.902,469.238,-270.996,0
1582145113.492,-33.203,-20.508,406.250,-263.672,0
1582145113.496,-34.668,-42.969,289.551,-225.586,0
1582145113.499,-17.578,-11.230,265.137,-217.285,0
1582145113.503,-27.344,-18.555,125.488,-232.910,0
1582145113.507,-80.566,-43.457,130.371,-276.855,0
1582145113.511,-110.840,18.066,205.078,-301.270,0
1582145113.515,-95.703,-22.949,4.395,-267.090,0
1582145113.517,-72.266,-67.871,-111.816,-242.676,0
1582145113.521,-47.852,-54.199,-97.656,-206.055,0
1582145113.525,-93.750,-60.547,-174.805,-222.168,0
1582145113.529,-108.398,-42.969,-361.328,-217.285,0
1582145113.533,-89.844,-53.223,-418.945,-187.012,0
1582145113.537,-81.055,-89.844,-453.125,-182.129,0
1582145113.541,-83.984,-83.496,-511.230,-184.570,0
1582145113.544,-88.867,-53.711,-701.660,-182.129,0
1582145113.548,-52.734,-59.082,-812.988,-154.297,0
1582145113.552,-24.414,-74.707,-539.062,-128.906,0
1582145113.556,-48.828,-59.570,-423.340,-163.086,0
1582145113.560,-74.707,-65.430,-544.922,-170.898,0
1582145113.562,-68.359,-53.711,-594.727,-133.301,0
1582145113.566,-44.922,-49.316,-573.730,-119.629,0
1582145113.570,-24.414,-48.828,-632.812,-125.977,0
1582145113.574,-61.523,-43.457,-770.508,-161.621,0
1582145113.578,-73.242,-60.059,-887.207,-177.734,0
1582145113.582,-64.453,-42.480,-938.477,-208.984,0
1582145113.586,-62.500,-19.043,-976.562,-242.188,0
1582145113.589,-59.570,-43.945,-967.285,-281.738,0
1582145113.593,-47.363,-37.598,-975.586,-325.195,0
1582145113.597,-55.176,-15.625,-959.961,-314.941,0
1582145113.601,-46.387,-34.180,-932.129,-303.223,0
1582145113.605,-48.340,-42.480,-966.797,-305.176,0
1582145113.607,-68.848,-40.527,-975.586,-287.598,0
1582145113.611,-47.363,-44.434,-969.727,-236.328,0
1582145113.615,-43.945,-24.902,-972.656,-209.473,0
1582145113.619,-68.359,-19.043,-972.168,-206.055,0
1582145113.623,-55.176,-26.367,-972.168,-198.242,0
1582145113.627,-44.434,-8.789,-972.168,-195.801,0
1582145113.631,-52.734,-12.207,-972.168,-185.547,0
1582145113.634,-38.086,-17.090,-972.168,-161.133,0
1582145113.638,-69.336,-20.996,-972.168,-148.926,0
1582145113.642,-75.684,-19.531,-972.168,-136.719,0
1582145113.646,-51.758,-32.715,-972.168,-121.582,0
1582145113.650,-51.270,-22.949,-972.168,-123.535,0
1582145113.652,-61.523,-15.625,-972.168,-112.793,0
1582145113.656,-59.082,-33.691,-972.168,-101.562,0
1582145113.660,-15.137,-21.484,-972.168,-55.664,0
1582145113.664,-0.488,-24.414,-972.168,-30.762,0
1582145113.668,-42.969,-28.320,-972.168,-66.406,0
1582145113.672,-63.965,-20.020,-972.168,-62.500,0
1582145113.676,-53.711,-20.508,-972.168,-43.945,0
1582145113.679,-29.785,-27.344,-972.168,-9.277,0
1582145113.683,-33.691,-36.621,-972.168,10.254,0
1582145113.687,-42.480,-51.270,-972.168,9.277,0
1582145113.691,-34.180,-67.871,-972.168,31.738,0
1582145113.695,-3.906,-71.777,-972.168,68.359,0
1582145113.711,22.461,-67.871,-972.168,103.516,0
1582145113.715,7.324,-73.730,-972.168,109.375,0
1582145113.719,-7.812,-78.613,-972.168,115.234,0
1582145113.723,-0.977,-81.055,-972.168,130.859,0
1582145113.727,6.348,-87.402,-972.168,126.953,0
1582145113.731,13.184,-82.031,-972.168,140.137,0
1582145113.735,15.137,-77.148,-972.168,136.230,0
1582145113.738,19.043,-76.660,-972.168,132.324,0
1582145113.742,22.461,-82.031,-972.168,140.625,0
1582145113.746,15.625,-80.566,-972.168,126.465,0
1582145113.750,-1.465,-64.941,-972.168,118.652,0
1582145113.754,-11.719,-62.500,-972.168,108.887,0
1582145113.756,-6.836,-63.965,-972.168,105.957,0
1582145113.760,-11.719,-56.641,-972.168,112.305,0
1582145113.764,-26.855,-49.316,-972.168,98.633,0
1582145113.768,-25.879,-39.551,-972.168,94.238,0
1582145113.772,-14.160,-35.156,-972.168,99.609,0
1582145113.776,-12.207,-41.016,-972.168,88.867,0
1582145113.780,-22.949,-43.457,-972.168,77.637,0
1582145113.783,-24.902,-41.992,-972.168,73.242,0
1582145113.787,-12.695,-38.574,-972.168,80.078,0
1582145113.791,-9.766,-39.551,-972.168,66.895,0
1582145113.795,-35.645,-41.992,-972.168,47.852,0
1582145113.799,-48.828,-40.527,-972.168,58.594,0
1582145113.802,-26.855,-41.504,-972.168,65.918,0
1582145113.806,-15.625,-43.457,-972.168,64.941,0
1582145113.810,-26.367,-43.457,-972.168,64.453,0
1582145113.814,-38.574,-37.109,-972.168,67.871,0
1582145113.818,-44.434,-30.273,-972.168,76.172,0
1582145113.822,-42.480,-28.320,-972.168,76.660,0
1582145113.826,-41.504,-29.785,-972.168,77.148,0
1582145113.829,-45.898,-30.273,-972.168,71.777,0
1582145113.833,-60.547,-28.809,-972.168,53.711,0
1582145113.837,-45.898,-32.715,-972.168,60.547,0
1582145113.841,-25.391,-39.062,-972.168,61.035,0
1582145113.845,-37.598,-35.156,-972.168,54.688,0
1582145113.847,-43.457,-27.832,-972.168,46.875,0
1582145113.851,-40.039,-28.809,-972.168,43.945,0
1582145113.855,-57.129,-34.668,-972.168,47.363,0
1582145113.859,-72.754,-34.180,-972.168,45.898,0
1582145113.863,-68.359,-27.344,-972.168,54.199,0
1582145113.867,-69.336,-22.461,-972.168,34.668,0
1582145113.871,-51.758,-23.926,-972.168,29.297,0
1582145113.874,-45.898,-23.926,-972.168,45.898,0
1582145113.878,-64.941,-27.832,-972.168,43.457,0
1582145113.882,-66.406,-30.273,-972.168,38.574,0
1582145113.886,-60.059,-26.855,-972.168,30.273,0
1582145113.890,-60.059,-23.926,-972.168,27.832,0
1582145113.891,-69.336,-23.926,-972.168,38.086,0
1582145113.895,-70.801,-28.320,-972.168,37.109,0
1582145113.899,-55.176,-24.902,-972.168,33.691,0
1582145113.903,-46.387,-22.461,-972.168,28.320,28475
1582145113.907,-53.711,-22.461,-972.168,34.668,0
1582145113.911,-59.570,-20.508,-972.168,52.246,0
1582145113.915,-60.547,-23.926,-972.168,50.781,0
1582145113.918,-51.270,-25.391,-972.168,46.387,0
1582145113.922,-52.246,-23.926,-972.168,39.062,0
1582145113.926,-69.824,-17.578,-972.168,36.621,0
1582145113.930,-58.594,-23.438,-972.168,48.340,0
1582145113.934,-49.316,-41.016,-972.168,38.574,0
1582145113.936,-63.965,-34.180,-972.168,28.809,0
1582145113.940,-80.566,-15.137,-972.168,19.043,0
1582145113.944,-80.078,-10.254,-972.168,16.602,0
1582145113.948,-72.266,-15.137,-972.168,22.949,0
1582145113.952,-77.148,-15.625,-972.168,21.973,0
1582145113.956,-88.379,-14.648,-972.656,19.531,0
1582145113.960,-92.773,-15.625,-969.727,0.488,0
1582145113.963,-80.078,-13.672,-977.051,-7.324,0
1582145113.967,-66.406,-16.602,-955.078,8.301,0
1582145113.971,-70.312,-32.227,-911.133,10.742,0
1582145113.975,-53.223,-36.133,-951.172,35.645,0
1582145113.979,-28.320,-18.066,-958.008,41.992,0
1582145113.981,-47.363,-2.441,-857.422,-6.836,0
1582145113.985,-74.219,2.441,-858.398,-38.574,0
1582145113.989,-68.848,12.207,-959.473,-33.691,0
1582145113.993,-44.922,23.438,-980.469,-21.484,0
1582145113.997,-18.555,38.574,-931.152,-16.602,0
1582145114.001,0.000,49.805,-937.012,-13.184,0
1582145114.005,5.371,57.617,-977.051,-7.324,0
1582145114.008,20.020,76.660,-974.609,-24.414,0
1582145114.012,38.574,91.309,-953.125,-20.508,0
1582145114.016,43.457,93.262,-914.551,-28.320,0
1582145114.020,44.922,93.262,-942.871,-77.637,0
1582145114.024,57.617,91.309,-977.539,-82.520,0
1582145114.026,69.336,87.891,-967.285,-73.242,0
1582145114.030,57.129,86.914,-897.461,-69.336,0
1582145114.034,34.180,80.566,-908.691,-133.301,0
1582145114.038,25.391,70.312,-974.609,-218.750,0
1582145114.042,32.715,62.988,-971.191,-221.191,0
1582145114.046,37.109,53.223,-970.703,-233.887,0
1582145114.050,29.785,50.293,-972.168,-221.191,0
1582145114.053,8.789,50.781,-972.168,-213.867,0
1582145114.057,-5.371,43.945,-972.168,-211.426,0
1582145114.061,0.977,36.133,-972.168,-186.523,0
1582145114.065,3.418,35.156,-972.168,-172.852,0
1582145114.069,-12.207,36.621,-972.168,-150.391,0
1582145114.086,-20.508,31.738,-972.168,-153.320,0
1582145114.090,-7.812,31.250,-972.168,-157.227,0
1582145114.094,-4.395,30.762,-972.168,-147.949,0
1582145114.098,-17.578,22.461,-972.168,-149.902,0
1582145114.102,-20.020,17.578,-972.168,-152.344,0
1582145114.106,-11.230,17.090,-972.168,-154.785,0
1582145114.110,-4.883,16.113,-972.168,-157.227,0
1582145114.113,-14.160,7.324,-972.168,-149.414,0
1582145114.117,-27.344,2.441,-972.168,-144.531,0
1582145114.121,-41.504,4.883,-972.168,-135.254,0
1582145114.125,-42.969,1.953,-972.168,-131.836,0
1582145114.129,-42.969,-1.953,-972.168,-131.348,0
1582145114.132,-53.711,-0.488,-972.168,-123.535,0
1582145114.136,-55.664,2.441,-972.168,-115.234,0
1582145114.140,-49.316,6.836,-972.168,-105.957,0
1582145114.144,-37.109,7.812,-972.168,-108.398,0
1582145114.148,-34.668,5.859,-972.168,-97.656,0
1582145114.152,-46.387,6.348,-972.168,-72.266,0
1582145114.156,-45.898,-4.395,-972.168,-62.012,0
1582145114.159,-47.363,-11.230,-972.168,-37.109,0
1582145114.163,-52.734,-3.418,-972.168,-29.785,0
1582145114.167,-41.016,0.000,-972.168,-36.133,0
1582145114.171,-33.691,-2.441,-972.168,-10.254,0
1582145114.175,-30.273,-1.465,-972.168,23.438,0
1582145114.177,-28.809,-2.930,-972.168,40.039,0
1582145114.181,-23.926,-10.254,-972.168,62.500,0
1582145114.185,0.977,-0.488,-972.168,93.262,0
1582145114.189,-16.602,9.277,-972.168,79.102,0
1582145114.193,-79.590,6.836,-972.168,25.391,0
1582145114.197,-113.281,4.395,-972.168,8.301,0
1582145114.201,-137.207,10.254,-972.168,-13.672,0
1582145114.204,-174.316,0.488,-972.168,-50.293,0
1582145114.208,-208.008,-6.348,-972.168,-72.266,0
1582145114.212,-240.234,9.277,-972.168,-102.051,0
1582145114.216,-255.371,12.695,-972.168,-109.863,0
1582145114.220,-254.883,22.461,-972.168,-135.254,0
1582145114.221,-261.719,33.203,-972.168,-155.762,0
1582145114.225,-270.508,45.898,-972.168,-128.906,0
1582145114.229,-265.625,42.480,-972.168,-99.121,0
1582145114.233,-239.258,23.438,-972.168,-75.195,0
1582145114.237,-203.125,25.391,-972.168,-62.500,0
1582145114.241,-189.453,25.879,-972.168,-46.387,0
1582145114.245,-183.594,24.414,-972.168,-20.020,0
1582145114.248,-164.551,29.297,-972.168,-5.859,0
1582145114.252,-142.090,20.508,-972.168,12.207,0
1582145114.256,-122.559,11.719,-972.168,6.836,0
1582145114.260,-125.977,18.066,-972.168,-1.953,0
1582145114.264,-130.371,23.438,-972.168,17.578,0
1582145114.267,-119.629,21.973,-972.168,29.785,0
1582145114.271,-108.398,23.438,-972.168,34.668,0
1582145114.275,-102.539,23.438,-972.168,40.527,0
1582145114.279,-96.680,14.648,-972.168,57.129,0
1582145114.283,-86.914,8.301,-972.168,72.754,0
1582145114.287,-78.613,12.207,-972.168,70.801,0
1582145114.291,-71.777,14.160,-972.168,72.266,0
1582145114.294,-75.195,6.836,-972.168,67.383,0
1582145114.298,-71.289,1.953,-972.168,59.570,0
1582145114.302,-58.105,5.371,-972.168,70.801,0
1582145114.306,-59.570,1.953,-972.168,79.590,0
1582145114.310,-74.219,-1.465,-972.168,90.332,0
1582145114.311,-84.473,3.418,-972.168,81.543,0
1582145114.315,-75.195,7.812,-972.168,64.453,0
1582145114.319,-61.523,14.160,-972.168,67.383,0
1582145114.323,-59.570,20.020,-972.168,77.148,0
1582145114.327,-66.406,19.043,-972.168,75.684,0
1582145114.331,-61.035,13.184,-972.168,73.242,0
1582145114.335,-53.223,6.836,-972.168,77.637,0
1582145114.338,-56.152,2.441,-972.168,86.426,0
1582145114.342,-60.547,-6.836,-972.168,93.750,0
1582145114.346,-56.152,-16.113,-972.168,99.609,0
1582145114.350,-43.945,-2.930,-972.168,93.262,0
1582145114.354,-53.711,11.719,-972.168,100.098,0
1582145114.357,-73.242,8.789,-972.168,104.492,0
1582145114.361,-66.895,2.930,-970.215,96.680,0
1582145114.365,-58.105,-1.953,-974.609,105.957,0
1582145114.369,-59.570,-7.324,-963.379,104.004,0
1582145114.373,-64.941,-10.742,-904.785,109.863,0
1582145114.377,-63.965,-11.719,-920.410,115.723,0
1582145114.381,-52.734,-10.742,-988.281,104.980,0
1582145114.384,-46.387,-6.836,-903.320,102.539,0
1582145114.388,-58.594,-3.906,-738.281,98.145,0
1582145114.392,-68.848,-3.418,-716.309,94.727,0
1582145114.396,-59.082,-3.418,-737.793,102.051,0
1582145114.400,-40.527,-5.371,-668.945,106.445,0
1582145114.417,-44.922,-10.742,-596.680,106.934,0
1582145114.421,-55.176,-12.207,-716.309,97.656,0
1582145114.425,-43.457,-13.672,-871.582,100.586,0
1582145114.429,-35.156,-14.648,-729.492,103.027,0
1582145114.433,-42.969,-9.766,-639.648,100.586,0
1582145114.437,-56.152,-14.160,-784.180,106.445,0
1582145114.441,-56.152,-22.949,-952.637,88.379,0
1582145114.444,-46.387,-23.438,-887.207,84.961,0
1582145114.448,-51.270,-17.578,-737.305,94.238,0
1582145114.452,-62.500,-14.648,-792.480,93.262,0
1582145114.456,-67.871,-12.207,-894.043,90.820,0
1582145114.460,-57.617,-4.883,-795.898,86.426,0
1582145114.461,-42.969,0.000,-660.156,98.633,0
1582145114.465,-45.410,-2.930,-735.840,104.492,0
1582145114.469,-55.176,-10.254,-853.027,104.980,0
1582145114.473,-49.805,-18.066,-798.828,111.816,0
1582145114.477,-38.574,-16.113,-773.438,104.980,0
1582145114.481,-46.387,-10.254,-893.555,98.145,0
1582145114.485,-60.547,-9.277,-988.281,106.934,0
1582145114.488,-53.711,-7.812,-916.992,109.375,0
1582145114.492,-41.016,-4.395,-764.160,100.586,0
1582145114.496,-42.480,-6.348,-833.008,87.891,0
1582145114.500,-48.340,-14.648,-975.098,87.891,0
1582145114.504,-50.293,-18.555,-864.258,97.168,0
1582145114.506,-48.828,-15.625,-820.801,92.285,0
1582145114.510,-47.852,-12.695,-868.164,86.914,0
1582145114.514,-53.711,-13.184,-845.215,80.078,0
1582145114.518,-59.570,-10.742,-837.891,85.938,0
1582145114.522,-53.711,-1.465,-837.891,91.309,0
1582145114.526,-47.363,-1.465,-917.969,80.078,0
1582145114.530,-53.223,-10.254,-982.422,80.078,0
1582145114.533,-63.477,-14.160,-966.797,77.148,0
1582145114.537,-60.547,-11.719,-969.727,74.707,0
1582145114.541,-47.852,-7.324,-977.051,80.078,0
1582145114.545,-53.711,-5.859,-933.105,82.520,0
1582145114.549,-68.359,-6.348,-841.797,91.309,0
1582145114.552,-66.895,-6.836,-901.367,77.637,0
1582145114.556,-48.340,-7.812,-942.871,78.125,0
1582145114.560,-40.527,-7.324,-834.961,92.285,0
1582145114.564,-51.270,-13.184,-878.418,82.031,0
1582145114.568,-54.688,-21.484,-973.633,77.148,0
1582145114.572,-50.293,-14.648,-972.168,73.730,0
1582145114.576,-48.340,-6.348,-970.703,71.289,0
1582145114.579,-39.551,-8.301,-967.285,95.703,0
1582145114.583,-42.480,-2.441,-978.516,99.609,0
1582145114.587,-66.406,3.906,-943.359,65.430,0
1582145114.591,-73.730,-0.488,-877.930,43.945,0
1582145114.595,-74.707,-1.465,-888.672,42.969,0
1582145114.597,-86.426,-0.488,-931.641,40.527,0
1582145114.601,-80.078,1.953,-962.402,39.551,0
1582145114.605,-66.895,3.906,-816.406,36.133,0
1582145114.609,-72.266,0.488,-807.617,31.738,0
1582145114.613,-78.125,4.395,-947.266,47.363,0
1582145114.617,-73.730,12.695,-984.375,53.711,0
1582145114.621,-63.965,9.277,-955.566,52.246,0
1582145114.624,-60.059,8.789,-850.586,57.129,0
1582145114.628,-69.824,10.742,-924.805,47.363,0
1582145114.632,-72.266,8.789,-949.707,50.781,0
1582145114.636,-56.152,7.812,-802.734,64.453,0
1582145114.640,-44.434,6.836,-807.617,68.848,0
1582145114.641,-49.316,5.371,-855.957,70.312,0
1582145114.645,-51.270,0.000,-905.762,64.453,0
1582145114.649,-47.363,-2.930,-873.047,64.941,0
1582145114.653,-44.922,-0.977,-851.074,64.453,0
1582145114.657,-51.758,-4.883,-909.180,68.848,0
1582145114.661,-60.059,-4.395,-938.477,70.801,0
1582145114.665,-60.547,1.465,-948.730,59.570,0
1582145114.668,-57.129,-0.977,-910.156,63.965,0
1582145114.672,-61.035,-7.324,-947.266,64.941,0
1582145114.676,-63.477,-11.719,-855.957,67.383,0
1582145114.680,-54.199,-6.348,-895.996,77.637,0
1582145114.684,-54.199,-4.883,-942.383,75.195,0
1582145114.686,-58.105,-11.719,-840.820,77.637,0
1582145114.690,-64.453,-13.672,-821.777,82.031,0
1582145114.694,-64.941,-9.766,-847.656,83.008,0
1582145114.698,-48.828,2.441,-870.605,86.426,0
1582145114.702,-48.828,6.348,-897.461,80.566,0
1582145114.706,-62.500,1.465,-965.820,70.312,0
1582145114.710,-54.688,1.465,-974.609,78.125,0
1582145114.713,-43.457,-2.930,-969.238,87.402,0
1582145114.717,-43.945,-14.160,-970.215,82.520,0
1582145114.721,-45.898,-12.695,-932.617,91.309,0
1582145114.725,-53.711,-0.977,-933.105,101.074,0
1582145114.729,-56.152,10.742,-977.051,89.355,0
1582145114.732,-42.969,9.766,-962.891,85.938,0
1582145114.736,-38.574,8.789,-922.852,93.262,0
1582145114.740,-46.875,12.207,-957.031,77.148,0
1582145114.744,-46.387,7.324,-977.539,62.500,0
1582145114.748,-35.156,4.395,-969.238,72.754,0
1582145114.752,-31.738,2.441,-972.656,79.590,0
1582145114.756,-41.992,-4.883,-970.703,78.613,0
1582145114.759,-50.293,-6.348,-970.703,71.289,0
1582145114.763,-39.551,0.000,-980.957,76.660,0
1582145114.767,-31.250,2.441,-893.066,80.566,0
1582145114.771,-43.945,-1.953,-896.973,70.801,0
1582145114.775,-64.941,-9.277,-979.004,68.848,0
1582145114.776,-67.383,-16.602,-981.445,70.801,0
1582145114.780,-43.945,-12.695,-921.387,74.219,0
1582145114.784,-33.203,-5.859,-887.695,79.590,0
1582145114.788,-52.246,0.977,-964.355,75.684,0
1582145114.792,-62.012,8.301,-974.121,79.590,0
1582145114.796,-52.734,5.371,-969.727,69.824,0
1582145114.800,-48.340,-2.441,-972.168,79.590,0
1582145114.803,-47.852,-3.418,-972.168,46.387,0
1582145114.807,-45.898,-2.930,-972.168,-51.270,0
1582145114.811,-38.086,1.465,-972.168,-45.410,0
1582145114.815,-31.250,5.371,-972.168,-3.906,0
1582145114.819,-41.992,-0.977,-972.168,11.230,0
1582145114.836,-54.688,-6.836,-972.168,34.668,0
1582145114.840,-48.828,-6.348,-972.168,54.199,0
1582145114.844,-41.016,-6.836,-972.168,50.781,0
1582145114.848,-45.898,-1.953,-972.168,49.316,0
1582145114.852,-51.758,-3.418,-972.168,59.570,0
1582145114.856,-49.805,-8.301,-968.262,64.453,0
1582145114.860,-46.387,-5.371,-980.469,58.105,0
1582145114.863,-53.711,-3.906,-931.152,57.617,0
1582145114.867,-64.453,0.977,-837.891,58.594,0
1582145114.871,-58.105,1.953,-914.551,63.965,0
1582145114.875,-46.875,-3.906,-951.660,70.801,0
1582145114.879,-49.316,-8.301,-838.867,70.801,0
1582145114.881,-61.523,-1.465,-835.449,72.266,0
1582145114.885,-68.848,2.441,-941.895,73.730,0
1582145114.889,-60.059,-5.371,-971.191,78.613,0
1582145114.893,-46.387,-8.301,-889.648,77.637,0
1582145114.897,-49.316,-9.277,-849.609,75.195,0
1582145114.901,-55.176,-10.742,-928.711,80.566,0
1582145114.905,-51.270,-11.230,-996.582,83.984,0
1582145114.908,-47.363,-11.719,-895.508,92.285,0
1582145114.912,-50.781,-5.859,-840.820,94.727,0
1582145114.916,-46.875,0.488,-962.402,90.332,0
1582145114.920,-30.273,-1.953,-967.285,105.957,0
1582145114.924,-49.316,-8.301,-854.492,93.262,0
1582145114.926,-85.938,-11.230,-853.516,59.082,0
1582145114.930,-88.867,-13.184,-973.145,62.012,0
1582145114.934,-90.820,-20.508,-933.105,69.824,0
1582145114.938,-98.633,-29.297,-808.594,61.523,0
1582145114.942,-106.445,-31.250,-820.312,57.129,0
1582145114.946,-125.488,-28.809,-935.059,50.781,0
1582145114.950,-132.812,-27.832,-988.281,42.969,0
1582145114.953,-120.605,-27.832,-902.344,53.223,0
1582145114.957,-105.469,-31.738,-887.207,62.988,0
1582145114.961,-97.656,-29.297,-961.914,62.500,0
1582145114.965,-104.004,-19.531,-839.355,69.824,0
1582145114.969,-100.586,-16.113,-724.121,82.520,0
1582145114.971,-86.914,-19.531,-735.840,83.984,0
1582145114.975,-83.008,-22.461,-735.840,78.613,0
1582145114.979,-87.891,-21.484,-761.230,78.613,0
1582145114.983,-80.566,-17.090,-810.547,89.844,0
1582145114.987,-66.895,-14.648,-797.852,99.609,0
1582145114.991,-71.777,-14.648,-878.418,105.957,0
1582145114.995,-85.449,-17.578,-928.711,107.910,0
1582145114.998,-82.031,-21.973,-914.551,109.375,0
1582145115.002,-67.871,-25.879,-980.469,113.770,0
1582145115.006,-65.430,-26.855,-868.652,113.281,0
1582145115.010,-73.242,-23.926,-728.516,127.930,0
1582145115.014,-82.031,-21.973,-845.703,124.512,0
1582145115.016,-76.660,-20.020,-920.898,111.328,0
1582145115.020,-65.430,-20.020,-736.816,120.117,0
1582145115.024,-62.012,-19.531,-707.520,126.465,28185
1582145115.028,-62.988,-18.555,-870.117,123.535,0
1582145115.032,-60.547,-17.578,-899.414,119.629,0
1582145115.036,-50.781,-17.090,-872.559,120.117,0
1582145115.040,-60.547,-15.137,-904.297,122.559,0
1582145115.043,-82.520,-20.996,-934.082,112.793,0
1582145115.047,-85.449,-28.320,-955.078,107.422,0
1582145115.051,-73.242,-29.785,-784.180,115.234,0
1582145115.055,-74.219,-29.785,-709.961,111.328,0
1582145115.059,-83.008,-31.250,-844.727,108.398,0
1582145115.062,-74.707,-24.414,-834.961,116.211,0
1582145115.066,-66.895,-14.648,-781.250,113.281,0
1582145115.070,-64.453,-11.230,-746.094,117.188,0
1582145115.074,-66.895,-11.230,-785.645,121.094,0
1582145115.078,-68.848,-13.672,-825.195,112.305,0
1582145115.082,-59.570,-15.137,-858.398,112.305,0
1582145115.086,-51.758,-20.996,-837.402,112.305,0
1582145115.089,-57.129,-27.344,-891.113,108.887,0
1582145115.093,-70.801,-21.484,-918.945,104.980,0
1582145115.097,-67.383,-18.555,-782.227,107.910,0
1582145115.101,-50.781,-16.113,-737.793,111.328,0
1582145115.105,-50.781,-12.207,-800.781,107.422,0
1582145115.106,-52.734,-17.090,-757.812,106.934,0
1582145115.110,-48.828,-14.648,-768.066,109.375,0
1582145115.114,-48.340,-9.766,-909.668,108.887,0
1582145115.118,-54.688,-13.184,-867.188,106.445,0
1582145115.122,-67.383,-14.648,-812.500,105.957,0
1582145115.126,-70.312,-16.113,-920.898,107.910,0
1582145115.130,-62.500,-15.137,-989.746,104.492,0
1582145115.133,-60.547,-15.137,-940.430,102.539,0
1582145115.137,-66.895,-18.555,-833.984,107.910,0
1582145115.141,-74.707,-18.555,-793.457,100.098,0
1582145115.145,-73.242,-19.531,-837.891,90.332,0
1582145115.149,-59.570,-20.020,-820.801,89.844,0
1582145115.151,-57.617,-18.066,-791.504,95.703,0
1582145115.155,-65.918,-23.926,-838.867,101.074,0
1582145115.159,-60.547,-31.250,-895.508,103.027,0
1582145115.163,-53.223,-26.367,-825.195,99.121,0
1582145115.167,-58.105,-16.113,-786.621,90.332,0
1582145115.171,-64.941,-9.766,-924.316,84.961,0
1582145115.175,-64.941,-6.348,-979.980,81.543,0
1582145115.178,-52.734,-9.766,-946.777,79.590,0
1582145115.182,-47.852,-11.230,-752.930,84.961,0
1582145115.186,-54.688,-6.348,-690.918,86.426,0
1582145115.190,-56.152,-11.230,-869.141,83.008,0
1582145115.194,-47.852,-14.160,-860.352,83.984,0
1582145115.211,-45.898,-13.672,-747.559,86.426,0
1582145115.215,-59.082,-22.461,-829.590,81.055,0
1582145115.219,-65.918,-19.531,-954.590,72.266,0
1582145115.223,-59.570,-12.207,-820.801,69.336,0
1582145115.227,-58.594,-15.625,-796.387,62.012,0
1582145115.231,-64.941,-17.578,-928.711,58.105,0
1582145115.235,-63.477,-20.996,-975.098,60.059,0
1582145115.238,-56.152,-24.414,-977.539,71.777,0
1582145115.242,-39.062,-22.461,-934.570,104.492,0
1582145115.246,-31.250,-15.625,-916.992,106.445,0
1582145115.250,-55.664,-9.766,-976.562,75.684,0
1582145115.254,-68.359,-12.207,-979.004,62.500,0
1582145115.256,-45.898,-12.207,-902.832,81.543,0
1582145115.260,-27.832,-12.207,-917.480,101.562,0
1582145115.264,-24.902,-14.648,-975.586,109.375,0
1582145115.268,-23.926,-18.066,-963.867,116.211,0
1582145115.272,-18.066,-20.020,-971.191,117.188,0
1582145115.276,-13.672,-18.555,-970.703,113.281,0
1582145115.280,-28.809,-16.113,-972.168,112.793,0
1582145115.283,-37.109,-12.695,-972.168,111.328,0
1582145115.287,-29.297,-12.207,-971.680,114.258,0
1582145115.291,-27.344,-14.160,-971.191,99.609,0
1582145115.295,-31.250,-19.531,-968.750,83.496,0
1582145115.299,-32.715,-25.879,-968.262,86.426,0
1582145115.301,-28.320,-22.949,-975.098,85.938,0
1582145115.305,-21.484,-13.672,-962.891,90.332,0
1582145115.309,-23.926,-4.395,-863.281,89.844,0
1582145115.313,-35.645,-3.418,-875.488,77.637,0
1582145115.317,-30.762,-7.324,-975.098,78.613,0
1582145115.321,2.930,-8.301,-970.703,96.680,0
1582145115.325,-6.348,-14.648,-976.074,95.215,0
1582145115.328,-62.500,-20.508,-932.129,59.082,0
1582145115.332,-88.867,-21.484,-921.875,35.156,0
1582145115.336,-88.867,-26.855,-984.863,35.156,0
1582145115.340,-92.773,-39.062,-931.152,29.297,0
1582145115.344,-105.469,-44.434,-891.113,28.320,0
1582145115.346,-116.699,-40.527,-946.777,23.438,0
1582145115.350,-109.863,-41.992,-979.492,14.648,0
1582145115.354,-98.145,-41.992,-950.195,22.461,0
1582145115.358,-95.215,-35.645,-893.066,23.438,0
1582145115.362,-88.867,-35.156,-934.570,26.855,0
1582145115.366,-81.055,-35.645,-979.980,37.109,0
1582145115.370,-70.801,-34.180,-969.727,41.016,0
1582145115.373,-72.266,-35.156,-969.238,52.734,0
1582145115.377,-80.566,-33.203,-966.309,55.176,0
1582145115.381,-82.031,-29.297,-986.816,55.176,0
1582145115.385,-68.848,-28.320,-902.344,58.594,0
1582145115.389,-62.012,-26.367,-856.445,57.129,0
1582145115.391,-71.289,-28.809,-967.285,61.035,0
1582145115.395,-76.172,-33.691,-960.938,62.500,0
1582145115.399,-67.871,-28.320,-895.508,62.988,0
1582145115.403,-58.594,-20.996,-913.574,49.805,0
1582145115.407,-62.988,-17.578,-972.656,45.898,0
1582145115.411,-65.918,-12.695,-972.168,57.617,0
1582145115.415,-62.988,-12.207,-969.727,53.711,0
1582145115.418,-53.711,-14.648,-973.145,49.316,0
1582145115.422,-49.316,-16.113,-970.215,46.875,0
1582145115.426,-60.059,-20.996,-953.125,43.945,0
1582145115.430,-64.941,-20.020,-931.152,47.363,0
1582145115.434,-48.340,-15.137,-943.848,51.758,0
1582145115.436,-48.340,-15.625,-875.977,52.734,0
1582145115.440,-66.406,-17.578,-830.566,46.387,0
1582145115.444,-62.988,-20.508,-896.484,50.781,0
1582145115.448,-49.316,-19.531,-951.172,58.105,0
1582145115.452,-50.781,-18.555,-951.172,44.434,0
1582145115.456,-56.152,-19.531,-950.684,40.527,0
1582145115.460,-61.035,-18.555,-972.168,38.086,0
1582145115.463,-58.105,-17.578,-982.910,32.715,0
1582145115.467,-42.969,-20.508,-905.273,42.969,0
1582145115.471,-45.898,-22.461,-853.516,46.875,0
1582145115.475,-54.688,-20.020,-933.105,43.945,0
1582145115.479,-47.363,-17.578,-970.215,37.598,0
1582145115.481,-35.156,-20.508,-976.074,35.156,0
1582145115.485,-39.551,-15.137,-947.754,49.316,0
1582145115.489,-57.617,-15.625,-952.637,53.711,0
1582145115.493,-59.570,-20.996,-966.797,58.105,0
1582145115.497,-43.945,-17.090,-899.902,57.129,0
1582145115.501,-40.039,-15.625,-931.641,49.316,0
1582145115.505,-47.852,-14.160,-981.934,56.641,0
1582145115.508,-54.199,-10.742,-960.938,54.688,0
1582145115.512,-51.270,-11.719,-891.602,55.664,0
1582145115.516,-43.457,-17.090,-808.105,49.805,0
1582145115.520,-48.340,-20.508,-859.863,43.457,0
1582145115.524,-55.664,-18.555,-945.312,59.570,0
1582145115.527,-52.734,-15.137,-878.906,54.199,0
1582145115.531,-47.852,-12.695,-773.438,40.527,0
1582145115.535,-49.805,-13.672,-845.703,32.715,0
1582145115.539,-60.547,-14.648,-943.359,24.902,0
1582145115.543,-59.082,-14.160,-883.789,36.133,0
1582145115.547,-52.246,-17.578,-895.020,46.387,0
1582145115.551,-54.199,-19.043,-969.727,43.457,0
1582145115.554,-61.523,-14.648,-971.191,36.133,0
1582145115.558,-60.547,-11.719,-913.086,33.203,0
1582145115.562,-47.363,-10.742,-882.324,41.992,0
1582145115.566,-44.434,-11.719,-927.734,42.969,0
1582145115.570,-57.617,-15.137,-939.453,31.250,0
1582145115.571,-59.082,-18.555,-940.430,24.902,0
1582145115.575,-43.945,-19.531,-967.773,26.855,0
1582145115.579,-34.180,-15.137,-924.316,35.645,0
1582145115.583,-45.410,-12.695,-863.281,35.645,0
1582145115.587,-62.988,-14.648,-900.391,37.109,0
1582145115.591,-60.059,-17.090,-950.684,31.738,0
1582145115.595,-50.781,-19.531,-976.074,26.855,0
1582145115.598,-51.758,-18.555,-908.691,37.598,0
1582145115.602,-58.105,-21.973,-861.816,34.668,0
1582145115.606,-58.105,-23.438,-941.406,32.715,0
1582145115.610,-48.828,-19.531,-975.098,24.902,0
1582145115.614,-49.805,-18.555,-850.098,25.391,0
1582145115.631,-55.176,-17.578,-779.297,38.574,0
1582145115.635,-59.570,-12.207,-923.828,32.715,0
1582145115.639,-60.059,-14.160,-904.297,31.738,0
1582145115.643,-60.547,-22.949,-745.117,22.461,0
1582145115.647,-74.219,-20.508,-855.469,6.348,0
1582145115.651,-75.195,-16.602,-982.910,15.625,0
1582145115.655,-61.035,-18.066,-959.961,27.344,0
1582145115.658,-54.688,-17.578,-816.895,26.855,0
1582145115.662,-56.641,-17.578,-793.457,20.508,0
1582145115.666,-63.965,-16.113,-956.055,17.578,0
1582145115.670,-64.941,-16.113,-966.309,23.926,0
1582145115.674,-56.152,-16.602,-825.195,29.785,0
1582145115.676,-54.688,-13.672,-810.547,34.668,0
1582145115.680,-59.082,-12.695,-871.094,19.531,0
1582145115.684,-59.570,-13.672,-843.262,17.090,0
1582145115.688,-53.223,-13.184,-849.121,22.461,0
1582145115.692,-49.316,-12.695,-886.719,17.090,0
1582145115.696,-58.105,-14.160,-965.332,20.996,0
1582145115.700,-61.035,-12.207,-977.051,12.695,0
1582145115.703,-51.270,-9.766,-959.473,7.324,0
1582145115.707,-45.410,-10.742,-961.914,10.742,0
1582145115.711,-58.594,-9.766,-926.758,5.859,0
1582145115.715,-66.406,-12.207,-822.266,11.230,0
1582145115.719,-54.688,-19.043,-806.152,7.812,0
1582145115.721,-43.945,-21.973,-834.961,3.906,0
1582145115.725,-47.852,-20.508,-831.543,11.230,0
1582145115.729,-63.965,-18.555,-873.535,15.137,0
1582145115.733,-63.477,-16.602,-896.484,19.043,0
1582145115.737,-50.293,-10.742,-904.785,6.348,0
1582145115.741,-50.293,-8.789,-960.938,2.930,0
1582145115.745,-62.500,-8.301,-971.680,14.648,0
1582145115.748,-66.406,-8.789,-954.590,2.930,0
1582145115.752,-57.617,-11.230,-970.215,2.441,0
1582145115.756,-55.176,-10.254,-934.082,2.930,0
1582145115.760,-67.871,-11.719,-919.434,3.906,0
1582145115.764,-72.266,-12.207,-961.914,14.648,0
1582145115.766,-59.082,-13.672,-959.473,14.160,0
1582145115.770,-45.410,-10.742,-867.676,15.137,0
1582145115.774,-51.270,-5.371,-798.340,4.395,0
1582145115.778,-59.082,-5.859,-896.484,-2.441,0
1582145115.782,-53.223,-10.254,-979.980,2.930,0
1582145115.786,-50.781,-15.137,-968.750,1.953,0
1582145115.790,-56.152,-15.137,-971.191,2.930,0
1582145115.793,-63.477,-13.672,-972.656,-2.930,0
1582145115.797,-63.477,-14.160,-972.168,0.488,0
1582145115.801,-57.617,-13.184,-971.191,11.230,0
1582145115.805,-61.035,-8.789,-971.191,5.859,0
1582145115.809,-75.684,-7.324,-972.168,1.953,0
1582145115.811,-73.242,-6.836,-971.680,-3.906,0
1582145115.815,-56.641,-6.348,-972.656,-0.977,0
1582145115.819,-52.734,-10.742,-968.750,5.859,0
1582145115.823,-55.176,-14.160,-969.238,3.906,0
1582145115.827,-56.152,-11.230,-964.844,10.254,0
1582145115.831,-53.223,-6.348,-966.309,5.371,0
1582145115.835,-48.340,-8.789,-974.121,4.395,0
1582145115.838,-53.223,-13.184,-969.727,12.207,0
1582145115.842,-58.594,-9.277,-974.609,9.766,0
1582145115.846,-53.223,-9.766,-970.703,13.184,0
1582145115.850,-42.969,-10.254,-937.988,6.348,0
1582145115.854,-41.504,-7.812,-957.031,10.254,0
1582145115.856,-51.758,-5.859,-982.422,17.090,0
1582145115.860,-56.152,-3.906,-955.566,13.672,0
1582145115.864,-46.875,-5.371,-936.035,15.137,0
1582145115.868,-44.922,-10.254,-969.238,1.465,0
1582145115.872,-54.688,-15.137,-975.098,-8.789,0
1582145115.876,-53.223,-13.184,-967.285,0.977,0
1582145115.880,-46.387,-11.719,-977.051,-1.953,0
1582145115.883,-49.805,-12.695,-957.520,-3.418,0
1582145115.887,-55.176,-10.254,-876.953,-4.395,0
1582145115.891,-62.500,-9.277,-881.348,-9.277,0
1582145115.895,-60.547,-12.695,-964.844,1.465,0
1582145115.899,-54.688,-16.113,-890.137,-2.441,0
1582145115.901,-62.500,-14.648,-849.609,-3.906,0
1582145115.905,-66.895,-18.066,-953.125,-4.883,0
1582145115.909,-42.969,-25.391,-985.352,10.742,0
1582145115.913,-21.973,-12.695,-889.648,24.902,0
1582145115.917,-51.270,1.465,-810.059,-8.789,0
1582145115.921,-76.660,0.488,-934.570,-25.879,0
1582145115.925,-66.406,4.395,-979.492,-24.902,0
1582145115.928,-52.246,6.836,-976.562,-25.391,0
1582145115.932,-52.734,3.418,-923.340,-20.508,0
1582145115.936,-62.500,2.441,-904.785,-29.297,0
1582145115.940,-62.500,5.371,-975.098,-35.645,0
1582145115.944,-51.758,6.836,-978.027,-40.527,0
1582145115.961,-44.434,4.395,-885.742,-36.133,0
1582145115.965,-43.945,0.977,-876.465,-26.367,0
1582145115.969,-45.410,1.465,-982.422,-30.762,0
1582145115.973,-39.551,3.418,-930.176,-20.508,0
1582145115.977,-25.879,-1.953,-849.609,-13.672,0
1582145115.981,-28.809,-3.906,-919.922,-18.066,0
1582145115.985,-46.387,0.000,-979.492,-8.301,0
1582145115.988,-48.340,-0.488,-975.586,-4.395,0
1582145115.992,-31.738,-5.371,-929.688,-8.789,0
1582145115.996,-30.762,-8.789,-904.785,-18.066,0
1582145116.000,-48.340,-2.930,-974.609,-23.926,0
1582145116.004,-55.664,-2.930,-955.566,-16.602,0
1582145116.006,-42.480,-4.883,-841.309,-12.695,0
1582145116.010,-30.273,-3.418,-871.094,-14.160,0
1582145116.014,-38.574,-4.883,-983.887,-22.461,0
1582145116.018,-44.434,-5.859,-954.590,-22.461,0
1582145116.022,-40.527,-9.277,-886.719,-14.160,0
1582145116.026,-43.457,-15.137,-916.992,-20.020,0
1582145116.030,-53.711,-14.160,-979.980,-20.020,0
1582145116.033,-58.594,-9.277,-969.238,-20.996,0
1582145116.037,-49.316,-10.742,-962.402,-21.484,0
1582145116.041,-40.527,-14.648,-966.309,-13.184,0
1582145116.045,-48.828,-16.602,-932.617,-16.602,0
1582145116.049,-57.129,-15.137,-899.902,-14.160,0
1582145116.051,-47.363,-14.160,-930.176,-22.461,0
1582145116.055,-39.551,-13.672,-979.004,-28.320,0
1582145116.059,-48.340,-12.695,-869.141,-18.066,0
1582145116.063,-60.547,-7.812,-729.492,-20.508,0
1582145116.067,-62.988,-8.301,-842.773,-25.391,0
1582145116.071,-53.223,-13.184,-980.957,-29.297,0
1582145116.075,-48.340,-14.160,-972.656,-38.086,0
1582145116.078,-55.176,-11.719,-957.520,-31.738,0
1582145116.082,-58.105,-10.742,-963.867,-32.227,0
1582145116.086,-54.199,-14.160,-946.289,-35.156,0
1582145116.090,-47.363,-14.648,-829.590,-37.598,0
1582145116.094,-49.805,-17.090,-787.109,-41.016,0
1582145116.096,-59.082,-11.719,-889.648,-31.738,0
1582145116.100,-56.641,-5.859,-943.359,-29.297,0
1582145116.104,-49.316,-4.883,-807.129,-26.367,0
1582145116.108,-53.711,-4.395,-792.969,-29.297,0
1582145116.112,-61.035,-7.812,-953.613,-26.367,0
1582145116.116,-57.617,-14.648,-979.980,-18.555,0
1582145116.120,-44.922,-16.602,-966.309,-18.555,0
1582145116.123,-40.039,-14.160,-943.359,-19.531,0
1582145116.127,-50.781,-14.160,-956.055,-33.203,0
1582145116.131,-53.223,-14.648,-974.609,-31.250,0
1582145116.135,-39.551,-12.695,-884.766,-14.160,0
1582145116.139,-34.668,-10.742,-870.117,-15.137,0
1582145116.141,-47.363,-8.789,-957.031,-24.902,0
1582145116.145,-52.734,-10.254,-973.145,-31.738,0
1582145116.149,-46.875,-16.602,-964.844,-29.297,0
1582145116.153,-41.992,-16.113,-966.309,-31.250,0
1582145116.157,-52.246,-15.625,-973.145,-38.086,0
1582145116.161,-66.406,-14.160,-972.168,-41.504,0
1582145116.165,-65.918,-12.207,-971.191,-50.781,0
1582145116.168,-59.082,-10.742,-973.145,-46.875,17035
1582145116.172,-63.477,-9.277,-970.703,-43.457,0
1582145116.176,-79.590,-13.184,-958.008,-47.852,0
1582145116.180,-83.008,-11.230,-952.637,-46.387,0
1582145116.184,-69.824,-9.277,-884.277,-45.898,0
1582145116.186,-61.035,-13.184,-817.871,-41.504,0
1582145116.190,-66.895,-13.672,-811.035,-38.574,0
1582145116.194,-60.059,-10.254,-837.402,-38.086,0
1582145116.198,-41.016,-10.254,-918.945,-34.180,0
1582145116.202,-31.738,-13.672,-905.273,-40.039,0
1582145116.206,-36.621,-16.113,-918.945,-33.203,0
1582145116.210,-47.852,-12.207,-978.027,-33.691,0
1582145116.213,-46.875,-10.742,-976.562,-46.387,0
1582145116.217,-34.180,-15.137,-951.172,-45.410,0
1582145116.221,-41.016,-12.695,-923.828,-51.270,0
1582145116.225,-57.617,-10.254,-967.773,-54.688,0
1582145116.229,-56.641,-9.277,-974.609,-55.664,0
1582145116.231,-44.434,-8.301,-973.633,-50.293,0
1582145116.235,-45.410,-13.184,-904.785,-36.621,0
1582145116.239,-59.570,-17.090,-907.227,-45.410,0
1582145116.243,-64.941,-12.695,-982.422,-49.316,0
1582145116.247,-61.523,-9.766,-932.617,-46.875,0
1582145116.251,-60.059,-12.695,-939.941,-54.199,0
1582145116.255,-71.777,-13.184,-977.539,-50.781,0
1582145116.258,-87.402,-13.184,-970.703,-53.711,0
1582145116.262,-79.102,-15.137,-973.633,-48.828,0
1582145116.266,-62.500,-15.137,-905.762,-34.180,0
1582145116.270,-64.453,-13.672,-921.875,-36.621,0
1582145116.274,-64.941,-13.184,-953.613,-30.273,0
1582145116.276,-50.781,-13.184,-908.691,-24.414,0
1582145116.280,-35.645,-10.742,-954.102,-23.438,0
1582145116.284,-45.410,-12.207,-976.562,-16.602,0
1582145116.288,-58.105,-15.625,-973.145,-13.672,0
1582145116.292,-48.340,-14.160,-952.637,-11.230,0
1582145116.296,-37.598,-14.648,-955.078,-18.066,0
1582145116.300,-44.922,-17.090,-974.121,-15.625,0
1582145116.303,-62.012,-15.625,-974.609,-9.277,0
1582145116.307,-64.941,-12.207,-960.938,-9.766,0
1582145116.311,-53.711,-11.230,-933.105,-8.789,0
1582145116.315,-52.734,-11.230,-965.820,-16.113,0
1582145116.319,-67.383,-10.742,-963.867,-14.160,0
1582145116.336,-75.684,-8.789,-929.199,-10.742,0
1582145116.340,-68.848,-10.742,-961.426,-14.160,0
1582145116.344,-60.059,-11.719,-934.082,-15.137,0
1582145116.348,-63.477,-11.719,-906.250,-18.555,0
1582145116.352,-67.871,-16.602,-972.656,-20.020,0
1582145116.356,-62.500,-16.602,-973.633,-19.043,0
1582145116.360,-58.594,-15.625,-972.168,-15.137,0
1582145116.363,-68.848,-17.578,-960.449,-9.277,0
1582145116.367,-83.008,-15.625,-951.660,-5.859,0
1582145116.371,-77.148,-17.090,-974.609,-6.836,0
1582145116.375,-64.941,-17.090,-968.262,-12.695,0
1582145116.379,-59.570,-13.184,-917.480,-16.602,0
1582145116.381,-58.105,-13.184,-927.246,-17.578,0
1582145116.385,-55.664,-12.695,-968.750,-15.137,0
1582145116.389,-46.875,-11.230,-982.910,-7.324,0
1582145116.393,-38.574,-13.672,-905.762,3.418,0
1582145116.397,-44.922,-16.113,-841.309,5.371,0
1582145116.401,-53.711,-12.695,-939.453,6.348,0
1582145116.405,-51.270,-12.207,-979.980,3.418,0
1582145116.408,-42.969,-14.160,-967.773,0.000,0
1582145116.412,-44.434,-15.625,-972.168,0.977,0
1582145116.416,-52.734,-16.113,-972.168,0.488,0
1582145116.420,-52.246,-14.648,-959.961,0.488,0
1582145116.424,-36.621,-13.672,-931.641,-3.418,0
1582145116.427,-28.809,-16.113,-914.551,9.277,0
1582145116.431,-28.809,-18.066,-961.914,30.762,0
1582145116.435,-36.621,-12.695,-978.027,20.996,0
1582145116.439,-50.781,-9.277,-968.262,-2.441,0
1582145116.443,-47.363,-9.277,-964.844,-1.953,0
1582145116.447,-43.945,-5.371,-966.309,16.113,0
1582145116.451,-44.434,-7.812,-981.445,21.973,0
1582145116.454,-28.320,-8.301,-945.801,27.832,0
1582145116.458,-13.672,-5.371,-921.875,30.273,0
1582145116.462,-24.414,-6.836,-972.656,20.508,0
1582145116.466,-40.039,-8.789,-971.680,19.531,0
1582145116.470,-31.250,-7.812,-960.938,24.902,0
1582145116.471,-15.625,-6.836,-947.266,19.531,0
1582145116.475,-22.949,-7.812,-875.488,12.695,0
1582145116.479,-31.738,-5.859,-911.133,14.160,0
1582145116.483,-25.879,-4.395,-953.125,19.043,0
1582145116.487,-23.926,-6.836,-947.266,15.625,0
1582145116.491,-29.785,-7.812,-975.098,7.324,0
1582145116.495,-41.016,-7.324,-971.680,15.137,0
1582145116.498,-41.504,-9.766,-970.215,19.043,0
1582145116.502,-36.621,-12.695,-975.098,13.672,0
1582145116.506,-36.133,-12.207,-965.332,15.137,0
1582145116.510,-45.410,-8.789,-947.266,15.137,0
1582145116.514,-54.199,-7.324,-965.332,15.625,0
1582145116.516,-48.828,-6.348,-979.004,14.160,0
1582145116.520,-44.922,-7.324,-950.684,12.695,0
1582145116.524,-48.828,-10.254,-909.180,16.602,0
1582145116.528,-55.664,-11.719,-938.965,10.254,0
1582145116.532,-50.781,-14.160,-975.098,10.254,0
1582145116.536,-38.086,-16.113,-972.168,10.254,0
1582145116.540,-36.133,-13.672,-969.238,2.930,0
1582145116.543,-44.434,-12.695,-969.727,0.000,0
1582145116.547,-43.945,-14.160,-980.469,4.395,0
1582145116.551,-35.645,-16.113,-864.258,13.672,0
1582145116.555,-37.598,-13.672,-793.945,7.812,0
1582145116.559,-51.270,-13.672,-925.293,7.324,0
1582145116.561,-52.734,-18.555,-977.539,10.742,0
1582145116.565,-40.039,-18.066,-974.121,11.719,0
1582145116.569,-36.133,-13.184,-944.336,8.789,0
1582145116.573,-41.016,-13.184,-937.012,4.883,0
1582145116.577,-49.805,-15.137,-976.562,17.090,0
1582145116.581,-48.828,-12.695,-971.680,16.602,0
1582145116.585,-43.457,-13.184,-971.191,10.742,0
1582145116.588,-55.664,-14.648,-972.168,7.812,0
1582145116.592,-70.312,-16.602,-972.168,-2.441,0
1582145116.596,-66.895,-18.555,-972.168,3.418,0
1582145116.600,-58.594,-18.555,-972.168,6.836,0
1582145116.604,-57.129,-18.555,-972.168,5.371,0
1582145116.606,-59.082,-18.555,-972.168,8.789,0
1582145116.610,-54.199,-16.602,-972.168,8.789,0
1582145116.614,-43.945,-17.090,-972.168,12.695,0
1582145116.618,-41.504,-16.113,-973.145,14.160,0
1582145116.622,-43.945,-13.184,-963.379,13.184,0
1582145116.626,-40.039,-11.719,-965.332,20.996,0
1582145116.630,-34.668,-12.207,-974.121,14.160,0
1582145116.633,-36.621,-14.160,-970.215,2.930,0
1582145116.637,-39.551,-13.672,-970.703,11.230,0
1582145116.641,-41.992,-14.160,-971.680,15.625,0
1582145116.645,-39.062,-17.578,-975.098,16.602,0
1582145116.649,-32.227,-15.625,-954.590,14.648,0
1582145116.651,-37.598,-12.207,-942.383,5.371,0
1582145116.655,-47.852,-13.672,-966.309,0.488,0
1582145116.659,-45.898,-13.672,-974.121,-1.465,0
1582145116.663,-34.180,-12.207,-970.703,-4.395,0
1582145116.667,-34.668,-10.742,-966.797,-10.254,0
1582145116.671,-46.875,-14.160,-970.215,-14.648,0
1582145116.675,-46.387,-15.625,-973.145,-20.508,0
1582145116.678,-35.645,-11.719,-971.680,-25.879,0
1582145116.682,-35.645,-11.719,-972.168,-33.691,0
1582145116.686,-47.363,-12.207,-972.168,-36.133,0
1582145116.690,-51.270,-11.230,-972.168,-33.203,0
1582145116.694,-40.039,-16.113,-972.168,-39.551,0
1582145116.711,-33.691,-16.113,-972.168,-38.086,0
1582145116.715,-44.434,-13.184,-972.168,-37.109,0
1582145116.719,-51.758,-17.578,-972.168,-40.527,0
1582145116.723,-45.410,-18.066,-972.656,-41.016,0
1582145116.727,-35.645,-15.625,-966.309,-33.203,0
1582145116.731,-40.527,-10.742,-967.285,-31.738,0
1582145116.735,-50.781,-6.836,-972.656,-39.551,0
1582145116.738,-48.828,-7.812,-976.074,-35.156,0
1582145116.742,-41.016,-10.254,-908.203,-31.250,0
1582145116.746,-46.387,-13.184,-911.133,-44.434,0
1582145116.750,-62.500,-15.137,-979.004,-56.152,0
1582145116.754,-63.477,-18.066,-971.191,-51.758,0
1582145116.756,-45.410,-17.578,-970.703,-48.828,0
1582145116.760,-43.457,-11.230,-972.168,-56.152,0
1582145116.764,-59.570,-10.254,-972.168,-61.035,0
1582145116.768,-63.477,-15.625,-972.168,-62.988,0
1582145116.772,-50.781,-18.066,-972.168,-67.383,0
1582145116.776,-39.062,-12.207,-972.168,-72.754,0
1582145116.780,-48.340,-11.230,-972.168,-74.707,0
1582145116.783,-59.570,-13.672,-972.168,-79.102,0
1582145116.787,-50.781,-7.324,-972.168,-71.777,0
1582145116.791,-43.457,-8.301,-972.168,-67.871,0
1582145116.795,-46.387,-8.301,-972.168,-74.219,0
1582145116.799,-55.176,-6.348,-972.168,-66.406,0
1582145116.801,-54.688,-10.742,-972.168,-56.152,0
1582145116.805,-40.527,-11.719,-972.168,-59.570,0
1582145116.809,-44.434,-9.277,-972.168,-62.500,0
1582145116.813,-57.617,-10.254,-972.168,-66.406,0
1582145116.817,-62.012,-13.672,-972.168,-69.824,0
1582145116.821,-55.664,-13.672,-972.168,-71.777,0
1582145116.825,-45.898,-11.230,-972.168,-76.172,0
1582145116.828,-45.410,-8.301,-972.168,-78.613,0
1582145116.832,-54.199,-7.812,-969.727,-81.543,0
1582145116.836,-52.246,-8.789,-978.027,-78.613,0
1582145116.840,-42.969,-7.812,-946.777,-75.195,0
1582145116.844,-45.410,-11.230,-918.457,-75.684,0
1582145116.846,-55.176,-11.230,-961.426,-77.148,0
1582145116.850,-55.176,-9.277,-975.098,-79.590,0
1582145116.854,-42.969,-9.277,-970.215,-78.613,0
1582145116.858,-50.293,-8.301,-972.168,-81.543,0
1582145116.862,-61.035,-9.766,-972.168,-82.520,0
1582145116.866,-61.035,-9.766,-972.168,-83.496,0
1582145116.870,-56.152,-7.812,-972.168,-85.449,0
1582145116.873,-49.805,-6.348,-972.168,-75.195,0
1582145116.877,-54.199,-3.906,-969.727,-73.242,0
1582145116.881,-57.617,-4.883,-978.516,-80.566,0
1582145116.885,-50.781,-8.789,-947.266,-73.730,0
1582145116.889,-47.363,-8.789,-930.176,-65.918,0
1582145116.891,-53.711,-11.719,-972.168,-63.965,0
1582145116.895,-62.988,-12.695,-976.074,-58.105,0
1582145116.899,-62.012,-12.207,-949.219,-55.176,0
1582145116.903,-53.711,-16.113,-948.730,-56.641,0
1582145116.907,-57.129,-14.648,-963.379,-60.059,0
1582145116.911,-66.895,-13.184,-966.309,-62.500,0
1582145116.915,-71.289,-13.184,-973.633,-62.500,0
1582145116.918,-63.477,-14.160,-971.191,-59.570,0
1582145116.922,-59.082,-11.719,-972.168,-58.594,0
1582145116.926,-62.500,-6.836,-972.168,-60.059,0
1582145116.930,-57.129,-5.859,-972.168,-52.734,0
1582145116.934,-43.945,-5.371,-972.168,-44.922,0
1582145116.936,-32.227,-3.906,-969.727,-40.039,0
1582145116.940,-37.109,-3.418,-970.703,-34.668,0
1582145116.944,-43.457,-7.324,-972.656,-33.203,0
1582145116.948,-38.574,-7.324,-972.168,-28.320,0
1582145116.952,-35.645,-4.395,-967.285,-23.926,0
1582145116.956,-42.480,-3.906,-969.727,-30.273,0
1582145116.960,-50.781,-4.395,-969.238,-35.156,0
1582145116.963,-46.875,-6.836,-980.469,-39.551,0
1582145116.967,-44.922,-9.277,-937.500,-41.016,0
1582145116.971,-46.875,-5.371,-894.531,-41.016,0
1582145116.975,-51.758,-3.418,-952.148,-41.504,0
1582145116.979,-52.246,-3.906,-974.121,-46.875,0
1582145116.981,-39.551,-2.441,-970.215,-55.176,0
1582145116.985,-42.969,-3.906,-972.168,-47.852,0
1582145116.989,-53.711,-4.395,-972.168,-42.480,0
1582145116.993,-56.152,-4.395,-972.168,-42.480,0
1582145116.997,-48.340,-3.906,-972.168,-43.945,0
1582145117.001,-44.434,-1.953,-972.168,-45.898,0
1582145117.005,-50.781,-5.371,-972.168,-47.852,0
1582145117.008,-59.082,-8.301,-972.168,-56.641,0
1582145117.012,-56.152,-8.789,-972.168,-55.664,0
1582145117.016,-45.410,-8.301,-972.168,-55.176,0
1582145117.020,-53.711,-5.371,-972.168,-55.176,0
1582145117.024,-63.965,-7.324,-972.168,-44.434,0
1582145117.026,-56.152,-9.766,-972.168,-38.574,0
1582145117.030,-43.457,-6.836,-972.168,-34.180,0
1582145117.034,-44.434,-5.859,-972.168,-31.250,0
1582145117.038,-53.223,-7.324,-972.168,-25.391,0
1582145117.042,-52.734,-7.324,-972.168,-20.020,0
1582145117.046,-42.480,-6.836,-972.168,-23.926,0
1582145117.050,-42.969,-8.789,-971.680,-29.297,0
1582145117.053,-59.082,-11.230,-972.168,-36.133,0
1582145117.057,-64.941,-8.789,-969.238,-39.062,0
1582145117.061,-51.758,-6.348,-970.703,-30.762,0
1582145117.065,-47.363,-7.324,-941.406,-29.297,0
1582145117.069,-53.711,-6.348,-856.934,-30.762,0
1582145117.086,-55.176,-3.906,-835.938,-24.414,0
1582145117.090,-50.781,-5.859,-922.852,-25.391,0
1582145117.094,-48.828,-6.836,-950.195,-24.414,0
1582145117.098,-55.664,-4.395,-901.367,-24.902,0
1582145117.102,-59.570,-6.348,-944.824,-24.414,0
1582145117.106,-57.129,-12.207,-976.562,-23.926,0
1582145117.110,-50.293,-15.137,-970.215,-35.156,0
1582145117.113,-53.711,-11.719,-972.656,-37.109,0
1582145117.117,-66.895,-9.766,-968.750,-39.551,0
1582145117.121,-66.406,-10.742,-977.539,-39.551,0
1582145117.125,-54.688,-7.324,-946.289,-44.434,0
1582145117.129,-45.898,-7.812,-861.816,-49.805,0
1582145117.131,-53.711,-8.789,-853.516,-41.504,0
1582145117.135,-60.547,-5.371,-939.453,-44.434,0
1582145117.139,-46.875,-2.930,-945.801,-49.805,0
1582145117.143,-42.969,-4.395,-824.707,-57.129,0
1582145117.147,-49.805,-6.348,-866.699,-72.266,0
1582145117.151,-51.270,-7.324,-971.680,-66.406,0
1582145117.155,-50.293,-9.766,-982.422,-71.777,0
1582145117.158,-47.852,-9.277,-932.617,-77.637,0
1582145117.162,-49.316,-4.883,-875.488,-67.383,0
1582145117.166,-54.688,-1.953,-961.914,-64.941,0
1582145117.170,-50.781,-3.906,-944.336,-57.617,0
1582145117.174,-41.992,-6.348,-847.168,-59.570,0
1582145117.176,-40.039,-7.324,-863.281,-59.570,0
1582145117.180,-51.270,-2.930,-909.180,-62.012,0
1582145117.184,-59.082,-2.930,-871.582,-66.895,0
1582145117.188,-51.270,-12.207,-805.664,-56.641,0
1582145117.192,-48.828,-13.672,-855.957,-59.082,0
1582145117.196,-58.105,-12.207,-966.309,-63.965,0
1582145117.200,-69.824,-8.301,-979.004,-66.406,0
1582145117.203,-65.430,-6.348,-946.777,-73.242,0
1582145117.207,-47.852,-9.277,-933.105,-71.289,0
1582145117.211,-50.781,-9.277,-971.680,-75.195,0
1582145117.215,-53.711,-9.766,-977.539,-69.336,0
1582145117.219,-41.016,-7.324,-952.148,-61.035,0
1582145117.221,-41.992,-7.812,-950.195,-60.059,0
1582145117.225,-50.781,-12.207,-969.727,-54.199,0
1582145117.229,-60.547,-12.695,-968.262,-56.152,0
1582145117.233,-58.105,-10.254,-972.168,-52.734,0
1582145117.237,-42.969,-8.301,-970.215,-51.758,0
1582145117.241,-38.574,-5.859,-972.168,-55.176,0
1582145117.245,-53.223,-4.395,-972.168,-48.340,0
1582145117.248,-62.988,-6.836,-971.680,-48.340,0
1582145117.252,-55.176,-7.324,-972.168,-44.922,0
1582145117.256,-53.711,-8.301,-973.633,-57.129,0
1582145117.260,-63.477,-14.160,-954.590,-65.918,0
1582145117.264,-64.941,-13.672,-953.125,-53.223,0
1582145117.266,-55.664,-10.254,-975.586,-53.711,0
1582145117.270,-44.922,-12.695,-955.078,-52.246,0
1582145117.274,-50.781,-10.742,-956.543,-53.223,0
1582145117.278,-60.547,-6.348,-975.586,-58.594,0
1582145117.282,-51.758,-5.859,-971.191,-45.898,0
1582145117.286,-43.457,-6.836,-972.168,-47.363,0
1582145117.290,-50.781,-7.812,-972.656,-56.641,0
1582145117.293,-56.152,-4.395,-969.238,-57.129,0
1582145117.297,-50.781,-4.883,-978.027,-58.105,28030
1582145117.301,-41.504,-12.207,-954.590,-41.504,0
1582145117.305,-44.434,-12.207,-916.016,-36.621,0
1582145117.309,-57.129,-10.742,-958.984,-39.062,0
1582145117.311,-57.129,-10.742,-977.051,-42.480,0
1582145117.315,-52.246,-12.695,-969.238,-42.480,0
1582145117.319,-50.293,-15.625,-972.656,-33.203,0
1582145117.323,-54.199,-14.160,-972.168,-34.180,0
1582145117.327,-57.617,-12.207,-972.168,-32.715,0
1582145117.331,-53.711,-12.695,-972.168,-33.691,0
1582145117.335,-49.805,-16.602,-972.168,-40.527,0
1582145117.338,-54.688,-16.602,-970.703,-36.133,0
1582145117.342,-60.547,-13.184,-975.098,-32.227,0
1582145117.346,-55.664,-9.766,-961.426,-35.156,0
1582145117.350,-42.480,-10.254,-951.172,-45.410,0
1582145117.354,-38.086,-7.812,-928.711,-46.387,0
1582145117.356,-51.758,-6.348,-918.945,-40.527,0
1582145117.360,-55.664,-9.766,-963.867,-42.969,0
1582145117.364,-44.434,-9.766,-961.914,-41.504,0
1582145117.368,-38.574,-7.812,-959.961,-48.828,0
1582145117.372,-47.363,-6.348,-964.844,-49.805,0
1582145117.376,-53.223,-7.324,-973.145,-40.527,0
1582145117.380,-46.387,-7.324,-972.168,-45.410,0
1582145117.383,-43.945,-9.766,-972.168,-45.410,0
1582145117.387,-49.805,-11.230,-972.168,-44.922,0
1582145117.391,-57.129,-11.230,-972.168,-52.734,0
1582145117.395,-53.711,-13.672,-972.168,-49.805,0
1582145117.399,-41.504,-12.695,-972.168,-53.711,0
1582145117.401,-41.992,-7.812,-972.168,-51.270,0
1582145117.405,-51.270,-4.883,-972.168,-57.617,0
1582145117.409,-54.199,-3.418,-972.168,-58.594,0
1582145117.413,-45.898,-4.883,-972.168,-39.551,0
1582145117.417,-45.898,-6.348,-970.703,-34.668,0
1582145117.421,-58.105,-4.883,-970.703,-29.297,0
1582145117.425,-59.082,-5.859,-972.656,-35.645,0
1582145117.428,-41.016,-5.859,-971.191,-35.645,0
1582145117.432,-33.691,-4.883,-969.238,-18.066,0
1582145117.436,-42.480,-3.906,-971.680,-20.020,0
1582145117.440,-44.922,-3.906,-972.656,-13.672,0
1582145117.444,-40.527,-5.371,-971.680,-22.461,0
1582145117.461,-38.574,-5.859,-972.168,-34.180,0
1582145117.465,-42.969,-6.348,-972.168,-27.832,0
1582145117.469,-56.641,-8.789,-971.191,-32.227,0
1582145117.473,-60.059,-10.742,-975.098,-30.762,0
1582145117.477,-49.805,-10.254,-960.938,-34.668,0
1582145117.481,-51.758,-8.789,-958.008,-39.062,0
1582145117.485,-62.988,-10.742,-974.121,-34.180,0
1582145117.488,-64.941,-8.789,-971.680,-33.691,0
1582145117.492,-50.781,-4.883,-971.680,-26.855,0
1582145117.496,-43.945,-6.348,-972.656,-24.414,0
1582145117.500,-59.570,-6.348,-970.215,-37.109,0
1582145117.504,-61.523,-5.859,-976.074,-32.715,0
1582145117.506,-48.340,-6.348,-956.055,-22.949,0
1582145117.510,-47.852,-4.395,-950.195,-19.531,0
1582145117.514,-55.176,-5.859,-920.410,-27.344,0
1582145117.518,-57.129,-8.789,-931.152,-29.297,0
1582145117.522,-52.246,-5.859,-953.613,-17.578,0
1582145117.526,-40.527,-3.418,-946.289,-24.414,0
1582145117.530,-42.480,-3.906,-977.051,-23.438,0
1582145117.533,-61.523,-4.883,-970.703,-28.809,0
1582145117.537,-65.918,-7.324,-966.797,-28.809,0
1582145117.541,-50.781,-7.324,-977.051,-19.043,0
1582145117.545,-50.293,-9.766,-938.477,-32.227,0
1582145117.549,-62.012,-14.160,-906.738,-31.250,0
1582145117.551,-60.547,-12.695,-958.496,-27.832,0
1582145117.555,-53.223,-8.789,-974.609,-32.227,0
1582145117.559,-53.223,-9.277,-935.547,-26.855,0
1582145117.563,-60.059,-8.789,-910.645,-17.578,0
1582145117.567,-58.594,-7.324,-943.359,-19.531,0
1582145117.571,-47.852,-8.301,-974.609,-30.273,0
1582145117.575,-40.527,-10.742,-972.168,-31.738,0
1582145117.578,-48.340,-9.277,-970.703,-24.414,0
1582145117.582,-59.570,-8.301,-965.332,-25.391,0
1582145117.586,-58.594,-10.254,-971.680,-21.484,0
1582145117.590,-56.641,-11.719,-971.191,-27.832,0
1582145117.594,-60.547,-12.207,-969.727,-32.715,0
1582145117.596,-66.406,-12.207,-971.191,-20.020,0
1582145117.600,-61.035,-10.742,-974.121,-19.043,0
1582145117.604,-45.898,-9.277,-964.844,-16.602,0
1582145117.608,-43.457,-10.742,-926.270,-24.414,0
1582145117.612,-56.641,-11.719,-948.730,-26.367,0
1582145117.616,-60.059,-12.695,-978.027,-17.578,0
1582145117.620,-48.340,-10.254,-970.215,-21.484,0
1582145117.623,-50.293,-10.254,-972.656,-26.855,0
1582145117.627,-62.500,-11.719,-969.727,-32.715,0
1582145117.631,-65.430,-10.742,-976.562,-28.320,0
1582145117.635,-59.570,-12.695,-960.938,-21.484,0
1582145117.639,-53.223,-16.113,-935.547,-25.879,0
1582145117.641,-54.688,-14.160,-961.426,-25.879,0
1582145117.645,-56.152,-15.137,-948.242,-22.949,0
1582145117.649,-45.898,-18.066,-933.105,-24.414,0
1582145117.653,-37.109,-18.066,-944.336,-20.508,0
1582145117.657,-39.062,-17.090,-955.078,-22.949,0
1582145117.661,-48.340,-16.113,-965.820,-20.508,0
1582145117.665,-53.711,-17.090,-970.703,-18.066,0
1582145117.668,-45.898,-18.555,-974.121,-21.973,0
1582145117.672,-49.316,-15.625,-962.891,-21.973,0
1582145117.676,-58.594,-15.137,-910.156,-24.414,0
1582145117.680,-56.152,-18.555,-884.766,-21.973,0
1582145117.684,-49.805,-16.602,-926.758,-26.367,0
1582145117.687,-46.875,-15.137,-974.609,-30.273,0
1582145117.691,-63.477,-19.043,-968.750,-23.926,0
1582145117.695,-75.195,-25.391,-974.609,-30.762,0
1582145117.699,-60.547,-23.438,-967.773,-24.902,0
1582145117.703,-51.758,-18.066,-909.180,-24.902,0
1582145117.707,-61.523,-17.090,-942.383,-35.645,0
1582145117.711,-73.730,-18.555,-978.516,-29.785,0
1582145117.714,-65.918,-20.996,-975.586,-28.809,0
1582145117.718,-49.316,-19.531,-937.500,-28.320,0
1582145117.722,-49.316,-15.625,-926.758,-28.320,0
1582145117.726,-53.711,-10.742,-973.145,-26.855,0
1582145117.730,-54.199,-10.742,-975.098,-19.531,0
1582145117.732,-42.969,-12.207,-963.867,-18.555,0
1582145117.736,-37.109,-11.230,-930.176,-16.113,0
1582145117.740,-49.316,-10.254,-949.219,-22.949,0
1582145117.744,-54.688,-8.301,-975.586,-23.438,0
1582145117.748,-42.969,-7.324,-970.703,-12.207,0
1582145117.752,-38.086,-9.766,-972.168,-18.066,0
1582145117.756,-47.363,-10.742,-965.820,-22.949,0
1582145117.759,-51.270,-9.277,-985.840,-26.367,0
1582145117.763,-44.434,-6.836,-909.668,-26.855,0
1582145117.767,-39.551,-6.348,-779.785,-15.625,0
1582145117.771,-41.016,-5.859,-880.859,-13.184,0
1582145117.775,-47.363,-5.859,-982.422,-15.625,0
1582145117.777,-44.434,-9.766,-888.672,-15.625,0
1582145117.781,-30.273,-9.766,-866.211,-19.043,0
1582145117.785,-33.691,-8.789,-914.062,-14.648,0
1582145117.789,-49.316,-8.789,-920.410,-15.625,0
1582145117.793,-53.711,-6.348,-959.961,-20.020,0
1582145117.797,-49.316,-7.812,-975.098,-20.020,0
1582145117.801,-52.734,-9.766,-970.215,-25.391,0
1582145117.804,-62.500,-9.277,-972.168,-22.949,0
1582145117.808,-65.430,-9.277,-972.168,-19.043,0
1582145117.812,-52.246,-5.859,-972.168,-16.602,0
1582145117.816,-41.504,-4.883,-972.168,-21.973,0
1582145117.820,-55.176,-8.789,-972.168,-20.020,0
1582145117.837,-68.359,-8.789,-971.680,-14.160,0
1582145117.841,-62.012,-9.277,-972.656,-18.066,0
1582145117.845,-49.805,-11.719,-971.680,-18.555,0
1582145117.849,-56.641,-10.254,-962.402,-17.578,0
1582145117.853,-74.707,-11.230,-967.285,-23.926,0
1582145117.857,-75.684,-12.695,-972.168,-26.855,0
1582145117.861,-62.988,-12.207,-975.098,-23.926,0
1582145117.864,-60.059,-12.207,-946.289,-25.391,0
1582145117.868,-67.383,-8.789,-937.988,-33.203,0
1582145117.872,-66.406,-6.836,-972.656,-31.250,0
1582145117.876,-57.129,-10.742,-977.539,-30.273,0
1582145117.880,-52.734,-12.207,-917.480,-31.738,0
1582145117.882,-62.988,-10.254,-898.926,-30.762,0
1582145117.886,-71.289,-12.695,-968.750,-40.527,0
1582145117.890,-67.383,-14.648,-961.914,-39.062,0
1582145117.894,-64.941,-13.672,-914.062,-34.668,0
1582145117.898,-69.336,-18.555,-947.266,-37.109,0
1582145117.902,-73.730,-17.578,-978.027,-35.645,0
1582145117.906,-70.312,-13.184,-970.215,-39.062,0
1582145117.909,-61.035,-12.695,-946.289,-34.668,0
1582145117.913,-62.012,-9.766,-960.449,-28.809,0
1582145117.917,-75.195,-10.254,-976.562,-34.668,0
1582145117.921,-74.219,-13.184,-970.215,-37.109,0
1582145117.925,-56.641,-13.672,-972.656,-34.668,0
1582145117.927,-43.457,-10.742,-972.168,-18.555,0
1582145117.931,-42.969,-10.254,-969.727,-4.883,0
1582145117.935,-64.941,-17.578,-977.539,-19.531,0
1582145117.939,-70.801,-22.949,-952.637,-20.996,0
1582145117.943,-57.617,-25.391,-931.641,-11.230,0
1582145117.947,-64.453,-24.414,-970.215,-12.207,0
1582145117.951,-68.359,-23.926,-974.609,-9.277,0
1582145117.954,-59.570,-23.926,-970.215,-11.230,0
1582145117.958,-51.758,-23.926,-972.168,-8.789,0
1582145117.962,-51.758,-24.902,-972.168,-8.301,0
1582145117.966,-55.176,-24.414,-970.703,-3.418,0
1582145117.970,-46.875,-21.484,-970.703,-1.953,0
1582145117.972,-34.180,-21.484,-979.492,-1.465,0
1582145117.976,-42.480,-24.414,-909.668,-3.906,0
1582145117.980,-55.176,-24.414,-906.250,-12.207,0
1582145117.984,-61.523,-22.949,-958.496,-9.277,0
1582145117.988,-54.688,-21.484,-903.809,-7.324,0
1582145117.992,-54.199,-18.555,-930.664,-12.207,0
1582145117.996,-69.824,-19.043,-975.098,-10.254,0
1582145117.999,-66.895,-19.043,-970.703,-11.230,0
1582145118.003,-52.246,-18.555,-971.680,-10.742,0
1582145118.007,-50.293,-16.602,-972.168,-4.395,0
1582145118.011,-54.688,-12.207,-972.168,3.906,0
1582145118.015,-56.152,-12.207,-972.168,7.324,0
1582145118.017,-46.875,-12.695,-972.168,0.000,0
1582145118.021,-34.180,-11.719,-972.168,1.465,0
1582145118.025,-41.992,-11.230,-972.168,3.906,0
1582145118.029,-59.082,-11.230,-972.168,-3.906,0
1582145118.033,-65.918,-12.207,-972.168,-8.301,0
1582145118.037,-59.082,-11.719,-972.168,-14.648,0
1582145118.041,-58.594,-10.742,-972.168,-16.602,0
1582145118.044,-65.918,-9.277,-971.680,-16.113,0
1582145118.048,-65.918,-7.812,-972.656,-20.508,0
1582145118.052,-54.199,-7.812,-971.680,-14.648,0
1582145118.056,-46.387,-11.230,-963.867,-17.578,0
1582145118.060,-54.199,-14.648,-969.238,-18.066,0
1582145118.062,-58.105,-16.113,-973.145,-12.695,0
1582145118.066,-45.410,-16.602,-971.680,-15.137,0
1582145118.070,-43.945,-14.648,-972.168,-20.996,0
1582145118.074,-58.105,-7.812,-972.168,-30.273,0
1582145118.078,-71.777,-9.766,-972.168,-29.297,0
1582145118.082,-68.848,-15.625,-972.168,-30.273,0
1582145118.086,-59.570,-13.672,-972.168,-19.531,0
1582145118.089,-65.918,-10.742,-972.168,-18.555,0
1582145118.093,-75.195,-5.859,-972.168,-33.203,0
1582145118.097,-69.824,-2.930,-972.168,-22.461,0
1582145118.101,-58.594,-3.418,-972.168,-19.531,0
1582145118.105,-60.547,-7.812,-972.168,-25.391,0
1582145118.106,-68.848,-10.742,-972.168,-24.414,0
1582145118.110,-69.824,-13.672,-971.680,-20.996,0
1582145118.114,-61.523,-13.672,-972.656,-21.484,0
1582145118.118,-58.105,-5.859,-971.680,-18.555,0
1582145118.122,-62.500,-4.883,-964.355,-16.113,0
1582145118.126,-68.848,-11.230,-969.727,-22.461,0
1582145118.130,-60.547,-13.672,-973.145,-28.320,0
1582145118.133,-51.270,-12.695,-971.680,-30.273,0
1582145118.137,-59.570,-9.277,-972.168,-34.180,0
1582145118.141,-65.430,-7.324,-972.168,-35.156,0
1582145118.145,-58.594,-11.230,-972.168,-31.250,0
1582145118.149,-47.852,-10.742,-972.168,-29.785,0
1582145118.152,-50.781,-6.348,-972.168,-30.273,0
1582145118.156,-71.289,-8.789,-970.703,-30.273,0
1582145118.160,-73.730,-12.695,-973.633,-24.414,0
1582145118.164,-61.523,-16.602,-969.727,-26.367,0
1582145118.168,-66.895,-19.043,-952.148,-37.109,0
1582145118.172,-82.031,-14.648,-965.820,-34.668,0
1582145118.176,-85.938,-4.883,-975.586,-36.621,0
1582145118.179,-67.871,0.000,-969.727,-42.969,0
1582145118.183,-56.152,-0.977,-958.008,-32.715,0
1582145118.187,-65.430,1.953,-966.309,-29.297,0
1582145118.191,-69.336,1.953,-974.121,-23.438,0
1582145118.195,-57.129,-1.465,-971.191,-20.996,0
1582145118.211,-41.504,0.000,-972.168,-21.484,0
1582145118.215,-52.246,-2.441,-972.168,-18.555,0
1582145118.219,-70.801,-8.789,-972.168,-27.832,0
1582145118.223,-64.453,-10.742,-972.168,-31.738,0
1582145118.227,-59.570,-9.277,-972.168,-30.273,0
1582145118.231,-65.918,-3.418,-972.168,-33.203,0
1582145118.235,-72.754,0.000,-972.168,-36.133,0
1582145118.238,-72.266,-3.906,-972.168,-36.621,0
1582145118.242,-62.500,-8.301,-972.168,-26.855,0
1582145118.246,-54.688,-10.254,-972.168,-22.461,0
1582145118.250,-53.711,-6.836,-972.168,-17.090,0
1582145118.254,-75.684,-1.953,-972.168,-28.809,0
1582145118.256,-81.543,0.488,-972.168,-50.781,0
1582145118.260,-60.547,5.859,-972.168,-41.504,0
1582145118.264,-55.664,11.230,-972.168,-32.715,0
1582145118.268,-67.871,14.648,-972.168,-44.434,0
1582145118.272,-62.012,12.207,-972.168,-48.340,0
1582145118.276,-49.316,9.277,-972.168,-39.062,0
1582145118.280,-50.293,8.301,-972.168,-37.598,0
1582145118.283,-56.641,7.324,-972.168,-34.180,0
1582145118.287,-53.711,9.766,-972.168,-31.738,0
1582145118.291,-47.852,7.812,-972.168,-38.574,0
1582145118.295,-56.152,8.301,-972.168,-40.039,0
1582145118.299,-63.965,8.789,-972.168,-32.227,0
1582145118.301,-62.012,4.883,-972.168,-26.855,0
1582145118.305,-51.758,6.836,-972.168,-30.762,0
1582145118.309,-48.828,3.906,-972.168,-32.227,0
1582145118.313,-59.082,-6.836,-972.168,-37.598,0
1582145118.317,-63.965,-4.883,-972.168,-37.109,0
1582145118.321,-56.641,5.371,-972.168,-24.414,0
1582145118.325,-51.270,7.324,-972.168,-30.762,0
1582145118.328,-65.430,7.812,-972.168,-35.156,0
1582145118.332,-79.102,9.766,-972.168,-37.109,0
1582145118.336,-74.219,9.277,-972.168,-41.504,0
1582145118.340,-63.965,4.395,-971.680,-33.691,0
1582145118.344,-66.895,0.977,-968.750,-32.227,0
1582145118.346,-78.125,0.488,-977.539,-37.109,0
1582145118.350,-70.801,0.488,-961.426,-27.344,0
1582145118.354,-54.199,-4.395,-931.152,-24.414,0
1582145118.358,-60.547,-8.789,-966.309,-38.574,0
1582145118.362,-75.195,-7.324,-976.074,-39.551,0
1582145118.366,-70.801,-7.324,-969.727,-29.297,0
1582145118.370,-61.035,-5.859,-972.656,-33.691,0
1582145118.373,-59.082,-2.930,-972.168,-41.992,0
1582145118.377,-66.895,-4.395,-972.168,-38.574,0
1582145118.381,-66.406,-8.789,-972.168,-40.039,0
1582145118.385,-57.129,-8.789,-972.168,-41.992,0
1582145118.389,-56.152,-7.324,-972.168,-40.039,0
1582145118.391,-70.312,-6.348,-972.168,-35.645,0
1582145118.395,-81.055,0.000,-972.168,-40.039,0
1582145118.399,-72.754,3.418,-972.168,-39.551,0
1582145118.403,-64.941,0.977,-972.168,-44.922,0
1582145118.407,-65.918,-2.441,-970.703,-42.969,0
1582145118.411,-73.730,-4.395,-974.121,-32.715,0
1582145118.415,-67.871,-4.883,-967.773,-29.297,0
1582145118.418,-52.734,-6.348,-955.078,-19.531,28021
1582145118.422,-56.641,-3.906,-970.215,-23.438,0
1582145118.426,-69.336,-4.395,-973.633,-31.738,0
1582145118.430,-79.102,-5.859,-971.191,-33.691,0
1582145118.434,-73.242,-6.836,-972.168,-34.668,0
1582145118.436,-61.523,-4.883,-972.168,-37.109,0
1582145118.440,-69.824,-4.395,-971.680,-41.992,0
1582145118.444,-82.031,-4.883,-971.680,-41.016,0
1582145118.448,-78.125,-9.766,-976.074,-32.227,0
1582145118.452,-62.500,-13.184,-941.895,-28.320,0
1582145118.456,-62.500,-9.766,-946.777,-30.762,0
1582145118.460,-69.824,-9.277,-977.539,-31.250,0
1582145118.463,-72.266,-6.836,-970.703,-35.156,0
1582145118.467,-62.500,-7.324,-972.168,-28.320,0
1582145118.471,-57.129,-10.254,-972.656,-24.902,0
1582145118.475,-69.336,-11.719,-969.727,-31.738,0
1582145118.479,-66.895,-9.766,-976.074,-29.297,0
1582145118.481,-62.012,-6.348,-963.867,-29.785,0
1582145118.485,-62.988,-3.906,-933.594,-26.367,0
1582145118.489,-63.965,-3.906,-962.402,-22.461,0
1582145118.493,-69.336,-7.812,-976.562,-27.344,0
1582145118.497,-64.453,-7.812,-969.727,-21.973,0
1582145118.501,-62.988,-5.859,-972.656,-21.484,0
1582145118.505,-69.336,-7.812,-972.168,-20.508,0
1582145118.508,-66.406,-10.254,-972.168,-18.066,0
1582145118.512,-63.965,-11.230,-972.168,-16.113,0
1582145118.516,-62.500,-10.742,-972.168,-14.160,0
1582145118.520,-68.848,-12.207,-971.680,-19.043,0
1582145118.524,-79.102,-14.648,-972.168,-19.043,0
1582145118.526,-76.660,-13.184,-972.168,-20.020,0
1582145118.530,-69.336,-15.137,-972.168,-21.484,0
1582145118.534,-71.777,-14.160,-972.168,-23.926,0
1582145118.538,-79.590,-11.719,-972.168,-32.227,0
1582145118.542,-71.289,-9.277,-972.168,-29.785,0
1582145118.546,-58.105,-8.301,-972.168,-20.508,0
1582145118.550,-57.617,-13.184,-972.168,-27.344,0
1582145118.553,-62.012,-10.254,-972.168,-28.809,0
1582145118.557,-64.941,-6.836,-972.168,-16.113,0
1582145118.561,-62.012,-6.836,-972.168,-10.742,0
1582145118.565,-58.105,-6.836,-972.168,-14.648,0
1582145118.569,-69.824,-6.348,-972.168,-18.555,0
1582145118.587,-76.172,-7.324,-972.168,-18.555,0
1582145118.591,-65.430,-11.230,-972.168,-21.973,0
1582145118.595,-55.664,-10.254,-972.168,-26.367,0
1582145118.599,-58.594,-3.906,-972.168,-22.461,0
1582145118.603,-68.359,-5.371,-972.168,-20.020,0
1582145118.607,-73.242,-5.371,-972.168,-20.020,0
1582145118.611,-66.895,-4.883,-972.168,-17.090,0
1582145118.614,-57.129,-7.324,-972.168,-16.602,0
1582145118.618,-61.523,-5.859,-972.168,-16.602,0
1582145118.622,-63.965,-4.883,-972.168,-19.043,0
1582145118.626,-54.688,-3.418,-972.168,-14.648,0
1582145118.630,-52.246,-2.930,-972.168,-10.254,0
1582145118.632,-57.617,-1.953,-972.168,-5.371,0
1582145118.636,-59.082,-1.465,-972.168,1.953,0
1582145118.640,-47.363,-1.953,-972.168,-0.977,0
1582145118.644,-42.480,-3.418,-972.168,-4.395,0
1582145118.648,-55.664,-6.836,-972.168,-7.812,0
1582145118.652,-64.453,-10.254,-972.168,-10.742,0
1582145118.656,-55.664,-7.812,-972.168,-10.742,0
1582145118.659,-35.645,-7.812,-972.168,-15.137,0
1582145118.663,-32.715,-11.230,-972.168,-9.766,0
1582145118.667,-53.711,-5.859,-971.680,-7.812,0
1582145118.671,-63.965,-2.441,-972.168,-3.906,0
1582145118.675,-60.059,-1.953,-972.168,5.371,0
1582145118.677,-60.059,2.441,-967.773,8.301,0
1582145118.681,-61.035,1.465,-970.215,1.953,0
1582145118.685,-58.594,-4.883,-973.145,-3.418,0
1582145118.689,-56.641,-10.254,-971.191,1.465,0
1582145118.693,-58.594,-15.137,-968.262,-2.930,0
1582145118.697,-55.176,-13.184,-971.191,8.301,0
1582145118.701,-39.062,-4.883,-972.656,28.320,0
1582145118.704,-48.340,1.465,-971.680,7.324,0
1582145118.708,-74.707,-0.977,-972.168,-24.414,0
1582145118.712,-82.520,-2.930,-972.168,-35.645,0
1582145118.716,-95.215,-4.883,-972.168,-48.340,0
1582145118.720,-99.609,-8.301,-972.168,-60.059,0
1582145118.722,-91.797,-7.324,-972.168,-64.941,0
1582145118.726,-102.539,-4.883,-972.168,-66.406,0
1582145118.730,-113.281,-2.930,-972.168,-69.336,0
1582145118.734,-102.539,-1.953,-972.168,-70.801,0
1582145118.738,-82.031,-1.465,-972.168,-61.523,0
1582145118.742,-73.730,-2.930,-972.168,-55.176,0
1582145118.746,-82.520,-7.324,-972.168,-53.223,0
1582145118.749,-88.867,-9.277,-971.191,-49.316,0
1582145118.753,-77.148,-10.254,-974.121,-50.293,0
1582145118.757,-62.988,-10.742,-965.332,-50.781,0
1582145118.761,-67.871,-9.766,-959.961,-52.734,0
1582145118.765,-76.660,-3.906,-972.656,-46.387,0
1582145118.767,-74.707,-5.371,-972.168,-37.598,0
1582145118.771,-64.941,-11.230,-971.680,-38.086,0
1582145118.775,-65.430,-10.742,-972.168,-45.410,0
1582145118.779,-70.801,-13.184,-972.168,-41.504,0
1582145118.783,-67.871,-13.184,-972.168,-27.344,0
1582145118.787,-63.965,-10.742,-972.168,-30.273,0
1582145118.791,-72.754,-11.719,-972.168,-31.738,0
1582145118.794,-81.055,-10.742,-971.680,-33.203,0
1582145118.798,-77.637,-10.742,-972.168,-43.945,0
1582145118.802,-67.871,-15.137,-972.656,-39.551,0
1582145118.806,-60.547,-15.625,-961.914,-34.668,0
1582145118.810,-72.266,-15.625,-966.797,-41.016,0
1582145118.812,-76.660,-16.113,-973.633,-41.504,0
1582145118.816,-63.477,-14.648,-971.191,-42.480,0
1582145118.820,-60.547,-11.719,-972.168,-36.621,0
1582145118.824,-68.359,-7.812,-972.168,-30.762,0
1582145118.828,-74.707,-6.348,-972.168,-34.180,0
1582145118.832,-66.895,-7.812,-972.168,-36.621,0
1582145118.836,-52.246,-9.277,-972.168,-36.621,0
1582145118.839,-55.176,-9.277,-972.168,-36.133,0
1582145118.843,-68.848,-8.789,-972.168,-37.598,0
1582145118.847,-65.430,-7.324,-972.168,-31.250,0
1582145118.851,-49.805,-9.277,-972.168,-36.133,0
1582145118.855,-50.781,-9.277,-972.168,-42.969,0
1582145118.857,-57.617,-5.371,-972.168,-32.715,0
1582145118.861,-58.105,-6.348,-972.168,-31.250,0
1582145118.865,-49.316,-4.395,-972.168,-28.320,0
1582145118.869,-45.898,-2.930,-972.168,-29.785,0
1582145118.873,-53.711,-5.859,-972.168,-33.691,0
1582145118.877,-59.082,-11.719,-972.168,-26.367,0
1582145118.881,-56.641,-16.113,-972.168,-21.973,0
1582145118.884,-49.805,-13.672,-972.168,-21.973,0
1582145118.888,-54.199,-13.184,-972.168,-21.973,0
1582145118.892,-60.059,-13.184,-972.168,-20.020,0
1582145118.896,-59.082,-10.254,-972.168,-14.648,0
1582145118.900,-53.223,-12.695,-972.168,-19.043,0
1582145118.902,-55.176,-14.160,-972.168,-25.391,0
1582145118.906,-61.523,-12.207,-971.680,-31.738,0
1582145118.910,-58.105,-13.672,-972.656,-27.832,0
1582145118.914,-49.805,-12.695,-970.215,-19.531,0
1582145118.918,-52.734,-10.742,-968.750,-22.949,0
1582145118.922,-66.895,-10.742,-971.680,-20.996,0
1582145118.926,-66.406,-8.789,-971.191,-22.949,0
1582145118.929,-54.688,-7.812,-975.586,-28.809,0
1582145118.933,-49.316,-8.789,-951.172,-23.926,0
1582145118.937,-57.617,-9.766,-939.941,-25.879,0
1582145118.941,-64.453,-12.695,-970.703,-25.879,0
1582145118.945,-57.129,-13.184,-974.121,-27.832,0
1582145118.962,-55.176,-11.719,-966.309,-29.297,0
1582145118.966,-63.965,-14.160,-968.262,-23.926,0
1582145118.970,-72.266,-13.672,-973.145,-24.902,0
1582145118.974,-68.848,-10.254,-971.680,-19.531,0
1582145118.978,-55.176,-11.230,-972.168,-18.555,0
1582145118.982,-60.547,-13.672,-972.168,-29.297,0
1582145118.986,-68.848,-11.719,-972.168,-27.344,0
1582145118.989,-59.082,-11.719,-972.168,-21.973,0
1582145118.993,-53.711,-14.160,-972.168,-22.461,0
1582145118.997,-53.711,-10.742,-972.168,-31.738,0
1582145119.001,-60.059,-9.277,-970.703,-35.156,0
1582145119.005,-68.359,-14.160,-975.586,-27.832,0
1582145119.007,-61.035,-15.137,-960.938,-30.762,0
1582145119.011,-50.293,-17.090,-951.172,-33.691,0
1582145119.015,-62.500,-20.996,-972.656,-47.363,0
1582145119.019,-73.242,-18.555,-972.656,-57.617,0
1582145119.023,-63.965,-18.066,-971.191,-50.781,0
1582145119.027,-57.617,-19.043,-972.168,-49.316,0
1582145119.031,-63.965,-18.066,-972.168,-42.480,0
1582145119.034,-78.125,-18.555,-972.168,-44.434,0
1582145119.038,-82.520,-23.926,-971.680,-49.316,0
1582145119.042,-73.242,-21.973,-972.656,-41.504,0
1582145119.046,-73.730,-17.578,-968.750,-47.852,0
1582145119.050,-79.590,-18.555,-968.750,-46.387,0
1582145119.052,-78.125,-24.414,-973.145,-45.410,0
1582145119.056,-69.336,-26.855,-972.168,-44.922,0
1582145119.060,-71.777,-24.414,-965.332,-37.598,0
1582145119.064,-82.520,-18.555,-968.750,-40.039,0
1582145119.068,-81.055,-14.160,-973.145,-34.180,0
1582145119.072,-69.824,-15.625,-971.680,-29.297,0
1582145119.076,-69.336,-15.625,-972.168,-35.645,0
1582145119.079,-76.172,-14.648,-972.168,-32.715,0
1582145119.083,-79.102,-16.602,-972.168,-29.785,0
1582145119.087,-74.219,-20.020,-972.168,-31.738,0
1582145119.091,-60.059,-19.531,-972.168,-36.621,0
1582145119.095,-59.082,-18.066,-972.168,-36.133,0
1582145119.097,-74.707,-18.066,-968.262,-30.273,0
1582145119.101,-75.195,-17.578,-982.422,-33.203,0
1582145119.105,-68.359,-17.578,-923.340,-26.855,0
1582145119.109,-70.312,-18.066,-864.258,-31.250,0
1582145119.113,-76.660,-15.625,-946.289,-34.180,0
1582145119.117,-72.754,-13.184,-979.004,-20.020,0
1582145119.121,-63.965,-13.672,-968.262,-22.461,0
1582145119.124,-62.012,-9.766,-972.656,-21.973,0
1582145119.128,-68.359,-10.254,-970.215,-28.809,0
1582145119.132,-76.172,-13.184,-976.074,-30.273,0
1582145119.136,-68.848,-10.742,-960.449,-19.043,0
1582145119.140,-61.035,-12.207,-934.570,-16.113,0
1582145119.142,-69.336,-14.648,-963.867,-16.113,0
1582145119.146,-70.312,-14.160,-975.586,-29.297,0
1582145119.150,-62.012,-15.625,-970.215,-37.598,0
1582145119.154,-58.594,-14.648,-973.145,-35.156,0
1582145119.158,-69.336,-13.184,-965.820,-34.668,0
1582145119.162,-89.844,-15.137,-968.262,-35.156,0
1582145119.166,-90.820,-14.648,-973.145,-41.992,0
1582145119.169,-69.336,-11.719,-971.680,-40.527,0
1582145119.173,-66.895,-12.207,-970.703,-29.785,0
1582145119.177,-73.242,-13.672,-975.586,-25.879,0
1582145119.181,-68.848,-13.672,-942.871,-19.043,0
1582145119.185,-57.617,-11.719,-939.453,-22.949,0
1582145119.187,-50.781,-7.812,-961.914,-29.297,0
1582145119.191,-62.988,-6.836,-957.031,-25.391,0
1582145119.195,-72.754,-7.324,-969.727,-28.320,0
1582145119.199,-68.848,-7.324,-980.469,-26.367,0
1582145119.203,-64.453,-10.742,-939.453,-30.762,0
1582145119.207,-65.918,-15.137,-927.734,-36.133,0
1582145119.211,-80.566,-16.602,-972.656,-37.109,0
1582145119.214,-79.102,-13.184,-978.516,-45.410,0
1582145119.218,-67.871,-11.719,-939.941,-41.504,0
1582145119.222,-72.754,-13.672,-846.680,-42.480,0
1582145119.226,-82.031,-12.207,-880.859,-49.805,0
1582145119.230,-82.031,-11.719,-975.098,-42.480,0
1582145119.232,-68.848,-10.742,-926.758,-39.062,0
1582145119.236,-62.988,-10.254,-825.195,-30.762,0
1582145119.240,-68.359,-12.207,-881.348,-33.203,0
1582145119.244,-70.801,-14.160,-978.027,-35.645,0
1582145119.248,-65.918,-16.113,-964.844,-20.508,0
1582145119.252,-57.617,-16.602,-962.891,-22.949,0
1582145119.256,-56.641,-10.742,-974.609,-26.855,0
1582145119.259,-53.711,-4.883,-969.238,-26.367,0
1582145119.263,-52.734,-6.348,-978.027,-25.879,0
1582145119.267,-48.340,-8.301,-951.172,-12.207,0
1582145119.271,-52.246,-6.348,-928.711,-16.602,0
1582145119.275,-65.430,-5.371,-975.586,-23.438,0
1582145119.277,-62.988,-7.812,-924.805,-26.367,0
1582145119.281,-57.129,-8.789,-843.750,-28.809,0
1582145119.285,-60.059,-6.348,-915.527,-28.809,0
1582145119.289,-67.383,-5.859,-980.469,-25.879,0
1582145119.293,-75.195,-8.301,-969.238,-22.949,0
1582145119.297,-74.219,-7.812,-971.191,-32.227,0
1582145119.301,-64.453,-8.301,-972.168,-33.203,0
1582145119.304,-63.965,-10.254,-972.168,-21.973,0
1582145119.308,-70.801,-12.695,-972.168,-21.973,0
1582145119.312,-58.594,-11.230,-972.168,-22.461,0
1582145119.316,-46.387,-9.277,-971.191,-22.461,0
1582145119.320,-54.199,-9.766,-973.145,-21.973,0
1582145119.337,-57.617,-6.348,-970.215,-15.625,0
1582145119.341,-52.734,-4.883,-957.031,-15.137,0
1582145119.345,-49.316,-4.395,-958.984,-15.625,0
1582145119.349,-51.758,-5.371,-918.457,-24.414,0
1582145119.353,-54.688,-5.859,-922.363,-23.438,0
1582145119.357,-53.223,-4.395,-975.586,-9.766,0
1582145119.361,-47.363,-7.324,-960.449,-10.742,0
1582145119.364,-48.340,-5.859,-914.551,-12.207,0
1582145119.368,-54.688,-4.395,-919.922,-14.648,0
1582145119.372,-57.129,-4.395,-963.867,-13.184,0
1582145119.376,-54.688,-3.418,-964.355,-5.371,0
1582145119.380,-48.828,-4.395,-883.301,-12.695,0
1582145119.381,-53.223,-5.371,-895.020,-12.695,0
1582145119.385,-63.965,-7.812,-964.355,-15.137,0
1582145119.389,-54.688,-8.301,-971.191,-21.484,0
1582145119.393,-43.457,-8.301,-971.191,-3.906,0
1582145119.397,-53.711,-6.836,-971.680,1.465,0
1582145119.401,-63.477,-7.812,-972.168,-9.766,0
1582145119.405,-60.547,-8.789,-972.168,-17.578,0
1582145119.408,-56.152,-8.301,-972.168,-22.949,0
1582145119.412,-59.570,-8.789,-972.168,-18.066,0
1582145119.416,-66.406,-10.254,-972.168,-24.902,0
1582145119.420,-63.965,-9.766,-972.168,-26.855,0
1582145119.424,-54.199,-6.348,-971.680,-27.832,0
1582145119.426,-46.387,-3.906,-971.680,-27.832,0
1582145119.430,-52.734,-4.883,-964.355,-16.602,0
1582145119.434,-57.129,-8.301,-956.543,-21.484,0
1582145119.438,-47.363,-7.324,-886.230,-18.066,0
1582145119.442,-47.852,-5.371,-885.254,-24.414,0
1582145119.446,-59.082,-7.324,-972.656,-31.250,0
1582145119.450,-61.035,-7.324,-973.633,-21.973,0
1582145119.453,-49.316,-8.301,-969.238,-20.996,0
1582145119.457,-41.992,-6.836,-972.656,-16.602,0
1582145119.461,-49.805,-3.418,-971.191,-15.137,0
1582145119.465,-56.152,-6.836,-974.609,-15.137,0
1582145119.469,-50.293,-8.789,-957.520,-5.859,0
1582145119.471,-39.551,-5.859,-961.914,-3.418,0
1582145119.475,-45.898,-5.859,-938.477,-4.883,0
1582145119.479,-57.617,-9.277,-900.879,-11.230,0
1582145119.483,-52.734,-7.812,-924.805,-12.207,0
1582145119.487,-46.387,-4.883,-959.961,-3.906,0
1582145119.491,-48.340,-4.395,-974.609,-8.301,0
1582145119.495,-56.641,-7.324,-970.215,-9.277,0
1582145119.498,-61.523,-7.812,-969.727,-19.043,0
1582145119.502,-51.270,-6.836,-979.004,-27.344,0
1582145119.506,-47.852,-3.906,-935.547,-18.066,0
1582145119.510,-58.594,-1.465,-895.020,-23.926,0
1582145119.514,-62.500,-3.418,-946.777,-30.273,0
1582145119.516,-58.594,-2.930,-946.289,-30.762,0
1582145119.520,-51.758,-2.930,-884.277,-34.180,0
1582145119.524,-53.711,-4.883,-833.008,-32.227,0
1582145119.528,-65.430,-6.836,-891.602,-36.621,0
1582145119.532,-67.871,-6.348,-978.027,-40.527,0
1582145119.536,-59.082,-6.348,-971.191,-37.598,0
1582145119.540,-54.688,-7.324,-967.773,-37.109,27501
1582145119.543,-63.477,-6.348,-965.820,-33.203,0
1582145119.547,-66.895,-9.277,-974.121,-32.227,0
1582145119.551,-57.129,-13.184,-968.262,-29.297,0
1582145119.555,-50.781,-17.578,-895.996,-28.809,0
1582145119.559,-59.082,-17.578,-923.340,-25.879,0
1582145119.561,-65.918,-15.137,-981.934,-20.996,0
1582145119.565,-62.500,-14.160,-971.680,-26.367,0
1582145119.569,-57.129,-11.230,-958.008,-18.066,0
1582145119.573,-63.965,-8.789,-955.078,-25.391,0
1582145119.577,-73.730,-8.789,-974.609,-41.504,0
1582145119.581,-65.430,-6.836,-971.680,-32.715,0
1582145119.585,-50.781,-6.836,-971.680,-27.832,0
1582145119.588,-54.199,-7.324,-972.168,-28.809,0
1582145119.592,-60.547,-6.348,-972.168,-33.691,0
1582145119.596,-55.664,-8.789,-971.680,-30.762,0
1582145119.600,-45.410,-7.324,-973.633,-26.367,0
1582145119.604,-46.387,-4.883,-965.332,-29.297,0
1582145119.606,-59.570,-8.301,-963.379,-29.297,0
1582145119.610,-60.547,-8.301,-967.285,-29.297,0
1582145119.614,-51.758,-3.906,-967.773,-20.996,0
1582145119.618,-48.828,-0.977,-959.961,-22.461,0
1582145119.622,-56.152,-3.418,-961.914,-33.691,0
1582145119.626,-62.012,-2.441,-971.680,-27.344,0
1582145119.630,-53.711,-0.977,-975.098,-25.879,0
1582145119.633,-44.922,-4.395,-961.426,-27.344,0
1582145119.637,-50.781,-2.441,-895.508,-23.926,0
1582145119.641,-53.711,2.930,-915.527,-22.461,0
1582145119.645,-53.223,4.883,-973.145,-19.531,0
1582145119.649,-49.805,5.859,-972.168,-27.344,0
1582145119.651,-49.316,1.465,-970.215,-23.438,0
1582145119.655,-58.594,-2.930,-968.262,-19.531,0
1582145119.659,-57.617,-3.418,-971.191,-28.809,0
1582145119.663,-47.852,-6.348,-972.656,-27.344,0
1582145119.667,-39.551,-2.930,-971.680,-27.832,0
1582145119.671,-51.270,-0.977,-972.168,-25.391,0
1582145119.675,-57.129,0.977,-972.168,-22.949,0
1582145119.678,-44.922,2.930,-972.168,-31.250,0
1582145119.682,-42.480,0.977,-972.168,-32.227,0
1582145119.686,-53.223,-3.418,-971.680,-32.715,0
1582145119.690,-66.895,-5.859,-971.680,-31.250,0
1582145119.694,-61.035,-7.812,-974.121,-27.344,0
1582145119.712,-45.898,-10.254,-958.496,-30.273,0
1582145119.716,-52.734,-9.277,-958.008,-28.809,0
1582145119.720,-70.312,-11.230,-973.633,-37.109,0
1582145119.724,-72.266,-14.160,-971.680,-40.039,0
1582145119.728,-62.500,-13.184,-972.168,-29.785,0
1582145119.732,-66.895,-9.766,-972.168,-28.809,0
1582145119.736,-72.754,-7.324,-971.191,-30.273,0
1582145119.739,-67.871,-6.348,-973.633,-33.203,0
1582145119.743,-55.664,-7.812,-966.797,-19.531,0
1582145119.747,-46.875,-4.395,-962.402,-13.672,0
1582145119.751,-53.711,-3.906,-972.656,-16.602,0
1582145119.755,-51.758,-5.371,-972.168,-11.230,0
1582145119.757,-39.062,-1.953,-971.680,-14.648,0
1582145119.761,-34.668,0.000,-972.168,-13.672,0
1582145119.765,-38.086,-0.488,-972.168,-8.789,0
1582145119.769,-46.875,-1.953,-972.168,-8.789,0
1582145119.773,-46.387,-5.371,-972.168,-5.859,0
1582145119.777,-36.133,-2.930,-972.168,-9.277,0
1582145119.781,-38.574,0.977,-972.168,-2.441,0
1582145119.784,-52.246,-6.348,-972.168,4.883,0
1582145119.788,-56.152,-11.719,-972.168,3.418,0
1582145119.792,-47.852,-5.859,-972.168,0.000,0
1582145119.796,-50.781,-0.977,-972.168,-8.789,0
1582145119.800,-59.082,-1.465,-972.168,-5.371,0
1582145119.802,-59.570,0.000,-972.168,-1.465,0
1582145119.806,-50.781,1.465,-972.168,-5.371,0
1582145119.810,-41.992,1.953,-972.168,-0.488,0
1582145119.814,-45.898,-1.953,-972.168,-4.883,0
1582145119.818,-56.641,-8.301,-972.168,-9.277,0
1582145119.822,-55.176,-8.789,-972.168,-6.348,0
1582145119.826,-49.805,-4.883,-972.168,-8.301,0
1582145119.829,-56.152,-4.883,-972.168,-7.324,0
1582145119.833,-62.500,-6.836,-972.168,-11.230,0
1582145119.837,-50.781,-8.301,-972.168,-12.207,0
1582145119.841,-40.527,-4.883,-972.168,-9.766,0
1582145119.845,-48.828,-3.418,-972.168,-16.113,0
1582145119.847,-53.223,-4.395,-972.168,-20.996,0
1582145119.851,-48.828,-4.883,-972.168,-24.414,0
1582145119.855,-41.992,-5.371,-972.168,-23.926,0
1582145119.859,-37.109,-4.395,-972.168,-24.902,0
1582145119.863,-50.293,1.465,-971.680,-26.367,0
1582145119.867,-58.594,4.883,-972.168,-23.926,0
1582145119.871,-52.734,2.441,-973.145,-24.902,0
1582145119.874,-50.781,2.441,-961.426,-19.531,0
1582145119.878,-58.105,2.441,-964.844,-23.438,0
1582145119.882,-63.965,-1.465,-974.121,-28.320,0
1582145119.886,-60.059,-5.859,-971.191,-21.484,0
1582145119.890,-50.293,-8.301,-972.168,-24.414,0
1582145119.892,-56.152,-7.812,-972.168,-24.414,0
1582145119.896,-64.941,-2.930,-972.168,-23.438,0
1582145119.900,-57.617,-1.953,-972.168,-19.531,0
1582145119.904,-50.293,-2.441,-972.168,-14.648,0
1582145119.908,-54.688,-1.465,-972.168,-24.902,0
1582145119.912,-60.547,-0.977,-972.168,-22.949,0
1582145119.916,-60.547,-3.906,-972.168,-17.578,0
1582145119.919,-49.316,-4.395,-972.168,-20.996,0
1582145119.923,-44.434,-2.441,-971.680,-23.438,0
1582145119.927,-55.664,-2.441,-973.145,-28.809,0
1582145119.931,-53.711,-3.906,-965.820,-18.555,0
1582145119.935,-41.016,-5.859,-967.285,-11.230,0
1582145119.937,-38.574,-4.395,-970.215,-15.137,0
1582145119.941,-53.711,-5.371,-938.965,-16.602,0
1582145119.945,-61.035,-6.836,-952.637,-22.949,0
1582145119.949,-54.199,-6.348,-976.074,-27.344,0
1582145119.953,-50.781,-7.324,-970.703,-28.809,0
1582145119.957,-52.734,-6.836,-972.168,-23.926,0
1582145119.961,-59.570,-4.883,-971.680,-20.996,0
1582145119.964,-55.664,-6.836,-971.191,-28.809,0
1582145119.968,-48.340,-11.719,-977.051,-25.879,0
1582145119.972,-57.617,-12.695,-940.918,-27.344,0
1582145119.976,-63.477,-4.883,-941.895,-28.809,0
1582145119.980,-59.570,3.906,-973.633,-24.902,0
1582145119.982,-53.711,3.906,-978.027,-39.062,0
1582145119.986,-49.805,-0.977,-946.289,-31.738,0
1582145119.990,-59.082,-1.465,-926.270,-23.926,0
1582145119.994,-67.383,-3.418,-971.191,-31.250,0
1582145119.998,-54.688,-5.371,-958.984,-27.344,0
1582145120.002,-42.480,-4.395,-963.867,-31.250,0
1582145120.006,-47.852,-0.488,-971.191,-36.133,0
1582145120.009,-54.688,2.441,-973.633,-37.598,0
1582145120.013,-50.293,-2.930,-965.332,-32.227,0
1582145120.017,-43.457,-8.789,-824.219,-26.855,0
1582145120.021,-48.828,-8.789,-851.074,-31.250,0
1582145120.025,-56.152,-7.812,-985.352,-30.762,0
1582145120.028,-50.781,-7.324,-969.727,-26.855,0
1582145120.032,-38.574,-6.836,-969.727,-24.414,0
1582145120.036,-38.574,-7.812,-972.656,-21.484,0
1582145120.040,-54.199,-7.812,-972.168,-21.973,0
1582145120.044,-63.477,-6.836,-972.168,-23.438,0
1582145120.048,-51.758,-6.348,-972.168,-22.949,0
1582145120.052,-41.992,-5.859,-972.168,-28.809,0
1582145120.055,-50.293,-5.371,-972.168,-36.621,0
1582145120.059,-55.664,-7.324,-972.168,-35.156,0
1582145120.063,-47.852,-6.836,-972.656,-30.273,0
1582145120.067,-38.086,-2.930,-970.215,-32.227,0
1582145120.071,-36.133,-0.488,-976.562,-24.902,0
1582145120.087,-41.016,-0.977,-957.520,-20.508,0
1582145120.091,-43.457,-7.812,-943.848,-33.203,0
1582145120.095,-41.016,-8.789,-973.145,-41.016,0
1582145120.099,-47.852,-6.348,-969.238,-46.875,0
1582145120.103,-65.430,-8.789,-946.289,-55.176,0
1582145120.107,-69.336,-10.254,-959.473,-51.270,0
1582145120.111,-62.988,-15.625,-979.492,-49.805,0
1582145120.114,-59.570,-15.625,-948.730,-52.734,0
1582145120.118,-65.430,-15.625,-944.336,-54.199,0
1582145120.122,-65.430,-15.137,-980.469,-55.176,0
1582145120.126,-54.199,-12.207,-952.637,-51.270,0
1582145120.130,-52.246,-13.184,-936.523,-62.012,0
1582145120.132,-58.594,-11.230,-969.238,-64.453,0
1582145120.136,-67.871,-8.789,-974.609,-60.059,0
1582145120.140,-66.406,-11.230,-970.215,-68.359,0
1582145120.144,-53.223,-18.066,-835.449,-71.777,0
1582145120.148,-52.246,-17.578,-843.262,-81.543,0
1582145120.152,-61.523,-11.719,-977.051,-86.914,0
1582145120.156,-62.988,-10.254,-978.027,-84.961,0
1582145120.159,-57.129,-13.184,-947.266,-88.379,0
1582145120.163,-53.223,-12.207,-889.648,-83.496,0
1582145120.167,-56.641,-6.348,-940.430,-83.984,0
1582145120.171,-57.617,-4.395,-980.957,-82.520,0
1582145120.175,-50.781,-8.789,-968.262,-75.195,0
1582145120.177,-55.664,-11.719,-972.656,-83.984,0
1582145120.181,-65.918,-11.719,-972.168,-87.402,0
1582145120.185,-62.500,-7.812,-972.168,-85.938,0
1582145120.189,-52.246,-3.418,-972.168,-79.102,0
1582145120.193,-41.504,-3.418,-972.168,-82.031,0
1582145120.197,-45.898,-3.418,-972.168,-87.891,0
1582145120.201,-47.363,0.488,-972.168,-81.543,0
1582145120.204,-40.527,2.441,-972.168,-80.566,0
1582145120.208,-33.691,4.395,-972.168,-83.008,0
1582145120.212,-39.062,6.836,-972.168,-83.496,0
1582145120.216,-58.594,2.930,-972.168,-90.332,0
1582145120.220,-63.965,2.930,-972.168,-100.586,0
1582145120.222,-62.500,16.113,-972.168,-108.887,0
1582145120.226,-82.520,18.066,-972.168,-122.559,0
1582145120.230,-112.305,19.531,-972.168,-147.949,0
1582145120.234,-138.672,26.855,-972.168,-171.387,0
1582145120.238,-174.316,26.367,-972.168,-197.754,0
1582145120.242,-212.402,37.598,-972.168,-236.328,0
1582145120.246,-270.020,48.340,-972.168,-293.945,0
1582145120.249,-337.402,50.781,-972.168,-357.910,0
1582145120.253,-378.418,61.523,-972.168,-412.598,0
1582145120.257,-420.410,70.312,-972.168,-462.402,0
1582145120.261,-466.797,69.824,-972.168,-505.859,0
1582145120.265,-499.512,70.312,-972.168,-533.203,0
1582145120.267,-520.996,63.477,-972.168,-552.734,0
1582145120.271,-536.621,49.316,-972.168,-577.148,0
1582145120.275,-543.457,47.852,-972.168,-587.402,0
1582145120.279,-542.480,50.781,-972.168,-587.891,0
1582145120.283,-541.016,41.992,-972.168,-585.938,0
1582145120.287,-538.574,30.273,-972.168,-588.867,0
1582145120.291,-526.367,31.738,-972.168,-575.195,0
1582145120.294,-526.855,28.320,-972.168,-562.012,0
1582145120.298,-531.250,21.973,-972.168,-565.918,0
1582145120.302,-513.184,17.090,-972.168,-555.176,0
1582145120.306,-496.094,10.742,-972.168,-534.668,0
1582145120.310,-485.840,13.184,-972.168,-515.625,0
1582145120.312,-477.539,10.254,-972.168,-501.953,0
1582145120.316,-462.891,2.441,-972.168,-495.117,0
1582145120.320,-443.848,4.883,-972.168,-479.980,0
1582145120.324,-439.453,2.441,-972.168,-460.938,0
1582145120.328,-436.035,-2.930,-972.168,-445.312,0
1582145120.332,-416.992,-1.953,-972.168,-430.176,0
1582145120.336,-394.043,2.441,-972.168,-416.992,0
1582145120.339,-378.418,3.906,-972.168,-398.926,0
1582145120.343,-367.676,1.465,-972.168,-378.418,0
1582145120.347,-343.262,-3.906,-972.168,-356.445,0
1582145120.351,-297.363,-12.695,-972.168,-323.730,0
1582145120.355,-266.602,-14.160,-971.191,-293.457,0
1582145120.357,-266.113,-5.859,-974.121,-275.879,0
1582145120.361,-253.418,-9.277,-964.355,-256.836,0
1582145120.365,-213.379,-12.695,-972.656,-227.539,0
1582145120.369,-173.340,-6.348,-903.809,-189.941,0
1582145120.373,-147.461,-9.277,-806.641,-158.203,0
1582145120.377,-120.117,-14.648,-906.738,-127.441,0
1582145120.381,-79.102,-15.625,-985.352,-93.262,0
1582145120.384,-34.668,-17.578,-932.617,-55.664,0
1582145120.388,3.418,-20.996,-767.090,-15.137,0
1582145120.392,34.180,-27.344,-711.914,14.648,0
1582145120.396,56.152,-26.855,-803.711,34.668,0
1582145120.400,81.543,-24.902,-757.324,58.594,0
1582145120.401,104.004,-24.902,-685.547,83.984,0
1582145120.405,112.793,-23.926,-708.496,102.051,0
1582145120.409,133.789,-27.832,-788.574,125.488,0
1582145120.413,163.086,-26.367,-815.918,146.973,0
1582145120.417,182.617,-21.484,-768.066,155.762,0
1582145120.421,192.383,-20.508,-887.695,166.504,0
1582145120.425,195.801,-22.949,-979.980,171.387,0
1582145120.428,202.148,-27.832,-970.215,176.758,0
1582145120.432,206.543,-26.855,-970.215,183.594,0
1582145120.436,209.473,-25.391,-931.641,185.059,0
1582145120.440,211.426,-28.320,-958.008,186.523,0
1582145120.444,220.215,-27.344,-906.250,200.684,0
1582145120.461,227.051,-30.273,-706.055,212.402,0
1582145120.465,218.750,-28.809,-739.746,204.590,0
1582145120.469,208.496,-23.926,-898.438,201.660,0
1582145120.473,213.379,-21.484,-904.785,208.496,0
1582145120.477,223.145,-23.438,-840.332,207.520,0
1582145120.481,217.773,-27.344,-869.141,202.148,0
1582145120.485,208.496,-28.320,-971.680,202.148,0
1582145120.488,209.473,-26.367,-980.469,194.824,0
1582145120.492,211.914,-24.414,-944.824,193.359,0
1582145120.496,209.961,-23.438,-926.270,190.430,0
1582145120.500,195.801,-24.902,-972.168,181.641,0
1582145120.504,182.617,-25.879,-974.121,178.711,0
1582145120.506,187.500,-23.438,-970.215,171.387,0
1582145120.510,190.430,-20.508,-972.656,170.410,0
1582145120.514,171.387,-20.020,-972.168,166.016,0
1582145120.518,153.320,-22.949,-972.168,158.203,0
1582145120.522,153.809,-23.438,-972.168,166.992,0
1582145120.526,161.133,-20.508,-972.168,169.434,0
1582145120.530,154.785,-20.996,-972.168,163.574,0
1582145120.533,143.555,-26.367,-972.168,161.133,0
1582145120.537,140.625,-29.785,-972.168,155.762,0
1582145120.541,144.531,-30.762,-972.168,154.785,0
1582145120.545,137.695,-28.809,-972.168,142.090,0
1582145120.549,120.605,-21.973,-972.168,129.883,0
1582145120.551,112.305,-16.113,-972.168,124.512,0
1582145120.555,122.559,-14.160,-972.168,124.023,0
1582145120.559,131.348,-11.719,-972.168,123.535,0
1582145120.563,119.629,-10.254,-972.168,115.723,0
1582145120.567,107.422,-12.695,-972.168,111.328,0
1582145120.571,113.281,-15.625,-972.168,108.887,0
1582145120.575,125.488,-13.672,-972.168,100.586,0
1582145120.578,120.605,-11.719,-972.168,97.656,0
1582145120.582,108.398,-10.254,-972.168,97.656,0
1582145120.586,105.957,-9.766,-972.168,90.332,0
1582145120.590,100.098,-10.742,-972.168,81.543,0
1582145120.594,91.309,-11.719,-972.168,72.266,17000
1582145120.596,82.031,-16.113,-972.168,67.871,0
1582145120.600,75.684,-25.391,-972.168,59.570,0
1582145120.604,78.613,-20.020,-972.168,51.758,0
1582145120.608,75.684,-3.906,-972.168,31.738,0
1582145120.612,62.012,3.418,-972.168,15.625,0
1582145120.616,53.223,8.789,-972.168,10.254,0
1582145120.620,59.082,9.277,-972.168,-3.906,0
1582145120.623,68.359,7.324,-972.168,-5.371,0
1582145120.627,61.035,5.371,-972.168,-22.949,0
1582145120.631,48.828,4.395,-972.168,-43.945,0
1582145120.635,56.152,3.418,-972.168,-35.156,0
1582145120.639,65.918,-0.977,-972.168,-30.273,0
1582145120.641,57.617,2.441,-972.168,-41.992,0
1582145120.645,51.270,6.836,-972.168,-62.012,0
1582145120.649,51.758,9.277,-972.168,-66.895,0
1582145120.653,50.781,12.695,-972.168,-57.617,0
1582145120.657,43.945,10.254,-972.168,-61.035,0
1582145120.661,37.598,10.742,-972.168,-67.383,0
1582145120.665,38.574,8.789,-972.168,-76.172,0
1582145120.668,43.457,7.812,-972.168,-82.520,0
1582145120.672,39.062,9.277,-972.168,-77.148,0
1582145120.676,22.949,8.789,-972.168,-79.102,0
1582145120.680,14.160,8.789,-972.168,-82.031,0
1582145120.684,14.648,10.254,-972.168,-81.055,0
1582145120.686,19.531,7.324,-972.168,-76.172,0
1582145120.690,10.742,2.441,-972.168,-63.477,0
1582145120.694,0.000,8.301,-972.168,-52.734,0
1582145120.698,4.883,14.160,-972.168,-48.828,0
1582145120.702,16.113,13.672,-972.168,-51.758,0
1582145120.706,14.648,14.160,-972.168,-51.758,0
1582145120.710,0.488,17.090,-972.168,-41.016,0
1582145120.713,-8.301,14.160,-972.168,-38.574,0
1582145120.717,-2.930,10.742,-972.168,-33.691,0
1582145120.721,-10.742,11.719,-972.168,-31.250,0
1582145120.725,-20.020,16.113,-972.168,-32.227,0
1582145120.729,-5.371,19.531,-972.168,-18.555,0
1582145120.731,11.719,13.184,-972.168,-9.766,0
1582145120.735,15.137,10.254,-972.168,-2.930,0
1582145120.739,-5.859,12.695,-972.168,2.441,0
1582145120.743,-26.855,12.207,-972.168,7.812,0
1582145120.747,-18.066,10.742,-972.168,16.113,0
1582145120.751,-5.371,13.672,-972.168,17.090,0
1582145120.755,-20.508,13.672,-972.168,24.902,0
1582145120.758,-38.574,9.766,-972.168,26.367,0
1582145120.762,-39.062,8.301,-972.168,23.926,0
1582145120.766,-33.203,8.301,-972.168,31.738,0
1582145120.770,-27.832,5.371,-972.168,28.809,0
1582145120.774,-38.574,6.348,-972.168,32.227,0
1582145120.776,-40.527,11.719,-972.168,38.574,0
1582145120.780,-24.414,11.230,-971.680,45.898,0
1582145120.784,-26.367,6.348,-971.680,56.641,0
1582145120.788,-38.086,4.883,-974.609,56.152,0
1582145120.792,-33.203,9.277,-953.613,52.734,0
1582145120.796,-26.367,13.672,-957.031,30.762,0
1582145120.800,-30.762,10.742,-976.074,-15.137,0
1582145120.803,-35.645,5.371,-957.520,-50.781,0
1582145120.807,-45.898,5.859,-908.203,-81.055,0
1582145120.811,-48.828,5.371,-843.262,-115.723,0
1582145120.815,-39.062,4.883,-785.156,-169.922,0
1582145120.819,-46.387,4.883,-755.371,-214.844,0
1582145120.836,-54.199,-0.977,-725.586,-216.797,0
1582145120.840,-48.340,0.488,-754.395,-222.656,0
1582145120.844,-22.949,0.488,-793.457,-208.496,0
1582145120.848,-1.465,-3.906,-708.496,-187.988,0
1582145120.852,-39.062,-5.371,-791.016,-217.773,0
1582145120.856,-73.242,-11.230,-942.871,-249.512,0
1582145120.860,-59.082,-16.602,-961.914,-250.000,0
1582145120.863,-51.758,-17.090,-853.027,-230.469,0
1582145120.867,-64.453,-12.207,-826.172,-218.750,0
1582145120.871,-63.965,-13.184,-867.188,-215.820,0
1582145120.875,-56.152,-10.742,-818.848,-218.262,0
1582145120.879,-61.035,-16.113,-733.887,-224.121,0
1582145120.881,-55.176,-18.066,-753.906,-214.355,0
1582145120.885,-59.082,-18.555,-876.953,-202.637,0
1582145120.889,-58.594,-26.367,-935.547,-188.477,0
1582145120.893,-41.016,-31.738,-875.977,-166.504,0
1582145120.897,-49.805,-25.879,-890.625,-152.344,0
1582145120.901,-52.246,-17.090,-962.891,-133.789,0
1582145120.905,-46.387,-18.555,-974.121,-125.488,0
1582145120.908,-47.852,-14.648,-970.215,-126.465,0
1582145120.912,-46.875,-7.812,-972.168,-104.004,0
1582145120.916,-51.758,-7.812,-972.168,-91.797,0
1582145120.920,-49.316,-2.441,-972.168,-85.938,0
1582145120.924,-41.504,-5.859,-972.168,-73.730,0
1582145120.926,-40.039,-21.973,-972.168,-65.918,0
1582145120.930,-50.293,-16.602,-972.168,-54.199,0
1582145120.934,-56.152,-6.836,-972.168,-43.457,0
1582145120.938,-41.504,-2.930,-972.168,-30.273,0
1582145120.942,-38.574,0.488,-972.168,-33.203,0
1582145120.946,-44.922,-1.465,-972.168,-26.855,0
1582145120.950,-54.199,3.906,-972.168,-7.812,0
1582145120.953,-58.594,2.930,-972.168,-11.719,0
1582145120.957,-45.410,-6.836,-972.168,-4.395,0
1582145120.961,-43.457,-2.441,-972.168,-0.977,0
1582145120.965,-59.082,9.277,-972.168,1.465,0
1582145120.969,-65.430,7.812,-972.168,21.484,0
1582145120.971,-55.176,3.906,-972.168,27.832,0
1582145120.975,-67.871,5.371,-972.168,27.832,0
1582145120.979,-97.168,5.859,-972.168,8.301,0
1582145120.983,-107.910,5.371,-972.168,-12.207,0
1582145120.987,-118.164,14.160,-972.168,-25.879,0
1582145120.991,-153.320,21.973,-972.168,-67.871,0
1582145120.995,-209.473,28.320,-972.168,-116.211,0
1582145120.998,-242.676,39.062,-972.168,-167.480,0
1582145121.002,-291.504,55.176,-972.168,-233.887,0
1582145121.006,-353.516,64.941,-972.168,-311.035,0
1582145121.010,-397.461,55.176,-972.168,-375.977,0
1582145121.014,-437.988,61.523,-972.168,-419.922,0
1582145121.016,-473.633,63.965,-972.168,-468.262,0
1582145121.020,-497.559,60.547,-972.168,-510.742,0
1582145121.024,-507.812,49.805,-972.168,-503.418,0
1582145121.028,-531.250,45.898,-972.168,-521.484,0
1582145121.032,-540.039,50.781,-972.168,-554.688,0
1582145121.036,-522.461,43.457,-972.168,-560.547,0
1582145121.040,-524.902,37.598,-972.168,-566.895,0
1582145121.043,-528.809,42.480,-972.168,-564.453,0
1582145121.047,-511.719,46.875,-972.168,-553.223,0
1582145121.051,-494.141,47.363,-972.168,-549.316,0
1582145121.055,-471.191,38.086,-972.168,-549.316,0
1582145121.059,-466.309,35.645,-972.168,-550.293,0
1582145121.061,-468.262,37.109,-972.168,-541.992,0
1582145121.065,-437.012,22.461,-972.168,-527.344,0
1582145121.069,-405.762,21.973,-972.168,-510.254,0
1582145121.073,-400.879,20.996,-972.168,-506.348,0
1582145121.077,-411.621,16.602,-972.168,-507.324,0
1582145121.081,-390.137,27.832,-972.168,-491.699,0
1582145121.085,-341.797,26.367,-972.168,-466.309,0
1582145121.088,-333.008,37.109,-971.680,-448.242,0
1582145121.092,-337.402,41.992,-971.680,-443.848,0
1582145121.096,-324.707,34.668,-974.609,-421.387,0
1582145121.100,-301.758,41.016,-937.012,-389.648,0
1582145121.104,-272.949,8.789,-913.574,-363.281,0
1582145121.106,-255.371,0.977,-846.680,-333.008,0
1582145121.110,-231.934,8.789,-794.922,-309.082,0
1582145121.114,-185.059,9.277,-833.008,-291.992,0
1582145121.118,-158.203,15.137,-793.945,-265.137,0
1582145121.122,-144.531,8.789,-719.238,-235.352,0
1582145121.126,-108.398,28.809,-800.293,-198.730,0
1582145121.130,-72.754,37.109,-892.578,-172.363,0
1582145121.133,-25.879,24.902,-848.145,-134.277,0
1582145121.137,4.883,1.953,-642.578,-72.266,0
1582145121.141,21.484,-5.859,-562.500,-30.762,0
1582145121.145,58.105,22.461,-669.434,-0.977,0
1582145121.149,79.102,35.156,-647.461,12.207,0
1582145121.151,103.027,8.301,-533.691,39.062,0
1582145121.155,133.301,7.812,-620.117,75.195,0
1582145121.159,158.691,-13.672,-807.129,93.750,0
1582145121.163,193.848,-31.250,-828.125,132.812,0
1582145121.167,206.543,5.859,-698.730,144.531,0
1582145121.171,186.035,22.461,-791.016,143.066,0
1582145121.175,198.730,4.883,-977.539,173.340,0
1582145121.178,232.910,-14.648,-914.551,193.359,0
1582145121.182,231.934,-7.812,-756.836,201.660,0
1582145121.186,243.652,-18.066,-739.746,211.426,0
1582145121.190,258.301,-18.066,-915.039,209.473,0
1582145121.194,274.902,-1.465,-932.617,211.426,0
1582145121.211,276.367,12.207,-771.973,210.938,0
1582145121.215,250.000,17.090,-824.219,219.238,0
1582145121.219,246.094,2.441,-966.309,232.910,0
1582145121.223,247.559,-0.488,-975.586,224.609,0
1582145121.227,251.953,1.465,-966.797,208.496,0
1582145121.231,258.301,-6.836,-973.633,191.406,0
1582145121.235,233.887,-9.277,-972.168,167.969,0
1582145121.238,217.773,2.930,-972.168,143.555,0
1582145121.242,236.328,11.719,-972.168,121.094,0
1582145121.246,241.699,18.555,-972.168,91.797,0
1582145121.250,209.473,31.738,-972.168,73.242,0
1582145121.254,184.570,26.367,-972.168,36.621,0
1582145121.256,199.707,21.484,-972.168,-2.930,0
1582145121.260,197.266,23.438,-972.168,7.324,0
1582145121.264,181.152,17.578,-972.168,25.391,0
1582145121.268,183.105,22.949,-972.168,12.207,0
1582145121.272,180.664,31.738,-972.168,-28.809,0
1582145121.276,182.129,36.133,-972.168,-126.953,0
1582145121.280,181.641,33.691,-972.168,-229.492,0
1582145121.283,159.668,26.855,-972.168,-266.113,0
1582145121.287,151.367,26.367,-972.168,-302.734,0
1582145121.291,161.621,33.203,-972.168,-309.570,0
1582145121.295,166.016,42.480,-972.168,-293.945,0
1582145121.299,143.066,45.410,-972.168,-269.531,0
1582145121.301,133.301,26.855,-972.168,-223.633,0
1582145121.305,144.531,15.625,-972.168,-207.520,0
1582145121.309,147.949,24.414,-972.168,-206.543,0
1582145121.313,133.789,34.668,-972.168,-223.633,0
1582145121.317,125.977,45.898,-972.168,-262.695,0
1582145121.321,129.395,47.363,-972.168,-276.855,0
1582145121.325,139.648,45.410,-972.168,-268.066,0
1582145121.328,145.508,50.781,-972.168,-229.004,0
1582145121.332,129.395,41.504,-972.168,-174.316,0
1582145121.336,135.254,17.090,-972.168,-137.695,0
1582145121.340,134.766,21.973,-972.168,-95.703,0
1582145121.344,105.957,33.203,-972.168,-74.219,0
1582145121.346,85.938,48.828,-972.168,-65.430,0
1582145121.350,86.914,65.430,-972.168,-49.805,0
1582145121.354,97.656,59.570,-972.168,-33.691,0
1582145121.358,87.891,55.664,-972.168,-4.883,0
1582145121.362,76.172,54.199,-972.168,6.836,0
1582145121.366,91.309,46.387,-972.168,41.016,0
1582145121.370,90.820,44.922,-972.168,59.570,0
1582145121.373,72.266,31.738,-972.168,71.289,0
1582145121.377,48.828,32.227,-972.168,112.305,0
1582145121.381,36.133,54.688,-972.168,132.812,0
1582145121.385,48.340,55.664,-972.168,150.879,0
1582145121.389,56.641,53.223,-972.168,151.367,0
1582145121.391,42.969,48.828,-972.168,153.320,0
1582145121.395,21.484,41.016,-972.168,157.715,0
1582145121.399,34.180,42.969,-972.168,174.805,0
1582145121.403,57.617,45.410,-972.168,210.938,0
1582145121.407,63.477,47.852,-972.168,211.914,0
1582145121.411,55.664,45.410,-972.168,206.543,0
1582145121.415,41.992,38.574,-972.168,229.492,0
1582145121.418,19.531,39.551,-972.168,240.723,0
1582145121.422,-17.578,33.691,-972.168,208.984,0
1582145121.426,-39.551,33.691,-972.168,183.594,0
1582145121.430,-29.785,34.668,-972.168,207.031,0
1582145121.434,-2.441,31.738,-972.168,222.656,0
1582145121.436,5.371,32.715,-972.168,218.262,0
1582145121.440,-9.277,33.203,-972.168,237.305,0
1582145121.444,-35.645,30.762,-972.168,214.355,0
1582145121.448,-56.641,25.879,-972.168,184.570,0
1582145121.452,-37.109,20.508,-972.168,200.684,0
1582145121.456,-18.066,22.949,-972.168,203.125,0
1582145121.460,-8.789,25.879,-972.168,212.402,0
1582145121.463,-15.137,19.043,-972.168,218.750,0
1582145121.467,5.859,23.926,-972.168,281.738,0
1582145121.471,7.812,27.832,-972.656,380.371,0
1582145121.475,-3.906,30.273,-969.238,447.266,0
1582145121.479,-20.020,29.785,-963.867,500.488,0
1582145121.481,-23.438,31.250,-981.934,541.016,0
1582145121.485,2.930,13.672,-733.398,613.770,0
1582145121.489,-21.484,32.227,-460.449,644.043,0
1582145121.493,-17.578,27.344,-322.266,660.645,0
1582145121.497,-24.414,-0.488,26.367,658.203,0
1582145121.501,-46.387,40.527,286.621,583.984,0
1582145121.505,-5.371,15.137,418.945,576.660,0
1582145121.508,4.395,-16.602,567.871,625.488,0
1582145121.512,9.277,7.324,890.625,663.086,0
1582145121.516,0.977,-1.953,-982.422,660.645,0
1582145121.520,-36.133,27.344,986.328,681.152,0
1582145121.524,-35.645,28.809,-999.512,693.848,0
1582145121.527,-21.973,-3.906,999.512,654.785,0
1582145121.531,-41.992,-22.949,999.512,618.652,0
1582145121.535,-15.625,-45.898,999.512,573.242,0
1582145121.539,-4.395,-10.254,999.512,529.297,0
1582145121.543,-20.996,9.766,999.512,495.117,0
1582145121.547,39.062,-2.930,999.512,473.633,0
1582145121.551,11.230,11.719,999.512,454.590,0
1582145121.554,-59.570,-2.441,999.512,429.199,0
1582145121.558,-67.871,-59.570,999.512,409.180,0
1582145121.562,-72.754,-42.969,999.512,423.340,0
1582145121.566,-36.621,-7.324,999.512,419.922,0
1582145121.570,-15.137,-43.457,999.512,411.133,0
1582145121.586,-27.344,-54.688,999.512,422.852,0
1582145121.590,-47.363,-5.859,999.512,371.094,0
1582145121.594,-52.734,-1.465,-999.512,313.965,0
1582145121.598,-57.617,-9.766,993.164,377.441,0
1582145121.602,-25.879,-13.672,-991.699,382.812,0
1582145121.606,16.113,-36.133,972.656,292.480,0
1582145121.610,-14.160,-27.832,816.895,349.609,0
1582145121.613,38.086,-36.621,870.605,482.910,0
1582145121.617,-4.395,-37.109,975.586,503.906,0
1582145121.621,-12.207,-41.504,845.215,533.203,0
