timestamps,TP9,AF7,AF8,TP10,Right AUX,Marker0
1581435340.9120002,15.625,32.715,13.184,20.508000000000006,0.0,0
1581435340.916,14.648,25.879,25.879,17.578,0.0,0
1581435340.92,8.789,21.973000000000006,28.32,-2.441,0.0,0
1581435340.924,9.766,19.043,20.996,-2.441,0.0,0
1581435340.928,0.0,15.625,20.02,12.695,0.0,0
1581435340.9320002,1.953,20.996,25.879,9.277,0.0,0
1581435340.936,18.066,17.09,24.902,-0.977,0.0,0
1581435340.939,11.23,15.625,20.996,5.859,0.0,0
1581435340.9429998,6.348,28.32,18.066,18.066,0.0,0
1581435340.947,7.324,30.762,20.02,15.137,0.0,0
1581435340.951,9.766,23.438,24.414,7.812,0.0,0
1581435340.955,9.277,12.695,15.137,12.207,0.0,0
1581435340.957,8.789,14.16,16.602,23.438,0.0,0
1581435340.961,17.09,26.367,24.414,18.555,0.0,0
1581435340.965,18.066,30.273000000000003,23.926,7.324,0.0,0
1581435340.969,15.137,32.715,24.414,3.906,0.0,0
1581435340.9729998,14.648,27.832,20.996,11.23,0.0,0
1581435340.9770002,18.555,17.09,12.695,20.508000000000006,0.0,0
1581435340.981,19.531,16.602,16.602,13.184,0.0,0
1581435340.984,20.508000000000006,24.902,16.113,10.254,0.0,0
1581435340.988,20.02,31.25,14.16,17.578,0.0,0
1581435340.992,15.137,31.25,18.555,17.578,0.0,0
1581435340.996,21.973000000000006,30.762,18.066,17.578,0.0,0
1581435341.0,30.273000000000003,36.133,21.484,32.227,0.0,0
1581435341.002,18.555,35.156,17.578,31.738000000000003,0.0,0
1581435341.006,11.23,24.902,18.066,26.367,0.0,0
1581435341.01,15.625,21.484,24.902,24.414,0.0,0
1581435341.014,22.461,25.879,21.484,18.555,0.0,0
1581435341.018,18.555,27.344,10.742,8.789,0.0,0
1581435341.022,7.812,27.344,14.648,13.672,0.0,0
1581435341.026,11.23,25.879,21.484,28.809,0.0,0
1581435341.029,19.043,21.973000000000006,20.02,24.414,0.0,0
1581435341.033,19.043,19.043,29.297,16.113,0.0,0
1581435341.0370002,20.996,16.602,28.32,19.043,0.0,0
1581435341.041,10.254,22.949,20.508000000000006,18.066,0.0,0
1581435341.045,-13.672,28.809,23.438,-0.977,0.0,0
1581435341.0470002,-20.02,21.973000000000006,26.855,-4.883,0.0,0
1581435341.051,-15.625,25.879,29.297,-4.395,0.0,0
1581435341.055,-22.949,23.926,32.715,-9.766,0.0,0
1581435341.059,-25.391,14.16,21.484,-15.137,0.0,0
1581435341.063,-27.832,17.578,13.672,-26.367,0.0,0
1581435341.0670002,-34.668,18.066,25.879,-25.391,0.0,0
1581435341.071,-38.574,14.16,29.785,-22.949,0.0,0
1581435341.074,-40.527,13.672,25.391,-23.438,0.0,0
1581435341.0779998,-38.574,16.602,29.785,-34.18,0.0,0
1581435341.082,-30.762,20.02,31.738000000000003,-33.691,0.0,0
1581435341.086,-27.344,26.367,27.344,-11.719,0.0,0
1581435341.09,-29.297,32.227,20.02,-11.23,0.0,0
1581435341.092,-19.531,33.203,15.137,-9.766,0.0,0
1581435341.096,-8.301,20.02,14.16,-1.953,0.0,0
1581435341.1,-7.812,14.16,17.578,-1.465,0.0,0
1581435341.104,-9.766,22.461,26.855,4.395,0.0,0
1581435341.1079998,1.953,28.32,30.273000000000003,10.742,0.0,0
1581435341.1120002,13.672,34.18,23.926,12.695,0.0,0
1581435341.1160002,4.883,28.32,19.531,1.953,0.0,0
1581435341.119,1.953,18.066,23.438,-0.977,0.0,0
1581435341.123,3.906,14.16,23.438,2.93,0.0,0
1581435341.127,0.977,19.531,17.09,-6.348,0.0,0
1581435341.131,0.977,29.297,20.02,-0.977,0.0,0
1581435341.135,6.348,34.18,24.414,16.602,0.0,0
1581435341.137,11.23,28.32,32.715,18.066,0.0,0
1581435341.141,6.836,21.973000000000006,29.785,11.23,0.0,0
1581435341.145,3.418,20.508000000000006,19.043,13.672,0.0,0
1581435341.149,1.953,17.578,19.043,12.695,0.0,0
1581435341.153,1.465,11.23,23.926,22.461,0.0,0
1581435341.157,8.789,20.02,25.391,18.066,0.0,0
1581435341.161,16.113,28.32,20.508000000000006,8.301,0.0,0
1581435341.164,18.066,26.367,25.391,10.742,0.0,0
1581435341.168,16.113,28.32,22.949,18.066,0.0,0
1581435341.1720002,18.066,25.391,19.531,28.809,0.0,0
1581435341.176,24.902,20.996,19.043,25.391,0.0,0
1581435341.18,22.949,18.066,20.508000000000006,25.391,0.0,0
1581435341.1820002,16.113,29.785,22.461,23.438,0.0,0
1581435341.186,11.719,30.762,22.461,19.043,0.0,0
1581435341.19,16.602,19.531,22.949,18.066,0.0,0
1581435341.194,24.902,24.902,21.973000000000006,23.438,0.0,0
1581435341.198,15.625,22.949,23.438,23.926,0.0,0
1581435341.202,10.742,24.414,17.09,23.926,0.0,0
1581435341.206,15.137,14.16,14.16,18.066,0.0,0
1581435341.209,16.113,11.23,18.555,7.812,0.0,0
1581435341.2129998,10.742,30.273000000000003,18.555,16.113,0.0,0
1581435341.217,11.23,26.367,22.949,16.602,0.0,0
1581435341.221,10.742,20.996,22.949,4.883,0.0,0
1581435341.225,7.324,24.414,20.02,11.719,0.0,0
1581435341.228,7.324,24.902,24.414,20.02,0.0,0
1581435341.232,1.465,21.973000000000006,17.09,14.16,0.0,0
1581435341.236,6.348,17.578,22.461,18.066,0.0,0
1581435341.24,6.836,18.555,25.879,9.766,0.0,0
1581435341.244,-0.488,14.16,22.461,10.742,0.0,0
1581435341.248,5.859,13.672,26.855,24.414,0.0,0
1581435341.252,8.789,19.531,24.414,20.508000000000006,0.0,0
1581435341.255,8.789,17.578,27.344,15.625,0.0,0
1581435341.2589998,16.602,12.207,27.344,24.414,0.0,0
1581435341.2629998,16.602,9.766,20.508000000000006,34.18,0.0,0
1581435341.2670002,10.742,17.09,20.996,28.32,0.0,0
1581435341.271,16.113,26.855,29.297,11.719,0.0,0
1581435341.288,17.09,19.531,19.531,6.836,0.0,0
1581435341.292,15.137,14.16,13.184,18.555,0.0,0
1581435341.296,18.066,27.344,24.902,21.484,0.0,0
1581435341.3,14.16,30.762,30.273000000000003,11.23,0.0,0
1581435341.304,14.16,18.066,25.391,10.742,0.0,0
1581435341.3079998,20.508000000000006,16.602,20.996,24.414,0.0,0
1581435341.312,18.555,20.996,21.973000000000006,23.438,0.0,0
1581435341.315,14.16,20.996,30.273000000000003,23.926,0.0,0
1581435341.319,19.531,16.602,26.367,18.066,0.0,0
1581435341.323,21.484,19.531,21.973000000000006,19.043,0.0,0
1581435341.327,17.578,27.344,22.949,27.832,0.0,0
1581435341.331,19.043,28.809,20.508000000000006,24.414,0.0,0
1581435341.332,24.414,29.297,21.973000000000006,11.719,0.0,0
1581435341.336,22.461,14.648,20.508000000000006,7.812,0.0,0
1581435341.34,16.113,13.672,20.996,15.625,0.0,0
1581435341.344,18.066,31.738000000000003,22.461,22.461,0.0,0
1581435341.3479998,17.578,34.18,25.879,10.742,0.0,0
1581435341.3520002,20.996,23.438,32.227,12.695,0.0,0
1581435341.356,23.438,16.113,31.25,26.367,0.0,0
1581435341.359,21.484,19.043,21.973000000000006,29.297,0.0,0
1581435341.363,19.043,24.902,13.672,18.555,0.0,0
1581435341.367,17.578,20.996,12.207,8.301,0.0,0
1581435341.371,19.531,21.484,14.648,15.625,0.0,0
1581435341.375,16.602,33.691,22.461,25.879,0.0,0
1581435341.3779998,17.09,28.32,26.855,20.508000000000006,0.0,0
1581435341.3820002,22.949,14.648,23.438,11.23,0.0,0
1581435341.3860002,26.367,26.855,29.297,12.695,0.0,0
1581435341.39,25.391,30.273000000000003,24.414,18.555,0.0,0
1581435341.394,23.926,23.926,16.602,22.949,0.0,0
1581435341.3979998,21.973000000000006,27.344,19.043,20.02,0.0,0
1581435341.4020002,17.578,15.137,18.066,16.602,0.0,0
1581435341.405,27.344,10.254,23.926,26.367,0.0,0
1581435341.409,38.574,13.672,31.738000000000003,36.621,0.0,0
1581435341.413,21.484,20.508000000000006,25.391,11.23,0.0,0
1581435341.417,10.254,28.809,24.414,15.137,0.0,0
1581435341.421,25.391,24.414,28.32,39.062,0.0,0
1581435341.423,38.086,27.344,22.949,38.086,0.0,0
1581435341.427,32.715,31.25,19.043,31.738000000000003,0.0,0
1581435341.431,36.621,30.762,14.648,38.574,0.0,0
1581435341.435,47.852,32.715,15.137,55.176,0.0,0
1581435341.439,45.898,30.762,13.672,53.223,0.0,0
1581435341.4429998,51.27,27.344,15.137,58.105,0.0,0
1581435341.447,62.988,24.414,24.414,65.918,0.0,0
1581435341.45,66.406,21.973000000000006,27.832,66.406,0.0,0
1581435341.454,62.988,23.438,21.973000000000006,67.87100000000001,0.0,0
1581435341.458,57.617,32.715,15.137,57.617,0.0,0
1581435341.462,47.363,27.344,16.113,52.734,0.0,0
1581435341.466,46.875,19.531,9.277,50.293,0.0,0
1581435341.468,51.27,28.32,9.277,52.734,0.0,0
1581435341.472,46.875,26.855,17.578,55.664,0.0,0
1581435341.476,45.41,27.344,19.531,48.34,0.0,0
1581435341.48,41.992,25.879,23.926,43.457,0.0,0
1581435341.484,35.645,22.461,18.555,42.48,0.0,0
1581435341.488,34.18,23.438,10.254,43.945,0.0,0
1581435341.492,36.133,21.484,9.766,35.645,0.0,0
1581435341.495,37.109,21.484,16.602,30.762,0.0,0
1581435341.4989998,32.227,20.996,20.02,33.691,0.0,0
1581435341.5029998,31.25,28.32,14.16,36.133,0.0,0
1581435341.5070002,33.203,36.621,15.625,28.809,0.0,0
1581435341.5110002,35.645,37.598,23.926,28.32,0.0,0
1581435341.5129998,38.086,35.156,15.137,35.156,0.0,0
1581435341.5170002,33.203,25.391,7.812,34.668,0.0,0
1581435341.521,37.598,24.902,14.648,36.621,0.0,0
1581435341.525,44.922,35.645,13.672,34.18,0.0,0
1581435341.529,33.691,33.691,10.742,29.297,0.0,0
1581435341.533,26.855,27.832,13.184,33.691,0.0,0
1581435341.5370002,29.785,25.879,20.02,34.18,0.0,0
1581435341.54,27.832,22.461,25.879,16.113,0.0,0
1581435341.544,21.484,14.648,22.949,8.789,0.0,0
1581435341.548,13.672,13.672,20.508000000000006,25.391,0.0,0
1581435341.552,6.836,10.742,18.066,31.25,0.0,0
1581435341.556,13.184,19.043,13.184,28.32,0.0,0
1581435341.5579998,20.508000000000006,41.504,19.531,26.855,0.0,0
1581435341.562,10.254,22.949,20.508000000000006,25.391,0.0,0
1581435341.566,10.742,11.23,7.324,19.531,0.0,0
1581435341.57,26.367,24.902,3.906,18.066,0.0,0
1581435341.574,26.367,20.508000000000006,22.461,23.438,0.0,0
1581435341.5779998,25.879,22.949,31.25,30.762,0.0,0
1581435341.582,22.949,31.25,24.902,37.598,0.0,0
1581435341.585,24.414,28.32,21.973000000000006,34.18,0.0,0
1581435341.589,26.855,25.391,25.391,17.09,0.0,0
1581435341.593,28.32,25.391,19.531,14.16,0.0,0
1581435341.597,31.25,24.902,15.625,28.32,0.0,0
1581435341.601,25.391,29.785,18.066,30.762,0.0,0
1581435341.6020002,30.762,38.086,25.879,22.461,0.0,0
1581435341.606,31.25,34.668,29.785,18.066,0.0,0
1581435341.61,29.785,39.062,19.531,24.414,0.0,0
1581435341.6139998,26.367,35.645,17.09,31.25,0.0,0
1581435341.6179998,11.23,22.461,17.09,29.297,0.0,0
1581435341.6220002,13.672,20.508000000000006,16.113,22.949,0.0,0
1581435341.6260002,14.648,20.996,18.555,8.789,0.0,0
1581435341.629,-0.488,16.602,19.531,0.977,0.0,0
1581435341.633,-0.977,17.09,22.461,13.672,0.0,0
1581435341.637,1.953,19.531,24.414,4.395,0.0,0
1581435341.641,-6.348,17.09,23.926,-1.465,0.0,0
1581435341.645,-10.742,18.066,30.762,5.859,0.0,0
1581435341.663,-14.648,22.949,31.738000000000003,-5.371,0.0,0
1581435341.667,-19.531,22.949,30.762,-12.207,0.0,0
1581435341.671,-21.973000000000006,23.438,35.645,-22.949,0.0,0
1581435341.675,-26.855,24.414,35.156,-16.602,0.0,0
1581435341.679,-28.32,20.996,39.551,-8.301,0.0,0
1581435341.6829998,-31.738000000000003,13.672,50.293,-27.344,0.0,0
1581435341.687,-34.18,13.672,53.71100000000001,-38.086,0.0,0
1581435341.69,-39.062,14.16,48.34,-39.551,0.0,0
1581435341.694,-48.34,14.16,47.852,-33.203,0.0,0
1581435341.698,-45.898,16.602,50.78100000000001,-34.18,0.0,0
1581435341.702,-48.828,12.695,58.105,-42.48,0.0,0
1581435341.706,-66.406,13.184,63.965,-50.78100000000001,0.0,0
1581435341.707,-72.266,15.625,62.988,-43.945,0.0,0
1581435341.711,-66.895,16.602,63.965,-35.156,0.0,0
1581435341.715,-65.918,18.555,62.5,-47.852,0.0,0
1581435341.719,-62.988,16.113,60.059,-54.688,0.0,0
1581435341.7229998,-64.941,10.742,57.129,-58.105,0.0,0
1581435341.7270002,-71.289,8.301,56.64100000000001,-56.64100000000001,0.0,0
1581435341.731,-65.918,6.836,55.664,-56.64100000000001,0.0,0
1581435341.734,-62.988,10.254,54.199,-58.594,0.0,0
1581435341.738,-68.359,10.742,58.105,-49.316,0.0,0
1581435341.742,-69.336,18.555,56.64100000000001,-51.27,0.0,0
1581435341.746,-80.078,19.043,54.199,-61.523,0.0,0
1581435341.75,-76.66,21.484,49.805,-57.129,0.0,0
1581435341.7670002,-58.594,34.18,48.34,-47.363,0.0,0
1581435341.771,-62.5,26.367,55.176,-49.316,0.0,0
1581435341.775,-69.336,21.973000000000006,49.805,-62.988,0.0,0
1581435341.779,-59.57,22.461,42.969,-58.594,0.0,0
1581435341.783,-64.941,21.484,43.457,-61.035,0.0,0
1581435341.7870002,-69.336,24.902,42.48,-69.336,0.0,0
1581435341.791,-62.012,24.902,46.387,-58.105,0.0,0
1581435341.794,-61.523,27.344,44.434,-58.105,0.0,0
1581435341.798,-58.105,31.738000000000003,41.504,-67.87100000000001,0.0,0
1581435341.802,-54.688,31.25,42.969,-67.383,0.0,0
1581435341.806,-56.152,30.273000000000003,37.598,-56.152,0.0,0
1581435341.81,-49.316,29.785,36.621,-52.246,0.0,0
1581435341.7970002,-54.199,26.855,38.086,-61.523,0.0,0
1581435341.801,-65.43,34.668,32.227,-66.406,0.0,0
1581435341.805,-62.988,32.715,31.25,-59.57,0.0,0
1581435341.809,-63.477,17.09,40.527,-59.082,0.0,0
1581435341.813,-55.664,21.484,41.504,-56.64100000000001,0.0,0
1581435341.8170002,-47.852,30.273000000000003,39.062,-48.34,0.0,0
1581435341.821,-51.758,28.809,40.527,-40.527,0.0,0
1581435341.824,-47.852,34.668,40.527,-44.922,0.0,0
1581435341.8279998,-48.828,35.645,37.109,-56.64100000000001,0.0,0
1581435341.832,-38.086,27.344,31.25,-41.992,0.0,0
1581435341.836,-32.227,31.738000000000003,30.762,-19.531,0.0,0
1581435341.84,-33.691,35.156,26.855,-24.414,0.0,0
1581435341.842,-31.25,30.762,18.066,-37.598,0.0,0
1581435341.846,-33.691,17.578,21.484,-29.785,0.0,0
1581435341.85,-28.32,10.742,25.391,-18.555,0.0,0
1581435341.854,-22.949,23.438,20.508000000000006,-14.648,0.0,0
1581435341.8579998,-9.766,32.227,19.043,-8.789,0.0,0
1581435341.8620002,1.465,35.645,19.043,0.0,0.0,0
1581435341.8660002,5.859,32.715,25.391,14.648,0.0,0
1581435341.869,13.672,30.273000000000003,25.391,19.043,0.0,0
1581435341.873,23.438,27.344,18.555,15.625,0.0,0
1581435341.877,24.414,22.949,5.859,18.555,0.0,0
1581435341.881,26.367,22.949,0.488,28.809,0.0,0
1581435341.885,37.598,18.066,5.371,47.363,0.0,0
1581435341.887,39.551,23.926,5.859,49.805,0.0,0
1581435341.891,43.457,31.25,-1.465,49.316,0.0,0
1581435341.895,51.27,30.762,-6.836,54.199,0.0,0
1581435341.899,45.898,22.461,-6.348,50.78100000000001,0.0,0
1581435341.903,48.34,19.531,2.93,60.059,0.0,0
1581435341.907,59.57,31.738000000000003,5.859,61.035,0.0,0
1581435341.911,61.035,23.926,0.977,59.57,0.0,0
1581435341.914,63.965,22.461,6.836,69.824,0.0,0
1581435341.918,66.406,23.926,6.348,71.289,0.0,0
1581435341.9220002,69.824,23.926,-4.395,67.87100000000001,0.0,0
1581435341.926,72.75399999999998,27.832,-5.371,66.895,0.0,0
1581435341.93,68.359,26.367,0.488,71.289,0.0,0
1581435341.9320002,66.406,21.484,2.441,74.707,0.0,0
1581435341.936,68.848,19.043,0.977,74.219,0.0,0
1581435341.94,69.824,14.16,3.906,68.848,0.0,0
1581435341.944,69.824,12.207,6.836,64.941,0.0,2
1581435341.948,67.383,23.926,1.953,70.312,0.0,0
1581435341.952,70.801,24.414,3.906,74.707,0.0,0
1581435341.956,78.613,18.555,3.418,61.523,0.0,0
1581435341.959,76.66,27.344,-1.465,46.387,0.0,0
1581435341.9629998,60.059,24.902,-1.953,59.082,0.0,0
1581435341.967,55.664,23.926,-4.883,65.918,0.0,0
1581435341.971,54.688,27.344,6.348,57.129,0.0,0
1581435341.975,55.664,28.32,16.113,61.035,0.0,0
1581435341.9770002,65.918,25.391,9.766,64.941,0.0,0
1581435341.981,58.594,17.578,6.836,58.594,0.0,0
1581435341.985,58.105,19.531,11.23,58.594,0.0,0
1581435341.9889998,59.57,22.461,16.602,62.012,0.0,0
1581435341.9929998,58.105,18.555,16.113,62.012,0.0,0
1581435341.9970002,68.359,21.973000000000006,13.184,70.801,0.0,0
1581435342.0010002,69.336,27.832,8.789,62.5,0.0,0
1581435342.004,62.5,24.414,12.207,43.945,0.0,0
1581435342.008,70.312,20.508000000000006,13.184,57.617,0.0,0
1581435342.012,73.73,17.578,8.301,64.941,0.0,0
1581435342.016,72.266,16.113,6.348,65.918,0.0,0
1581435342.02,70.312,29.297,3.418,65.918,0.0,0
1581435342.022,70.312,37.109,5.371,66.895,0.0,0
1581435342.026,66.406,35.156,18.555,71.289,0.0,0
1581435342.03,61.035,26.367,20.02,71.777,0.0,0
1581435342.034,62.988,19.043,12.207,71.777,0.0,0
1581435342.038,56.64100000000001,23.438,13.184,70.312,0.0,0
1581435342.042,53.223,23.438,18.066,68.359,0.0,0
1581435342.046,55.176,28.32,20.996,62.988,0.0,0
1581435342.049,52.246,32.227,14.648,55.176,0.0,0
1581435342.053,47.363,23.926,10.742,50.78100000000001,0.0,0
1581435342.0570002,44.434,20.508000000000006,8.789,53.223,0.0,0
1581435342.061,43.457,23.926,13.672,59.57,0.0,0
1581435342.065,39.551,21.484,17.09,52.734,0.0,0
1581435342.082,36.621,21.973000000000006,9.766,42.969,0.0,0
1581435342.086,34.668,19.531,5.371,43.457,0.0,0
1581435342.09,40.527,30.762,6.348,48.34,0.0,0
1581435342.094,38.574,36.133,6.348,54.199,0.0,0
1581435342.0979998,29.297,19.043,10.254,44.434,0.0,0
1581435342.1020002,28.809,26.855,11.23,39.551,0.0,0
1581435342.106,38.086,31.738000000000003,12.207,47.852,0.0,0
1581435342.109,45.41,21.484,10.742,50.78100000000001,0.0,0
1581435342.113,46.875,23.438,9.766,50.78100000000001,0.0,0
1581435342.117,47.363,23.926,15.625,41.992,0.0,0
1581435342.121,44.922,26.855,18.555,45.41,0.0,0
1581435342.125,40.039,27.832,14.16,53.223,0.0,0
1581435342.127,40.527,19.531,4.395,49.805,0.0,0
1581435342.131,43.945,20.508000000000006,2.93,34.18,0.0,0
1581435342.135,36.133,26.367,8.789,40.039,0.0,0
1581435342.139,29.297,30.762,13.672,51.758,0.0,0
1581435342.143,32.227,30.273000000000003,10.742,35.645,0.0,0
1581435342.147,34.668,25.391,16.113,29.297,0.0,0
1581435342.151,29.297,20.02,24.902,35.156,0.0,0
1581435342.154,28.809,31.738000000000003,14.648,32.715,0.0,0
1581435342.158,34.668,31.25,10.254,34.668,0.0,0
1581435342.1620002,39.551,12.695,10.254,37.598,0.0,0
1581435342.166,38.086,10.742,12.695,34.18,0.0,0
1581435342.17,32.715,20.508000000000006,16.602,41.504,0.0,0
1581435342.1720002,24.414,29.785,12.207,37.109,0.0,0
1581435342.176,24.902,22.461,17.578,31.738000000000003,0.0,0
1581435342.18,30.273000000000003,20.996,22.461,31.738000000000003,0.0,0
1581435342.184,22.461,23.438,20.508000000000006,28.32,0.0,0
1581435342.188,27.832,24.902,23.926,34.668,0.0,0
1581435342.1920002,35.156,29.785,17.09,33.203,0.0,0
1581435342.196,32.715,25.391,7.324,27.832,0.0,0
1581435342.199,26.367,20.508000000000006,12.207,33.691,0.0,0
1581435342.2029998,33.203,20.508000000000006,20.508000000000006,30.273000000000003,0.0,0
1581435342.207,40.527,22.949,25.879,35.156,0.0,0
1581435342.211,33.203,27.832,19.531,32.715,0.0,0
1581435342.215,36.133,22.949,16.113,28.32,0.0,0
1581435342.218,41.992,24.902,13.184,41.992,0.0,0
1581435342.222,29.297,29.297,12.207,38.086,0.0,0
1581435342.226,27.344,18.066,11.23,27.832,0.0,0
1581435342.23,40.039,17.578,5.371,22.461,0.0,0
1581435342.234,26.855,20.508000000000006,8.301,26.855,0.0,0
1581435342.238,26.855,26.367,11.23,26.367,0.0,0
1581435342.242,42.969,29.297,15.625,25.879,0.0,0
1581435342.245,34.668,15.625,10.254,25.879,0.0,0
1581435342.2489998,31.738000000000003,15.625,6.348,20.996,0.0,0
1581435342.2529998,32.715,25.879,13.184,33.203,0.0,0
1581435342.2570002,28.809,20.996,9.277,31.738000000000003,0.0,0
1581435342.2610002,27.832,19.043,8.789,20.508000000000006,0.0,0
1581435342.2629998,26.855,20.02,16.113,23.926,0.0,0
1581435342.2670002,31.25,18.555,17.578,34.18,0.0,0
1581435342.271,34.668,8.301,16.602,37.598,0.0,0
1581435342.275,29.785,9.766,19.531,32.227,0.0,0
1581435342.279,22.461,20.508000000000006,17.578,27.832,0.0,0
1581435342.283,23.926,16.602,13.184,33.691,0.0,0
1581435342.2870002,21.484,16.113,16.602,38.086,0.0,0
1581435342.29,22.949,24.902,17.09,21.973000000000006,0.0,0
1581435342.294,27.832,23.438,16.602,17.09,0.0,0
1581435342.298,27.832,21.484,17.09,28.809,0.0,0
1581435342.302,25.391,22.949,16.602,33.203,0.0,0
1581435342.306,21.973000000000006,20.508000000000006,20.508000000000006,36.133,0.0,0
1581435342.3079998,20.508000000000006,18.066,14.16,30.762,0.0,0
1581435342.312,17.578,13.184,3.418,26.855,0.0,0
1581435342.316,13.184,12.695,12.695,37.598,0.0,0
1581435342.32,16.113,9.766,28.809,47.852,0.0,0
1581435342.324,23.926,15.137,23.926,40.527,0.0,0
1581435342.3279998,29.785,25.879,21.484,36.621,0.0,0
1581435342.332,36.133,23.926,30.273000000000003,42.48,0.0,0
1581435342.335,34.668,22.461,23.438,35.156,0.0,0
1581435342.339,26.367,19.531,15.625,30.273000000000003,0.0,0
1581435342.343,21.973000000000006,14.16,17.09,34.18,0.0,0
1581435342.347,12.207,12.207,12.207,26.367,0.0,0
1581435342.351,4.395,15.625,4.395,21.973000000000006,0.0,0
1581435342.353,19.531,33.203,17.578,35.156,0.0,0
1581435342.357,28.809,35.645,23.926,33.691,0.0,0
1581435342.361,15.625,12.695,24.414,22.949,0.0,0
1581435342.365,15.137,11.23,26.367,28.32,0.0,0
1581435342.369,19.531,24.902,26.367,27.344,0.0,0
1581435342.373,18.555,22.949,24.902,24.902,0.0,0
1581435342.377,18.066,20.996,22.949,10.742,0.0,0
1581435342.38,19.043,24.414,19.043,11.719,0.0,0
1581435342.3839998,19.531,27.832,11.23,23.926,0.0,0
1581435342.3879998,19.531,22.949,13.672,17.09,0.0,0
1581435342.3920002,16.602,11.719,12.695,20.02,0.0,0
1581435342.396,14.648,13.672,17.578,21.973000000000006,0.0,0
1581435342.4120002,9.277,23.926,20.996,22.461,0.0,0
1581435342.416,13.184,30.273000000000003,19.531,17.09,0.0,0
1581435342.42,16.113,22.949,19.531,16.113,0.0,0
1581435342.424,9.277,18.066,22.949,22.949,0.0,0
1581435342.428,15.625,20.508000000000006,29.785,32.715,0.0,0
1581435342.4320002,20.508000000000006,20.996,28.809,25.879,0.0,0
1581435342.436,15.625,19.043,28.32,10.742,0.0,0
1581435342.439,12.207,13.672,23.926,23.438,0.0,0
1581435342.4429998,14.16,16.113,23.926,38.086,0.0,0
1581435342.447,21.973000000000006,24.902,22.949,26.367,0.0,0
1581435342.451,18.066,27.344,20.508000000000006,18.066,0.0,0
1581435342.455,17.09,23.926,17.09,20.02,0.0,0
1581435342.457,28.32,26.855,20.508000000000006,20.996,0.0,0
1581435342.461,30.273000000000003,32.715,25.391,25.879,0.0,0
1581435342.465,30.762,28.809,15.625,21.973000000000006,0.0,0
1581435342.469,26.367,13.184,14.16,12.695,0.0,0
1581435342.4729998,12.695,16.602,21.973000000000006,17.578,0.0,0
1581435342.4770002,11.719,28.809,27.344,22.949,0.0,0
1581435342.481,20.02,28.32,24.414,20.508000000000006,0.0,0
1581435342.484,15.137,28.809,23.926,24.902,0.0,0
1581435342.488,14.648,25.879,27.344,30.273000000000003,0.0,0
1581435342.492,16.602,26.855,20.996,14.648,0.0,0
1581435342.496,17.578,32.227,20.996,14.648,0.0,0
1581435342.5,20.996,33.691,22.461,21.484,0.0,0
1581435342.5029998,14.648,27.344,15.625,13.672,0.0,0
1581435342.5070002,11.719,17.578,16.113,20.996,0.0,0
1581435342.5110002,10.254,24.902,25.879,24.902,0.0,0
1581435342.515,16.113,31.738000000000003,24.902,21.973000000000006,0.0,0
1581435342.519,24.414,25.391,23.438,21.973000000000006,0.0,0
1581435342.5229998,17.578,19.043,20.996,23.438,0.0,0
1581435342.5270002,18.555,23.926,17.578,21.973000000000006,0.0,0
1581435342.53,19.531,25.391,21.973000000000006,11.23,0.0,0
1581435342.534,17.09,19.531,20.996,12.207,0.0,0
1581435342.538,17.09,32.715,20.02,14.16,0.0,0
1581435342.542,18.066,35.156,23.438,15.137,0.0,0
1581435342.546,14.16,29.297,18.066,7.324,0.0,0
1581435342.548,14.16,29.297,16.602,4.883,0.0,0
1581435342.552,19.043,20.02,23.926,20.508000000000006,0.0,0
1581435342.556,11.719,20.02,27.832,18.066,0.0,0
1581435342.56,6.836,29.297,28.32,5.859,0.0,0
1581435342.564,8.301,22.949,24.414,8.301,0.0,0
1581435342.5679998,13.184,21.973000000000006,16.113,3.906,0.0,0
1581435342.572,15.137,34.668,13.672,10.254,0.0,0
1581435342.575,13.184,30.762,11.23,19.531,0.0,0
1581435342.579,13.672,25.391,16.113,0.488,0.0,0
1581435342.583,8.301,30.273000000000003,22.949,-6.836,0.0,0
1581435342.587,6.836,25.391,19.043,2.93,0.0,0
1581435342.591,12.207,25.391,23.926,9.277,0.0,0
1581435342.593,16.602,22.949,30.273000000000003,4.883,0.0,0
1581435342.597,20.02,15.625,20.508000000000006,12.695,0.0,0
1581435342.601,18.066,21.484,17.09,23.438,0.0,0
1581435342.605,12.207,28.809,22.949,17.578,0.0,0
1581435342.609,4.883,20.02,24.414,7.812,0.0,0
1581435342.613,2.441,14.648,20.508000000000006,5.859,0.0,0
1581435342.617,11.23,23.438,25.879,17.09,0.0,0
1581435342.62,12.695,21.973000000000006,34.668,16.113,0.0,0
1581435342.6239998,9.766,20.996,24.902,4.883,0.0,0
1581435342.6279998,5.371,19.043,22.949,0.0,0.0,0
1581435342.6320002,-3.418,10.742,27.344,-3.418,0.0,0
1581435342.6360002,3.906,15.625,23.926,9.277,0.0,0
1581435342.6379998,3.906,36.133,20.508000000000006,15.137,0.0,0
1581435342.6420002,5.371,38.086,20.996,7.324,0.0,0
1581435342.646,18.555,25.391,27.832,3.418,0.0,0
1581435342.65,11.23,21.973000000000006,29.785,13.184,0.0,0
1581435342.654,10.742,25.391,28.32,27.832,0.0,0
1581435342.658,17.09,20.996,26.367,22.949,0.0,0
1581435342.6620002,15.137,23.926,31.25,11.23,0.0,0
1581435342.665,1.953,27.832,34.18,1.953,0.0,0
1581435342.669,0.488,19.043,25.391,8.301,0.0,0
1581435342.673,-2.93,21.973000000000006,16.602,-5.371,0.0,0
1581435342.677,-7.812,14.16,19.531,-1.953,0.0,0
1581435342.681,5.371,9.766,32.715,20.996,0.0,0
1581435342.6829998,14.16,20.508000000000006,31.738000000000003,22.461,0.0,0
1581435342.687,14.16,18.555,24.902,21.484,0.0,0
1581435342.691,10.254,25.879,31.738000000000003,14.16,0.0,0
1581435342.695,1.953,29.297,35.645,13.184,0.0,0
1581435342.699,0.0,18.066,33.691,24.414,0.0,0
1581435342.7029998,7.324,16.113,27.832,20.02,0.0,0
1581435342.707,16.113,24.414,22.949,17.578,0.0,0
1581435342.71,17.578,22.949,28.32,20.508000000000006,0.0,0
1581435342.714,15.137,25.879,23.926,20.996,0.0,0
1581435342.718,8.301,25.391,26.855,26.367,0.0,0
1581435342.722,16.602,22.461,27.832,25.879,0.0,0
1581435342.726,27.832,25.879,31.25,22.949,0.0,0
1581435342.728,18.555,21.973000000000006,38.574,33.203,0.0,0
1581435342.732,18.066,24.902,24.414,31.25,0.0,0
1581435342.736,16.113,24.414,19.043,20.02,0.0,0
1581435342.74,17.578,16.113,20.508000000000006,15.625,0.0,0
1581435342.744,22.461,13.184,18.555,18.066,0.0,0
1581435342.748,21.484,28.32,19.531,24.902,0.0,0
1581435342.752,22.949,35.645,19.531,15.625,0.0,0
1581435342.755,23.438,29.785,23.926,3.906,0.0,0
1581435342.7589998,22.949,28.32,29.785,15.625,0.0,0
1581435342.7629998,16.602,23.438,25.879,23.926,0.0,0
1581435342.7670002,12.207,25.879,17.09,24.414,0.0,0
1581435342.771,10.254,14.648,18.066,17.09,0.0,0
1581435342.7870002,12.695,12.207,21.484,14.648,0.0,0
1581435342.791,10.742,23.926,23.926,26.855,0.0,0
1581435342.795,7.324,27.344,23.926,30.762,0.0,0
1581435342.799,15.625,26.367,28.809,26.855,0.0,0
1581435342.803,20.996,16.602,31.25,25.879,0.0,0
1581435342.8070002,21.484,12.695,33.203,26.367,0.0,0
1581435342.811,17.09,27.832,30.273000000000003,24.414,0.0,0
1581435342.814,20.996,29.785,22.461,27.344,0.0,0
1581435342.8179998,29.785,27.832,20.02,31.738000000000003,0.0,0
1581435342.822,30.762,33.691,19.531,35.156,0.0,0
1581435342.826,26.367,27.832,19.043,36.133,0.0,0
1581435342.83,21.973000000000006,18.555,22.461,36.133,0.0,0
1581435342.832,27.344,18.066,31.738000000000003,28.809,0.0,0
1581435342.836,25.391,28.32,27.832,22.461,0.0,0
1581435342.84,18.066,25.879,19.043,24.902,0.0,0
1581435342.844,15.625,23.926,21.973000000000006,23.438,0.0,0
1581435342.8479998,21.973000000000006,21.973000000000006,22.949,16.113,0.0,0
1581435342.8520002,24.902,21.484,20.02,13.672,0.0,0
1581435342.856,15.625,21.973000000000006,18.066,12.695,0.0,0
1581435342.859,14.16,13.184,14.16,17.578,0.0,0
1581435342.863,17.578,14.648,18.066,15.625,0.0,0
1581435342.867,16.602,26.855,22.949,13.184,0.0,0
1581435342.871,14.648,26.855,21.484,17.578,0.0,0
1581435342.875,16.113,31.25,22.949,21.973000000000006,0.0,0
1581435342.877,18.066,30.273000000000003,21.484,20.02,0.0,0
1581435342.881,5.371,20.02,19.531,11.23,0.0,0
1581435342.885,2.93,20.02,19.043,8.301,0.0,0
1581435342.889,14.648,19.531,26.855,18.555,0.0,0
1581435342.893,15.625,18.555,33.691,26.367,0.0,0
1581435342.897,16.602,20.02,19.043,21.484,0.0,0
1581435342.901,19.043,20.02,15.137,17.09,0.0,0
1581435342.904,16.113,25.879,26.855,28.809,0.0,0
1581435342.908,16.602,27.832,22.461,27.344,0.0,0
1581435342.9120002,20.02,26.367,14.648,12.207,0.0,0
1581435342.916,15.625,21.973000000000006,19.043,14.648,0.0,0
1581435342.92,15.137,19.531,22.949,20.996,0.0,0
1581435342.9220002,21.973000000000006,31.25,19.531,33.203,0.0,0
1581435342.926,17.578,20.996,22.949,30.762,0.0,0
1581435342.93,11.23,14.648,26.855,21.973000000000006,0.0,0
1581435342.934,11.23,23.438,20.996,28.32,0.0,0
1581435342.938,15.625,22.949,9.766,35.156,0.0,0
1581435342.9420002,20.02,26.855,8.789,27.344,0.0,0
1581435342.946,17.578,24.414,20.02,14.648,0.0,0
1581435342.949,13.672,20.508000000000006,23.926,17.578,0.0,0
1581435342.9529998,17.09,28.809,24.902,19.531,0.0,0
1581435342.957,16.602,25.391,17.578,19.531,0.0,0
1581435342.961,15.137,20.02,14.648,20.508000000000006,0.0,0
1581435342.965,19.043,25.391,26.367,17.578,0.0,0
1581435342.967,16.113,31.25,28.809,14.648,0.0,0
1581435342.971,13.672,25.391,22.949,17.578,0.0,0
1581435342.975,14.648,15.137,20.508000000000006,24.414,0.0,0
1581435342.979,16.113,21.484,15.625,21.484,0.0,0
1581435342.9829998,19.531,28.32,20.508000000000006,22.949,0.0,0
1581435342.9870002,19.531,24.902,26.855,24.414,0.0,0
1581435342.9910002,24.414,27.344,23.438,19.531,0.0,2
1581435342.994,26.855,28.809,23.438,14.648,0.0,0
1581435342.998,21.484,27.344,25.391,14.16,0.0,0
1581435343.002,19.531,30.273000000000003,35.645,18.555,0.0,0
1581435343.006,18.066,26.367,28.809,21.973000000000006,0.0,0
1581435343.01,17.09,19.043,16.113,21.973000000000006,0.0,0
1581435343.012,24.414,20.508000000000006,19.043,22.949,0.0,0
1581435343.016,24.902,27.344,18.066,30.762,0.0,0
1581435343.02,17.09,29.785,20.02,24.902,0.0,0
1581435343.024,14.648,22.461,29.297,21.973000000000006,0.0,0
1581435343.028,21.484,18.066,32.715,22.461,0.0,0
1581435343.032,25.391,12.695,26.855,25.879,0.0,0
1581435343.036,25.391,20.996,23.438,36.621,0.0,0
1581435343.039,29.297,36.621,28.32,26.367,0.0,0
1581435343.043,28.32,34.668,25.391,16.602,0.0,0
1581435343.0470002,19.531,32.227,16.113,23.438,0.0,0
1581435343.051,18.066,29.297,15.625,28.32,0.0,0
1581435343.055,13.184,20.02,20.02,26.367,0.0,0
1581435343.0570002,14.648,23.438,24.414,23.926,0.0,0
1581435343.061,21.973000000000006,31.738000000000003,21.973000000000006,27.344,0.0,0
1581435343.065,17.578,37.109,13.184,23.926,0.0,0
1581435343.069,17.578,26.367,15.137,24.414,0.0,0
1581435343.073,16.113,21.484,18.555,19.531,0.0,0
1581435343.077,16.113,32.715,21.484,15.137,0.0,0
1581435343.081,14.648,20.508000000000006,26.367,21.484,0.0,0
1581435343.084,14.648,16.113,23.438,16.113,0.0,0
1581435343.0879998,22.461,24.414,18.066,14.16,0.0,0
1581435343.092,9.277,24.902,19.043,15.137,0.0,0
1581435343.096,0.0,25.391,18.555,14.648,0.0,0
1581435343.1,6.836,23.926,12.207,16.113,0.0,0
1581435343.1020002,12.207,22.461,15.625,16.602,0.0,0
1581435343.106,16.113,29.297,20.02,13.184,0.0,0
1581435343.11,18.066,35.156,19.531,22.949,0.0,0
1581435343.1139998,16.602,33.691,21.484,25.391,0.0,0
1581435343.1179998,18.555,27.832,28.32,21.484,0.0,0
1581435343.1220002,16.602,24.902,25.879,19.043,0.0,0
1581435343.1260002,13.672,24.902,15.625,6.348,0.0,0
1581435343.129,16.113,29.297,9.766,10.742,0.0,0
1581435343.133,11.23,30.273000000000003,15.137,23.438,0.0,0
1581435343.137,16.113,18.555,22.461,17.09,0.0,0
1581435343.141,19.531,18.555,23.438,8.789,0.0,0
1581435343.145,20.508000000000006,25.391,18.555,20.996,0.0,0
1581435343.1620002,14.16,17.09,16.113,27.344,0.0,0
1581435343.166,10.742,20.996,23.438,13.184,0.0,0
1581435343.17,18.066,28.32,28.32,10.254,0.0,0
1581435343.174,18.066,29.297,25.879,20.996,0.0,0
1581435343.178,17.578,30.762,22.949,25.391,0.0,0
1581435343.1820002,20.02,21.973000000000006,23.438,13.184,0.0,0
1581435343.186,21.973000000000006,16.113,22.461,8.301,0.0,0
1581435343.189,15.625,18.555,19.043,15.625,0.0,0
1581435343.1929998,6.348,10.742,13.184,20.02,0.0,0
1581435343.197,20.02,10.254,19.043,16.113,0.0,0
1581435343.201,25.391,31.25,23.926,14.648,0.0,0
1581435343.205,16.602,38.574,23.926,17.578,0.0,0
1581435343.208,17.578,31.738000000000003,20.996,19.531,0.0,0
1581435343.212,10.254,20.996,17.578,23.926,0.0,0
1581435343.216,15.137,17.09,14.648,15.137,0.0,0
1581435343.22,15.137,16.602,11.23,8.789,0.0,0
1581435343.224,12.207,19.043,18.066,22.949,0.0,0
1581435343.228,11.23,30.273000000000003,19.043,23.438,0.0,0
1581435343.232,14.16,26.367,16.113,15.625,0.0,0
1581435343.235,22.949,26.367,20.02,14.16,0.0,0
1581435343.2389998,20.996,24.902,18.555,16.113,0.0,0
1581435343.2429998,22.461,20.996,18.066,21.973000000000006,0.0,0
1581435343.2470002,21.973000000000006,14.16,15.137,21.484,0.0,0
1581435343.2510002,14.648,15.137,12.207,13.184,0.0,0
1581435343.2529998,14.648,28.32,21.973000000000006,18.555,0.0,0
1581435343.2570002,21.973000000000006,20.996,26.367,32.715,0.0,0
1581435343.2610002,22.949,20.02,25.391,24.414,0.0,0
1581435343.265,24.902,31.25,30.762,20.996,0.0,0
1581435343.269,24.902,25.879,36.133,25.391,0.0,0
1581435343.2729998,24.902,22.461,31.738000000000003,32.227,0.0,0
1581435343.2770002,24.902,20.508000000000006,21.484,33.691,0.0,0
1581435343.28,20.508000000000006,14.16,18.066,27.832,0.0,0
1581435343.284,27.344,23.438,14.648,18.555,0.0,0
1581435343.288,26.367,21.484,15.625,12.207,0.0,0
1581435343.292,23.438,13.672,27.344,28.32,0.0,0
1581435343.296,20.508000000000006,25.879,30.762,34.668,0.0,0
1581435343.298,12.207,33.691,22.949,26.367,0.0,0
1581435343.302,13.184,22.949,21.484,23.438,0.0,0
1581435343.306,18.066,20.02,22.461,28.809,0.0,0
1581435343.31,19.531,20.02,22.949,27.832,0.0,0
1581435343.314,17.578,20.508000000000006,16.113,9.766,0.0,0
1581435343.3179998,11.23,30.273000000000003,9.766,10.742,0.0,0
1581435343.322,15.137,29.297,20.508000000000006,23.438,0.0,0
1581435343.325,10.254,17.578,31.25,16.602,0.0,0
1581435343.329,9.277,18.066,21.484,6.836,0.0,0
1581435343.333,20.996,30.762,12.695,6.836,0.0,0
1581435343.337,21.973000000000006,24.414,15.625,26.367,0.0,0
1581435343.341,19.043,22.461,10.254,26.367,0.0,0
1581435343.343,17.09,27.344,12.207,7.812,0.0,0
1581435343.347,13.672,26.367,20.02,9.766,0.0,0
1581435343.351,8.789,35.156,19.531,17.578,0.0,0
1581435343.355,7.812,38.574,14.16,22.949,0.0,0
1581435343.359,7.324,30.273000000000003,7.812,12.207,0.0,0
1581435343.363,13.672,27.344,10.742,0.488,0.0,0
1581435343.367,16.113,24.902,18.555,7.812,0.0,0
1581435343.37,5.371,25.391,10.742,11.23,0.0,0
1581435343.3739998,6.836,19.043,4.395,4.395,0.0,0
1581435343.3779998,17.09,20.02,6.348,5.859,0.0,0
1581435343.3820002,17.578,27.344,14.648,15.625,0.0,0
1581435343.3860002,9.766,17.09,21.973000000000006,20.996,0.0,0
1581435343.387,12.695,18.555,9.766,13.672,0.0,0
1581435343.391,24.414,23.438,6.348,8.789,0.0,0
1581435343.395,16.113,21.973000000000006,17.09,16.602,0.0,0
1581435343.399,5.371,23.926,23.438,15.137,0.0,0
1581435343.403,11.23,33.203,19.043,7.812,0.0,0
1581435343.407,13.672,28.809,15.137,12.207,0.0,0
1581435343.411,7.324,15.137,15.137,16.113,0.0,0
1581435343.414,7.324,21.973000000000006,16.113,20.996,0.0,0
1581435343.418,4.883,24.902,24.414,21.973000000000006,0.0,0
1581435343.4220002,6.348,22.461,18.555,14.648,0.0,0
1581435343.426,11.719,26.367,13.184,12.695,0.0,0
1581435343.43,10.254,27.344,18.555,19.531,0.0,0
1581435343.4329998,11.23,19.531,24.414,23.926,0.0,0
1581435343.437,9.766,25.391,20.996,12.695,0.0,0
1581435343.441,7.324,27.832,14.16,9.766,0.0,0
1581435343.445,11.719,8.789,19.531,20.996,0.0,0
1581435343.449,9.766,17.09,22.461,24.902,0.0,0
1581435343.4529998,7.324,32.227,22.461,22.461,0.0,0
1581435343.457,11.23,16.113,26.855,15.625,0.0,0
1581435343.46,10.254,16.113,25.879,17.09,0.0,0
1581435343.464,7.812,29.785,22.461,27.344,0.0,0
1581435343.468,13.672,31.738000000000003,27.832,29.297,0.0,0
1581435343.472,18.555,27.832,25.391,20.508000000000006,0.0,0
1581435343.476,13.672,28.32,20.996,13.672,0.0,0
1581435343.478,17.578,30.273000000000003,25.391,17.578,0.0,0
1581435343.482,22.461,22.949,20.02,23.438,0.0,0
1581435343.486,13.672,21.973000000000006,14.16,17.09,0.0,0
1581435343.49,14.16,24.902,19.531,19.043,0.0,0
1581435343.494,16.113,12.695,27.832,25.391,0.0,0
1581435343.498,13.672,8.789,30.762,23.438,0.0,0
1581435343.502,15.137,27.832,28.32,17.09,0.0,0
1581435343.505,13.672,36.133,24.414,10.254,0.0,0
1581435343.5089998,18.066,27.832,21.484,20.508000000000006,0.0,0
1581435343.5129998,20.508000000000006,32.227,19.531,25.391,0.0,0
1581435343.5170002,18.066,27.832,20.508000000000006,24.902,0.0,0
1581435343.521,22.461,28.32,32.227,24.902,0.0,0
1581435343.5229998,21.973000000000006,27.344,34.668,26.367,0.0,0
1581435343.5270002,14.16,23.438,22.949,29.785,0.0,0
1581435343.531,15.625,20.996,20.996,26.367,0.0,0
1581435343.535,27.344,24.414,28.32,20.996,0.0,0
1581435343.539,31.25,25.391,23.926,20.996,0.0,0
1581435343.543,20.996,23.438,16.602,20.02,0.0,0
1581435343.5470002,20.996,27.832,17.09,16.602,0.0,0
1581435343.55,24.902,29.785,20.996,19.531,0.0,0
1581435343.554,22.461,31.25,25.879,12.695,0.0,0
1581435343.5579998,28.32,33.691,30.762,20.02,0.0,0
1581435343.562,27.344,31.25,32.227,37.598,0.0,0
1581435343.566,22.461,23.926,29.785,32.715,0.0,0
1581435343.583,25.391,36.621,28.32,24.414,0.0,0
1581435343.587,20.996,37.109,25.879,21.484,0.0,0
1581435343.591,17.578,22.949,21.973000000000006,34.668,0.0,0
1581435343.595,18.066,18.555,20.02,26.855,0.0,0
1581435343.599,17.578,26.855,26.367,18.066,0.0,0
1581435343.603,28.32,32.227,35.645,27.344,0.0,0
1581435343.607,25.879,25.391,34.668,24.902,0.0,0
1581435343.61,11.719,27.344,24.902,27.832,0.0,0
1581435343.6139998,10.742,26.855,21.484,24.902,0.0,0
1581435343.6179998,11.719,26.367,23.438,5.371,0.0,0
1581435343.6220002,7.324,26.855,26.367,6.836,0.0,0
1581435343.6260002,1.465,25.879,20.996,14.648,0.0,0
1581435343.6279998,2.441,20.02,17.09,17.578,0.0,0
1581435343.6320002,3.906,20.508000000000006,30.762,18.555,0.0,0
1581435343.6360002,3.906,25.391,42.48,16.113,0.0,0
1581435343.64,4.395,29.785,32.715,18.066,0.0,0
1581435343.644,0.977,23.438,24.902,15.625,0.0,0
1581435343.6479998,6.836,7.812,26.855,12.207,0.0,0
1581435343.6520002,13.672,12.207,21.484,12.207,0.0,0
1581435343.655,12.207,22.949,21.973000000000006,21.973000000000006,0.0,0
1581435343.659,10.254,20.508000000000006,22.461,22.461,0.0,0
1581435343.663,14.16,24.902,21.973000000000006,8.301,0.0,0
1581435343.667,18.066,33.691,29.297,12.695,0.0,0
1581435343.671,10.742,35.156,32.227,17.578,0.0,0
1581435343.673,15.137,19.531,31.25,26.855,0.0,0
1581435343.677,19.531,16.602,24.902,19.531,0.0,0
1581435343.681,12.207,20.996,24.902,9.277,0.0,0
1581435343.685,10.254,20.02,21.484,15.137,0.0,0
1581435343.689,11.719,23.438,13.672,26.855,0.0,0
1581435343.6929998,11.719,24.414,15.137,24.902,0.0,0
1581435343.697,11.719,23.438,14.648,10.742,0.0,0
1581435343.7,13.184,16.602,20.508000000000006,19.531,0.0,0
1581435343.704,11.23,12.207,28.32,28.32,0.0,0
1581435343.708,7.812,16.113,27.832,26.367,0.0,0
1581435343.712,4.883,22.461,23.438,15.137,0.0,0
1581435343.716,4.395,27.344,25.879,7.812,0.0,0
1581435343.718,7.324,32.715,24.414,13.672,0.0,0
1581435343.722,10.254,24.414,20.996,19.531,0.0,0
1581435343.726,7.812,15.137,25.391,16.602,0.0,0
1581435343.73,3.418,25.879,20.996,9.277,0.0,0
1581435343.734,-1.465,27.832,20.02,12.695,0.0,0
1581435343.738,-0.488,15.625,26.855,18.066,0.0,0
1581435343.742,-1.465,12.695,23.926,11.719,0.0,0
1581435343.745,0.0,15.625,18.555,3.418,0.0,0
1581435343.7489998,7.324,21.484,20.02,-1.953,0.0,0
1581435343.7529998,5.859,12.695,20.02,11.23,0.0,0
1581435343.7570002,2.441,6.348,20.996,14.648,0.0,0
1581435343.7610002,14.16,18.066,18.066,6.836,0.0,0
1581435343.762,13.672,29.297,21.484,15.625,0.0,0
1581435343.766,-2.93,31.738000000000003,25.391,18.066,0.0,0
1581435343.77,0.0,19.531,26.855,12.695,0.0,0
1581435343.774,16.602,18.555,33.691,13.184,0.0,0
1581435343.778,18.066,31.738000000000003,26.855,9.277,0.0,0
1581435343.782,2.441,31.738000000000003,12.695,8.301,0.0,0
1581435343.786,10.742,29.785,16.602,8.789,0.0,0
1581435343.789,19.531,20.996,24.902,8.301,0.0,0
1581435343.793,18.066,19.531,24.414,7.812,0.0,0
1581435343.7970002,20.996,27.832,23.926,12.695,0.0,0
1581435343.801,13.672,27.344,24.902,23.438,0.0,0
1581435343.805,9.277,24.414,20.996,8.789,0.0,0
1581435343.8070002,8.301,27.832,22.461,1.953,0.0,0
1581435343.811,9.766,31.738000000000003,27.832,15.625,0.0,0
1581435343.815,17.578,25.879,23.926,28.32,0.0,0
1581435343.819,23.926,26.367,22.949,33.691,0.0,0
1581435343.823,23.926,33.691,27.832,22.949,0.0,0
1581435343.827,22.949,35.645,24.902,20.02,0.0,0
1581435343.831,20.996,29.785,18.066,20.508000000000006,0.0,0
1581435343.834,15.137,19.043,15.625,13.672,0.0,0
1581435343.8379998,9.766,11.23,19.531,14.16,0.0,0
1581435343.842,8.789,11.23,24.902,6.348,0.0,0
1581435343.846,11.719,17.578,26.855,8.301,0.0,0
1581435343.85,16.602,19.043,21.484,16.602,0.0,0
1581435343.853,19.043,20.02,17.578,13.672,0.0,0
1581435343.857,19.043,29.785,17.09,14.16,0.0,0
1581435343.861,20.02,29.785,17.09,12.695,0.0,0
1581435343.865,15.625,25.879,17.09,19.531,0.0,0
1581435343.869,12.207,24.902,18.066,28.809,0.0,0
1581435343.873,16.113,22.461,20.996,17.578,0.0,0
1581435343.877,15.137,19.531,21.973000000000006,9.277,0.0,0
1581435343.88,11.719,14.648,20.996,11.23,0.0,0
1581435343.8839998,15.625,15.137,21.484,19.043,0.0,0
1581435343.8879998,20.508000000000006,23.926,15.625,12.207,0.0,0
1581435343.8920002,20.02,32.715,16.113,7.812,0.0,0
1581435343.896,18.555,27.832,25.879,23.926,0.0,0
1581435343.897,18.555,20.996,21.973000000000006,25.879,0.0,0
1581435343.901,21.973000000000006,20.508000000000006,14.648,9.277,0.0,0
1581435343.905,22.949,20.996,16.602,4.395,0.0,0
1581435343.909,26.855,21.484,20.996,14.648,0.0,0
1581435343.913,24.414,24.902,19.043,17.09,0.0,0
1581435343.917,17.09,13.184,24.902,10.742,0.0,0
1581435343.921,16.602,22.461,22.949,2.93,0.0,0
1581435343.924,15.137,42.48,12.695,13.184,0.0,0
1581435343.928,17.578,27.832,18.555,22.461,0.0,0
1581435343.9320002,22.461,19.043,22.949,20.02,0.0,0
1581435343.936,19.531,29.297,18.555,16.113,0.0,0
1581435343.94,9.766,28.32,16.602,9.766,0.0,0
1581435343.957,13.672,17.09,19.531,19.043,0.0,0
1581435343.961,11.23,19.043,24.414,13.184,0.0,0
1581435343.965,6.348,30.762,29.785,6.348,0.0,0
1581435343.969,2.93,31.25,24.414,8.301,0.0,0
1581435343.9729998,5.371,21.973000000000006,12.207,11.23,0.0,0
1581435343.9770002,8.789,14.648,11.719,14.16,0.0,0
1581435343.981,10.254,24.902,17.578,11.23,0.0,0
1581435343.984,7.324,27.344,12.207,11.23,0.0,0
1581435343.988,11.23,21.484,11.23,9.766,0.0,0
1581435343.992,13.184,22.461,18.555,15.137,0.0,0
1581435343.996,10.742,26.367,24.414,24.414,0.0,0
1581435344.0,16.113,29.785,26.367,22.949,0.0,0
1581435344.002,12.695,26.367,21.973000000000006,18.066,0.0,0
1581435344.006,14.648,21.973000000000006,19.531,21.484,0.0,0
1581435344.01,21.484,20.508000000000006,23.926,28.809,0.0,0
1581435344.014,18.066,19.531,20.02,25.879,0.0,0
1581435344.018,15.625,20.508000000000006,19.531,24.414,0.0,0
1581435344.022,16.602,17.578,21.973000000000006,29.297,0.0,0
1581435344.026,11.23,21.484,29.297,21.973000000000006,0.0,0
1581435344.029,12.207,28.32,31.738000000000003,16.113,0.0,0
1581435344.033,17.09,31.738000000000003,25.391,18.555,0.0,0
1581435344.0370002,17.578,33.691,20.02,19.043,0.0,0
1581435344.041,6.836,23.438,15.625,16.602,0.0,0
1581435344.045,9.766,17.09,14.16,12.695,0.0,0
1581435344.048,8.789,21.484,12.207,4.883,0.0,0
1581435344.052,-0.977,21.973000000000006,18.066,9.277,0.0,0
1581435344.056,6.348,20.996,23.926,17.578,0.0,0
1581435344.06,11.719,23.438,21.973000000000006,10.742,0.0,0
1581435344.064,7.324,27.832,25.879,8.789,0.0,0
1581435344.0679998,13.184,28.32,31.25,19.531,0.0,0
1581435344.072,16.113,19.531,31.25,26.855,0.0,0
1581435344.075,12.207,14.16,25.879,22.949,0.0,0
1581435344.079,7.812,21.484,19.531,6.836,0.0,0
1581435344.083,0.488,20.508000000000006,20.02,-0.977,0.0,0
1581435344.087,1.465,19.531,16.602,18.555,0.0,0
1581435344.091,12.695,20.996,18.066,23.926,0.0,0
1581435344.092,18.066,19.531,22.949,1.465,0.0,0
1581435344.096,11.23,18.555,20.02,3.418,0.0,0
1581435344.1,10.254,18.555,17.578,20.996,0.0,0
1581435344.104,10.254,16.602,24.414,19.043,0.0,0
1581435344.1079998,6.836,9.766,30.273000000000003,6.348,0.0,0
1581435344.1120002,4.883,11.719,24.902,1.465,0.0,0
1581435344.1160002,1.953,15.137,19.043,11.23,0.0,0
1581435344.119,2.441,12.207,15.625,12.207,0.0,0
1581435344.123,10.254,9.766,22.461,7.324,0.0,0
1581435344.127,10.254,20.996,21.973000000000006,5.859,0.0,0
1581435344.131,10.254,20.996,21.973000000000006,7.324,0.0,0
1581435344.135,26.367,15.137,28.32,26.367,0.0,0
1581435344.137,32.715,18.555,26.367,28.32,0.0,0
1581435344.141,21.973000000000006,12.207,21.973000000000006,23.438,0.0,0
1581435344.145,21.973000000000006,13.184,13.672,24.902,0.0,0
1581435344.149,21.484,20.02,9.766,25.879,0.0,0
1581435344.153,14.16,19.043,20.02,24.902,0.0,0
1581435344.157,17.578,27.832,18.555,18.555,0.0,0
1581435344.161,21.484,33.203,16.602,23.926,0.0,1
1581435344.164,22.461,29.785,26.367,24.414,0.0,0
1581435344.168,20.996,24.414,27.344,21.484,0.0,0
1581435344.1720002,23.438,22.461,31.738000000000003,35.156,0.0,0
1581435344.176,23.926,20.02,28.32,31.25,0.0,0
1581435344.18,16.113,17.09,22.461,20.02,0.0,0
1581435344.1820002,17.09,24.902,16.113,23.926,0.0,0
1581435344.186,23.926,29.297,7.324,23.438,0.0,0
1581435344.19,29.297,21.484,16.113,24.414,0.0,0
1581435344.194,26.367,23.926,21.973000000000006,27.832,0.0,0
1581435344.198,18.555,26.855,18.555,23.438,0.0,0
1581435344.202,19.043,30.273000000000003,24.902,23.926,0.0,0
1581435344.206,15.137,28.32,26.855,15.137,0.0,0
1581435344.209,13.672,16.602,19.531,8.301,0.0,0
1581435344.2129998,19.043,18.066,16.113,21.484,0.0,0
1581435344.217,15.137,27.344,19.043,24.414,0.0,0
1581435344.221,19.531,35.645,17.578,11.719,0.0,0
1581435344.225,17.09,33.203,18.066,11.23,0.0,0
1581435344.2270002,6.836,24.414,22.461,16.113,0.0,0
1581435344.231,16.602,25.879,19.531,12.695,0.0,0
1581435344.235,19.043,23.438,14.16,16.113,0.0,0
1581435344.2389998,17.09,24.414,16.602,19.043,0.0,0
1581435344.2429998,20.02,30.273000000000003,20.508000000000006,17.578,0.0,0
1581435344.2470002,18.066,26.855,20.508000000000006,22.461,0.0,0
1581435344.2510002,22.461,18.555,19.531,18.555,0.0,0
1581435344.254,21.484,14.16,16.602,10.254,0.0,0
1581435344.258,18.555,18.066,17.09,12.207,0.0,0
1581435344.262,14.648,17.578,19.531,14.16,0.0,0
1581435344.266,10.742,17.09,17.09,18.555,0.0,0
1581435344.27,16.113,25.391,12.695,13.672,0.0,0
1581435344.272,6.348,20.508000000000006,15.137,19.043,0.0,0
1581435344.276,8.301,20.02,17.578,22.949,0.0,0
1581435344.28,15.625,21.973000000000006,18.555,17.578,0.0,0
1581435344.284,13.672,18.555,19.531,17.09,0.0,0
1581435344.288,18.555,20.996,20.996,16.602,0.0,0
1581435344.292,13.184,19.043,20.508000000000006,12.695,0.0,0
1581435344.296,10.742,12.695,12.207,4.395,0.0,0
1581435344.299,10.742,19.043,11.23,15.625,0.0,0
1581435344.303,17.09,24.902,20.508000000000006,21.484,0.0,0
1581435344.3070002,25.391,26.855,30.762,22.461,0.0,0
1581435344.311,23.438,23.926,33.203,35.156,0.0,0
1581435344.315,18.066,22.461,21.973000000000006,23.438,0.0,0
1581435344.332,10.742,23.438,20.02,11.719,0.0,0
1581435344.336,17.578,16.602,22.949,24.414,0.0,0
1581435344.34,26.367,15.137,19.043,30.273000000000003,0.0,0
1581435344.344,22.461,17.09,21.973000000000006,27.832,0.0,0
1581435344.3479998,17.09,19.531,24.902,22.949,0.0,0
1581435344.3520002,14.648,25.391,19.043,20.02,0.0,0
1581435344.356,23.438,23.438,18.066,19.531,0.0,0
1581435344.359,21.484,23.438,28.32,26.855,0.0,0
1581435344.363,14.648,28.32,30.273000000000003,21.973000000000006,0.0,0
1581435344.367,18.555,25.391,19.043,18.555,0.0,0
1581435344.371,23.926,22.461,16.602,26.855,0.0,0
1581435344.375,22.949,26.367,24.414,29.785,0.0,0
1581435344.377,24.414,31.25,31.738000000000003,22.461,0.0,0
1581435344.381,24.902,28.809,24.902,9.766,0.0,0
1581435344.385,20.996,21.484,27.832,14.648,0.0,0
1581435344.389,24.414,26.855,35.645,29.785,0.0,0
1581435344.393,29.297,23.926,27.344,25.391,0.0,0
1581435344.397,24.414,19.531,20.02,13.672,0.0,0
1581435344.401,19.531,34.18,19.043,18.066,0.0,0
1581435344.404,18.555,34.18,19.043,21.973000000000006,0.0,0
1581435344.408,20.996,23.926,22.461,26.367,0.0,0
1581435344.4120002,23.926,31.738000000000003,29.297,18.066,0.0,0
1581435344.416,20.508000000000006,37.109,24.414,19.531,0.0,0
1581435344.42,15.625,29.297,23.926,29.785,0.0,0
1581435344.4220002,20.508000000000006,22.949,22.461,20.02,0.0,0
1581435344.426,24.414,26.367,16.602,21.973000000000006,0.0,0
1581435344.43,26.855,33.203,23.926,26.367,0.0,0
1581435344.434,27.832,30.273000000000003,23.926,24.902,0.0,0
1581435344.438,22.949,24.902,18.066,20.508000000000006,0.0,0
1581435344.4420002,18.555,23.926,21.484,25.879,0.0,0
1581435344.446,21.973000000000006,25.879,22.461,25.391,0.0,0
1581435344.449,25.391,19.043,8.789,19.531,0.0,0
1581435344.4529998,23.438,25.391,3.418,16.113,0.0,0
1581435344.457,23.926,28.809,15.137,14.16,0.0,0
1581435344.461,24.902,14.648,21.973000000000006,23.926,0.0,0
1581435344.465,25.391,27.344,18.066,22.949,0.0,0
1581435344.467,13.184,43.457,19.531,24.414,0.0,0
1581435344.471,17.578,35.645,20.02,24.414,0.0,0
1581435344.475,31.738000000000003,31.25,16.602,21.973000000000006,0.0,0
1581435344.479,27.344,31.25,20.996,21.484,0.0,0
1581435344.4829998,19.531,29.785,17.578,20.02,0.0,0
1581435344.4870002,21.484,36.621,9.766,25.879,0.0,0
1581435344.4910002,29.297,29.785,15.137,32.715,0.0,0
1581435344.494,25.391,25.391,24.414,25.391,0.0,0
1581435344.498,23.438,33.691,20.02,11.719,0.0,0
1581435344.502,25.391,31.25,18.555,16.602,0.0,0
1581435344.506,21.973000000000006,24.902,22.461,25.879,0.0,0
1581435344.51,22.461,21.484,27.344,24.414,0.0,0
1581435344.512,19.531,24.414,21.973000000000006,25.879,0.0,0
1581435344.516,18.555,21.973000000000006,19.531,38.086,0.0,0
1581435344.52,21.484,30.762,25.879,34.18,0.0,0
1581435344.524,29.297,37.598,22.949,26.855,0.0,0
1581435344.528,30.273000000000003,31.25,19.531,30.273000000000003,0.0,0
1581435344.532,17.578,23.438,21.973000000000006,26.855,0.0,0
1581435344.536,19.531,17.09,29.297,33.691,0.0,0
1581435344.539,18.066,27.832,24.902,19.531,0.0,0
1581435344.543,7.812,25.391,18.555,0.977,0.0,0
1581435344.5470002,6.348,14.648,19.043,13.672,0.0,0
1581435344.551,6.836,24.902,15.625,18.066,0.0,0
1581435344.555,9.277,32.715,16.602,18.066,0.0,0
1581435344.5579998,8.789,32.227,19.531,16.113,0.0,0
1581435344.562,8.301,27.832,20.508000000000006,7.324,0.0,0
1581435344.566,10.742,12.695,23.438,14.16,0.0,0
1581435344.57,10.742,15.137,20.508000000000006,22.461,0.0,0
1581435344.574,10.742,24.414,16.113,15.625,0.0,0
1581435344.5779998,9.277,21.484,18.066,17.578,0.0,0
1581435344.582,8.789,17.09,21.484,21.484,0.0,0
1581435344.585,12.207,27.832,20.02,19.531,0.0,0
1581435344.589,10.254,32.227,24.902,17.09,0.0,0
1581435344.593,9.277,24.902,25.391,10.742,0.0,0
1581435344.597,6.348,21.484,15.625,10.742,0.0,0
1581435344.601,4.883,21.484,17.09,12.207,0.0,0
1581435344.6020002,13.672,28.809,21.484,15.625,0.0,0
1581435344.606,10.254,25.879,27.344,18.555,0.0,0
1581435344.61,11.719,23.926,27.344,21.484,0.0,0
1581435344.6139998,15.625,27.832,25.879,23.438,0.0,0
1581435344.6179998,8.789,25.879,23.926,17.09,0.0,0
1581435344.6220002,6.836,23.926,23.438,17.09,0.0,0
1581435344.6260002,4.395,26.855,20.996,8.789,0.0,0
1581435344.629,5.371,19.531,17.09,9.766,0.0,0
1581435344.633,3.418,11.719,16.602,25.879,0.0,0
1581435344.637,6.836,21.973000000000006,20.996,18.555,0.0,0
1581435344.641,14.16,26.855,23.438,19.043,0.0,0
1581435344.645,8.789,15.625,26.855,27.832,0.0,0
1581435344.6479998,11.23,8.789,28.809,24.902,0.0,0
1581435344.6520002,18.555,12.695,20.02,21.484,0.0,0
1581435344.656,11.23,12.207,21.973000000000006,18.555,0.0,0
1581435344.66,11.719,14.16,27.832,26.855,0.0,0
1581435344.664,13.672,15.625,27.832,34.668,0.0,0
1581435344.668,12.207,20.996,24.414,22.949,0.0,0
1581435344.6720002,19.531,28.809,22.949,11.23,0.0,0
1581435344.675,18.066,23.438,24.902,15.625,0.0,0
1581435344.679,21.484,18.555,22.949,25.391,0.0,0
1581435344.6829998,31.25,12.695,19.043,27.832,0.0,0
1581435344.687,22.461,11.719,18.066,19.531,0.0,0
1581435344.691,25.879,20.996,18.066,21.484,0.0,0
1581435344.7229998,25.879,21.973000000000006,25.879,28.32,0.0,0
1581435344.7270002,20.996,21.973000000000006,30.273000000000003,24.414,0.0,0
1581435344.731,21.973000000000006,21.484,23.438,18.555,0.0,0
1581435344.735,19.531,26.855,18.066,19.531,0.0,0
1581435344.7389998,17.578,22.949,19.531,26.367,0.0,0
1581435344.7429998,16.113,14.16,13.672,14.16,0.0,0
1581435344.7470002,17.578,16.602,17.578,11.719,0.0,0
1581435344.75,23.926,25.391,27.344,18.066,0.0,0
1581435344.754,20.02,25.391,23.926,20.996,0.0,0
1581435344.758,18.066,20.02,14.648,18.066,0.0,0
1581435344.762,22.461,21.484,10.742,7.812,0.0,0
1581435344.766,20.02,24.414,24.902,20.508000000000006,0.0,0
1581435344.768,23.926,29.297,30.762,23.926,0.0,0
1581435344.772,21.484,28.809,25.391,24.414,0.0,0
1581435344.776,20.508000000000006,20.508000000000006,27.344,24.414,0.0,0
1581435344.78,19.531,18.555,27.832,13.184,0.0,0
1581435344.784,19.043,20.508000000000006,17.578,10.254,0.0,0
1581435344.788,27.832,22.461,12.207,19.043,0.0,0
1581435344.792,22.949,20.508000000000006,13.672,9.766,0.0,0
1581435344.795,14.16,22.461,11.23,5.859,0.0,0
1581435344.799,19.043,30.273000000000003,15.137,13.184,0.0,0
1581435344.803,17.09,30.273000000000003,22.949,15.137,0.0,0
1581435344.8070002,11.23,31.25,21.973000000000006,12.695,0.0,0
1581435344.811,10.254,22.461,18.555,5.371,0.0,0
1581435344.798,12.207,13.184,17.09,2.93,0.0,0
1581435344.802,15.137,17.578,19.043,0.977,0.0,0
1581435344.806,11.23,23.438,20.02,15.137,0.0,0
1581435344.81,12.207,21.484,21.484,17.578,0.0,0
1581435344.814,22.949,23.438,26.367,10.742,0.0,0
1581435344.8179998,19.043,24.902,25.879,12.207,0.0,0
1581435344.822,18.555,20.508000000000006,27.832,20.508000000000006,0.0,0
1581435344.825,20.996,27.344,30.273000000000003,30.762,0.0,0
1581435344.829,17.578,23.438,27.344,21.973000000000006,0.0,0
1581435344.833,15.625,9.277,20.02,13.672,0.0,0
1581435344.837,17.09,11.719,12.695,20.508000000000006,0.0,0
1581435344.841,23.926,23.438,20.02,22.949,0.0,0
1581435344.843,26.367,30.762,25.879,12.207,0.0,0
1581435344.847,22.461,32.715,26.367,10.742,0.0,0
1581435344.851,19.531,27.344,26.367,27.832,0.0,0
1581435344.855,14.648,21.973000000000006,22.949,31.25,0.0,0
1581435344.859,13.672,19.531,22.949,21.484,0.0,0
1581435344.863,23.926,23.926,22.949,21.973000000000006,0.0,0
1581435344.867,19.531,26.855,24.902,20.508000000000006,0.0,0
1581435344.87,19.043,26.367,33.203,24.414,0.0,0
1581435344.8739998,15.137,25.391,34.668,24.414,0.0,0
1581435344.8779998,2.441,21.484,24.414,19.043,0.0,0
1581435344.8820002,4.395,18.555,22.461,21.973000000000006,0.0,0
1581435344.8860002,10.742,26.855,19.043,25.879,0.0,0
1581435344.8879998,3.418,22.461,11.23,22.461,0.0,0
1581435344.8920002,-2.93,17.09,14.16,14.648,0.0,0
1581435344.896,4.395,26.367,17.578,17.09,0.0,0
1581435344.9,8.789,25.391,20.996,20.508000000000006,0.0,0
1581435344.904,12.207,21.484,26.855,12.695,0.0,0
1581435344.908,11.719,13.672,24.414,11.719,0.0,0
1581435344.9120002,18.066,19.043,25.391,17.09,0.0,0
1581435344.915,18.066,28.32,27.832,9.766,0.0,0
1581435344.919,13.184,19.531,17.578,8.789,0.0,0
1581435344.923,15.137,23.926,10.742,15.137,0.0,0
1581435344.927,8.301,30.762,10.742,9.277,0.0,0
1581435344.931,7.812,34.18,13.672,11.23,0.0,0
1581435344.9329998,14.16,32.715,23.438,18.555,0.0,0
1581435344.937,13.184,17.578,25.391,20.02,0.0,0
1581435344.941,12.207,18.555,26.367,16.113,0.0,0
1581435344.945,20.02,27.344,26.367,19.531,0.0,0
1581435344.949,16.602,25.391,20.02,28.32,0.0,0
1581435344.9529998,11.23,26.367,22.949,28.809,0.0,0
1581435344.957,14.16,15.625,23.438,13.184,0.0,0
1581435344.96,15.625,11.23,16.602,6.348,0.0,0
1581435344.964,18.066,20.508000000000006,21.973000000000006,22.949,0.0,0
1581435344.968,14.16,22.949,20.02,27.344,0.0,0
1581435344.972,12.207,24.414,16.113,16.113,0.0,0
1581435344.976,18.066,22.461,21.484,20.508000000000006,0.0,0
1581435344.978,14.16,29.785,21.973000000000006,24.414,0.0,0
1581435344.982,9.766,33.691,25.879,24.414,0.0,0
1581435344.986,20.508000000000006,28.32,25.391,14.16,0.0,0
1581435344.99,24.414,34.18,23.438,11.719,0.0,0
1581435344.994,17.578,34.18,27.344,20.508000000000006,0.0,0
1581435344.998,13.672,11.23,19.531,27.344,0.0,0
1581435345.002,13.184,4.883,18.066,22.461,0.0,0
1581435345.005,25.391,28.32,14.648,3.418,0.0,0
1581435345.0089998,25.391,30.273000000000003,8.301,19.531,0.0,0
1581435345.0129998,20.996,14.16,15.137,27.344,0.0,0
1581435345.0170002,22.949,6.836,22.949,24.414,0.0,0
1581435345.021,14.648,17.578,35.645,24.902,0.0,0
1581435345.0370002,14.648,26.855,33.691,25.391,0.0,0
1581435345.041,17.578,18.555,18.066,25.391,0.0,0
1581435345.045,19.531,20.508000000000006,19.531,30.273000000000003,0.0,0
1581435345.049,21.973000000000006,26.367,22.949,29.785,0.0,0
1581435345.053,19.043,23.438,24.902,23.438,0.0,0
1581435345.0570002,20.02,21.484,19.043,22.949,0.0,0
1581435345.061,20.996,22.949,20.508000000000006,16.602,0.0,0
1581435345.064,15.625,15.137,28.32,13.672,0.0,0
1581435345.0679998,12.207,17.09,25.391,7.324,0.0,0
1581435345.072,7.812,27.832,18.555,8.301,0.0,0
1581435345.076,7.812,18.066,13.184,17.578,0.0,0
1581435345.08,11.719,19.531,10.742,14.648,0.0,0
1581435345.082,14.16,24.414,16.602,16.113,0.0,0
1581435345.086,14.648,20.02,19.043,22.949,0.0,0
1581435345.09,12.207,21.973000000000006,26.367,34.668,0.0,0
1581435345.094,5.859,25.391,22.949,20.996,0.0,0
1581435345.0979998,17.09,25.879,14.16,10.742,0.0,0
1581435345.1020002,16.602,19.043,20.996,19.043,0.0,0
1581435345.106,7.324,11.23,21.484,24.902,0.0,0
1581435345.109,13.184,16.113,16.602,26.367,0.0,0
1581435345.113,14.16,21.973000000000006,14.648,20.996,0.0,0
1581435345.117,15.625,20.996,25.879,14.16,0.0,0
1581435345.121,11.719,29.297,27.344,13.672,0.0,0
1581435345.125,4.883,30.273000000000003,21.484,14.16,0.0,0
1581435345.127,8.789,17.09,21.973000000000006,19.531,0.0,0
1581435345.131,12.695,6.836,19.531,13.184,0.0,0
1581435345.135,7.812,15.137,14.648,11.23,0.0,0
1581435345.139,9.277,32.227,19.531,26.367,0.0,0
1581435345.143,18.555,36.621,28.32,29.785,0.0,0
1581435345.147,20.996,22.461,23.438,25.879,0.0,0
1581435345.151,18.066,14.648,16.113,22.949,0.0,0
1581435345.154,7.812,14.648,16.113,19.043,0.0,0
1581435345.158,12.695,16.113,12.695,18.555,0.0,0
1581435345.1620002,18.066,18.066,17.09,14.648,0.0,0
1581435345.166,12.695,22.949,21.484,12.695,0.0,0
1581435345.17,11.23,28.32,21.484,23.926,0.0,0
1581435345.1720002,14.16,33.203,24.902,25.879,0.0,0
1581435345.176,18.066,27.832,17.09,9.277,0.0,0
1581435345.18,19.531,23.926,17.09,14.648,0.0,0
1581435345.184,19.531,28.32,18.066,25.391,0.0,0
1581435345.188,14.16,25.879,13.672,16.113,0.0,0
1581435345.1920002,5.859,26.367,22.461,9.766,0.0,0
1581435345.196,13.184,20.996,24.902,12.695,0.0,0
1581435345.199,14.16,17.09,20.02,12.207,0.0,0
1581435345.2029998,9.766,27.344,21.484,7.812,0.0,0
1581435345.207,22.949,27.832,14.648,7.324,0.0,0
1581435345.211,19.531,27.344,14.648,13.184,0.0,0
1581435345.215,11.23,28.32,22.461,20.508000000000006,0.0,0
1581435345.217,23.926,26.855,24.414,30.762,0.0,0
1581435345.221,29.297,30.273000000000003,23.926,28.809,0.0,0
1581435345.225,25.391,35.645,20.996,24.414,0.0,0
1581435345.229,23.438,30.762,23.438,23.438,0.0,0
1581435345.2329998,30.273000000000003,31.25,23.926,31.738000000000003,0.0,0
1581435345.2370002,28.32,40.527,24.902,36.621,0.0,0
1581435345.2410002,18.555,29.785,18.066,25.879,0.0,0
1581435345.244,22.461,19.043,11.23,20.508000000000006,0.0,0
1581435345.248,27.344,20.508000000000006,19.531,25.391,0.0,0
1581435345.252,21.484,25.879,19.043,21.973000000000006,0.0,0
1581435345.256,15.625,31.25,16.602,22.949,0.0,0
1581435345.26,17.09,23.438,23.926,21.973000000000006,0.0,0
1581435345.262,20.508000000000006,20.996,30.273000000000003,19.043,0.0,0
1581435345.266,13.184,27.344,25.879,25.879,0.0,0
1581435345.27,11.23,24.414,18.066,17.09,0.0,0
1581435345.274,12.695,19.043,22.461,2.93,0.0,0
1581435345.278,9.766,19.531,26.855,6.348,0.0,0
1581435345.282,4.883,23.926,26.855,20.996,0.0,2
1581435345.286,2.441,21.973000000000006,22.949,21.484,0.0,0
1581435345.289,6.348,27.832,16.602,0.977,0.0,0
1581435345.293,10.742,42.48,17.09,-14.16,0.0,0
1581435345.2970002,8.301,32.227,16.602,-1.953,0.0,0
1581435345.301,3.906,21.973000000000006,19.531,9.766,0.0,0
1581435345.305,1.465,29.297,18.555,4.883,0.0,0
1581435345.3070002,12.695,28.32,17.09,2.93,0.0,0
1581435345.311,18.066,20.02,24.414,9.766,0.0,0
1581435345.315,8.301,24.414,28.32,19.043,0.0,0
1581435345.319,7.812,29.785,26.367,20.02,0.0,0
1581435345.323,8.789,31.25,18.066,15.137,0.0,0
1581435345.327,8.301,20.02,15.625,13.184,0.0,0
1581435345.331,8.301,13.184,13.184,14.16,0.0,0
1581435345.334,15.137,27.344,12.695,9.277,0.0,0
1581435345.3379998,28.809,32.227,20.02,9.766,0.0,0
1581435345.342,28.32,26.367,24.902,18.066,0.0,0
1581435345.346,19.043,30.762,25.391,22.461,0.0,0
1581435345.35,16.602,32.715,26.855,28.32,0.0,0
1581435345.3520002,21.973000000000006,25.391,18.555,20.508000000000006,0.0,0
1581435345.356,21.973000000000006,18.066,17.09,10.254,0.0,0
1581435345.36,18.555,26.367,21.484,20.02,0.0,0
1581435345.3639998,9.277,35.156,22.461,22.461,0.0,0
1581435345.3679998,2.441,24.414,23.438,14.648,0.0,0
1581435345.3720002,13.184,18.555,22.461,21.484,0.0,0
1581435345.3760002,11.23,23.926,27.832,11.23,0.0,0
1581435345.379,10.742,27.344,24.414,7.812,0.0,0
1581435345.383,14.648,28.809,18.066,16.113,0.0,0
1581435345.387,15.137,24.902,23.438,12.207,0.0,0
1581435345.391,12.207,22.461,25.391,17.578,0.0,0
1581435345.395,9.277,28.32,27.832,10.254,0.0,0
1581435345.4120002,9.766,31.25,35.156,13.672,0.0,0
1581435345.416,11.719,29.297,30.762,16.113,0.0,0
1581435345.42,22.461,26.855,24.414,20.02,0.0,0
1581435345.424,28.32,23.438,15.625,34.18,0.0,0
1581435345.428,26.855,23.438,14.16,32.227,0.0,0
1581435345.4320002,24.902,22.949,24.414,26.367,0.0,0
1581435345.436,25.879,18.066,34.668,27.832,0.0,0
1581435345.439,31.738000000000003,17.09,33.203,38.086,0.0,0
1581435345.4429998,31.25,17.09,20.996,44.434,0.0,0
1581435345.447,30.762,19.531,20.508000000000006,24.902,0.0,0
1581435345.451,31.25,23.926,24.902,21.973000000000006,0.0,0
1581435345.455,28.809,24.902,30.273000000000003,35.645,0.0,0
1581435345.457,27.344,24.902,21.973000000000006,35.645,0.0,0
1581435345.461,26.855,19.531,14.648,27.832,0.0,0
1581435345.465,23.926,22.949,27.344,19.043,0.0,0
1581435345.469,16.602,24.414,24.902,14.648,0.0,0
1581435345.4729998,8.301,20.996,19.531,16.113,0.0,0
1581435345.4770002,13.672,28.809,24.902,20.508000000000006,0.0,0
1581435345.481,17.578,32.227,26.367,21.484,0.0,0
1581435345.484,8.789,19.531,23.438,16.113,0.0,0
1581435345.488,10.742,14.648,24.414,26.855,0.0,0
1581435345.492,17.578,26.855,22.949,15.137,0.0,0
1581435345.496,24.414,22.461,19.531,3.418,0.0,0
1581435345.5,21.973000000000006,15.625,16.113,18.555,0.0,0
1581435345.5029998,17.578,26.855,22.461,23.926,0.0,0
1581435345.5070002,19.043,32.715,29.785,21.973000000000006,0.0,0
1581435345.5110002,18.555,30.273000000000003,28.809,20.02,0.0,0
1581435345.515,20.508000000000006,27.832,27.832,19.531,0.0,0
1581435345.519,20.508000000000006,29.297,21.973000000000006,24.902,0.0,0
1581435345.5229998,20.508000000000006,20.02,20.996,22.461,0.0,0
1581435345.5270002,23.438,10.742,21.973000000000006,23.926,0.0,0
1581435345.53,21.973000000000006,22.949,24.902,23.926,0.0,0
1581435345.534,25.879,29.785,31.738000000000003,24.414,0.0,0
1581435345.538,18.066,31.25,26.367,22.461,0.0,0
1581435345.542,12.207,28.32,12.207,21.484,0.0,0
1581435345.546,24.414,27.832,11.719,24.902,0.0,0
1581435345.5470002,21.484,20.02,18.555,20.02,0.0,0
1581435345.551,11.23,15.625,18.555,17.09,0.0,0
1581435345.555,21.484,27.832,17.578,23.926,0.0,0
1581435345.559,22.949,24.414,26.367,24.414,0.0,0
1581435345.563,9.766,30.273000000000003,27.832,17.578,0.0,0
1581435345.5670002,11.719,41.01600000000001,20.02,16.113,0.0,0
1581435345.571,13.184,29.785,21.484,18.555,0.0,0
1581435345.574,0.977,21.484,16.113,14.648,0.0,0
1581435345.5779998,4.395,22.461,15.137,2.441,0.0,0
1581435345.582,13.184,18.066,19.531,7.324,0.0,0
1581435345.586,10.742,16.113,14.16,22.949,0.0,0
1581435345.59,8.789,21.973000000000006,15.625,16.602,0.0,0
1581435345.593,8.301,26.367,22.461,2.441,0.0,0
1581435345.597,17.578,21.973000000000006,20.02,3.906,0.0,0
1581435345.601,13.184,23.438,22.461,10.742,0.0,0
1581435345.605,3.906,27.344,28.32,11.23,0.0,0
1581435345.609,8.301,14.648,19.043,5.859,0.0,0
1581435345.613,13.672,20.02,20.508000000000006,10.742,0.0,0
1581435345.617,13.184,32.715,27.344,20.02,0.0,0
1581435345.62,16.113,27.832,22.461,23.926,0.0,0
1581435345.6239998,12.695,29.297,16.602,16.602,0.0,0
1581435345.6279998,15.625,31.25,18.555,13.184,0.0,0
1581435345.6320002,14.648,18.066,18.555,22.461,0.0,0
1581435345.6360002,13.672,12.695,20.996,20.508000000000006,0.0,0
1581435345.6379998,11.719,11.23,31.738000000000003,18.066,0.0,0
1581435345.6420002,7.324,28.809,25.391,4.395,0.0,0
1581435345.646,5.371,37.598,27.832,6.836,0.0,0
1581435345.65,0.977,21.484,31.25,15.625,0.0,0
1581435345.654,1.953,16.602,19.531,10.254,0.0,0
1581435345.658,4.395,29.297,17.578,18.066,0.0,0
1581435345.6620002,10.742,30.273000000000003,22.461,17.578,0.0,0
1581435345.665,15.625,29.785,20.996,6.836,0.0,0
1581435345.669,16.602,32.715,14.648,12.207,0.0,0
1581435345.673,14.16,30.273000000000003,21.484,13.672,0.0,0
1581435345.677,17.578,26.367,33.203,16.113,0.0,0
1581435345.681,12.695,17.578,27.344,26.367,0.0,0
1581435345.6820002,7.812,22.461,20.508000000000006,30.273000000000003,0.0,0
1581435345.686,12.207,24.902,20.996,21.973000000000006,0.0,0
1581435345.69,12.207,14.648,25.879,15.625,0.0,0
1581435345.694,14.16,19.531,29.785,26.367,0.0,0
1581435345.698,13.672,22.949,27.344,29.785,0.0,0
1581435345.702,18.066,25.879,27.344,29.785,0.0,0
1581435345.706,15.137,24.414,27.832,21.973000000000006,0.0,0
1581435345.709,15.625,21.973000000000006,27.344,21.484,0.0,0
1581435345.7129998,15.625,20.996,34.18,31.738000000000003,0.0,0
1581435345.717,6.836,13.672,24.414,25.879,0.0,0
1581435345.721,5.371,26.367,12.207,14.648,0.0,0
1581435345.725,11.23,29.785,17.09,17.09,0.0,0
1581435345.728,11.23,21.973000000000006,22.949,24.414,0.0,0
1581435345.732,9.766,20.02,25.879,36.133,0.0,0
1581435345.736,14.16,12.695,28.32,33.203,0.0,0
1581435345.74,19.043,18.066,26.367,23.926,0.0,0
1581435345.744,18.555,27.832,21.973000000000006,25.391,0.0,0
1581435345.748,18.066,23.926,20.996,37.598,0.0,0
1581435345.752,18.555,23.926,22.461,23.438,0.0,0
1581435345.755,18.555,23.438,22.949,2.441,0.0,0
1581435345.7589998,19.043,20.02,22.461,20.508000000000006,0.0,0
1581435345.7629998,27.344,24.414,22.461,30.273000000000003,0.0,0
1581435345.7670002,33.203,25.391,25.391,27.344,0.0,0
1581435345.771,30.273000000000003,18.555,30.273000000000003,26.367,0.0,0
1581435345.772,16.602,9.766,26.367,28.809,0.0,0
1581435345.776,12.695,18.555,19.043,33.203,0.0,0
1581435345.78,22.461,29.785,21.484,30.762,0.0,0
1581435345.784,26.367,27.344,26.367,24.414,0.0,0
1581435345.788,26.367,29.297,23.926,28.809,0.0,0
1581435345.792,22.949,27.344,22.949,38.574,0.0,0
1581435345.796,25.879,20.02,21.484,31.738000000000003,0.0,0
1581435345.799,15.137,16.113,22.461,22.461,0.0,0
1581435345.803,11.23,13.672,24.902,29.785,0.0,0
1581435345.8070002,21.484,20.996,19.043,31.738000000000003,0.0,0
1581435345.811,16.113,20.02,21.973000000000006,23.438,0.0,0
1581435345.815,17.578,19.043,28.809,23.926,0.0,0
1581435345.832,21.973000000000006,27.344,32.227,21.973000000000006,0.0,0
1581435345.836,19.531,21.973000000000006,33.691,23.438,0.0,0
1581435345.84,20.996,20.02,21.973000000000006,35.645,0.0,0
1581435345.844,20.508000000000006,27.832,20.508000000000006,33.203,0.0,0
1581435345.8479998,17.578,24.902,22.461,21.973000000000006,0.0,0
1581435345.8520002,16.602,27.832,20.02,20.02,0.0,0
1581435345.856,17.09,32.715,19.531,20.508000000000006,0.0,0
1581435345.859,15.137,25.879,19.531,25.391,0.0,0
1581435345.863,18.555,27.344,16.113,31.25,0.0,0
1581435345.867,21.973000000000006,26.855,20.508000000000006,18.555,0.0,0
1581435345.871,16.602,17.09,28.32,24.414,0.0,0
1581435345.875,12.207,18.555,28.32,28.809,0.0,0
1581435345.877,22.461,31.25,21.973000000000006,9.277,0.0,0
1581435345.881,22.461,33.691,20.02,10.254,0.0,0
1581435345.885,14.648,21.973000000000006,19.531,15.625,0.0,0
1581435345.889,15.625,18.066,20.508000000000006,20.996,0.0,0
1581435345.893,14.16,20.508000000000006,28.32,26.855,0.0,0
1581435345.897,18.555,19.531,26.855,19.043,0.0,0
1581435345.901,16.602,21.484,17.09,13.184,0.0,0
1581435345.904,10.254,20.02,22.949,21.973000000000006,0.0,0
1581435345.908,9.766,18.555,20.996,13.184,0.0,0
1581435345.9120002,9.766,17.09,15.625,0.977,0.0,0
1581435345.916,8.789,22.461,16.602,11.719,0.0,0
1581435345.92,9.277,27.344,20.508000000000006,18.555,0.0,0
1581435345.9220002,15.137,21.484,27.832,20.508000000000006,0.0,0
1581435345.926,17.09,20.02,24.414,12.207,0.0,0
1581435345.93,18.555,22.949,21.484,18.066,0.0,0
1581435345.934,10.254,27.344,22.461,29.785,0.0,0
1581435345.938,10.742,25.391,19.531,20.02,0.0,0
1581435345.9420002,14.648,19.043,20.996,17.578,0.0,0
1581435345.946,10.254,12.695,19.531,20.02,0.0,0
1581435345.949,7.812,16.602,15.137,17.578,0.0,0
1581435345.9529998,12.207,29.785,22.949,20.508000000000006,0.0,0
1581435345.957,20.508000000000006,29.297,24.902,21.973000000000006,0.0,0
1581435345.961,17.09,26.367,25.391,10.254,0.0,0
1581435345.965,18.066,23.438,23.438,12.207,0.0,0
1581435345.967,14.16,21.484,16.602,14.16,0.0,0
1581435345.971,8.301,18.066,18.555,14.648,0.0,0
1581435345.975,9.277,23.926,21.973000000000006,15.625,0.0,0
1581435345.979,2.93,30.762,22.461,10.254,0.0,0
1581435345.9829998,6.836,29.297,29.297,25.391,0.0,0
1581435345.9870002,10.742,29.785,23.438,24.902,0.0,0
1581435345.9910002,10.742,20.996,18.066,17.578,0.0,0
1581435345.994,13.672,20.996,23.926,20.508000000000006,0.0,0
1581435345.998,10.742,24.902,24.902,19.043,0.0,0
1581435346.002,8.301,26.367,19.043,13.672,0.0,0
1581435346.006,10.742,20.996,13.672,11.719,0.0,0
1581435346.01,8.301,8.301,17.578,8.301,0.0,0
1581435346.012,11.719,9.277,21.484,20.996,0.0,0
1581435346.016,12.695,21.484,23.926,26.367,0.0,0
1581435346.02,10.254,21.973000000000006,21.973000000000006,7.324,0.0,0
1581435346.024,4.883,12.207,22.461,5.371,0.0,0
1581435346.028,6.348,14.648,21.484,13.672,0.0,0
1581435346.032,14.16,19.531,19.043,18.555,0.0,0
1581435346.036,15.137,20.996,19.531,18.066,0.0,0
1581435346.039,13.184,25.391,15.137,0.977,0.0,0
1581435346.043,11.719,20.02,19.531,-2.93,0.0,0
1581435346.0470002,14.648,17.09,19.531,17.578,0.0,0
1581435346.051,7.812,20.508000000000006,22.949,12.695,0.0,0
1581435346.055,5.371,20.02,30.273000000000003,9.766,0.0,0
1581435346.0570002,11.719,20.508000000000006,23.926,14.16,0.0,0
1581435346.061,-0.977,16.602,20.508000000000006,8.789,0.0,0
1581435346.065,-2.441,16.602,16.602,9.277,0.0,0
1581435346.069,7.324,24.902,19.531,16.113,0.0,0
1581435346.073,9.277,34.18,19.043,9.766,0.0,0
1581435346.077,3.906,26.367,17.09,5.859,0.0,0
1581435346.081,-1.465,14.16,21.484,17.09,0.0,0
1581435346.084,5.371,19.531,24.414,15.625,0.0,0
1581435346.0879998,12.695,23.926,26.855,12.207,0.0,0
1581435346.092,14.16,22.949,25.879,15.137,0.0,0
1581435346.096,12.207,24.902,17.578,14.16,0.0,0
1581435346.1,12.207,28.32,16.602,19.043,0.0,0
1581435346.1020002,6.348,23.926,25.391,19.531,0.0,0
1581435346.106,2.93,22.461,28.32,15.137,0.0,0
1581435346.11,7.812,23.926,25.879,24.414,0.0,0
1581435346.1139998,7.324,12.207,23.926,23.438,0.0,0
1581435346.1179998,6.836,8.301,21.973000000000006,18.555,0.0,0
1581435346.1220002,13.672,19.043,13.672,14.648,0.0,0
1581435346.1260002,14.16,26.855,18.066,13.184,0.0,0
1581435346.129,5.371,28.32,24.414,15.625,0.0,0
1581435346.133,5.371,25.879,20.02,18.066,0.0,0
1581435346.137,10.254,20.508000000000006,25.391,22.461,0.0,0
1581435346.141,11.719,27.832,37.598,19.531,0.0,0
1581435346.145,14.648,29.785,34.18,24.414,0.0,0
1581435346.147,17.09,22.461,22.461,32.227,0.0,0
1581435346.151,17.09,17.09,21.484,24.902,0.0,0
1581435346.155,16.113,17.09,27.832,16.602,0.0,0
1581435346.159,5.859,22.461,30.762,24.902,0.0,0
1581435346.163,4.395,22.461,26.855,27.832,0.0,0
1581435346.167,17.09,32.227,25.879,23.926,0.0,0
1581435346.171,19.531,28.809,24.414,23.926,0.0,0
1581435346.174,12.695,16.602,23.438,24.902,0.0,0
1581435346.178,7.812,19.043,20.996,29.785,0.0,0
1581435346.1820002,16.602,18.066,26.367,29.297,0.0,0
1581435346.186,25.391,19.531,31.25,19.043,0.0,0
1581435346.19,19.043,23.438,23.438,20.508000000000006,0.0,0
1581435346.207,10.254,17.09,24.902,31.25,0.0,0
1581435346.211,13.672,12.207,25.391,34.18,0.0,0
1581435346.215,20.02,15.137,23.438,28.809,0.0,0
1581435346.219,24.902,25.879,19.531,21.484,0.0,0
1581435346.2229998,26.855,28.32,23.926,27.832,0.0,0
1581435346.2270002,15.137,17.09,30.762,27.344,0.0,0
1581435346.231,14.16,19.531,19.043,20.508000000000006,0.0,0
1581435346.234,18.555,30.762,20.02,24.414,0.0,0
1581435346.238,7.324,25.879,32.715,23.926,0.0,0
1581435346.242,11.23,18.555,33.691,26.855,0.0,0
1581435346.246,18.555,23.926,27.344,17.578,0.0,0
1581435346.25,11.719,20.02,18.066,3.906,0.0,0
1581435346.252,12.695,12.207,17.09,18.066,0.0,0
1581435346.256,14.16,22.949,20.508000000000006,24.902,0.0,0
1581435346.26,12.695,23.438,22.949,12.207,0.0,0
1581435346.264,9.277,23.438,20.996,11.23,0.0,0
1581435346.268,7.812,25.879,17.09,19.043,0.0,0
1581435346.272,13.672,22.461,17.578,22.461,0.0,0
1581435346.276,18.066,25.391,20.02,21.973000000000006,0.0,0
1581435346.279,16.602,26.367,23.926,17.578,0.0,0
1581435346.283,16.602,23.926,25.879,20.02,0.0,0
1581435346.2870002,11.23,29.297,20.996,16.602,0.0,0
1581435346.291,14.16,27.832,16.113,19.043,0.0,0
1581435346.295,18.066,28.809,20.508000000000006,13.184,0.0,0
1581435346.2970002,9.766,27.832,25.391,14.16,0.0,0
1581435346.301,14.16,16.602,26.367,34.668,0.0,0
1581435346.305,19.043,25.391,24.414,42.48,0.0,0
1581435346.309,14.16,37.598,16.113,28.809,0.0,0
1581435346.313,18.066,29.297,22.949,19.531,0.0,0
1581435346.3170002,17.578,23.926,21.484,20.508000000000006,0.0,0
1581435346.321,7.324,21.484,10.742,19.531,0.0,0
1581435346.324,4.883,24.414,14.648,15.625,0.0,0
1581435346.3279998,13.184,38.086,22.949,3.418,0.0,0
1581435346.332,13.184,28.809,28.32,0.488,0.0,0
1581435346.336,14.16,23.926,30.762,15.137,0.0,0
1581435346.34,22.949,41.992,33.691,22.461,0.0,0
1581435346.342,21.973000000000006,39.062,21.973000000000006,7.812,0.0,0
1581435346.346,16.113,25.879,9.277,12.207,0.0,1
1581435346.35,12.695,24.414,13.672,19.531,0.0,0
1581435346.354,16.113,25.879,13.672,14.16,0.0,0
1581435346.3579998,17.578,30.762,16.602,4.395,0.0,0
1581435346.3620002,15.137,32.227,23.926,6.836,0.0,0
1581435346.3660002,17.09,32.227,28.32,22.949,0.0,0
1581435346.369,13.184,18.066,26.855,22.949,0.0,0
1581435346.373,11.23,15.137,17.578,7.324,0.0,0
1581435346.377,16.602,20.996,8.789,13.672,0.0,0
1581435346.381,20.02,24.902,13.184,31.738000000000003,0.0,0
1581435346.385,13.184,29.297,21.973000000000006,20.996,0.0,0
1581435346.387,5.859,29.785,21.973000000000006,11.23,0.0,0
1581435346.391,13.184,31.25,22.949,20.996,0.0,0
1581435346.395,15.625,22.949,30.273000000000003,27.344,0.0,0
1581435346.399,14.648,17.09,29.297,30.273000000000003,0.0,0
1581435346.403,14.16,18.555,28.809,32.715,0.0,0
1581435346.407,6.348,19.531,25.391,15.137,0.0,0
1581435346.411,6.348,24.902,19.043,8.789,0.0,0
1581435346.414,7.812,35.645,18.555,14.16,0.0,0
1581435346.418,9.766,30.273000000000003,17.578,20.02,0.0,0
1581435346.4220002,11.23,17.09,16.602,24.414,0.0,0
1581435346.426,10.742,12.207,22.461,13.672,0.0,0
1581435346.43,5.371,18.555,31.25,14.648,0.0,0
1581435346.4320002,2.441,27.832,28.809,25.391,0.0,0
1581435346.436,6.836,23.926,12.695,10.742,0.0,0
1581435346.44,-0.488,11.23,14.16,0.977,0.0,0
1581435346.444,-4.883,20.508000000000006,22.949,6.348,0.0,0
1581435346.448,-0.488,25.391,23.438,13.672,0.0,0
1581435346.452,5.371,15.137,20.508000000000006,16.113,0.0,0
1581435346.456,11.23,14.16,14.648,4.883,0.0,0
1581435346.459,3.418,22.949,20.996,-1.953,0.0,0
1581435346.4629998,5.859,26.855,24.414,6.348,0.0,0
1581435346.467,14.648,22.949,19.531,14.16,0.0,0
1581435346.471,13.184,18.555,15.137,6.836,0.0,0
1581435346.475,8.789,13.672,15.625,8.301,0.0,0
1581435346.492,7.324,16.602,19.531,14.648,0.0,0
1581435346.496,8.789,17.09,22.461,15.137,0.0,0
1581435346.5,8.301,17.578,23.926,14.648,0.0,0
1581435346.504,11.23,20.02,21.973000000000006,11.719,0.0,0
1581435346.508,12.207,34.18,26.855,14.16,0.0,0
1581435346.512,12.695,28.32,30.273000000000003,15.137,0.0,0
1581435346.516,13.184,14.648,19.531,10.254,0.0,0
1581435346.519,11.23,11.719,15.625,10.254,0.0,0
1581435346.5229998,10.742,12.695,17.578,17.09,0.0,0
1581435346.5270002,9.766,18.555,20.996,19.531,0.0,0
1581435346.531,6.348,18.555,16.113,16.602,0.0,0
1581435346.535,18.066,24.414,19.043,11.23,0.0,0
1581435346.5370002,21.973000000000006,20.996,27.832,15.137,0.0,0
1581435346.541,13.184,17.578,18.555,19.531,0.0,0
1581435346.545,19.531,28.32,19.531,23.926,0.0,0
1581435346.549,18.555,24.902,26.367,25.391,0.0,0
1581435346.553,11.719,15.137,23.926,12.207,0.0,0
1581435346.5570002,13.672,21.484,25.391,20.02,0.0,0
1581435346.561,18.555,31.738000000000003,23.926,33.691,0.0,0
1581435346.564,18.066,30.273000000000003,12.695,18.555,0.0,0
1581435346.5679998,17.578,20.508000000000006,15.137,14.16,0.0,0
1581435346.572,14.16,17.09,25.879,20.02,0.0,0
1581435346.576,20.508000000000006,20.508000000000006,30.273000000000003,23.438,0.0,0
1581435346.58,23.438,25.391,21.973000000000006,17.09,0.0,0
1581435346.583,20.02,18.555,13.184,16.113,0.0,0
1581435346.587,21.973000000000006,14.16,21.484,28.809,0.0,0
1581435346.591,17.578,18.555,31.738000000000003,27.832,0.0,0
1581435346.595,18.066,20.508000000000006,33.203,30.273000000000003,0.0,0
1581435346.599,21.484,24.902,19.531,20.02,0.0,0
1581435346.603,17.09,26.855,11.23,14.648,0.0,0
1581435346.607,21.973000000000006,24.902,21.973000000000006,27.344,0.0,0
1581435346.61,27.832,24.902,24.414,32.715,0.0,0
1581435346.6139998,18.555,24.414,18.555,29.785,0.0,0
1581435346.6179998,19.043,20.508000000000006,18.555,15.625,0.0,0
1581435346.6220002,17.09,20.508000000000006,14.648,5.859,0.0,0
1581435346.6260002,14.16,27.344,18.555,16.602,0.0,0
1581435346.6279998,14.16,25.391,24.414,18.555,0.0,0
1581435346.6320002,16.602,19.531,14.648,14.16,0.0,0
1581435346.6360002,14.16,18.555,10.742,19.531,0.0,0
1581435346.64,9.766,18.066,17.578,20.996,0.0,0
1581435346.644,18.066,21.973000000000006,22.461,18.066,0.0,0
1581435346.6479998,17.578,20.508000000000006,25.879,6.836,0.0,0
1581435346.6520002,15.625,21.484,19.043,14.16,0.0,0
1581435346.655,15.625,17.578,18.555,26.367,0.0,0
1581435346.659,15.137,15.137,23.926,17.578,0.0,0
1581435346.663,13.184,21.484,23.926,8.789,0.0,0
1581435346.667,8.789,20.508000000000006,22.949,8.301,0.0,0
1581435346.671,6.836,25.391,17.09,18.066,0.0,0
1581435346.673,12.207,22.949,24.414,28.32,0.0,0
1581435346.677,20.02,23.438,30.762,25.879,0.0,0
1581435346.681,23.438,26.367,18.555,19.043,0.0,0
1581435346.685,10.742,15.625,12.695,17.09,0.0,0
1581435346.689,6.348,18.555,20.996,21.484,0.0,0
1581435346.6929998,10.254,29.297,21.484,22.949,0.0,0
1581435346.697,8.301,26.367,14.648,19.531,0.0,0
1581435346.7,8.301,22.461,21.973000000000006,24.902,0.0,0
1581435346.704,10.742,20.508000000000006,30.273000000000003,33.691,0.0,0
1581435346.708,15.137,19.043,24.414,26.855,0.0,0
1581435346.712,11.23,18.555,17.578,16.113,0.0,0
1581435346.716,11.23,20.508000000000006,23.926,27.344,0.0,0
1581435346.718,18.555,21.973000000000006,19.531,43.457,0.0,0
1581435346.722,6.836,13.672,18.555,30.762,0.0,0
1581435346.726,2.441,8.789,29.297,23.438,0.0,0
1581435346.73,9.766,17.09,29.297,23.438,0.0,0
1581435346.734,10.254,23.438,24.902,23.926,0.0,0
1581435346.738,6.836,20.02,20.508000000000006,18.555,0.0,0
1581435346.742,1.465,21.973000000000006,18.066,11.719,0.0,0
1581435346.745,4.883,17.09,20.996,18.066,0.0,0
1581435346.7489998,8.789,18.066,21.484,18.555,0.0,0
1581435346.7529998,11.719,24.414,11.23,25.391,0.0,0
1581435346.7570002,8.789,26.367,11.23,23.926,0.0,0
1581435346.7610002,4.395,20.508000000000006,20.996,4.395,0.0,0
1581435346.7629998,3.418,12.207,23.438,6.836,0.0,0
1581435346.7670002,1.465,19.043,20.508000000000006,23.926,0.0,0
1581435346.771,-0.488,22.949,20.02,18.555,0.0,0
1581435346.775,2.441,19.531,22.461,8.789,0.0,0
1581435346.779,9.766,17.09,23.926,18.555,0.0,0
1581435346.783,13.672,15.137,24.902,27.832,0.0,0
1581435346.7870002,14.648,23.438,22.461,28.32,0.0,0
1581435346.79,14.16,29.297,23.438,19.043,0.0,0
1581435346.794,19.531,23.438,28.809,13.184,0.0,0
1581435346.798,19.531,22.949,25.879,23.438,0.0,0
1581435346.802,14.16,26.855,15.625,25.879,0.0,0
1581435346.806,16.602,37.109,10.254,20.02,0.0,0
1581435346.8070002,17.09,40.527,18.555,21.973000000000006,0.0,0
1581435346.811,10.254,30.273000000000003,19.531,20.996,0.0,0
1581435346.815,-0.977,20.508000000000006,20.508000000000006,14.16,0.0,0
1581435346.819,0.488,17.578,23.926,7.812,0.0,0
1581435346.823,13.184,15.625,20.996,3.418,0.0,0
1581435346.827,10.742,16.602,21.973000000000006,14.648,0.0,0
1581435346.831,9.766,23.438,21.484,23.926,0.0,0
1581435346.834,12.207,22.461,24.902,6.836,0.0,0
1581435346.8379998,6.836,17.09,28.809,3.418,0.0,0
1581435346.842,1.953,19.531,21.484,13.184,0.0,0
1581435346.846,0.488,31.738000000000003,16.113,16.113,0.0,0
1581435346.85,6.348,29.785,19.531,19.531,0.0,0
1581435346.853,11.23,24.902,23.438,9.277,0.0,0
1581435346.857,20.508000000000006,22.949,24.414,15.625,0.0,0
1581435346.861,23.438,27.832,20.996,30.273000000000003,0.0,0
1581435346.865,18.555,24.902,18.066,26.367,0.0,0
1581435346.869,15.625,15.137,19.043,20.02,0.0,0
1581435346.873,14.16,14.16,20.02,18.555,0.0,0
1581435346.877,18.555,14.16,24.414,22.949,0.0,0
1581435346.88,20.02,20.996,26.367,26.367,0.0,0
1581435346.8839998,13.672,30.273000000000003,15.625,18.066,0.0,0
1581435346.8879998,14.648,34.668,11.23,11.23,0.0,0
1581435346.8920002,16.602,24.902,29.297,16.602,0.0,0
1581435346.896,15.137,23.926,32.227,21.973000000000006,0.0,0
1581435346.897,14.16,25.879,21.484,27.832,0.0,0
1581435346.901,18.066,16.602,20.996,26.855,0.0,0
1581435346.905,18.066,25.391,23.438,18.555,0.0,0
1581435346.909,16.113,24.414,22.949,12.695,0.0,0
1581435346.913,19.043,17.578,23.438,17.09,0.0,0
1581435346.917,17.09,27.832,21.484,16.113,0.0,0
1581435346.921,22.949,33.691,20.508000000000006,5.859,0.0,0
1581435346.924,18.066,26.855,26.855,16.113,0.0,0
1581435346.928,11.23,25.391,23.926,17.09,0.0,0
1581435346.9320002,10.254,28.809,15.137,9.766,0.0,0
1581435346.936,5.859,20.508000000000006,14.648,8.301,0.0,0
1581435346.94,3.906,16.113,12.695,12.695,0.0,0
1581435346.957,13.672,20.508000000000006,18.066,26.855,0.0,0
1581435346.961,18.066,25.879,24.902,21.484,0.0,0
1581435346.965,13.672,27.832,28.32,17.578,0.0,0
1581435346.969,17.09,14.648,24.902,21.973000000000006,0.0,0
1581435346.9729998,14.16,6.348,29.297,26.367,0.0,0
1581435346.9770002,16.113,25.879,26.855,24.902,0.0,0
1581435346.981,18.066,29.297,18.555,16.113,0.0,0
1581435346.984,11.719,19.043,17.578,9.277,0.0,0
1581435346.988,10.742,20.508000000000006,12.695,15.137,0.0,0
1581435346.992,13.184,17.578,20.02,16.113,0.0,0
1581435346.996,12.207,19.043,28.32,10.742,0.0,0
1581435347.0,9.277,27.344,25.879,14.16,0.0,0
1581435347.0029998,12.207,21.973000000000006,23.438,10.254,0.0,0
1581435347.0070002,8.301,24.902,24.902,17.09,0.0,0
1581435347.0110002,3.418,25.391,24.414,18.555,0.0,0
1581435347.015,7.324,25.391,17.09,12.695,0.0,0
1581435347.019,9.766,26.855,14.16,15.137,0.0,0
1581435347.0229998,7.812,26.855,22.461,18.555,0.0,0
1581435347.0270002,5.371,27.832,28.809,18.555,0.0,0
1581435347.03,14.16,30.762,28.809,12.695,0.0,0
1581435347.034,18.066,24.414,26.367,5.371,0.0,0
1581435347.038,15.625,24.414,21.973000000000006,8.301,0.0,0
1581435347.042,8.789,30.762,22.949,16.113,0.0,0
1581435347.046,9.766,29.297,19.043,9.766,0.0,0
1581435347.048,7.812,27.344,20.02,4.883,0.0,0
1581435347.052,1.953,30.762,29.785,19.531,0.0,0
1581435347.056,3.906,28.809,31.25,28.809,0.0,0
1581435347.06,11.719,26.367,21.973000000000006,15.625,0.0,0
1581435347.064,18.555,22.461,10.742,10.254,0.0,0
1581435347.0679998,13.672,17.578,12.207,19.531,0.0,0
1581435347.072,14.16,21.973000000000006,16.602,20.508000000000006,0.0,0
1581435347.075,19.043,27.832,23.926,19.043,0.0,0
1581435347.079,16.113,31.738000000000003,28.809,11.719,0.0,0
1581435347.083,10.742,29.297,25.391,6.348,0.0,0
1581435347.087,0.977,23.926,23.926,18.066,0.0,0
1581435347.091,2.93,30.762,18.555,11.719,0.0,0
1581435347.092,6.836,22.949,17.578,11.23,0.0,0
1581435347.096,10.742,22.461,13.672,19.043,0.0,0
1581435347.1,4.395,36.621,13.184,13.184,0.0,0
1581435347.104,2.93,34.668,17.09,17.578,0.0,0
1581435347.1079998,18.066,31.25,21.973000000000006,17.09,0.0,0
1581435347.1120002,19.531,19.531,20.996,11.23,0.0,0
1581435347.1160002,10.742,8.789,11.719,18.555,0.0,0
1581435347.119,11.23,17.09,15.625,26.367,0.0,0
1581435347.123,15.625,20.02,21.484,9.766,0.0,0
1581435347.127,16.602,15.137,21.484,6.348,0.0,0
1581435347.131,17.09,20.996,21.484,24.414,0.0,0
1581435347.135,10.742,30.762,19.531,16.602,0.0,0
1581435347.1379998,9.277,37.598,21.973000000000006,8.789,0.0,0
1581435347.1420002,12.207,26.367,17.09,18.066,0.0,0
1581435347.146,7.812,23.926,10.254,10.254,0.0,0
1581435347.15,6.836,24.902,21.484,17.09,0.0,0
1581435347.154,9.277,16.113,26.855,25.391,0.0,0
1581435347.158,10.742,21.484,22.461,16.113,0.0,0
1581435347.1620002,11.719,34.668,25.391,17.578,0.0,0
1581435347.165,12.207,32.227,32.715,20.996,0.0,0
1581435347.169,4.395,20.996,24.902,14.16,0.0,0
1581435347.173,-0.488,10.254,11.719,19.043,0.0,0
1581435347.177,-0.488,5.371,13.184,20.508000000000006,0.0,0
1581435347.181,0.0,20.996,19.043,29.297,0.0,0
1581435347.1820002,5.859,29.785,26.855,32.227,0.0,0
1581435347.186,12.695,30.273000000000003,23.438,15.625,0.0,0
1581435347.19,18.066,30.273000000000003,13.672,17.09,0.0,0
1581435347.194,18.066,23.926,23.438,32.715,0.0,0
1581435347.198,9.766,22.949,33.691,28.809,0.0,0
1581435347.202,12.207,19.531,33.691,26.367,0.0,0
1581435347.206,19.531,20.02,23.438,20.508000000000006,0.0,0
1581435347.209,16.113,20.02,11.719,9.277,0.0,0
1581435347.2129998,18.066,25.391,13.184,14.16,0.0,0
1581435347.217,20.02,20.508000000000006,18.555,24.902,0.0,0
1581435347.221,25.879,17.09,17.09,20.996,0.0,0
1581435347.225,20.508000000000006,19.531,21.973000000000006,12.207,0.0,0
1581435347.2270002,11.23,18.066,24.902,24.902,0.0,0
1581435347.231,12.695,26.855,25.391,29.785,0.0,0
1581435347.235,7.324,29.785,24.414,20.996,0.0,0
1581435347.2389998,13.184,21.973000000000006,20.508000000000006,19.531,0.0,0
1581435347.2429998,15.137,19.531,21.973000000000006,18.555,0.0,0
1581435347.2470002,9.766,24.414,22.949,22.949,0.0,0
1581435347.2510002,14.16,19.043,16.602,16.602,0.0,0
1581435347.254,18.555,7.324,19.531,10.742,0.0,0
1581435347.258,21.973000000000006,13.184,29.785,24.414,0.0,0
1581435347.262,16.113,21.484,27.832,23.926,0.0,0
1581435347.266,9.277,21.973000000000006,27.344,20.02,0.0,0
1581435347.27,17.09,16.113,26.367,22.461,0.0,0
1581435347.272,23.926,23.926,21.484,20.508000000000006,0.0,0
1581435347.276,21.484,29.297,20.996,17.09,0.0,0
1581435347.28,18.066,27.344,17.09,24.902,0.0,0
1581435347.284,22.461,18.555,18.066,23.438,0.0,0
1581435347.288,21.973000000000006,19.531,31.25,11.23,0.0,0
1581435347.292,11.719,30.273000000000003,35.156,12.695,0.0,0
1581435347.296,8.301,20.996,24.414,6.348,0.0,0
1581435347.299,8.301,15.625,16.602,8.301,0.0,0
1581435347.303,10.254,16.113,12.207,12.207,0.0,0
1581435347.3070002,5.859,18.066,16.113,14.648,0.0,0
1581435347.311,4.395,24.414,19.043,19.043,0.0,0
1581435347.315,11.719,28.809,18.555,16.113,0.0,0
1581435347.332,17.578,30.273000000000003,27.344,9.277,0.0,0
1581435347.336,15.137,29.297,26.367,13.184,0.0,0
1581435347.34,11.719,29.297,21.484,19.531,0.0,0
1581435347.344,11.23,27.832,19.043,17.09,0.0,0
1581435347.3479998,7.324,17.578,12.695,11.719,0.0,0
1581435347.3520002,10.254,20.508000000000006,11.23,8.789,0.0,0
1581435347.356,20.996,10.742,9.277,20.508000000000006,0.0,0
1581435347.359,20.996,-1.465,12.207,30.762,0.0,0
1581435347.363,12.207,21.973000000000006,19.043,20.508000000000006,0.0,0
1581435347.367,14.648,41.01600000000001,24.902,4.883,0.0,0
1581435347.371,17.09,39.551,25.879,18.555,0.0,0
1581435347.375,17.578,31.738000000000003,20.996,26.855,0.0,0
1581435347.377,22.949,22.949,6.836,17.09,0.0,0
1581435347.381,20.508000000000006,21.973000000000006,9.277,18.555,0.0,0
1581435347.385,17.578,26.855,20.996,19.531,0.0,1
1581435347.389,19.531,22.461,15.625,22.461,0.0,0
1581435347.393,19.043,15.137,16.113,17.578,0.0,0
1581435347.397,25.879,17.578,23.926,13.184,0.0,0
1581435347.401,27.832,24.902,26.855,14.648,0.0,0
1581435347.404,15.625,31.25,22.461,19.531,0.0,0
1581435347.408,6.836,21.484,15.625,20.02,0.0,0
1581435347.4120002,9.277,16.113,11.719,6.348,0.0,0
1581435347.416,11.23,23.926,20.02,6.348,0.0,0
1581435347.42,12.695,23.438,20.996,30.762,0.0,0
1581435347.4220002,7.812,18.066,17.09,28.809,0.0,0
1581435347.426,14.16,18.555,24.902,25.879,0.0,0
1581435347.43,22.949,27.344,25.391,28.809,0.0,0
1581435347.434,20.996,28.809,23.438,33.203,0.0,0
1581435347.438,14.16,18.555,23.438,39.062,0.0,0
1581435347.4420002,14.16,9.766,23.926,26.855,0.0,0
1581435347.446,18.066,14.16,16.602,20.02,0.0,0
1581435347.449,11.23,20.508000000000006,19.043,17.09,0.0,0
1581435347.4529998,14.648,26.855,19.043,12.695,0.0,0
1581435347.457,16.602,31.25,8.789,14.16,0.0,0
1581435347.461,13.184,37.598,17.578,20.996,0.0,0
1581435347.465,17.09,37.109,23.438,28.809,0.0,0
1581435347.467,17.09,30.273000000000003,26.367,24.414,0.0,0
1581435347.471,18.555,27.832,29.297,23.438,0.0,0
1581435347.475,14.648,22.461,22.461,24.902,0.0,0
1581435347.479,14.648,17.578,14.648,20.508000000000006,0.0,0
1581435347.4829998,14.16,17.09,20.02,31.738000000000003,0.0,0
1581435347.4870002,18.555,24.414,22.461,37.598,0.0,0
1581435347.4910002,17.09,33.691,17.09,24.902,0.0,0
1581435347.494,17.09,40.527,15.137,17.578,0.0,0
1581435347.498,23.926,36.133,18.066,18.555,0.0,0
1581435347.502,15.137,27.832,16.602,22.949,0.0,0
1581435347.506,14.648,28.32,13.672,26.855,0.0,0
1581435347.51,16.602,27.832,16.113,11.719,0.0,0
1581435347.512,15.137,25.391,14.16,10.742,0.0,0
1581435347.516,16.113,24.414,12.207,22.949,0.0,0
1581435347.52,17.09,19.531,20.996,22.949,0.0,0
1581435347.524,24.902,12.207,22.949,20.996,0.0,0
1581435347.528,20.996,12.207,23.438,29.785,0.0,0
1581435347.532,16.113,23.438,35.156,36.621,0.0,0
1581435347.536,19.531,33.691,24.902,30.762,0.0,0
1581435347.539,24.414,37.598,16.602,15.137,0.0,0
1581435347.543,22.949,29.297,26.855,12.695,0.0,0
1581435347.5470002,16.113,20.02,21.484,29.785,0.0,0
1581435347.551,13.672,23.438,9.766,24.414,0.0,0
1581435347.555,12.695,24.414,9.277,10.742,0.0,0
1581435347.5570002,13.672,23.926,20.02,19.043,0.0,0
1581435347.561,11.719,19.531,19.531,24.902,0.0,0
1581435347.565,15.137,18.555,19.043,22.461,0.0,0
1581435347.569,24.414,26.855,29.785,28.32,0.0,0
1581435347.573,30.273000000000003,33.691,27.344,26.855,0.0,0
1581435347.577,31.738000000000003,37.598,18.066,18.555,0.0,0
1581435347.581,20.508000000000006,34.18,11.719,23.926,0.0,0
1581435347.584,6.836,18.066,11.719,21.484,0.0,0
1581435347.5879998,9.277,19.531,15.137,15.625,0.0,0
1581435347.592,17.578,20.508000000000006,18.555,21.484,0.0,0
1581435347.596,20.996,20.508000000000006,24.414,33.691,0.0,0
1581435347.6,20.996,30.273000000000003,19.531,27.344,0.0,0
1581435347.6020002,19.043,27.344,13.184,22.461,0.0,0
1581435347.606,15.137,30.273000000000003,16.113,23.438,0.0,0
1581435347.61,17.578,37.598,17.578,29.785,0.0,0
1581435347.6139998,21.484,32.227,25.391,36.621,0.0,0
1581435347.6179998,10.254,24.414,31.25,24.414,0.0,0
1581435347.6220002,8.301,17.09,19.531,16.602,0.0,0
1581435347.6260002,13.672,17.578,20.508000000000006,17.578,0.0,0
1581435347.629,10.742,23.926,23.926,18.555,0.0,0
1581435347.633,16.113,30.273000000000003,15.137,21.973000000000006,0.0,0
1581435347.637,22.949,31.25,12.695,16.113,0.0,0
1581435347.641,18.066,28.809,9.277,13.184,0.0,0
1581435347.645,17.578,25.391,15.137,16.602,0.0,0
1581435347.6479998,20.996,22.949,21.973000000000006,20.508000000000006,0.0,0
1581435347.6520002,23.438,18.555,18.066,13.672,0.0,0
1581435347.656,24.902,16.113,20.996,16.113,0.0,0
1581435347.66,19.043,34.18,23.438,24.902,0.0,0
1581435347.664,8.789,43.945,17.578,20.996,0.0,0
1581435347.668,13.672,38.086,20.996,23.438,0.0,0
1581435347.6720002,11.719,28.32,20.02,16.113,0.0,0
1581435347.675,8.789,21.484,16.602,22.461,0.0,0
1581435347.679,11.23,18.066,12.695,26.367,0.0,0
1581435347.6829998,12.207,21.973000000000006,9.766,14.648,0.0,0
1581435347.687,18.555,28.32,20.508000000000006,9.277,0.0,0
1581435347.691,17.09,27.832,30.762,25.879,0.0,0
1581435347.707,18.555,21.484,28.809,34.668,0.0,0
1581435347.711,23.438,31.25,20.02,22.461,0.0,0
1581435347.715,17.578,36.133,22.949,19.531,0.0,0
1581435347.719,18.555,27.832,23.438,26.855,0.0,0
1581435347.7229998,15.137,22.949,17.578,31.25,0.0,0
1581435347.7270002,8.301,25.879,21.484,25.879,0.0,0
1581435347.731,14.16,24.414,29.785,21.484,0.0,0
1581435347.734,19.531,28.32,30.762,19.531,0.0,0
1581435347.738,15.137,32.227,21.484,24.902,0.0,0
1581435347.742,8.301,17.09,15.625,18.066,0.0,0
1581435347.746,10.254,10.254,22.949,14.648,0.0,0
1581435347.75,13.184,14.648,26.855,20.02,0.0,0
1581435347.7529998,11.23,12.207,20.508000000000006,19.531,0.0,0
1581435347.7570002,14.648,27.832,21.973000000000006,28.809,0.0,0
1581435347.7610002,18.555,41.504,28.809,26.855,0.0,0
1581435347.765,6.348,32.227,31.738000000000003,12.695,0.0,0
1581435347.769,-3.906,16.602,39.551,13.672,0.0,0
1581435347.7729998,9.277,12.207,32.715,15.625,0.0,0
1581435347.7770002,11.719,12.207,18.066,9.277,0.0,0
1581435347.78,5.371,9.766,16.602,11.719,0.0,0
1581435347.784,6.348,23.438,19.531,17.09,0.0,0
1581435347.788,6.836,34.668,20.508000000000006,16.602,0.0,0
1581435347.792,-0.977,25.391,17.578,14.16,0.0,0
1581435347.796,-7.324,17.578,18.555,3.906,0.0,0
1581435347.7970002,0.488,21.973000000000006,20.508000000000006,0.488,0.0,0
1581435347.801,-3.418,20.996,25.879,8.789,0.0,0
1581435347.805,-4.883,17.578,25.391,20.508000000000006,0.0,0
1581435347.809,8.789,10.742,20.996,20.508000000000006,0.0,0
1581435347.813,10.742,17.09,29.297,12.695,0.0,0
1581435347.8170002,19.043,34.18,30.762,22.949,0.0,0
1581435347.821,25.391,39.062,19.043,26.367,0.0,0
1581435347.824,21.484,26.367,17.578,23.438,0.0,0
1581435347.8279998,22.949,10.742,19.043,10.742,0.0,0
1581435347.832,20.02,16.113,17.09,14.648,0.0,0
1581435347.836,11.23,23.438,22.461,28.809,0.0,0
1581435347.84,11.719,24.902,30.762,21.484,0.0,0
1581435347.843,15.625,17.578,28.809,16.113,0.0,0
1581435347.847,13.184,11.719,27.832,18.066,0.0,0
1581435347.851,19.043,22.461,29.297,26.855,0.0,0
1581435347.855,15.137,30.762,21.973000000000006,26.367,0.0,0
1581435347.859,9.766,24.414,27.832,20.508000000000006,0.0,0
1581435347.863,12.695,13.184,23.926,19.531,0.0,0
1581435347.867,15.137,19.531,15.625,21.973000000000006,0.0,0
1581435347.87,14.16,25.879,23.926,23.926,0.0,0
1581435347.8739998,14.16,22.461,20.508000000000006,7.324,0.0,0
1581435347.8779998,16.113,28.809,16.602,0.977,0.0,0
1581435347.8820002,10.742,30.762,23.926,18.066,0.0,0
1581435347.8860002,14.16,22.461,25.879,24.414,0.0,0
1581435347.887,20.508000000000006,22.461,21.973000000000006,25.391,0.0,0
1581435347.891,19.531,25.879,13.184,20.02,0.0,0
1581435347.895,21.973000000000006,22.949,13.672,18.555,0.0,0
1581435347.899,21.484,20.02,20.508000000000006,31.25,0.0,0
1581435347.903,14.16,27.832,28.32,32.227,0.0,0
1581435347.907,11.719,28.809,30.273000000000003,20.508000000000006,0.0,0
1581435347.911,14.648,17.09,27.832,26.367,0.0,0
1581435347.914,15.625,12.207,29.297,27.344,0.0,0
1581435347.918,13.672,25.391,19.531,22.461,0.0,0
1581435347.9220002,14.648,24.902,15.137,22.461,0.0,0
1581435347.926,20.996,22.461,20.508000000000006,23.926,0.0,0
1581435347.93,20.996,33.203,22.461,27.344,0.0,0
1581435347.9329998,12.207,30.273000000000003,24.414,34.18,0.0,0
1581435347.937,13.184,26.367,23.926,34.668,0.0,0
1581435347.941,11.23,29.297,19.043,18.555,0.0,0
1581435347.945,5.859,20.02,18.066,17.578,0.0,0
1581435347.949,4.883,12.207,18.555,24.414,0.0,0
1581435347.9529998,2.93,7.812,24.414,16.602,0.0,0
1581435347.957,11.23,10.742,25.879,8.301,0.0,0
1581435347.96,10.254,22.461,15.625,9.277,0.0,0
1581435347.964,6.348,29.297,21.484,23.926,0.0,0
1581435347.968,12.207,24.902,24.902,26.855,0.0,0
1581435347.972,10.254,19.531,17.09,9.277,0.0,0
1581435347.976,14.16,23.926,13.184,6.348,0.0,0
1581435347.978,14.16,23.926,16.602,17.578,0.0,0
1581435347.982,7.324,22.949,20.996,14.16,0.0,0
1581435347.986,14.648,21.973000000000006,21.484,7.324,0.0,0
1581435347.99,9.766,19.043,21.973000000000006,13.672,0.0,0
1581435347.994,5.371,17.578,22.461,17.578,0.0,0
1581435347.998,7.324,18.555,22.461,19.531,0.0,0
1581435348.002,8.301,14.16,26.855,18.555,0.0,0
1581435348.005,14.16,19.531,24.414,18.066,0.0,0
1581435348.0089998,11.719,28.32,13.672,19.043,0.0,0
1581435348.0129998,11.719,25.391,20.02,25.391,0.0,0
1581435348.0170002,17.09,24.902,26.855,24.414,0.0,0
1581435348.021,18.066,30.762,25.391,16.602,0.0,0
1581435348.0229998,14.648,22.461,29.297,21.973000000000006,0.0,0
1581435348.0270002,10.254,13.184,23.438,24.902,0.0,0
1581435348.031,8.301,9.277,17.578,22.461,0.0,0
1581435348.035,15.137,24.414,27.832,21.484,0.0,0
1581435348.039,25.879,31.738000000000003,24.414,17.09,0.0,0
1581435348.043,22.949,23.926,17.578,27.344,0.0,0
1581435348.0470002,14.648,32.715,14.16,22.949,0.0,0
1581435348.05,17.09,39.062,12.207,2.441,0.0,0
1581435348.054,29.297,34.18,17.578,9.766,0.0,0
1581435348.0579998,27.344,22.949,19.043,21.973000000000006,0.0,0
1581435348.062,13.184,13.184,23.926,19.531,0.0,0
1581435348.066,18.555,23.438,20.02,20.508000000000006,0.0,0
1581435348.082,12.695,22.461,20.508000000000006,21.973000000000006,0.0,0
1581435348.086,3.906,19.531,21.973000000000006,13.184,0.0,0
1581435348.09,17.09,34.668,13.184,17.578,0.0,0
1581435348.094,22.461,32.715,14.648,22.461,0.0,0
1581435348.0979998,21.484,27.344,20.508000000000006,19.043,0.0,0
1581435348.1020002,20.996,22.461,22.949,26.367,0.0,0
1581435348.106,14.16,24.902,18.066,28.809,0.0,0
1581435348.109,15.625,29.785,12.695,22.461,0.0,0
1581435348.113,9.277,31.25,20.508000000000006,10.254,0.0,0
1581435348.117,2.93,29.297,23.926,11.23,0.0,0
1581435348.121,8.789,22.461,15.625,29.785,0.0,0
1581435348.125,11.23,19.531,17.578,30.273000000000003,0.0,0
1581435348.1279998,19.043,16.113,21.484,16.602,0.0,0
1581435348.1320002,14.16,17.578,21.484,18.066,0.0,0
1581435348.1360002,14.648,21.484,30.273000000000003,28.32,0.0,0
1581435348.14,23.438,21.484,25.391,33.691,0.0,0
1581435348.144,18.555,24.414,13.672,25.879,0.0,0
1581435348.1479998,13.184,23.438,14.648,22.949,0.0,0
1581435348.1520002,14.16,18.066,16.113,23.926,0.0,0
1581435348.155,13.672,15.137,20.02,27.832,0.0,0
1581435348.159,14.16,14.648,22.949,26.855,0.0,0
1581435348.163,14.648,17.578,20.02,3.418,0.0,0
1581435348.167,6.348,21.484,25.391,3.418,0.0,0
1581435348.171,8.789,18.066,24.414,20.996,0.0,0
1581435348.1720002,9.766,16.602,24.414,25.879,0.0,0
1581435348.176,8.789,23.438,23.438,20.996,0.0,0
1581435348.18,5.371,28.32,21.973000000000006,8.789,0.0,0
1581435348.184,0.977,21.973000000000006,22.949,14.648,0.0,0
1581435348.188,4.395,16.602,19.531,16.113,0.0,0
1581435348.1920002,8.789,23.438,12.695,5.371,0.0,0
1581435348.196,8.301,20.996,12.207,2.441,0.0,0
1581435348.199,10.254,23.438,23.926,11.719,0.0,0
1581435348.2029998,17.578,21.973000000000006,26.367,17.578,0.0,0
1581435348.207,16.602,15.137,14.16,9.277,0.0,0
1581435348.211,14.16,28.809,11.23,0.488,0.0,0
1581435348.215,19.531,37.109,16.113,3.906,0.0,0
1581435348.218,17.09,21.973000000000006,12.695,12.207,0.0,0
1581435348.222,13.672,17.578,11.23,15.625,0.0,0
1581435348.226,11.23,31.25,14.16,11.23,0.0,0
1581435348.23,15.137,31.738000000000003,11.23,14.16,0.0,0
1581435348.234,19.531,21.973000000000006,15.137,25.391,0.0,0
1581435348.238,15.625,22.949,16.602,23.438,0.0,0
1581435348.242,10.254,27.344,9.766,8.301,0.0,0
1581435348.245,11.719,25.391,10.742,11.23,0.0,0
1581435348.2489998,13.672,20.996,17.09,25.879,0.0,0
1581435348.2529998,12.207,22.949,20.508000000000006,29.297,0.0,0
1581435348.2570002,13.184,33.691,16.602,20.996,0.0,0
1581435348.2610002,8.789,42.48,21.484,8.301,0.0,0
1581435348.262,9.766,43.457,23.438,18.555,0.0,0
1581435348.266,20.508000000000006,35.645,15.625,28.809,0.0,0
1581435348.27,21.484,29.785,15.625,23.438,0.0,0
1581435348.274,20.508000000000006,25.391,19.043,14.648,0.0,0
1581435348.278,11.23,21.484,16.113,11.719,0.0,0
1581435348.282,4.395,27.344,14.648,12.207,0.0,0
1581435348.286,10.254,19.043,12.695,14.648,0.0,0
1581435348.289,13.672,15.137,13.672,8.789,0.0,0
1581435348.293,14.648,26.367,19.043,2.441,0.0,0
1581435348.2970002,9.766,26.855,23.926,14.648,0.0,0
1581435348.301,5.859,26.855,25.391,27.832,0.0,0
1581435348.305,12.207,29.297,20.996,22.949,0.0,0
1581435348.3070002,16.113,34.18,20.508000000000006,10.254,0.0,0
1581435348.311,18.066,21.973000000000006,20.508000000000006,20.996,0.0,0
1581435348.315,22.461,20.508000000000006,21.973000000000006,29.297,0.0,0
1581435348.319,20.02,29.785,23.926,17.578,0.0,0
1581435348.323,13.184,25.391,24.414,6.348,0.0,0
1581435348.327,5.859,20.508000000000006,28.809,12.695,0.0,0
1581435348.331,5.371,17.09,22.949,21.484,0.0,0
1581435348.334,2.93,17.578,17.09,17.09,0.0,0
1581435348.3379998,4.395,23.438,24.414,13.184,0.0,0
1581435348.342,13.672,35.645,21.973000000000006,23.438,0.0,0
1581435348.346,7.812,33.691,20.02,20.996,0.0,0
1581435348.35,11.719,17.09,20.996,12.695,0.0,0
1581435348.3520002,28.32,17.578,24.902,21.973000000000006,0.0,0
1581435348.356,21.484,29.297,24.902,23.926,0.0,0
1581435348.36,8.789,27.344,17.09,19.043,0.0,0
1581435348.3639998,13.672,29.297,20.996,18.555,0.0,0
1581435348.3679998,22.949,32.227,22.461,16.602,0.0,0
1581435348.3720002,20.508000000000006,33.203,12.207,16.113,0.0,0
1581435348.3760002,13.184,31.25,16.602,24.414,0.0,0
1581435348.379,16.602,30.273000000000003,31.738000000000003,26.367,0.0,0
1581435348.383,12.207,24.414,32.227,20.508000000000006,0.0,0
1581435348.387,7.812,14.16,29.297,13.184,0.0,0
1581435348.391,14.16,18.066,25.879,15.137,0.0,0
1581435348.395,13.672,31.25,23.926,18.555,0.0,0
1581435348.397,13.184,29.297,22.461,20.508000000000006,0.0,0
1581435348.401,14.648,25.879,22.949,20.02,0.0,0
1581435348.405,10.254,30.273000000000003,25.391,15.137,0.0,0
1581435348.409,9.277,26.855,23.438,20.508000000000006,0.0,0
1581435348.413,7.324,19.531,26.855,18.555,0.0,0
1581435348.417,10.254,16.113,28.809,16.113,0.0,0
1581435348.421,9.766,19.531,24.902,6.348,0.0,0
1581435348.424,8.301,23.438,19.043,5.371,0.0,0
1581435348.428,3.906,25.879,17.578,14.648,0.0,0
1581435348.4320002,3.418,25.391,21.484,20.02,0.0,0
1581435348.436,18.555,23.926,20.996,17.578,0.0,0
1581435348.44,15.625,28.809,16.602,9.766,0.0,0
1581435348.457,11.719,27.832,12.695,18.555,0.0,0
1581435348.461,13.184,22.461,20.996,21.973000000000006,0.0,0
1581435348.465,13.672,27.344,29.785,17.578,0.0,0
1581435348.469,11.719,29.297,28.809,21.973000000000006,0.0,0
1581435348.4729998,7.324,20.996,17.578,18.066,0.0,0
1581435348.4770002,14.648,23.438,17.09,18.066,0.0,0
1581435348.481,21.973000000000006,26.855,21.484,18.555,0.0,0
1581435348.484,13.672,21.973000000000006,17.09,11.23,0.0,0
1581435348.488,9.277,15.625,17.09,22.461,0.0,0
1581435348.492,10.742,20.508000000000006,21.973000000000006,11.23,0.0,0
1581435348.496,14.16,25.879,25.879,-1.465,0.0,0
1581435348.5,14.648,23.438,18.066,16.113,0.0,0
1581435348.502,4.395,25.879,7.812,19.043,0.0,0
1581435348.506,3.906,20.996,16.113,19.043,0.0,2
1581435348.51,11.23,21.973000000000006,23.438,11.23,0.0,0
1581435348.514,1.953,19.043,23.438,5.371,0.0,0
1581435348.518,0.488,16.602,18.066,12.695,0.0,0
1581435348.522,11.23,31.738000000000003,17.09,14.16,0.0,0
1581435348.526,15.137,25.879,20.996,10.254,0.0,0
1581435348.529,14.16,10.254,18.555,15.625,0.0,0
1581435348.533,4.395,18.066,14.648,11.23,0.0,0
1581435348.5370002,3.418,29.297,16.602,13.184,0.0,0
1581435348.541,-2.441,17.09,19.043,15.137,0.0,0
1581435348.545,-5.371,3.418,20.508000000000006,7.812,0.0,0
1581435348.5470002,0.977,11.719,26.367,9.277,0.0,0
1581435348.551,2.93,23.438,23.926,16.602,0.0,0
1581435348.555,0.0,20.996,19.531,15.625,0.0,0
1581435348.559,3.418,18.555,15.137,10.254,0.0,0
1581435348.563,7.812,13.184,15.625,7.324,0.0,0
1581435348.5670002,5.371,11.719,21.484,15.625,0.0,0
1581435348.571,8.301,22.461,20.996,21.973000000000006,0.0,0
1581435348.574,10.742,26.367,22.461,18.066,0.0,0
1581435348.5779998,9.277,17.09,23.926,13.184,0.0,0
1581435348.582,14.648,10.742,18.555,13.672,0.0,0
1581435348.586,8.301,8.301,24.902,16.602,0.0,0
1581435348.59,3.418,15.625,29.297,13.672,0.0,0
1581435348.592,4.883,20.996,20.508000000000006,13.672,0.0,0
1581435348.596,9.766,23.438,20.508000000000006,24.414,0.0,0
1581435348.6,14.16,29.297,21.973000000000006,28.809,0.0,0
1581435348.604,19.043,34.18,20.996,21.484,0.0,0
1581435348.6079998,25.391,34.18,23.926,11.719,0.0,0
1581435348.6120002,19.531,23.438,27.344,14.16,0.0,0
1581435348.6160002,14.16,14.16,19.043,30.762,0.0,0
1581435348.619,7.812,12.695,16.113,28.809,0.0,0
1581435348.623,9.277,13.672,23.438,16.602,0.0,0
1581435348.627,11.719,32.715,26.367,20.996,0.0,0
1581435348.631,8.301,37.598,23.926,23.438,0.0,0
1581435348.635,6.836,20.02,24.414,21.484,0.0,0
1581435348.637,13.672,24.902,22.461,29.297,0.0,0
1581435348.641,15.625,33.203,23.438,22.461,0.0,0
1581435348.645,15.625,21.484,27.344,20.996,0.0,0
1581435348.649,14.16,14.16,22.461,23.438,0.0,0
1581435348.653,13.672,31.25,24.902,27.832,0.0,0
1581435348.657,19.043,36.133,22.461,21.484,0.0,0
1581435348.661,19.531,21.973000000000006,19.043,14.648,0.0,0
1581435348.664,22.461,27.832,23.926,16.113,0.0,0
1581435348.668,21.484,33.691,23.926,13.184,0.0,0
1581435348.6720002,14.16,31.25,21.484,16.113,0.0,0
1581435348.676,19.531,31.738000000000003,17.578,20.508000000000006,0.0,0
1581435348.68,28.809,31.738000000000003,18.066,21.973000000000006,0.0,0
1581435348.6820002,24.414,31.738000000000003,19.043,28.32,0.0,0
1581435348.686,18.066,28.809,11.23,23.926,0.0,0
1581435348.69,16.602,23.926,14.648,11.719,0.0,0
1581435348.694,10.254,17.09,20.508000000000006,18.066,0.0,0
1581435348.698,10.254,18.555,16.113,22.461,0.0,0
1581435348.702,15.137,22.949,18.066,18.555,0.0,0
1581435348.706,14.16,28.32,21.484,14.648,0.0,0
1581435348.709,14.648,32.715,20.02,14.16,0.0,0
1581435348.7129998,6.348,26.367,15.137,17.09,0.0,0
1581435348.717,7.812,20.996,10.254,20.508000000000006,0.0,0
1581435348.721,27.832,21.484,23.926,21.484,0.0,0
1581435348.725,29.785,26.367,31.25,19.531,0.0,0
1581435348.7270002,20.508000000000006,27.832,16.602,23.926,0.0,0
1581435348.731,23.438,30.762,13.672,33.691,0.0,0
1581435348.735,26.855,33.203,21.484,25.391,0.0,0
1581435348.7389998,17.09,24.902,15.137,19.043,0.0,0
1581435348.7429998,8.301,15.137,9.277,20.02,0.0,0
1581435348.7470002,10.742,17.578,13.672,24.414,0.0,0
1581435348.7510002,15.625,22.949,18.555,20.508000000000006,0.0,0
1581435348.754,19.043,18.555,17.578,11.23,0.0,0
1581435348.758,17.09,21.484,14.16,21.484,0.0,0
1581435348.762,16.602,26.367,25.879,30.762,0.0,0
1581435348.766,15.137,30.273000000000003,21.973000000000006,18.555,0.0,0
1581435348.77,16.602,27.832,9.766,8.789,0.0,0
1581435348.7729998,17.09,21.484,17.09,16.602,0.0,0
1581435348.7770002,12.207,24.902,20.996,24.902,0.0,0
1581435348.781,19.531,25.879,19.531,26.855,0.0,0
1581435348.785,24.414,24.414,19.043,18.555,0.0,0
1581435348.789,20.508000000000006,25.391,16.602,16.602,0.0,0
1581435348.793,15.625,34.668,20.02,19.043,0.0,0
1581435348.7970002,14.16,31.738000000000003,20.996,16.602,0.0,0
1581435348.8,9.766,23.926,20.508000000000006,9.766,0.0,0
1581435348.804,4.395,13.184,25.879,3.418,0.0,0
1581435348.8079998,16.602,9.277,29.297,16.113,0.0,0
1581435348.812,18.066,28.809,31.738000000000003,21.484,0.0,0
1581435348.816,6.836,28.809,26.855,11.719,0.0,0
1581435348.833,16.602,20.996,18.066,19.531,0.0,0
1581435348.837,26.855,20.02,17.578,26.855,0.0,0
1581435348.841,24.902,13.184,21.484,33.691,0.0,0
1581435348.845,20.508000000000006,15.625,18.555,28.32,0.0,0
1581435348.849,20.996,29.297,26.367,26.367,0.0,0
1581435348.853,17.578,37.109,26.855,27.832,0.0,0
1581435348.857,8.789,27.344,12.695,26.367,0.0,0
1581435348.86,10.254,18.066,15.625,27.832,0.0,0
1581435348.8639998,11.719,19.531,24.414,22.461,0.0,0
1581435348.8679998,14.648,18.066,25.391,20.996,0.0,0
1581435348.8720002,17.09,19.531,28.809,31.738000000000003,0.0,0
1581435348.8760002,17.578,27.344,28.32,32.227,0.0,0
1581435348.8779998,20.508000000000006,33.691,20.02,22.949,0.0,0
1581435348.8820002,17.09,32.227,11.719,22.461,0.0,0
1581435348.8860002,14.648,20.508000000000006,16.602,27.832,0.0,0
1581435348.89,19.043,25.391,24.414,29.297,0.0,0
1581435348.894,14.648,21.973000000000006,23.438,25.391,0.0,0
1581435348.8979998,18.066,18.066,20.02,19.043,0.0,0
1581435348.9020002,23.438,17.578,25.391,15.625,0.0,0
1581435348.905,9.766,19.043,26.855,22.461,0.0,0
1581435348.909,5.371,35.156,15.137,13.184,0.0,0
1581435348.913,7.324,40.527,8.301,-3.418,0.0,0
1581435348.917,-2.93,28.32,13.672,0.977,0.0,0
1581435348.921,-1.465,19.043,15.137,11.719,0.0,0
1581435348.923,-0.488,21.973000000000006,20.02,14.648,0.0,0
1581435348.927,-1.953,27.344,26.855,2.441,0.0,0
1581435348.931,6.348,27.344,23.438,12.695,0.0,0
1581435348.935,8.789,19.531,15.625,28.809,0.0,0
1581435348.939,12.695,13.672,20.508000000000006,23.438,0.0,0
1581435348.9429998,18.066,21.973000000000006,22.461,18.066,0.0,0
1581435348.947,17.09,34.18,9.277,8.301,0.0,0
1581435348.95,15.137,38.086,12.695,16.113,0.0,0
1581435348.954,13.672,30.762,22.461,26.367,0.0,0
1581435348.958,16.602,18.066,21.484,13.672,0.0,0
1581435348.962,22.461,28.809,20.02,12.207,0.0,0
1581435348.966,17.09,31.25,18.066,22.949,0.0,0
1581435348.968,12.207,20.996,16.113,28.32,0.0,0
1581435348.972,16.113,25.879,17.578,32.227,0.0,0
1581435348.976,18.066,30.273000000000003,17.09,28.32,0.0,0
1581435348.98,19.043,34.668,18.066,26.855,0.0,0
1581435348.984,20.508000000000006,27.344,22.949,33.203,0.0,0
1581435348.988,18.066,19.043,24.902,22.461,0.0,0
1581435348.992,13.672,23.438,24.902,14.648,0.0,0
1581435348.995,14.16,20.996,26.367,15.137,0.0,0
1581435348.9989998,13.184,19.043,23.438,8.789,0.0,0
1581435349.0029998,15.137,21.484,18.555,15.137,0.0,0
1581435349.0070002,14.648,20.508000000000006,18.066,20.508000000000006,0.0,0
1581435349.0110002,10.742,13.672,20.02,11.23,0.0,0
1581435349.0129998,6.836,14.16,15.137,11.719,0.0,0
1581435349.0170002,1.465,17.09,12.695,18.555,0.0,0
1581435349.021,2.441,20.508000000000006,21.973000000000006,15.625,0.0,0
1581435349.025,5.371,20.996,28.809,20.996,0.0,0
1581435349.029,14.648,29.297,23.438,23.926,0.0,0
1581435349.033,18.555,32.715,21.484,31.25,0.0,0
1581435349.0370002,20.996,24.414,25.391,33.691,0.0,0
1581435349.04,22.949,13.184,22.949,18.555,0.0,0
1581435349.044,16.113,6.836,25.391,20.508000000000006,0.0,0
1581435349.048,9.277,11.23,20.996,29.785,0.0,0
1581435349.052,10.254,20.02,5.859,33.691,0.0,0
1581435349.056,16.113,21.973000000000006,21.484,38.574,0.0,0
1581435349.0570002,21.973000000000006,27.832,37.109,36.133,0.0,0
1581435349.061,13.184,8.301,20.02,44.922,0.0,0
1581435349.065,12.695,0.488,17.09,37.598,0.0,0
1581435349.069,22.461,10.254,20.02,20.508000000000006,0.0,0
1581435349.073,16.602,0.977,18.066,22.949,0.0,0
1581435349.077,18.555,26.367,26.855,26.855,0.0,0
1581435349.081,22.949,36.621,30.762,31.25,0.0,0
1581435349.084,19.043,24.414,31.738000000000003,17.578,0.0,0
1581435349.0879998,9.766,32.227,26.367,5.371,0.0,0
1581435349.092,4.883,31.25,22.461,19.043,0.0,0
1581435349.096,15.137,34.668,18.066,27.832,0.0,0
1581435349.1,17.578,30.762,15.625,21.484,0.0,0
1581435349.1020002,20.508000000000006,14.16,17.578,19.043,0.0,0
1581435349.106,17.09,14.16,17.09,16.113,0.0,0
1581435349.11,18.555,22.949,23.926,24.902,0.0,0
1581435349.1139998,17.578,30.273000000000003,30.762,29.297,0.0,0
1581435349.1179998,13.184,33.203,23.926,21.484,0.0,0
1581435349.1220002,22.949,38.574,15.137,18.066,0.0,0
1581435349.1260002,19.043,37.598,18.555,16.602,0.0,0
1581435349.129,15.625,25.391,16.113,25.879,0.0,0
1581435349.133,20.996,18.555,14.16,18.066,0.0,0
1581435349.137,23.438,23.438,20.508000000000006,16.602,0.0,0
1581435349.141,22.949,26.855,29.297,26.367,0.0,0
1581435349.145,22.461,34.18,25.879,31.25,0.0,0
1581435349.147,17.578,35.156,15.137,37.598,0.0,0
1581435349.151,16.113,27.832,21.484,28.809,0.0,0
1581435349.155,12.207,17.578,20.02,24.902,0.0,0
1581435349.159,4.395,11.23,9.766,18.066,0.0,0
1581435349.163,-0.488,13.184,13.184,9.277,0.0,0
1581435349.167,9.766,27.832,16.602,9.277,0.0,0
1581435349.171,14.648,28.809,25.879,13.184,0.0,0
1581435349.174,16.602,28.32,25.391,18.066,0.0,0
1581435349.178,16.113,26.367,12.695,17.09,0.0,0
1581435349.1820002,8.301,11.719,14.16,8.789,0.0,0
1581435349.186,3.906,11.23,12.207,0.488,0.0,0
1581435349.19,7.324,24.414,16.113,12.695,0.0,0
1581435349.207,12.695,36.621,17.578,17.09,0.0,0
1581435349.211,5.371,33.203,8.789,3.906,0.0,0
1581435349.215,11.23,28.809,12.207,4.883,0.0,0
1581435349.219,27.344,31.738000000000003,15.137,15.625,0.0,0
1581435349.2229998,18.066,24.902,14.16,22.949,0.0,0
1581435349.2270002,12.695,17.09,18.066,19.043,0.0,0
1581435349.231,9.277,22.949,26.367,10.254,0.0,0
1581435349.234,7.812,23.926,23.926,10.254,0.0,0
1581435349.238,5.371,20.508000000000006,11.23,17.09,0.0,0
1581435349.242,1.953,26.367,14.648,14.16,0.0,0
1581435349.246,12.207,29.785,19.043,11.23,0.0,0
1581435349.25,17.09,24.414,12.695,16.113,0.0,0
1581435349.2529998,5.859,20.996,14.16,16.113,0.0,0
1581435349.2570002,0.488,11.719,20.996,19.531,0.0,0
1581435349.2610002,9.277,12.695,24.414,13.184,0.0,0
1581435349.265,16.113,25.879,19.043,13.672,0.0,0
1581435349.269,11.719,29.785,15.137,20.996,0.0,0
1581435349.2729998,9.277,22.461,22.949,16.602,0.0,0
1581435349.2770002,16.602,23.438,23.926,20.02,0.0,0
1581435349.28,16.602,33.203,14.648,9.277,0.0,0
1581435349.284,14.648,28.32,10.254,5.859,0.0,0
1581435349.288,17.578,25.391,17.09,12.695,0.0,0
1581435349.292,6.836,26.855,21.973000000000006,10.254,0.0,0
1581435349.296,-3.418,25.391,20.02,9.277,0.0,0
1581435349.2970002,4.395,20.508000000000006,23.926,5.859,0.0,0
1581435349.301,5.371,12.695,27.344,14.648,0.0,0
1581435349.305,6.348,18.066,18.066,14.648,0.0,0
1581435349.309,14.16,26.367,14.16,6.348,0.0,0
1581435349.313,13.184,18.555,20.02,11.23,0.0,0
1581435349.3170002,10.254,11.719,20.996,18.066,0.0,0
1581435349.321,12.207,17.09,16.602,27.344,0.0,0
1581435349.324,18.066,27.344,11.719,25.879,0.0,0
1581435349.3279998,19.531,35.156,20.996,7.812,0.0,0
1581435349.332,12.695,32.715,25.391,8.789,0.0,0
1581435349.336,14.648,30.762,18.066,20.996,0.0,0
1581435349.34,14.16,20.996,20.02,17.09,0.0,0
1581435349.342,6.348,9.766,23.926,12.207,0.0,0
1581435349.346,9.766,20.996,25.391,18.066,0.0,0
1581435349.35,14.16,31.738000000000003,19.531,18.555,0.0,0
1581435349.354,9.766,26.367,13.184,17.578,0.0,0
1581435349.3579998,5.371,22.461,22.461,14.648,0.0,0
1581435349.3620002,6.348,24.414,18.066,13.672,0.0,0
1581435349.3660002,5.859,32.715,13.184,22.949,0.0,0
1581435349.369,2.93,28.809,21.484,16.113,0.0,0
1581435349.373,2.441,20.996,26.367,6.348,0.0,0
1581435349.377,5.371,23.926,21.484,6.348,0.0,0
1581435349.381,8.789,16.113,19.531,15.137,0.0,0
1581435349.385,8.789,10.254,18.066,18.066,0.0,0
1581435349.387,12.207,17.09,12.207,17.09,0.0,0
1581435349.391,15.137,24.902,21.484,15.137,0.0,0
1581435349.395,16.602,34.668,22.461,19.043,0.0,0
1581435349.399,23.438,33.203,15.625,31.738000000000003,0.0,0
1581435349.403,26.855,26.855,23.926,28.809,0.0,0
1581435349.407,20.02,20.508000000000006,30.762,17.09,0.0,0
1581435349.411,19.043,14.648,24.902,15.137,0.0,0
1581435349.414,17.578,20.508000000000006,13.184,15.137,0.0,0
1581435349.418,13.184,23.438,14.648,11.23,0.0,0
1581435349.4220002,19.043,19.531,18.555,5.859,0.0,0
1581435349.426,25.391,14.648,13.672,12.207,0.0,0
1581435349.43,20.02,13.672,16.113,21.973000000000006,0.0,0
1581435349.4320002,18.066,25.391,17.09,21.484,0.0,0
1581435349.436,13.672,28.32,24.902,20.02,0.0,0
1581435349.44,10.254,24.414,27.344,18.066,0.0,0
1581435349.444,17.578,25.879,22.949,21.484,0.0,0
1581435349.448,19.043,20.02,21.484,30.273000000000003,0.0,0
1581435349.452,18.066,24.414,16.113,31.738000000000003,0.0,0
1581435349.456,14.16,34.668,17.09,18.555,0.0,0
1581435349.459,8.301,22.461,22.949,11.23,0.0,0
1581435349.4629998,4.395,18.555,20.02,20.02,0.0,0
1581435349.467,9.766,15.137,18.066,23.926,0.0,0
1581435349.471,16.602,12.695,18.555,19.531,0.0,0
1581435349.475,16.113,29.785,18.555,24.414,0.0,0
1581435349.4770002,12.207,37.109,25.391,28.809,0.0,0
1581435349.481,7.812,33.691,29.785,32.227,0.0,0
1581435349.485,11.719,24.414,23.926,21.484,0.0,0
1581435349.4889998,12.695,19.531,12.695,12.207,0.0,0
1581435349.4929998,14.16,26.367,16.602,15.625,0.0,0
1581435349.4970002,15.625,25.879,33.203,23.926,0.0,0
1581435349.5010002,14.16,22.949,31.25,22.949,0.0,0
1581435349.504,19.531,20.996,26.855,12.207,0.0,0
1581435349.508,15.137,17.578,22.949,20.02,0.0,0
1581435349.512,12.695,16.602,17.578,29.785,0.0,0
1581435349.516,14.648,21.973000000000006,21.484,23.926,0.0,0
1581435349.52,15.625,27.832,26.855,20.996,0.0,0
1581435349.522,4.883,22.461,25.879,17.09,0.0,0
1581435349.526,10.742,20.02,22.461,12.207,0.0,0
1581435349.53,21.973000000000006,26.855,25.391,16.602,0.0,0
1581435349.534,20.508000000000006,27.832,20.996,14.16,0.0,2
1581435349.538,16.602,16.113,18.066,13.672,0.0,0
1581435349.542,13.672,21.484,21.484,22.461,0.0,0
1581435349.546,17.578,29.785,23.438,14.648,0.0,0
1581435349.549,20.508000000000006,23.926,21.484,13.184,0.0,0
1581435349.553,17.09,23.926,23.438,18.066,0.0,0
1581435349.5570002,13.184,20.02,29.785,23.926,0.0,0
1581435349.561,11.719,21.973000000000006,31.25,30.273000000000003,0.0,0
1581435349.565,16.113,24.902,30.273000000000003,24.414,0.0,0
1581435349.582,25.391,27.344,26.367,21.973000000000006,0.0,0
1581435349.586,17.578,25.391,22.949,27.832,0.0,0
1581435349.59,12.695,18.555,20.996,32.227,0.0,0
1581435349.594,16.113,15.137,18.555,22.461,0.0,0
1581435349.5979998,17.09,15.625,22.949,16.602,0.0,0
1581435349.6020002,16.602,16.602,22.461,27.344,0.0,0
1581435349.606,6.836,20.996,19.531,24.902,0.0,0
1581435349.609,5.859,33.691,19.043,13.184,0.0,0
1581435349.613,9.277,34.18,16.602,16.602,0.0,0
1581435349.617,12.695,28.809,27.344,13.184,0.0,0
1581435349.621,10.254,18.066,25.879,6.836,0.0,0
1581435349.625,6.348,9.277,14.648,11.23,0.0,0
1581435349.627,11.719,19.043,24.902,15.137,0.0,0
1581435349.631,10.742,24.414,24.414,8.789,0.0,0
1581435349.635,-0.488,20.02,14.16,12.207,0.0,0
1581435349.639,5.371,18.555,26.367,21.973000000000006,0.0,0
1581435349.643,20.02,28.809,31.25,16.602,0.0,0
1581435349.647,13.672,28.809,18.555,20.02,0.0,0
1581435349.651,10.254,21.484,13.184,24.414,0.0,0
1581435349.654,14.16,26.855,13.184,21.484,0.0,0
1581435349.658,20.508000000000006,16.113,19.531,21.484,0.0,0
1581435349.6620002,21.484,14.16,22.949,12.207,0.0,0
1581435349.666,14.16,33.203,19.531,13.184,0.0,0
1581435349.67,16.113,41.504,21.484,22.949,0.0,0
1581435349.6720002,18.555,37.109,16.113,26.855,0.0,0
1581435349.676,15.625,23.438,14.648,18.555,0.0,0
1581435349.68,9.277,11.719,22.949,14.648,0.0,0
1581435349.684,10.254,9.277,25.391,22.949,0.0,0
1581435349.688,11.719,19.043,23.926,25.391,0.0,0
1581435349.6920002,11.23,27.344,23.926,27.832,0.0,0
1581435349.696,14.16,26.367,24.414,15.137,0.0,0
1581435349.699,18.066,25.391,25.879,16.113,0.0,0
1581435349.7029998,13.184,27.832,14.16,20.02,0.0,0
1581435349.707,8.789,18.066,14.648,9.766,0.0,0
1581435349.711,14.16,19.043,20.02,16.113,0.0,0
1581435349.715,8.301,25.879,11.23,13.184,0.0,0
1581435349.717,5.859,24.414,14.16,19.531,0.0,0
1581435349.721,10.742,22.461,26.855,26.855,0.0,0
1581435349.725,12.695,15.137,27.832,17.09,0.0,0
1581435349.729,20.02,23.438,21.973000000000006,17.09,0.0,0
1581435349.7329998,16.602,29.297,19.043,22.461,0.0,0
1581435349.7370002,15.625,25.391,12.207,22.461,0.0,0
1581435349.7410002,19.043,17.09,13.184,20.508000000000006,0.0,0
1581435349.744,14.648,20.508000000000006,15.625,18.066,0.0,0
1581435349.748,17.578,31.25,10.742,11.23,0.0,0
1581435349.752,20.508000000000006,20.02,18.066,20.996,0.0,0
1581435349.756,20.02,12.207,24.414,27.832,0.0,0
1581435349.76,29.785,19.043,25.391,24.414,0.0,0
1581435349.7629998,27.832,21.973000000000006,27.832,36.133,0.0,0
1581435349.7670002,19.531,22.949,21.484,38.086,0.0,0
1581435349.771,34.18,28.809,20.02,35.156,0.0,0
1581435349.775,34.668,29.785,26.855,29.785,0.0,0
1581435349.779,24.414,29.785,26.367,21.484,0.0,0
1581435349.783,25.391,32.715,17.578,25.879,0.0,0
1581435349.7870002,19.043,23.926,14.16,21.484,0.0,0
1581435349.79,23.926,16.602,21.973000000000006,14.648,0.0,0
1581435349.794,27.832,24.902,23.438,17.578,0.0,0
1581435349.798,20.508000000000006,34.18,13.672,19.531,0.0,0
1581435349.802,20.02,30.762,18.066,20.996,0.0,0
1581435349.806,20.996,16.113,24.414,18.555,0.0,0
1581435349.8070002,16.113,20.508000000000006,21.484,10.254,0.0,0
1581435349.811,8.301,26.367,20.508000000000006,10.254,0.0,0
1581435349.815,11.23,26.367,20.996,16.602,0.0,0
1581435349.819,20.508000000000006,36.133,13.184,12.695,0.0,0
1581435349.823,22.949,26.367,11.719,11.719,0.0,0
1581435349.827,27.344,19.043,20.02,19.043,0.0,0
1581435349.831,23.926,20.996,20.508000000000006,29.297,0.0,0
1581435349.834,20.02,18.555,11.23,19.531,0.0,0
1581435349.8379998,20.02,29.297,9.277,14.16,0.0,0
1581435349.842,15.137,33.691,24.414,25.391,0.0,0
1581435349.846,15.137,29.297,28.32,30.762,0.0,0
