timestamps,TP9,AF7,AF8,TP10,Marker0
1581622526.913,27.832,25.879,20.508,27.344,0
1581622526.917,28.809,25.879,21.973,14.160,0
1581622526.921,29.297,-16.602,20.020,27.832,0
1581622526.925,17.578,19.043,20.996,33.203,0
1581622526.929,19.043,-1.953,20.020,11.230,0
1581622526.933,28.320,-99.609,15.137,-8.301,0
1581622526.937,16.113,-122.559,12.695,-9.277,0
1581622526.940,6.836,-0.977,15.625,12.695,0
1581622526.944,6.836,71.777,12.695,7.812,0
1581622526.948,20.508,-22.949,13.672,-9.277,0
1581622526.952,37.598,-61.035,20.020,3.906,0
1581622526.956,5.859,9.766,22.461,26.367,0
1581622526.972,-11.719,33.691,18.066,25.879,0
1581622526.976,-3.906,-38.086,15.625,0.488,0
1581622526.980,-1.465,-83.496,15.137,-12.695,0
1581622526.984,25.391,11.719,18.555,9.766,0
1581622526.988,6.348,18.066,23.438,34.180,0
1581622526.992,-22.461,-119.629,21.973,11.719,0
1581622526.996,-2.930,-99.609,18.066,-22.949,0
1581622526.999,22.461,42.969,16.113,-18.555,0
1581622527.003,12.207,35.645,24.414,10.742,0
1581622527.007,-19.043,-10.742,28.809,17.090,0
1581622527.011,-26.855,0.977,26.855,-13.184,0
1581622527.015,-9.277,15.137,28.320,-20.020,0
1581622527.017,22.949,-22.461,26.855,6.836,0
1581622527.021,4.395,-40.527,26.855,13.184,0
1581622527.025,3.418,-32.227,32.227,4.883,0
1581622527.029,-0.977,-25.879,26.367,-1.953,0
1581622527.033,-10.742,3.418,19.043,2.441,0
1581622527.037,31.250,-53.223,20.020,13.672,0
1581622527.041,35.645,-47.363,26.855,5.371,0
1581622527.044,-10.254,18.066,31.738,-11.230,0
1581622527.048,-23.926,0.488,28.809,4.395,0
1581622527.052,-1.953,-83.984,22.461,20.020,0
1581622527.056,6.836,-27.832,18.555,6.836,0
1581622527.060,6.348,44.922,25.879,6.836,0
1581622527.062,3.418,-39.062,27.344,15.137,0
1581622527.066,5.371,-42.480,24.414,28.809,0
1581622527.070,33.203,9.277,23.926,15.625,0
1581622527.074,23.926,-5.859,20.996,-9.766,0
1581622527.078,-7.324,-57.617,19.043,-5.371,0
1581622527.082,-5.859,-89.844,24.414,2.930,0
1581622527.086,-4.395,-21.973,30.273,13.672,0
1581622527.089,-1.465,36.621,23.926,-1.465,0
1581622527.093,-7.324,-84.961,21.973,-14.160,0
1581622527.097,11.230,-104.004,26.855,13.672,0
1581622527.101,30.273,56.152,28.809,29.785,0
1581622527.105,-5.859,17.578,27.344,-28.809,0
1581622527.107,-7.812,-62.988,25.879,-48.828,0
1581622527.111,6.348,-9.766,24.902,20.508,0
1581622527.115,-18.555,40.527,23.438,30.273,0
1581622527.119,-20.020,-12.695,25.879,12.207,0
1581622527.123,22.949,-68.848,26.367,5.859,0
1581622527.127,2.441,-59.570,27.344,8.789,0
1581622527.131,-18.066,-10.254,28.809,-20.020,0
1581622527.134,24.902,21.973,22.949,-11.719,0
1581622527.138,24.902,-90.820,21.973,16.602,0
1581622527.142,0.488,-38.574,24.902,2.930,0
1581622527.146,-3.906,27.832,29.297,2.930,0
1581622527.150,15.137,-62.988,34.668,17.578,0
1581622527.152,23.438,-29.785,30.762,6.836,0
1581622527.156,8.789,17.090,26.855,-18.066,0
1581622527.160,6.836,4.883,29.785,5.371,0
1581622527.164,14.160,-27.344,35.645,13.672,0
1581622527.168,5.859,-49.805,32.715,-32.227,0
1581622527.172,-11.230,-57.129,22.461,-20.508,0
1581622527.176,-11.230,4.395,20.996,29.297,0
1581622527.179,12.207,-54.688,26.367,48.340,0
1581622527.183,-16.113,-107.910,35.645,13.672,0
1581622527.187,-2.930,23.438,36.621,2.441,0
1581622527.191,41.504,20.020,26.855,22.461,0
1581622527.195,36.133,-21.973,25.391,30.762,0
1581622527.197,22.461,-21.484,27.344,27.832,0
1581622527.201,6.348,-30.762,31.250,-1.953,0
1581622527.205,-1.465,-72.266,34.668,-19.531,0
1581622527.209,-3.906,-29.785,35.645,4.395,0
1581622527.213,-16.113,-16.602,30.273,15.625,0
1581622527.217,7.812,-71.289,27.832,-1.465,0
1581622527.221,21.973,-61.523,29.785,-1.465,0
1581622527.224,9.277,-105.957,31.738,14.648,0
1581622527.228,21.973,-38.086,33.203,23.438,0
1581622527.232,14.648,28.809,25.391,5.859,0
1581622527.236,1.465,-82.031,20.508,-16.602,0
1581622527.240,30.273,-82.520,24.414,7.812,0
1581622527.242,34.668,-11.230,26.367,29.785,0
1581622527.246,0.000,-20.508,27.832,-6.836,0
1581622527.250,-13.184,-77.148,28.320,-21.973,0
1581622527.254,-0.488,-67.383,27.832,-5.859,0
1581622527.258,7.324,-55.176,30.762,20.020,0
1581622527.262,-13.184,-66.406,28.809,33.203,0
1581622527.266,-28.320,-105.469,26.367,-27.344,0
1581622527.269,-17.578,-103.027,28.320,-48.340,0
1581622527.273,-4.395,37.598,29.297,10.742,0
1581622527.277,-80.566,30.762,26.367,-7.812,0
1581622527.281,-65.918,-38.086,27.344,-22.461,0
1581622527.285,47.363,-36.621,34.668,5.859,0
1581622527.288,7.324,-8.789,39.551,-3.418,0
1581622527.292,-25.391,-30.762,35.156,-4.395,0
1581622527.296,-21.484,-68.848,35.156,-22.949,0
1581622527.300,-45.410,-60.547,42.969,-50.781,0
1581622527.304,-55.664,-41.992,43.457,-18.555,0
1581622527.308,-38.574,-103.027,40.039,-20.020,0
1581622527.312,-83.496,-139.648,38.574,-69.336,0
1581622527.315,-96.680,-89.355,41.016,-47.852,0
1581622527.319,-17.090,-6.348,40.039,0.000,0
1581622527.323,-4.883,1.953,40.039,25.391,0
1581622527.327,2.441,-60.059,42.969,26.855,0
1581622527.331,14.160,-42.969,32.227,18.555,0
1581622527.333,-8.301,-20.508,33.691,0.977,0
1581622527.337,14.648,-66.895,45.898,28.320,0
1581622527.341,-4.395,-82.031,50.781,38.574,0
1581622527.345,-62.012,-34.668,45.410,-14.160,0
1581622527.349,-68.359,-46.875,36.133,-34.180,0
1581622527.353,-37.598,-139.160,34.180,1.953,0
1581622527.357,-58.105,-117.676,34.180,-3.906,0
1581622527.360,-98.145,-18.066,41.992,-73.242,0
1581622527.364,-88.867,-37.598,45.410,-75.195,0
1581622527.368,-111.816,-115.234,47.363,-15.625,0
1581622527.372,-95.215,-140.625,49.316,20.996,0
1581622527.376,-93.262,-51.270,55.176,-22.949,0
1581622527.394,-90.820,-36.133,60.547,-71.777,0
1581622527.398,-53.223,-71.777,60.547,-97.168,0
1581622527.402,-109.863,-34.180,61.523,-87.402,0
1581622527.406,-123.535,-34.668,62.500,-31.738,0
1581622527.410,-159.180,-65.430,75.684,-92.285,0
1581622527.414,-168.457,-110.352,85.938,-142.578,0
1581622527.418,-113.770,-81.055,79.102,-95.703,0
1581622527.421,-184.082,14.648,105.469,-92.285,0
1581622527.425,-265.137,-55.176,116.699,-187.012,0
1581622527.429,-234.375,-153.809,101.074,-246.582,0
1581622527.433,-186.523,-87.402,132.812,-172.852,0
1581622527.437,-250.000,-73.242,143.066,-211.914,0
1581622527.439,-323.730,-150.391,149.414,-262.695,0
1581622527.443,-327.637,-204.102,163.574,-268.555,0
1581622527.447,-306.641,-153.809,161.133,-290.527,0
1581622527.451,-267.090,-86.426,159.180,-260.742,0
1581622527.455,-296.875,-136.230,161.621,-282.227,0
1581622527.459,-356.934,-175.781,161.133,-301.758,0
1581622527.463,-263.672,-130.371,153.809,-233.398,0
1581622527.466,-234.863,-7.324,149.414,-190.430,0
1581622527.470,-281.738,-89.355,139.648,-208.008,0
1581622527.474,-219.238,-134.277,139.160,-239.746,0
1581622527.478,-228.516,38.086,126.953,-223.633,0
1581622527.482,-191.406,39.062,123.535,-214.355,0
1581622527.484,-208.008,21.973,118.652,-163.574,0
1581622527.488,-210.938,28.320,103.516,-103.027,0
1581622527.492,-127.441,19.043,88.379,-145.020,0
1581622527.496,-89.844,-3.906,76.660,-114.258,0
1581622527.500,-34.180,-33.691,66.895,-39.551,0
1581622527.504,-87.402,-33.691,58.594,-22.461,0
1581622527.508,-138.184,-6.836,50.293,-54.688,0
1581622527.511,-66.895,9.766,49.316,-49.316,0
1581622527.515,-13.184,-101.074,51.270,-12.207,0
1581622527.519,-25.391,-73.242,33.691,-16.602,0
1581622527.523,-8.789,3.418,30.762,9.277,0
1581622527.527,10.742,-40.039,28.809,38.086,0
1581622527.529,60.547,-63.477,17.090,78.125,0
1581622527.533,28.320,-76.172,11.230,99.609,0
1581622527.537,62.988,-105.469,5.859,76.660,0
1581622527.541,121.582,-114.258,-3.418,95.703,0
1581622527.545,86.426,-100.586,-6.348,115.723,0
1581622527.549,68.848,-92.285,-16.113,141.113,0
1581622527.553,73.730,-41.992,-28.320,131.348,0
1581622527.556,117.188,-95.215,-28.320,104.980,0
1581622527.560,185.059,-103.516,-28.809,142.578,0
1581622527.564,161.133,-4.395,-24.414,179.199,0
1581622527.568,133.301,-66.406,-20.996,171.875,0
1581622527.572,152.344,-106.934,-29.297,132.812,0
1581622527.574,171.387,-90.820,-37.109,142.090,0
1581622527.578,154.785,-101.074,-29.297,192.871,0
1581622527.582,106.445,-126.465,-34.668,184.082,0
1581622527.586,146.484,-138.672,-35.156,172.852,0
1581622527.590,205.078,-104.492,-30.762,173.828,0
1581622527.594,185.547,-149.902,-31.250,175.293,0
1581622527.598,170.898,-187.988,-32.227,191.895,0
1581622527.601,192.383,-189.941,-38.574,166.016,0
1581622527.605,158.203,-108.887,-39.551,142.090,0
1581622527.609,136.719,-45.410,-38.574,151.367,0
1581622527.613,137.695,-143.555,-39.062,172.363,0
1581622527.617,147.461,-153.320,-37.598,173.828,0
1581622527.619,167.969,-139.160,-29.297,142.578,0
1581622527.623,133.789,-156.250,-18.555,148.926,0
1581622527.627,129.883,-229.492,-14.648,153.809,0
1581622527.631,126.465,-243.652,-18.555,146.973,0
1581622527.635,145.508,-190.918,-17.090,144.531,0
1581622527.639,157.227,-244.629,-15.137,141.113,0
1581622527.643,138.672,-310.547,-19.043,154.297,0
1581622527.646,151.855,-277.344,-24.902,135.254,0
1581622527.650,124.023,-180.664,-22.949,107.422,0
1581622527.654,105.957,-239.258,-15.625,106.445,0
1581622527.658,106.934,-302.246,-15.137,118.652,0
1581622527.662,101.562,-320.312,-13.184,128.906,0
1581622527.663,111.816,-358.398,-12.207,111.328,0
1581622527.667,95.703,-426.270,-12.207,88.867,0
1581622527.671,77.148,-437.988,-8.789,94.727,0
1581622527.675,88.867,-404.297,-6.836,118.652,0
1581622527.679,92.773,-412.598,-10.742,108.887,0
1581622527.683,75.684,-450.195,-10.254,71.289,0
1581622527.687,79.590,-504.883,-5.859,77.148,0
1581622527.690,85.938,-394.531,-5.859,90.820,0
1581622527.694,70.312,-296.875,-5.859,86.426,0
1581622527.698,62.500,-386.719,-8.789,71.777,0
1581622527.702,67.383,-366.211,-9.766,54.199,0
1581622527.706,75.195,-283.203,-9.277,67.871,0
1581622527.723,66.406,-253.906,-3.418,83.984,0
1581622527.727,37.598,-312.500,4.883,62.988,0
1581622527.731,47.852,-305.664,7.324,48.828,0
1581622527.735,83.984,-243.164,6.836,61.523,0
1581622527.739,64.453,-250.488,1.465,67.383,0
1581622527.743,35.156,-288.574,-1.953,52.734,0
1581622527.747,27.832,-258.301,1.465,44.922,0
1581622527.750,33.203,-113.770,3.906,55.664,0
1581622527.754,60.059,-103.516,4.395,62.012,0
1581622527.758,59.570,-177.246,4.883,58.105,0
1581622527.762,38.086,-177.734,6.836,33.691,0
1581622527.766,29.297,-104.004,1.465,28.809,0
1581622527.767,20.996,-106.445,-0.977,55.664,0
1581622527.771,31.250,-151.855,6.836,62.012,0
1581622527.775,27.832,-119.629,13.184,50.293,0
1581622527.779,20.020,-81.543,12.207,37.598,0
1581622527.783,25.879,-98.633,8.789,40.527,0
1581622527.787,22.949,-116.699,5.371,53.711,0
1581622527.791,36.621,-105.469,2.441,41.016,0
1581622527.794,41.504,-57.617,4.883,28.809,0
1581622527.798,31.738,-46.387,5.859,54.688,0
1581622527.802,42.480,-134.277,7.812,68.359,0
1581622527.806,49.805,-34.668,11.719,53.223,0
1581622527.810,35.645,25.391,10.254,37.598,0
1581622527.812,34.668,-57.617,4.883,45.898,0
1581622527.816,45.898,-56.152,8.789,59.570,0
1581622527.820,68.359,-40.039,11.230,58.594,0
1581622527.824,38.574,-20.020,5.859,45.898,0
1581622527.828,13.672,-79.590,6.836,40.039,0
1581622527.832,58.594,-115.234,7.812,65.430,0
1581622527.836,62.988,-36.621,5.859,64.941,0
1581622527.839,54.199,19.531,6.348,32.227,0
1581622527.843,54.199,-89.844,8.301,28.320,0
1581622527.847,48.340,-136.230,10.742,48.340,0
1581622527.851,39.551,3.906,16.113,48.828,0
1581622527.855,27.344,17.090,19.043,-11.719,0
1581622527.858,21.484,-29.785,11.719,-12.207,0
1581622527.862,13.672,-32.715,8.301,62.500,0
1581622527.866,23.926,-6.836,10.254,64.453,0
1581622527.870,11.719,-39.062,9.766,30.762,0
1581622527.874,-28.809,-71.289,16.113,-3.906,0
1581622527.878,4.395,-59.570,20.020,14.160,0
1581622527.882,27.344,-19.531,15.137,60.059,0
1581622527.885,17.578,-0.977,20.020,8.789,0
1581622527.889,0.488,-79.102,18.555,-17.090,0
1581622527.893,1.465,-29.785,9.277,42.969,0
1581622527.897,25.879,40.527,13.672,51.270,0
1581622527.901,39.062,0.488,15.137,29.297,0
1581622527.902,31.250,-51.270,15.137,10.742,0
1581622527.906,15.137,-38.574,15.137,11.719,0
1581622527.910,34.180,17.578,18.066,44.434,0
1581622527.914,19.531,-18.555,20.996,52.246,25600
1581622527.918,-17.090,-37.109,26.855,28.809,0
1581622527.922,-38.574,-48.340,26.367,12.207,0
1581622527.926,11.230,7.324,24.902,9.766,0
1581622527.929,71.289,-46.875,20.020,20.020,0
1581622527.933,33.203,-81.543,19.531,39.551,0
1581622527.937,30.762,45.410,22.949,25.391,0
1581622527.941,58.594,11.719,21.484,12.695,0
1581622527.945,37.598,-5.859,22.461,37.598,0
1581622527.947,21.484,9.766,19.531,49.316,0
1581622527.951,20.020,-3.906,16.602,10.742,0
1581622527.955,10.742,-12.695,21.973,10.742,0
1581622527.959,27.344,-61.523,23.438,45.410,0
1581622527.963,46.387,-58.105,24.902,53.711,0
1581622527.967,34.180,-33.203,29.785,45.410,0
1581622527.971,12.207,-45.410,28.809,26.367,0
1581622527.974,15.137,-83.008,29.785,35.645,0
1581622527.978,10.254,-24.414,30.762,51.758,0
1581622527.982,17.090,64.941,25.391,39.551,0
1581622527.986,36.621,-14.648,23.926,20.996,0
1581622527.990,9.277,-36.133,28.809,-4.883,0
1581622527.992,16.113,9.277,23.926,10.254,0
1581622527.996,32.227,11.230,17.090,64.453,0
1581622528.000,18.555,-44.434,16.602,40.039,0
1581622528.004,9.766,-63.965,18.066,23.438,0
1581622528.008,6.348,1.465,23.438,41.992,0
1581622528.012,0.000,-36.621,27.832,46.387,0
1581622528.016,13.672,-112.793,29.297,24.414,0
1581622528.019,23.926,-78.613,28.809,12.207,0
1581622528.023,10.742,35.156,29.785,27.344,0
1581622528.027,16.602,22.949,27.832,38.574,0
1581622528.031,12.207,-41.992,25.391,16.602,0
1581622528.035,-7.324,-34.668,21.973,5.371,0
1581622528.037,1.465,7.324,20.020,27.344,0
1581622528.041,0.488,1.465,26.855,36.133,0
1581622528.045,11.230,-36.621,31.250,13.184,0
1581622528.049,34.180,-25.879,26.855,-5.371,0
1581622528.053,16.602,-23.438,21.484,10.742,0
1581622528.057,14.160,-63.477,20.996,41.016,0
1581622528.061,-1.953,-99.609,25.391,31.250,0
1581622528.064,-18.066,-32.715,27.344,3.906,0
1581622528.068,12.695,13.672,28.320,4.395,0
1581622528.072,28.809,-43.457,25.391,29.785,0
1581622528.076,2.930,-31.738,20.996,11.719,0
1581622528.080,-10.742,0.488,21.484,-19.043,0
1581622528.097,-11.230,-18.066,24.414,8.789,0
1581622528.101,-10.254,-58.105,27.344,28.320,0
1581622528.105,3.906,-63.477,28.809,26.855,0
1581622528.109,4.395,-6.348,26.855,8.789,0
1581622528.113,10.254,-12.207,22.461,-30.273,0
1581622528.117,20.020,-100.586,22.949,-7.324,0
1581622528.121,19.043,-97.656,23.438,45.410,0
1581622528.124,-31.250,22.461,22.461,20.508,0
1581622528.128,-31.250,8.301,27.832,-12.207,0
1581622528.132,33.203,-27.832,25.391,9.277,0
1581622528.136,27.344,-11.230,19.531,20.996,0
1581622528.140,14.648,13.672,21.973,13.184,0
1581622528.143,4.395,-44.922,25.391,-1.953,0
1581622528.147,-1.953,-37.598,28.809,-13.672,0
1581622528.151,12.207,4.395,24.902,-4.395,0
1581622528.155,20.996,-2.441,24.414,19.043,0
1581622528.159,15.137,-5.859,27.832,13.184,0
1581622528.163,-13.672,-43.945,21.973,-4.883,0
1581622528.167,-17.578,-20.996,18.066,2.930,0
1581622528.170,20.996,36.133,19.531,17.090,0
1581622528.174,26.855,18.555,20.508,8.301,0
1581622528.178,13.672,-85.938,22.949,-9.277,0
1581622528.182,6.348,-34.668,27.344,7.324,0
1581622528.186,-6.348,53.223,28.320,15.137,0
1581622528.189,0.000,-18.555,24.414,2.441,0
1581622528.193,19.043,-43.457,24.414,-5.371,0
1581622528.197,23.438,-10.742,27.344,1.953,0
1581622528.201,7.812,-4.395,30.762,18.066,0
1581622528.205,-7.812,-41.504,31.250,7.812,0
1581622528.209,-30.762,-74.707,27.344,-38.574,0
1581622528.213,-33.203,-33.203,22.461,-44.922,0
1581622528.216,-39.062,33.203,19.043,-22.461,0
1581622528.220,-34.180,-65.430,22.949,-23.926,0
1581622528.224,-29.297,-122.070,27.344,-39.062,0
1581622528.228,-52.734,-4.395,23.438,-57.617,0
1581622528.232,-57.617,3.418,23.926,-29.785,0
1581622528.233,-42.969,-29.785,29.785,-15.625,0
1581622528.237,-27.344,-28.320,27.832,-42.969,0
1581622528.241,-27.832,-18.555,25.879,-42.480,0
1581622528.245,-23.926,-40.527,25.391,-21.973,0
1581622528.249,-0.977,-55.176,26.855,10.742,0
1581622528.253,-0.977,-55.176,26.855,6.836,0
1581622528.257,-25.879,-41.504,19.531,-23.438,0
1581622528.260,-34.180,-59.570,14.648,-44.434,0
1581622528.264,-23.438,-91.797,16.602,-29.785,0
1581622528.268,-1.465,-18.555,20.996,14.160,0
1581622528.272,12.695,48.828,28.809,1.465,0
1581622528.276,9.766,-19.531,36.621,-15.625,0
1581622528.279,0.000,-41.992,33.203,8.301,0
1581622528.283,-9.277,0.000,28.809,19.043,0
1581622528.287,-14.648,0.000,28.320,0.488,0
1581622528.291,-1.465,-47.363,24.902,-26.855,0
1581622528.295,5.859,-46.387,22.461,-20.508,0
1581622528.299,-5.371,-45.898,25.391,8.789,0
1581622528.303,2.930,-14.160,25.879,21.484,0
1581622528.306,-1.465,-43.457,24.902,-0.488,0
1581622528.310,-2.441,-89.355,23.438,-4.883,0
1581622528.314,8.789,25.879,23.926,20.020,0
1581622528.318,5.859,42.969,30.273,17.090,0
1581622528.322,-3.418,-5.371,31.738,8.789,0
1581622528.324,-8.301,-22.949,32.715,-0.488,0
1581622528.328,-8.789,0.488,27.832,-4.395,0
1581622528.332,-10.742,-0.488,21.484,8.789,0
1581622528.336,-4.883,-5.371,26.367,-3.418,0
1581622528.340,-2.930,-20.020,35.645,-1.953,0
1581622528.344,-1.953,-52.246,39.551,21.484,0
1581622528.348,5.371,-14.648,37.598,17.090,0
1581622528.351,9.766,-69.336,29.297,0.977,0
1581622528.355,-2.930,-35.645,22.461,-1.953,0
1581622528.359,-17.578,50.781,27.832,10.742,0
1581622528.363,-7.812,-13.184,33.203,20.508,0
1581622528.367,-1.465,-45.898,32.227,-0.977,0
1581622528.368,-5.859,-31.738,27.344,-11.230,0
1581622528.372,-7.812,14.160,26.367,6.836,0
1581622528.376,9.766,-21.484,27.344,20.996,0
1581622528.380,20.996,-45.410,27.832,12.695,0
1581622528.384,15.137,-51.758,30.273,-17.090,0
1581622528.388,0.000,-54.688,30.762,-23.926,0
1581622528.392,-8.301,-83.496,30.762,3.418,0
1581622528.395,7.812,-99.121,30.762,9.766,0
1581622528.399,0.977,14.648,27.832,-8.301,0
1581622528.403,8.301,5.859,25.391,-18.066,0
1581622528.407,12.695,-56.641,27.832,2.441,0
1581622528.411,-3.418,-40.039,27.344,25.879,0
1581622528.414,7.324,-9.277,25.879,13.184,0
1581622528.418,22.461,-25.879,28.809,-9.766,0
1581622528.422,11.719,-49.805,30.762,1.465,0
1581622528.426,-5.859,-33.691,32.227,16.113,0
1581622528.430,-17.578,-21.484,34.668,4.395,0
1581622528.434,-8.301,-87.402,33.203,1.465,0
1581622528.438,22.461,-132.812,32.715,10.254,0
1581622528.441,33.203,-34.668,32.715,21.484,0
1581622528.445,12.695,52.734,23.926,23.926,0
1581622528.449,6.836,-17.090,20.996,13.184,0
1581622528.453,1.465,-44.434,29.297,4.395,0
1581622528.457,-6.348,2.441,31.250,0.977,0
1581622528.458,20.996,7.812,28.320,3.418,0
1581622528.462,40.039,-41.016,29.297,-2.441,0
1581622528.466,21.973,-74.707,33.203,-8.301,0
1581622528.470,-2.930,-23.926,38.086,22.949,0
1581622528.474,0.000,1.465,39.062,39.551,0
1581622528.478,7.324,-104.004,33.691,17.578,0
1581622528.482,0.488,-123.047,29.297,-8.301,0
1581622528.485,0.977,23.926,26.855,2.441,0
1581622528.489,10.742,36.621,26.367,31.250,0
1581622528.493,9.277,-38.574,28.809,17.578,0
1581622528.497,3.418,-38.574,27.344,-20.020,0
1581622528.501,5.859,-2.930,30.273,-5.859,0
1581622528.519,10.742,-9.766,32.227,23.926,0
1581622528.523,15.625,-27.832,28.809,22.949,0
1581622528.527,22.949,-15.625,27.344,14.160,0
1581622528.531,10.254,-13.184,28.320,7.324,0
1581622528.535,-2.441,-16.113,27.832,8.301,0
1581622528.539,3.906,-36.621,33.203,22.461,0
1581622528.543,16.113,-35.156,38.086,13.672,0
1581622528.546,-0.488,3.418,32.227,-16.113,0
1581622528.550,-14.648,-9.277,24.414,-2.930,0
1581622528.554,-5.371,-58.594,23.438,11.719,0
1581622528.558,-9.277,5.371,23.926,0.000,0
1581622528.562,0.488,21.484,23.438,-11.230,0
1581622528.563,10.254,-55.664,28.320,-1.953,0
1581622528.567,0.977,-64.941,28.320,26.855,0
1581622528.571,-6.836,-16.602,28.809,26.855,0
1581622528.575,4.883,-15.625,29.785,5.859,0
1581622528.579,20.508,-63.965,33.203,2.930,0
1581622528.583,6.836,-81.055,37.109,16.113,0
1581622528.587,-9.766,-28.320,27.832,12.695,0
1581622528.590,0.488,24.902,25.391,-9.766,0
1581622528.594,1.465,-53.711,34.668,-9.766,0
1581622528.598,-6.348,-108.398,35.645,8.789,0
1581622528.602,-14.648,13.184,27.832,20.020,0
1581622528.606,-10.742,-16.602,22.949,10.742,0
1581622528.609,2.930,-51.758,24.414,-4.395,0
1581622528.613,6.836,20.020,28.809,12.207,0
1581622528.617,-3.418,16.113,33.203,19.531,0
1581622528.621,-3.418,-10.254,36.621,3.906,0
1581622528.625,4.395,-37.109,30.762,-2.441,0
1581622528.629,-1.465,-53.223,23.438,18.555,0
1581622528.633,7.324,-18.066,23.926,46.875,0
1581622528.636,30.762,4.883,27.344,35.645,0
1581622528.640,25.391,-76.172,24.414,-8.789,0
1581622528.644,-0.977,-45.410,25.879,-16.113,0
1581622528.648,13.184,33.203,28.809,13.672,0
1581622528.652,34.668,-14.648,25.879,35.156,0
1581622528.654,23.438,-39.062,27.832,26.855,0
1581622528.658,15.137,-9.277,28.809,15.137,0
1581622528.662,11.719,-5.371,23.438,38.086,0
1581622528.666,11.719,-53.711,24.414,57.129,0
1581622528.670,18.066,-38.086,21.973,30.762,0
1581622528.674,22.461,-25.391,18.066,1.465,0
1581622528.678,10.742,-11.719,20.508,3.906,0
1581622528.681,13.672,-47.363,19.531,25.879,0
1581622528.685,34.180,-73.242,19.043,43.945,0
1581622528.689,29.785,47.363,23.926,29.785,0
1581622528.693,14.160,27.344,27.832,32.227,0
1581622528.697,14.160,-25.391,29.785,46.387,0
1581622528.699,23.438,-10.742,26.855,34.180,0
1581622528.703,24.902,4.883,23.438,6.348,0
1581622528.707,15.137,-2.930,24.902,-0.977,0
1581622528.711,26.367,3.418,20.508,26.367,0
1581622528.715,22.949,12.695,22.949,43.945,0
1581622528.719,14.160,-18.555,24.414,16.602,0
1581622528.723,9.766,-31.250,20.020,0.488,0
1581622528.726,15.137,-59.570,19.043,20.508,0
1581622528.730,15.625,21.973,18.555,37.109,0
1581622528.734,9.277,81.055,17.090,31.738,0
1581622528.738,27.344,-6.836,22.461,12.207,0
1581622528.742,39.551,-17.578,30.273,18.555,0
1581622528.743,19.043,14.160,30.762,30.762,0
1581622528.747,3.418,18.066,25.879,24.414,0
1581622528.751,15.137,-34.668,26.367,9.766,0
1581622528.755,18.066,-39.062,23.926,6.348,0
1581622528.759,-6.348,17.578,15.137,37.598,0
1581622528.763,6.836,-29.785,15.137,34.668,0
1581622528.767,33.691,-101.562,19.043,4.395,0
1581622528.770,9.277,-58.105,23.438,8.301,0
1581622528.774,3.418,22.461,26.855,29.785,0
1581622528.778,23.926,-2.930,23.438,40.039,0
1581622528.782,8.789,1.465,20.996,14.648,0
1581622528.786,14.648,5.371,23.438,-3.418,0
1581622528.787,15.137,24.902,20.508,15.137,0
1581622528.791,10.742,14.648,17.578,31.250,0
1581622528.795,13.672,-21.484,19.531,25.391,0
1581622528.799,8.301,-30.762,18.555,10.254,0
1581622528.803,17.090,-23.926,18.066,18.066,0
1581622528.807,13.184,-15.137,25.879,36.133,0
1581622528.811,14.648,-78.125,30.762,28.809,0
1581622528.814,26.367,-30.273,29.297,5.859,0
1581622528.818,20.020,51.270,25.391,-1.465,0
1581622528.822,13.184,7.324,22.949,22.949,0
1581622528.826,8.789,-13.672,23.926,24.902,0
1581622528.830,-3.418,-0.977,26.855,10.254,0
1581622528.863,-0.977,14.648,27.344,6.348,0
1581622528.867,7.812,-22.949,24.902,13.184,0
1581622528.871,0.000,-19.043,25.879,26.367,0
1581622528.875,7.324,23.438,21.973,6.836,0
1581622528.879,26.855,-12.207,19.531,-12.695,0
1581622528.883,15.625,-89.355,23.926,10.742,0
1581622528.887,3.906,-62.988,26.855,39.551,0
1581622528.890,10.742,46.387,27.344,34.180,0
1581622528.894,15.625,28.320,23.438,10.742,0
1581622528.898,1.465,-21.973,21.973,7.324,0
1581622528.902,-0.977,-5.859,22.949,25.879,0
1581622528.906,13.184,20.996,22.949,24.902,0
1581622528.892,23.926,-25.391,24.902,7.324,0
1581622528.896,12.207,-34.180,25.879,-1.465,0
1581622528.900,1.953,-32.715,21.973,19.043,0
1581622528.904,19.531,-5.859,13.672,29.297,0
1581622528.908,9.766,3.906,16.113,5.371,0
1581622528.912,2.930,-55.176,22.461,2.441,0
1581622528.916,12.207,-28.320,28.809,10.742,0
1581622528.919,10.254,13.184,30.273,25.879,0
1581622528.923,14.648,-2.441,24.902,30.273,0
1581622528.927,11.230,-38.086,25.391,7.324,0
1581622528.931,10.742,0.488,23.438,7.324,0
1581622528.935,14.160,42.969,20.508,19.043,0
1581622528.937,13.672,-25.879,21.973,17.578,0
1581622528.941,19.043,-95.703,21.484,-3.906,0
1581622528.945,5.371,7.812,15.625,-11.230,0
1581622528.949,-5.371,61.035,11.719,11.719,0
1581622528.953,11.230,-25.391,19.043,18.066,0
1581622528.957,14.160,-67.871,27.344,6.348,0
1581622528.961,5.371,-41.016,30.273,2.441,0
1581622528.964,5.859,20.996,32.715,19.043,17233
1581622528.968,4.883,-35.645,32.715,35.156,0
1581622528.972,3.418,-73.242,31.250,8.789,0
1581622528.976,14.160,45.410,31.738,-8.301,0
1581622528.980,12.695,30.273,30.762,20.996,0
1581622528.983,0.488,-21.973,26.367,34.180,0
1581622528.987,4.395,-2.930,24.414,16.602,0
1581622528.991,9.277,14.648,28.320,-7.812,0
1581622528.995,7.812,-14.648,29.297,-3.906,0
1581622528.999,10.254,-13.184,27.832,30.273,0
1581622529.003,15.137,-27.832,28.809,38.574,0
1581622529.007,16.113,-36.621,22.461,3.418,0
1581622529.010,-1.465,-10.742,24.414,-8.301,0
1581622529.014,-4.395,-48.340,31.250,21.484,0
1581622529.018,22.949,-24.414,27.832,29.785,0
1581622529.022,13.672,36.621,20.508,4.883,0
1581622529.026,2.930,-16.602,14.648,-10.742,0
1581622529.028,18.066,-30.273,16.602,7.324,0
1581622529.032,7.812,14.648,22.461,25.879,0
1581622529.036,-3.418,14.648,25.879,19.531,0
1581622529.040,9.766,-41.504,26.367,7.324,0
1581622529.044,6.836,-50.293,24.902,25.879,0
1581622529.048,1.953,-38.086,26.855,28.320,0
1581622529.052,8.301,-14.160,24.414,2.441,0
1581622529.055,4.395,-62.500,23.438,-8.301,0
1581622529.059,10.254,-72.754,25.391,9.277,0
1581622529.063,20.020,65.430,21.973,25.391,0
1581622529.067,3.906,35.645,17.578,0.488,0
1581622529.071,-2.930,-55.176,15.625,-15.625,0
1581622529.072,6.836,-17.578,19.531,3.418,0
1581622529.076,-10.254,27.832,19.043,6.836,0
1581622529.080,-5.859,-4.883,14.160,8.789,0
1581622529.084,4.883,-25.391,17.578,-8.301,0
1581622529.088,4.395,4.883,21.973,-12.207,0
1581622529.092,8.301,-19.531,24.414,21.484,0
1581622529.096,5.371,-16.113,25.391,29.297,0
1581622529.099,8.789,-52.734,22.949,3.906,0
1581622529.103,10.742,-14.648,20.996,-25.391,0
1581622529.107,10.254,55.664,22.949,-2.930,0
1581622529.111,-0.977,4.883,22.949,35.156,0
1581622529.115,-8.789,-9.766,22.461,20.508,0
1581622529.118,10.254,2.930,25.391,-10.742,0
1581622529.122,16.113,7.812,26.367,3.418,0
1581622529.126,18.555,-34.668,21.484,41.992,0
1581622529.130,26.367,-22.949,20.996,33.203,0
1581622529.134,16.113,-12.207,24.414,-0.488,0
1581622529.138,14.648,-42.969,23.438,-8.301,0
1581622529.142,4.883,-76.660,20.508,13.672,0
1581622529.145,1.953,-63.965,17.090,13.672,0
1581622529.149,21.484,48.828,14.648,-3.418,0
1581622529.153,9.277,25.879,17.090,1.465,0
1581622529.157,9.766,-9.277,20.020,16.113,0
1581622529.161,17.578,27.344,23.926,26.367,0
1581622529.454,-0.977,21.484,30.762,24.902,0
1581622529.458,10.742,-0.977,24.414,1.953,0
1581622529.462,20.508,-9.766,15.625,9.277,0
1581622529.466,10.254,6.836,23.438,27.344,0
1581622529.470,16.602,-8.301,31.738,13.184,0
1581622529.474,3.906,-57.617,26.367,-4.395,0
1581622529.478,-1.465,-94.238,19.043,-2.930,0
1581622529.481,16.602,-8.789,22.949,18.066,0
1581622529.485,14.160,87.891,22.461,20.996,0
1581622529.489,9.766,6.836,22.949,-3.418,0
1581622529.493,7.812,-22.461,26.855,0.977,0
1581622529.497,-2.441,31.738,29.785,32.715,0
1581622529.457,-10.742,33.203,28.809,24.902,0
1581622529.461,-11.719,-16.113,22.949,-0.488,0
1581622529.465,3.418,-18.555,21.484,-5.859,0
1581622529.469,2.441,19.043,20.996,10.254,0
1581622529.473,-3.418,15.625,20.020,24.902,0
1581622529.477,-2.930,-72.266,21.973,10.254,0
1581622529.481,-6.348,-64.941,32.227,-6.836,0
1581622529.484,1.953,21.973,36.133,-2.930,0
1581622529.488,1.465,17.090,30.273,24.902,0
1581622529.492,-9.766,9.277,27.344,22.461,0
1581622529.496,12.207,-17.578,33.691,-5.859,0
1581622529.500,16.602,-9.766,37.598,14.160,0
1581622529.462,-6.348,-9.766,36.133,31.738,0
1581622529.466,-4.395,-20.996,30.273,23.926,0
1581622529.470,8.301,-15.625,32.715,5.371,0
1581622529.474,1.953,-11.719,38.574,-6.836,0
1581622529.478,-8.789,-17.578,38.086,15.137,0
1581622529.482,-9.277,-48.340,36.621,31.738,0
1581622529.486,-16.602,-41.016,30.762,8.789,0
1581622529.489,-1.465,23.926,32.227,-8.789,0
1581622529.493,12.695,-5.371,36.133,14.648,0
1581622529.497,6.836,-40.527,34.668,26.855,0
1581622529.501,10.742,-23.438,33.203,21.484,0
1581622529.505,9.766,-5.371,30.762,2.441,0
1581622529.467,-5.371,-12.695,28.809,-3.418,0
1581622529.471,1.465,-23.438,27.344,15.137,0
1581622529.475,10.254,12.695,30.273,14.160,0
1581622529.479,9.277,1.465,31.250,-5.859,0
1581622529.483,7.812,-32.227,24.414,3.418,0
1581622529.487,-2.930,-41.992,24.902,34.668,0
1581622529.491,2.441,-14.160,25.879,34.180,0
1581622529.494,17.090,34.668,26.855,11.230,0
1581622529.498,14.648,-54.688,31.738,7.324,0
1581622529.502,13.184,-85.449,26.855,25.879,0
1581622529.506,6.836,51.758,25.391,39.062,0
1581622529.510,-4.395,6.836,31.738,12.695,0
1581622529.472,7.812,-43.457,35.645,-18.555,0
1581622529.476,6.836,-50.781,37.598,4.395,0
1581622529.480,-0.488,-15.137,34.668,41.016,0
1581622529.484,20.996,11.230,31.738,32.227,0
1581622529.488,37.109,-32.227,28.809,4.883,0
1581622529.492,2.930,-34.180,24.414,5.371,0
1581622529.496,-23.438,-7.812,28.320,21.973,0
1581622529.499,-8.789,7.324,29.297,20.996,0
1581622529.503,4.395,-94.727,31.738,2.930,0
1581622529.507,9.766,-44.922,34.668,-4.395,0
1581622529.511,3.418,59.082,30.273,12.695,0
1581622529.515,-15.625,-8.789,30.762,15.137,0
1581622529.476,-8.301,-41.504,31.738,3.906,0
1581622529.480,16.602,-18.066,28.320,3.906,0
1581622529.484,10.254,3.418,22.461,17.578,0
1581622529.488,13.672,-32.715,20.020,22.461,0
1581622529.492,17.090,-69.824,22.461,18.066,0
1581622529.496,5.859,-54.199,26.855,3.418,0
1581622529.500,-0.488,-22.461,32.715,8.789,0
1581622529.503,0.000,-49.316,34.180,34.180,0
1581622529.507,14.160,-73.730,32.227,25.391,0
1581622529.511,22.949,-4.395,29.297,1.953,0
1581622529.515,15.625,4.883,26.855,-3.418,0
1581622529.519,2.930,-7.324,27.832,15.625,0
1581622529.480,6.836,-5.859,21.484,33.203,0
1581622529.484,12.695,12.695,17.090,13.184,0
1581622529.488,8.301,-12.207,21.973,-3.906,0
1581622529.492,-6.836,-3.418,28.320,16.602,0
1581622529.496,-21.484,-2.930,31.250,21.973,0
1581622529.500,-1.465,-48.828,31.250,5.371,0
1581622529.504,23.438,-15.137,32.715,1.953,0
1581622529.507,13.672,-62.988,37.109,16.113,0
1581622529.511,9.766,-35.645,41.992,30.273,0
1581622529.515,21.484,50.293,41.504,15.625,0
1581622529.519,11.719,-21.484,37.109,-2.930,0
1581622529.523,-14.160,-29.785,33.691,-10.742,0
1581622529.493,-5.859,22.461,30.273,5.371,0
1581622529.497,-8.789,10.742,24.902,18.555,0
1581622529.501,-20.020,-50.293,24.902,-8.301,0
1581622529.505,-7.324,-52.246,31.738,-8.301,0
1581622529.509,-10.254,-7.812,30.273,9.766,0
1581622529.513,1.953,-32.227,22.461,9.277,0
1581622529.517,11.230,-66.406,20.996,-1.953,0
1581622529.520,7.324,-54.688,29.297,-8.789,0
1581622529.524,22.949,46.875,33.203,13.672,0
1581622529.528,18.555,45.898,26.367,25.391,0
1581622529.532,-2.930,-21.484,20.508,8.301,0
1581622529.536,-18.066,-3.906,21.484,-10.254,0
1581622529.539,-12.695,18.555,23.926,-5.371,0
1581622529.543,17.090,12.695,25.391,31.250,0
1581622529.547,19.531,4.883,25.391,28.320,0
1581622529.551,13.672,-1.465,23.926,-1.953,0
1581622529.555,5.859,20.508,27.832,4.883,0
1581622529.559,-3.906,-6.836,28.320,27.832,0
1581622529.563,16.602,-69.824,26.367,26.367,0
1581622529.566,20.508,-0.977,23.438,-1.953,0
1581622529.570,15.625,76.172,21.973,-5.371,0
1581622529.574,11.719,24.414,22.461,21.484,0
1581622529.578,22.949,-14.160,19.043,24.902,0
1581622529.582,18.555,6.348,21.484,3.906,0
1581622529.598,14.160,16.113,28.809,0.000,0
1581622529.602,28.320,-32.227,31.250,21.484,0
1581622529.606,15.137,-10.254,27.344,35.645,0
1581622529.610,5.371,36.133,25.879,22.461,0
1581622529.614,22.461,5.859,25.879,10.742,0
1581622529.618,25.879,-86.914,21.484,16.602,0
1581622529.622,29.785,-81.543,23.926,30.762,0
1581622529.625,22.949,44.922,27.832,25.391,0
1581622529.629,11.719,37.598,21.973,2.441,0
1581622529.633,12.695,-25.879,19.043,7.812,0
1581622529.637,-0.977,-15.137,24.902,19.043,0
1581622529.641,7.812,23.438,26.855,19.531,0
1581622529.643,26.855,0.488,27.344,15.137,0
1581622529.647,15.137,-25.391,27.344,16.602,0
1581622529.651,18.555,-1.953,24.414,34.668,0
1581622529.655,28.809,4.395,27.832,35.645,0
1581622529.659,14.648,-27.832,31.738,22.461,0
1581622529.663,3.906,-28.809,27.832,15.137,0
1581622529.667,7.812,5.371,19.043,22.461,0
1581622529.670,13.672,41.992,16.602,24.414,0
1581622529.674,5.859,32.227,22.949,1.465,0
1581622529.678,16.602,-66.895,27.832,-0.977,0
1581622529.682,19.043,-14.160,29.785,15.625,0
1581622529.686,1.465,75.684,26.855,25.391,0
1581622529.688,8.301,-4.883,26.855,30.762,0
1581622529.692,18.555,-28.320,27.832,14.160,0
1581622529.696,13.672,25.391,26.367,15.625,0
1581622529.700,12.695,36.621,27.344,38.086,0
1581622529.704,24.414,-28.320,28.809,38.574,0
1581622529.708,22.949,-58.105,30.273,23.438,0
1581622529.712,26.367,-7.324,29.297,2.930,0
1581622529.715,14.648,34.668,28.320,15.625,0
1581622529.719,8.301,-19.531,29.297,30.273,0
1581622529.723,18.555,-48.828,29.785,10.742,0
1581622529.727,24.902,52.734,26.367,5.859,0
1581622529.731,17.578,49.316,25.391,20.020,0
1581622529.734,16.113,6.348,22.949,32.715,0
1581622529.738,29.297,-2.441,18.555,25.879,0
1581622529.742,20.020,-4.883,15.137,8.301,0
1581622529.746,3.418,-0.488,15.137,21.973,0
1581622529.750,-3.418,-5.859,18.555,18.555,0
1581622529.754,-4.883,-39.551,24.414,4.883,0
1581622529.758,0.488,-21.484,34.180,12.695,0
1581622529.761,16.602,24.902,37.109,3.418,0
1581622529.765,20.020,-38.086,38.574,20.508,0
1581622529.769,-0.488,-11.719,37.598,23.926,0
1581622529.773,-1.953,45.898,34.668,8.301,0
1581622529.777,13.184,12.695,35.645,7.812,0
1581622529.778,-5.371,-5.859,30.273,17.090,0
1581622529.782,2.441,7.812,23.926,19.043,0
1581622529.786,16.602,18.555,21.973,-0.488,0
1581622529.790,7.324,-25.879,16.113,-11.719,0
1581622529.794,18.066,-32.715,14.160,11.719,0
1581622529.798,10.254,-17.578,18.066,28.320,0
1581622529.802,7.812,-3.906,19.043,13.184,0
1581622529.805,15.137,-31.738,23.926,-20.508,0
1581622529.809,2.441,-56.152,32.227,-12.695,0
1581622529.813,0.000,47.852,35.156,19.043,0
1581622529.817,8.789,52.246,34.668,10.254,0
1581622529.821,-9.766,4.883,26.855,-19.531,0
1581622529.823,-18.555,0.977,25.391,-15.625,0
1581622529.827,-5.371,-2.441,26.855,14.648,0
1581622529.831,-7.812,18.555,23.926,26.367,0
1581622529.835,0.977,14.648,22.461,5.859,0
1581622529.839,-7.812,-12.207,23.438,-18.555,0
1581622529.843,-18.555,-25.879,22.461,-11.719,0
1581622529.847,-3.418,10.742,22.461,8.789,0
1581622529.850,4.883,-31.738,24.902,-0.977,0
1581622529.854,5.371,-15.625,24.902,-24.902,0
1581622529.858,16.602,65.918,34.180,3.418,0
1581622529.862,24.902,28.320,34.668,43.457,0
1581622529.866,23.438,32.715,22.461,25.391,0
1581622529.867,12.207,47.852,25.391,-18.066,0
1581622529.871,-0.488,50.293,30.273,-18.066,0
1581622529.875,12.207,24.414,24.414,7.812,0
1581622529.879,20.508,-24.414,18.066,4.395,0
1581622529.883,4.395,-0.977,17.090,-8.301,0
1581622529.887,5.371,10.254,21.484,-10.742,0
1581622529.891,12.207,-33.691,24.414,-12.207,0
1581622529.894,7.324,-18.066,27.344,0.977,0
1581622529.898,8.789,56.641,27.344,0.977,0
1581622529.902,-4.883,23.438,25.391,1.465,0
1581622529.906,-8.301,-36.621,24.902,16.602,0
1581622529.910,21.484,13.184,22.461,27.832,0
1581622529.912,20.508,55.176,22.949,17.578,0
1581622529.916,4.883,3.906,22.461,-14.160,0
1581622529.920,13.672,-23.438,16.602,-3.906,0
1581622529.924,27.832,7.324,16.113,26.367,0
1581622529.928,18.555,10.254,25.391,21.973,0
1581622529.932,4.883,-27.344,24.414,-4.395,0
1581622529.936,0.977,-88.379,22.949,-3.418,0
1581622529.939,3.906,-26.855,24.414,20.020,0
1581622529.943,-7.812,69.824,22.461,19.531,0
1581622529.947,-5.859,28.320,25.879,-3.906,0
1581622529.951,-1.953,8.301,24.414,-12.695,0
1581622529.955,-14.160,28.809,23.926,2.441,0
1581622529.958,6.348,27.344,20.996,15.137,0
1581622529.962,10.254,-8.301,17.090,-1.465,0
1581622529.966,11.230,-20.996,20.996,-20.020,0
1581622529.970,33.203,21.973,22.949,7.812,0
1581622529.974,22.461,39.551,29.297,27.344,0
1581622529.978,13.184,-43.457,32.715,9.766,25700
1581622529.982,20.996,-57.617,28.809,-3.906,0
1581622529.985,28.320,49.805,27.832,12.207,0
1581622529.989,26.367,61.523,25.391,34.668,0
1581622529.993,12.695,-14.648,23.926,27.344,0
1581622529.997,-4.883,-11.719,22.949,1.465,0
1581622530.001,0.000,42.480,23.926,1.953,0
1581622530.018,8.301,24.414,22.949,19.043,0
1581622530.022,11.230,17.090,20.508,20.996,0
1581622530.026,23.438,10.254,23.926,19.043,0
1581622530.030,26.855,6.836,25.879,17.090,0
1581622530.034,29.297,-7.812,27.832,29.297,0
1581622530.038,31.250,-47.363,33.203,43.457,0
1581622530.042,20.508,-5.371,35.156,28.809,0
1581622530.045,12.207,33.691,33.203,3.906,0
1581622530.049,14.648,8.301,34.180,20.996,0
1581622530.053,27.344,-19.043,34.668,31.738,0
1581622530.057,29.297,0.488,28.320,15.137,0
1581622530.061,22.461,40.039,26.855,7.812,0
1581622530.062,12.207,-1.465,27.832,16.113,0
1581622530.066,-1.465,-33.691,22.949,32.715,0
1581622530.070,4.883,24.902,18.555,21.484,0
1581622530.074,3.418,17.090,17.578,-7.812,0
1581622530.078,-6.836,-54.199,20.508,-9.766,0
1581622530.082,-5.371,-77.148,20.996,11.230,0
1581622530.086,19.531,-25.879,21.484,28.809,0
1581622530.089,22.461,2.930,21.484,3.418,0
1581622530.093,12.207,-127.930,26.367,-9.766,0
1581622530.097,9.766,-182.129,33.691,20.508,0
1581622530.101,15.625,-97.168,31.738,26.367,0
1581622530.105,15.137,-208.008,22.461,14.160,0
1581622530.108,18.066,-443.359,17.090,7.324,0
1581622530.112,16.113,-609.375,22.949,12.695,0
1581622530.116,6.836,-645.996,26.367,29.297,0
1581622530.120,17.090,-733.398,26.367,26.855,0
1581622530.124,22.949,-770.508,25.879,10.254,0
1581622530.128,16.113,-656.250,25.879,8.301,0
1581622530.132,20.020,-556.152,23.926,20.020,0
1581622530.135,14.160,-416.992,28.320,20.020,0
1581622530.139,11.230,-413.574,33.203,6.348,0
1581622530.143,9.277,-277.344,34.180,5.859,0
1581622530.147,0.488,-62.500,30.273,25.391,0
1581622530.151,8.301,-85.449,25.879,35.645,0
1581622530.153,7.324,-72.266,25.879,6.348,0
1581622530.157,1.465,15.625,30.762,-5.859,0
1581622530.161,2.930,86.426,31.738,14.160,0
1581622530.165,10.254,110.352,27.344,20.996,0
1581622530.169,15.625,115.723,32.227,13.184,0
1581622530.173,10.742,165.039,35.645,-1.953,0
1581622530.177,12.207,227.051,31.738,-3.418,0
1581622530.180,12.207,243.164,30.273,23.926,0
1581622530.184,18.555,301.270,31.738,32.227,0
1581622530.188,16.602,446.289,28.809,17.090,0
1581622530.192,8.301,439.941,22.949,6.348,0
1581622530.196,9.277,386.719,25.879,23.438,0
1581622530.198,12.207,416.016,32.715,31.250,0
1581622530.202,19.043,459.473,31.250,7.812,0
1581622530.206,16.602,442.383,25.391,-8.301,0
1581622530.210,10.254,430.664,22.461,6.348,0
1581622530.214,13.672,435.547,23.926,24.902,0
1581622530.218,5.859,399.414,25.391,9.766,0
1581622530.222,3.418,420.410,27.344,-9.277,0
1581622530.225,13.184,382.324,29.297,-0.488,0
1581622530.229,0.000,399.902,27.832,6.348,0
1581622530.233,-13.672,471.191,22.461,-5.859,0
1581622530.237,-10.254,423.340,19.043,-15.137,0
1581622530.241,-9.766,405.273,20.508,-9.766,0
1581622530.243,-20.996,433.594,22.461,-0.977,0
1581622530.247,-22.461,435.059,26.855,-2.441,0
1581622530.251,-9.766,375.488,32.715,-24.414,0
1581622530.255,-12.695,352.539,37.598,-24.902,0
1581622530.259,-11.719,379.883,35.156,9.766,0
1581622530.263,10.254,371.582,27.832,25.879,0
1581622530.267,15.137,341.797,28.809,6.348,0
1581622530.270,6.348,338.867,27.832,-0.488,0
1581622530.274,8.301,435.059,23.926,20.996,0
1581622530.278,10.742,406.738,27.832,29.785,0
1581622530.282,5.371,331.543,31.738,15.625,0
1581622530.286,12.695,333.008,27.832,-12.695,0
1581622530.288,16.113,319.824,26.367,11.230,0
1581622530.292,2.441,343.262,33.203,39.062,0
1581622530.296,-4.395,321.289,28.320,1.465,0
1581622530.300,15.625,317.383,21.484,-10.742,0
1581622530.304,27.832,351.562,27.344,1.953,0
1581622530.308,7.812,293.457,29.297,7.324,0
1581622530.312,-4.883,222.168,27.832,-4.395,0
1581622530.315,5.859,263.672,31.250,-23.926,0
1581622530.319,4.883,324.707,32.715,-15.137,0
1581622530.323,-17.090,285.645,31.250,2.930,0
1581622530.327,-7.812,270.996,32.715,7.324,0
1581622530.331,-0.488,294.922,32.715,-1.953,0
1581622530.333,-1.465,293.945,35.645,-6.348,0
1581622530.337,22.461,247.070,36.133,17.090,0
1581622530.341,21.973,227.051,27.344,21.973,0
1581622530.345,4.395,262.695,20.996,-2.930,0
1581622530.349,9.277,263.184,20.020,-12.695,0
1581622530.353,6.348,190.918,21.973,13.672,0
1581622530.357,-4.883,204.102,27.344,33.203,0
1581622530.360,2.930,305.176,32.227,17.578,0
1581622530.364,7.812,278.320,36.621,-2.930,0
1581622530.368,4.883,216.309,38.086,6.836,0
1581622530.372,-7.324,217.773,37.598,28.809,0
1581622530.376,-10.254,234.375,37.598,24.414,0
1581622530.393,7.324,202.148,29.297,-3.906,0
1581622530.397,16.602,156.738,28.320,-2.441,0
1581622530.401,14.648,172.363,36.133,29.297,0
1581622530.405,10.254,195.312,38.574,38.574,0
1581622530.409,11.719,161.133,35.156,16.113,0
1581622530.413,5.371,155.273,31.738,-13.184,0
1581622530.417,-8.301,151.855,38.574,10.254,0
1581622530.420,-6.836,176.758,39.062,30.762,0
1581622530.424,0.977,191.895,27.832,-5.859,0
1581622530.428,-5.859,89.355,23.926,-19.531,0
1581622530.432,-11.719,123.047,27.344,-2.930,0
1581622530.436,-3.418,184.570,28.809,11.719,0
1581622530.438,5.859,120.605,26.855,7.324,0
1581622530.442,-0.977,86.914,25.879,-12.207,0
1581622530.446,-1.465,105.957,27.344,-7.812,0
1581622530.450,8.789,106.934,30.273,10.742,0
1581622530.454,-1.465,52.246,32.227,11.230,0
1581622530.458,3.906,7.812,31.250,3.906,0
1581622530.462,4.395,44.922,28.809,-0.488,0
1581622530.465,-6.836,101.562,32.227,12.207,0
1581622530.469,10.742,28.320,33.691,17.578,0
1581622530.473,20.996,-11.230,24.902,4.883,0
1581622530.477,11.719,108.398,21.973,0.977,0
1581622530.481,6.836,76.660,25.391,25.391,0
1581622530.483,6.836,26.855,27.344,34.668,0
1581622530.487,0.488,66.406,23.926,19.043,0
1581622530.491,-2.441,69.336,20.996,7.324,0
1581622530.495,6.348,36.621,25.391,18.066,0
1581622530.499,17.090,26.855,28.809,30.273,0
1581622530.503,18.555,32.227,30.273,17.090,0
1581622530.507,9.766,21.973,28.809,-6.836,0
1581622530.510,-0.977,41.992,25.879,0.488,0
1581622530.514,-0.977,-12.207,26.367,33.691,0
1581622530.518,4.883,25.391,31.250,38.574,0
1581622530.522,18.555,86.426,34.180,7.812,0
1581622530.526,16.113,17.578,35.645,-8.789,0
1581622530.529,12.695,4.883,30.762,16.113,0
1581622530.533,17.578,48.340,27.344,30.273,0
1581622530.537,12.207,33.691,31.738,8.301,0
1581622530.541,5.371,-14.648,34.180,-2.441,0
1581622530.545,2.441,-7.324,35.156,17.578,0
1581622530.549,-7.812,-1.465,34.668,18.555,0
1581622530.553,-8.789,18.555,30.762,6.836,0
1581622530.556,0.000,-20.508,29.297,-7.812,0
1581622530.560,5.371,-39.551,26.367,-2.930,0
1581622530.564,-5.371,62.500,26.367,11.230,0
1581622530.568,-7.812,55.664,27.344,17.090,0
1581622530.572,10.254,2.441,26.855,7.324,0
1581622530.574,9.766,11.230,27.344,-2.930,0
1581622530.578,14.160,69.824,24.902,11.230,0
1581622530.582,6.348,8.301,28.320,20.020,0
1581622530.586,-5.859,-38.574,30.273,10.742,0
1581622530.590,5.371,3.418,29.785,3.418,0
1581622530.594,18.555,-14.160,27.344,18.555,0
1581622530.598,12.695,29.785,26.855,23.438,0
1581622530.601,10.254,-27.832,30.273,7.812,0
1581622530.605,9.766,-32.715,31.250,-0.488,0
1581622530.609,0.488,56.152,28.320,11.230,0
1581622530.613,-5.371,20.020,28.320,32.227,0
1581622530.617,14.160,5.859,30.762,27.832,0
1581622530.619,21.484,16.113,22.461,0.488,0
1581622530.623,34.668,37.109,16.113,-1.953,0
1581622530.627,21.484,4.883,19.043,23.438,0
1581622530.631,5.371,0.000,19.531,38.574,0
1581622530.635,21.973,28.809,21.484,31.250,0
1581622530.639,21.484,7.324,22.949,17.578,0
1581622530.643,12.207,-38.086,20.020,30.273,0
1581622530.646,13.672,-34.668,22.949,41.504,0
1581622530.650,16.602,60.059,20.508,21.484,0
1581622530.654,14.160,57.617,15.137,7.812,0
1581622530.658,15.137,-11.719,22.461,24.902,0
1581622530.662,21.484,-5.859,29.785,42.480,0
1581622530.664,25.879,36.133,27.832,31.738,0
1581622530.668,24.414,4.883,25.391,15.137,0
1581622530.672,15.137,-11.230,26.855,20.508,0
1581622530.676,-1.465,24.902,24.414,26.855,0
1581622530.680,9.277,20.020,26.367,18.555,0
1581622530.684,15.625,-52.246,27.344,1.465,0
1581622530.688,3.906,-106.934,26.367,1.953,0
1581622530.691,7.324,-16.602,26.367,27.344,0
1581622530.695,20.020,43.457,26.367,33.691,0
1581622530.699,12.695,-8.789,27.832,7.812,0
1581622530.703,-6.348,-17.090,29.297,-1.465,0
1581622530.707,25.879,-4.883,31.738,22.949,0
1581622530.709,41.016,30.762,29.297,32.227,0
1581622530.713,6.348,3.418,23.926,10.742,0
1581622530.717,-4.883,-23.926,23.926,1.465,0
1581622530.721,14.648,30.762,24.902,17.578,0
1581622530.725,17.090,23.438,21.484,30.273,0
1581622530.729,18.066,-70.312,19.531,27.832,0
1581622530.733,20.996,-66.406,21.484,5.371,0
1581622530.736,7.324,53.223,28.320,8.789,0
1581622530.740,9.766,53.223,38.574,32.715,0
1581622530.744,7.324,-2.930,37.109,23.438,0
1581622530.748,5.859,5.371,35.156,-2.930,0
1581622530.752,11.230,5.859,35.645,2.441,0
1581622530.768,3.418,0.977,33.691,29.785,0
1581622530.772,-2.930,1.465,29.297,23.926,0
1581622530.776,11.230,-4.883,29.785,2.441,0
1581622530.780,16.113,32.227,30.762,-8.301,0
1581622530.784,3.418,31.738,28.809,4.395,0
1581622530.788,0.000,-28.320,30.273,14.160,0
1581622530.792,2.930,-1.465,30.273,1.465,0
1581622530.795,10.742,43.945,34.180,4.395,0
1581622530.799,-0.488,17.090,35.645,15.625,0
1581622530.803,-0.977,-20.020,32.227,20.996,0
1581622530.807,30.273,38.574,32.227,25.391,0
1581622530.811,29.785,75.684,32.227,7.324,0
1581622530.813,16.113,7.324,32.715,1.465,0
1581622530.817,3.906,2.930,32.227,28.809,0
1581622530.821,5.859,7.324,29.785,29.785,0
1581622530.825,17.578,3.906,26.367,12.207,0
1581622530.829,12.695,6.348,22.949,-1.465,0
1581622530.833,3.906,-14.160,23.926,12.207,0
1581622530.837,3.418,3.906,29.785,22.949,0
1581622530.840,7.812,38.086,28.809,0.488,0
1581622530.844,8.789,-27.344,22.949,-14.160,0
1581622530.848,4.395,-70.801,20.996,0.488,0
1581622530.852,5.859,39.062,24.414,9.766,0
1581622530.856,13.184,33.203,27.832,-7.324,0
1581622530.858,20.508,4.395,24.414,-0.488,0
1581622530.862,18.555,26.855,20.508,19.043,0
1581622530.866,18.555,28.320,23.926,30.273,0
1581622530.870,24.902,15.137,23.438,29.785,0
1581622530.874,24.902,0.000,20.020,6.348,0
1581622530.878,16.113,-31.738,25.879,1.465,0
1581622530.882,-2.441,-27.344,28.320,29.297,0
1581622530.885,-16.113,20.020,29.297,20.996,0
1581622530.889,-8.789,-26.367,34.668,-7.812,0
1581622530.893,0.000,-14.160,39.062,-17.090,0
1581622530.897,4.883,71.777,34.668,-8.789,0
1581622530.901,13.184,19.531,26.367,24.414,0
1581622530.902,16.602,-3.418,24.414,24.414,0
1581622530.906,7.812,15.625,24.414,-3.906,0
1581622530.910,-0.488,18.555,19.043,2.930,0
1581622530.914,0.488,-3.906,19.043,18.555,0
1581622530.918,7.812,-14.160,24.414,11.230,0
1581622530.922,-0.977,-41.992,28.320,-3.906,0
1581622530.926,2.930,-8.789,31.738,6.836,0
1581622530.929,1.465,-4.395,31.250,23.926,0
1581622530.933,9.277,-58.105,28.809,15.137,0
1581622530.937,40.039,33.203,26.367,-7.812,0
1581622530.941,36.621,41.016,23.438,5.371,0
1581622530.945,13.184,1.953,23.926,34.668,0
1581622530.947,6.348,15.625,23.438,23.926,0
1581622530.951,10.742,26.367,22.461,-7.324,0
1581622530.955,7.324,-3.906,21.484,-16.113,0
1581622530.959,4.883,-15.625,24.902,2.930,0
1581622530.963,0.977,-4.395,24.902,19.531,0
1581622530.967,10.742,-15.137,19.531,7.324,0
1581622530.971,-2.930,2.930,22.949,-28.320,0
1581622530.974,-20.996,-40.527,28.809,-12.207,0
1581622530.978,-2.441,-29.297,27.344,28.809,0
1581622530.982,12.695,59.570,21.973,19.531,0
1581622530.986,30.762,20.020,24.902,-1.953,0
1581622530.990,12.695,-3.906,27.344,9.766,0
1581622530.993,-7.812,22.461,26.367,31.738,0
1581622530.997,12.207,31.250,30.273,23.926,0
1581622531.001,21.484,-21.484,31.250,2.930,0
1581622531.005,1.953,-34.668,29.785,-5.859,0
1581622531.009,-3.418,8.301,24.902,14.160,0
1581622531.013,7.812,3.418,20.508,15.625,0
1581622531.017,-5.859,-52.246,20.996,-8.789,0
1581622531.020,-9.766,-58.594,26.855,-9.277,0
1581622531.024,10.254,64.941,26.367,13.184,0
1581622531.028,17.578,54.688,25.879,28.809,28030
1581622531.032,20.996,-16.113,30.762,17.578,0
1581622531.036,22.949,-19.531,29.297,0.000,0
1581622531.037,14.648,18.066,27.344,10.742,0
1581622531.041,17.090,5.859,28.809,35.645,0
1581622531.045,26.367,-38.086,25.391,31.250,0
1581622531.049,12.207,-24.414,24.902,7.324,0
1581622531.053,0.000,-6.836,32.715,16.602,0
1581622531.057,-12.207,-42.969,33.691,18.066,0
1581622531.061,-4.395,-95.215,27.832,-1.953,0
1581622531.064,34.180,-33.203,24.902,-1.465,0
1581622531.068,38.574,59.570,28.320,14.160,0
1581622531.072,26.855,25.879,30.762,32.715,0
1581622531.076,19.043,-14.160,33.691,40.039,0
1581622531.080,24.902,-5.859,33.691,19.531,0
1581622531.082,16.113,1.465,27.832,3.418,0
1581622531.086,6.836,-20.996,24.902,21.484,0
1581622531.090,-3.906,-24.414,27.832,34.180,0
1581622531.094,-7.324,6.348,34.668,12.695,0
1581622531.098,-0.488,0.488,31.738,-21.973,0
1581622531.102,0.977,-69.824,23.926,3.418,0
1581622531.106,18.555,-82.031,24.414,32.715,0
1581622531.109,35.156,28.809,31.250,20.020,0
1581622531.113,27.344,28.320,35.645,17.090,0
1581622531.117,24.902,-33.691,30.273,13.184,0
1581622531.121,29.785,-37.109,26.367,23.926,0
1581622531.125,16.113,-2.441,29.785,34.180,0
1581622531.142,14.648,-14.160,30.762,16.602,0
1581622531.146,6.836,-30.273,32.227,6.348,0
1581622531.150,-7.812,2.930,34.668,19.531,0
1581622531.154,-0.488,7.812,32.227,20.508,0
1581622531.158,21.973,-20.508,23.926,0.977,0
1581622531.162,21.973,-59.082,20.508,3.418,0
1581622531.166,3.906,-11.719,22.949,20.020,0
1581622531.169,1.465,27.832,20.020,32.227,0
1581622531.173,13.184,-30.273,23.926,25.879,0
1581622531.177,24.902,-62.012,28.809,11.719,0
1581622531.181,5.859,5.371,28.320,18.555,0
1581622531.185,2.441,55.176,32.227,42.969,0
1581622531.188,18.066,-14.648,34.668,35.645,0
1581622531.192,6.348,-27.344,36.621,8.301,0
1581622531.196,1.953,18.555,38.086,3.906,0
1581622531.200,5.371,12.207,29.297,31.250,0
1581622531.204,4.395,-33.203,26.855,50.781,0
1581622531.208,8.301,-64.941,22.949,20.020,0
1581622531.212,22.949,-36.133,15.625,-3.906,0
1581622531.215,18.555,42.480,21.973,14.160,0
1581622531.219,20.508,-32.715,33.691,34.668,0
1581622531.223,18.555,-72.266,36.621,19.531,0
1581622531.227,13.184,22.461,30.273,-2.930,0
1581622531.231,11.719,8.789,28.320,7.324,0
1581622531.233,1.953,1.953,26.855,23.926,0
1581622531.237,4.883,9.766,27.832,14.648,0
1581622531.241,2.930,1.953,29.785,-12.207,0
1581622531.245,25.391,-20.020,23.926,-1.953,0
1581622531.249,38.574,-28.809,19.043,43.457,0
1581622531.253,22.461,-41.016,19.531,35.156,0
1581622531.257,12.207,-30.273,26.367,1.465,0
1581622531.260,14.160,-0.977,29.785,4.883,0
1581622531.264,10.254,-52.734,30.273,26.367,0
1581622531.268,9.766,-14.160,30.273,29.785,0
1581622531.272,6.836,70.312,23.438,7.812,0
1581622531.276,10.254,-8.301,20.996,-5.859,0
1581622531.293,16.113,-24.414,24.902,19.043,0
1581622531.297,4.395,-16.602,23.926,34.180,0
1581622531.301,-13.184,-14.160,23.926,9.766,0
1581622531.305,1.953,-15.625,25.391,2.441,0
1581622531.309,26.367,-41.016,23.438,21.484,0
1581622531.313,11.230,-32.715,26.855,36.621,0
1581622531.317,10.254,-0.977,29.297,23.926,0
1581622531.320,2.930,-44.434,25.879,0.977,0
1581622531.324,-10.254,-67.871,25.391,0.000,0
1581622531.328,11.230,47.852,22.949,18.066,0
1581622531.332,11.719,38.086,23.926,19.043,0
1581622531.336,1.953,-18.555,26.367,-7.812,0
1581622531.323,1.465,-16.113,24.414,-3.418,0
1581622531.327,3.906,4.883,23.438,13.672,0
1581622531.331,17.578,19.531,28.320,14.160,0
1581622531.335,11.719,8.301,30.762,12.695,0
1581622531.339,-3.418,-35.645,27.832,1.465,0
1581622531.343,-1.465,-8.789,26.367,13.672,0
1581622531.347,-1.465,17.090,23.926,27.344,0
1581622531.350,-6.348,9.766,22.949,11.719,0
1581622531.354,-0.488,27.832,17.578,-7.812,0
1581622531.358,7.324,40.527,15.137,3.906,0
1581622531.362,17.090,19.043,26.367,29.297,0
1581622531.366,23.926,-65.430,32.227,26.367,0
1581622531.368,2.930,-7.324,27.832,-4.883,0
1581622531.372,-1.465,42.969,26.367,-5.859,0
1581622531.376,5.371,-13.672,25.391,22.461,0
1581622531.380,8.789,-5.371,25.391,29.785,0
1581622531.384,13.184,-2.930,28.320,11.230,0
1581622531.388,8.301,-31.738,26.855,3.906,0
1581622531.392,-3.418,-52.246,24.902,21.973,0
1581622531.395,1.953,-40.527,21.973,29.297,0
1581622531.399,13.184,44.922,20.020,4.395,0
1581622531.403,4.395,40.527,20.020,-7.812,0
1581622531.407,2.441,-22.949,23.438,8.301,0
1581622531.411,8.301,-11.719,22.949,18.066,0
1581622531.413,0.977,12.207,18.555,8.301,0
1581622531.417,-5.859,1.465,16.113,-5.371,0
1581622531.421,2.930,-19.531,20.996,1.953,0
1581622531.425,0.000,2.441,24.902,24.902,0
1581622531.429,4.883,18.066,23.438,30.273,0
1581622531.433,12.695,-36.621,23.438,0.488,0
1581622531.437,-5.859,-91.309,17.090,-13.184,0
1581622531.440,-9.277,-17.578,16.113,9.766,0
1581622531.444,16.602,59.082,22.949,18.066,0
1581622531.448,20.020,1.465,22.461,-0.977,0
1581622531.452,6.348,-41.016,22.461,0.000,0
1581622531.456,-0.488,-5.859,28.809,16.602,0
1581622531.458,1.465,49.316,29.785,18.555,0
1581622531.462,6.348,2.930,29.785,4.395,0
1581622531.466,6.836,-13.672,31.738,0.000,0
1581622531.470,4.395,41.992,31.250,13.672,0
1581622531.474,7.812,52.734,29.785,20.020,0
1581622531.478,11.230,-20.020,27.344,17.578,0
1581622531.482,-1.465,-35.156,26.855,1.465,0
1581622531.485,-5.859,38.086,25.879,-3.418,0
1581622531.489,10.254,46.387,26.855,22.949,0
1581622531.493,16.113,-36.621,31.250,31.738,0
1581622531.497,7.812,-52.246,32.227,-4.883,0
1581622531.501,1.465,39.551,28.809,-14.648,0
1581622531.518,5.371,16.113,25.879,8.789,0
1581622531.522,0.977,-11.719,27.832,15.625,0
1581622531.526,-4.883,-3.418,25.879,2.441,0
1581622531.530,-10.254,0.488,24.414,-19.043,0
1581622531.534,-11.719,3.418,23.438,4.883,0
1581622531.538,-3.906,-28.320,22.949,12.695,0
1581622531.542,-5.859,-10.742,30.273,-18.066,0
1581622531.545,-4.883,30.762,33.691,-20.996,0
1581622531.549,2.441,26.855,28.320,3.418,0
1581622531.553,-3.906,-43.945,25.879,19.043,0
1581622531.557,-5.371,-20.020,26.367,5.371,0
1581622531.561,-1.953,44.922,28.320,-14.648,0
1581622531.563,-2.930,10.742,25.879,-6.348,0
1581622531.567,-6.836,5.371,25.391,15.625,0
1581622531.571,-15.625,10.254,25.391,3.906,0
1581622531.575,-10.254,30.273,23.926,-20.996,0
1581622531.579,-2.930,-12.695,26.855,-17.090,0
1581622531.583,-5.371,-30.762,25.391,13.672,0
1581622531.587,-11.230,11.719,26.367,17.578,0
1581622531.590,-9.766,31.738,25.879,-3.906,0
1581622531.594,-5.371,-22.461,22.461,-15.625,0
1581622531.598,-9.277,-56.152,21.973,-9.766,0
1581622531.602,-8.789,55.176,23.926,14.648,0
1581622531.606,9.766,30.762,25.391,12.207,0
1581622531.608,-0.977,-23.438,22.949,-16.113,0
1581622531.612,-2.441,8.789,23.438,-8.789,0
1581622531.616,4.883,30.273,28.320,21.484,0
1581622531.620,-1.465,16.113,31.738,21.973,0
1581622531.624,3.418,-23.926,27.344,-1.465,0
1581622531.628,5.371,-40.039,24.902,-1.953,0
1581622531.632,-4.395,-7.324,26.367,20.020,0
1581622531.635,-1.953,-2.930,30.273,26.855,0
1581622531.639,14.648,-65.430,28.320,-1.953,0
1581622531.643,25.879,-14.648,24.902,-14.160,0
1581622531.647,16.113,57.129,30.273,17.578,0
1581622531.651,-1.465,16.113,24.902,22.461,0
1581622531.653,-6.348,0.000,20.020,-2.441,0
1581622531.657,-6.836,16.602,21.973,-18.555,0
1581622531.661,3.906,10.742,19.531,-2.441,0
1581622531.665,3.906,-33.691,21.484,24.902,0
1581622531.669,-0.488,-41.504,28.320,18.555,0
1581622531.673,-1.465,-32.227,30.273,-5.859,0
1581622531.677,14.648,-12.207,25.391,5.859,0
1581622531.680,26.367,-10.254,21.973,31.250,0
1581622531.684,20.996,-23.438,21.484,27.344,0
1581622531.688,19.531,43.457,22.461,5.371,0
1581622531.692,15.625,31.250,22.461,3.418,0
1581622531.696,12.695,18.066,23.438,28.809,0
1581622531.699,23.438,35.645,24.902,31.250,0
1581622531.703,16.113,27.832,24.902,4.395,0
1581622531.707,14.648,-4.883,27.832,-0.977,0
1581622531.711,20.020,-5.859,28.809,27.832,0
1581622531.715,9.277,0.977,27.344,38.574,0
1581622531.719,-3.418,-26.855,27.344,10.254,0
1581622531.723,3.418,-18.555,25.391,-8.301,0
1581622531.726,13.184,-56.641,23.438,0.000,0
1581622531.730,8.789,-18.066,24.902,16.113,0
1581622531.734,3.906,52.246,28.809,18.555,0
1581622531.738,6.348,-7.812,26.367,-5.371,0
1581622531.742,3.906,-16.602,19.531,-1.953,0
1581622531.743,9.766,22.461,20.020,19.043,0
1581622531.747,16.113,32.227,25.879,19.043,0
1581622531.751,15.137,6.836,29.297,6.836,0
1581622531.755,15.625,-7.324,25.391,0.488,0
1581622531.759,20.508,-5.859,29.297,17.578,0
1581622531.763,19.531,-13.672,31.738,19.043,0
1581622531.767,8.789,-33.691,28.809,-11.230,0
1581622531.770,1.465,-24.902,26.367,-20.996,0
1581622531.774,4.395,68.359,25.391,8.789,0
1581622531.778,17.090,77.637,26.367,33.203,0
1581622531.782,22.461,9.277,29.785,24.902,0
1581622531.786,31.738,7.324,32.227,0.000,0
1581622531.788,26.855,53.223,30.273,15.625,0
1581622531.792,15.137,46.875,27.344,34.668,0
1581622531.796,12.207,11.719,26.855,23.926,0
1581622531.800,10.742,18.555,23.926,9.277,0
1581622531.804,13.672,24.414,17.090,7.812,0
1581622531.808,26.855,8.789,20.508,33.691,0
1581622531.812,28.320,-39.062,27.832,31.738,0
1581622531.815,13.672,-12.695,24.414,6.836,0
1581622531.819,12.207,70.312,23.438,6.836,0
1581622531.823,21.484,45.410,23.438,29.785,0
1581622531.827,19.043,23.926,27.344,34.180,0
1581622531.831,13.672,34.668,31.738,14.648,0
1581622531.834,16.602,29.297,26.855,1.953,0
1581622531.838,6.348,-18.066,26.367,5.371,0
1581622531.842,3.418,-20.996,29.297,21.973,0
1581622531.846,14.160,30.762,28.320,13.672,0
1581622531.850,0.977,10.254,26.855,-11.230,0
1581622531.854,8.301,-60.059,27.344,-8.301,0
1581622531.858,29.297,-68.359,28.809,7.812,0
1581622531.861,26.855,36.621,23.926,14.160,0
1581622531.865,9.277,70.312,21.484,-0.977,0
1581622531.869,4.395,-1.465,19.531,0.977,0
1581622531.873,2.930,11.230,18.066,21.484,0
1581622531.877,4.883,32.715,21.973,28.809,0
1581622531.893,7.324,-8.789,27.832,8.789,0
1581622531.897,1.465,-29.785,34.668,-3.418,0
1581622531.901,-4.395,-9.766,34.180,18.066,0
1581622531.905,-5.859,25.391,31.738,26.367,0
1581622531.909,-2.930,-7.812,27.832,5.371,0
1581622531.913,10.742,-40.527,22.949,-12.207,0
1581622531.917,16.113,-0.977,22.461,-1.953,0
1581622531.920,10.254,40.039,19.043,25.391,0
1581622531.924,18.555,13.672,17.090,14.160,0
1581622531.928,12.207,-74.219,22.461,-7.324,0
1581622531.932,8.301,-25.391,21.484,11.719,0
1581622531.936,14.160,56.152,24.414,35.156,0
1581622531.939,8.789,5.371,27.832,33.203,0
1581622531.943,10.254,-16.602,27.344,4.395,0
1581622531.947,7.324,14.160,26.367,-9.277,0
1581622531.951,0.000,20.996,23.926,19.043,0
1581622531.955,4.883,-10.742,26.367,28.809,0
1581622531.959,13.184,-41.504,28.809,12.207,0
1581622531.963,8.301,-11.230,30.762,5.371,0
1581622531.966,5.859,41.504,29.297,24.414,0
1581622531.970,7.324,-34.668,25.391,39.551,0
1581622531.974,8.789,-77.148,29.785,16.602,0
1581622531.978,6.836,27.832,32.227,-2.441,0
1581622531.982,4.395,46.875,30.273,4.883,0
1581622531.983,-5.371,-7.324,25.879,15.137,0
1581622531.987,-5.371,-11.719,19.043,15.625,0
1581622531.991,11.230,27.832,25.879,3.906,0
1581622531.995,5.859,24.902,32.715,11.230,0
1581622531.999,0.000,-7.812,30.273,30.273,0
1581622532.003,4.883,-14.160,28.809,20.508,0
1581622532.007,15.625,0.977,25.879,-8.301,0
1581622532.010,23.926,17.578,24.414,-5.859,0
1581622532.014,20.508,-28.320,27.344,17.090,0
1581622532.018,24.414,-11.719,27.344,20.020,0
1581622532.022,16.113,46.387,28.809,2.441,0
1581622532.026,3.418,-7.812,30.762,-7.812,0
1581622532.028,1.953,-20.508,26.367,0.488,0
1581622532.032,2.441,21.973,26.855,18.555,0
1581622532.036,19.043,23.438,25.879,19.043,0
1581622532.040,18.555,-26.855,22.949,0.977,0
1581622532.044,9.277,-32.227,25.879,12.207,0
1581622532.048,9.766,-15.625,26.367,29.297,0
1581622532.052,3.906,-7.324,24.902,17.090,0
1581622532.055,0.977,-31.250,25.879,-3.906,0
1581622532.059,7.324,-35.156,22.949,0.000,0
1581622532.063,-2.441,59.082,21.484,21.484,0
1581622532.067,-4.395,58.594,22.949,17.578,0
1581622532.071,4.883,0.977,16.113,-1.465,0
1581622532.073,14.160,9.766,15.137,-6.348,0
1581622532.077,18.066,33.203,19.043,12.695,0
1581622532.081,14.648,25.879,18.555,19.531,0
1581622532.085,21.484,-1.465,20.996,-1.465,0
1581622532.089,17.090,0.488,25.391,-5.859,0
1581622532.093,3.906,-1.465,22.461,17.578,0
1581622532.097,13.672,-11.230,20.996,22.949,0
1581622532.100,25.391,-47.852,23.438,4.395,0
1581622532.104,10.254,0.000,24.414,-14.160,0
1581622532.108,-1.953,69.336,25.879,-2.930,0
1581622532.112,13.184,29.297,29.785,28.809,0
1581622532.116,15.625,14.648,27.832,23.438,0
1581622532.118,11.719,14.648,23.926,-3.418,0
1581622532.122,16.113,25.879,24.414,2.441,0
1581622532.126,18.555,0.977,23.438,23.926,0
1581622532.130,4.883,-15.137,28.809,33.203,0
1581622532.134,7.812,12.207,31.738,20.508,0
1581622532.138,23.926,-7.812,32.715,3.418,0
1581622532.142,15.625,-36.133,37.598,26.855,0
1581622532.145,16.113,-25.879,38.086,42.480,0
1581622532.149,14.160,57.129,38.086,16.113,0
1581622532.153,8.789,35.645,35.156,-5.859,0
1581622532.157,17.090,-14.648,29.785,7.324,0
1581622532.161,19.043,8.789,25.879,23.926,0
1581622532.163,3.418,42.480,23.438,8.301,0
1581622532.167,-1.465,7.324,26.367,-11.719,0
1581622532.171,16.602,-20.508,29.297,-1.465,0
1581622532.175,20.996,3.418,33.203,25.391,0
1581622532.179,3.418,-10.254,32.227,21.973,0
1581622532.183,-1.465,-33.203,33.203,0.488,0
1581622532.187,11.719,-67.383,28.320,-3.418,0
1581622532.190,11.230,4.883,20.996,16.113,0
1581622532.194,3.906,86.426,19.531,25.879,0
1581622532.198,0.977,24.414,20.508,8.301,0
1581622532.202,3.906,1.953,18.555,4.395,0
1581622532.206,8.301,33.691,20.020,10.254,0
1581622532.207,8.301,31.250,27.344,11.719,27570
1581622532.211,1.953,0.488,24.902,5.859,0
1581622532.215,15.137,-34.668,22.949,1.953,0
1581622532.219,8.789,1.465,20.508,5.859,0
1581622532.223,-0.977,23.926,15.137,12.207,0
1581622532.227,19.531,-46.387,18.555,12.207,0
1581622532.231,16.113,-46.387,23.926,-3.906,0
1581622532.234,0.977,48.828,22.949,-6.836,0
1581622532.238,-0.977,41.504,20.996,12.207,0
1581622532.242,10.742,-0.488,22.461,10.742,0
1581622532.246,16.113,18.066,21.484,-3.906,0
1581622532.250,12.207,31.250,22.461,5.859,0
1581622532.267,-3.906,7.324,24.414,21.484,0
1581622532.271,11.719,-0.977,24.414,28.809,0
1581622532.275,24.902,7.812,22.949,10.254,0
1581622532.279,15.625,-9.277,31.738,-0.488,0
1581622532.283,21.484,-3.906,38.086,21.973,0
1581622532.287,15.137,-8.789,36.621,32.715,0
1581622532.291,0.977,0.000,32.715,23.438,0
1581622532.294,5.371,28.320,32.227,1.465,0
1581622532.298,17.578,25.879,32.227,8.301,0
1581622532.302,16.113,-23.438,29.785,36.133,0
1581622532.306,9.277,-6.836,31.738,20.508,0
1581622532.310,5.859,37.109,32.715,-1.953,0
1581622532.313,7.812,-1.953,28.809,4.395,0
1581622532.317,8.301,-1.953,26.855,30.273,0
1581622532.321,4.395,21.973,24.902,32.715,0
1581622532.325,6.348,10.742,23.926,-7.324,0
1581622532.329,9.766,-21.973,26.367,-5.371,0
1581622532.333,8.301,-24.902,25.879,19.043,0
1581622532.337,4.883,1.465,21.973,21.973,0
1581622532.340,11.230,18.066,18.555,11.230,0
1581622532.344,20.508,-0.488,14.160,0.977,0
1581622532.348,8.789,-21.973,9.277,11.230,0
1581622532.352,8.301,55.176,13.672,15.625,0
1581622532.356,15.137,46.875,28.320,6.348,0
1581622532.358,16.113,-3.906,33.203,-0.488,0
1581622532.362,15.137,10.742,31.250,6.836,0
1581622532.366,19.043,28.809,30.273,20.996,0
1581622532.370,18.066,22.461,28.809,7.812,0
1581622532.374,1.953,-8.789,24.414,-9.277,0
1581622532.378,4.883,-40.039,24.902,1.953,0
1581622532.382,12.207,-7.812,28.320,20.996,0
1581622532.385,7.812,51.758,23.926,26.855,0
1581622532.389,-1.465,-29.785,25.879,-0.488,0
1581622532.393,-1.953,-46.387,32.227,-5.859,0
1581622532.397,2.930,60.547,33.691,18.555,0
1581622532.401,12.695,41.016,28.320,13.672,0
1581622532.402,15.625,5.859,24.902,-2.930,0
1581622532.406,6.836,20.508,23.926,-14.160,0
1581622532.410,13.184,30.273,22.949,1.953,0
1581622532.414,7.324,0.488,20.020,27.344,0
1581622532.418,6.348,-20.508,20.996,20.996,0
1581622532.422,23.926,-27.344,25.391,-4.395,0
1581622532.426,19.043,10.742,27.344,1.465,0
1581622532.429,13.184,6.836,30.273,38.574,0
1581622532.433,4.395,-46.875,24.414,31.250,0
1581622532.437,-4.395,40.039,23.438,3.418,0
1581622532.441,11.719,58.105,29.785,15.137,0
1581622532.445,24.902,-19.531,30.273,28.809,0
1581622532.448,19.043,-9.766,29.785,39.551,0
1581622532.452,9.277,41.992,28.809,23.926,0
1581622532.456,12.695,7.812,28.809,-2.441,0
1581622532.460,17.578,6.348,33.203,21.973,0
1581622532.464,12.207,37.109,34.180,37.598,0
1581622532.468,1.465,0.488,31.250,21.484,0
1581622532.472,0.000,1.465,29.297,10.254,0
1581622532.475,14.648,-29.297,27.344,21.973,0
1581622532.479,14.160,8.789,28.320,34.668,0
1581622532.483,17.090,87.402,29.297,16.113,0
1581622532.487,14.160,16.113,26.855,2.441,0
1581622532.491,2.441,-12.695,26.367,11.719,0
1581622532.493,11.230,26.367,26.367,29.785,0
1581622532.497,21.973,41.504,27.832,30.762,0
1581622532.501,16.113,-10.254,29.297,8.789,0
1581622532.505,7.812,-16.602,24.902,4.395,0
1581622532.509,11.230,20.508,23.926,24.414,0
1581622532.513,0.488,-0.977,24.414,28.809,0
1581622532.517,-5.859,-30.762,20.020,2.930,0
1581622532.520,-1.465,-37.109,26.367,-11.230,0
1581622532.524,-10.254,44.922,34.668,8.301,0
1581622532.528,-1.465,48.340,36.621,27.832,0
1581622532.532,15.137,-13.672,27.832,17.090,0
1581622532.536,13.672,-20.020,20.996,1.953,0
1581622532.538,-1.953,13.672,25.391,12.207,0
1581622532.542,1.465,26.367,30.273,33.691,0
1581622532.546,9.766,-6.348,32.715,29.297,0
1581622532.550,14.648,-4.883,26.367,2.441,0
1581622532.554,8.789,13.672,25.879,1.953,0
1581622532.558,6.348,-14.648,30.762,24.902,0
1581622532.562,11.719,-66.406,24.902,26.367,0
1581622532.565,11.230,-18.555,22.461,5.371,0
1581622532.569,13.184,66.895,26.855,5.859,0
1581622532.573,17.090,28.809,23.926,30.762,0
1581622532.577,22.461,15.625,22.461,32.715,0
1581622532.581,32.227,11.230,25.391,15.625,0
1581622532.583,25.879,1.465,24.414,4.395,0
1581622532.587,20.020,-18.066,26.855,15.625,0
1581622532.591,24.902,-26.367,32.227,41.992,0
1581622532.595,23.926,-12.207,33.691,26.367,0
1581622532.599,18.555,-24.902,31.250,-0.488,0
1581622532.603,14.648,-47.852,26.367,17.090,0
1581622532.607,14.648,-37.109,22.461,33.203,0
1581622532.610,20.508,61.523,20.508,27.832,0
1581622532.614,22.461,31.250,23.438,19.043,0
1581622532.618,18.066,-25.391,27.344,20.020,0
1581622532.622,3.418,8.789,24.902,29.297,0
1581622532.626,3.906,25.391,23.438,31.738,0
1581622532.643,13.184,12.207,27.344,17.578,0
1581622532.647,0.000,-12.695,27.832,-2.441,0
1581622532.651,-13.184,-20.996,30.273,14.160,0
1581622532.655,-2.930,-11.230,27.832,23.438,0
1581622532.659,8.301,-19.043,22.461,7.324,0
1581622532.663,2.930,-40.039,19.043,-6.836,0
1581622532.667,12.695,-3.418,17.090,12.695,0
1581622532.670,13.672,33.691,20.996,40.527,0
1581622532.674,0.977,17.090,19.043,23.926,0
1581622532.678,4.883,-45.898,16.602,-7.324,0
1581622532.682,15.137,-4.395,20.508,-12.695,0
1581622532.686,5.859,19.531,19.043,4.883,0
1581622532.689,-2.930,-28.809,20.508,11.719,0
1581622532.693,-1.953,-9.277,25.879,-6.836,0
1581622532.697,1.465,24.902,22.461,-7.324,0
1581622532.701,6.836,37.109,20.508,27.344,0
1581622532.705,16.602,-7.324,25.879,40.039,0
1581622532.709,10.254,-33.203,27.832,10.742,0
1581622532.713,0.488,-6.836,31.738,-1.465,0
1581622532.716,0.977,37.598,31.250,17.090,0
1581622532.720,-2.441,-2.441,33.691,22.461,0
1581622532.724,-15.625,-26.367,36.133,0.977,0
1581622532.728,-20.996,51.758,32.227,-30.273,0
1581622532.732,-24.902,32.715,39.062,-20.508,0
1581622532.733,-36.133,15.137,43.457,-11.230,0
1581622532.737,-38.574,26.855,46.387,-39.062,0
1581622532.741,-53.711,7.812,44.922,-77.148,0
1581622532.745,-81.055,10.742,47.363,-90.332,0
1581622532.749,-88.379,8.301,57.129,-75.195,0
1581622532.753,-106.934,-43.457,61.035,-94.727,0
1581622532.757,-150.879,-41.016,68.359,-153.320,0
1581622532.760,-185.547,0.000,78.125,-178.223,0
1581622532.764,-200.195,-73.730,89.844,-176.270,0
1581622532.768,-229.004,-64.941,99.609,-202.637,0
1581622532.772,-286.133,5.859,104.492,-270.996,0
1581622532.776,-293.945,-49.316,118.164,-300.293,0
1581622532.778,-300.293,-51.758,125.977,-287.109,0
1581622532.782,-335.938,-47.852,132.324,-295.898,0
1581622532.786,-336.914,-57.129,139.648,-326.660,0
1581622532.790,-322.754,-84.473,146.973,-345.703,0
1581622532.794,-333.984,-66.406,150.879,-333.496,0
1581622532.798,-344.238,-50.293,146.973,-322.754,0
1581622532.802,-333.008,-32.715,141.602,-320.801,0
1581622532.805,-309.570,-21.973,142.090,-324.707,0
1581622532.809,-281.738,26.367,151.855,-311.523,0
1581622532.813,-287.598,145.020,147.949,-284.180,0
1581622532.817,-290.527,168.457,143.555,-274.414,0
1581622532.821,-275.391,163.086,140.625,-288.086,0
1581622532.823,-266.602,179.688,128.906,-282.227,0
1581622532.827,-254.883,232.910,124.512,-248.047,0
1581622532.831,-238.281,247.070,121.094,-230.957,0
1581622532.835,-228.516,256.836,115.234,-231.445,0
1581622532.839,-232.910,288.574,108.887,-233.887,0
1581622532.843,-202.637,286.133,116.211,-192.383,0
1581622532.847,-167.480,329.590,113.281,-153.320,0
1581622532.850,-160.645,291.016,102.051,-162.598,0
1581622532.854,-163.574,263.672,101.074,-167.969,0
1581622532.858,-150.879,353.027,97.168,-139.160,0
1581622532.862,-130.859,340.820,94.238,-105.469,0
1581622532.866,-126.953,320.312,88.379,-101.074,0
1581622532.868,-116.699,341.309,78.125,-116.211,0
1581622532.872,-91.797,335.938,73.730,-91.309,0
1581622532.876,-77.148,307.129,67.871,-54.688,0
1581622532.880,-66.406,299.805,58.594,-49.316,0
1581622532.884,-45.410,295.898,54.199,-45.898,0
1581622532.888,-31.250,240.723,49.316,-38.574,0
1581622532.892,-19.531,187.988,41.504,-5.371,0
1581622532.895,9.277,165.039,32.227,32.227,0
1581622532.899,40.039,187.500,21.973,35.645,0
1581622532.903,58.594,150.391,12.695,35.645,0
1581622532.907,62.988,66.895,12.207,68.848,0
1581622532.911,57.617,45.898,9.277,79.590,0
1581622532.913,71.777,84.961,2.441,80.566,0
1581622532.917,90.820,34.180,-3.906,90.332,0
1581622532.921,104.980,-24.902,-6.348,112.305,0
1581622532.925,123.535,-9.277,-13.184,136.230,0
1581622532.929,125.977,-0.488,-18.066,138.184,0
1581622532.933,117.676,-50.781,-15.625,131.348,0
1581622532.937,132.324,-117.188,-19.531,135.254,0
1581622532.940,162.598,-66.406,-23.438,166.016,0
1581622532.944,156.738,30.762,-27.832,174.316,0
1581622532.948,157.715,-26.855,-38.086,159.180,0
1581622532.952,178.711,-60.059,-44.434,158.691,0
1581622532.956,188.965,-26.855,-42.480,184.082,0
1581622532.973,204.102,-8.301,-44.922,205.566,0
1581622532.977,197.754,-41.992,-47.363,188.477,0
1581622532.981,196.777,-81.055,-45.898,171.387,0
1581622532.985,211.914,-27.344,-44.922,192.383,0
1581622532.989,212.891,-10.254,-42.480,219.238,0
1581622532.993,202.148,-75.195,-44.434,216.797,0
1581622532.997,203.125,-83.496,-49.316,184.570,0
1581622533.000,211.426,-20.020,-54.199,185.059,0
1581622533.004,205.078,1.953,-52.734,215.332,0
1581622533.008,192.383,-69.824,-45.898,199.219,0
1581622533.012,195.801,-97.656,-49.805,177.734,0
1581622533.016,189.941,-13.672,-51.270,174.805,0
1581622533.018,186.523,-9.766,-44.922,194.824,0
1581622533.022,192.871,-39.062,-38.574,202.637,0
1581622533.026,187.500,-18.555,-29.785,178.223,0
1581622533.030,192.383,-9.277,-32.227,169.434,0
1581622533.034,196.289,-47.363,-45.410,179.688,0
1581622533.038,180.664,-58.105,-53.223,190.918,0
1581622533.042,181.641,-70.312,-45.898,183.594,0
1581622533.045,195.312,-67.871,-34.180,161.621,0
1581622533.049,186.035,-24.414,-27.832,173.340,0
1581622533.053,168.457,-74.219,-27.832,184.570,0
1581622533.057,161.621,-54.688,-23.926,168.457,0
1581622533.061,158.203,33.203,-12.207,146.484,0
1581622533.063,145.508,-10.254,-12.695,126.953,0
1581622533.067,135.254,-21.973,-16.113,135.254,0
1581622533.071,129.883,18.555,-14.160,135.254,0
1581622533.075,121.582,23.438,-12.207,102.539,0
1581622533.079,108.398,-21.973,-14.160,85.938,0
1581622533.083,96.680,-26.855,-13.184,104.980,0
1581622533.087,88.379,27.344,-6.836,111.328,0
1581622533.090,85.938,66.406,-0.977,80.566,0
1581622533.094,83.984,21.973,2.441,58.594,0
1581622533.098,78.125,20.020,2.930,85.449,0
1581622533.102,90.332,154.297,5.859,105.957,0
1581622533.106,91.797,156.738,12.207,93.262,0
1581622533.107,81.543,87.402,11.230,65.430,0
1581622533.111,80.566,98.145,11.719,66.406,0
1581622533.115,74.219,120.605,15.625,86.426,0
1581622533.119,65.430,103.516,19.531,77.148,0
1581622533.123,53.711,80.566,18.066,54.199,0
1581622533.127,56.152,86.426,15.137,48.340,0
1581622533.131,58.594,116.211,15.625,70.801,0
1581622533.134,66.895,154.297,16.113,76.660,0
1581622533.138,73.730,75.195,12.695,48.828,0
1581622533.142,69.336,98.633,12.695,45.898,0
1581622533.146,62.012,185.059,16.602,64.941,0
1581622533.150,40.527,124.023,17.578,67.383,0
1581622533.152,35.645,123.535,23.438,49.316,0
1581622533.156,49.805,152.832,26.367,30.762,0
1581622533.160,44.922,139.160,25.879,41.016,0
1581622533.164,32.227,83.008,22.949,56.152,0
1581622533.168,34.180,58.105,19.043,50.293,0
1581622533.172,34.180,63.477,19.043,33.203,0
1581622533.176,22.949,95.703,16.113,24.414,0
1581622533.179,20.996,84.961,13.672,45.898,0
1581622533.183,31.738,20.996,18.066,48.340,0
1581622533.187,23.926,86.426,21.973,12.207,0
1581622533.191,12.207,108.887,21.973,6.836,0
1581622533.195,12.695,37.598,23.438,29.785,0
1581622533.197,7.812,43.457,22.461,27.344,0
1581622533.201,5.859,33.203,22.949,1.465,0
1581622533.205,25.391,-4.395,26.367,2.441,0
1581622533.209,38.086,28.320,37.109,50.781,0
1581622533.213,23.926,11.719,30.273,58.105,0
1581622533.217,22.461,-24.902,8.301,21.973,0
1581622533.221,16.602,2.441,-1.953,-7.812,0
1581622533.224,10.254,-66.895,4.395,-3.418,0
1581622533.228,16.113,-38.086,15.625,24.414,0
1581622533.232,19.531,41.016,18.066,24.414,0
1581622533.236,25.391,-29.297,16.602,0.488,0
1581622533.240,20.996,-26.367,20.996,4.883,0
1581622533.242,16.602,-16.113,23.926,41.016,0
1581622533.246,14.648,-8.301,18.066,41.504,0
1581622533.250,17.090,-50.781,16.113,14.160,0
1581622533.254,24.902,-80.078,20.996,8.789,0
1581622533.258,33.691,-58.105,21.973,34.180,0
1581622533.262,36.133,-47.852,15.625,42.969,28500
1581622533.266,25.391,-61.035,9.277,20.996,0
1581622533.269,25.879,-76.172,16.113,8.789,0
1581622533.273,24.902,12.695,22.949,32.227,0
1581622533.277,14.648,16.602,24.902,43.945,0
1581622533.281,16.113,-44.922,24.414,39.551,0
1581622533.285,10.254,-45.410,23.438,21.973,0
1581622533.287,18.555,-8.789,24.414,16.113,0
1581622533.291,19.043,-9.277,18.555,38.574,0
1581622533.295,7.324,-66.895,16.113,25.391,0
1581622533.299,28.809,-54.688,25.879,10.742,0
1581622533.303,25.879,-29.785,29.785,19.043,0
1581622533.307,8.789,-50.781,25.879,28.809,0
1581622533.311,16.113,-84.473,20.996,20.020,0
1581622533.314,15.137,-71.777,21.484,-4.395,0
1581622533.318,10.742,15.625,35.645,2.930,0
1581622533.322,14.160,21.484,33.203,26.855,0
1581622533.326,5.859,-3.418,16.602,20.020,0
1581622533.330,15.625,-12.695,16.602,7.324,0
1581622533.332,14.160,-23.438,22.461,9.277,0
1581622533.336,-4.395,-26.855,26.855,22.461,0
1581622533.340,12.695,-6.348,27.832,39.551,0
1581622533.344,26.855,27.344,28.809,35.645,0
1581622533.348,16.602,14.648,31.738,14.648,0
1581622533.352,2.441,-34.668,25.879,14.160,0
1581622533.356,9.766,1.953,19.043,25.391,0
1581622533.359,11.230,90.820,23.926,20.508,0
1581622533.363,11.719,84.961,31.738,5.371,0
1581622533.367,16.602,35.156,29.785,-7.812,0
1581622533.371,13.184,45.410,28.809,9.277,0
1581622533.375,1.953,162.109,29.297,22.949,0
1581622533.392,0.488,161.621,27.344,3.906,0
1581622533.396,18.555,113.281,22.461,9.277,0
1581622533.400,-3.418,171.387,20.508,25.879,0
1581622533.404,-8.789,207.031,23.438,27.344,0
1581622533.408,15.625,167.969,26.367,15.137,0
1581622533.412,7.324,126.953,27.344,-10.254,0
1581622533.416,-6.348,142.578,25.879,-4.395,0
1581622533.419,-1.953,202.148,28.320,24.414,0
1581622533.423,8.301,174.805,32.227,17.090,0
1581622533.427,3.906,86.426,27.344,-1.953,0
1581622533.431,7.324,133.301,25.391,-3.418,0
1581622533.435,15.625,187.500,29.785,18.555,0
1581622533.437,16.602,131.836,33.691,29.297,0
1581622533.441,0.488,87.402,30.762,-0.977,0
1581622533.445,-9.277,125.977,20.020,-5.371,0
1581622533.449,16.602,157.715,15.625,20.508,0
1581622533.453,23.438,102.539,17.090,30.273,0
1581622533.457,11.719,85.938,19.531,14.648,0
1581622533.461,16.113,113.770,23.438,-3.906,0
1581622533.464,14.160,149.902,23.926,8.789,0
1581622533.468,15.137,90.332,24.414,25.879,0
1581622533.472,18.555,40.527,27.832,9.766,0
1581622533.476,19.043,130.371,27.832,-13.184,0
1581622533.480,14.160,134.766,25.879,2.441,0
1581622533.483,8.789,76.172,26.855,29.785,0
1581622533.487,8.301,66.406,22.461,16.113,0
1581622533.491,14.648,74.219,14.648,-8.301,0
1581622533.495,20.508,59.082,15.625,-4.883,0
1581622533.499,22.949,35.645,23.438,13.672,0
1581622533.503,17.090,24.902,27.832,26.855,0
1581622533.507,6.348,31.250,27.344,6.348,0
1581622533.510,5.371,50.781,21.973,-9.277,0
1581622533.514,13.184,-18.066,21.973,10.742,0
1581622533.518,19.531,-12.207,23.926,26.367,0
1581622533.522,19.531,64.941,25.391,6.348,0
1581622533.526,19.531,3.906,26.367,-6.836,0
1581622533.528,11.719,-13.184,23.438,20.996,0
1581622533.532,14.648,18.066,24.414,32.227,0
1581622533.536,27.832,5.371,28.320,22.949,0
1581622533.540,19.531,-38.574,27.832,2.441,0
1581622533.544,9.766,-44.434,26.367,2.930,0
1581622533.548,10.742,-26.367,26.367,28.320,0
1581622533.552,12.207,-19.043,23.438,18.555,0
1581622533.555,9.766,-36.621,27.344,0.488,0
1581622533.559,1.953,-48.828,29.785,4.883,0
1581622533.563,-5.371,24.902,28.809,18.066,0
1581622533.567,10.742,37.598,30.273,28.320,0
1581622533.571,17.578,-31.738,24.902,0.000,0
1581622533.573,1.953,-20.020,24.902,-7.324,0
1581622533.577,13.672,19.531,30.273,28.809,0
1581622533.581,19.531,0.977,27.832,33.203,0
1581622533.585,0.977,-41.504,22.949,-1.953,0
1581622533.589,-14.160,-41.992,24.414,-20.020,0
1581622533.593,-5.371,-33.203,27.832,3.418,0
1581622533.597,5.371,0.977,32.715,27.344,0
1581622533.600,-0.488,-54.688,33.203,8.301,0
1581622533.604,4.883,-73.730,25.391,-29.785,0
1581622533.608,5.371,34.668,20.996,-17.090,0
1581622533.612,8.789,-24.902,17.578,21.484,0
1581622533.616,13.672,-39.062,17.578,21.973,0
1581622533.618,19.043,4.883,18.555,-0.488,0
1581622533.622,18.066,8.789,21.973,0.000,0
1581622533.626,1.953,-14.648,24.414,13.672,0
1581622533.630,-1.953,-37.598,26.367,18.066,0
1581622533.634,6.836,-19.043,29.297,20.996,0
1581622533.638,6.836,-35.645,30.273,14.160,0
1581622533.642,8.789,-44.922,27.344,27.344,0
1581622533.645,8.789,-46.875,21.973,23.438,0
1581622533.649,7.812,22.461,21.973,4.883,0
1581622533.653,7.324,17.090,23.438,-5.371,0
1581622533.657,4.395,-52.246,28.320,3.418,0
1581622533.661,5.371,-10.742,34.180,27.344,0
1581622533.663,18.066,12.207,33.691,19.043,0
1581622533.667,11.719,-34.180,28.320,-2.441,0
1581622533.671,-2.930,-27.832,29.297,1.465,0
1581622533.675,2.441,-4.395,26.367,23.926,0
1581622533.679,10.742,-6.348,24.902,27.832,0
1581622533.683,8.301,-17.578,26.855,5.371,0
1581622533.687,6.836,-71.777,26.855,-3.906,0
1581622533.690,-5.859,-43.457,25.391,13.184,0
1581622533.694,-8.301,33.203,21.973,25.391,0
1581622533.698,-9.766,-4.395,26.855,6.836,0
1581622533.702,-15.137,-28.809,28.320,-12.695,0
1581622533.706,5.371,-8.789,28.809,12.207,0
1581622533.708,13.184,7.324,27.832,32.715,0
1581622533.712,16.113,-14.648,22.949,19.043,0
1581622533.716,18.555,-20.020,22.461,-1.465,0
1581622533.720,9.766,9.766,20.996,1.465,0
1581622533.724,19.531,11.230,18.066,20.996,0
1581622533.728,22.461,-15.625,21.484,20.996,0
1581622533.732,7.812,-16.602,26.367,3.418,0
1581622533.735,0.000,19.043,24.902,3.418,0
1581622533.739,-2.930,52.246,22.461,11.230,0
1581622533.743,6.348,-18.066,21.484,10.742,0
1581622533.747,5.371,-68.359,26.367,5.859,0
1581622533.751,-3.418,32.715,26.855,1.465,0
1581622533.768,2.930,35.156,22.949,20.020,0
1581622533.772,11.719,-10.742,21.973,25.879,0
1581622533.776,12.695,-9.766,21.484,15.137,0
1581622533.780,15.625,6.836,21.484,0.977,0
1581622533.784,12.695,27.344,22.461,4.395,0
1581622533.788,1.953,-28.320,19.043,17.578,0
1581622533.792,21.484,-19.531,15.625,0.977,0
1581622533.795,25.391,32.715,22.949,-2.441,0
1581622533.799,4.395,19.531,27.832,14.160,0
1581622533.803,-2.441,17.090,30.762,20.020,0
1581622533.807,10.742,29.785,30.273,19.043,0
1581622533.811,23.438,25.879,21.973,-3.418,0
1581622533.813,10.742,-13.672,18.555,-12.695,0
1581622533.817,0.977,-20.508,16.113,13.184,0
1581622533.821,14.648,19.531,19.043,16.113,0
1581622533.825,13.184,15.137,25.879,-2.441,0
1581622533.829,2.441,-38.086,24.902,-18.066,0
1581622533.833,18.066,-47.363,18.555,8.789,0
1581622533.837,32.227,0.488,20.020,50.781,0
1581622533.840,28.809,36.133,21.973,29.297,0
1581622533.844,28.809,-13.184,23.926,6.348,0
1581622533.848,5.859,-61.523,24.414,12.207,0
1581622533.852,18.555,28.320,25.391,28.320,0
1581622533.856,31.738,60.059,26.855,20.508,0
1581622533.858,14.160,5.371,24.414,-5.371,0
1581622533.862,11.719,7.324,27.344,0.977,0
1581622533.866,8.301,29.297,32.227,20.020,0
1581622533.870,14.160,-4.883,31.250,35.156,0
1581622533.874,20.996,-19.531,31.250,24.902,0
1581622533.878,19.531,-20.996,31.738,3.418,0
1581622533.882,19.531,-2.441,26.855,20.020,0
1581622533.885,21.973,46.875,26.855,31.250,0
1581622533.889,13.672,-35.645,28.320,9.766,0
1581622533.893,16.113,-30.273,28.320,-0.977,0
1581622533.897,13.672,60.059,28.809,18.555,0
1581622533.901,9.277,15.625,26.855,30.762,0
1581622533.903,2.930,-32.227,23.926,5.859,0
1581622533.907,0.488,-9.766,20.996,-8.789,0
1581622533.911,15.625,49.805,21.973,14.648,0
1581622533.915,16.602,31.738,28.809,40.039,0
1581622533.919,11.719,-5.371,32.715,37.598,0
1581622533.923,15.625,-13.672,31.738,7.324,0
1581622533.927,15.137,19.531,25.391,2.930,0
1581622533.930,13.184,0.977,22.461,20.508,0
1581622533.934,6.836,-10.742,25.879,15.137,0
1581622533.938,1.953,61.523,27.832,-7.812,0
1581622533.942,16.113,40.527,30.762,-4.883,0
1581622533.946,17.090,3.418,28.809,16.602,0
1581622533.948,12.695,15.625,20.020,21.484,0
1581622533.952,18.066,13.184,18.555,10.254,0
1581622533.956,18.066,3.418,23.438,1.465,0
1581622533.960,14.648,-12.207,23.926,15.625,0
1581622533.964,18.555,-21.484,26.855,28.320,0
1581622533.968,9.277,-8.789,31.250,3.418,0
1581622533.972,6.836,22.461,25.391,-21.484,0
1581622533.975,4.395,-32.227,22.461,-6.836,0
1581622533.979,2.441,-31.250,23.438,20.996,0
1581622533.983,1.953,54.688,18.066,19.531,0
1581622533.987,0.000,13.672,22.949,-6.836,0
1581622533.991,4.395,-0.977,33.203,-5.371,0
1581622533.993,1.465,24.414,34.668,19.043,0
1581622533.997,4.395,26.367,32.227,19.043,0
1581622534.001,8.789,-17.578,27.344,0.977,0
1581622534.005,2.441,-20.508,24.414,1.953,0
1581622534.009,-1.465,16.113,22.949,24.414,0
1581622534.013,8.789,-5.859,23.926,23.926,0
1581622534.017,18.555,-27.832,25.879,0.977,0
1581622534.020,13.184,-36.621,28.809,0.977,0
1581622534.024,6.348,38.086,27.832,19.043,0
1581622534.028,7.812,56.152,26.367,20.020,0
1581622534.032,8.789,-9.277,28.809,4.395,0
1581622534.036,18.555,-12.695,29.297,-9.277,0
1581622534.038,24.414,27.832,32.227,10.742,0
1581622534.042,7.812,23.438,37.598,31.738,0
1581622534.046,5.859,-10.254,32.227,23.438,0
1581622534.050,13.184,8.789,18.066,4.395,0
1581622534.054,10.742,25.391,18.555,-0.488,0
1581622534.058,20.020,2.930,26.855,16.113,0
1581622534.062,20.508,-55.664,25.391,17.578,0
1581622534.065,17.578,-19.043,25.391,0.488,0
1581622534.069,22.949,62.988,27.344,-5.859,0
1581622534.073,15.625,-13.184,24.902,13.672,0
1581622534.077,9.277,-7.324,26.855,35.156,0
1581622534.081,1.953,17.578,34.180,19.043,0
1581622534.098,2.441,4.395,35.645,4.883,0
1581622534.102,16.113,0.977,29.785,22.461,0
1581622534.106,7.812,-8.789,24.414,25.391,0
1581622534.110,15.137,12.695,20.996,10.742,0
1581622534.114,17.578,22.949,23.926,3.906,0
1581622534.118,8.789,-13.184,29.297,5.371,0
1581622534.122,8.789,-33.203,35.645,19.043,0
1581622534.125,8.301,44.434,34.180,22.461,0
1581622534.129,9.277,38.574,25.879,4.883,0
1581622534.133,0.977,-27.832,25.879,4.883,0
1581622534.137,-5.371,-4.395,25.879,26.367,0
1581622534.141,14.160,28.320,31.250,34.180,0
1581622534.143,12.207,-8.301,33.691,14.648,0
1581622534.147,2.930,-17.090,30.273,-0.488,0
1581622534.151,10.254,9.766,27.344,8.789,0
1581622534.155,16.113,42.480,28.809,20.996,0
1581622534.159,14.648,20.508,28.320,4.883,0
1581622534.163,-0.488,-37.109,28.809,-10.254,0
1581622534.167,4.883,-6.836,32.715,6.348,0
1581622534.170,0.000,43.945,29.785,25.391,0
1581622534.174,-0.977,42.480,28.809,16.113,0
1581622534.178,4.883,-42.480,34.180,-9.766,0
1581622534.182,13.184,-22.461,33.691,0.488,0
1581622534.186,17.090,69.336,30.273,29.785,0
1581622534.188,8.301,22.461,30.762,18.555,0
1581622534.192,10.742,-2.441,29.297,-5.371,0
1581622534.196,10.742,31.738,27.344,-5.859,0
1581622534.200,-2.441,21.484,26.855,7.324,0
1581622534.204,3.418,-7.324,30.273,22.461,0
1581622534.208,19.043,-21.973,29.785,11.719,0
1581622534.212,14.160,-3.418,29.785,4.395,0
1581622534.215,10.742,61.035,28.809,24.902,0
1581622534.219,-1.465,0.977,26.367,17.090,0
1581622534.223,-17.090,-32.227,22.949,0.977,0
1581622534.227,7.324,57.617,23.438,3.906,0
1581622534.231,24.902,56.152,26.855,14.160,0
1581622534.232,17.090,37.109,24.902,31.250,0
1581622534.236,14.648,18.066,20.508,20.020,0
1581622534.240,2.930,11.719,20.508,-6.348,0
1581622534.244,-13.184,19.531,22.461,-4.883,0
1581622534.248,-10.254,1.953,22.461,20.508,0
1581622534.252,0.977,-4.883,23.926,14.648,0
1581622534.256,10.254,-1.465,22.949,-11.230,0
1581622534.259,12.695,7.812,19.531,-3.418,0
1581622534.263,12.695,-5.371,21.484,16.602,0
1581622534.267,15.625,24.902,26.367,18.555,0
1581622534.271,17.090,83.008,27.344,7.324,0
1581622534.275,27.832,26.367,23.438,-8.789,0
1581622534.277,26.367,8.789,21.973,12.207,0
1581622534.281,13.184,29.297,22.949,32.227,0
1581622534.285,8.301,34.668,26.855,21.973,0
1581622534.289,3.906,3.418,26.855,-5.859,0
1581622534.293,6.836,-15.625,22.461,-10.742,0
1581622534.297,10.742,-11.230,25.391,30.762,0
1581622534.301,7.812,-0.488,26.855,41.992,0
1581622534.304,20.996,-14.648,26.367,21.484,0
1581622534.308,22.949,-26.855,30.273,16.113,0
1581622534.312,10.742,28.320,30.762,31.738,0
1581622534.316,14.648,48.828,31.738,47.363,0
1581622534.320,23.438,3.418,33.691,20.996,0
1581622534.322,22.461,-5.371,31.250,4.883,0
1581622534.326,12.207,54.688,28.809,18.555,0
1581622534.330,8.301,35.156,32.227,28.809,0
1581622534.334,14.160,-0.488,28.809,24.414,0
1581622534.338,18.555,11.230,21.484,1.953,0
1581622534.342,17.090,-4.395,26.855,15.625,0
1581622534.346,16.113,20.508,30.273,41.504,0
1581622534.349,17.578,-16.113,26.367,23.926,0
1581622534.353,21.484,-24.902,21.484,1.465,0
1581622534.357,23.926,71.289,23.438,13.672,0
1581622534.361,27.832,60.059,29.785,37.109,0
1581622534.365,24.414,16.113,27.832,19.043,0
1581622534.367,25.391,-4.395,25.879,-3.418,0
1581622534.371,18.555,24.902,26.367,0.488,0
1581622534.375,12.695,10.254,27.832,21.973,0
1581622534.379,16.602,0.488,29.785,30.762,0
1581622534.383,18.066,29.297,32.227,11.719,0
1581622534.387,25.391,9.277,28.809,0.000,0
1581622534.391,17.090,-17.090,24.414,9.766,0
1581622534.394,7.812,-16.113,22.949,22.461,0
1581622534.398,0.977,55.664,23.438,12.207,0
1581622534.402,-4.883,51.758,28.809,-14.648,0
1581622534.406,7.324,-8.301,31.250,8.789,0
1581622534.410,14.648,6.348,33.691,36.621,0
1581622534.412,20.020,41.992,33.203,24.414,17035
1581622534.416,17.578,29.785,29.785,7.324,0
1581622534.420,8.789,-8.301,27.344,4.395,0
1581622534.424,18.066,-9.277,26.855,22.461,0
1581622534.428,25.879,36.133,25.879,24.902,0
1581622534.432,12.695,10.742,30.273,0.000,0
1581622534.436,-6.348,-50.781,29.297,-14.648,0
1581622534.439,-3.906,-3.418,27.344,-3.418,0
1581622534.443,13.672,70.312,29.297,14.160,0
1581622534.447,7.812,35.156,25.879,10.254,0
1581622534.451,-6.348,19.531,24.414,-8.789,0
1581622534.455,17.578,32.715,26.855,8.789,0
1581622534.457,30.762,42.969,31.250,32.227,0
1581622534.461,19.531,9.277,34.668,8.301,0
1581622534.465,11.230,-6.836,33.203,-8.301,0
1581622534.469,9.277,19.531,30.762,5.859,0
1581622534.473,5.859,22.949,30.273,22.461,0
1581622534.477,0.977,-14.648,25.391,5.859,0
1581622534.481,14.648,-23.926,22.461,-16.113,0
1581622534.484,19.043,32.227,25.879,-2.441,0
1581622534.488,2.930,74.219,25.391,19.531,0
1581622534.492,6.836,13.672,21.484,26.855,0
1581622534.496,18.066,-16.602,20.996,0.488,0
1581622534.500,10.254,38.086,25.879,-18.066,0
1581622534.517,7.812,36.621,27.344,10.254,0
1581622534.521,9.277,4.883,26.855,26.855,0
1581622534.525,5.859,8.301,29.297,9.766,0
1581622534.529,3.418,25.391,29.297,-9.766,0
1581622534.533,13.184,30.273,26.367,18.066,0
1581622534.537,1.465,-26.367,23.926,37.598,0
1581622534.541,-3.418,-13.672,23.438,13.672,0
1581622534.544,22.461,61.523,29.785,-4.395,0
1581622534.548,23.926,27.832,32.227,-8.789,0
1581622534.552,15.625,9.766,33.203,19.531,0
1581622534.556,18.555,28.320,35.645,30.762,0
1581622534.560,19.531,22.949,30.273,8.301,0
1581622534.562,15.137,16.602,30.273,6.348,0
1581622534.566,15.137,8.789,34.180,19.531,0
1581622534.570,18.066,40.039,27.832,30.273,0
1581622534.574,18.555,47.363,26.855,6.348,0
1581622534.578,13.672,4.883,34.180,-3.906,0
1581622534.582,7.812,-22.949,30.273,17.090,0
1581622534.586,20.996,-5.859,24.902,23.438,0
1581622534.589,27.344,25.879,27.344,13.184,0
1581622534.593,13.672,-1.953,30.762,0.488,0
1581622534.597,22.461,-19.531,27.832,10.254,0
1581622534.601,18.555,60.547,26.855,20.996,0
1581622534.605,9.277,37.598,22.461,8.301,0
1581622534.608,8.301,-14.648,20.508,-14.160,0
1581622534.612,4.395,16.602,25.879,-3.906,0
1581622534.616,2.930,28.320,26.367,20.996,0
1581622534.620,5.371,16.602,25.879,18.066,0
1581622534.624,-0.977,-15.625,29.297,-5.371,0
1581622534.628,1.953,-37.598,32.227,-3.906,0
1581622534.632,11.719,-0.488,32.227,28.320,0
1581622534.635,-6.348,35.156,28.320,39.062,0
1581622534.639,-8.301,-33.691,23.926,1.953,0
1581622534.643,10.742,-28.320,23.926,-16.113,0
1581622534.647,18.066,72.754,27.832,16.113,0
1581622534.651,12.207,28.320,29.785,37.598,0
1581622534.653,2.441,-9.277,30.762,24.902,0
1581622534.657,8.789,25.879,27.344,5.371,0
1581622534.661,5.859,1.953,21.484,8.301,0
1581622534.665,6.836,-14.648,22.949,23.438,0
1581622534.669,19.531,16.602,30.762,15.137,0
1581622534.673,9.766,0.488,29.297,-10.254,0
1581622534.677,2.441,7.324,20.020,-0.977,0
1581622534.680,7.812,-0.977,24.414,20.020,0
1581622534.684,8.789,-1.953,29.297,21.973,0
1581622534.688,11.230,66.406,29.785,-0.977,0
1581622534.692,5.371,48.340,25.391,-9.277,0
1581622534.696,8.789,0.488,21.973,19.531,0
1581622534.698,14.648,25.391,21.973,25.879,0
1581622534.702,0.977,51.270,21.484,4.883,0
1581622534.706,8.301,31.738,25.391,-1.465,0
1581622534.710,14.648,0.977,30.762,19.043,0
1581622534.714,9.766,3.906,32.227,31.250,0
1581622534.718,10.742,11.230,33.691,20.996,0
1581622534.722,7.324,12.207,32.227,-0.488,0
1581622534.725,13.672,-22.461,27.344,9.766,0
1581622534.729,8.301,4.395,27.344,34.668,0
1581622534.733,3.906,73.730,27.832,18.555,0
1581622534.737,16.602,33.203,25.391,-13.672,0
1581622534.741,10.742,28.809,21.973,-8.789,0
1581622534.743,10.742,58.594,17.090,20.508,0
1581622534.747,11.719,38.086,18.555,28.320,0
1581622534.751,10.742,0.488,26.367,7.324,0
1581622534.755,5.371,3.418,26.855,-10.742,0
1581622534.759,2.441,22.461,24.902,4.883,0
1581622534.763,5.371,3.418,25.879,21.973,0
1581622534.767,0.977,-15.625,22.461,13.184,0
1581622534.770,-5.859,-2.930,22.949,-3.418,0
1581622534.774,-5.859,43.457,29.785,5.371,0
1581622534.778,3.418,49.316,24.902,30.273,0
1581622534.782,2.441,15.625,16.602,19.531,0
1581622534.786,-4.395,18.555,22.949,-3.418,0
1581622534.788,-9.277,60.547,27.832,5.859,0
1581622534.792,1.953,50.293,26.855,24.902,0
1581622534.796,8.789,-6.836,23.438,24.414,0
1581622534.800,-0.977,-11.230,25.391,1.953,0
1581622534.804,-1.953,6.348,33.203,-3.906,0
1581622534.808,10.742,-1.465,37.598,24.414,0
1581622534.812,6.836,-41.504,36.133,27.832,0
1581622534.815,1.465,-28.809,35.645,0.000,0
1581622534.819,14.648,57.617,35.156,-6.348,0
1581622534.823,13.672,39.062,28.809,10.742,0
1581622534.827,6.348,18.555,20.020,31.250,0
1581622534.831,8.789,11.719,19.531,16.113,0
1581622534.833,16.602,17.090,25.391,-4.395,0
1581622534.837,15.137,29.297,27.344,10.254,0
1581622534.841,7.324,8.301,24.414,29.785,0
1581622534.845,4.395,2.441,26.855,22.461,0
1581622534.849,2.930,14.160,29.785,-0.488,0
1581622534.853,9.766,-27.832,28.809,4.395,0
1581622534.857,5.859,-36.621,28.320,32.715,0
1581622534.860,-2.930,48.340,26.367,25.391,0
1581622534.864,5.859,62.012,20.996,-1.953,0
1581622534.868,10.254,11.719,16.602,1.953,0
1581622534.872,6.836,9.766,17.578,20.020,0
1581622534.876,4.883,39.551,21.484,26.367,0
1581622534.894,10.254,21.484,27.832,11.230,0
1581622534.898,12.695,-6.348,32.227,2.930,0
1581622534.902,6.836,-1.953,28.320,19.043,0
1581622534.906,8.301,27.344,29.297,30.273,0
1581622534.910,7.324,50.293,29.297,10.742,0
1581622534.914,6.836,-21.484,19.531,-9.277,0
1581622534.918,10.742,-13.672,18.066,-5.371,0
1581622534.921,9.277,77.637,23.926,14.648,0
1581622534.925,8.789,48.340,27.344,27.344,0
1581622534.929,5.371,-2.441,27.344,9.766,0
1581622534.933,6.836,23.438,26.367,3.418,0
1581622534.937,10.742,61.035,26.367,19.043,0
1581622534.938,5.859,32.227,28.320,19.043,0
1581622534.942,18.066,7.812,24.414,8.301,0
1581622534.946,23.926,29.785,21.484,-9.277,0
1581622534.950,4.883,48.828,21.973,5.859,0
1581622534.954,2.930,22.949,25.879,17.578,0
1581622534.958,7.324,-7.324,23.438,4.395,0
1581622534.962,5.371,8.789,19.531,5.371,0
1581622534.965,1.465,37.109,24.902,22.461,0
1581622534.969,-2.441,-5.371,30.273,22.949,0
1581622534.973,0.977,-25.391,29.297,3.418,0
1581622534.977,2.441,41.504,27.832,-10.742,0
1581622534.981,0.977,38.574,26.855,-0.977,0
1581622534.983,1.953,13.184,17.090,14.160,0
1581622534.987,6.348,27.344,13.672,10.254,0
1581622534.991,11.719,27.344,18.066,-5.859,0
1581622534.995,9.766,16.113,20.996,-5.859,0
1581622534.999,11.230,15.625,27.344,23.438,0
1581622535.003,7.324,-3.418,30.273,32.715,0
1581622535.007,0.000,7.324,29.297,9.766,0
1581622535.010,9.766,53.711,33.203,-5.371,0
1581622535.014,10.254,-17.578,33.691,6.348,0
1581622535.018,-5.859,-8.301,27.832,15.625,0
1581622535.022,-5.371,67.871,25.391,4.883,0
1581622535.026,9.277,11.230,22.461,-7.812,0
1581622535.028,7.324,15.625,23.438,4.395,0
1581622535.032,1.953,41.016,27.832,26.855,0
1581622535.036,-1.465,18.555,29.785,8.301,0
1581622535.040,-4.395,-0.488,31.250,-16.602,0
1581622535.044,-0.488,-24.902,29.297,-3.418,0
1581622535.048,4.395,-15.137,25.879,18.066,0
1581622535.052,9.766,33.691,23.438,12.695,0
1581622535.055,19.531,3.906,20.996,-5.859,0
1581622535.059,22.461,-30.762,27.344,0.000,0
1581622535.063,17.090,55.664,30.762,20.996,0
1581622535.067,18.066,33.691,29.785,20.508,0
1581622535.071,13.184,-19.531,27.832,0.000,0
1581622535.073,12.695,24.414,26.367,8.789,0
1581622535.077,14.160,49.316,29.785,38.574,0
1581622535.081,14.648,34.668,32.715,42.969,0
1581622535.085,13.672,6.836,32.227,2.441,0
1581622535.089,16.602,0.488,32.227,-17.578,0
1581622535.093,16.602,-15.625,32.227,14.160,0
1581622535.097,11.719,18.555,34.668,35.156,0
1581622535.100,14.160,-19.043,39.551,28.320,0
1581622535.104,5.859,-38.574,35.645,-4.395,0
1581622535.108,2.441,45.898,29.785,-5.859,0
1581622535.112,0.488,25.391,31.250,22.949,0
1581622535.116,10.254,11.230,35.645,20.508,0
1581622535.118,23.926,20.996,38.574,0.488,0
1581622535.122,20.996,21.484,35.156,-9.277,0
1581622535.126,8.789,-6.836,30.273,6.836,0
1581622535.130,-7.324,-9.277,26.367,21.484,0
1581622535.134,0.488,11.230,31.250,4.395,0
1581622535.138,7.812,5.371,36.133,0.977,0
1581622535.142,6.348,-10.254,32.715,13.184,0
1581622535.145,12.207,-2.441,32.715,19.043,0
1581622535.149,13.184,68.848,31.250,13.184,0
1581622535.153,8.301,75.684,27.832,-8.301,0
1581622535.157,7.812,-6.836,29.785,-3.418,0
1581622535.161,6.836,1.465,31.250,20.996,0
1581622535.163,0.000,58.594,24.414,18.066,0
1581622535.167,1.465,31.738,23.926,0.488,0
1581622535.171,4.883,-4.395,26.855,1.465,0
1581622535.175,2.930,6.836,29.785,26.855,0
1581622535.179,1.465,2.930,36.133,26.855,0
1581622535.183,-0.977,-16.602,38.086,-0.488,0
1581622535.187,-1.465,-47.363,36.133,-10.742,0
1581622535.190,8.789,-7.324,34.668,13.184,0
1581622535.194,7.324,74.219,30.762,32.715,0
1581622535.198,7.812,42.969,26.855,1.465,0
1581622535.202,14.160,0.000,28.320,-14.160,0
1581622535.206,4.395,9.277,30.273,9.766,0
1581622535.208,-5.371,29.785,28.320,18.066,0
1581622535.212,-9.277,11.719,26.367,9.766,0
1581622535.216,-5.859,0.000,29.297,-14.648,0
1581622535.220,-1.465,24.902,29.297,-9.766,0
1581622535.224,-1.465,30.762,26.855,21.484,0
1581622535.228,-12.207,-12.207,26.367,9.277,0
1581622535.232,-21.973,-2.930,24.902,-10.254,0
1581622535.235,-11.230,30.762,22.949,-7.324,0
1581622535.239,-8.789,18.555,24.414,17.090,0
1581622535.243,-12.695,11.230,27.832,23.926,0
1581622535.247,-0.977,-1.465,29.785,-0.488,0
1581622535.251,8.301,23.438,32.227,-14.160,0
1581622535.269,-0.977,25.879,31.738,1.465,0
1581622535.273,-9.766,0.977,27.832,25.391,0
1581622535.277,-4.883,-2.441,24.414,8.301,0
1581622535.281,3.418,35.645,25.391,-3.906,0
1581622535.285,-0.488,33.691,23.438,15.625,0
1581622535.289,-8.301,-38.574,22.461,17.578,0
1581622535.293,-6.348,-19.531,31.738,12.695,0
1581622535.296,5.859,36.133,36.621,5.371,0
1581622535.300,2.930,11.719,33.203,8.789,0
1581622535.304,-5.859,19.531,28.809,20.508,0
1581622535.308,8.301,5.859,26.367,6.836,0
1581622535.312,5.371,7.812,26.367,-12.695,0
1581622535.313,-2.930,37.598,25.391,-10.254,0
1581622535.317,0.977,39.062,20.996,18.066,0
1581622535.321,-0.977,36.133,19.531,30.762,0
1581622535.325,3.906,35.645,21.484,-0.977,0
1581622535.329,11.230,17.578,23.438,-10.742,0
1581622535.333,5.371,-13.672,27.344,2.930,0
1581622535.337,2.930,17.090,25.879,17.090,0
1581622535.340,17.578,52.734,21.484,19.531,0
1581622535.344,17.578,3.418,24.902,-5.859,0
1581622535.348,13.184,-41.992,26.855,9.277,0
1581622535.352,13.184,39.062,22.949,26.367,0
1581622535.356,-0.488,77.148,22.949,12.207,0
1581622535.358,4.395,27.832,27.832,-2.930,0
1581622535.362,6.836,-1.953,29.297,0.977,0
1581622535.366,-1.465,23.926,26.855,23.438,0
1581622535.370,8.301,41.016,32.227,22.949,0
1581622535.374,12.695,3.418,30.762,-7.812,0
1581622535.378,-0.488,-2.930,27.832,-8.789,0
1581622535.382,-0.488,9.277,27.832,17.578,0
1581622535.385,10.742,47.363,20.508,26.367,0
1581622535.389,9.766,-5.859,21.973,2.930,0
1581622535.393,11.230,-15.625,29.297,-14.160,0
1581622535.397,-0.977,71.289,32.715,7.812,0
1581622535.401,-4.883,39.062,31.738,18.555,0
1581622535.403,1.465,28.809,35.645,0.977,0
1581622535.407,-5.859,39.551,36.621,-6.348,0
1581622535.411,-8.789,49.805,29.785,6.836,0
1581622535.415,-1.953,30.762,22.949,28.809,0
1581622535.419,9.277,-1.465,22.949,20.020,0
1581622535.423,10.742,-4.883,27.344,-6.348,0
1581622535.427,-1.953,32.715,27.832,-2.930,0
1581622535.430,0.000,24.902,22.949,14.160,0
1581622535.434,14.160,-23.438,22.949,26.367,0
1581622535.438,20.020,42.969,28.809,12.207,0
1581622535.442,13.184,61.523,27.832,1.953,0
1581622535.446,7.324,9.277,24.414,20.996,0
1581622535.447,13.672,14.648,23.926,31.738,0
1581622535.451,28.320,44.922,24.414,14.648,0
1581622535.455,26.855,22.949,23.438,-6.348,0
1581622535.459,18.066,6.348,26.367,8.789,0
1581622535.463,3.906,22.949,26.367,20.020,0
1581622535.467,-1.465,2.441,22.949,1.953,0
1581622535.471,11.719,24.414,22.461,-11.719,0
1581622535.474,14.648,-17.578,25.879,2.441,0
1581622535.478,10.742,-21.973,24.414,33.691,0
1581622535.482,7.324,66.406,23.438,24.902,0
1581622535.486,11.230,27.832,29.785,-2.930,0
1581622535.490,6.348,3.418,33.691,-4.395,0
1581622535.492,-8.301,30.762,31.250,19.043,0
1581622535.496,-0.977,44.434,28.809,20.996,0
1581622535.500,16.602,5.859,25.391,1.953,0
1581622535.504,15.625,-0.488,22.461,-2.441,0
1581622535.508,13.672,32.227,22.461,13.672,0
1581622535.512,4.883,19.531,19.531,19.043,0
1581622535.516,-0.488,-1.953,18.066,1.953,0
1581622535.519,18.555,0.000,23.438,-10.742,0
1581622535.523,16.113,72.754,23.438,3.906,0
1581622535.527,19.043,83.496,16.113,15.625,0
1581622535.531,28.809,13.672,17.578,-1.465,0
1581622535.535,18.066,16.602,21.484,-11.230,0
1581622535.537,23.926,67.383,21.484,-1.465,0
1581622535.541,21.973,68.848,22.461,29.785,0
1581622535.545,23.438,40.527,22.949,31.738,0
1581622535.549,32.227,10.254,20.996,5.859,0
1581622535.553,14.648,19.531,22.949,3.906,0
1581622535.557,5.859,31.738,28.320,21.973,0
1581622535.561,20.996,-26.367,27.344,38.086,0
1581622535.564,13.184,-10.254,23.926,16.602,0
1581622535.568,-3.906,48.828,21.484,-2.930,0
1581622535.572,1.465,47.852,19.043,13.672,0
1581622535.576,12.207,39.551,22.949,26.367,0
1581622535.580,22.461,22.949,23.926,21.973,0
1581622535.582,15.625,30.273,20.996,6.348,0
1581622535.586,4.883,11.230,26.367,7.324,0
1581622535.590,16.602,13.184,32.227,27.832,0
1581622535.594,24.414,36.133,29.785,25.391,0
1581622535.598,20.996,31.738,29.297,14.648,0
1581622535.602,17.578,-9.277,32.227,17.578,0
1581622535.606,17.578,-24.414,29.785,30.273,0
1581622535.609,23.438,54.199,30.273,32.715,17110
1581622535.613,14.160,57.129,31.250,4.883,0
1581622535.617,16.113,-1.953,27.344,7.812,0
1581622535.621,21.973,8.301,31.250,27.344,0
1581622535.625,16.113,45.898,38.574,34.180,0
1581622535.642,22.949,22.461,36.621,29.785,0
1581622535.646,24.414,-6.348,31.738,6.836,0
1581622535.650,21.484,35.156,28.809,27.344,0
1581622535.654,16.602,64.453,21.973,33.203,0
1581622535.658,20.020,31.738,21.484,13.184,0
1581622535.662,24.414,-27.832,29.785,-2.441,0
1581622535.666,12.695,5.859,30.762,-1.465,0
1581622535.669,20.508,72.754,24.414,32.227,0
1581622535.673,14.160,33.203,25.391,26.367,0
1581622535.677,7.812,20.508,26.367,-1.953,0
1581622535.681,15.625,42.969,21.484,4.395,0
1581622535.685,12.207,62.012,26.367,25.879,0
1581622535.687,15.137,34.668,32.715,24.902,0
1581622535.691,25.879,10.254,28.809,-2.930,0
1581622535.695,30.273,28.320,26.367,-2.441,0
1581622535.699,22.949,36.133,25.879,31.250,0
1581622535.703,28.320,24.414,20.996,34.668,0
1581622535.707,33.691,1.953,24.902,17.090,0
1581622535.711,33.691,-10.742,28.320,17.578,0
1581622535.714,20.020,25.879,27.344,32.715,0
1581622535.718,5.371,23.438,32.715,38.574,0
1581622535.722,15.137,-21.973,34.668,20.508,0
1581622535.726,19.043,56.152,34.668,9.766,0
1581622535.730,10.254,62.988,35.156,15.625,0
1581622535.732,18.555,16.113,33.203,31.250,0
1581622535.736,15.137,27.832,32.715,33.203,0
1581622535.740,5.859,43.457,32.715,12.207,0
1581622535.744,17.090,20.508,34.180,21.484,0
1581622535.748,17.090,-6.836,34.668,33.691,0
1581622535.752,2.930,-18.066,30.762,29.297,0
1581622535.756,0.977,25.879,31.738,10.254,0
1581622535.759,15.137,54.199,34.668,3.418,0
1581622535.763,15.137,-17.578,27.832,21.973,0
1581622535.767,4.395,-9.277,22.949,11.719,0
1581622535.771,15.137,56.641,22.461,-3.418,0
1581622535.775,20.996,42.969,19.043,-3.418,0
1581622535.777,11.719,43.457,19.043,9.277,0
1581622535.781,11.230,48.828,21.484,29.297,0
1581622535.785,21.973,56.152,27.832,17.578,0
1581622535.789,22.461,27.344,26.367,-4.395,0
1581622535.793,23.926,-3.906,19.531,8.789,0
1581622535.797,26.855,3.418,22.461,35.156,0
1581622535.801,27.344,41.504,28.320,36.621,0
1581622535.804,24.902,32.227,28.809,0.488,0
1581622535.808,16.602,-20.996,25.391,0.977,0
1581622535.812,5.859,57.129,25.391,33.691,0
1581622535.816,9.277,72.754,29.297,30.273,0
1581622535.820,8.301,-1.465,31.738,9.277,0
1581622535.823,0.488,-13.672,30.273,-10.254,0
1581622535.827,5.859,19.531,30.762,-1.465,0
1581622535.831,14.648,47.852,32.715,14.160,0
1581622535.835,19.043,20.020,29.297,7.324,0
1581622535.839,20.508,8.301,29.297,2.930,0
1581622535.843,14.160,9.766,31.738,12.207,0
1581622535.847,11.719,45.898,33.691,30.762,0
1581622535.850,6.836,0.977,37.598,22.461,0
1581622535.854,1.465,-13.184,37.598,-4.883,0
1581622535.858,-0.488,70.801,29.297,-3.418,0
1581622535.862,7.324,43.457,23.438,20.996,0
1581622535.866,12.695,34.180,24.414,26.367,0
1581622535.868,10.742,49.316,25.391,6.348,0
1581622535.872,18.555,44.922,30.762,0.977,0
1581622535.876,20.508,23.926,31.250,19.043,0
1581622535.880,16.602,-15.137,28.809,20.020,0
1581622535.884,0.000,-1.953,31.738,-0.488,0
1581622535.888,-6.836,36.133,29.785,-3.418,0
1581622535.892,7.812,10.742,22.949,11.719,0
1581622535.895,15.625,-1.953,25.391,25.391,0
1581622535.899,18.555,45.410,23.926,14.648,0
1581622535.903,13.184,56.152,20.508,-1.465,0
1581622535.907,6.348,20.996,24.902,11.719,0
1581622535.911,3.906,14.160,30.762,33.203,0
1581622535.913,-0.977,42.969,29.785,20.508,0
1581622535.917,-0.977,21.484,26.367,-8.301,0
1581622535.921,14.160,-11.230,29.785,3.418,0
1581622535.925,9.766,28.320,28.320,26.855,0
1581622535.929,0.488,30.762,30.273,27.832,0
1581622535.933,7.324,4.395,31.250,17.090,0
1581622535.937,8.301,-41.992,19.043,7.324,0
1581622535.940,4.883,-14.648,10.254,8.789,0
1581622535.944,10.742,74.219,13.184,24.902,0
1581622535.948,9.277,32.715,25.391,18.555,0
1581622535.952,11.230,14.648,35.645,1.953,0
1581622535.956,22.949,24.414,29.297,17.090,0
1581622535.958,15.625,28.320,24.902,35.645,0
1581622535.962,10.254,24.902,24.902,19.043,0
1581622535.966,17.090,12.207,27.832,4.395,0
1581622535.970,20.508,22.461,29.297,13.184,0
1581622535.974,8.789,31.250,27.344,26.855,0
1581622535.978,6.348,7.324,27.344,24.902,0
1581622535.982,12.207,-24.902,25.879,-2.930,0
1581622535.985,3.906,41.504,20.020,-7.812,0
1581622535.989,10.254,71.777,15.625,22.949,0
1581622535.993,10.742,7.324,20.996,30.273,0
1581622535.997,4.395,9.277,25.391,11.719,0
1581622536.001,6.836,50.781,22.461,1.953,0
1581622536.018,13.184,40.527,21.484,14.160,0
1581622536.022,11.719,15.137,23.438,7.324,0
1581622536.026,8.789,8.301,25.879,0.488,0
1581622536.030,8.301,16.113,29.297,8.789,0
1581622536.034,0.000,25.879,27.344,15.137,0
1581622536.038,1.953,-15.625,20.996,24.414,0
1581622536.042,14.648,-1.465,20.996,12.695,0
1581622536.045,23.926,46.875,25.391,-0.977,0
1581622536.049,16.113,27.832,30.273,7.324,0
1581622536.053,5.371,13.672,32.227,31.250,0
1581622536.057,9.766,23.438,33.691,30.273,0
1581622536.061,17.090,43.457,33.203,5.371,0
1581622536.063,10.742,17.090,26.367,6.348,0
1581622536.067,4.395,32.715,24.414,31.250,0
1581622536.071,15.137,56.641,26.367,36.621,0
1581622536.075,15.137,40.527,29.785,17.578,0
1581622536.079,9.277,17.578,34.668,7.324,0
1581622536.083,17.090,-4.883,28.809,23.438,0
1581622536.087,20.508,15.625,30.273,34.180,0
1581622536.090,20.020,54.688,35.645,13.184,0
1581622536.094,10.254,33.691,25.879,-1.465,0
1581622536.098,4.883,-3.418,23.438,9.766,0
1581622536.102,19.043,62.012,30.762,22.461,0
1581622536.106,18.066,71.289,33.203,16.113,0
1581622536.108,12.695,26.855,32.227,7.812,0
1581622536.112,12.207,11.719,27.832,9.766,0
1581622536.116,11.230,47.363,24.414,23.438,0
1581622536.120,19.531,45.410,29.297,27.832,0
1581622536.124,15.625,-4.395,24.414,5.859,0
1581622536.128,20.508,0.000,23.926,3.906,0
1581622536.132,17.090,23.926,29.785,23.438,0
1581622536.135,6.836,37.598,27.344,27.344,0
1581622536.139,8.301,-22.949,22.949,13.184,0
1581622536.143,13.672,-12.207,23.438,3.418,0
1581622536.147,26.367,72.754,27.832,21.484,0
1581622536.151,24.414,35.156,24.414,32.227,0
1581622536.153,16.113,22.461,20.020,15.137,0
1581622536.157,9.277,38.574,18.555,-10.254,0
1581622536.161,9.277,48.828,25.391,-0.977,0
1581622536.165,18.066,31.250,30.273,30.273,0
1581622536.169,17.578,2.930,28.809,31.250,0
1581622536.173,9.766,3.906,27.832,5.859,0
1581622536.177,17.578,18.066,23.438,-2.930,0
1581622536.180,14.160,11.719,19.531,27.832,0
1581622536.184,7.324,17.090,20.020,30.273,0
1581622536.188,6.348,63.965,18.555,5.859,0
1581622536.192,2.930,50.293,16.602,-0.488,0
1581622536.196,7.324,2.930,19.043,2.441,0
1581622536.198,5.371,16.602,26.367,19.043,0
1581622536.202,0.488,55.664,30.273,10.254,0
1581622536.206,4.395,29.785,26.855,-6.348,0
1581622536.210,7.324,14.648,23.438,13.184,0
1581622536.214,14.648,29.297,23.438,31.738,0
1581622536.218,17.578,14.648,27.344,21.484,0
1581622536.222,7.812,33.203,24.902,0.000,0
1581622536.225,9.766,6.348,20.996,-0.977,0
1581622536.229,24.902,25.879,24.902,14.648,0
1581622536.233,20.508,77.148,30.762,18.555,0
1581622536.237,14.160,40.527,29.297,14.160,0
1581622536.241,22.461,23.438,28.320,16.602,0
1581622536.243,14.648,28.320,32.715,21.973,0
1581622536.247,-3.418,52.734,33.203,17.090,0
1581622536.251,-5.859,43.457,32.227,-0.977,0
1581622536.255,-0.977,22.461,27.832,-4.395,0
1581622536.259,8.789,30.273,24.414,10.254,0
1581622536.263,10.742,20.996,25.391,25.879,0
1581622536.267,12.695,-2.441,22.949,7.324,0
1581622536.270,9.277,-14.160,24.414,-14.160,0
1581622536.274,1.465,61.523,26.367,-1.465,0
1581622536.278,3.418,88.867,25.879,14.648,0
1581622536.282,8.301,21.484,29.297,9.277,0
1581622536.286,3.906,1.465,33.203,-13.672,0
1581622536.288,9.277,33.203,29.297,-7.324,0
1581622536.292,1.953,49.805,25.879,20.508,0
1581622536.296,-8.301,25.391,27.832,22.461,0
1581622536.300,-1.953,20.508,21.973,0.000,0
1581622536.304,-1.953,25.879,15.625,-7.812,0
1581622536.308,3.418,3.906,21.973,18.555,0
1581622536.312,4.395,-18.066,30.762,24.414,0
1581622536.315,3.418,12.207,35.156,-1.953,0
1581622536.319,9.766,70.312,31.738,-5.371,0
1581622536.323,19.531,41.016,24.902,8.789,0
1581622536.327,9.766,24.902,20.996,20.508,0
1581622536.331,7.812,39.062,17.090,15.625,0
1581622536.333,22.461,30.273,18.555,-0.488,0
1581622536.337,5.859,24.414,22.949,6.348,0
1581622536.341,-2.930,21.973,23.926,12.695,0
1581622536.345,-0.488,24.902,24.414,4.883,0
1581622536.349,0.977,40.039,29.785,-3.418,0
1581622536.353,12.207,-2.441,30.273,0.977,0
1581622536.357,14.648,-14.648,26.855,20.996,0
1581622536.360,13.672,56.152,29.785,13.672,0
1581622536.364,8.789,51.758,29.297,-15.625,0
1581622536.368,0.488,4.395,24.902,-12.695,0
1581622536.372,0.977,17.090,25.391,12.695,0
1581622536.376,-0.488,51.270,26.855,26.367,0
1581622536.393,-3.418,32.715,28.320,14.160,0
1581622536.397,5.859,-4.883,24.902,0.000,0
1581622536.401,3.906,8.301,24.414,12.207,0
1581622536.405,7.812,26.855,30.762,28.809,0
1581622536.409,17.578,18.555,30.762,18.555,0
1581622536.413,12.695,-24.902,25.879,-8.301,0
1581622536.417,-0.488,-20.508,25.391,-1.953,0
1581622536.420,-4.883,54.688,26.367,27.344,0
1581622536.424,7.812,56.152,23.438,23.926,0
1581622536.428,12.695,6.836,23.438,3.906,0
1581622536.432,3.906,30.273,24.902,-6.348,0
1581622536.436,-14.160,58.594,24.902,3.418,0
1581622536.437,-5.859,30.273,21.973,4.395,0
1581622536.441,13.672,15.137,20.020,-5.371,0
1581622536.445,20.508,39.062,24.414,-0.488,0
1581622536.449,14.648,50.293,23.926,14.648,0
1581622536.453,-0.488,14.160,22.949,16.602,0
1581622536.457,7.812,-5.371,26.367,10.742,0
1581622536.461,14.648,19.043,32.227,0.000,0
1581622536.464,4.883,50.781,34.180,4.395,0
1581622536.468,10.254,33.203,29.785,19.531,0
1581622536.472,10.254,-9.277,25.879,5.859,0
1581622536.476,-0.977,43.945,28.320,-13.672,0
1581622536.480,10.254,58.105,30.273,5.859,0
1581622536.482,7.812,10.254,28.809,21.973,0
1581622536.486,8.789,12.207,29.297,11.719,0
1581622536.490,13.184,34.668,30.273,-1.465,0
1581622536.494,19.531,25.879,28.809,4.395,0
1581622536.498,22.949,32.227,25.879,27.832,0
1581622536.502,8.301,12.695,23.926,22.461,0
1581622536.506,14.160,2.930,20.020,-4.883,0
1581622536.509,13.184,55.664,25.391,8.301,0
1581622536.513,3.418,-8.789,26.855,34.180,0
1581622536.517,4.883,-7.324,21.484,31.738,0
1581622536.521,-7.324,79.102,26.367,17.090,0
1581622536.525,-10.254,37.598,28.809,-12.207,0
1581622536.527,4.395,16.602,29.785,9.766,0
1581622536.531,2.441,37.598,31.250,37.598,0
1581622536.535,3.906,37.109,32.227,9.277,0
1581622536.539,-5.371,8.301,31.738,-10.742,0
1581622536.543,-16.113,7.324,26.855,-6.348,0
1581622536.547,8.789,2.441,27.832,18.066,0
1581622536.551,10.742,20.020,29.297,21.973,0
1581622536.554,4.883,25.391,29.785,2.441,0
1581622536.558,10.742,-15.625,30.273,-3.418,0
1581622536.562,2.930,42.480,28.320,6.348,0
1581622536.566,7.324,63.965,28.809,14.648,0
1581622536.570,13.184,10.742,27.344,5.371,0
1581622536.572,18.555,-1.465,22.949,-7.324,0
1581622536.576,26.367,52.246,24.902,13.184,0
1581622536.580,23.926,35.156,24.414,19.043,0
1581622536.584,19.043,5.371,18.555,2.441,0
1581622536.588,10.254,40.527,25.879,-8.301,0
1581622536.592,8.301,17.578,31.250,2.930,0
1581622536.596,19.043,29.785,27.832,26.367,0
1581622536.599,22.461,-6.348,27.832,13.672,0
1581622536.603,5.371,-9.277,27.832,-4.395,0
1581622536.607,-9.766,73.730,26.855,4.883,0
1581622536.611,-4.395,48.340,27.832,21.973,0
1581622536.615,6.348,43.945,29.297,15.137,0
1581622536.618,6.836,48.340,24.902,-8.789,27270
1581622536.622,0.000,38.574,20.508,-3.418,0
1581622536.626,-7.324,32.227,25.879,16.602,0
1581622536.630,-5.859,32.715,30.762,23.438,0
1581622536.634,0.000,31.738,26.367,-0.488,0
1581622536.638,12.695,18.555,19.043,-15.625,0
1581622536.642,3.418,18.066,21.484,18.066,0
1581622536.645,5.371,6.836,27.832,33.691,0
1581622536.649,23.438,63.477,35.156,12.695,0
1581622536.653,21.484,77.148,34.180,-5.371,0
1581622536.657,14.648,12.695,24.414,6.836,0
1581622536.661,11.719,32.227,19.043,26.855,0
1581622536.662,6.836,61.523,21.484,18.555,0
1581622536.666,10.742,35.645,27.832,2.441,0
1581622536.670,16.602,12.695,29.785,4.395,0
1581622536.674,13.184,16.602,31.250,15.625,0
1581622536.678,16.113,25.879,31.250,18.066,0
1581622536.682,2.930,5.859,24.902,-1.953,0
1581622536.686,-10.742,-33.203,22.949,-4.883,0
1581622536.689,3.906,11.230,25.391,8.789,0
1581622536.693,9.277,64.453,23.438,17.578,0
1581622536.697,6.348,16.602,22.949,10.254,0
1581622536.701,2.930,18.066,28.809,0.000,0
1581622536.705,7.324,30.762,27.832,19.531,0
1581622536.707,5.859,50.781,26.367,37.598,0
1581622536.711,-3.906,27.832,31.250,15.625,0
1581622536.715,3.418,0.977,33.203,3.906,0
1581622536.719,11.719,30.762,32.227,18.066,0
1581622536.723,15.137,38.086,26.855,24.902,0
1581622536.727,14.160,-2.441,24.414,16.113,0
1581622536.731,8.789,-5.859,23.438,-12.695,0
1581622536.734,13.184,58.594,25.879,-7.324,0
1581622536.738,6.348,65.430,24.414,21.973,0
1581622536.742,-2.441,12.695,22.949,18.066,0
1581622536.746,7.324,9.277,31.250,0.000,0
1581622536.750,8.301,20.508,31.250,0.000,0
1581622536.767,3.418,23.926,34.180,23.438,0
1581622536.771,5.371,22.461,39.062,34.668,0
1581622536.775,2.441,11.230,32.715,14.160,0
1581622536.779,-0.977,19.531,28.809,-0.977,0
1581622536.783,5.859,12.695,30.762,8.789,0
1581622536.787,-4.883,-37.109,29.785,25.879,0
1581622536.791,-4.395,-4.883,30.273,14.648,0
1581622536.794,1.953,62.012,30.273,-3.418,0
1581622536.798,0.000,30.762,28.320,13.184,0
1581622536.802,13.672,16.113,34.180,35.645,0
1581622536.806,7.812,22.949,39.062,40.039,0
1581622536.810,-4.883,32.227,32.715,13.184,0
1581622536.813,8.301,15.625,30.273,8.789,0
1581622536.817,11.230,10.742,33.203,29.297,0
1581622536.821,0.977,8.301,31.250,20.508,0
1581622536.825,2.930,8.301,25.879,-0.488,0
1581622536.829,6.348,23.926,21.973,-11.230,0
1581622536.833,4.395,16.113,21.973,6.836,0
1581622536.837,6.836,18.555,30.273,25.879,0
1581622536.840,1.953,59.082,33.691,3.418,0
1581622536.844,14.160,22.461,34.668,-5.371,0
1581622536.848,33.691,-19.531,36.621,18.066,0
1581622536.852,14.160,65.430,32.227,28.809,0
1581622536.856,12.207,68.359,31.250,23.926,0
1581622536.858,32.227,2.441,27.832,7.324,0
1581622536.862,29.297,10.742,24.902,8.789,0
1581622536.866,20.996,59.570,26.367,29.785,0
1581622536.870,18.066,48.340,24.414,34.180,0
1581622536.874,22.461,14.648,26.855,12.695,0
1581622536.878,19.531,-6.836,31.738,5.859,0
1581622536.882,9.277,17.578,27.832,23.926,0
1581622536.885,10.742,50.781,21.484,34.180,0
1581622536.889,22.949,-6.348,17.578,13.184,0
1581622536.893,25.391,-4.883,17.578,0.000,0
1581622536.897,17.578,74.219,22.461,24.902,0
1581622536.901,28.320,48.340,22.461,41.504,0
1581622536.903,32.715,22.949,19.531,30.762,0
1581622536.907,22.949,30.273,21.973,11.719,0
1581622536.911,12.207,44.922,23.438,16.602,0
1581622536.915,1.465,40.039,23.438,37.598,0
1581622536.919,1.465,10.742,32.715,32.227,0
1581622536.923,3.418,-0.977,35.156,1.953,0
1581622536.927,7.324,25.879,28.809,-0.488,0
1581622536.930,11.230,41.992,27.832,23.438,0
1581622536.934,5.859,4.883,26.367,27.832,0
1581622536.938,6.836,50.781,23.926,11.719,0
1581622536.942,18.555,64.453,24.414,1.953,0
1581622536.946,22.461,15.625,23.926,22.949,0
1581622536.949,19.531,16.113,19.531,28.809,0
1581622536.953,22.461,42.480,20.996,13.184,0
1581622536.957,27.832,29.785,26.855,5.859,0
1581622536.961,21.484,13.184,23.438,16.602,0
1581622536.965,21.484,34.668,20.996,35.156,0
1581622536.969,20.508,32.227,18.555,12.695,0
1581622536.973,14.648,36.133,18.555,-10.742,0
1581622536.976,21.973,-8.301,20.996,10.254,0
1581622536.980,27.344,4.395,22.461,30.762,0
1581622536.984,29.297,83.008,21.973,33.691,0
1581622536.988,21.484,44.922,19.043,-0.488,0
1581622536.992,14.160,5.859,23.438,-3.418,0
1581622536.993,11.230,37.598,29.297,24.902,0
1581622536.997,16.113,58.594,28.320,19.531,0
1581622537.001,16.602,25.879,19.531,7.324,0
1581622537.005,19.531,13.672,15.625,2.930,0
1581622537.009,18.555,31.738,16.602,16.113,0
1581622537.013,20.020,33.691,20.020,28.320,0
1581622537.017,23.926,4.883,19.043,7.812,0
1581622537.020,10.742,-19.043,18.555,-6.348,0
1581622537.024,6.836,40.527,21.973,7.324,0
1581622537.028,13.672,56.641,24.902,24.414,0
1581622537.032,18.066,4.883,31.738,22.949,0
1581622537.036,17.090,1.953,31.738,6.348,0
1581622537.039,20.020,51.758,24.414,8.789,0
1581622537.043,23.926,41.016,24.414,21.484,0
1581622537.047,16.602,-4.883,28.320,25.391,0
1581622537.051,10.254,8.301,25.879,7.812,0
1581622537.055,12.207,22.949,20.508,2.441,0
1581622537.059,11.230,15.625,22.949,20.996,0
1581622537.063,6.836,-15.137,26.367,13.672,0
1581622537.066,6.836,-2.441,21.484,2.930,0
1581622537.070,2.441,58.594,22.461,-0.488,0
1581622537.074,-0.977,33.203,25.391,8.301,0
1581622537.078,9.766,25.391,28.809,28.809,0
1581622537.082,0.977,31.250,30.273,2.441,0
1581622537.083,-4.883,30.273,26.855,-24.414,0
1581622537.087,6.836,25.879,26.855,2.930,0
1581622537.091,9.766,14.648,26.367,20.020,0
1581622537.095,3.906,43.457,23.438,12.207,0
1581622537.099,5.859,48.340,14.648,-0.977,0
1581622537.103,8.301,-5.859,16.113,0.977,0
1581622537.107,-4.395,-14.648,24.902,25.391,0
1581622537.110,-6.348,54.199,24.414,20.508,0
1581622537.114,14.160,67.871,17.578,-1.953,0
1581622537.118,19.531,11.719,17.578,-3.418,0
1581622537.122,12.207,12.207,21.484,19.043,0
1581622537.126,15.625,49.805,21.484,23.438,0
1581622537.143,13.184,44.922,22.949,0.000,0
1581622537.147,11.719,8.301,23.438,-4.883,0
1581622537.151,18.555,4.395,23.926,11.719,0
1581622537.155,12.207,45.410,24.902,28.320,0
1581622537.159,6.348,38.086,23.926,18.066,0
1581622537.163,13.672,-43.945,25.391,-4.395,0
1581622537.167,20.020,-14.160,26.367,15.137,0
1581622537.170,2.930,62.988,24.902,28.809,0
1581622537.174,-2.930,18.555,26.367,4.883,0
1581622537.178,13.184,26.367,28.320,-9.277,0
1581622537.182,22.949,45.410,25.391,0.000,0
1581622537.186,29.297,55.664,20.508,22.949,0
1581622537.188,31.250,42.480,21.973,21.973,0
1581622537.192,15.137,22.949,31.250,-1.465,0
1581622537.196,0.488,40.039,32.715,-7.812,0
1581622537.200,2.930,56.152,30.762,13.184,0
1581622537.204,5.859,28.320,28.320,23.926,0
1581622537.208,3.418,-5.859,25.879,-2.441,0
1581622537.212,5.371,31.250,30.273,-16.602,0
1581622537.215,11.230,54.199,31.738,11.719,0
1581622537.219,-2.930,1.465,28.320,28.809,0
1581622537.223,1.465,-16.113,28.320,11.719,0
1581622537.227,13.184,49.316,26.367,-12.207,0
1581622537.231,9.766,41.992,23.438,3.906,0
1581622537.234,3.906,11.719,20.508,23.926,0
1581622537.238,8.789,31.738,19.531,15.137,0
1581622537.242,16.602,52.734,23.926,-0.977,0
1581622537.246,-2.930,24.414,27.832,-4.395,0
1581622537.250,5.859,17.090,27.832,20.508,0
1581622537.254,12.207,24.414,27.344,29.785,0
1581622537.258,1.953,21.484,27.832,0.000,0
1581622537.261,10.742,67.383,24.902,-14.648,0
1581622537.265,12.207,6.836,23.926,3.906,0
1581622537.269,13.184,-21.484,25.391,20.996,0
1581622537.273,3.418,62.988,26.367,18.066,0
1581622537.277,0.488,45.410,27.832,-4.883,0
1581622537.278,4.883,29.297,26.367,1.465,0
1581622537.282,2.441,23.926,23.438,23.438,0
1581622537.286,8.789,23.926,21.973,10.254,0
1581622537.290,10.742,31.250,25.879,-8.301,0
1581622537.294,-9.277,22.461,29.297,-5.859,0
