timestamps,TP9,AF7,AF8,TP10,Right AUX,Marker0
1581350871.945,64.453,-19.043,-972.168,176.27,0.0,0
1581350871.949,72.266,-17.578,-972.656,-997.07,0.0,0
1581350871.9529998,52.734,-16.602,-972.656,-925.293,0.0,0
1581350871.957,36.621,-15.137,-972.168,-926.758,0.0,0
1581350871.961,28.809,-14.16,-972.168,-959.473,0.0,0
1581350871.965,43.945,-12.695,-972.656,-1000.0,0.0,0
1581350871.969,75.195,-19.043,-972.168,436.523,0.0,0
1581350871.972,58.105,-21.973000000000006,-972.168,506.348,0.0,0
1581350871.976,30.273000000000003,-16.113,-972.168,-740.7230000000002,0.0,0
1581350871.98,29.785,-18.555,-972.656,42.48,0.0,0
1581350871.984,33.203,-19.043,-972.168,-314.453,0.0,0
1581350871.988,26.855,-20.02,-972.168,-930.664,0.0,0
1581350871.99,26.855,-19.043,-972.656,-1000.0,0.0,0
1581350871.994,27.344,-23.438,-972.656,-462.891,0.0,0
1581350871.998,30.762,-20.02,-972.168,807.1289999999998,0.0,0
1581350872.002,31.25,-10.742,-972.656,-73.73,0.0,0
1581350872.006,21.973000000000006,-19.531,-972.656,-1000.0,0.0,0
1581350872.01,24.902,-27.832,-972.656,-940.918,0.0,0
1581350872.014,24.414,-21.484,-972.168,-915.527,0.0,0
1581350872.0170002,11.719,-8.301,-972.168,308.105,0.0,0
1581350872.021,16.602,0.0,-972.168,-722.168,0.0,0
1581350872.025,11.23,2.93,-972.656,404.785,0.0,0
1581350872.029,10.254,6.836,-972.656,-809.57,0.0,0
1581350872.033,20.02,10.254,-972.656,395.996,0.0,0
1581350872.05,21.973000000000006,8.301,-972.656,-840.82,0.0,0
1581350872.054,24.414,5.859,-972.168,921.387,0.0,0
1581350872.0579998,40.039,9.766,-972.168,-994.141,0.0,0
1581350872.062,42.48,12.695,-972.168,999.512,0.0,0
1581350872.066,36.621,15.137,-972.656,999.512,0.0,0
1581350872.07,50.293,17.09,-972.168,999.512,0.0,0
1581350872.074,77.637,22.949,-972.656,999.512,0.0,0
1581350872.077,73.73,26.367,-972.168,999.512,0.0,0
1581350872.081,40.039,16.113,-972.168,999.512,0.0,0
1581350872.085,33.691,9.766,-972.168,999.512,0.0,0
1581350872.089,34.668,14.16,-972.168,-999.512,0.0,0
1581350872.093,17.578,15.137,-972.656,990.234,0.0,0
1581350872.095,17.09,8.789,-972.656,955.566,0.0,0
1581350872.099,-3.418,2.441,-972.656,-840.332,0.0,0
1581350872.103,-3.906,0.488,-972.168,-63.477,0.0,0
1581350872.107,11.719,4.883,-972.168,-219.238,0.0,0
1581350872.111,-3.418,3.418,-972.656,-979.004,0.0,0
1581350872.115,-20.508000000000006,-8.789,-972.656,-858.887,0.0,0
1581350872.119,-30.273000000000003,-8.789,-972.168,-20.508000000000006,0.0,0
1581350872.1220002,-19.531,4.395,-972.168,-645.508,0.0,0
1581350872.1260002,-7.812,7.324,-972.168,-302.246,0.0,0
1581350872.13,5.371,6.348,-972.168,-946.777,0.0,0
1581350872.1339998,17.578,14.16,-972.168,-1000.0,0.0,0
1581350872.1379998,2.93,9.277,-972.168,-575.684,0.0,0
1581350872.14,-4.883,4.883,-972.656,723.633,0.0,0
1581350872.144,11.23,9.277,-972.656,508.789,0.0,0
1581350872.1479998,-8.789,8.301,-972.168,653.32,0.0,0
1581350872.1520002,-16.113,6.836,-972.168,-904.785,0.0,0
1581350872.156,-9.277,3.418,-972.656,964.844,0.0,0
1581350872.16,13.672,2.441,-972.168,-990.723,0.0,0
1581350872.164,34.668,11.719,-972.656,984.863,0.0,0
1581350872.167,9.766,17.578,-972.656,967.285,0.0,0
1581350872.171,3.418,11.719,-972.168,-934.57,0.0,0
1581350872.175,25.391,15.137,-972.168,20.02,0.0,0
1581350872.179,23.926,22.949,-972.656,-1000.0,0.0,0
1581350872.1829998,3.906,20.508000000000006,-972.656,-912.109,0.0,0
1581350872.185,21.484,13.184,-972.656,70.801,0.0,0
1581350872.189,37.109,17.09,-972.168,-954.59,0.0,0
1581350872.1929998,30.762,24.414,-972.168,983.398,0.0,0
1581350872.197,36.133,17.578,-972.656,958.496,0.0,0
1581350872.201,35.156,19.531,-972.168,-970.703,0.0,0
1581350872.205,30.273000000000003,20.508000000000006,-972.168,993.164,0.0,0
1581350872.209,59.082,23.438,-972.656,583.496,0.0,0
1581350872.212,78.125,24.414,-972.168,854.0039999999998,0.0,0
1581350872.216,43.457,18.066,-972.168,-958.008,0.0,0
1581350872.22,10.742,29.785,-972.168,892.09,0.0,0
1581350872.224,36.133,35.156,-972.656,-987.793,0.0,0
1581350872.228,44.434,23.926,-972.168,322.266,0.0,0
1581350872.23,62.012,23.438,-972.168,128.906,0.0,0
1581350872.234,52.246,23.438,-972.168,-140.137,0.0,0
1581350872.238,43.457,14.648,-972.168,-1000.0,0.0,0
1581350872.242,59.082,15.625,-972.168,-968.262,0.0,0
1581350872.246,65.43,12.695,-972.168,-954.59,0.0,0
1581350872.25,50.78100000000001,7.812,-972.168,-966.797,0.0,0
1581350872.254,29.297,17.09,-972.168,-925.781,0.0,0
1581350872.2570002,44.922,14.648,-972.168,-1000.0,0.0,0
1581350872.2610002,39.062,11.719,-972.168,-50.293,0.0,0
1581350872.265,28.809,24.414,-972.656,-907.715,0.0,0
1581350872.269,66.895,20.508000000000006,-972.656,967.285,0.0,0
1581350872.2729998,63.477,10.254,-972.656,981.445,0.0,0
1581350872.276,29.297,10.742,-972.656,-996.094,0.0,0
1581350872.28,24.414,11.719,-972.168,-1000.0,0.0,0
1581350872.284,12.207,2.441,-972.168,936.523,0.0,0
1581350872.288,8.301,3.418,-972.168,-861.816,0.0,0
1581350872.292,13.184,8.789,-972.168,213.867,0.0,0
1581350872.296,20.508000000000006,7.324,-972.168,-1000.0,0.0,0
1581350872.3,30.273000000000003,3.418,-972.168,-967.773,0.0,0
1581350872.303,49.316,-0.977,-972.168,-941.406,0.0,0
1581350872.3070002,58.105,7.324,-972.168,-182.129,0.0,0
1581350872.311,19.043,12.695,-972.168,-518.555,0.0,0
1581350872.315,41.01600000000001,1.953,-972.168,-258.301,0.0,0
1581350872.319,47.363,-6.348,-972.656,-864.258,0.0,0
1581350872.323,27.344,9.277,-972.168,207.031,0.0,0
1581350872.327,33.691,9.277,-972.168,252.93,0.0,0
1581350872.331,11.719,-2.93,-972.656,-880.3710000000002,0.0,0
1581350872.335,20.508000000000006,-0.488,-972.168,972.656,0.0,0
1581350872.339,31.25,2.93,-972.168,982.91,0.0,0
1581350872.343,30.273000000000003,-3.906,-972.656,959.473,0.0,0
1581350872.347,34.18,-8.789,-972.168,769.5310000000002,0.0,0
1581350872.35,29.297,-5.371,-972.168,-74.219,0.0,0
1581350872.354,52.734,7.812,-972.168,-1000.0,0.0,0
1581350872.3579998,92.285,4.395,-972.168,-285.645,0.0,0
1581350872.3620002,81.055,-3.906,-972.168,996.582,0.0,0
1581350872.3660002,39.062,0.488,-972.168,-820.801,0.0,0
1581350872.3660002,31.738000000000003,-4.883,-972.656,105.469,0.0,0
1581350872.37,43.457,-10.742,-972.168,-72.266,0.0,0
1581350872.3739998,7.812,-12.207,-972.168,-886.23,0.0,0
1581350872.3779998,10.254,-14.16,-972.168,979.98,0.0,0
1581350872.3820002,0.0,-17.09,-972.168,871.582,0.0,0
1581350872.3860002,0.488,-20.508000000000006,-972.168,-912.598,0.0,0
1581350872.39,41.01600000000001,-16.113,-972.168,578.125,0.0,0
1581350872.393,25.391,-0.977,-972.168,-654.297,0.0,0
1581350872.397,31.25,2.93,-972.168,-917.969,0.0,0
1581350872.401,31.25,-1.953,-972.168,-948.242,0.0,0
1581350872.405,30.762,-6.348,-972.656,-975.098,0.0,0
1581350872.409,45.41,-4.395,-972.168,-974.121,0.0,0
1581350872.426,46.387,-7.812,-972.168,-972.168,0.0,0
1581350872.43,37.109,-12.207,-972.656,-972.168,0.0,0
1581350872.434,17.09,-5.859,-972.168,-985.352,0.0,0
1581350872.438,-2.441,-6.348,-972.168,-900.879,0.0,0
1581350872.4420002,13.184,-16.113,-972.168,-1000.0,0.0,0
1581350872.446,19.531,-18.555,-972.168,-540.039,0.0,0
1581350872.45,3.906,-15.137,-972.168,816.895,0.0,0
1581350872.4529998,25.879,-8.301,-972.168,936.523,0.0,0
1581350872.457,43.945,-11.719,-972.168,828.613,0.0,0
1581350872.461,21.973000000000006,-18.555,-972.656,908.203,0.0,0
1581350872.465,-1.465,-16.113,-972.168,973.633,0.0,0
1581350872.469,11.23,-16.113,-972.656,-999.512,0.0,0
1581350872.47,23.926,-19.043,-972.656,-997.559,0.0,0
1581350872.474,32.715,-17.09,-972.656,971.68,0.0,0
1581350872.478,52.734,-17.09,-972.656,-976.074,0.0,0
1581350872.482,41.992,-19.531,-972.168,-971.191,0.0,0
1581350872.486,28.32,-25.391,-972.168,208.008,0.0,0
1581350872.49,20.996,-29.297,-972.168,756.836,0.0,0
1581350872.494,34.668,-21.973000000000006,-972.168,750.977,0.0,0
1581350872.4970002,22.461,-16.602,-972.168,-367.1880000000001,0.0,0
1581350872.5010002,26.367,-27.832,-972.656,714.355,0.0,0
1581350872.505,51.27,-27.344,-972.656,-918.457,0.0,0
1581350872.5089998,24.414,-17.09,-972.656,-962.402,0.0,0
1581350872.5129998,30.273000000000003,-26.855,-972.168,688.965,0.0,0
1581350872.516,38.086,-31.25,-972.168,312.5,0.0,0
1581350872.52,25.391,-28.32,-972.168,976.074,0.0,0
1581350872.524,38.574,-23.438,-972.168,-894.5310000000002,0.0,0
1581350872.528,49.316,-20.508000000000006,-972.168,-228.516,0.0,0
1581350872.532,43.945,-25.391,-972.168,-893.066,0.0,0
1581350872.536,37.109,-22.949,-972.656,-571.7769999999998,0.0,0
1581350872.54,43.945,-19.043,-972.168,-992.188,0.0,0
1581350872.543,43.457,-20.02,-972.168,-914.551,0.0,0
1581350872.5470002,54.688,-20.02,-972.656,-1000.0,0.0,0
1581350872.551,44.434,-18.555,-972.168,-506.836,0.0,0
1581350872.555,37.109,-11.23,-972.656,-939.941,0.0,0
1581350872.559,38.086,-11.719,-972.168,31.25,0.0,0
1581350872.561,31.738000000000003,-18.555,-972.168,-713.867,0.0,0
1581350872.565,49.316,-19.043,-972.656,-485.352,0.0,0
1581350872.569,51.27,-11.23,-972.168,-1000.0,0.0,0
1581350872.573,16.113,-21.484,-972.168,-962.402,0.0,0
1581350872.577,16.113,-29.785,-972.168,-967.285,0.0,0
1581350872.581,46.387,-22.461,-972.168,-979.492,0.0,0
1581350872.585,62.988,-8.789,-972.168,-927.246,0.0,0
1581350872.5879998,40.039,-16.113,-972.168,-1000.0,0.0,0
1581350872.592,20.996,-26.367,-972.168,-863.2810000000002,0.0,0
1581350872.596,30.762,-6.348,-972.168,201.66,0.0,0
1581350872.6,31.25,-7.812,-972.656,-380.859,0.0,0
1581350872.604,38.574,-17.578,-972.168,-1000.0,0.0,0
1581350872.606,27.344,-15.625,-972.168,-911.621,0.0,0
1581350872.61,-4.883,-19.043,-972.168,-985.84,0.0,0
1581350872.6139998,11.719,-19.043,-972.168,-914.062,0.0,0
1581350872.6179998,16.602,-20.508000000000006,-972.168,-1000.0,0.0,0
1581350872.6220002,20.996,-20.996,-972.168,-297.8520000000001,0.0,0
1581350872.6260002,31.738000000000003,-18.555,-972.168,-9.766,0.0,0
1581350872.63,26.367,-16.113,-972.168,-1000.0,0.0,0
1581350872.633,18.555,-30.762,-972.656,-924.316,0.0,0
1581350872.637,31.738000000000003,-20.02,-972.168,-1000.0,0.0,0
1581350872.641,53.223,-6.348,-972.656,-51.758,0.0,0
1581350872.645,44.434,-13.184,-972.168,-796.875,0.0,0
1581350872.649,42.969,-15.625,-972.168,-365.234,0.0,0
1581350872.651,41.01600000000001,-22.461,-972.168,-365.234,0.0,0
1581350872.655,14.648,-20.508000000000006,-972.168,884.2769999999998,0.0,0
1581350872.659,16.113,-31.738000000000003,-972.168,-355.469,0.0,0
1581350872.663,25.391,-36.133,-972.168,155.762,0.0,0
1581350872.667,51.758,-35.156,-972.168,478.516,0.0,0
1581350872.671,37.109,-36.621,-972.168,-1000.0,0.0,0
1581350872.675,21.973000000000006,-41.01600000000001,-972.168,31.25,0.0,0
1581350872.678,16.113,-43.945,-972.168,-856.934,0.0,0
1581350872.6820002,44.434,-32.715,-972.656,948.73,0.0,0
1581350872.686,84.961,-35.156,-972.168,987.305,0.0,0
1581350872.69,83.008,-39.551,-972.168,-997.559,0.0,0
1581350872.694,84.473,-29.785,-972.656,999.512,0.0,0
1581350872.696,68.848,-29.785,-972.168,-990.723,0.0,0
1581350872.7,64.941,-20.996,-972.656,955.078,0.0,0
1581350872.704,45.41,-14.16,-972.656,-956.055,0.0,0
1581350872.708,31.25,-26.855,-972.168,819.824,0.0,0
1581350872.712,49.316,-28.32,-972.168,-362.305,0.0,0
1581350872.716,54.199,-21.973000000000006,-972.168,-1000.0,0.0,0
1581350872.72,78.613,-26.367,-972.168,-144.043,0.0,0
1581350872.7229998,92.773,-24.414,-972.656,-959.961,0.0,0
1581350872.7270002,66.406,-12.695,-972.168,-933.594,0.0,0
1581350872.731,55.664,-15.625,-972.168,609.863,0.0,0
1581350872.735,60.059,-18.555,-972.656,648.9259999999998,0.0,0
1581350872.7389998,87.402,-16.602,-972.168,397.949,0.0,0
1581350872.74,72.75399999999998,-19.531,-972.656,-1000.0,0.0,0
1581350872.744,27.832,-22.461,-972.168,-442.871,0.0,0
1581350872.748,45.41,-24.414,-972.168,962.402,0.0,0
1581350872.752,44.434,-36.621,-972.168,-964.355,0.0,0
1581350872.756,27.832,-37.598,-972.656,869.6289999999998,0.0,0
1581350872.76,26.367,-34.18,-972.656,-945.312,0.0,0
1581350872.764,49.805,-32.227,-972.168,38.086,0.0,0
1581350872.7670002,80.566,-13.184,-972.168,-583.496,0.0,0
1581350872.771,62.5,-17.578,-972.656,766.113,0.0,0
1581350872.775,26.855,-27.344,-972.656,-812.5,0.0,0
1581350872.779,18.555,-19.531,-972.168,472.168,0.0,0
1581350872.783,48.34,-13.672,-972.168,-662.1089999999998,0.0,0
1581350872.8,54.688,-26.855,-972.168,-115.723,0.0,0
1581350872.804,49.316,-32.227,-972.168,910.645,0.0,0
1581350872.8079998,71.289,-28.32,-972.168,98.145,0.0,0
1581350872.812,84.961,-18.555,-972.656,-1000.0,0.0,0
1581350872.816,81.543,-19.043,-972.168,-950.195,0.0,0
1581350872.82,66.406,-31.25,-972.168,-940.43,0.0,0
1581350872.824,58.105,-30.273000000000003,-972.656,-981.445,0.0,0
1581350872.827,37.109,-22.461,-972.656,-972.656,0.0,0
1581350872.831,41.504,-16.113,-972.168,-951.66,0.0,0
1581350872.835,88.867,-24.414,-972.168,-962.891,0.0,0
1581350872.839,79.59,-18.555,-972.656,-1000.0,0.0,0
1581350872.843,58.105,-14.16,-972.168,-629.883,0.0,0
1581350872.845,45.41,-24.414,-972.168,-660.645,0.0,0
1581350872.849,42.48,-22.461,-972.168,-1000.0,0.0,0
1581350872.853,70.312,-13.184,-972.168,-53.71100000000001,0.0,0
1581350872.857,44.434,-21.484,-972.168,-834.4730000000002,0.0,0
1581350872.861,26.367,-20.02,-972.168,-163.57399999999996,0.0,0
1581350872.865,63.965,-20.508000000000006,-972.168,-1000.0,0.0,0
1581350872.869,67.87100000000001,-24.414,-972.168,-506.348,0.0,0
1581350872.8720002,49.805,-18.066,-972.168,-263.672,0.0,0
1581350872.8760002,50.293,-24.902,-972.656,306.152,0.0,0
1581350872.88,94.238,-27.344,-972.656,-83.49600000000002,0.0,0
1581350872.8839998,108.398,-4.883,-972.168,-1000.0,0.0,0
1581350872.8879998,112.305,-2.93,-972.168,-343.26199999999994,0.0,0
1581350872.89,97.656,-13.184,-972.168,998.047,0.0,0
1581350872.894,58.105,-11.719,-972.168,-988.281,0.0,0
1581350872.8979998,36.133,-11.23,-972.168,970.215,0.0,0
1581350872.9020002,34.18,-14.16,-972.168,955.078,0.0,0
1581350872.906,44.434,-26.367,-972.168,-932.617,0.0,0
1581350872.91,45.898,-22.461,-972.168,848.633,0.0,0
1581350872.914,49.316,-7.812,-972.168,-303.711,0.0,0
1581350872.917,45.898,-22.949,-972.168,-768.555,0.0,0
1581350872.921,30.273000000000003,-41.992,-972.168,31.738000000000003,0.0,0
1581350872.925,41.01600000000001,-32.227,-972.168,-955.078,0.0,0
1581350872.929,48.34,-17.578,-972.168,989.746,0.0,0
1581350872.9329998,39.062,-20.996,-972.168,984.863,0.0,0
1581350872.935,35.645,-20.996,-972.168,939.941,0.0,0
1581350872.939,7.812,-14.16,-972.168,922.363,0.0,0
1581350872.9429998,33.203,-11.23,-972.168,855.957,0.0,0
1581350872.947,58.594,-13.672,-972.168,539.062,0.0,0
1581350872.951,42.969,-14.648,-972.656,788.086,0.0,0
1581350872.955,39.551,-13.672,-972.168,-950.684,0.0,0
1581350872.959,63.477,-15.137,-972.168,979.492,0.0,0
1581350872.962,91.797,-15.625,-972.168,-996.582,0.0,2
1581350872.966,67.383,-15.625,-972.656,999.512,0.0,0
1581350872.97,-0.488,-9.766,-972.168,-995.117,0.0,0
1581350872.974,-9.766,-10.254,-972.168,980.469,0.0,0
1581350872.978,17.09,-23.438,-972.656,-979.492,0.0,0
1581350872.98,12.695,-22.461,-972.168,937.988,0.0,0
1581350872.984,-16.113,-8.789,-972.168,464.355,0.0,0
1581350872.988,-64.453,-4.395,-972.168,183.594,0.0,0
1581350872.992,-73.242,-5.371,-972.168,39.551,0.0,0
1581350872.996,-76.66,-0.977,-972.656,780.273,0.0,0
1581350873.0,-129.88299999999998,0.977,-972.656,-915.527,0.0,0
1581350873.004,-193.848,-4.395,-972.656,938.477,0.0,0
1581350873.0070002,-224.121,-13.672,-972.168,-955.566,0.0,0
1581350873.0110002,-216.797,-5.859,-972.168,674.316,0.0,0
1581350873.015,-226.074,3.418,-972.168,675.7810000000002,0.0,0
1581350873.019,-209.473,9.277,-972.168,136.23,0.0,0
1581350873.0229998,-173.828,16.602,-972.168,336.914,0.0,0
1581350873.025,-191.406,17.09,-972.168,-876.953,0.0,0
1581350873.029,-176.27,18.555,-972.168,961.426,0.0,0
1581350873.033,-151.855,14.648,-972.168,926.758,0.0,0
1581350873.0370002,-144.531,12.207,-972.168,-832.52,0.0,0
1581350873.041,-89.844,15.625,-972.168,219.238,0.0,0
1581350873.045,-23.926,12.695,-972.168,-1000.0,0.0,0
1581350873.049,-40.039,5.371,-972.656,251.953,0.0,0
1581350873.052,-35.156,15.625,-972.168,-876.953,0.0,0
1581350873.056,-9.277,25.391,-972.656,947.754,0.0,0
1581350873.06,-0.977,29.297,-972.656,930.664,0.0,0
1581350873.064,31.738000000000003,18.555,-972.168,-859.375,0.0,0
1581350873.0679998,28.809,5.859,-972.168,221.191,0.0,0
1581350873.085,70.312,15.137,-972.168,-1000.0,0.0,0
1581350873.089,84.961,16.113,-972.168,-956.543,0.0,0
1581350873.093,55.176,10.742,-972.168,-944.824,0.0,0
1581350873.097,60.059,11.719,-972.656,-979.004,0.0,0
1581350873.101,73.242,11.23,-972.168,-972.168,0.0,0
1581350873.105,89.355,10.254,-972.168,-972.168,0.0,0
1581350873.109,94.727,4.395,-972.168,-972.656,0.0,0
1581350873.1120002,68.848,8.789,-972.168,-980.469,0.0,0
1581350873.1160002,76.66,15.137,-972.168,-902.832,0.0,0
1581350873.12,101.562,7.812,-972.168,-1000.0,0.0,0
1581350873.1239998,89.355,10.254,-972.168,-435.059,0.0,0
1581350873.1279998,73.242,18.555,-972.168,-882.324,0.0,0
1581350873.13,87.891,12.695,-972.168,247.07,0.0,0
1581350873.1339998,137.695,6.348,-972.168,-628.906,0.0,0
1581350873.1379998,167.96900000000005,9.766,-972.168,-632.3240000000002,0.0,0
1581350873.1420002,151.855,10.254,-972.168,78.125,0.0,0
1581350873.146,143.555,10.254,-972.168,425.781,0.0,0
1581350873.15,145.02,8.789,-972.168,-1000.0,0.0,0
1581350873.154,109.375,11.719,-972.168,-926.27,0.0,0
1581350873.157,109.375,22.461,-972.168,-1000.0,0.0,0
1581350873.161,118.164,20.02,-972.168,-526.367,0.0,0
1581350873.165,85.93799999999997,0.977,-972.168,650.391,0.0,0
1581350873.169,94.238,3.906,-972.168,-566.895,0.0,0
1581350873.173,60.547,11.719,-972.168,-54.199,0.0,0
1581350873.175,35.156,6.348,-972.168,-828.613,0.0,0
1581350873.179,71.289,9.277,-972.168,-944.824,0.0,0
1581350873.1829998,85.449,9.277,-972.168,-378.418,0.0,0
1581350873.187,84.961,7.812,-972.168,-440.918,0.0,0
1581350873.191,81.543,0.977,-972.168,-921.387,0.0,0
1581350873.195,78.613,-2.441,-972.168,-998.047,0.0,0
1581350873.199,69.824,0.977,-972.168,963.379,0.0,0
1581350873.202,47.852,3.418,-972.168,990.723,0.0,0
1581350873.206,43.945,-3.418,-972.168,-967.285,0.0,0
1581350873.21,71.289,-13.184,-972.168,895.9960000000002,0.0,0
1581350873.214,79.102,-1.953,-972.168,627.93,0.0,0
1581350873.218,81.543,14.648,-972.168,930.176,0.0,0
1581350873.22,83.49600000000002,2.93,-972.168,-960.449,0.0,0
1581350873.224,91.309,4.395,-972.168,976.074,0.0,0
1581350873.228,107.422,20.996,-972.168,-993.652,0.0,0
1581350873.232,77.637,11.719,-972.168,999.512,0.0,0
1581350873.236,33.691,-8.789,-972.168,999.512,0.0,0
1581350873.24,70.312,-11.23,-972.168,-991.699,0.0,0
1581350873.244,129.88299999999998,5.859,-972.168,932.129,0.0,0
1581350873.2470002,101.562,17.578,-972.168,-875.977,0.0,0
1581350873.2510002,68.359,3.418,-972.168,464.355,0.0,0
1581350873.255,89.844,-3.418,-972.168,-799.805,0.0,0
1581350873.2589998,98.633,14.16,-972.168,-848.633,0.0,0
1581350873.2629998,71.777,14.16,-972.168,-922.852,0.0,0
1581350873.266,52.734,4.395,-972.168,-986.816,0.0,0
1581350873.27,51.758,0.488,-972.168,-967.285,0.0,0
1581350873.274,74.707,0.488,-972.168,-946.289,0.0,0
1581350873.278,101.074,0.488,-972.168,-819.336,0.0,0
1581350873.282,127.441,-3.906,-972.168,-247.07,0.0,0
1581350873.286,106.445,-10.742,-972.168,502.441,0.0,0
1581350873.29,70.312,-9.766,-972.168,-529.785,0.0,0
1581350873.293,43.945,-1.953,-972.168,-1000.0,0.0,0
1581350873.2970002,23.438,-7.812,-972.168,-822.2660000000002,0.0,0
1581350873.301,12.207,-9.766,-972.168,-1000.0,0.0,0
1581350873.305,2.441,-8.301,-972.168,-350.586,0.0,0
1581350873.309,-4.395,-6.348,-972.168,-832.0310000000002,0.0,0
1581350873.31,16.602,-9.766,-972.168,219.238,0.0,0
1581350873.314,77.148,-19.531,-972.168,-1000.0,0.0,0
1581350873.3179998,76.172,-19.043,-972.168,-951.66,0.0,0
1581350873.322,61.035,-22.461,-972.168,-910.645,0.0,0
1581350873.326,77.637,-20.996,-972.656,-1000.0,0.0,0
1581350873.33,68.848,-18.066,-972.656,-859.863,0.0,0
1581350873.334,25.391,-14.16,-972.168,512.695,0.0,0
1581350873.337,21.484,-21.484,-972.168,296.875,0.0,0
1581350873.341,58.105,-26.855,-972.168,147.461,0.0,0
1581350873.345,45.898,-16.113,-972.168,105.469,0.0,0
1581350873.349,11.23,-20.508000000000006,-972.168,-999.023,0.0,0
1581350873.353,14.16,-18.066,-972.168,-1000.0,0.0,0
1581350873.356,24.902,-18.555,-972.168,-262.695,0.0,0
1581350873.36,7.812,-31.738000000000003,-972.168,989.258,0.0,0
1581350873.3639998,31.738000000000003,-30.273000000000003,-972.168,971.191,0.0,0
1581350873.3679998,47.363,-30.273000000000003,-972.168,964.844,0.0,0
1581350873.3720002,37.598,-31.25,-972.168,400.391,0.0,0
1581350873.3760002,31.738000000000003,-33.691,-972.168,133.789,0.0,0
1581350873.38,27.832,-30.762,-972.656,-194.336,0.0,0
1581350873.383,50.78100000000001,-33.691,-972.168,-308.594,0.0,0
1581350873.387,45.898,-28.32,-972.168,278.809,0.0,0
1581350873.391,35.156,-20.02,-972.168,897.949,0.0,0
1581350873.395,60.547,-24.414,-972.168,-874.023,0.0,0
1581350873.399,57.617,-24.414,-972.168,-207.52,0.0,0
1581350873.4,21.973000000000006,-20.996,-972.656,-1000.0,0.0,0
1581350873.404,13.184,-13.184,-972.168,134.766,0.0,0
1581350873.408,-0.488,-9.766,-972.656,-993.164,0.0,0
1581350873.4120002,2.441,-15.137,-972.168,272.461,0.0,0
1581350873.416,22.949,-16.113,-972.168,230.957,0.0,0
1581350873.42,29.785,-14.16,-972.168,591.309,0.0,0
1581350873.424,42.48,-17.09,-972.168,-716.309,0.0,0
1581350873.427,52.246,-18.555,-972.168,-1000.0,0.0,0
1581350873.431,62.5,-5.859,-972.168,-916.016,0.0,0
1581350873.435,85.449,-1.465,-972.656,-981.445,0.0,0
1581350873.439,70.801,-10.742,-972.168,-972.168,0.0,0
1581350873.4429998,59.57,-4.395,-972.168,-975.586,0.0,0
1581350873.446,71.777,0.977,-972.168,-957.031,0.0,0
1581350873.45,48.828,-9.766,-972.168,-965.82,0.0,0
1581350873.454,34.668,-11.719,-972.168,-1000.0,0.0,0
1581350873.458,53.223,-7.812,-972.656,-255.859,0.0,0
1581350873.462,36.133,-1.953,-972.168,-130.859,0.0,0
1581350873.466,18.066,-8.301,-972.168,-1000.0,0.0,0
1581350873.47,40.527,-10.742,-972.168,-156.25,0.0,0
1581350873.4729998,36.133,-2.93,-972.168,-931.152,0.0,0
1581350873.4770002,45.898,5.859,-972.656,977.539,0.0,0
1581350873.481,42.969,4.395,-972.656,990.723,0.0,0
1581350873.485,32.227,5.859,-972.168,958.496,0.0,0
1581350873.4889998,62.012,10.254,-972.168,646.9730000000002,0.0,0
1581350873.49,50.293,17.09,-972.168,782.227,0.0,0
1581350873.494,36.621,13.672,-972.168,81.055,0.0,0
1581350873.498,63.965,8.789,-972.168,-988.77,0.0,0
1581350873.502,77.148,13.672,-972.168,-969.727,0.0,0
1581350873.506,94.727,12.695,-972.168,-941.406,0.0,0
1581350873.51,90.332,1.465,-972.168,-989.258,0.0,0
1581350873.514,44.434,-7.812,-972.168,-903.32,0.0,0
1581350873.5170002,20.508000000000006,8.789,-972.168,-1000.0,0.0,0
1581350873.521,27.344,13.672,-972.168,-111.816,0.0,0
1581350873.525,30.273000000000003,11.719,-972.168,576.66,0.0,0
1581350873.529,14.648,1.953,-972.168,604.98,0.0,0
1581350873.533,-8.789,-8.789,-972.168,317.871,0.0,0
1581350873.55,20.508000000000006,-5.859,-972.168,-1000.0,0.0,0
1581350873.554,40.039,-10.254,-972.168,-52.734,0.0,0
1581350873.5579998,28.32,-15.137,-972.168,956.543,0.0,0
1581350873.562,24.902,-12.695,-972.168,-195.312,0.0,0
1581350873.566,-13.672,-14.648,-972.168,457.52,0.0,0
1581350873.57,3.906,-29.785,-972.168,-854.0039999999998,0.0,0
1581350873.574,41.504,-26.855,-972.656,940.43,0.0,0
1581350873.577,48.828,-8.789,-972.168,-995.117,0.0,0
1581350873.581,75.195,-13.184,-972.168,999.512,0.0,0
1581350873.585,53.71100000000001,-23.438,-972.168,-1000.0,0.0,0
1581350873.589,41.992,-15.137,-972.168,990.234,0.0,0
1581350873.593,43.457,-13.184,-972.168,-991.211,0.0,0
1581350873.595,55.176,-16.113,-972.168,936.035,0.0,0
1581350873.599,73.242,-10.742,-972.168,949.219,0.0,0
1581350873.603,54.199,-14.648,-972.168,108.887,0.0,0
1581350873.607,57.617,-18.066,-972.168,-1000.0,0.0,0
1581350873.611,69.824,-12.695,-972.168,-928.223,0.0,0
1581350873.615,65.918,-9.766,-972.168,-1000.0,0.0,0
1581350873.619,40.527,-8.301,-972.168,-24.414,0.0,0
1581350873.6220002,50.78100000000001,2.93,-972.168,818.3589999999998,0.0,0
1581350873.6260002,85.449,-7.324,-972.168,894.5310000000002,0.0,0
1581350873.63,81.055,-20.02,-972.168,981.934,0.0,0
1581350873.6339998,82.52,-3.418,-972.168,-354.004,0.0,0
1581350873.6379998,88.37899999999998,-10.742,-972.168,190.43,0.0,0
1581350873.641,102.539,-11.23,-972.168,-844.727,0.0,0
1581350873.645,81.055,-3.906,-972.168,927.734,0.0,0
1581350873.649,50.293,-7.812,-972.168,-931.641,0.0,0
1581350873.653,69.824,-7.812,-972.168,-3.418,0.0,0
1581350873.657,71.777,-9.766,-972.168,-681.6410000000002,0.0,0
1581350873.661,80.566,-15.137,-972.168,275.879,0.0,0
1581350873.665,90.82,-12.207,-972.168,892.578,0.0,0
1581350873.668,54.199,-3.418,-972.168,-904.785,0.0,0
1581350873.6720002,49.316,-9.277,-972.168,338.867,0.0,0
1581350873.676,83.008,-13.672,-972.168,-907.227,0.0,0
1581350873.68,66.406,-5.371,-972.168,-931.641,0.0,0
1581350873.684,37.109,-1.465,-972.168,60.547,0.0,0
1581350873.685,38.086,-4.883,-972.168,-961.426,0.0,0
1581350873.689,21.484,-4.883,-972.168,966.309,0.0,0
1581350873.6929998,13.184,0.977,-972.656,-961.914,0.0,0
1581350873.697,22.461,-0.488,-972.168,699.707,0.0,0
1581350873.701,4.395,-3.906,-972.168,598.633,0.0,0
1581350873.705,5.859,-3.906,-972.168,-971.191,0.0,0
1581350873.709,20.02,-0.488,-972.656,-998.047,0.0,0
1581350873.712,34.668,-3.418,-972.656,988.77,0.0,0
1581350873.716,44.434,-1.465,-972.168,-998.535,0.0,0
1581350873.72,10.254,12.207,-972.168,999.512,0.0,0
1581350873.724,25.879,7.812,-972.168,999.512,0.0,0
1581350873.728,48.34,1.953,-972.168,-999.023,0.0,0
1581350873.731,13.672,6.836,-972.168,989.746,0.0,0
1581350873.735,14.16,12.695,-972.168,971.68,0.0,0
1581350873.7389998,33.691,11.719,-972.168,-897.949,0.0,0
1581350873.7429998,38.086,6.836,-972.168,59.57,0.0,0
1581350873.7470002,45.41,6.348,-972.168,-493.164,0.0,0
1581350873.7510002,45.41,6.836,-972.168,-773.926,0.0,0
1581350873.755,66.406,10.742,-972.168,-631.836,0.0,0
1581350873.758,83.008,-0.977,-972.168,810.547,0.0,0
1581350873.762,67.87100000000001,-9.766,-972.656,920.41,0.0,0
1581350873.766,45.41,-2.441,-972.168,951.66,0.0,0
1581350873.77,19.043,-1.465,-972.656,665.039,0.0,0
1581350873.774,-0.977,-6.836,-972.656,-913.574,0.0,0
1581350873.776,11.23,-6.348,-972.168,-675.7810000000002,0.0,0
1581350873.78,13.184,-1.465,-972.168,-178.22299999999996,0.0,0
1581350873.784,-20.996,-12.207,-972.168,-73.242,0.0,0
1581350873.788,1.953,-15.625,-972.168,180.664,0.0,0
1581350873.792,25.879,-5.371,-972.168,52.246,0.0,0
1581350873.796,13.672,-14.648,-972.168,124.512,0.0,0
1581350873.8,16.113,-21.484,-972.168,-573.242,0.0,0
1581350873.803,37.598,-15.137,-972.168,-992.676,0.0,0
1581350873.8070002,59.57,-10.254,-972.656,-749.512,0.0,0
1581350873.811,72.75399999999998,-7.812,-972.168,-612.793,0.0,0
1581350873.815,32.715,-11.23,-972.168,121.094,0.0,0
1581350873.819,5.859,-8.301,-972.656,119.629,0.0,0
1581350873.82,4.883,-1.465,-972.168,-1000.0,0.0,0
1581350873.824,20.02,-7.324,-972.168,-755.8589999999998,0.0,0
1581350873.8279998,28.32,-10.742,-972.168,-691.4060000000002,0.0,0
1581350873.832,24.414,-6.348,-972.168,-7.812,0.0,0
1581350873.836,23.926,-2.441,-972.656,742.188,0.0,0
1581350873.84,41.992,-0.977,-972.168,-668.457,0.0,0
1581350873.844,37.598,-7.812,-972.168,-416.016,0.0,0
1581350873.847,11.23,-3.906,-972.168,758.789,0.0,0
1581350873.851,33.203,3.418,-972.168,500.48800000000006,0.0,0
1581350873.855,28.32,2.93,-972.168,-603.0269999999998,0.0,0
1581350873.859,17.578,0.0,-972.168,-1000.0,0.0,0
1581350873.863,4.883,-4.883,-972.168,-892.09,0.0,0
1581350873.865,0.977,-0.977,-972.168,-1000.0,0.0,0
1581350873.869,36.133,5.859,-972.168,311.523,0.0,0
1581350873.873,31.25,0.488,-972.168,571.289,0.0,0
1581350873.877,44.922,0.0,-972.168,-1000.0,0.0,0
1581350873.881,62.5,1.465,-972.168,68.359,0.0,0
1581350873.885,36.133,-13.184,-972.168,-913.086,0.0,0
1581350873.889,-18.066,-14.648,-972.168,-449.707,0.0,0
1581350873.8920002,-29.297,-8.301,-972.168,-1000.0,0.0,0
1581350873.896,-10.742,-5.371,-972.168,-914.551,0.0,0
1581350873.9,14.16,-7.812,-972.168,-916.992,0.0,0
1581350873.904,31.25,-10.742,-972.168,-1000.0,0.0,0
1581350873.908,20.02,-11.719,-972.168,-565.43,0.0,0
1581350873.925,12.695,-19.531,-972.168,849.1210000000002,0.0,0
1581350873.929,26.367,-29.785,-972.168,888.672,0.0,0
1581350873.9329998,14.648,-18.555,-972.168,-555.1759999999998,0.0,0
1581350873.937,-24.414,-12.695,-972.168,-1000.0,0.0,0
1581350873.941,-3.418,-26.855,-972.168,-873.047,0.0,0
1581350873.945,51.27,-31.25,-972.168,-1000.0,0.0,0
1581350873.949,72.75399999999998,-27.832,-972.168,-204.102,0.0,0
1581350873.952,33.691,-15.625,-972.168,-55.176,0.0,0
1581350873.956,-22.949,-20.02,-972.168,-1000.0,0.0,0
1581350873.96,-2.93,-30.273000000000003,-972.168,-937.5,0.0,0
1581350873.964,30.273000000000003,-27.344,-972.656,-953.613,0.0,0
1581350873.968,29.785,-23.926,-972.656,-1000.0,0.0,0
1581350873.97,17.578,-29.785,-972.168,440.43,0.0,0
1581350873.974,-23.438,-33.203,-972.168,365.723,0.0,0
1581350873.978,-7.812,-28.32,-972.168,-1000.0,0.0,0
1581350873.982,28.32,-27.344,-972.168,-916.016,0.0,0
1581350873.986,33.203,-32.715,-972.168,-977.051,0.0,0
1581350873.99,42.969,-36.621,-972.168,-876.953,0.0,0
1581350873.994,52.246,-33.691,-972.168,479.492,0.0,0
1581350873.9970002,38.574,-33.691,-972.168,-892.09,0.0,0
1581350874.0010002,37.109,-36.133,-972.168,937.012,0.0,0
1581350874.005,41.01600000000001,-32.715,-972.168,-989.258,0.0,0
1581350874.0089998,13.184,-16.602,-972.168,922.363,0.0,0
1581350874.0129998,42.969,-19.531,-972.168,-791.0160000000002,0.0,0
1581350874.015,28.809,-23.926,-972.168,154.297,0.0,0
1581350874.019,25.879,-22.461,-972.168,-556.1519999999998,0.0,0
1581350874.0229998,47.363,-22.949,-972.168,-904.785,0.0,0
1581350874.0270002,34.18,-23.438,-972.168,314.941,0.0,0
1581350874.031,20.508000000000006,-27.832,-972.168,-1000.0,0.0,0
1581350874.035,11.23,-27.344,-972.168,-32.227,0.0,0
1581350874.039,10.254,-27.344,-972.168,-881.836,0.0,0
1581350874.042,26.367,-20.508000000000006,-972.168,885.742,0.0,0
1581350874.046,53.223,-27.832,-972.168,481.934,0.0,0
1581350874.05,38.574,-23.438,-972.168,626.465,0.0,0
1581350874.054,43.945,-10.254,-972.168,333.9840000000001,0.0,0
1581350874.0579998,77.637,-13.184,-972.168,-946.777,0.0,0
1581350874.06,79.102,-14.16,-972.168,-844.727,0.0,0
1581350874.064,50.293,-14.16,-972.168,-500.977,0.0,0
1581350874.0679998,23.926,-9.277,-972.168,-168.457,0.0,0
1581350874.072,41.504,-13.184,-972.168,742.676,0.0,0
1581350874.076,77.148,-22.949,-972.168,-162.109,0.0,0
1581350874.08,68.359,-12.695,-972.168,-1000.0,0.0,0
1581350874.084,56.64100000000001,-1.953,-972.168,-1000.0,0.0,0
1581350874.087,59.082,-9.766,-972.168,-409.18,0.0,0
1581350874.091,39.551,-16.602,-972.168,871.0939999999998,0.0,0
1581350874.095,12.207,-3.906,-972.656,999.023,0.0,0
1581350874.099,19.043,-9.277,-972.168,914.062,0.0,0
1581350874.103,26.367,-15.137,-972.168,-908.203,0.0,0
1581350874.105,22.949,-5.371,-972.168,440.918,0.0,0
1581350874.109,17.09,-1.465,-972.168,-847.6560000000002,0.0,0
1581350874.113,12.207,3.906,-972.168,-1000.0,0.0,0
1581350874.117,13.184,3.906,-972.168,-929.199,0.0,0
1581350874.121,13.672,2.441,-972.168,-982.91,0.0,0
1581350874.125,6.836,5.371,-972.168,-972.168,0.0,0
1581350874.129,-4.883,15.625,-972.168,-971.191,0.0,0
1581350874.1320002,-7.324,5.371,-972.168,-972.168,0.0,0
1581350874.1360002,-8.789,11.23,-972.656,-974.121,0.0,0
1581350874.14,-7.324,23.438,-972.168,-908.691,0.0,0
1581350874.144,-23.438,15.625,-972.168,-1000.0,0.0,0
1581350874.1479998,-31.738000000000003,13.184,-972.168,-213.379,0.0,0
1581350874.15,12.695,14.648,-972.168,-918.457,0.0,0
1581350874.154,35.156,16.602,-972.168,942.383,0.0,2
1581350874.158,41.992,10.742,-972.168,868.164,0.0,0
1581350874.1620002,57.617,12.695,-972.656,-996.094,0.0,0
1581350874.166,24.414,18.066,-972.656,-995.117,0.0,0
1581350874.17,3.906,12.695,-972.168,994.629,0.0,0
1581350874.174,15.625,7.812,-972.656,-987.793,0.0,0
1581350874.177,26.855,6.836,-972.656,945.801,0.0,0
1581350874.181,14.16,6.836,-972.168,-945.312,0.0,0
1581350874.185,5.371,8.789,-972.168,878.9060000000002,0.0,0
1581350874.189,20.996,7.812,-972.168,-698.73,0.0,0
1581350874.1929998,37.109,7.812,-972.168,-312.5,0.0,0
1581350874.195,32.715,11.719,-972.168,-878.418,0.0,0
1581350874.199,19.531,16.113,-972.168,978.027,0.0,0
1581350874.2029998,27.832,11.719,-972.168,969.727,0.0,0
1581350874.207,27.832,9.766,-972.168,-993.164,0.0,0
1581350874.211,4.883,10.742,-972.168,999.512,0.0,0
1581350874.215,12.207,6.348,-972.168,999.512,0.0,0
1581350874.219,35.156,0.488,-972.168,999.512,0.0,0
1581350874.222,27.832,4.395,-972.168,-999.023,0.0,0
1581350874.226,7.324,12.695,-972.168,990.723,0.0,0
1581350874.23,-9.766,6.348,-972.168,947.754,0.0,0
1581350874.234,24.902,-1.953,-972.656,-847.168,0.0,0
1581350874.238,54.688,2.93,-972.168,11.719,0.0,0
1581350874.24,62.5,2.441,-972.168,-916.016,0.0,0
1581350874.244,39.062,-3.906,-972.168,-111.328,0.0,0
1581350874.248,-5.859,2.441,-972.168,-777.3439999999998,0.0,0
1581350874.252,-0.977,4.395,-972.168,-250.0,0.0,0
1581350874.256,-1.953,-4.883,-972.168,-778.809,0.0,0
1581350874.26,-11.719,-12.207,-972.656,170.898,0.0,0
1581350874.264,26.367,-11.719,-972.656,-1000.0,0.0,0
1581350874.2670002,40.039,-4.883,-972.168,-502.441,0.0,0
1581350874.271,27.344,2.441,-972.168,901.855,0.0,0
1581350874.275,35.156,-14.648,-972.168,-971.68,0.0,0
1581350874.279,18.555,-26.367,-972.168,920.41,0.0,0
1581350874.283,20.508000000000006,-5.371,-972.656,-969.238,0.0,0
1581350874.3,45.898,-0.977,-972.168,12.695,0.0,0
1581350874.304,42.969,-8.301,-972.656,-1000.0,0.0,0
1581350874.3079998,45.41,-4.883,-972.168,-906.738,0.0,0
1581350874.312,50.78100000000001,1.953,-972.168,-942.383,0.0,0
1581350874.316,46.875,0.977,-972.656,-948.242,0.0,0
1581350874.32,68.848,-3.906,-972.656,-1000.0,0.0,0
1581350874.324,49.316,0.0,-972.168,-728.5160000000002,0.0,0
1581350874.327,36.621,4.883,-972.656,87.402,0.0,0
1581350874.331,41.504,9.766,-972.168,-613.77,0.0,0
1581350874.335,20.508000000000006,6.348,-972.168,-328.125,0.0,0
1581350874.339,22.461,9.277,-972.168,441.895,0.0,0
1581350874.343,19.531,17.09,-972.168,293.945,0.0,0
1581350874.345,5.859,18.555,-972.168,971.191,0.0,0
1581350874.349,-2.93,17.09,-972.168,-939.453,0.0,0
1581350874.353,-10.742,19.531,-972.656,469.23800000000006,0.0,0
1581350874.357,16.602,22.461,-972.168,-332.031,0.0,0
1581350874.361,30.762,20.996,-972.168,-906.25,0.0,0
1581350874.365,31.738000000000003,17.578,-972.168,-997.07,0.0,0
1581350874.369,31.25,21.973000000000006,-972.168,-935.059,0.0,0
1581350874.3720002,18.555,34.18,-972.168,-979.492,0.0,0
1581350874.3760002,21.484,29.785,-972.168,-909.668,0.0,0
1581350874.38,34.18,24.414,-972.168,-751.953,0.0,0
1581350874.3839998,16.113,34.18,-972.656,376.465,0.0,0
1581350874.3879998,5.859,33.203,-972.168,747.07,0.0,0
1581350874.393,26.855,30.762,-972.168,192.383,0.0,0
1581350874.397,44.922,38.574,-972.656,760.2539999999998,0.0,0
1581350874.401,51.27,41.992,-972.656,67.383,0.0,0
1581350874.405,43.945,33.691,-972.168,-435.059,0.0,0
1581350874.409,25.879,29.297,-972.168,-989.746,0.0,0
1581350874.413,22.949,30.762,-972.168,-95.215,0.0,0
1581350874.417,53.223,32.715,-972.168,958.008,0.0,0
1581350874.42,48.828,36.621,-972.168,786.133,0.0,0
1581350874.424,44.434,31.738000000000003,-972.656,399.902,0.0,0
1581350874.428,44.434,45.898,-972.168,-836.914,0.0,0
1581350874.4320002,15.625,55.664,-972.168,-1000.0,0.0,0
1581350874.436,27.344,40.039,-972.168,-176.27,0.0,0
1581350874.435,44.434,43.457,-972.656,-954.102,0.0,0
1581350874.439,20.508000000000006,46.875,-972.168,988.77,0.0,0
1581350874.4429998,14.16,45.898,-972.168,978.516,0.0,0
1581350874.447,20.996,45.41,-972.656,960.938,0.0,0
1581350874.451,23.926,41.992,-972.168,-887.695,0.0,0
1581350874.455,10.254,39.062,-972.168,665.5269999999998,0.0,0
1581350874.459,2.441,37.109,-972.168,284.18,0.0,0
1581350874.462,20.996,36.621,-972.168,-923.34,0.0,0
1581350874.466,23.438,31.25,-972.168,150.879,0.0,0
1581350874.47,10.254,50.78100000000001,-972.656,-1000.0,0.0,0
1581350874.474,27.832,54.688,-972.168,-921.387,0.0,0
1581350874.478,61.035,31.25,-972.168,-788.086,0.0,0
1581350874.48,47.852,22.949,-972.168,-87.891,0.0,0
1581350874.484,27.832,25.879,-972.168,209.961,0.0,0
1581350874.488,52.734,30.273000000000003,-972.168,-328.125,0.0,0
1581350874.492,54.199,25.879,-972.168,693.8480000000002,0.0,0
1581350874.496,47.852,22.949,-972.656,30.762,0.0,0
1581350874.5,53.71100000000001,23.926,-972.656,-1000.0,0.0,0
1581350874.504,49.316,27.344,-972.168,-526.367,0.0,0
1581350874.5070002,59.082,16.113,-972.168,-628.418,0.0,0
1581350874.5110002,69.824,16.113,-972.168,-1000.0,0.0,0
1581350874.515,66.406,29.297,-972.168,-949.219,0.0,0
1581350874.519,62.988,17.09,-972.168,-973.145,0.0,0
1581350874.5229998,66.406,16.113,-972.656,-980.469,0.0,0
1581350874.525,64.453,22.949,-972.168,-939.941,0.0,0
1581350874.529,73.73,16.602,-972.656,-1000.0,0.0,0
1581350874.533,83.984,13.672,-972.168,-865.2339999999998,0.0,0
1581350874.5370002,12.207,19.043,-972.168,-538.5740000000002,0.0,0
1581350874.541,32.715,17.578,-972.168,-861.328,0.0,0
1581350874.545,65.43,6.836,-972.168,-1000.0,0.0,0
1581350874.549,48.828,-2.441,-972.168,-5.371,0.0,0
1581350874.552,66.895,-6.348,-972.168,723.633,0.0,0
1581350874.556,68.359,24.414,-972.168,-557.617,0.0,0
1581350874.56,47.852,21.973000000000006,-972.168,-1000.0,0.0,0
1581350874.564,21.484,-5.859,-972.168,330.0780000000001,0.0,0
1581350874.5679998,46.387,7.812,-972.168,-868.164,0.0,0
1581350874.57,31.25,8.301,-972.168,925.781,0.0,0
1581350874.574,22.461,5.371,-972.168,968.262,0.0,0
1581350874.5779998,53.71100000000001,3.418,-972.656,-897.949,0.0,0
1581350874.582,42.48,12.695,-972.168,139.648,0.0,0
1581350874.586,22.461,19.043,-972.168,-801.758,0.0,0
1581350874.59,27.832,5.859,-972.168,97.168,0.0,0
1581350874.594,18.555,-8.301,-972.168,-473.633,0.0,0
1581350874.597,23.926,-2.441,-972.168,-342.773,0.0,0
1581350874.601,50.78100000000001,6.348,-972.168,-838.867,0.0,0
1581350874.605,41.992,0.0,-972.168,-113.281,0.0,0
1581350874.609,16.602,0.977,-972.168,-1000.0,0.0,0
1581350874.613,20.996,7.324,-972.656,-919.922,0.0,0
1581350874.615,39.062,10.742,-972.168,-965.332,0.0,0
1581350874.619,45.898,8.301,-972.168,-962.402,0.0,0
1581350874.623,33.691,14.648,-972.656,-987.793,0.0,0
1581350874.627,26.855,20.508000000000006,-972.168,-965.82,0.0,0
1581350874.631,35.645,22.461,-972.168,-737.305,0.0,0
1581350874.635,44.922,20.02,-972.168,-892.09,0.0,0
1581350874.639,56.64100000000001,27.344,-972.168,-1000.0,0.0,0
1581350874.6420002,31.25,42.969,-972.168,-955.566,0.0,0
1581350874.646,31.25,40.527,-972.168,-979.492,0.0,0
1581350874.65,60.059,35.645,-972.168,-940.43,0.0,0
1581350874.654,44.922,51.27,-972.656,-958.984,0.0,0
1581350874.658,32.715,43.457,-972.168,-980.957,0.0,0
1581350874.675,31.738000000000003,30.762,-972.168,-918.945,0.0,0
1581350874.679,46.387,33.691,-972.168,-1000.0,0.0,0
1581350874.6829998,44.922,34.668,-972.168,-469.23800000000006,0.0,0
1581350874.687,11.719,36.133,-972.168,736.328,0.0,0
1581350874.691,-8.301,20.02,-972.656,986.328,0.0,0
1581350874.695,-10.742,16.113,-972.168,976.562,0.0,0
1581350874.699,9.277,25.391,-972.168,908.691,0.0,0
1581350874.702,10.254,24.414,-972.656,996.094,0.0,0
1581350874.706,5.371,19.043,-972.168,-985.84,0.0,0
1581350874.71,16.113,14.16,-972.168,-100.586,0.0,0
1581350874.714,14.648,18.066,-972.168,-400.391,0.0,0
1581350874.718,-5.859,22.461,-972.168,125.488,0.0,0
1581350874.72,-11.719,6.348,-972.168,353.516,0.0,0
1581350874.724,20.508000000000006,-0.488,-972.168,-732.422,0.0,0
1581350874.728,15.137,9.277,-972.168,-1000.0,0.0,0
1581350874.732,-11.23,-0.488,-972.168,-887.207,0.0,0
1581350874.736,23.926,-11.719,-972.168,-940.918,0.0,0
1581350874.74,33.691,-9.277,-972.656,-1000.0,0.0,0
1581350874.744,26.855,-8.789,-972.656,69.336,0.0,0
1581350874.7470002,62.5,-4.883,-972.656,-948.73,0.0,0
1581350874.7510002,58.594,-3.418,-972.656,657.715,0.0,0
1581350874.755,29.785,-17.578,-972.168,733.887,0.0,0
1581350874.7589998,12.695,-12.695,-972.168,-912.109,0.0,0
1581350874.7629998,1.465,-10.254,-972.168,-52.246,0.0,0
1581350874.766,26.855,-22.949,-972.168,-338.379,0.0,0
1581350874.77,34.668,-21.484,-972.168,-822.7539999999998,0.0,0
1581350874.774,12.695,-17.09,-972.168,457.031,0.0,0
1581350874.778,20.996,-20.508000000000006,-972.168,410.156,0.0,0
1581350874.782,39.062,-27.344,-972.168,-893.555,0.0,0
1581350874.786,20.508000000000006,-31.738000000000003,-972.168,978.516,0.0,0
1581350874.79,-4.395,-31.25,-972.168,963.379,0.0,0
1581350874.793,-8.789,-20.508000000000006,-972.656,984.863,0.0,0
1581350874.7970002,6.836,-29.297,-972.656,-995.117,0.0,0
1581350874.801,9.766,-34.18,-972.168,996.582,0.0,0
1581350874.805,31.738000000000003,-20.996,-972.656,-1000.0,0.0,0
1581350874.809,40.527,-15.625,-972.168,999.512,0.0,0
1581350874.81,16.113,-13.672,-972.168,999.512,0.0,0
1581350874.814,31.25,-12.695,-972.168,-990.234,0.0,0
1581350874.8179998,27.344,-14.648,-972.168,931.641,0.0,0
1581350874.822,21.484,-24.414,-972.656,-884.7660000000002,0.0,0
1581350874.826,3.418,-20.996,-972.168,512.695,0.0,0
1581350874.83,7.324,-20.508000000000006,-972.168,-862.793,0.0,0
1581350874.834,42.48,-24.414,-972.168,-963.867,0.0,0
1581350874.837,20.508000000000006,-28.809,-972.168,-1000.0,0.0,0
1581350874.841,24.414,-35.645,-972.168,-77.637,0.0,0
1581350874.845,27.832,-24.414,-972.656,-912.598,0.0,0
1581350874.849,21.484,-25.879,-972.168,970.703,0.0,0
1581350874.853,8.789,-35.645,-972.168,981.934,0.0,0
1581350874.856,-5.859,-27.832,-972.656,997.07,0.0,0
1581350874.86,20.508000000000006,-30.762,-972.168,949.707,0.0,0
1581350874.8639998,23.438,-41.992,-972.168,-889.648,0.0,0
1581350874.8679998,20.996,-31.738000000000003,-972.168,136.23,0.0,0
1581350874.8720002,45.41,-35.156,-972.168,-1000.0,0.0,0
1581350874.8760002,41.992,-48.34,-972.168,-701.66,0.0,0
1581350874.88,21.484,-41.992,-972.168,-484.375,0.0,0
1581350874.883,13.184,-53.223,-972.656,-929.199,0.0,0
1581350874.887,10.742,-49.316,-972.656,-989.258,0.0,0
1581350874.891,24.902,-31.738000000000003,-972.656,-957.52,0.0,0
1581350874.895,25.879,-44.434,-972.168,-972.168,0.0,0
1581350874.899,39.551,-48.828,-972.168,-972.656,0.0,0
1581350874.9,20.508000000000006,-51.758,-972.168,-972.168,0.0,0
1581350874.904,-5.371,-49.316,-972.168,-973.145,0.0,0
1581350874.908,11.719,-43.457,-972.168,-973.633,0.0,0
1581350874.9120002,4.883,-46.875,-972.168,-926.27,0.0,0
1581350874.916,3.906,-50.78100000000001,-972.168,-1000.0,0.0,0
1581350874.92,30.762,-55.664,-972.656,-480.957,0.0,0
1581350874.924,27.832,-54.688,-972.168,674.316,0.0,0
1581350874.927,-4.883,-55.664,-972.168,-823.242,0.0,0
1581350874.931,6.348,-43.457,-972.168,240.723,0.0,0
1581350874.935,21.484,-36.133,-972.168,-912.598,0.0,0
1581350874.939,29.297,-44.434,-972.168,-791.992,0.0,0
1581350874.9429998,44.922,-43.945,-972.168,-931.641,0.0,0
1581350874.946,22.949,-37.109,-972.168,-990.723,0.0,0
1581350874.95,3.418,-34.18,-972.168,-966.309,0.0,0
1581350874.954,20.996,-39.551,-972.168,-964.355,0.0,0
1581350874.958,49.805,-39.062,-972.168,-989.746,0.0,0
1581350874.962,46.875,-39.062,-972.168,-939.941,0.0,0
1581350874.966,43.945,-43.457,-972.168,-835.938,0.0,0
1581350874.97,75.195,-47.363,-972.168,-955.566,0.0,0
1581350874.9729998,82.031,-53.223,-972.168,-985.352,0.0,0
1581350874.9770002,55.664,-41.01600000000001,-972.168,-969.238,0.0,0
1581350874.981,50.293,-44.922,-972.168,-937.012,0.0,0
1581350874.985,77.148,-55.664,-972.168,-1000.0,0.0,0
1581350874.9889998,81.543,-46.875,-972.168,-589.355,0.0,0
1581350874.9910002,76.66,-48.828,-972.168,-229.98,0.0,0
1581350874.995,75.195,-51.27,-972.168,-931.641,0.0,0
1581350874.9989998,57.129,-48.828,-972.168,-330.0780000000001,0.0,0
1581350875.0029998,96.191,-43.457,-972.168,-143.555,0.0,0
1581350875.0070002,118.652,-42.969,-972.168,-1000.0,0.0,0
1581350875.0110002,94.727,-53.71100000000001,-972.168,-185.05900000000003,0.0,0
1581350875.015,112.793,-51.27,-972.168,-779.785,0.0,0
1581350875.018,103.516,-30.762,-972.168,224.609,0.0,0
1581350875.022,63.477,-29.785,-972.168,-1000.0,0.0,0
1581350875.026,52.246,-42.48,-972.168,-493.164,0.0,0
1581350875.03,63.477,-40.527,-972.168,-31.25,0.0,0
1581350875.034,65.43,-25.879,-972.168,-711.914,0.0,0
1581350875.05,38.574,-31.25,-972.168,-919.434,0.0,0
1581350875.054,27.344,-55.664,-972.656,-936.035,0.0,0
1581350875.0579998,37.598,-56.64100000000001,-972.656,-942.383,0.0,0
1581350875.062,67.87100000000001,-53.223,-972.656,-965.332,0.0,0
1581350875.066,61.523,-57.617,-972.656,-981.445,0.0,0
1581350875.07,18.066,-74.219,-972.168,-17.09,0.0,0
1581350875.074,21.484,-71.777,-972.168,928.223,0.0,0
1581350875.077,19.531,-54.199,-972.656,977.539,0.0,0
1581350875.081,1.465,-58.105,-972.168,987.793,0.0,0
1581350875.085,1.465,-64.941,-972.168,999.023,0.0,0
1581350875.089,24.902,-63.477,-972.168,-1000.0,0.0,0
1581350875.093,25.879,-62.988,-972.168,-997.559,0.0,0
1581350875.095,-0.488,-75.195,-972.168,934.082,0.0,0
1581350875.099,12.695,-71.289,-972.168,-868.6519999999998,0.0,0
1581350875.103,24.902,-63.965,-972.168,286.621,0.0,0
1581350875.107,15.137,-69.336,-972.656,-1000.0,0.0,0
1581350875.111,7.812,-77.637,-972.656,-1000.0,0.0,0
1581350875.115,-0.977,-71.777,-972.168,198.242,0.0,0
1581350875.119,5.371,-65.918,-972.168,-906.738,0.0,0
1581350875.1220002,-10.254,-64.453,-972.168,967.285,0.0,0
1581350875.1260002,-15.625,-66.895,-972.168,954.102,0.0,0
1581350875.13,13.184,-70.801,-972.168,895.02,0.0,0
1581350875.1339998,-3.418,-55.664,-972.168,994.141,0.0,0
1581350875.1379998,-19.531,-49.805,-972.168,-987.793,0.0,0
1581350875.14,-2.93,-52.734,-972.168,904.785,0.0,0
1581350875.144,-1.465,-47.363,-972.168,-849.6089999999998,0.0,0
1581350875.1479998,-3.418,-43.457,-972.656,145.996,0.0,0
1581350875.1520002,17.09,-49.805,-972.168,-275.879,0.0,0
1581350875.156,13.184,-52.246,-972.168,882.324,0.0,0
1581350875.16,-24.902,-55.176,-972.656,-1000.0,0.0,0
1581350875.164,-32.227,-51.27,-972.656,981.445,0.0,0
1581350875.167,-33.691,-42.48,-972.168,994.141,0.0,0
1581350875.171,-10.254,-54.688,-972.168,-999.512,0.0,0
1581350875.175,6.348,-56.152,-972.656,999.512,0.0,0
1581350875.179,10.742,-49.805,-972.168,999.512,0.0,0
1581350875.1829998,8.789,-56.152,-972.168,-993.164,0.0,0
1581350875.185,-15.625,-61.035,-972.168,924.316,0.0,0
1581350875.189,-11.23,-58.594,-972.168,-809.082,0.0,0
1581350875.1929998,16.602,-58.105,-972.168,214.844,0.0,0
1581350875.197,26.855,-69.336,-972.656,-313.4770000000001,0.0,0
1581350875.201,12.695,-74.219,-972.168,28.32,0.0,0
1581350875.205,20.02,-68.848,-972.168,-974.609,0.0,0
1581350875.209,32.227,-64.941,-972.168,-970.215,0.0,0
1581350875.212,35.156,-64.941,-972.168,-973.633,0.0,0
1581350875.216,47.852,-71.289,-972.168,-146.484,0.0,0
1581350875.22,44.922,-67.383,-972.656,975.098,0.0,0
1581350875.224,19.043,-61.523,-972.656,-991.211,0.0,0
1581350875.228,13.672,-69.336,-972.168,931.152,0.0,1
1581350875.23,29.297,-65.918,-972.168,-965.82,0.0,0
1581350875.234,21.484,-62.012,-972.168,901.367,0.0,0
1581350875.238,33.203,-64.941,-972.168,-434.082,0.0,0
1581350875.242,32.227,-65.43,-972.168,-854.492,0.0,0
1581350875.246,8.301,-65.918,-972.168,-81.543,0.0,0
1581350875.25,29.785,-67.383,-972.168,-626.953,0.0,0
1581350875.254,45.898,-60.059,-972.168,-994.629,0.0,0
1581350875.2570002,43.945,-63.477,-972.168,-12.695,0.0,0
1581350875.2610002,63.965,-63.965,-972.656,-993.652,0.0,0
1581350875.265,55.664,-52.734,-972.656,-984.863,0.0,0
1581350875.269,67.383,-47.363,-972.656,897.949,0.0,0
1581350875.2729998,48.828,-49.316,-972.168,-868.164,0.0,0
1581350875.275,42.969,-51.27,-972.168,676.27,0.0,0
1581350875.279,54.199,-39.062,-972.168,-495.605,0.0,0
1581350875.283,36.133,-43.457,-972.168,-257.812,0.0,0
1581350875.2870002,20.02,-52.246,-972.168,-681.6410000000002,0.0,0
1581350875.291,24.414,-46.875,-972.168,-1000.0,0.0,0
1581350875.295,29.785,-49.316,-972.168,-670.41,0.0,0
1581350875.299,-4.395,-61.523,-972.168,464.355,0.0,0
1581350875.302,-22.461,-53.71100000000001,-972.168,-781.738,0.0,0
1581350875.306,-0.488,-36.133,-972.168,265.137,0.0,0
1581350875.31,6.836,-34.18,-972.168,-657.715,0.0,0
1581350875.314,-9.766,-37.598,-972.168,22.461,0.0,0
1581350875.3179998,1.953,-43.945,-972.168,-560.059,0.0,0
1581350875.335,6.836,-34.18,-972.168,-1000.0,0.0,0
1581350875.339,0.488,-26.367,-972.168,-958.008,0.0,0
1581350875.343,-3.906,-34.668,-972.168,-561.035,0.0,0
1581350875.347,-2.441,-31.738000000000003,-972.168,772.461,0.0,0
1581350875.351,8.789,-26.855,-972.656,-937.988,0.0,0
1581350875.355,25.391,-30.762,-972.168,932.129,0.0,0
1581350875.359,13.672,-39.551,-972.168,-936.035,0.0,0
1581350875.3620002,2.441,-36.133,-972.168,691.4060000000002,0.0,0
1581350875.3660002,5.371,-14.16,-972.168,864.258,0.0,0
1581350875.37,9.277,-20.02,-972.168,322.754,0.0,0
1581350875.3739998,4.883,-33.203,-972.168,-1000.0,0.0,0
1581350875.3779998,0.977,-35.645,-972.168,-908.691,0.0,0
1581350875.365,5.371,-37.109,-972.168,-1000.0,0.0,0
1581350875.369,5.859,-38.086,-972.168,-197.754,0.0,0
1581350875.373,-1.953,-44.922,-972.168,-928.711,0.0,0
1581350875.377,-2.93,-47.363,-972.168,954.102,0.0,0
1581350875.381,-5.371,-41.992,-972.168,-956.055,0.0,0
1581350875.385,15.137,-49.316,-972.656,712.8910000000002,0.0,0
1581350875.389,27.344,-46.875,-972.168,309.57,0.0,0
1581350875.3920002,7.324,-43.457,-972.168,725.586,0.0,0
1581350875.396,-2.441,-42.969,-972.168,-94.727,0.0,0
1581350875.4,6.348,-55.664,-972.168,-1000.0,0.0,0
1581350875.404,22.461,-67.383,-972.168,-890.137,0.0,0
1581350875.408,28.809,-58.105,-972.168,187.988,0.0,0
1581350875.425,22.461,-66.406,-972.168,893.066,0.0,0
1581350875.429,50.293,-70.312,-972.168,957.52,0.0,0
1581350875.4329998,78.125,-61.523,-972.168,941.406,0.0,0
1581350875.437,52.246,-59.57,-972.168,-980.957,0.0,0
1581350875.441,29.297,-57.129,-972.168,361.328,0.0,0
1581350875.445,71.777,-74.707,-972.168,-882.324,0.0,0
1581350875.449,89.844,-71.289,-972.656,-972.168,0.0,0
1581350875.452,47.852,-52.246,-972.656,-937.5,0.0,0
1581350875.456,28.809,-58.594,-972.656,-979.492,0.0,0
1581350875.46,52.246,-63.477,-972.168,-975.586,0.0,0
1581350875.464,55.664,-60.547,-972.168,-951.66,0.0,0
1581350875.468,34.18,-62.5,-972.168,-1000.0,0.0,0
1581350875.471,54.199,-69.336,-972.168,-847.168,0.0,0
1581350875.475,30.273000000000003,-69.336,-972.168,-350.586,0.0,0
1581350875.479,46.875,-65.43,-972.168,-646.9730000000002,0.0,0
1581350875.4829998,66.406,-64.453,-972.168,-376.953,0.0,0
1581350875.4870002,37.109,-73.242,-972.168,-435.059,0.0,0
1581350875.4910002,34.668,-76.172,-972.168,-1000.0,0.0,0
1581350875.495,18.066,-73.242,-972.168,-230.469,0.0,0
1581350875.498,17.09,-66.895,-972.168,978.027,0.0,0
1581350875.502,37.109,-73.73,-972.656,-920.898,0.0,0
1581350875.506,50.293,-79.59,-972.656,699.2189999999998,0.0,0
1581350875.51,46.875,-64.941,-972.168,-410.645,0.0,0
1581350875.514,24.902,-69.824,-972.656,161.621,0.0,0
1581350875.516,27.832,-78.125,-972.168,-911.133,0.0,0
1581350875.52,12.695,-80.566,-972.168,967.285,0.0,0
1581350875.524,7.324,-76.172,-972.656,-988.77,0.0,0
1581350875.528,37.109,-69.824,-972.168,821.289,0.0,0
1581350875.532,56.64100000000001,-70.312,-972.168,709.961,0.0,0
1581350875.536,34.668,-77.148,-972.168,-815.918,0.0,0
1581350875.54,45.41,-81.543,-972.168,460.449,0.0,0
1581350875.543,73.242,-74.219,-972.168,-604.004,0.0,0
1581350875.5470002,57.617,-79.102,-972.656,560.059,0.0,0
1581350875.551,31.25,-76.66,-972.168,-680.176,0.0,0
1581350875.555,23.438,-54.199,-972.168,220.703,0.0,0
1581350875.559,32.715,-62.012,-972.168,-774.9019999999998,0.0,0
1581350875.56,36.621,-61.523,-972.168,181.641,0.0,0
1581350875.564,36.133,-48.34,-972.168,-549.316,0.0,0
1581350875.5679998,21.484,-53.223,-972.168,-1000.0,0.0,0
1581350875.572,1.465,-50.78100000000001,-972.168,-954.102,0.0,0
1581350875.576,9.277,-50.293,-972.168,-828.613,0.0,0
1581350875.58,11.23,-57.617,-972.168,540.039,0.0,0
1581350875.584,13.184,-63.477,-972.168,-926.27,0.0,0
1581350875.587,21.973000000000006,-64.453,-972.168,927.246,0.0,0
1581350875.591,24.902,-62.5,-972.168,968.262,0.0,0
1581350875.595,17.09,-51.27,-972.168,817.8710000000002,0.0,0
1581350875.599,12.695,-55.176,-972.168,908.203,0.0,0
1581350875.603,6.348,-64.941,-972.168,-969.238,0.0,0
1581350875.606,-4.883,-57.129,-972.656,967.285,0.0,0
1581350875.61,16.602,-57.129,-972.168,-968.75,0.0,0
1581350875.6139998,15.625,-64.941,-972.168,886.23,0.0,0
1581350875.6179998,-10.742,-67.383,-972.168,637.695,0.0,0
1581350875.6220002,-1.953,-67.383,-972.168,-15.625,0.0,0
1581350875.6260002,12.207,-66.406,-972.168,-1000.0,0.0,0
1581350875.63,18.066,-63.965,-972.168,-693.3589999999998,0.0,0
1581350875.633,15.625,-74.707,-972.656,600.0980000000002,0.0,0
1581350875.637,23.438,-76.172,-972.656,-927.734,0.0,0
1581350875.641,28.809,-62.012,-972.168,911.133,0.0,0
1581350875.645,12.207,-68.359,-972.168,-891.602,0.0,0
1581350875.649,8.301,-69.336,-972.168,654.785,0.0,0
1581350875.65,3.906,-66.406,-972.168,389.648,0.0,0
1581350875.654,-1.465,-61.523,-972.656,-917.969,0.0,0
1581350875.658,20.02,-65.43,-972.656,751.465,0.0,0
1581350875.6620002,45.41,-68.359,-972.656,640.137,0.0,0
1581350875.666,49.316,-60.059,-972.656,117.676,0.0,0
1581350875.67,79.59,-63.477,-972.656,-1000.0,0.0,0
1581350875.674,96.191,-65.918,-972.168,-878.418,0.0,0
1581350875.677,62.988,-62.012,-972.168,-871.0939999999998,0.0,0
1581350875.681,36.621,-47.363,-972.168,-225.098,0.0,0
1581350875.685,50.293,-48.828,-972.168,-798.34,0.0,0
1581350875.689,56.152,-60.059,-972.168,441.406,0.0,0
1581350875.6929998,28.809,-62.988,-972.168,-704.59,0.0,0
1581350875.695,15.137,-65.918,-972.168,479.98,0.0,0
1581350875.699,36.621,-62.988,-972.168,703.613,0.0,0
1581350875.7029998,41.01600000000001,-60.547,-972.168,-639.648,0.0,0
1581350875.707,23.926,-59.57,-972.168,-931.152,0.0,0
1581350875.711,-1.953,-55.664,-972.168,-903.809,0.0,0
1581350875.715,-7.324,-61.523,-972.168,-963.867,0.0,0
1581350875.719,-8.301,-70.801,-972.168,-986.816,0.0,0
1581350875.722,-3.418,-59.57,-972.656,37.109,0.0,0
1581350875.726,-11.23,-47.852,-972.656,-759.2769999999998,0.0,0
1581350875.73,-6.836,-51.758,-972.168,205.566,0.0,0
1581350875.734,25.391,-46.387,-972.656,-1000.0,0.0,0
1581350875.738,40.527,-44.922,-972.168,264.16,0.0,0
1581350875.74,23.438,-49.316,-970.703,556.1519999999998,0.0,0
1581350875.744,10.742,-50.293,-972.168,-966.309,0.0,0
1581350875.748,-17.09,-46.875,-972.656,-991.699,0.0,0
1581350875.752,-1.465,-37.109,-972.168,-934.082,0.0,0
1581350875.756,25.391,-39.062,-972.168,-991.699,0.0,0
1581350875.76,13.184,-56.152,-972.168,-799.316,0.0,0
1581350875.764,-15.625,-56.64100000000001,-972.168,-960.938,0.0,0
1581350875.7670002,-5.371,-41.992,-972.168,-538.086,0.0,0
1581350875.771,20.996,-38.574,-972.168,-457.52,0.0,0
1581350875.775,18.066,-51.27,-972.168,-1000.0,0.0,0
1581350875.779,38.086,-58.105,-972.168,182.129,0.0,0
1581350875.783,59.57,-52.734,-972.168,-809.57,0.0,0
1581350875.8,54.199,-43.945,-972.656,433.105,0.0,0
1581350875.804,46.387,-40.039,-972.656,321.777,0.0,0
1581350875.8079998,50.293,-38.574,-972.168,-107.91,0.0,0
1581350875.812,62.012,-35.645,-972.656,-1000.0,0.0,0
1581350875.816,58.105,-34.668,-972.168,-870.117,0.0,0
1581350875.82,36.133,-37.598,-972.168,-1000.0,0.0,0
1581350875.824,8.789,-35.645,-972.168,-427.246,0.0,0
1581350875.827,-4.395,-30.762,-972.168,920.898,0.0,0
1581350875.831,-7.324,-33.203,-972.168,-962.402,0.0,0
1581350875.835,12.207,-44.922,-972.656,789.551,0.0,0
1581350875.839,-0.488,-39.551,-972.656,-296.387,0.0,0
1581350875.843,-11.719,-32.227,-972.168,-1000.0,0.0,0
1581350875.846,17.578,-38.574,-972.656,-942.871,0.0,0
1581350875.85,34.668,-38.574,-972.168,-953.613,0.0,0
1581350875.854,23.438,-40.527,-972.168,-903.809,0.0,0
1581350875.8579998,16.602,-36.133,-972.656,-941.895,0.0,0
1581350875.8620002,22.461,-36.621,-972.656,-876.465,0.0,0
1581350875.8660002,5.859,-40.527,-972.168,-491.699,0.0,0
1581350875.87,-7.812,-40.527,-972.168,508.301,0.0,0
1581350875.873,-16.602,-29.785,-972.168,-965.332,0.0,0
1581350875.877,6.836,-33.691,-972.168,-273.438,0.0,0
1581350875.881,37.109,-47.363,-972.168,-1000.0,0.0,0
1581350875.885,22.461,-26.855,-972.656,-916.016,0.0,0
1581350875.889,14.16,-20.996,-972.168,-982.422,0.0,0
1581350875.89,10.742,-31.738000000000003,-972.168,-916.992,0.0,0
1581350875.894,6.836,-28.32,-972.168,-1000.0,0.0,0
1581350875.8979998,13.184,-22.461,-972.168,-711.426,0.0,0
1581350875.9020002,4.883,-24.902,-972.168,573.73,0.0,0
1581350875.906,31.25,-28.809,-972.656,145.02,0.0,0
1581350875.91,37.109,-27.344,-972.656,197.266,0.0,0
1581350875.914,7.324,-30.273000000000003,-972.656,663.086,0.0,0
1581350875.917,47.852,-36.621,-972.168,885.2539999999998,0.0,0
1581350875.921,61.035,-48.828,-972.656,985.84,0.0,0
1581350875.925,32.715,-48.828,-972.656,-891.602,0.0,0
1581350875.929,20.508000000000006,-26.855,-968.75,272.949,0.0,0
1581350875.9329998,2.93,-32.715,-970.703,-979.004,0.0,0
1581350875.935,30.762,-42.48,-972.656,-1000.0,0.0,0
1581350875.939,24.414,-35.156,-972.168,-869.6289999999998,0.0,0
1581350875.9429998,19.043,-32.227,-972.656,-21.484,0.0,0
1581350875.947,38.574,-31.738000000000003,-972.656,-581.543,0.0,0
1581350875.951,13.184,-33.691,-972.168,-1000.0,0.0,0
1581350875.955,27.832,-46.875,-972.656,-902.832,0.0,0
1581350875.959,31.738000000000003,-43.457,-972.656,-897.949,0.0,0
1581350875.962,0.0,-39.062,-972.656,-1000.0,0.0,0
1581350875.966,2.93,-48.828,-972.168,-238.281,0.0,0
1581350875.97,12.695,-33.203,-972.168,694.824,0.0,0
1581350875.974,40.527,-28.32,-972.168,-682.1289999999998,0.0,0
1581350875.978,15.137,-34.668,-972.168,-964.355,0.0,0
1581350875.98,-2.93,-36.133,-971.68,-846.191,0.0,0
1581350875.984,38.086,-35.156,-974.609,17.578,0.0,0
1581350875.988,43.457,-37.109,-964.355,-905.762,0.0,0
1581350875.992,28.809,-46.387,-959.473,944.824,0.0,0
1581350875.996,6.348,-41.504,-971.68,979.492,0.0,0
1581350876.0,-18.066,-44.434,-971.68,-994.629,0.0,0
1581350876.004,-1.953,-39.551,-972.168,-988.281,0.0,0
1581350876.0070002,18.066,-42.969,-972.656,922.852,0.0,0
1581350876.0110002,26.855,-43.945,-972.168,-847.168,0.0,0
1581350876.015,12.695,-26.855,-972.168,549.316,0.0,0
1581350876.019,9.277,-32.227,-972.168,-567.871,0.0,0
1581350876.0229998,45.898,-38.574,-972.168,462.891,0.0,0
1581350876.025,58.105,-32.227,-972.656,-889.16,0.0,0
1581350876.029,31.738000000000003,-32.227,-972.656,945.312,0.0,0
1581350876.033,50.78100000000001,-37.109,-972.656,998.535,0.0,0
1581350876.0370002,62.012,-41.01600000000001,-972.656,-999.512,0.0,0
1581350876.041,50.78100000000001,-41.01600000000001,-972.656,-998.047,0.0,0
1581350876.045,37.598,-45.41,-972.168,989.258,0.0,0
1581350876.049,4.395,-50.293,-972.168,986.328,0.0,0
1581350876.052,2.93,-49.805,-972.168,-992.188,0.0,0
1581350876.056,-2.441,-36.133,-972.168,970.215,0.0,0
1581350876.06,-0.488,-30.273000000000003,-972.656,998.535,0.0,0
1581350876.064,29.297,-47.852,-972.168,981.445,0.0,0
1581350876.0679998,34.18,-46.875,-972.168,-214.355,0.0,0
1581350876.07,29.785,-35.645,-972.168,-1000.0,0.0,0
1581350876.074,41.01600000000001,-51.758,-972.656,-907.715,0.0,0
1581350876.0779998,-1.465,-59.082,-972.168,-1000.0,0.0,0
1581350876.082,-32.227,-46.875,-972.656,-817.8710000000002,0.0,0
1581350876.086,-25.391,-49.805,-972.656,-695.312,0.0,0
1581350876.09,-3.418,-61.035,-972.168,-984.375,0.0,0
1581350876.094,40.527,-73.242,-972.168,-967.773,0.0,0
1581350876.097,57.617,-75.684,-972.168,-992.676,0.0,0
1581350876.101,40.527,-59.57,-972.168,-893.066,0.0,0
1581350876.105,27.832,-58.594,-972.168,-737.793,0.0,0
1581350876.109,22.949,-66.895,-972.168,-1000.0,0.0,0
1581350876.113,6.348,-74.219,-972.168,-98.633,0.0,0
1581350876.115,-2.93,-71.289,-972.168,-844.238,0.0,0
1581350876.119,4.883,-67.383,-972.168,270.996,0.0,0
1581350876.123,-9.277,-68.848,-972.168,-28.809,0.0,0
1581350876.127,11.719,-70.312,-972.656,104.98,0.0,0
1581350876.131,41.01600000000001,-72.266,-972.168,-609.863,0.0,0
1581350876.135,34.668,-72.266,-972.168,-941.895,0.0,0
1581350876.139,50.293,-74.219,-972.168,-1000.0,0.0,0
1581350876.1420002,7.812,-61.523,-972.656,-17.578,0.0,0
1581350876.146,-18.066,-48.34,-972.168,405.273,0.0,0
1581350876.15,29.297,-67.383,-972.168,-1000.0,0.0,0
1581350876.154,45.41,-73.73,-972.656,55.176,0.0,0
1581350876.158,23.438,-59.57,-972.168,-868.6519999999998,0.0,0
1581350876.175,37.109,-58.594,-972.168,936.523,0.0,0
1581350876.179,54.199,-62.5,-972.168,-939.941,0.0,0
1581350876.1829998,52.734,-52.734,-972.168,487.793,0.0,0
1581350876.187,46.387,-46.875,-972.168,386.719,0.0,0
1581350876.191,18.066,-49.316,-972.168,917.48,0.0,0
1581350876.195,27.344,-59.57,-972.168,-981.934,0.0,0
1581350876.199,38.086,-58.594,-972.168,859.863,0.0,0
1581350876.202,39.062,-44.434,-972.168,-967.285,0.0,0
1581350876.206,53.71100000000001,-42.969,-972.168,71.777,0.0,0
1581350876.21,62.988,-39.062,-972.168,-199.219,0.0,0
1581350876.214,64.941,-30.762,-972.168,127.441,0.0,0
1581350876.218,55.664,-25.879,-972.168,-1000.0,0.0,0
1581350876.22,29.297,-36.133,-972.168,-940.43,0.0,0
1581350876.224,41.01600000000001,-38.086,-972.656,112.793,0.0,0
1581350876.228,55.176,-30.273000000000003,-972.168,-372.559,0.0,0
1581350876.232,33.203,-30.273000000000003,-972.168,-1000.0,0.0,0
1581350876.236,36.133,-39.551,-972.168,256.348,0.0,0
1581350876.24,55.176,-46.387,-972.656,414.551,0.0,0
1581350876.244,57.617,-39.062,-972.656,-944.824,0.0,0
1581350876.2470002,38.574,-24.414,-972.656,-927.734,0.0,0
1581350876.2510002,23.438,-28.809,-972.656,-570.312,0.0,0
1581350876.255,24.414,-38.574,-972.168,45.41,0.0,0
1581350876.2589998,26.855,-31.738000000000003,-972.168,455.566,0.0,0
1581350876.2629998,39.551,-26.367,-972.168,-931.641,0.0,0
1581350876.265,59.57,-29.785,-972.168,-494.629,0.0,0
1581350876.269,45.41,-31.25,-972.168,630.371,0.0,1
1581350876.2729998,20.02,-27.344,-972.168,-694.336,0.0,0
1581350876.2770002,35.645,-25.879,-972.168,-1000.0,0.0,0
1581350876.281,47.852,-27.832,-972.168,-880.3710000000002,0.0,0
1581350876.285,51.758,-34.18,-972.168,-1000.0,0.0,0
1581350876.289,54.688,-26.367,-972.656,318.3590000000001,0.0,0
1581350876.292,37.109,-18.555,-972.168,491.699,0.0,0
1581350876.296,36.621,-27.832,-972.168,-962.891,0.0,0
1581350876.3,42.969,-29.297,-972.168,-184.082,0.0,0
1581350876.304,20.02,-21.973000000000006,-972.168,818.8480000000002,0.0,0
1581350876.3079998,18.555,-20.508000000000006,-972.168,-928.223,0.0,0
1581350876.31,45.41,-20.508000000000006,-972.168,583.008,0.0,0
1581350876.314,49.805,-21.973000000000006,-972.168,-761.23,0.0,0
1581350876.3179998,40.527,-7.812,-972.168,-918.945,0.0,0
1581350876.322,52.734,-12.207,-972.168,-659.668,0.0,0
1581350876.326,51.758,-24.414,-972.168,244.141,0.0,0
1581350876.33,45.41,-22.461,-972.168,-911.621,0.0,0
1581350876.334,26.367,-16.602,-972.168,897.949,0.0,0
1581350876.337,29.785,-19.531,-972.168,-849.6089999999998,0.0,0
1581350876.341,49.316,-25.879,-972.168,176.75799999999995,0.0,0
1581350876.345,41.992,-6.836,-972.168,-911.621,0.0,0
1581350876.349,41.992,-5.859,-972.168,315.43,0.0,0
1581350876.353,53.71100000000001,-15.625,-972.656,-925.781,0.0,0
1581350876.355,60.059,-16.602,-972.168,878.418,0.0,0
1581350876.359,41.504,-17.09,-972.168,431.152,0.0,0
1581350876.363,18.555,-22.949,-972.656,-588.867,0.0,0
1581350876.367,31.738000000000003,-25.879,-972.168,-1000.0,0.0,0
1581350876.371,46.387,-24.414,-972.168,-934.57,0.0,0
1581350876.375,33.691,-23.926,-972.656,-982.422,0.0,0
1581350876.379,28.32,-23.438,-972.656,-933.594,0.0,0
1581350876.3820002,34.18,-39.062,-971.68,-1000.0,0.0,0
1581350876.3860002,61.523,-33.203,-972.656,-833.9839999999998,0.0,0
1581350876.39,54.199,-14.648,-973.633,354.492,0.0,0
1581350876.394,32.715,-20.02,-945.312,-943.359,0.0,0
1581350876.3979998,28.32,-28.809,-946.777,501.465,0.0,0
1581350876.4,44.922,-34.668,-975.098,-715.332,0.0,0
1581350876.404,59.082,-25.879,-972.168,-905.762,0.0,0
1581350876.408,41.992,-31.25,-971.68,-861.816,0.0,0
1581350876.4120002,18.066,-40.527,-972.168,-647.9490000000002,0.0,0
1581350876.416,5.859,-38.086,-972.168,-727.051,0.0,0
1581350876.42,24.414,-44.922,-972.168,-1000.0,0.0,0
1581350876.424,51.27,-46.387,-972.168,-952.148,0.0,0
1581350876.427,52.246,-38.086,-972.168,-942.871,0.0,0
1581350876.431,43.945,-26.367,-972.168,-969.238,0.0,0
1581350876.435,31.25,-23.926,-972.168,-978.516,0.0,0
1581350876.439,36.133,-30.762,-972.168,-919.434,0.0,0
1581350876.4429998,51.758,-30.273000000000003,-972.656,-1000.0,0.0,0
1581350876.445,71.289,-30.273000000000003,-972.168,-317.871,0.0,0
1581350876.449,86.426,-34.18,-972.168,-5.371,0.0,0
1581350876.4529998,88.37899999999998,-36.133,-972.656,-1000.0,0.0,0
1581350876.457,88.37899999999998,-37.598,-972.168,116.699,0.0,0
1581350876.461,56.152,-36.133,-971.68,-891.113,0.0,0
1581350876.465,35.645,-39.551,-970.703,890.137,0.0,0
1581350876.469,46.875,-53.71100000000001,-976.562,680.664,0.0,0
1581350876.472,10.742,-47.363,-960.449,782.715,0.0,0
1581350876.476,-13.184,-33.691,-947.754,870.117,0.0,0
1581350876.48,27.344,-52.246,-972.168,-240.723,0.0,0
1581350876.484,33.691,-58.105,-973.633,-1000.0,0.0,0
1581350876.488,37.109,-49.805,-971.191,-949.219,0.0,0
1581350876.49,42.969,-45.41,-972.656,-958.496,0.0,0
1581350876.494,44.434,-51.27,-972.168,-976.562,0.0,0
1581350876.498,36.133,-51.27,-972.168,-971.68,0.0,0
1581350876.502,43.457,-41.992,-972.168,-971.191,0.0,0
1581350876.506,63.965,-39.062,-972.656,-927.734,0.0,0
1581350876.51,22.949,-51.758,-972.168,-981.934,0.0,0
1581350876.514,19.531,-62.012,-972.168,-197.754,0.0,0
1581350876.5170002,51.27,-43.457,-972.168,-884.7660000000002,0.0,0
1581350876.521,66.406,-35.645,-972.168,606.445,0.0,0
1581350876.525,69.824,-42.969,-972.168,-781.738,0.0,0
1581350876.529,39.062,-41.01600000000001,-972.168,-1000.0,0.0,0
1581350876.533,38.574,-39.062,-972.168,-910.156,0.0,0
1581350876.55,51.27,-40.527,-972.168,-954.102,0.0,0
1581350876.554,27.344,-40.039,-972.168,-160.645,0.0,0
1581350876.5579998,7.812,-33.203,-972.168,-914.551,0.0,0
1581350876.562,25.879,-32.715,-972.168,127.441,0.0,0
1581350876.566,48.828,-29.297,-972.168,-177.734,0.0,0
1581350876.57,62.5,-41.504,-972.168,-914.062,0.0,0
1581350876.574,36.133,-48.34,-972.168,-994.629,0.0,0
1581350876.577,1.465,-32.227,-972.168,970.703,0.0,0
1581350876.581,15.137,-35.156,-972.656,-994.141,0.0,0
1581350876.585,21.484,-33.203,-972.656,-999.023,0.0,0
1581350876.589,23.438,-26.367,-972.168,987.305,0.0,0
1581350876.593,35.156,-23.438,-972.168,964.844,0.0,0
1581350876.595,18.066,-22.461,-972.168,-851.074,0.0,0
1581350876.599,-15.137,-22.461,-972.168,-33.203,0.0,0
1581350876.603,10.254,-16.113,-972.168,-126.465,0.0,0
1581350876.607,10.742,-19.531,-972.168,-876.465,0.0,0
1581350876.611,-8.301,-25.879,-972.168,985.352,0.0,0
1581350876.615,6.348,-20.508000000000006,-972.168,984.863,0.0,0
1581350876.619,3.418,-14.648,-972.168,946.289,0.0,0
1581350876.6220002,2.93,-8.301,-972.168,-909.668,0.0,0
1581350876.6260002,18.555,-20.508000000000006,-972.168,579.102,0.0,0
1581350876.63,30.762,-20.508000000000006,-972.168,-740.7230000000002,0.0,0
1581350876.6339998,7.812,-3.418,-972.168,-994.629,0.0,0
1581350876.6379998,-7.812,-13.672,-972.168,-948.73,0.0,0
1581350876.64,32.715,-24.414,-972.168,-939.941,0.0,0
1581350876.644,41.992,-11.719,-972.168,-251.953,0.0,0
1581350876.6479998,23.438,-7.812,-972.168,-39.062,0.0,0
1581350876.6520002,21.973000000000006,-15.137,-972.168,597.656,0.0,0
1581350876.656,23.438,-21.484,-972.168,-912.598,0.0,0
1581350876.66,39.062,-16.602,-972.168,959.473,0.0,0
1581350876.664,41.992,-15.625,-972.656,996.582,0.0,0
1581350876.667,53.71100000000001,-24.902,-972.656,923.828,0.0,0
1581350876.671,51.758,-33.203,-972.656,986.328,0.0,0
1581350876.675,31.25,-31.25,-972.168,996.582,0.0,0
1581350876.679,10.254,-9.766,-972.168,-979.492,0.0,0
1581350876.6829998,15.625,-19.531,-972.168,941.895,0.0,0
1581350876.686,32.227,-28.809,-972.168,754.395,0.0,0
1581350876.69,29.785,-22.461,-972.168,-879.883,0.0,0
1581350876.694,33.691,-26.367,-972.168,425.293,0.0,0
1581350876.698,38.086,-35.645,-972.656,-1000.0,0.0,0
1581350876.702,12.695,-32.715,-972.168,-415.039,0.0,0
1581350876.706,5.859,-39.062,-972.168,-848.145,0.0,0
1581350876.71,20.996,-38.086,-972.168,361.816,0.0,0
1581350876.7129998,33.691,-35.156,-972.168,351.074,0.0,0
1581350876.717,20.02,-34.18,-972.656,240.234,0.0,0
1581350876.721,-17.578,-23.438,-972.168,-468.75,0.0,0
1581350876.725,10.254,-34.18,-972.168,945.312,0.0,0
1581350876.729,31.738000000000003,-40.039,-972.168,-86.426,0.0,0
1581350876.73,39.551,-41.504,-972.168,-1000.0,0.0,0
1581350876.734,34.668,-35.645,-972.168,-889.648,0.0,0
1581350876.738,0.0,-31.738000000000003,-972.168,-976.074,0.0,0
1581350876.742,4.883,-40.039,-972.168,-946.289,0.0,0
1581350876.746,-7.324,-47.852,-972.168,-895.02,0.0,0
1581350876.75,-4.883,-48.34,-972.168,-405.762,0.0,0
1581350876.754,26.855,-44.434,-972.168,758.301,0.0,0
1581350876.7570002,30.762,-54.199,-972.168,26.367,0.0,0
1581350876.7610002,9.766,-50.293,-972.656,-1000.0,0.0,0
1581350876.765,-4.883,-38.086,-972.656,-932.129,0.0,0
1581350876.769,-2.441,-42.969,-972.656,-956.543,0.0,0
1581350876.7729998,23.926,-37.598,-972.168,-976.074,0.0,0
1581350876.775,26.367,-35.645,-972.168,-972.168,0.0,0
1581350876.779,-5.371,-32.227,-972.168,-972.168,0.0,0
1581350876.783,-10.742,-29.785,-972.168,-973.145,0.0,0
1581350876.7870002,-3.418,-29.785,-972.168,-972.168,0.0,0
1581350876.791,5.371,-17.09,-972.168,-966.797,0.0,0
1581350876.795,22.461,-23.926,-972.656,-987.793,0.0,0
1581350876.799,40.527,-31.25,-972.168,-801.758,0.0,0
1581350876.802,40.039,-25.879,-972.168,-867.188,0.0,0
1581350876.806,26.855,-11.719,-972.656,-546.387,0.0,0
1581350876.81,34.18,-10.742,-972.168,639.648,0.0,0
1581350876.814,55.664,-20.02,-972.168,-983.398,0.0,0
1581350876.8179998,45.41,-14.16,-972.656,-903.32,0.0,0
1581350876.82,64.453,-7.812,-972.656,-152.832,0.0,0
1581350876.824,55.664,-12.695,-972.168,-8.301,0.0,0
1581350876.8279998,30.273000000000003,-20.02,-972.656,596.191,0.0,0
1581350876.832,40.527,-22.949,-972.656,-121.582,0.0,0
1581350876.836,37.109,-17.578,-972.656,-666.992,0.0,0
1581350876.84,29.297,-8.789,-972.656,-803.2230000000002,0.0,0
1581350876.844,16.113,-25.391,-972.168,5.371,0.0,0
1581350876.847,39.551,-28.32,-972.168,-956.055,0.0,0
1581350876.851,53.223,0.977,-972.168,-95.703,0.0,0
1581350876.855,60.059,-4.883,-970.703,366.211,0.0,0
1581350876.859,41.992,-13.672,-972.168,-1000.0,0.0,0
1581350876.863,16.602,-13.672,-972.656,-821.289,0.0,0
1581350876.865,26.855,-17.09,-972.168,-601.562,0.0,0
1581350876.869,60.059,-20.508000000000006,-972.656,-950.684,0.0,0
1581350876.873,59.57,-20.996,-972.168,-993.164,0.0,0
1581350876.877,39.062,-20.02,-972.168,-957.031,0.0,0
1581350876.881,66.406,-23.926,-972.656,-976.074,0.0,0
1581350876.885,64.941,-33.203,-972.168,-974.121,0.0,0
1581350876.889,65.43,-38.574,-972.168,-965.332,0.0,0
1581350876.8920002,63.477,-24.414,-972.656,-995.117,0.0,0
1581350876.896,37.598,-12.695,-972.656,-887.207,0.0,0
1581350876.9,39.062,-26.367,-971.191,-924.316,0.0,0
1581350876.904,42.48,-28.32,-975.586,-749.023,0.0,0
1581350876.908,44.434,-20.508000000000006,-960.449,508.789,0.0,0
1581350876.926,34.18,-17.578,-952.148,-927.246,0.0,0
1581350876.93,38.574,-22.461,-972.656,-999.512,0.0,0
1581350876.934,40.039,-18.555,-973.145,578.125,0.0,0
1581350876.938,30.273000000000003,-8.789,-971.68,603.0269999999998,0.0,0
1581350876.9420002,36.133,-16.602,-972.656,-938.477,0.0,0
1581350876.946,65.918,-35.156,-972.656,965.82,0.0,0
1581350876.95,50.293,-29.785,-972.656,958.984,0.0,0
1581350876.9529998,35.156,-11.23,-972.168,-888.672,0.0,0
1581350876.957,38.574,-17.578,-972.168,-128.418,0.0,0
1581350876.961,30.762,-25.879,-972.168,-1000.0,0.0,0
1581350876.965,36.133,-14.648,-972.168,-30.273000000000003,0.0,0
1581350876.969,22.949,-2.93,-972.656,-770.508,0.0,0
1581350876.97,6.348,-15.625,-972.656,-30.762,0.0,0
1581350876.974,16.113,-18.555,-972.168,806.1519999999998,0.0,0
1581350876.978,21.973000000000006,-1.465,-972.168,-801.758,0.0,0
1581350876.982,21.484,-4.883,-972.168,-1000.0,0.0,0
1581350876.986,22.461,-26.855,-972.168,-879.883,0.0,0
1581350876.99,11.23,-25.879,-972.168,-891.602,0.0,0
1581350876.994,13.672,-14.648,-972.656,-1000.0,0.0,0
1581350876.9970002,4.883,-23.438,-972.168,-603.516,0.0,0
1581350877.0010002,-8.789,-39.062,-972.656,400.879,0.0,0
1581350877.005,-4.883,-46.875,-967.773,175.293,0.0,0
1581350877.0089998,22.949,-28.32,-986.816,601.0740000000002,0.0,0
1581350877.0129998,46.387,-18.066,-911.621,-844.238,0.0,0
1581350877.016,61.523,-33.691,-884.7660000000002,713.3789999999998,0.0,0
1581350877.02,53.71100000000001,-34.18,-978.516,-436.035,0.0,0
1581350877.024,36.621,-20.996,-973.145,-1000.0,0.0,0
1581350877.028,13.184,-20.996,-969.727,-250.488,0.0,0
1581350877.032,3.418,-20.508000000000006,-971.68,979.492,0.0,0
1581350877.036,24.414,-28.809,-972.168,-992.676,0.0,0
1581350877.04,30.762,-23.926,-972.656,875.0,0.0,0
1581350877.043,26.367,-12.695,-972.168,156.738,0.0,0
1581350877.0470002,52.246,-30.273000000000003,-972.168,-485.352,0.0,0
1581350877.051,61.035,-28.32,-972.168,-537.5980000000002,0.0,0
1581350877.055,44.922,-4.883,-972.168,-952.148,0.0,0
1581350877.059,38.086,-17.09,-972.168,-923.828,0.0,0
1581350877.06,29.297,-20.508000000000006,-972.168,-898.438,0.0,0
1581350877.064,17.578,-19.531,-972.168,-985.352,0.0,0
1581350877.0679998,18.066,-15.625,-972.168,-967.285,0.0,0
1581350877.072,26.367,-26.855,-972.656,-953.125,0.0,0
1581350877.076,30.273000000000003,-38.574,-972.656,-903.809,0.0,0
1581350877.08,35.645,-35.645,-972.168,-676.758,0.0,0
1581350877.084,15.137,-41.01600000000001,-972.168,284.668,0.0,0
1581350877.087,-2.93,-41.504,-972.168,241.211,0.0,0
1581350877.091,-1.953,-48.828,-972.168,-26.367,0.0,0
1581350877.095,24.902,-41.01600000000001,-972.168,-520.508,0.0,0
1581350877.099,31.25,-38.086,-972.168,-788.086,0.0,0
1581350877.103,20.508000000000006,-57.129,-972.168,693.8480000000002,0.0,0
1581350877.105,59.082,-47.363,-972.168,598.633,0.0,0
1581350877.109,71.777,-33.691,-972.168,0.977,0.0,0
1581350877.113,41.992,-40.039,-972.168,799.316,0.0,0
1581350877.117,31.738000000000003,-41.01600000000001,-972.168,-978.027,0.0,0
1581350877.121,67.87100000000001,-43.945,-972.168,-974.121,0.0,0
1581350877.125,63.965,-40.039,-972.656,-233.398,0.0,0
1581350877.129,36.133,-35.156,-972.168,-185.547,0.0,0
1581350877.1320002,51.27,-44.434,-972.656,125.488,0.0,0
1581350877.1360002,49.805,-42.969,-971.68,-590.82,0.0,0
1581350877.14,45.41,-22.461,-975.586,407.715,0.0,0
1581350877.144,54.199,-20.996,-959.961,508.789,0.0,0
1581350877.1479998,40.039,-35.645,-957.031,727.539,0.0,0
1581350877.15,12.695,-42.969,-974.609,-816.4060000000002,0.0,0
1581350877.154,-2.441,-42.48,-972.168,292.48,0.0,0
1581350877.158,33.203,-46.875,-972.168,106.445,0.0,0
1581350877.1620002,44.922,-48.828,-972.168,-959.473,0.0,0
1581350877.166,7.812,-47.852,-972.168,-998.535,0.0,0
1581350877.17,5.371,-49.316,-972.168,987.305,0.0,0
1581350877.174,35.156,-49.316,-972.168,228.516,0.0,0
1581350877.177,15.625,-58.594,-972.656,-636.719,0.0,0
1581350877.181,-14.16,-45.898,-972.168,-960.449,0.0,0
1581350877.185,-2.441,-41.504,-972.168,-932.617,0.0,0
1581350877.189,17.09,-42.969,-972.656,-927.246,0.0,0
1581350877.1929998,3.418,-41.01600000000001,-972.168,-601.562,0.0,0
1581350877.195,-2.93,-43.457,-972.168,-358.398,0.0,0
1581350877.199,-4.395,-48.828,-972.168,-957.52,0.0,0
1581350877.2029998,-4.395,-48.34,-972.168,-1000.0,0.0,0
1581350877.207,22.461,-40.039,-972.168,-930.176,0.0,0
1581350877.211,11.23,-42.48,-972.168,-957.52,0.0,0
1581350877.215,13.672,-46.387,-972.168,-984.375,0.0,0
1581350877.219,41.504,-57.617,-972.168,-59.082,0.0,0
1581350877.222,36.133,-51.758,-972.168,-978.027,0.0,0
1581350877.226,30.762,-31.25,-971.191,893.066,0.0,0
1581350877.23,33.691,-40.527,-972.168,816.4060000000002,0.0,0
1581350877.234,39.062,-50.78100000000001,-972.168,-980.469,0.0,0
1581350877.238,43.945,-59.57,-972.168,-999.023,0.0,0
1581350877.24,28.809,-68.359,-972.168,994.629,0.0,0
1581350877.244,-0.488,-76.172,-972.168,999.512,0.0,0
1581350877.248,1.465,-84.961,-971.68,999.512,0.0,0
1581350877.252,33.691,-74.219,-974.121,999.512,0.0,0
1581350877.256,20.508000000000006,-60.059,-963.379,999.512,0.0,0
1581350877.26,3.418,-83.49600000000002,-962.891,-990.234,0.0,0
1581350877.264,16.602,-99.609,-974.121,947.266,0.0,0
1581350877.2670002,21.484,-88.37899999999998,-971.68,-935.059,0.0,0
1581350877.271,30.273000000000003,-88.867,-972.168,922.852,0.0,0
1581350877.275,26.855,-91.309,-972.168,-294.434,0.0,0
1581350877.279,21.484,-80.566,-972.168,321.777,0.0,0
1581350877.283,34.668,-66.406,-972.168,-826.66,0.0,0
1581350877.3,16.113,-66.895,-972.656,911.621,0.0,2
1581350877.304,8.301,-70.312,-972.168,-971.68,0.0,0
1581350877.3079998,30.273000000000003,-74.707,-972.168,996.094,0.0,0
1581350877.312,11.23,-71.289,-972.168,440.43,0.0,0
1581350877.316,12.207,-56.64100000000001,-972.168,910.645,0.0,0
1581350877.32,37.109,-75.195,-972.168,410.645,0.0,0
1581350877.324,34.18,-78.613,-972.168,-1000.0,0.0,0
1581350877.327,48.828,-57.129,-972.168,-856.445,0.0,0
1581350877.331,40.039,-54.199,-972.168,-894.5310000000002,0.0,0
1581350877.335,6.348,-64.941,-972.168,-710.938,0.0,0
1581350877.339,14.16,-62.012,-972.168,197.754,0.0,0
1581350877.343,35.156,-57.129,-972.168,770.02,0.0,0
1581350877.345,59.57,-69.824,-972.168,988.281,0.0,0
1581350877.349,57.617,-69.824,-972.168,-966.309,0.0,0
1581350877.353,60.059,-66.406,-972.168,-222.168,0.0,0
1581350877.357,63.965,-61.523,-972.168,-997.07,0.0,0
1581350877.361,56.64100000000001,-61.523,-972.168,552.246,0.0,0
1581350877.365,57.129,-62.012,-972.168,303.711,0.0,0
1581350877.369,22.949,-48.828,-972.168,-508.301,0.0,0
1581350877.3720002,-3.906,-35.645,-972.168,698.73,0.0,0
1581350877.3760002,0.977,-44.922,-972.168,-937.988,0.0,0
1581350877.38,10.742,-55.176,-972.168,853.5160000000002,0.0,0
1581350877.3839998,21.484,-30.273000000000003,-972.168,994.141,0.0,0
1581350877.3879998,20.508000000000006,-27.832,-972.168,-991.699,0.0,0
1581350877.39,18.066,-42.969,-972.168,993.652,0.0,0
1581350877.394,23.438,-29.297,-972.168,-999.512,0.0,0
1581350877.3979998,52.734,-30.762,-972.168,999.512,0.0,0
1581350877.4020002,59.082,-40.039,-972.168,-999.512,0.0,0
1581350877.406,37.109,-42.969,-972.168,989.258,0.0,0
1581350877.41,50.293,-46.387,-972.168,985.84,0.0,0
1581350877.414,58.105,-43.457,-972.168,981.445,0.0,0
1581350877.417,15.625,-28.32,-972.168,-15.625,0.0,0
1581350877.421,14.648,-40.039,-972.168,-155.762,0.0,0
1581350877.425,41.01600000000001,-38.574,-972.168,-127.93,0.0,0
1581350877.429,30.273000000000003,-6.836,-972.168,-1000.0,0.0,0
1581350877.4329998,30.273000000000003,-17.578,-972.168,-718.75,0.0,0
1581350877.435,22.461,-31.738000000000003,-972.168,-353.027,0.0,0
1581350877.439,11.23,-30.762,-972.168,-993.164,0.0,0
1581350877.4429998,27.344,-28.809,-972.168,-85.93799999999997,0.0,0
1581350877.447,32.227,-41.504,-972.168,162.59799999999996,0.0,0
1581350877.451,47.363,-55.176,-972.656,-874.512,0.0,0
1581350877.455,47.852,-57.129,-972.168,-830.566,0.0,0
1581350877.459,29.785,-59.57,-972.168,-936.035,0.0,0
1581350877.462,3.418,-67.383,-972.168,-979.98,0.0,0
1581350877.466,12.207,-77.148,-972.168,-937.5,0.0,0
1581350877.47,23.926,-66.406,-972.168,-1000.0,0.0,0
1581350877.474,-20.02,-54.688,-972.168,-369.141,0.0,0
1581350877.478,-3.418,-71.777,-972.168,896.4839999999998,0.0,0
1581350877.48,4.883,-85.93799999999997,-972.168,640.137,0.0,0
1581350877.484,-29.785,-71.777,-972.168,204.59,0.0,0
1581350877.488,9.766,-81.543,-972.656,941.895,0.0,0
1581350877.492,29.297,-93.262,-972.656,-956.055,0.0,0
1581350877.496,-3.906,-90.82,-972.168,924.316,0.0,0
1581350877.5,-10.742,-98.145,-972.168,-936.035,0.0,0
1581350877.504,9.277,-98.145,-972.168,894.043,0.0,0
1581350877.5070002,48.828,-106.934,-972.168,-242.676,0.0,0
1581350877.5110002,26.855,-111.816,-972.168,178.71099999999996,0.0,0
1581350877.515,-19.531,-88.867,-972.168,383.789,0.0,0
1581350877.519,1.465,-96.191,-972.168,-631.836,0.0,0
1581350877.5229998,32.227,-107.91,-972.168,-916.016,0.0,0
1581350877.525,47.852,-102.051,-972.168,-951.66,0.0,0
1581350877.529,17.09,-101.074,-972.168,-965.82,0.0,0
1581350877.533,-6.836,-106.934,-972.168,-966.309,0.0,0
1581350877.5370002,10.254,-112.305,-972.656,-1000.0,0.0,0
1581350877.541,33.203,-103.516,-972.168,-662.1089999999998,0.0,0
1581350877.545,14.648,-94.238,-972.168,-775.3910000000002,0.0,0
1581350877.549,30.762,-98.633,-972.168,-979.004,0.0,0
1581350877.552,55.664,-97.168,-972.168,336.426,0.0,0
1581350877.556,34.18,-82.031,-972.656,-875.488,0.0,0
1581350877.56,24.414,-76.66,-972.168,949.707,0.0,0
1581350877.564,30.762,-82.031,-972.168,540.5269999999998,0.0,0
1581350877.5679998,35.645,-86.426,-972.168,762.695,0.0,0
1581350877.57,36.621,-78.613,-972.656,-925.293,0.0,0
1581350877.574,53.71100000000001,-76.172,-972.656,968.75,0.0,0
1581350877.5779998,62.012,-85.449,-972.168,-993.652,0.0,0
1581350877.582,68.359,-85.449,-972.168,936.523,0.0,0
1581350877.586,66.406,-78.125,-972.656,-861.816,0.0,0
1581350877.59,53.223,-83.49600000000002,-972.168,217.773,0.0,0
1581350877.594,66.406,-95.215,-972.168,-1000.0,0.0,0
1581350877.597,40.527,-88.867,-972.168,-941.895,0.0,0
1581350877.601,6.836,-64.941,-972.168,-908.203,0.0,0
1581350877.605,34.668,-70.801,-972.168,-1000.0,0.0,0
1581350877.609,72.266,-75.684,-972.168,23.926,0.0,0
1581350877.613,45.41,-72.266,-972.168,-899.414,0.0,0
1581350877.6160002,15.625,-74.219,-972.168,961.426,0.0,0
1581350877.62,32.227,-77.148,-972.168,983.398,0.0,0
1581350877.6239998,14.648,-76.172,-972.168,969.727,0.0,0
1581350877.6279998,16.113,-67.383,-972.168,-884.7660000000002,0.0,0
1581350877.6320002,25.391,-45.898,-972.168,421.875,0.0,0
1581350877.6360002,66.406,-73.73,-972.168,279.297,0.0,0
1581350877.64,73.242,-235.84,-972.168,-935.547,0.0,0
1581350877.643,25.391,-250.488,-972.168,997.559,0.0,0
1581350877.647,5.859,-139.648,-972.168,983.398,0.0,0
1581350877.651,33.203,-27.832,-972.168,-997.07,0.0,0
1581350877.655,28.809,-20.508000000000006,-972.168,999.512,0.0,0
1581350877.659,-5.371,-179.688,-972.168,999.512,0.0,0
1581350877.676,11.719,-243.164,-972.168,995.605,0.0,0
1581350877.68,23.926,-199.219,-972.168,-988.77,0.0,0
1581350877.684,49.805,-148.92600000000004,-972.168,968.75,0.0,0
1581350877.688,78.125,-111.816,-972.168,919.434,0.0,0
1581350877.6920002,43.945,-17.09,-972.656,-977.051,0.0,0
1581350877.696,10.742,22.949,-972.168,-148.92600000000004,0.0,0
1581350877.7,11.719,9.277,-972.168,-1000.0,0.0,0
1581350877.7029998,26.367,24.414,-972.656,50.293,0.0,0
1581350877.707,20.996,7.324,-972.168,-799.316,0.0,0
1581350877.711,10.254,-3.906,-972.656,491.211,0.0,0
1581350877.715,12.207,10.742,-972.168,-924.805,0.0,0
1581350877.719,18.555,-37.109,-972.168,331.543,0.0,0
1581350877.72,34.668,-144.043,-972.168,141.113,0.0,0
1581350877.724,15.625,-94.727,-972.168,-1000.0,0.0,0
1581350877.728,-1.465,12.695,-972.168,0.0,0.0,0
1581350877.732,-3.418,28.32,-972.168,-923.828,0.0,0
1581350877.736,3.906,31.738000000000003,-972.168,969.727,0.0,0
1581350877.74,29.785,16.113,-972.656,983.398,0.0,0
1581350877.744,13.184,13.672,-972.168,25.879,0.0,0
1581350877.7470002,1.465,31.738000000000003,-972.168,-570.312,0.0,0
1581350877.7510002,5.859,32.227,-972.168,-939.941,0.0,0
1581350877.755,-9.277,28.809,-972.168,-422.852,0.0,0
1581350877.7589998,1.465,47.363,-972.168,-162.109,0.0,0
1581350877.7629998,5.859,48.828,-972.168,-1000.0,0.0,0
1581350877.765,-21.973000000000006,65.918,-972.168,-1000.0,0.0,0
1581350877.769,-18.066,31.25,-972.168,-114.258,0.0,0
1581350877.7729998,-3.418,-29.785,-972.168,710.938,0.0,0
1581350877.7770002,-1.465,18.555,-972.656,790.5269999999998,0.0,0
1581350877.781,13.184,47.363,-972.656,666.0160000000002,0.0,0
1581350877.785,32.227,41.504,-972.168,-711.914,0.0,0
1581350877.789,23.438,42.969,-972.168,-973.633,0.0,0
1581350877.792,13.184,48.828,-972.168,-1000.0,0.0,0
1581350877.796,34.668,32.227,-972.168,-147.94899999999996,0.0,0
1581350877.8,44.922,33.203,-972.168,-943.848,0.0,0
1581350877.804,39.062,56.64100000000001,-972.168,-287.1090000000001,0.0,0
1581350877.8079998,43.945,48.828,-972.168,-1000.0,0.0,0
1581350877.811,72.75399999999998,39.062,-972.168,-948.242,0.0,0
1581350877.815,78.613,35.645,-972.168,-865.7230000000002,0.0,0
1581350877.819,41.992,29.785,-972.656,593.262,0.0,0
1581350877.823,10.742,20.508000000000006,-972.168,280.762,0.0,0
1581350877.827,39.551,17.09,-972.168,-1000.0,0.0,0
1581350877.831,50.78100000000001,12.695,-972.168,-952.637,0.0,0
1581350877.835,27.344,9.277,-972.168,-937.988,0.0,0
1581350877.8379998,9.277,0.977,-972.168,-1000.0,0.0,0
1581350877.842,5.371,-0.977,-972.168,-893.066,0.0,0
1581350877.846,42.969,14.16,-972.168,-910.645,0.0,0
1581350877.85,39.062,7.812,-972.656,-840.332,0.0,0
1581350877.854,-4.883,-8.789,-972.168,695.801,0.0,0
1581350877.856,13.672,-12.695,-972.168,335.449,0.0,0
1581350877.86,42.969,-4.883,-972.168,-1000.0,0.0,0
1581350877.8639998,44.922,-9.766,-972.168,-719.238,0.0,0
1581350877.8679998,33.691,-12.695,-972.168,182.617,0.0,0
1581350877.8720002,34.668,-16.113,-972.656,977.539,0.0,0
1581350877.8760002,26.855,-21.484,-972.656,973.145,0.0,0
1581350877.88,14.16,-28.32,-972.168,956.543,0.0,0
1581350877.883,40.039,-50.293,-972.168,-881.836,0.0,0
1581350877.887,40.527,-62.012,-972.656,178.22299999999996,0.0,0
1581350877.891,-0.977,-45.41,-972.168,-16.113,0.0,0
1581350877.895,-11.23,-39.062,-972.168,274.902,0.0,0
1581350877.899,-14.16,-42.969,-972.168,-847.168,0.0,0
1581350877.901,-5.371,-42.969,-972.168,-1000.0,0.0,0
1581350877.905,7.324,-36.621,-972.168,-917.48,0.0,0
1581350877.909,29.297,-36.133,-972.168,-1000.0,0.0,0
1581350877.913,29.297,-38.574,-972.168,-714.355,0.0,0
1581350877.917,27.344,-37.109,-972.168,-545.41,0.0,0
1581350877.921,25.879,-47.852,-972.168,-937.988,0.0,0
1581350877.925,26.367,-53.223,-972.168,-996.582,0.0,0
1581350877.928,23.438,-57.129,-972.168,-954.102,0.0,0
1581350877.9320002,15.625,-52.734,-972.656,-978.027,0.0,0
1581350877.936,40.039,-46.387,-972.168,-972.168,0.0,0
1581350877.94,36.133,-50.78100000000001,-972.168,-976.074,0.0,0
1581350877.944,49.316,-55.664,-972.168,-957.52,0.0,0
1581350877.945,43.945,-52.734,-972.168,-937.988,0.0,0
1581350877.949,19.043,-53.71100000000001,-972.656,-1000.0,0.0,0
1581350877.9529998,50.293,-57.129,-972.656,66.406,0.0,0
1581350877.957,69.336,-57.617,-972.168,834.961,0.0,0
1581350877.961,43.457,-60.059,-972.168,-274.414,0.0,0
1581350877.965,13.184,-65.918,-972.168,-123.047,0.0,0
1581350877.969,30.762,-77.148,-972.168,680.176,0.0,0
1581350877.972,65.43,-67.87100000000001,-972.168,-468.75,0.0,0
1581350877.976,53.71100000000001,-43.945,-972.656,-22.949,0.0,0
1581350877.98,57.129,-41.504,-971.68,-933.594,0.0,0
1581350877.984,68.359,-44.922,-973.145,877.93,0.0,0
1581350877.988,68.848,-42.969,-972.656,-954.59,0.0,0
1581350877.9910002,47.852,-39.551,-949.707,863.2810000000002,0.0,0
1581350877.995,6.836,-45.41,-960.938,766.113,0.0,0
1581350877.9989998,-4.883,-47.852,-976.074,984.863,0.0,0
1581350878.0029998,6.348,-39.062,-970.215,-919.922,0.0,0
1581350878.0070002,59.57,-40.039,-972.168,654.785,0.0,0
1581350878.0110002,59.082,-50.78100000000001,-972.656,407.715,0.0,0
1581350878.015,39.551,-52.734,-972.168,961.426,0.0,0
1581350878.018,35.645,-31.738000000000003,-972.656,973.145,0.0,0
1581350878.022,4.883,-27.344,-972.168,-899.9019999999998,0.0,0
1581350878.026,-1.465,-44.434,-972.656,106.445,0.0,0
1581350878.03,5.371,-46.875,-972.656,-634.766,0.0,0
1581350878.034,1.953,-35.156,-972.168,-404.297,0.0,0
1581350878.051,27.832,-30.273000000000003,-972.168,-982.91,0.0,0
1581350878.055,47.852,-45.898,-972.168,-986.816,0.0,0
1581350878.059,48.34,-53.71100000000001,-972.168,-960.938,0.0,0
1581350878.063,42.48,-36.621,-972.168,-899.414,0.0,0
1581350878.0670002,37.109,-37.598,-972.168,-1000.0,0.0,0
1581350878.071,69.336,-57.129,-972.168,-245.605,0.0,0
1581350878.075,76.172,-48.828,-972.168,778.809,0.0,0
1581350878.0779998,49.316,-35.645,-972.168,-489.258,0.0,0
1581350878.082,26.855,-25.391,-972.168,-1000.0,0.0,0
1581350878.086,34.18,-34.668,-972.168,-147.461,0.0,0
1581350878.09,48.34,-36.621,-972.168,459.473,0.0,0
1581350878.094,32.227,-14.16,-972.168,-248.047,0.0,0
1581350878.095,23.438,-7.812,-972.656,-581.543,0.0,0
1581350878.099,35.645,-3.418,-972.656,-506.836,0.0,0
1581350878.103,19.531,-1.953,-972.168,876.465,0.0,0
1581350878.107,-8.301,2.93,-972.656,-947.754,0.0,0
1581350878.111,-15.137,-1.465,-972.656,955.566,0.0,0
1581350878.115,4.395,-12.207,-972.656,-997.559,0.0,0
1581350878.119,14.648,-5.371,-972.656,844.238,0.0,0
1581350878.1220002,-3.418,-10.254,-972.656,868.6519999999998,0.0,0
1581350878.1260002,-14.16,-26.855,-972.656,-934.082,0.0,0
1581350878.13,-9.766,-22.949,-972.168,427.734,0.0,0
1581350878.1339998,20.02,-5.371,-972.168,-899.9019999999998,0.0,0
1581350878.1379998,28.32,-6.348,-972.168,-772.949,0.0,0
1581350878.14,21.484,-25.391,-972.168,-588.867,0.0,0
1581350878.144,16.602,-28.809,-972.656,-19.043,0.0,0
1581350878.1479998,5.371,-26.367,-972.656,903.809,0.0,0
1581350878.1520002,-2.93,-33.203,-972.656,-930.664,0.0,0
1581350878.156,31.25,-50.78100000000001,-972.168,475.586,0.0,0
1581350878.16,68.848,-61.035,-972.168,-797.363,0.0,0
1581350878.164,48.828,-51.27,-972.168,-1000.0,0.0,0
1581350878.167,21.973000000000006,-48.34,-972.168,-448.242,0.0,0
1581350878.171,0.977,-67.87100000000001,-972.168,-287.598,0.0,0
1581350878.175,16.602,-66.406,-972.168,-1000.0,0.0,0
1581350878.179,42.969,-66.406,-972.168,-972.656,0.0,0
1581350878.1829998,23.438,-75.684,-972.168,-900.879,0.0,0
1581350878.185,23.438,-74.219,-972.656,-1000.0,0.0,0
1581350878.189,44.434,-82.52,-972.656,56.152,0.0,0
1581350878.1929998,56.152,-84.473,-972.168,309.082,0.0,0
1581350878.197,41.504,-82.031,-972.168,-983.887,0.0,0
1581350878.201,26.855,-77.637,-972.168,-885.2539999999998,0.0,0
1581350878.205,17.578,-71.777,-972.656,-904.297,0.0,0
1581350878.209,34.18,-65.43,-973.145,126.953,0.0,0
1581350878.212,41.992,-60.547,-964.844,-937.988,0.0,0
1581350878.216,30.273000000000003,-66.406,-968.262,972.656,0.0,0
1581350878.22,49.316,-47.363,-974.121,975.586,0.0,0
1581350878.224,56.64100000000001,-31.738000000000003,-971.68,269.043,0.0,0
1581350878.228,74.219,-40.039,-972.656,350.586,0.0,0
1581350878.23,63.965,-33.691,-972.168,-511.719,0.0,0
1581350878.234,20.996,-41.504,-972.656,-451.66,0.0,0
1581350878.238,30.273000000000003,-53.223,-972.168,800.293,0.0,0
1581350878.242,55.176,-43.945,-972.168,-20.996,0.0,0
1581350878.246,80.566,-43.457,-972.168,472.656,0.0,0
1581350878.25,54.199,-39.551,-972.168,905.762,0.0,0
1581350878.254,42.969,-19.043,-972.168,671.387,0.0,0
1581350878.2570002,47.363,-30.273000000000003,-972.168,-798.34,0.0,0
1581350878.2610002,38.574,-37.109,-972.168,216.797,0.0,0
1581350878.265,69.824,-19.043,-972.168,-515.625,0.0,0
1581350878.269,48.828,-19.043,-972.168,491.211,0.0,0
1581350878.2729998,38.574,-28.32,-972.656,-963.867,0.0,0
1581350878.275,63.477,-35.645,-972.656,277.832,0.0,0
1581350878.279,39.551,-24.902,-972.656,-277.344,0.0,0
1581350878.283,22.461,-26.855,-972.656,764.16,0.0,0
1581350878.2870002,22.949,-25.879,-972.656,435.547,0.0,0
1581350878.291,22.949,-10.742,-972.656,-714.8439999999998,0.0,0
1581350878.295,10.742,-10.254,-972.656,-1000.0,0.0,0
1581350878.299,1.953,-11.23,-972.656,114.258,0.0,0
1581350878.302,7.324,-13.184,-972.168,-900.3910000000002,0.0,0
1581350878.306,25.879,-1.953,-972.168,956.543,0.0,0
1581350878.31,39.062,11.23,-972.168,983.887,0.0,0
1581350878.314,22.461,0.977,-972.168,-998.535,0.0,0
1581350878.3179998,5.371,-15.625,-970.703,-995.605,0.0,0
1581350878.32,12.207,-10.254,-977.539,972.656,0.0,0
1581350878.324,20.508000000000006,-1.465,-943.848,989.258,0.0,0
1581350878.3279998,5.371,-8.789,-933.105,971.68,0.0,0
1581350878.332,33.203,-1.953,-974.121,-242.676,0.0,0
1581350878.336,39.062,0.977,-973.145,-1000.0,0.0,0
1581350878.34,20.02,-9.277,-971.191,-812.988,0.0,2
1581350878.344,39.551,-19.043,-971.68,-761.7189999999998,0.0,0
1581350878.347,31.25,-29.785,-971.191,-994.141,0.0,0
1581350878.351,26.367,-8.301,-978.516,0.0,0.0,0
1581350878.355,65.918,2.441,-923.34,-855.4689999999998,0.0,0
1581350878.359,70.801,-16.113,-925.781,598.633,0.0,0
1581350878.363,38.086,-7.324,-979.492,-652.832,0.0,0
1581350878.365,13.672,-97.656,-970.703,-1000.0,0.0,0
1581350878.369,-11.719,-314.453,-971.68,-924.316,0.0,0
1581350878.373,6.836,-232.91,-972.656,-978.516,0.0,0
1581350878.377,15.137,-141.602,-972.168,-972.656,0.0,0
1581350878.381,6.836,-220.703,-972.168,-975.098,0.0,0
1581350878.385,15.137,-80.078,-972.168,-966.797,0.0,0
1581350878.389,13.672,26.855,-972.168,-955.566,0.0,0
1581350878.3920002,0.488,39.062,-972.168,-967.285,0.0,0
1581350878.396,5.859,56.152,-972.168,-546.875,0.0,0
1581350878.4,29.785,49.316,-972.168,479.98,0.0,0
1581350878.404,39.551,32.715,-972.656,-975.586,0.0,0
1581350878.408,21.484,28.32,-972.656,947.754,0.0,0
1581350878.425,13.184,24.414,-972.168,-953.613,0.0,0
1581350878.429,32.715,9.277,-972.168,773.926,0.0,0
1581350878.4329998,41.01600000000001,7.324,-971.68,46.875,0.0,0
1581350878.437,28.809,12.207,-974.609,551.758,0.0,0
1581350878.441,18.066,-0.488,-959.473,-869.6289999999998,0.0,0
1581350878.445,30.273000000000003,-27.344,-959.961,315.43,0.0,0
1581350878.449,22.949,-7.812,-979.492,798.828,0.0,0
1581350878.452,-6.836,23.926,-924.805,617.6759999999998,0.0,0
1581350878.456,21.973000000000006,34.668,-936.523,-483.887,0.0,0
1581350878.46,33.691,-48.828,-979.98,651.855,0.0,0
1581350878.464,14.16,-250.977,-970.215,-981.934,0.0,0
1581350878.468,29.785,-231.445,-973.145,852.051,0.0,0
1581350878.47,30.762,-49.805,-931.152,-977.051,0.0,0
1581350878.474,14.648,20.508000000000006,-936.523,908.203,0.0,0
1581350878.478,23.438,28.809,-986.328,752.441,0.0,0
1581350878.482,22.949,35.156,-915.039,996.582,0.0,0
1581350878.486,27.344,17.578,-876.465,973.145,0.0,0
1581350878.49,37.598,8.789,-958.008,-976.074,0.0,0
1581350878.494,33.203,25.391,-979.492,894.5310000000002,0.0,0
1581350878.4970002,35.156,38.574,-961.914,-171.387,0.0,0
1581350878.5010002,48.34,26.855,-960.449,-561.523,0.0,0
1581350878.505,34.668,8.301,-977.539,518.555,0.0,0
1581350878.5089998,23.926,27.344,-954.102,-938.965,0.0,0
1581350878.5129998,35.156,29.785,-879.883,779.297,0.0,0
1581350878.515,48.828,4.395,-901.367,871.0939999999998,0.0,0
1581350878.519,46.387,-2.441,-974.609,-960.449,0.0,0
1581350878.5229998,50.293,2.93,-973.145,-121.094,0.0,0
1581350878.5270002,55.176,-7.812,-970.215,-1000.0,0.0,0
1581350878.531,51.758,-25.879,-973.633,-563.965,0.0,0
1581350878.535,57.129,-29.785,-967.773,24.414,0.0,0
1581350878.539,53.223,-23.926,-983.398,-299.805,0.0,0
1581350878.542,44.434,-19.531,-936.035,708.008,0.0,0
1581350878.546,47.852,-30.762,-902.344,-880.8589999999998,0.0,0
1581350878.55,54.688,-36.133,-971.68,877.441,0.0,0
1581350878.554,31.25,-26.367,-948.73,-878.9060000000002,0.0,0
1581350878.5579998,30.273000000000003,-42.48,-914.062,732.91,0.0,0
1581350878.56,57.129,-51.27,-937.988,-224.609,0.0,0
1581350878.564,31.738000000000003,-60.547,-927.734,743.164,0.0,0
1581350878.5679998,26.367,-65.43,-871.0939999999998,745.117,0.0,0
1581350878.572,54.199,-59.082,-918.457,-805.176,0.0,0
1581350878.576,44.434,-59.57,-975.586,-1000.0,0.0,0
1581350878.58,46.387,-56.152,-971.191,72.75399999999998,0.0,0
1581350878.584,46.387,-45.898,-971.191,873.047,0.0,0
1581350878.587,41.504,-47.363,-972.656,-977.539,0.0,0
1581350878.591,76.172,-48.34,-972.656,341.309,0.0,0
1581350878.595,82.52,-25.879,-972.168,-996.094,0.0,0
1581350878.599,18.555,-23.438,-972.168,-976.074,0.0,0
1581350878.603,-15.625,-42.969,-972.168,-935.547,0.0,0
1581350878.605,1.465,-45.898,-972.656,-982.91,0.0,0
1581350878.609,37.109,-32.715,-972.168,-962.402,0.0,0
1581350878.613,52.734,-41.01600000000001,-970.703,-983.887,0.0,0
1581350878.617,31.738000000000003,-57.617,-972.168,-970.703,0.0,0
1581350878.621,18.555,-67.383,-972.656,-772.461,0.0,0
1581350878.625,42.969,-72.75399999999998,-972.656,-871.582,0.0,0
1581350878.629,61.523,-64.941,-970.215,-997.07,0.0,0
1581350878.6320002,46.387,-81.543,-972.168,-916.504,0.0,0
1581350878.6360002,27.832,-90.82,-975.098,223.633,0.0,0
1581350878.64,16.113,-73.73,-885.2539999999998,-845.215,0.0,0
1581350878.644,41.504,-78.613,-855.957,634.766,0.0,0
1581350878.6479998,60.547,-82.52,-940.43,684.082,0.0,0
1581350878.65,61.523,-81.543,-972.656,982.91,0.0,0
1581350878.654,70.312,-73.242,-898.438,-842.285,0.0,0
1581350878.658,59.57,-70.801,-814.453,385.742,0.0,0
1581350878.6620002,62.012,-61.523,-912.109,-683.5939999999998,0.0,0
1581350878.666,77.637,-56.64100000000001,-942.871,589.355,0.0,0
1581350878.67,73.242,-63.965,-937.012,874.023,0.0,0
1581350878.674,68.848,-66.895,-979.492,-409.668,0.0,0
1581350878.677,64.941,-70.801,-970.215,-1000.0,0.0,0
1581350878.681,59.082,-59.57,-972.656,-72.266,0.0,0
1581350878.685,61.035,-62.5,-970.703,406.73800000000006,0.0,0
1581350878.689,48.828,-82.031,-975.586,-570.8009999999998,0.0,0
1581350878.6929998,27.344,-92.285,-963.867,341.797,0.0,0
1581350878.696,-14.648,-89.844,-949.219,75.684,0.0,0
1581350878.7,-5.371,-90.332,-970.703,-1000.0,0.0,0
1581350878.704,17.578,-91.797,-974.121,-966.309,0.0,0
1581350878.708,16.113,-83.984,-971.191,-898.926,0.0,0
1581350878.712,39.062,-85.449,-972.656,-1000.0,0.0,0
1581350878.716,33.203,-82.031,-972.656,-886.23,0.0,0
1581350878.72,5.371,-85.449,-970.215,416.016,0.0,0
1581350878.7229998,20.02,-95.215,-977.539,-893.066,0.0,0
1581350878.7270002,11.23,-76.66,-947.754,928.223,0.0,0
1581350878.731,-15.137,-79.59,-915.527,-963.867,0.0,0
1581350878.735,10.742,-80.566,-950.684,894.5310000000002,0.0,0
1581350878.7389998,17.578,-70.312,-978.516,848.145,0.0,0
1581350878.74,-12.207,-64.453,-942.383,815.43,0.0,0
1581350878.744,-6.348,-65.918,-932.129,978.516,0.0,0
1581350878.748,-2.441,-69.824,-968.262,708.4960000000002,0.0,0
1581350878.752,7.324,-67.87100000000001,-973.145,-665.5269999999998,0.0,0
1581350878.756,8.789,-59.082,-971.68,93.262,0.0,0
1581350878.76,8.301,-61.523,-972.656,772.949,0.0,0
1581350878.764,25.879,-62.012,-972.168,792.48,0.0,0
1581350878.7670002,11.23,-29.785,-972.656,-787.5980000000002,0.0,0
1581350878.771,21.484,-19.531,-972.168,192.383,0.0,0
1581350878.775,40.039,-35.645,-972.168,16.602,0.0,0
1581350878.779,49.316,-30.273000000000003,-972.656,-944.824,0.0,0
1581350878.783,41.01600000000001,-14.648,-972.656,853.0269999999998,0.0,0
1581350878.801,15.137,-0.488,-964.355,168.457,0.0,0
1581350878.805,27.832,-14.16,-968.262,-797.852,0.0,0
1581350878.809,51.27,-23.926,-973.633,223.145,0.0,0
1581350878.813,50.293,-9.766,-971.68,431.152,0.0,0
1581350878.8170002,57.129,-13.184,-972.656,-836.426,0.0,0
1581350878.821,89.844,-35.645,-972.168,-925.781,0.0,0
1581350878.825,54.199,-35.645,-972.168,-1000.0,0.0,0
1581350878.8279998,25.879,-16.113,-972.168,-399.902,0.0,0
1581350878.832,38.086,-16.113,-972.656,968.75,0.0,0
1581350878.836,47.363,-21.484,-972.168,953.613,0.0,0
1581350878.84,32.715,-19.531,-972.168,-900.3910000000002,0.0,0
1581350878.844,13.672,-13.184,-972.168,281.25,0.0,0
1581350878.845,55.176,-18.066,-972.168,-1000.0,0.0,0
1581350878.849,62.5,-21.973000000000006,-972.168,-247.07,0.0,0
1581350878.853,57.617,-24.902,-972.168,945.801,0.0,0
1581350878.857,75.195,-36.621,-972.168,-279.297,0.0,0
1581350878.861,61.035,-54.688,-972.168,-574.219,0.0,0
1581350878.865,62.988,-60.547,-972.168,-457.52,0.0,0
1581350878.869,52.734,-57.617,-972.168,-492.1880000000001,0.0,0
1581350878.8720002,32.715,-51.27,-972.656,851.562,0.0,0
1581350878.8760002,12.207,-57.617,-972.168,985.84,0.0,0
1581350878.88,29.785,-75.195,-972.168,-906.738,0.0,0
1581350878.8839998,48.828,-47.852,-972.168,269.043,0.0,0
1581350878.8879998,26.855,-41.992,-972.168,-1000.0,0.0,0
1581350878.89,15.625,-55.664,-972.168,-111.816,0.0,0
1581350878.894,27.344,-42.48,-972.168,-902.344,0.0,0
1581350878.8979998,33.691,-28.809,-972.656,893.066,0.0,0
1581350878.9020002,24.902,-32.715,-972.656,-874.023,0.0,0
1581350878.906,19.531,-54.199,-972.168,295.41,0.0,0
1581350878.91,20.996,-54.199,-972.168,-1000.0,0.0,0
1581350878.914,29.785,-50.78100000000001,-972.168,-386.719,0.0,0
1581350878.917,31.738000000000003,-50.293,-972.656,660.1560000000002,0.0,0
1581350878.921,32.227,-82.031,-972.656,-803.711,0.0,0
1581350878.925,20.508000000000006,-102.051,-972.168,-34.668,0.0,0
1581350878.929,18.066,-80.566,-972.168,-620.605,0.0,0
1581350878.9329998,47.852,-95.215,-972.168,665.039,0.0,0
1581350878.936,36.621,-105.957,-972.168,344.23800000000006,0.0,0
1581350878.94,35.156,-94.238,-972.168,0.0,0.0,0
1581350878.944,52.734,-86.426,-972.168,-578.125,0.0,0
1581350878.948,39.551,-88.37899999999998,-972.656,-830.566,0.0,0
1581350878.952,45.41,-102.539,-972.168,243.652,0.0,0
1581350878.956,41.504,-118.652,-972.168,-991.699,0.0,0
1581350878.96,61.523,-107.422,-972.168,-947.754,0.0,0
1581350878.9629998,65.918,-108.887,-972.168,677.2460000000002,0.0,0
1581350878.967,52.734,-141.113,-972.168,610.84,0.0,0
1581350878.971,67.87100000000001,-132.812,-972.168,-953.613,0.0,0
1581350878.975,70.312,-120.605,-972.656,968.262,0.0,0
1581350878.979,35.645,-126.465,-970.703,956.543,0.0,0
1581350878.98,10.742,-128.906,-974.121,-993.164,0.0,0
1581350878.984,17.578,-127.441,-968.75,995.605,0.0,0
1581350878.988,46.875,-127.441,-914.551,941.895,0.0,0
1581350878.992,30.762,-131.836,-927.246,-825.195,0.0,0
1581350878.996,-7.812,-126.953,-976.562,106.934,0.0,0
1581350879.0,-7.324,-123.047,-971.68,-534.18,0.0,0
1581350879.004,18.555,-98.145,-971.191,802.7339999999998,0.0,0
1581350879.0070002,53.71100000000001,-85.449,-972.656,801.758,0.0,0
1581350879.0110002,61.035,-72.75399999999998,-972.168,-580.566,0.0,0
1581350879.015,36.133,-26.855,-972.168,-1000.0,0.0,0
1581350879.019,23.438,-27.344,-972.168,-915.039,0.0,0
1581350879.0229998,28.32,-18.555,-972.168,-979.492,0.0,0
1581350879.026,42.48,-3.418,-972.168,-972.656,0.0,0
1581350879.03,39.551,-17.578,-972.168,-972.168,0.0,0
1581350879.034,34.18,-24.414,-972.168,-972.168,0.0,0
1581350879.038,37.109,-2.441,-972.168,-977.539,0.0,0
1581350879.042,18.066,30.762,-972.168,-935.059,0.0,0
1581350879.046,28.32,13.672,-972.656,-1000.0,0.0,0
1581350879.05,50.293,-17.578,-972.168,-634.2769999999998,0.0,0
1581350879.053,22.949,-28.809,-972.168,-416.992,0.0,0
1581350879.0570002,-5.371,-0.977,-972.656,-738.77,0.0,0
1581350879.061,3.418,12.695,-972.656,-477.051,0.0,0
1581350879.065,7.812,-3.906,-972.168,-798.34,0.0,0
1581350879.069,-2.441,-4.395,-972.168,-860.352,0.0,0
1581350879.07,25.879,11.719,-972.656,-456.543,0.0,0
1581350879.074,44.922,20.996,-972.168,565.918,0.0,0
1581350879.0779998,3.418,9.277,-969.238,979.492,0.0,0
1581350879.082,-31.738000000000003,14.16,-971.68,-991.211,0.0,0
1581350879.086,-11.23,27.832,-972.656,805.176,0.0,0
1581350879.09,20.02,15.137,-972.168,-551.758,0.0,0
1581350879.094,16.113,-10.742,-972.168,121.582,0.0,0
1581350879.097,-19.043,-0.977,-972.168,-699.707,0.0,0
1581350879.101,-11.719,15.137,-972.656,234.375,0.0,0
1581350879.105,-6.348,0.0,-972.656,-1000.0,0.0,0
1581350879.109,-24.902,0.488,-970.703,-405.273,0.0,0
1581350879.113,-6.836,-0.488,-976.074,916.016,0.0,0
1581350879.115,1.465,4.395,-959.961,-854.98,0.0,0
1581350879.119,23.926,11.719,-938.965,175.78099999999995,0.0,0
1581350879.123,47.363,9.766,-967.773,-1000.0,0.0,0
1581350879.127,10.254,18.555,-975.098,-953.613,0.0,0
1581350879.131,-11.719,19.531,-970.703,-895.9960000000002,0.0,0
1581350879.135,-2.441,6.836,-972.656,-242.188,0.0,0
1581350879.139,7.812,5.371,-972.168,761.7189999999998,0.0,0
1581350879.1420002,12.207,22.949,-972.168,428.223,0.0,0
1581350879.146,18.555,21.484,-972.168,-871.0939999999998,0.0,0
1581350879.15,27.832,-4.395,-972.168,207.031,0.0,0
1581350879.154,42.48,-13.672,-972.168,208.496,0.0,0
1581350879.158,52.246,-14.16,-973.145,-1000.0,0.0,0
1581350879.175,15.625,-30.762,-966.797,-937.5,0.0,0
1581350879.179,22.949,-29.297,-981.934,-913.574,0.0,0
1581350879.1829998,33.203,-22.949,-931.152,67.87100000000001,0.0,0
1581350879.187,-2.441,-21.484,-833.008,780.762,0.0,0
1581350879.191,17.09,-23.438,-838.867,791.992,0.0,0
1581350879.195,45.898,-29.785,-925.781,911.621,0.0,0
1581350879.199,54.199,-21.973000000000006,-979.004,811.523,0.0,0
1581350879.202,62.012,-17.09,-968.75,-145.50799999999995,0.0,0
1581350879.206,41.504,-29.297,-972.168,-275.879,0.0,0
1581350879.21,38.574,-54.199,-972.168,-512.207,0.0,0
1581350879.214,26.855,-52.246,-974.121,114.258,0.0,0
1581350879.218,-10.254,-42.48,-961.426,404.785,0.0,0
1581350879.22,6.348,-77.148,-959.473,-212.402,0.0,0
1581350879.224,8.789,-92.773,-973.145,495.605,0.0,0
1581350879.228,12.695,-88.867,-972.656,802.7339999999998,0.0,0
1581350879.232,37.109,-99.121,-972.168,-83.984,0.0,0
1581350879.236,5.859,-110.84,-972.656,-1000.0,0.0,0
1581350879.24,-5.371,-133.789,-972.656,-934.57,0.0,0
1581350879.244,-3.906,-124.023,-972.168,-959.961,0.0,0
1581350879.2470002,-1.953,-105.957,-972.168,-959.961,0.0,0
1581350879.2510002,24.414,-128.418,-972.168,-968.75,0.0,0
1581350879.255,38.086,-148.92600000000004,-972.168,-974.609,0.0,0
1581350879.2589998,39.062,-127.441,-972.168,-971.191,0.0,0
1581350879.2629998,18.066,-114.746,-972.168,-972.656,0.0,0
1581350879.265,21.484,-131.34799999999998,-972.168,-974.609,0.0,0
1581350879.269,41.504,-137.207,-972.168,-974.121,0.0,0
1581350879.2729998,13.184,-125.488,-972.168,-926.758,0.0,0
1581350879.2770002,-2.93,-113.281,-972.168,-1000.0,0.0,0
1581350879.281,12.207,-126.953,-972.168,-301.758,0.0,0
1581350879.285,32.715,-139.16,-972.168,625.0,0.0,0
1581350879.289,33.203,-130.859,-972.168,235.84,0.0,0
1581350879.292,40.527,-132.812,-972.168,327.637,0.0,0
1581350879.296,68.359,-147.461,-972.168,89.844,0.0,0
1581350879.3,55.176,-144.531,-973.145,403.32,0.0,0
1581350879.304,43.457,-124.023,-969.238,978.027,0.0,0
1581350879.3079998,13.672,-125.0,-976.074,819.824,0.0,0
1581350879.31,-14.16,-118.164,-960.938,932.129,0.0,0
1581350879.314,19.043,-119.629,-871.582,628.418,0.0,0
1581350879.3179998,28.32,-128.906,-896.4839999999998,674.805,0.0,0
1581350879.322,19.531,-143.555,-978.516,412.598,0.0,0
1581350879.326,29.297,-146.97299999999996,-971.191,-720.215,0.0,0
1581350879.33,38.574,-141.602,-970.215,-1000.0,0.0,0
1581350879.334,19.531,-138.184,-973.145,-194.824,0.0,0
1581350879.337,14.648,-134.27700000000002,-971.191,-971.191,0.0,0
1581350879.341,36.133,-153.809,-972.168,994.629,0.0,0
1581350879.345,24.414,-144.531,-973.633,972.656,0.0,0
1581350879.349,22.949,-132.32399999999998,-947.754,960.449,0.0,0
1581350879.353,20.508000000000006,-165.52700000000004,-949.219,-927.246,0.0,0
1581350879.355,16.113,-179.688,-973.633,640.625,0.0,0
1581350879.359,8.789,-164.551,-972.168,-583.008,0.0,0
1581350879.363,-35.156,-162.109,-971.68,-861.328,0.0,0
1581350879.367,-30.273000000000003,-175.293,-972.656,-476.562,0.0,0
1581350879.371,-9.766,-181.152,-972.168,520.508,0.0,0
1581350879.375,15.137,-181.641,-972.168,-947.266,0.0,0
1581350879.379,35.156,-174.31599999999997,-972.656,926.27,0.0,0
1581350879.3820002,-1.953,-184.082,-972.656,886.23,0.0,0
1581350879.3860002,-25.879,-188.477,-972.656,-236.328,0.0,0
1581350879.39,7.812,-149.414,-972.168,-1000.0,0.0,0
1581350879.394,31.25,-147.461,-972.168,-926.27,0.0,0
1581350879.3979998,14.648,-157.227,-972.656,-967.773,0.0,0
1581350879.4,22.461,-150.879,-972.656,-974.609,0.0,0
1581350879.404,53.223,-136.719,-972.168,-972.168,0.0,0
1581350879.408,51.27,-135.254,-972.168,-972.168,0.0,0
1581350879.4120002,30.762,-141.602,-972.168,-974.121,0.0,0
1581350879.416,33.691,-147.461,-972.168,-948.73,0.0,0
1581350879.42,34.18,-149.90200000000004,-972.168,-1000.0,0.0,0
1581350879.424,31.25,-145.996,-972.656,-687.012,0.0,0
1581350879.427,22.461,-152.344,-967.773,-380.371,0.0,0
1581350879.431,27.832,-132.812,-984.863,-102.051,0.0,0
1581350879.435,36.621,-111.816,-926.27,869.6289999999998,0.0,0
1581350879.439,27.344,-130.371,-874.512,997.07,0.0,0
1581350879.4429998,16.113,-125.0,-964.355,995.117,0.0,0
1581350879.445,-4.883,-96.68,-938.477,853.5160000000002,0.0,1
1581350879.449,8.301,-91.309,-877.93,711.426,0.0,0
1581350879.4529998,43.457,-104.492,-911.621,950.684,0.0,0
1581350879.457,38.574,-97.168,-963.867,744.6289999999998,0.0,0
1581350879.461,17.09,-86.914,-919.434,709.4730000000002,0.0,0
1581350879.465,8.301,-98.145,-948.73,-879.395,0.0,0
1581350879.469,7.812,-105.957,-980.957,544.922,0.0,0
1581350879.472,3.906,-107.91,-968.75,-441.406,0.0,0
1581350879.476,40.527,-85.93799999999997,-973.145,-394.043,0.0,0
1581350879.48,49.805,-90.332,-972.168,-512.695,0.0,0
1581350879.484,9.277,-99.121,-972.168,-955.566,0.0,0
1581350879.488,20.02,-89.844,-972.168,-962.402,0.0,0
1581350879.49,18.555,-86.914,-972.168,-889.16,0.0,0
1581350879.494,5.859,-93.75,-972.656,-1000.0,0.0,0
1581350879.498,25.391,-92.773,-972.168,-445.801,0.0,0
1581350879.502,23.926,-81.055,-967.773,114.746,0.0,0
1581350879.506,27.344,-81.055,-970.703,-903.32,0.0,0
1581350879.51,52.734,-92.285,-970.703,-570.8009999999998,0.0,0
1581350879.514,49.316,-98.633,-973.633,-537.5980000000002,0.0,0
1581350879.5170002,59.082,-73.242,-975.098,-299.805,0.0,0
1581350879.521,49.805,-66.406,-887.695,529.297,0.0,0
1581350879.525,14.648,-91.309,-910.156,-532.715,0.0,0
1581350879.529,9.277,-102.539,-983.398,-806.1519999999998,0.0,0
1581350879.533,20.996,-97.168,-968.75,-989.258,0.0,0
1581350879.55,23.438,-93.262,-972.168,-829.102,0.0,0
1581350879.554,48.828,-102.539,-972.656,490.723,0.0,0
1581350879.5579998,59.57,-102.539,-972.168,-811.035,0.0,0
1581350879.562,31.25,-100.098,-972.168,-88.867,0.0,0
1581350879.566,41.992,-105.469,-972.168,-1000.0,0.0,0
1581350879.57,28.32,-124.023,-972.168,-910.645,0.0,0
1581350879.574,-7.324,-113.77,-972.168,-857.422,0.0,0
1581350879.577,7.324,-86.914,-972.168,-722.6560000000002,0.0,0
1581350879.581,51.27,-101.562,-972.168,382.324,0.0,0
1581350879.585,41.504,-112.793,-972.168,9.277,0.0,0
1581350879.589,15.625,-104.98,-972.168,-1000.0,0.0,0
1581350879.593,30.762,-105.469,-972.168,-992.188,0.0,0
1581350879.595,25.391,-111.328,-972.168,-670.898,0.0,0
1581350879.599,18.066,-108.887,-971.191,259.766,0.0,0
1581350879.603,13.184,-100.586,-967.285,582.031,0.0,0
1581350879.607,8.789,-106.445,-930.664,935.059,0.0,0
1581350879.611,22.949,-115.723,-928.711,687.988,0.0,0
1581350879.615,18.066,-120.117,-974.121,599.121,0.0,0
1581350879.619,27.344,-118.164,-973.145,954.102,0.0,0
1581350879.6220002,38.574,-115.723,-971.68,-342.773,0.0,0
1581350879.6260002,27.344,-135.74200000000002,-970.703,-1000.0,0.0,0
1581350879.63,46.875,-150.391,-976.562,-1000.0,0.0,0
1581350879.6339998,44.434,-116.699,-962.402,-109.863,0.0,0
1581350879.6379998,21.973000000000006,-105.469,-938.477,-885.2539999999998,0.0,0
1581350879.64,35.645,-117.676,-973.145,915.527,0.0,0
1581350879.644,54.688,-105.469,-968.262,528.809,0.0,0
1581350879.6479998,62.5,-91.797,-895.508,324.707,0.0,0
1581350879.6520002,46.387,-91.309,-923.828,-151.855,0.0,0
1581350879.656,13.184,-107.91,-979.004,-322.266,0.0,0
1581350879.66,-0.488,-120.117,-970.215,-725.0980000000002,0.0,0
1581350879.664,20.02,-121.094,-971.68,-1000.0,0.0,0
1581350879.667,14.16,-114.258,-972.656,-944.824,0.0,0
1581350879.671,19.531,-134.766,-972.168,-973.145,0.0,0
1581350879.675,45.898,-159.18,-972.168,-972.168,0.0,0
1581350879.679,62.5,-139.16,-972.168,-972.656,0.0,0
1581350879.6829998,67.87100000000001,-150.879,-972.168,-972.168,0.0,0
1581350879.686,50.78100000000001,-168.457,-972.168,-974.609,0.0,0
1581350879.69,35.645,-171.875,-972.656,-954.59,0.0,0
1581350879.694,30.762,-177.24599999999995,-972.168,-987.793,0.0,0
1581350879.698,28.809,-177.24599999999995,-972.168,-955.078,0.0,0
1581350879.702,31.25,-181.152,-972.168,-371.094,0.0,0
1581350879.706,28.809,-192.383,-972.168,-416.504,0.0,0
1581350879.71,33.691,-188.965,-971.68,-611.328,0.0,0
1581350879.7129998,42.48,-189.941,-972.656,-1000.0,0.0,0
1581350879.717,40.527,-204.59,-972.656,-401.367,0.0,0
1581350879.721,10.742,-192.871,-963.379,-116.211,0.0,0
1581350879.725,14.16,-180.176,-965.332,-1000.0,0.0,0
1581350879.729,54.688,-191.895,-975.586,-919.922,0.0,0
1581350879.731,56.152,-187.988,-963.867,-106.445,0.0,0
1581350879.735,27.344,-168.457,-892.578,797.363,0.0,0
1581350879.7389998,16.602,-163.086,-814.453,-992.676,0.0,0
1581350879.7429998,70.312,-164.551,-879.395,979.492,0.0,0
1581350879.7470002,73.73,-158.203,-901.855,-997.559,0.0,0
1581350879.7510002,47.852,-163.086,-909.18,933.105,0.0,0
1581350879.755,35.156,-164.551,-979.98,-852.051,0.0,0
1581350879.758,54.199,-171.875,-969.238,291.992,0.0,0
1581350879.762,53.223,-160.156,-973.633,-1000.0,0.0,0
1581350879.766,11.719,-133.789,-934.082,-19.531,0.0,0
1581350879.77,9.766,-144.043,-874.023,-792.9689999999998,0.0,0
1581350879.774,28.809,-143.555,-909.668,694.336,0.0,0
1581350879.776,31.738000000000003,-133.30100000000002,-977.539,-673.828,0.0,0
1581350879.78,23.926,-122.07,-969.727,-1000.0,0.0,0
1581350879.784,53.223,-125.0,-973.145,94.238,0.0,0
1581350879.788,60.547,-121.582,-971.191,-904.785,0.0,0
1581350879.792,45.41,-118.164,-911.133,962.891,0.0,0
1581350879.796,75.684,-138.184,-935.547,939.941,0.0,0
1581350879.8,71.289,-157.715,-980.957,937.988,0.0,0
1581350879.803,43.945,-167.96900000000005,-964.844,-915.039,0.0,0
1581350879.8070002,58.594,-157.227,-984.863,324.707,0.0,0
1581350879.811,59.57,-147.94899999999996,-925.293,139.16,0.0,0
1581350879.815,42.48,-167.48,-885.2539999999998,943.848,0.0,0
1581350879.819,22.949,-177.24599999999995,-984.375,905.273,0.0,0
1581350879.835,26.367,-156.25,-932.129,-917.969,0.0,0
1581350879.839,26.367,-151.36700000000005,-866.211,167.96900000000005,0.0,0
1581350879.843,50.293,-167.96900000000005,-955.078,-1000.0,0.0,0
1581350879.847,51.758,-166.50400000000005,-979.004,-346.68,0.0,0
1581350879.851,36.133,-156.25,-968.262,782.715,0.0,0
1581350879.855,44.434,-166.50400000000005,-973.145,-973.145,0.0,0
1581350879.859,13.672,-193.848,-972.168,-96.191,0.0,0
1581350879.8620002,4.883,-192.871,-970.703,-1000.0,0.0,0
1581350879.8660002,8.789,-170.41,-978.516,344.727,0.0,0
1581350879.87,-2.441,-171.387,-939.941,536.621,0.0,0
1581350879.8739998,50.293,-173.828,-937.012,59.082,0.0,0
1581350879.8779998,48.828,-173.828,-977.539,-871.0939999999998,0.0,0
1581350879.8660002,25.391,-155.762,-971.68,446.777,0.0,0
1581350879.87,28.809,-145.996,-970.215,-684.082,0.0,0
1581350879.8739998,47.852,-152.832,-976.074,110.352,0.0,0
1581350879.8779998,72.266,-148.92600000000004,-958.008,-840.82,0.0,0
1581350879.8820002,59.082,-138.672,-948.242,448.73,0.0,0
1581350879.8860002,59.082,-155.273,-975.098,-679.688,0.0,0
1581350879.89,66.895,-148.92600000000004,-972.656,-434.57,0.0,0
1581350879.893,36.133,-114.258,-931.152,121.094,0.0,0
1581350879.897,28.32,-112.793,-950.195,-759.2769999999998,0.0,0
1581350879.901,53.223,-112.793,-978.516,-851.074,0.0,0
1581350879.905,35.156,-108.887,-970.215,-846.191,0.0,0
1581350879.909,12.207,-80.078,-972.656,-66.895,0.0,0
1581350879.926,11.719,-60.547,-972.168,-22.461,0.0,0
1581350879.93,33.691,-69.824,-972.656,-1000.0,0.0,0
1581350879.934,56.152,-65.918,-972.168,-183.105,0.0,0
1581350879.938,71.777,-53.71100000000001,-972.168,-412.598,0.0,0
1581350879.9420002,62.988,-58.105,-968.75,-655.273,0.0,0
1581350879.946,64.941,-62.5,-975.586,339.844,0.0,0
1581350879.95,62.012,-34.668,-957.031,966.309,0.0,0
1581350879.9529998,41.992,13.672,-854.0039999999998,-993.164,0.0,0
1581350879.957,21.484,26.367,-843.75,976.074,0.0,0
1581350879.961,12.207,35.156,-951.66,-994.629,0.0,0
1581350879.965,34.668,43.945,-940.918,-996.094,0.0,0
1581350879.969,15.625,47.852,-840.332,934.082,0.0,0
1581350879.971,10.254,44.922,-816.895,-870.605,0.0,0
1581350879.975,13.672,32.227,-913.574,330.566,0.0,0
1581350879.979,-5.859,34.18,-980.957,-974.609,0.0,0
1581350879.9829998,8.789,39.551,-968.75,-1000.0,0.0,0
1581350879.9870002,24.414,34.18,-972.168,-475.098,0.0,0
1581350879.9910002,35.156,21.484,-971.68,-500.48800000000006,0.0,0
1581350879.995,45.41,30.273000000000003,-973.145,-1000.0,0.0,0
1581350879.998,44.922,55.664,-972.656,-327.148,0.0,0
1581350880.002,45.898,46.875,-951.172,775.8789999999998,0.0,0
1581350880.006,54.688,18.066,-963.867,885.742,0.0,0
1581350880.01,49.316,40.527,-978.027,937.988,0.0,0
1581350880.014,23.926,66.406,-875.0,896.9730000000002,0.0,0
1581350880.016,8.789,64.453,-849.1210000000002,941.895,0.0,0
1581350880.02,41.992,62.5,-965.332,-880.8589999999998,0.0,0
1581350880.024,40.039,67.87100000000001,-967.285,507.812,0.0,0
1581350880.028,37.598,68.848,-961.426,-713.867,0.0,0
1581350880.032,57.129,54.688,-975.586,85.93799999999997,0.0,0
1581350880.036,49.316,32.227,-971.68,974.121,0.0,0
1581350880.04,26.855,34.668,-972.656,-995.605,0.0,0
1581350880.043,21.484,32.715,-972.168,593.75,0.0,0
1581350880.0470002,33.691,10.742,-972.168,-700.684,0.0,0
1581350880.051,30.273000000000003,10.254,-972.168,-1000.0,0.0,0
1581350880.055,52.734,25.879,-972.168,-951.172,0.0,0
1581350880.059,49.805,22.461,-969.238,-235.84,0.0,0
1581350880.06,0.977,27.344,-980.957,619.141,0.0,0
1581350880.064,23.438,38.574,-933.105,-898.926,0.0,0
1581350880.0679998,38.086,41.992,-890.625,319.824,0.0,0
1581350880.072,5.859,32.715,-956.543,-1000.0,0.0,0
1581350880.076,20.508000000000006,29.785,-977.539,-970.215,0.0,0
1581350880.08,15.137,29.785,-969.238,-936.523,0.0,0
1581350880.084,8.789,30.273000000000003,-972.656,-989.746,0.0,0
1581350880.087,26.855,31.738000000000003,-972.656,-915.039,0.0,0
1581350880.091,46.387,12.207,-972.168,-1000.0,0.0,0
1581350880.095,42.48,32.715,-972.656,-351.074,0.0,0
1581350880.099,31.738000000000003,38.574,-971.68,205.566,0.0,0
1581350880.103,39.551,13.672,-972.656,-911.621,0.0,0
1581350880.105,82.52,17.578,-973.633,-62.988,0.0,0
1581350880.109,84.473,31.25,-944.336,666.992,0.0,0
1581350880.113,48.828,34.668,-949.707,-476.562,0.0,0
1581350880.117,32.715,16.113,-976.074,-874.512,0.0,0
1581350880.121,35.645,3.906,-971.191,-797.852,0.0,0
1581350880.125,51.27,4.395,-972.168,-975.098,0.0,0
1581350880.129,33.203,22.949,-972.656,-976.074,0.0,0
1581350880.1320002,20.508000000000006,15.625,-972.168,-967.285,0.0,0
1581350880.1360002,36.133,-5.371,-972.656,-973.145,0.0,0
1581350880.14,24.414,20.996,-972.168,-973.145,0.0,0
1581350880.144,62.012,20.508000000000006,-972.168,-949.707,0.0,0
1581350880.1479998,48.34,7.812,-972.168,-961.914,0.0,0
1581350880.15,-7.812,4.883,-972.656,-976.562,0.0,0
1581350880.154,12.695,5.859,-972.168,-972.168,0.0,0
1581350880.158,26.367,8.301,-972.168,-968.75,0.0,0
1581350880.1620002,-13.184,11.719,-972.168,-919.434,0.0,0
1581350880.166,-46.387,5.371,-972.168,-1000.0,0.0,0
1581350880.17,-31.738000000000003,-6.836,-972.168,-117.676,0.0,0
1581350880.174,-17.578,-11.23,-972.656,-960.938,0.0,0
1581350880.177,0.0,-18.066,-966.797,938.477,0.0,0
1581350880.181,-22.949,-0.977,-985.84,958.008,0.0,0
1581350880.185,-32.227,32.227,-919.434,997.559,0.0,0
1581350880.189,32.227,25.879,-862.305,-997.07,0.0,0
1581350880.1929998,46.875,18.066,-935.547,997.559,0.0,0
1581350880.195,27.832,31.738000000000003,-934.082,999.512,0.0,0
1581350880.199,10.742,43.945,-890.137,-1000.0,0.0,0
1581350880.2029998,15.625,47.363,-900.3910000000002,-996.094,0.0,0
1581350880.207,39.062,44.434,-916.992,963.867,0.0,0
1581350880.211,33.691,39.551,-910.156,-995.117,0.0,0
1581350880.215,26.855,36.621,-974.609,980.957,0.0,0
1581350880.219,46.387,32.227,-973.633,88.867,0.0,0
1581350880.222,42.48,49.316,-970.703,-631.3480000000002,0.0,0
1581350880.226,9.766,86.914,-972.656,-900.3910000000002,0.0,0
1581350880.23,-7.324,83.49600000000002,-972.168,-991.211,0.0,0
1581350880.234,21.973000000000006,74.707,-972.168,-945.801,0.0,0
1581350880.238,43.945,78.125,-972.168,-949.707,0.0,0
1581350880.2410002,17.09,76.66,-972.168,-973.145,0.0,0
1581350880.245,-18.555,54.688,-972.168,-96.191,0.0,0
1581350880.2489998,17.09,30.762,-972.168,910.645,0.0,0
1581350880.2529998,38.086,24.902,-972.168,980.469,0.0,0
1581350880.2570002,4.395,24.902,-972.168,917.48,0.0,0
1581350880.2610002,1.465,14.16,-972.168,-867.188,0.0,0
1581350880.265,18.555,-0.488,-972.656,340.82,0.0,0
1581350880.268,49.805,15.625,-972.168,-988.77,0.0,0
1581350880.272,50.78100000000001,43.945,-972.168,-977.051,0.0,0
1581350880.276,13.184,41.504,-972.168,-883.789,0.0,0
1581350880.28,0.488,34.668,-972.168,-1000.0,0.0,0
1581350880.284,12.695,45.898,-972.168,-242.188,0.0,0
1581350880.3,19.043,52.734,-972.168,993.164,0.0,0
1581350880.304,37.109,39.062,-972.168,-996.094,0.0,0
1581350880.3079998,51.758,37.598,-972.168,965.82,0.0,0
1581350880.312,43.945,66.406,-972.168,-991.699,0.0,0
1581350880.316,46.387,75.195,-972.168,999.512,0.0,0
1581350880.32,45.898,64.941,-972.656,999.512,0.0,0
1581350880.324,48.34,62.012,-971.191,999.512,0.0,0
1581350880.327,24.902,84.473,-974.121,999.512,0.0,0
1581350880.331,10.742,93.75,-968.75,999.512,0.0,0
1581350880.335,28.32,78.613,-959.961,-999.023,0.0,0
1581350880.339,20.508000000000006,68.848,-971.191,935.059,0.0,0
1581350880.343,5.859,73.73,-973.633,-863.2810000000002,0.0,0
1581350880.345,-7.812,68.848,-971.68,248.535,0.0,0
1581350880.349,-2.93,68.359,-972.656,-1000.0,0.0,0
1581350880.353,-12.695,78.125,-972.656,-873.047,0.0,0
1581350880.357,-46.387,79.102,-972.656,-812.988,0.0,0
