timestamps,TP9,AF7,AF8,TP10,Right AUX,Marker0
1556039053.040,3.906,34.668,28.320,8.301,32.227,0
1556039053.044,-17.578,32.715,32.227,-1.953,4.395,0
1556039053.048,-8.789,29.297,38.086,-3.418,15.625,0
1556039053.052,-7.324,30.762,34.180,-5.371,19.043,0
1556039053.056,-15.137,28.320,37.109,-11.719,-20.020,0
1556039053.060,-12.695,29.785,43.945,-14.648,26.855,0
1556039053.064,-3.418,27.832,39.062,-8.789,51.758,0
1556039053.067,7.812,26.367,38.086,7.812,-0.488,0
1556039053.071,14.648,26.367,30.762,20.996,-11.719,0
1556039053.075,10.254,22.949,28.320,26.367,35.156,0
1556039053.079,8.301,28.809,37.598,22.461,-4.395,0
1556039053.083,13.184,33.203,42.480,11.230,-9.277,0
1556039053.085,19.531,34.668,36.621,5.859,80.078,0
1556039053.089,25.391,35.156,33.691,6.836,87.402,0
1556039053.093,25.879,34.668,39.062,10.254,52.246,0
1556039053.097,27.832,36.133,39.551,18.066,5.371,0
1556039053.101,37.598,36.133,28.320,25.391,52.246,0
1556039053.105,32.227,34.668,23.438,35.156,52.734,0
1556039053.109,28.320,33.691,36.621,38.086,30.273,0
1556039053.112,35.645,36.133,42.480,30.273,55.176,0
1556039053.116,38.574,39.062,38.086,26.367,28.809,0
1556039053.120,26.855,32.227,29.297,19.043,33.691,0
1556039053.124,8.301,25.391,25.879,7.812,28.320,0
1556039053.128,5.859,33.691,21.973,0.000,23.926,0
1556039053.130,16.113,47.852,21.484,-4.883,-39.062,0
1556039053.134,18.066,51.758,35.645,-12.207,-18.066,0
1556039053.138,19.043,49.805,32.715,-15.625,45.410,0
1556039053.142,23.438,47.852,14.160,-9.766,38.086,0
1556039053.146,31.250,46.387,18.066,-12.207,54.688,0
1556039053.150,31.738,43.457,28.320,-9.277,25.391,0
1556039053.154,29.297,41.992,23.438,1.953,19.531,0
1556039053.157,33.203,44.922,27.344,2.441,7.812,0
1556039053.161,35.156,43.945,43.457,-2.930,-26.855,0
1556039053.165,39.062,36.621,36.621,-1.953,-10.254,0
1556039053.169,29.297,29.297,23.438,4.883,-28.320,0
1556039053.173,20.020,34.180,25.879,4.883,-35.156,0
1556039053.175,30.762,40.039,25.391,6.348,64.453,0
1556039053.179,42.480,42.480,24.902,7.324,65.918,0
1556039053.183,44.434,43.457,29.297,0.977,26.855,0
1556039053.187,43.945,43.945,23.438,1.953,14.160,0
1556039053.191,37.598,43.945,17.578,5.859,5.371,0
1556039053.195,33.203,39.551,27.344,1.953,64.941,0
1556039053.199,35.156,39.551,33.691,9.766,52.734,0
1556039053.202,31.250,38.086,31.738,19.043,51.270,0
1556039053.206,9.277,29.785,29.785,5.859,61.523,0
1556039053.210,3.418,21.484,29.297,-9.277,15.137,0
1556039053.214,21.973,23.438,24.414,1.953,-3.906,0
1556039053.218,25.879,28.809,22.461,7.324,45.410,0
1556039053.220,19.531,27.344,23.438,5.371,15.137,0
1556039053.224,24.414,33.691,21.973,12.207,-0.488,0
1556039053.228,35.645,46.387,15.625,8.301,48.828,0
1556039053.232,31.738,51.270,7.324,8.301,74.219,0
1556039053.236,17.090,46.875,15.625,11.719,30.762,0
1556039053.240,8.789,42.480,28.320,4.883,-22.949,0
1556039053.244,21.484,41.992,29.785,6.348,12.207,0
1556039053.247,32.715,41.016,28.809,7.324,35.156,0
1556039053.251,25.391,37.109,26.855,6.348,48.340,0
1556039053.255,24.414,35.156,28.809,10.254,41.992,0
1556039053.259,39.551,35.645,25.391,11.230,-36.621,0
1556039053.263,43.457,40.039,16.602,19.043,-32.715,0
1556039053.265,31.738,35.645,18.555,23.438,2.441,0
1556039053.269,31.250,37.109,23.926,23.438,22.461,0
1556039053.273,30.762,46.387,26.855,20.020,10.254,0
1556039053.277,33.203,45.898,29.785,16.113,-7.324,0
1556039053.281,35.156,43.457,26.367,18.555,10.742,0
1556039053.285,27.832,47.363,18.066,17.090,-19.531,0
1556039053.289,30.762,45.898,23.438,10.742,46.387,0
1556039053.292,28.320,42.969,34.180,-1.465,53.711,0
1556039053.296,12.695,45.410,31.738,-11.719,31.738,0
1556039053.300,6.348,43.457,30.762,-5.859,76.660,0
1556039053.304,14.160,41.016,25.879,-4.395,36.621,0
1556039053.308,23.926,39.062,9.766,-0.977,10.254,0
1556039053.310,17.090,36.133,11.719,-11.719,34.180,0
1556039053.314,5.371,35.156,27.832,-17.090,-15.625,0
1556039053.318,8.301,32.715,35.645,-5.371,6.836,0
1556039053.322,23.926,37.109,27.344,-0.977,38.086,0
1556039053.326,30.273,42.480,15.625,-0.488,20.508,0
1556039053.330,22.461,41.992,24.902,3.418,49.316,0
1556039053.334,24.414,37.598,33.203,5.371,35.156,0
1556039053.337,41.992,36.133,29.785,9.277,22.949,0
1556039053.341,46.387,36.133,18.066,16.602,17.090,0
1556039053.345,35.645,35.156,16.602,25.391,39.062,0
1556039053.349,39.062,41.016,29.785,30.762,37.598,0
1556039053.353,45.898,47.363,26.367,30.273,25.391,0
1556039053.355,42.480,42.480,13.672,27.344,83.496,0
1556039053.359,33.203,33.203,16.113,24.414,74.219,0
1556039053.363,19.043,32.227,23.926,20.996,42.480,0
1556039053.367,18.066,30.762,30.273,15.137,49.316,0
1556039053.371,23.926,29.785,31.738,9.277,-13.184,0
1556039053.375,11.230,31.738,28.320,3.906,-16.602,0
1556039053.379,1.465,35.645,24.902,-9.277,65.430,0
1556039053.382,4.883,40.527,25.391,-17.578,43.457,0
1556039053.386,11.230,40.039,23.438,-17.578,56.152,0
1556039053.390,18.066,38.574,23.926,-15.137,75.195,0
1556039053.394,22.949,40.039,25.391,-11.719,26.367,0
1556039053.398,14.160,38.574,9.766,-17.578,-28.809,0
1556039053.400,12.695,34.668,2.930,-17.578,36.133,0
1556039053.404,23.438,35.156,11.230,-16.602,39.062,0
1556039053.408,12.695,35.156,18.066,-19.043,-3.906,0
1556039053.412,0.977,36.621,23.926,-14.648,54.199,0
1556039053.416,5.371,39.551,23.438,-5.859,37.598,0
1556039053.420,12.695,42.480,20.020,3.418,4.883,0
1556039053.424,19.043,46.387,23.926,8.301,48.828,0
1556039053.427,19.531,46.387,23.926,15.137,5.859,0
1556039053.431,14.648,44.922,18.066,20.020,-16.113,0
1556039053.435,17.090,42.480,20.508,11.230,16.602,0
1556039053.439,22.949,43.457,24.414,10.742,51.758,0
1556039053.443,15.137,42.480,23.926,1.953,23.926,0
1556039053.460,5.859,36.133,24.902,-14.160,61.035,0
1556039053.464,11.230,29.297,24.414,-10.742,64.941,0
1556039053.468,20.020,32.715,19.043,1.465,-7.812,0
1556039053.472,15.625,45.898,11.719,0.977,-32.715,0
1556039053.476,0.977,50.293,4.395,-3.906,-5.371,0
1556039053.480,8.301,47.852,8.301,-0.488,31.250,0
1556039053.484,27.344,48.340,11.230,1.953,9.766,0
1556039053.487,26.855,43.945,13.672,-0.977,-34.668,0
1556039053.491,24.414,46.387,11.230,3.418,12.695,0
1556039053.495,30.762,50.781,10.254,2.441,50.293,0
1556039053.499,32.227,49.316,12.695,-11.230,45.898,0
1556039053.503,31.250,48.340,5.859,-11.719,48.340,0
1556039053.505,31.250,46.387,11.719,-4.883,19.043,0
1556039053.509,35.156,47.363,11.719,-0.488,10.254,0
1556039053.513,42.480,45.898,14.648,1.953,39.062,0
1556039053.517,42.480,41.504,24.414,8.789,49.805,0
1556039053.521,31.738,38.086,21.484,8.789,19.043,0
1556039053.525,18.555,37.598,19.531,2.930,20.508,0
1556039053.529,19.043,41.504,16.602,-0.488,6.836,0
1556039053.532,25.879,42.480,14.160,3.906,-0.488,0
1556039053.536,27.344,40.039,10.742,7.324,50.293,0
1556039053.540,22.461,42.969,0.488,2.441,-6.836,0
1556039053.544,20.508,46.875,7.324,3.418,-47.363,0
1556039053.548,22.949,46.387,19.531,0.000,13.184,0
1556039053.550,25.391,45.410,22.461,0.000,24.902,0
1556039053.554,22.461,46.387,29.297,3.906,22.949,0
1556039053.558,18.555,46.875,30.762,8.301,1.465,0
1556039053.562,21.484,46.387,22.949,6.348,14.648,0
1556039053.566,24.902,42.480,18.555,0.488,39.062,0
1556039053.570,8.789,35.645,15.137,-3.906,38.574,0
1556039053.574,-3.418,35.645,20.508,-11.230,27.832,0
1556039053.577,10.254,37.109,30.273,-4.883,1.465,0
1556039053.581,20.020,35.645,32.715,-9.277,31.738,0
1556039053.585,7.812,29.785,35.156,-23.926,24.414,0
1556039053.589,-5.371,24.902,35.645,-11.230,-11.230,0
1556039053.593,1.465,24.902,37.598,1.465,-4.395,0
1556039053.595,17.090,27.344,40.527,7.324,42.480,0
1556039053.599,20.020,30.273,42.969,9.766,27.832,0
1556039053.603,13.672,26.855,36.621,10.742,-13.672,0
1556039053.607,19.043,30.273,25.879,18.555,27.344,0
1556039053.611,26.855,35.645,19.531,17.090,35.156,0
1556039053.615,22.949,37.109,23.438,13.672,1.465,0
1556039053.619,14.160,35.645,33.203,16.113,18.555,0
1556039053.622,18.555,35.156,33.203,15.625,46.875,0
1556039053.626,30.273,40.527,30.273,16.113,72.266,0
1556039053.630,34.180,40.527,21.973,18.066,42.969,0
1556039053.634,31.250,35.645,18.066,19.043,26.855,0
1556039053.638,31.738,28.809,25.391,15.137,43.457,0
1556039053.640,38.574,29.297,30.762,16.602,23.438,0
1556039053.644,34.180,40.039,31.738,17.090,9.277,0
1556039053.648,20.020,38.086,24.902,2.930,24.902,0
1556039053.652,6.836,32.227,25.879,-13.672,49.805,0
1556039053.656,2.930,41.504,28.320,-25.391,47.852,0
1556039053.660,0.488,42.480,22.949,-34.668,49.805,0
1556039053.664,-5.859,35.156,19.531,-40.039,34.180,0
1556039053.667,-3.418,38.574,18.066,-37.598,24.414,0
1556039053.671,3.418,39.062,19.043,-34.180,8.301,0
1556039053.675,17.090,33.691,20.508,-28.809,0.488,0
1556039053.679,20.020,33.691,24.902,-20.020,21.973,0
1556039053.683,11.719,32.227,28.320,-10.742,32.227,0
1556039053.685,14.648,20.996,22.461,3.418,38.574,0
1556039053.689,21.973,20.020,23.438,9.277,51.758,0
1556039053.693,22.949,38.574,31.738,4.395,61.035,0
1556039053.697,15.137,44.434,28.809,-6.348,78.613,0
1556039053.701,13.672,42.480,22.949,-6.348,24.414,0
1556039053.705,26.367,43.945,21.973,1.465,-11.719,0
1556039053.709,29.785,38.574,29.297,7.324,38.086,0
1556039053.712,13.672,32.227,31.738,4.883,32.715,0
1556039053.716,11.719,31.738,29.785,13.184,2.930,0
1556039053.720,16.602,33.203,33.203,27.344,4.883,0
1556039053.724,29.785,33.691,32.715,24.414,11.230,0
1556039053.728,16.602,30.762,30.762,11.230,19.531,0
1556039053.745,-14.160,29.297,34.180,-7.812,15.137,0
1556039053.749,-11.719,31.738,30.273,-16.113,60.059,0
1556039053.753,-2.930,26.367,29.785,-13.184,96.680,0
1556039053.757,-2.441,20.020,38.574,-11.719,86.914,0
1556039053.761,-9.766,29.785,34.668,-12.207,98.633,0
1556039053.765,-10.254,40.527,28.320,-12.207,38.574,0
1556039053.769,-3.906,41.504,23.438,-25.391,27.832,0
1556039053.772,0.488,38.086,32.227,-28.320,63.965,0
1556039053.776,7.812,37.598,30.762,-20.508,38.574,0
1556039053.780,12.207,35.156,18.066,-21.973,39.551,0
1556039053.784,18.066,36.621,23.438,-20.020,31.738,0
1556039053.788,27.832,39.551,31.250,-7.324,27.344,0
1556039053.775,25.391,38.574,30.762,5.371,11.719,0
1556039053.779,24.902,41.016,23.926,9.766,-21.484,0
1556039053.783,37.598,39.062,10.742,22.949,-31.250,0
1556039053.787,45.898,39.062,22.461,29.785,-10.742,0
1556039053.791,46.875,48.340,41.992,28.320,51.758,0
1556039053.795,37.598,42.969,43.457,27.344,23.926,0
1556039053.799,13.672,34.668,40.527,15.625,5.859,0
1556039053.802,5.371,31.738,38.086,8.789,4.395,0
1556039053.806,15.625,33.203,27.344,16.602,-3.906,0
1556039053.810,19.531,38.574,21.973,18.555,30.273,0
1556039053.814,26.367,41.504,30.273,20.996,103.516,0
1556039053.818,37.109,42.969,30.762,20.508,78.613,0
1556039053.835,30.273,38.574,35.156,24.414,-10.742,0
1556039053.839,12.207,31.250,44.922,18.555,10.742,0
1556039053.843,6.836,29.297,38.086,11.719,57.617,0
1556039053.847,15.625,36.133,22.949,21.973,3.418,0
1556039053.851,12.695,38.574,39.062,18.555,3.906,0
1556039053.855,5.859,32.227,49.316,5.859,12.207,0
1556039053.859,0.000,33.203,36.621,0.977,-30.762,0
1556039053.862,0.977,38.086,36.621,2.930,6.348,0
1556039053.866,15.625,37.598,38.574,5.859,28.320,0
1556039053.870,21.973,39.062,31.738,8.301,-12.207,0
1556039053.874,22.949,41.992,20.020,9.277,36.133,0
1556039053.878,31.738,39.062,16.113,10.742,59.082,0
1556039053.880,46.875,35.156,32.227,15.137,17.578,0
1556039053.884,46.387,32.227,41.992,20.508,-12.207,0
1556039053.888,34.180,31.250,34.668,16.602,6.836,0
1556039053.892,32.715,32.715,32.715,25.391,42.969,0
1556039053.896,35.156,43.945,34.668,28.320,59.082,0
1556039053.900,26.367,52.734,27.344,14.160,69.336,0
1556039053.904,19.531,52.246,20.508,11.719,48.828,0
1556039053.907,24.414,51.270,9.277,8.789,8.789,0
1556039053.911,35.156,50.293,1.465,7.324,6.348,0
1556039053.915,35.645,51.758,9.766,2.441,-3.906,0
1556039053.919,29.297,50.781,20.996,-2.441,-21.973,0
1556039053.923,26.855,52.246,17.578,4.395,-42.480,0
1556039053.925,29.785,50.781,7.812,5.859,-24.414,0
1556039053.929,32.715,50.293,8.789,1.953,34.180,0
1556039053.933,23.438,53.223,8.301,0.000,60.059,0
1556039053.937,17.578,48.340,2.441,12.207,82.520,0
1556039053.941,14.160,42.480,16.113,15.625,81.543,0
1556039053.945,17.090,45.410,24.414,6.348,68.359,0
1556039053.949,21.484,45.898,17.090,5.859,75.195,0
1556039053.952,20.508,43.945,16.113,12.207,59.082,0
1556039053.956,16.602,44.922,19.531,15.137,57.617,0
1556039053.960,11.719,48.828,18.555,12.695,47.852,0
1556039053.964,16.113,49.805,17.090,18.066,23.926,0
1556039053.968,15.137,47.852,14.648,12.207,9.277,0
1556039053.971,14.160,41.992,14.648,8.301,-9.277,0
1556039053.975,18.555,40.039,18.066,11.230,-0.488,0
1556039053.979,25.391,41.504,24.414,13.184,42.969,0
1556039053.983,29.785,45.898,17.578,16.113,34.668,0
1556039053.987,36.621,51.758,10.742,25.391,11.719,0
1556039053.991,48.828,54.688,13.672,26.367,14.160,0
1556039053.995,48.828,53.711,14.648,22.461,-18.066,0
1556039053.998,41.992,53.223,24.902,25.391,10.742,0
1556039054.002,34.668,55.664,32.715,19.531,6.348,0
1556039054.006,33.203,53.223,31.250,13.184,-18.066,0
1556039054.010,35.156,46.387,21.973,2.930,-11.230,0
1556039054.014,39.551,37.598,14.160,-8.301,-29.785,0
1556039054.015,49.316,39.551,20.508,10.254,-1.953,0
1556039054.019,41.016,40.039,31.250,23.438,8.301,0
1556039054.023,30.273,37.109,31.250,9.766,5.859,0
1556039054.027,33.691,41.992,22.461,5.371,-5.371,0
1556039054.031,39.062,41.016,22.949,13.672,17.578,0
1556039054.035,32.715,36.133,31.250,21.484,49.316,0
1556039054.039,19.531,30.273,38.574,8.789,53.223,0
1556039054.042,5.371,25.879,39.551,-12.207,28.809,0
1556039054.046,0.977,21.484,35.645,-20.996,33.691,0
1556039054.050,4.395,19.531,34.668,-17.578,61.035,0
1556039054.054,3.418,29.297,41.992,-17.090,15.137,0
1556039054.058,8.301,33.691,41.992,-12.207,3.418,0
1556039054.060,16.113,31.250,30.762,-3.906,25.391,0
1556039054.064,15.625,37.109,23.926,-3.418,28.320,0
1556039054.068,16.602,42.480,21.484,-2.441,43.457,0
1556039054.072,23.926,40.039,17.090,-12.695,9.277,0
1556039054.076,25.391,36.133,21.484,-19.043,2.930,0
1556039054.080,20.996,34.180,26.855,-15.625,52.246,0
1556039054.084,10.254,31.738,23.926,-14.160,0.977,0
1556039054.087,6.836,29.785,19.043,-16.113,-85.938,0
1556039054.091,17.090,29.297,22.461,-5.859,30.762,0
1556039054.095,28.809,34.668,33.203,14.648,81.543,0
1556039054.099,37.109,41.504,32.715,20.020,-16.113,0
1556039054.103,43.945,50.293,26.855,21.973,-3.906,0
1556039054.105,50.293,46.875,19.043,17.578,31.738,0
1556039054.109,44.434,33.691,8.789,17.578,56.152,0
1556039054.113,34.180,38.086,13.184,17.090,87.402,0
1556039054.117,29.785,42.969,21.973,11.719,35.645,0
1556039054.121,28.809,39.551,18.066,1.953,16.113,0
1556039054.125,26.855,41.016,26.855,1.465,57.617,0
1556039054.129,19.531,39.062,39.551,7.324,46.875,0
1556039054.132,15.137,42.969,36.621,4.395,13.672,0
1556039054.136,18.066,47.363,36.133,10.254,2.441,0
1556039054.140,22.949,42.480,28.809,15.625,1.465,0
1556039054.144,28.809,44.434,23.438,23.926,14.648,0
1556039054.148,32.227,46.875,26.367,23.926,-17.578,0
1556039054.150,27.832,39.551,21.973,13.184,18.066,0
1556039054.154,30.273,29.297,26.855,10.742,49.316,0
1556039054.158,33.203,30.273,29.297,6.836,51.270,0
1556039054.162,25.879,38.086,21.484,-1.465,74.219,0
1556039054.166,26.855,40.039,20.996,-3.418,33.691,0
1556039054.170,27.832,42.480,20.020,1.465,37.598,0
1556039054.174,32.227,45.898,7.324,13.672,1.465,0
1556039054.177,35.156,43.945,11.719,19.043,-41.016,0
1556039054.181,33.691,43.457,28.809,16.602,2.930,0
1556039054.185,41.992,41.504,31.738,18.066,46.875,0
1556039054.189,39.062,41.504,36.133,14.648,48.340,0
1556039054.193,26.367,37.109,38.086,11.230,-11.719,0
1556039054.210,20.020,26.367,32.715,7.812,-43.945,0
1556039054.214,19.531,25.391,24.414,-0.977,15.625,0
1556039054.218,25.879,31.738,20.020,-1.465,51.270,0
1556039054.222,20.996,32.715,17.090,5.859,39.062,0
1556039054.226,8.789,33.203,15.625,2.441,-0.488,0
1556039054.230,19.043,37.598,18.555,4.883,12.207,0
1556039054.234,29.297,42.969,19.531,7.324,24.902,0
1556039054.237,28.320,42.969,10.742,11.719,-6.836,0
1556039054.241,12.695,39.551,6.348,13.672,14.648,0
1556039054.245,4.395,35.645,27.344,1.465,10.254,0
1556039054.249,11.230,36.133,37.109,-1.465,12.207,0
1556039054.253,10.254,39.062,29.785,0.488,12.695,0
1556039054.255,7.324,37.598,28.809,1.953,14.160,0
1556039054.259,18.066,40.527,24.902,3.906,35.645,0
1556039054.263,28.809,41.504,18.066,2.930,14.648,0
1556039054.267,34.668,41.992,12.695,8.301,55.176,0
1556039054.271,36.133,41.992,7.812,11.230,69.336,0
1556039054.275,33.691,44.434,5.859,9.766,19.531,0
1556039054.279,43.457,41.992,13.672,12.695,-59.082,0
1556039054.282,48.828,32.227,18.066,9.277,-39.062,0
1556039054.286,41.992,29.785,21.973,2.441,55.664,0
1556039054.290,38.086,37.598,23.438,6.348,61.035,0
1556039054.294,46.875,47.363,23.926,14.648,37.109,0
1556039054.298,54.688,46.387,28.320,20.020,24.414,0
1556039054.300,45.898,45.898,33.203,17.578,-29.297,0
1556039054.304,29.785,48.340,32.227,14.160,25.879,0
1556039054.308,23.926,46.875,27.832,10.254,85.938,0
1556039054.312,34.180,44.434,25.391,4.883,68.848,0
1556039054.316,31.738,42.969,20.508,-0.488,42.480,0
1556039054.320,19.531,37.109,19.531,1.465,26.367,0
1556039054.324,16.602,36.133,20.996,1.465,-13.184,0
1556039054.327,17.578,39.062,19.531,-0.488,-6.836,0
1556039054.331,16.602,37.109,18.066,-7.812,51.758,0
1556039054.335,0.488,33.691,12.695,-10.742,31.738,0
1556039054.339,-11.719,33.203,18.066,-3.418,-16.113,0
1556039054.343,-1.953,40.527,34.668,-4.883,-23.926,0
1556039054.345,7.812,39.551,35.156,-8.789,7.324,0
1556039054.349,6.348,35.645,28.320,-11.719,40.527,0
1556039054.353,-0.488,36.621,30.762,-8.789,12.207,0
1556039054.357,4.395,37.598,27.832,-4.883,-2.441,0
1556039054.361,7.324,37.109,19.531,-6.348,52.246,0
1556039054.365,7.324,31.250,17.090,-1.953,58.594,0
1556039054.369,6.348,32.227,19.043,-0.488,52.246,0
1556039054.372,1.953,36.133,26.855,1.953,76.660,0
1556039054.376,4.395,37.109,32.715,2.441,43.945,0
1556039054.380,7.812,33.691,35.156,10.742,-3.418,0
1556039054.384,5.859,29.785,35.645,17.578,1.465,0
1556039054.388,14.160,31.250,34.668,21.484,-7.324,0
1556039054.390,19.531,30.273,34.180,22.949,-0.977,0
1556039054.394,12.207,27.344,28.809,20.508,3.418,0
1556039054.398,4.395,34.668,24.902,14.648,44.434,0
1556039054.402,10.742,41.016,15.625,8.789,58.594,0
1556039054.406,17.090,39.551,7.324,0.977,45.410,0
1556039054.410,17.090,38.574,19.531,-9.766,40.527,0
1556039054.414,16.602,41.016,29.297,-12.207,29.297,0
1556039054.417,10.742,36.133,30.762,-12.207,87.402,0
1556039054.421,10.742,34.668,36.621,-14.160,88.379,0
1556039054.425,22.461,41.504,32.715,-9.277,45.898,0
1556039054.429,25.879,43.945,21.973,-2.441,31.250,0
1556039054.433,13.184,45.898,15.137,-1.953,-18.555,0
1556039054.435,15.625,49.316,18.555,-0.488,-19.043,0
1556039054.439,16.602,46.387,26.855,1.953,-24.414,0
1556039054.443,16.113,40.039,21.484,-2.441,10.254,0
1556039054.447,19.531,37.109,19.531,-13.672,23.926,0
1556039054.451,20.996,40.039,27.344,-19.531,12.207,0
1556039054.455,31.250,41.504,27.832,-11.719,31.738,0
1556039054.459,32.227,41.016,22.461,-7.812,-13.184,0
1556039054.462,25.391,43.457,20.020,-4.395,0.000,0
1556039054.466,32.715,43.457,28.320,10.742,-8.301,0
1556039054.470,33.691,33.691,39.062,12.695,-13.672,0
1556039054.474,26.855,28.320,36.621,6.348,47.363,0
1556039054.478,29.785,35.156,34.668,5.859,56.641,0
1556039054.480,21.973,41.016,37.598,-0.488,41.504,0
1556039054.484,14.160,39.062,30.273,0.000,38.574,0
1556039054.488,23.926,38.086,28.320,-4.395,38.574,0
1556039054.492,27.344,41.504,22.461,-8.301,22.461,0
1556039054.496,17.578,38.574,21.484,2.930,-9.277,0
1556039054.500,10.742,30.762,31.738,6.348,-12.207,0
1556039054.504,15.625,31.250,32.715,0.000,-44.434,0
1556039054.507,20.508,32.227,32.715,-9.277,-43.457,0
1556039054.511,15.137,27.832,28.320,-11.230,14.648,0
1556039054.515,14.648,28.809,29.297,-4.395,43.457,0
1556039054.519,24.414,33.203,35.645,-4.395,47.363,0
1556039054.523,19.531,38.574,33.691,-6.348,78.613,0
1556039054.525,9.277,44.922,26.855,4.883,70.312,0
1556039054.529,12.695,45.898,20.508,14.648,23.926,0
1556039054.533,23.926,47.852,28.320,14.160,21.484,0
1556039054.537,38.086,45.898,29.297,12.207,-8.789,0
1556039054.541,40.527,41.992,28.809,13.672,-9.277,0
1556039054.545,28.809,40.527,37.109,8.789,-0.977,0
1556039054.549,30.762,34.668,32.715,3.906,37.598,0
1556039054.552,39.062,28.320,22.461,12.207,17.578,1
1556039054.556,38.574,28.809,30.762,24.414,-5.859,0
1556039054.560,43.945,35.645,33.691,33.691,70.312,0
1556039054.564,49.316,37.109,25.391,33.691,46.387,0
1556039054.568,51.270,30.762,24.902,32.715,27.344,0
1556039054.585,49.805,32.715,30.762,28.320,34.668,0
1556039054.589,44.434,41.504,39.551,22.949,-11.230,0
1556039054.593,45.410,42.480,38.086,23.926,-2.930,0
1556039054.597,50.293,41.992,30.273,21.484,33.203,0
1556039054.601,43.457,44.434,27.832,17.578,3.906,0
1556039054.605,35.645,42.969,27.832,19.043,-10.254,0
1556039054.609,27.832,35.645,28.809,22.949,31.738,0
1556039054.612,24.414,32.227,32.227,23.438,85.449,0
1556039054.616,25.879,29.297,29.785,16.602,53.711,0
1556039054.620,25.879,24.414,25.391,9.277,-0.488,0
1556039054.624,24.414,29.785,19.531,10.254,-11.230,0
1556039054.628,18.066,35.645,20.996,14.648,-5.859,0
1556039054.630,9.766,34.180,30.762,9.277,34.180,0
1556039054.634,5.859,35.156,33.691,6.836,36.621,0
1556039054.638,8.789,41.016,34.668,15.137,35.645,0
1556039054.642,12.695,41.016,33.203,17.578,33.691,0
1556039054.646,13.672,38.086,27.832,13.184,5.371,0
1556039054.650,18.555,39.062,35.645,8.789,11.719,0
1556039054.654,19.531,37.109,40.527,7.324,11.230,0
1556039054.657,13.184,33.691,30.273,10.742,22.949,0
1556039054.661,20.508,39.551,27.832,11.230,35.156,0
1556039054.665,27.344,40.527,23.926,8.301,9.766,0
1556039054.669,28.320,33.203,22.949,3.906,-11.230,0
1556039054.673,26.855,32.227,22.949,-4.395,25.879,0
1556039054.675,20.508,35.156,18.066,-5.371,68.848,0
1556039054.679,19.043,36.621,21.973,0.000,62.988,0
1556039054.683,19.531,34.668,24.902,0.977,-18.555,0
1556039054.687,13.672,38.574,22.949,-2.441,-7.812,0
1556039054.691,13.672,42.480,23.438,11.230,22.461,0
1556039054.695,16.602,38.574,27.832,17.090,-73.730,0
1556039054.699,13.184,37.109,30.762,3.418,-14.648,0
1556039054.702,11.719,38.574,32.227,-1.465,94.727,0
1556039054.706,6.836,37.598,32.715,-7.812,62.012,0
1556039054.710,0.977,34.668,24.414,-10.742,40.527,0
1556039054.714,0.000,34.668,21.973,-4.883,12.695,0
1556039054.718,6.836,40.527,26.855,-2.930,24.414,0
1556039054.720,13.184,44.434,29.297,-1.465,62.012,0
1556039054.724,15.625,43.457,21.973,2.441,45.410,0
1556039054.728,18.066,40.527,19.043,5.371,23.438,0
1556039054.732,26.367,35.645,22.461,6.348,41.992,0
1556039054.736,27.832,34.180,23.926,9.766,76.660,0
1556039054.740,25.391,38.086,23.926,6.836,92.773,0
1556039054.744,27.832,36.133,19.531,5.371,53.711,0
1556039054.747,28.809,35.156,23.926,8.301,-22.949,0
1556039054.751,22.949,40.527,30.273,4.395,-32.715,0
1556039054.755,26.855,43.945,32.227,2.441,-1.465,0
1556039054.759,34.668,45.410,29.297,0.488,17.090,0
1556039054.763,25.391,43.945,24.414,2.441,-11.230,0
1556039054.765,17.090,43.457,21.484,3.418,4.883,0
1556039054.769,13.184,41.016,19.043,-0.488,44.434,0
1556039054.773,23.438,41.504,20.020,0.000,43.945,0
1556039054.777,34.180,41.992,23.438,1.465,53.711,0
1556039054.781,26.855,40.527,19.043,6.836,-12.207,0
1556039054.785,19.531,39.551,20.996,14.160,-27.832,0
1556039054.789,16.602,35.156,31.738,13.184,37.109,0
1556039054.792,16.113,29.785,27.832,10.742,73.242,0
1556039054.796,11.230,25.879,18.555,6.836,63.477,0
1556039054.800,1.953,28.320,20.996,-5.859,31.738,0
1556039054.804,3.418,33.203,32.715,-9.277,39.551,0
1556039054.808,7.812,34.668,35.645,-8.301,24.414,0
1556039054.810,3.418,34.180,30.273,-11.230,-1.953,0
1556039054.814,-0.977,36.621,24.414,-12.207,-23.926,0
1556039054.818,4.395,33.203,25.879,-6.348,-0.488,0
1556039054.822,11.230,28.809,31.250,4.883,23.438,0
1556039054.826,9.766,39.062,27.832,0.488,-27.832,0
1556039054.830,6.348,44.922,23.926,-7.812,21.973,0
1556039054.834,-0.488,41.016,20.508,-7.812,25.879,0
1556039054.837,2.930,41.992,11.719,-0.977,0.977,0
1556039054.841,12.207,42.969,16.113,11.230,34.668,0
1556039054.845,15.625,46.875,21.484,14.160,54.688,0
1556039054.849,14.160,38.086,19.043,10.254,10.742,0
1556039054.853,10.742,27.344,20.020,4.395,-21.973,0
1556039054.855,20.020,29.297,20.020,14.160,49.316,0
1556039054.859,29.297,29.785,18.066,23.438,50.781,0
1556039054.863,26.855,36.621,20.020,18.066,-26.855,0
1556039054.867,24.414,42.969,22.949,16.113,-17.090,0
1556039054.871,33.691,41.504,21.484,10.742,4.883,0
1556039054.875,40.527,38.574,20.508,12.207,-40.527,0
1556039054.879,32.227,40.527,20.020,6.348,26.855,0
1556039054.882,29.785,41.016,20.508,2.441,57.617,0
1556039054.886,33.691,40.527,20.996,5.859,-7.812,0
1556039054.890,34.668,47.363,19.531,1.953,12.695,0
1556039054.894,29.785,51.270,19.531,-0.488,43.457,0
1556039054.898,23.926,46.875,24.902,-3.906,-12.207,0
1556039054.915,19.531,34.180,27.344,-10.254,48.340,0
1556039054.919,16.602,26.855,23.438,-11.719,92.285,0
1556039054.923,21.484,34.668,20.996,-6.348,-1.465,0
1556039054.927,16.602,41.504,20.020,-4.883,-3.418,0
1556039054.931,13.184,41.504,14.648,-0.977,47.852,0
1556039054.935,13.184,38.574,10.254,0.977,34.668,0
1556039054.939,11.230,37.598,15.137,-4.883,40.527,0
1556039054.942,6.836,36.621,22.949,0.488,16.113,0
1556039054.946,9.277,34.668,13.184,8.301,31.738,0
1556039054.950,14.160,33.203,5.371,7.324,27.344,0
1556039054.954,13.672,36.621,20.020,1.953,-2.930,0
1556039054.958,13.184,40.527,31.250,-1.953,25.391,0
1556039054.960,8.789,38.086,32.227,4.395,52.734,0
1556039054.964,9.766,31.738,20.996,2.441,-3.906,0
1556039054.968,8.301,28.320,16.602,1.465,-19.531,0
1556039054.972,7.324,28.809,21.484,3.906,6.836,0
1556039054.976,7.812,28.320,18.555,0.488,7.812,0
1556039054.980,11.230,34.668,20.996,-0.977,36.133,0
1556039054.984,22.949,40.527,25.391,15.137,56.641,0
1556039054.987,25.391,40.527,19.531,22.461,42.480,0
1556039054.991,21.484,39.062,14.160,9.766,-17.090,0
1556039054.995,25.391,40.039,17.578,0.488,-28.320,0
1556039054.999,37.598,40.039,19.043,3.906,-20.996,0
1556039055.003,43.457,38.574,25.879,9.277,-9.766,0
1556039055.005,31.738,38.574,28.809,1.953,27.832,0
1556039055.009,22.461,36.621,28.320,0.488,67.383,0
1556039055.013,24.414,35.645,29.785,8.301,41.016,0
1556039055.017,23.926,36.133,26.855,13.672,46.875,0
1556039055.021,32.227,35.645,24.902,13.184,80.566,0
1556039055.025,32.715,38.086,22.949,6.348,25.391,0
1556039055.029,28.320,37.109,20.020,0.977,7.324,0
1556039055.032,28.320,34.180,21.484,5.371,-20.996,0
1556039055.036,32.227,41.016,23.438,12.695,-28.320,0
1556039055.040,38.574,46.875,16.602,19.043,50.781,0
1556039055.044,37.598,44.434,23.438,18.066,39.062,0
1556039055.048,38.086,38.574,33.203,10.742,8.301,0
1556039055.050,36.133,36.133,26.367,12.207,28.320,0
1556039055.054,30.273,35.156,23.438,18.066,61.523,0
1556039055.058,36.133,39.551,23.926,25.391,32.227,0
1556039055.062,39.551,45.898,19.531,28.809,12.207,0
1556039055.066,38.086,46.387,16.602,19.531,-27.344,0
1556039055.070,32.715,45.410,18.555,11.719,-13.184,0
1556039055.074,32.227,43.457,26.855,11.719,31.738,0
1556039055.077,40.039,36.621,28.320,18.066,-3.906,0
1556039055.081,40.527,38.574,19.043,20.020,-23.926,0
1556039055.085,41.992,38.574,17.578,20.996,18.066,0
1556039055.089,34.180,31.250,25.879,21.973,73.242,0
1556039055.093,23.926,37.598,33.203,17.090,53.223,0
1556039055.095,26.367,42.969,30.273,19.531,32.715,0
1556039055.099,23.438,41.016,26.367,18.555,38.574,0
1556039055.103,21.973,40.039,24.902,7.324,29.785,0
1556039055.107,19.531,36.133,14.648,10.742,39.551,0
1556039055.111,31.738,38.086,13.672,20.020,4.395,0
1556039055.115,36.621,40.527,21.973,14.160,-27.832,0
1556039055.119,22.949,38.574,24.902,7.812,-9.277,0
1556039055.122,28.809,37.109,20.996,6.836,20.020,0
1556039055.126,42.969,40.527,21.484,8.301,15.625,0
1556039055.130,44.922,46.387,32.227,11.230,27.832,0
1556039055.134,34.668,45.898,35.156,7.324,64.453,0
1556039055.138,22.461,41.016,30.273,-1.465,36.621,0
1556039055.140,21.973,37.598,27.344,-3.906,37.598,0
1556039055.144,29.297,38.574,26.855,-0.977,37.109,0
1556039055.148,35.156,40.527,26.367,1.953,35.156,0
1556039055.152,35.645,45.898,20.996,5.859,48.340,0
1556039055.156,42.969,51.758,16.113,5.859,57.617,0
1556039055.160,48.340,53.223,17.578,12.207,26.367,0
1556039055.164,37.598,50.781,23.926,14.160,-41.992,0
1556039055.167,29.785,46.875,27.344,4.395,26.367,0
1556039055.171,27.832,44.922,29.785,1.465,44.434,0
1556039055.175,25.879,47.363,35.156,1.953,-27.832,0
1556039055.179,13.672,45.410,33.691,-5.859,-3.418,0
1556039055.183,0.977,46.387,36.133,-3.906,10.254,0
1556039055.185,-10.254,49.316,38.086,-0.977,-5.371,0
1556039055.189,-18.555,49.316,29.785,-12.695,55.664,0
1556039055.193,-21.484,49.316,25.391,-22.949,70.312,0
1556039055.197,-21.484,49.805,27.832,-25.391,62.988,0
1556039055.201,-29.297,53.223,36.133,-30.762,44.434,0
1556039055.205,-32.715,62.012,36.133,-31.250,22.949,0
1556039055.209,-30.273,61.523,36.621,-34.180,55.664,0
1556039055.212,-42.480,52.246,40.039,-44.922,37.109,0
1556039055.216,-55.176,47.363,40.527,-52.246,-2.930,0
1556039055.220,-53.223,48.340,38.086,-60.059,-27.832,0
1556039055.224,-59.570,52.246,35.156,-78.125,-6.836,0
1556039055.228,-78.125,48.828,39.062,-93.262,-1.465,0
1556039055.230,-83.984,47.852,37.109,-93.262,-32.227,0
1556039055.234,-83.496,51.758,40.527,-98.633,-9.766,0
1556039055.238,-86.426,49.805,50.781,-109.375,-12.695,0
1556039055.242,-94.238,44.922,48.340,-116.211,-14.160,0
1556039055.246,-96.191,41.016,41.504,-111.328,40.527,0
1556039055.250,-91.797,41.992,37.598,-107.910,41.016,0
1556039055.254,-87.402,46.875,36.621,-114.258,39.062,0
1556039055.257,-89.844,43.945,43.457,-120.117,65.918,0
1556039055.261,-87.402,37.598,50.293,-112.793,47.852,0
1556039055.265,-86.426,39.551,45.410,-100.586,47.363,0
1556039055.269,-80.078,41.504,38.574,-97.168,32.715,0
1556039055.273,-71.289,44.434,38.574,-90.820,38.574,0
1556039055.275,-62.988,49.316,32.715,-83.008,6.348,0
1556039055.279,-58.105,46.875,29.297,-73.242,15.625,0
1556039055.283,-57.617,43.945,38.574,-62.012,75.195,0
1556039055.287,-45.410,50.781,48.340,-54.199,22.949,0
1556039055.291,-42.480,50.293,35.645,-45.410,20.508,0
1556039055.295,-49.316,38.574,21.973,-42.969,70.801,0
1556039055.299,-40.039,30.273,28.320,-48.828,33.691,0
1556039055.302,-29.297,28.809,34.180,-50.293,-30.273,0
1556039055.306,-26.855,29.297,35.645,-51.758,12.695,0
1556039055.310,-28.809,30.273,37.598,-46.875,66.895,0
1556039055.314,-29.297,30.762,33.691,-41.504,62.988,0
1556039055.318,-17.090,26.855,25.391,-29.785,45.898,0
1556039055.335,-1.465,33.203,19.043,-20.996,7.324,0
1556039055.339,0.488,45.898,4.395,-25.879,-37.598,0
1556039055.343,2.441,43.945,0.488,-29.785,-16.113,0
1556039055.347,15.137,37.109,16.113,-25.879,40.039,0
1556039055.351,17.090,31.738,18.066,-15.625,-10.742,0
1556039055.355,10.254,32.227,13.184,-12.695,2.930,0
1556039055.359,8.301,36.621,20.996,-10.254,27.832,0
1556039055.362,18.066,31.738,21.484,-6.348,40.039,0
1556039055.366,36.621,27.344,9.766,4.395,67.871,0
1556039055.370,42.969,31.738,11.230,10.742,44.434,0
1556039055.374,36.621,38.574,4.395,10.742,13.672,0
1556039055.378,42.969,36.133,1.953,19.043,-20.996,0
1556039055.380,51.270,34.180,7.812,23.926,7.324,0
1556039055.384,51.758,36.133,1.465,24.414,-3.418,0
1556039055.388,51.758,34.180,4.395,29.785,8.301,0
1556039055.392,56.641,33.203,14.160,35.645,2.441,0
1556039055.396,68.848,29.297,16.602,40.527,-43.945,0
1556039055.400,64.453,29.785,23.926,41.504,52.246,0
1556039055.404,52.246,43.457,30.273,36.621,87.891,0
1556039055.407,47.363,49.316,30.762,33.691,43.945,0
1556039055.411,48.828,46.387,25.391,33.691,59.570,0
1556039055.415,51.758,43.457,12.695,30.762,11.719,0
1556039055.419,53.711,43.457,-2.930,31.738,7.324,0
1556039055.423,49.805,41.992,3.418,36.133,30.273,0
1556039055.425,46.875,38.574,14.160,41.504,13.672,0
1556039055.429,46.875,33.691,7.812,40.527,31.250,0
1556039055.433,47.363,31.738,6.348,43.457,23.438,0
1556039055.437,52.246,35.156,18.555,48.828,20.020,0
1556039055.441,50.293,35.156,28.320,40.527,-19.043,0
1556039055.445,47.363,32.715,24.902,34.180,35.645,0
1556039055.449,44.922,29.785,10.254,31.738,93.750,0
1556039055.452,40.527,34.668,6.348,37.598,23.926,0
1556039055.456,41.504,40.527,11.719,31.250,11.719,0
1556039055.460,41.504,40.527,-0.488,22.949,25.391,0
1556039055.464,46.387,38.086,-0.488,30.762,45.898,0
1556039055.468,56.641,37.109,15.625,39.551,35.645,0
1556039055.470,61.035,38.086,12.695,47.852,42.480,0
1556039055.474,56.641,30.273,13.184,43.945,62.988,0
1556039055.478,57.617,28.320,18.555,37.109,44.922,0
1556039055.482,62.012,38.086,11.719,38.086,44.922,0
1556039055.486,51.270,38.574,10.742,40.039,-2.441,0
1556039055.490,43.945,36.133,20.996,28.809,4.395,0
1556039055.494,48.828,38.574,20.020,22.461,48.828,0
1556039055.497,50.781,37.109,14.160,30.762,-7.324,0
1556039055.501,52.246,40.039,27.832,33.203,10.742,0
1556039055.505,53.223,36.621,33.691,31.250,70.801,0
1556039055.509,50.293,28.320,23.926,30.273,42.480,0
1556039055.513,41.504,31.738,10.742,25.391,71.777,0
1556039055.515,32.715,36.133,9.766,22.461,80.078,0
1556039055.519,27.832,36.621,20.508,23.926,49.805,0
1556039055.523,25.879,36.133,17.578,29.297,30.762,0
1556039055.527,26.367,29.785,15.625,30.273,-25.391,0
1556039055.531,16.602,26.855,23.438,20.020,11.230,0
1556039055.535,11.719,34.668,20.996,19.043,40.039,0
1556039055.539,18.555,38.574,10.254,20.020,43.945,0
1556039055.542,25.391,41.016,10.254,11.230,18.066,0
1556039055.546,29.785,39.551,11.719,10.742,14.160,0
1556039055.550,34.180,37.598,18.555,20.020,4.883,0
1556039055.554,41.992,37.598,27.344,24.414,31.738,0
1556039055.558,39.062,33.203,25.391,18.066,25.391,0
1556039055.560,25.879,27.832,19.043,12.207,19.043,0
1556039055.564,20.996,31.250,17.090,16.602,36.621,0
1556039055.568,24.902,34.180,20.020,20.020,22.461,0
1556039055.572,35.645,35.156,19.043,21.484,-0.488,0
1556039055.576,39.551,38.086,15.625,20.508,21.973,0
1556039055.580,28.320,41.504,9.766,17.090,33.691,0
1556039055.584,21.973,42.480,7.324,13.672,-20.020,0
1556039055.587,29.785,37.598,12.695,14.648,12.207,0
1556039055.591,36.621,35.645,20.508,22.461,26.367,0
1556039055.595,35.156,38.086,31.738,29.785,-24.902,0
1556039055.599,36.133,40.527,39.551,27.344,-23.926,0
1556039055.603,41.992,42.969,35.645,25.879,83.496,0
1556039055.605,35.156,43.457,33.203,30.762,106.445,0
1556039055.609,22.461,36.133,33.203,30.273,12.695,0
1556039055.613,10.254,29.297,31.738,20.020,43.457,0
1556039055.617,12.207,30.762,28.809,16.113,40.527,0
1556039055.621,21.484,29.785,29.297,17.578,-8.789,0
1556039055.625,15.137,25.879,31.738,18.555,33.691,0
1556039055.629,11.230,27.344,26.855,26.855,23.926,0
1556039055.632,18.066,33.203,26.367,28.320,-3.906,0
1556039055.636,22.949,37.598,27.344,25.879,2.441,0
1556039055.640,24.414,32.715,31.250,20.996,17.578,0
1556039055.644,20.996,29.297,32.227,12.695,65.918,0
1556039055.648,19.043,32.227,32.715,11.719,83.496,0
1556039055.650,13.672,35.645,34.668,5.859,32.227,0
1556039055.654,14.160,37.109,25.391,2.930,54.199,0
1556039055.658,22.949,33.691,17.578,8.301,89.844,0
1556039055.662,22.949,33.203,20.020,12.207,33.691,0
1556039055.666,26.855,38.574,29.297,19.043,6.348,0
1556039055.670,32.227,41.016,33.691,17.090,16.113,0
1556039055.674,28.809,38.086,26.367,5.859,22.461,0
1556039055.677,23.438,37.109,21.973,10.742,43.945,0
1556039055.681,28.809,37.598,20.508,19.531,74.219,0
1556039055.685,33.203,40.039,22.461,15.137,66.406,0
1556039055.689,30.762,41.992,24.902,6.836,15.625,2
1556039055.693,24.414,38.086,23.438,5.371,20.020,0
1556039055.710,20.020,33.691,22.949,6.836,41.504,0
1556039055.714,20.020,32.715,27.832,3.906,28.320,0
1556039055.718,16.602,37.109,31.738,3.906,-22.949,0
1556039055.722,9.766,41.016,29.297,14.160,-29.297,0
1556039055.726,15.137,42.969,29.297,29.297,-9.277,0
1556039055.730,22.949,43.457,21.484,32.715,4.883,0
1556039055.734,31.250,44.434,22.461,30.762,19.531,0
1556039055.737,27.344,44.922,34.180,30.762,35.645,0
1556039055.741,22.949,47.852,35.645,23.438,46.875,0
1556039055.745,18.555,47.363,36.133,10.742,22.461,0
1556039055.749,11.230,39.551,31.250,0.977,0.488,0
1556039055.753,12.207,31.738,23.926,-4.395,1.953,0
1556039055.755,8.789,29.785,25.879,-2.930,1.953,0
1556039055.759,10.742,40.527,24.902,-2.930,-30.273,0
1556039055.763,25.391,48.340,25.879,0.488,20.996,0
1556039055.767,28.320,43.945,23.438,7.812,62.500,0
1556039055.771,17.578,39.062,26.367,5.859,32.227,0
1556039055.775,12.695,40.527,28.809,-2.441,43.457,0
1556039055.779,17.090,43.457,25.879,-8.301,-16.113,0
1556039055.782,21.973,42.969,31.250,-6.836,-9.766,0
1556039055.786,23.438,44.922,31.738,1.465,16.602,0
1556039055.790,23.926,43.945,25.879,0.000,-38.574,0
1556039055.794,30.762,36.621,22.461,5.371,-34.180,0
1556039055.798,37.598,37.109,20.996,13.672,20.020,0
1556039055.800,37.109,42.480,15.137,7.812,27.832,0
1556039055.804,30.762,35.645,11.719,8.789,48.828,0
1556039055.808,28.809,33.691,15.625,11.719,78.613,0
1556039055.812,33.691,44.434,20.508,17.090,76.660,0
1556039055.816,35.156,45.410,24.414,22.461,61.035,0
1556039055.820,26.855,40.039,28.320,21.484,39.062,0
1556039055.824,21.484,37.109,31.738,17.578,48.340,0
1556039055.827,29.785,35.645,34.180,17.578,87.402,0
1556039055.831,34.668,29.785,30.762,13.672,79.102,0
1556039055.835,34.180,28.809,26.367,15.137,32.227,0
1556039055.839,35.156,30.273,20.996,24.902,9.766,0
1556039055.843,30.273,29.785,20.996,24.414,2.441,0
1556039055.845,30.762,32.715,24.414,19.043,-34.180,0
1556039055.849,34.180,37.109,21.973,17.090,-15.137,0
1556039055.853,32.715,41.992,21.484,14.648,13.672,0
1556039055.857,37.598,45.898,25.391,13.184,-7.812,0
1556039055.861,39.551,49.805,29.785,12.695,10.254,0
1556039055.865,30.273,42.480,29.297,3.418,40.039,0
1556039055.869,16.602,33.691,21.484,-4.395,15.625,0
1556039055.872,14.648,32.227,21.484,-4.395,10.254,0
1556039055.876,20.020,33.691,27.344,-2.930,51.758,0
1556039055.880,24.902,34.180,28.320,-1.465,44.434,0
1556039055.884,16.113,30.762,25.879,-3.906,47.852,0
1556039055.888,2.930,29.297,24.414,-5.859,12.207,0
1556039055.890,11.230,32.715,22.949,-2.441,-4.395,0
1556039055.894,20.020,35.156,24.414,5.859,43.945,0
1556039055.898,16.113,39.062,22.461,7.324,4.883,0
1556039055.902,19.531,41.016,23.926,9.766,8.301,0
1556039055.906,28.809,38.574,25.879,15.137,63.477,0
1556039055.910,29.297,36.621,23.926,20.020,46.875,0
1556039055.914,25.391,38.086,20.996,14.160,19.531,0
1556039055.917,29.785,38.574,23.438,8.301,18.555,0
1556039055.921,38.086,43.945,24.902,14.648,24.414,0
1556039055.925,38.086,47.363,19.043,10.254,48.340,0
1556039055.929,25.391,41.992,25.879,-0.977,36.133,0
1556039055.933,18.066,40.039,31.250,6.836,-39.062,0
1556039055.935,13.672,41.016,22.461,16.113,-4.395,0
1556039055.939,12.207,42.969,11.719,11.719,29.297,0
1556039055.943,19.531,48.828,18.555,12.695,8.301,0
1556039055.947,18.066,49.316,31.738,12.207,-6.348,0
1556039055.951,16.113,46.387,33.203,14.160,2.441,0
1556039055.955,20.020,41.016,35.156,12.695,10.254,0
1556039055.959,24.414,35.645,39.551,8.789,13.184,0
1556039055.962,28.809,31.738,42.969,16.602,18.555,0
1556039055.966,36.133,36.133,36.133,26.367,19.531,0
1556039055.970,33.203,41.504,21.973,21.973,27.832,0
1556039055.974,33.691,35.156,18.066,9.766,8.789,0
1556039055.978,43.457,37.598,16.602,10.254,34.180,0
1556039055.980,39.551,43.945,9.766,11.719,12.695,0
1556039055.984,33.691,46.875,4.883,3.418,0.000,0
1556039055.988,20.508,41.992,9.277,-0.488,-10.742,0
1556039055.992,5.371,38.086,20.508,-2.930,17.090,0
1556039055.996,3.418,40.039,23.438,-10.742,56.152,0
1556039056.000,3.418,41.992,17.578,-10.742,31.738,0
1556039056.004,8.789,41.016,8.789,-4.395,34.180,0
1556039056.007,20.020,42.480,11.230,5.859,20.020,0
1556039056.011,19.043,42.969,22.461,19.043,35.645,0
1556039056.015,7.324,38.574,16.113,13.672,23.438,0
1556039056.019,8.301,35.156,8.301,3.906,-42.480,0
1556039056.023,19.043,30.762,16.602,7.812,42.969,0
1556039056.025,13.184,28.320,24.902,7.812,79.590,0
1556039056.029,10.254,32.227,25.879,5.859,45.898,0
1556039056.033,16.602,37.109,22.461,11.230,72.266,0
1556039056.037,21.973,36.133,20.020,23.926,-15.137,0
1556039056.041,21.484,34.180,23.438,16.602,-30.762,0
1556039056.045,17.090,38.086,30.273,10.742,48.340,0
1556039056.049,19.531,43.945,31.250,13.184,12.695,0
1556039056.052,19.531,43.457,30.762,12.695,-18.066,0
1556039056.056,20.508,42.480,32.715,29.297,27.344,0
1556039056.060,18.555,45.410,28.320,37.598,2.441,0
1556039056.064,20.996,42.969,18.555,26.855,-23.438,0
1556039056.068,28.809,36.621,10.254,20.508,-23.438,0
1556039056.085,28.320,32.715,17.090,30.762,-8.789,0
1556039056.089,25.879,37.109,29.297,28.320,-4.395,0
1556039056.093,22.461,45.898,24.414,20.996,36.621,0
1556039056.097,28.809,50.293,21.484,26.855,62.012,0
1556039056.101,40.039,46.387,26.367,28.320,32.715,0
1556039056.105,34.180,41.016,27.344,26.855,52.734,0
1556039056.109,30.273,43.457,27.344,29.785,37.598,0
1556039056.112,33.691,46.387,28.320,34.668,16.602,0
1556039056.116,38.086,46.875,25.391,31.738,-3.906,0
1556039056.120,32.715,48.828,20.020,28.320,14.160,0
1556039056.124,21.973,49.805,22.461,41.504,62.012,0
1556039056.128,15.137,45.898,16.602,43.457,62.500,0
1556039056.130,13.184,41.504,14.160,26.855,41.992,0
1556039056.134,20.996,35.645,16.602,19.531,-17.578,0
1556039056.138,17.578,27.344,16.113,14.160,0.488,0
1556039056.142,10.254,31.738,21.973,16.113,54.688,0
1556039056.146,11.230,39.551,22.461,21.484,96.680,0
1556039056.150,17.578,38.086,16.113,21.484,61.523,0
1556039056.154,22.949,39.062,17.090,22.461,4.883,0
1556039056.157,15.625,44.434,23.438,18.066,22.949,0
1556039056.161,18.066,47.363,23.438,17.090,60.059,0
1556039056.165,26.367,48.340,19.043,19.531,7.324,0
1556039056.169,24.902,48.340,18.555,19.043,-27.344,0
1556039056.173,29.785,47.852,18.066,22.461,32.715,0
1556039056.175,31.738,46.387,14.160,25.879,66.406,0
1556039056.179,27.344,43.945,6.348,26.367,21.484,0
1556039056.183,24.414,39.551,10.254,23.438,-11.719,0
1556039056.187,21.484,41.504,16.602,31.250,10.742,0
1556039056.191,26.367,44.434,18.066,37.598,36.621,0
1556039056.195,36.133,45.410,24.414,34.668,25.879,0
1556039056.199,36.621,44.434,30.273,37.598,-2.441,0
1556039056.202,33.691,43.945,28.320,47.363,43.945,0
1556039056.206,44.922,51.758,22.949,55.176,69.824,0
1556039056.210,52.734,56.152,25.879,52.246,51.270,0
1556039056.214,48.340,53.711,23.926,47.363,36.621,0
1556039056.218,41.504,48.828,18.066,42.480,1.465,0
1556039056.220,25.879,43.945,18.066,37.598,-11.719,0
1556039056.224,29.297,42.480,17.578,36.621,24.902,0
1556039056.228,36.621,38.574,16.602,36.133,34.180,0
1556039056.232,32.715,36.133,20.020,35.156,-3.418,0
1556039056.236,27.344,39.551,21.973,32.715,-28.320,0
1556039056.240,22.949,39.551,22.949,31.250,-19.531,0
1556039056.244,21.973,36.133,16.113,31.250,-7.812,0
1556039056.247,19.531,31.250,12.695,29.785,40.527,0
1556039056.251,13.672,32.715,23.438,26.367,44.434,0
1556039056.255,12.207,40.527,32.715,26.855,15.137,0
1556039056.259,12.695,41.016,30.273,23.438,-22.949,0
1556039056.263,9.766,40.039,20.508,20.020,-8.301,0
1556039056.265,9.766,43.945,15.137,24.902,40.527,0
1556039056.269,14.160,43.945,15.625,25.879,-1.953,0
1556039056.273,18.555,36.621,20.508,21.484,-22.461,0
1556039056.277,19.531,35.156,29.297,12.207,-28.809,0
1556039056.281,17.578,34.668,35.156,21.484,-18.066,0
1556039056.285,13.672,31.738,35.645,33.203,0.977,0
1556039056.289,18.555,36.133,33.691,29.297,9.277,0
1556039056.292,27.344,38.086,23.926,31.738,34.180,0
1556039056.296,27.344,40.039,20.996,37.109,-4.395,0
1556039056.300,23.926,43.945,28.809,41.016,-14.648,0
1556039056.304,27.832,42.969,27.832,38.086,20.508,0
1556039056.308,28.809,43.457,17.578,30.762,36.133,0
1556039056.310,15.625,42.480,18.555,25.879,31.250,0
1556039056.314,10.742,41.992,17.578,32.227,-5.859,0
1556039056.318,11.719,41.016,22.949,36.133,-39.062,0
1556039056.322,15.137,39.551,37.109,31.738,-5.371,0
1556039056.326,14.648,38.574,42.480,31.250,-0.977,0
1556039056.330,10.742,41.016,37.109,23.926,9.766,0
1556039056.334,9.277,42.480,32.715,21.973,15.137,0
1556039056.337,4.395,39.551,36.133,16.602,43.945,0
1556039056.341,7.812,49.805,30.762,4.395,64.941,0
1556039056.345,3.418,56.152,29.785,0.488,66.406,0
1556039056.349,-6.348,54.688,30.273,-8.789,56.641,0
1556039056.353,-3.906,55.176,28.320,-13.672,84.961,0
1556039056.355,-2.441,58.594,28.809,-12.695,97.656,0
1556039056.359,-8.301,57.129,27.832,-16.113,46.875,0
1556039056.363,-30.762,46.387,29.297,-21.973,24.414,0
1556039056.367,-36.621,42.969,35.645,-20.508,16.113,0
1556039056.371,-35.645,50.781,36.621,-33.203,62.500,0
1556039056.375,-49.316,54.199,34.668,-52.734,73.730,0
1556039056.379,-54.688,51.270,40.039,-49.805,29.297,0
1556039056.382,-62.012,45.410,36.133,-52.246,40.527,0
1556039056.386,-61.035,45.898,33.203,-53.223,55.664,0
1556039056.390,-59.570,54.199,36.133,-55.176,62.988,0
1556039056.394,-77.148,55.664,43.457,-66.895,39.551,0
1556039056.398,-93.750,49.316,41.504,-72.754,-25.391,0
1556039056.400,-96.191,47.363,31.250,-79.102,-10.742,0
1556039056.404,-91.309,47.852,36.621,-82.520,48.340,0
1556039056.408,-73.730,52.246,44.922,-72.266,83.008,0
1556039056.412,-75.195,58.105,45.410,-79.102,47.852,0
1556039056.416,-83.496,46.875,47.363,-83.496,4.395,0
1556039056.420,-67.871,43.457,48.340,-66.406,27.832,0
1556039056.424,-61.035,47.852,41.992,-59.082,59.082,0
1556039056.427,-64.941,49.805,38.086,-60.547,27.344,0
1556039056.431,-64.941,48.340,36.621,-48.828,-3.418,0
1556039056.435,-50.293,44.922,38.574,-39.062,12.695,0
1556039056.439,-43.457,49.316,41.992,-40.527,16.113,0
1556039056.443,-44.922,51.758,47.852,-37.109,39.551,0
1556039056.460,-34.180,51.758,45.898,-37.109,118.164,0
1556039056.464,-29.785,48.828,37.598,-37.598,92.773,0
1556039056.468,-27.344,42.969,32.715,-30.273,42.480,0
1556039056.472,-18.066,40.527,28.809,-14.648,36.133,0
1556039056.476,-9.277,37.109,31.738,-7.324,39.062,0
1556039056.480,0.000,30.762,28.809,0.000,47.363,0
1556039056.484,15.137,30.762,23.926,14.648,0.488,0
1556039056.487,25.391,35.645,22.461,19.531,5.371,0
1556039056.491,19.531,33.691,29.297,18.066,22.949,0
1556039056.495,16.602,35.645,40.039,20.508,28.809,0
1556039056.499,24.902,41.504,35.156,26.855,38.574,0
1556039056.503,31.738,37.109,17.090,27.344,41.016,0
1556039056.505,33.203,32.715,14.160,32.715,71.777,0
1556039056.509,28.320,30.273,23.438,44.922,60.547,0
1556039056.513,36.133,27.344,13.672,60.059,38.574,0
1556039056.517,43.457,27.344,7.324,70.312,48.340,0
1556039056.521,41.504,23.926,27.832,61.035,-8.789,0
1556039056.525,38.574,22.949,37.598,54.199,-28.809,0
1556039056.529,37.598,31.738,30.762,58.594,31.250,0
1556039056.532,46.387,41.504,28.809,60.059,-20.508,0
1556039056.536,48.828,41.504,27.832,54.688,-65.430,0
1556039056.540,39.062,36.621,18.555,48.340,-41.504,0
1556039056.544,35.645,35.156,7.812,52.246,-37.598,0
1556039056.548,34.180,33.203,8.789,48.340,5.371,0
1556039056.550,33.203,29.785,17.090,37.598,23.926,0
1556039056.554,30.762,34.668,22.461,40.527,58.105,0
1556039056.558,32.715,41.016,20.996,40.527,58.105,0
1556039056.562,43.457,36.133,8.789,36.133,31.738,0
1556039056.566,48.340,33.203,6.348,39.551,-13.184,0
1556039056.570,41.992,45.898,13.672,47.363,-7.812,0
1556039056.574,32.227,46.875,19.043,48.340,44.922,0
1556039056.577,39.062,38.574,22.949,48.828,36.133,0
1556039056.581,49.316,35.645,26.367,43.945,43.945,0
1556039056.585,46.387,37.598,26.855,43.457,67.871,0
1556039056.589,41.992,38.574,21.973,49.805,10.742,0
1556039056.593,53.711,35.156,20.508,54.688,1.953,0
1556039056.595,65.430,33.203,20.020,59.082,47.363,0
1556039056.599,64.941,35.645,17.090,58.594,3.418,0
1556039056.603,60.547,39.062,19.531,56.641,-3.906,0
1556039056.607,43.945,33.203,15.625,59.570,24.902,0
1556039056.611,42.480,26.367,6.348,63.477,33.691,0
1556039056.615,50.293,31.250,11.719,62.988,22.949,0
1556039056.619,45.410,38.086,22.949,57.617,-5.371,0
1556039056.622,48.340,37.598,26.367,55.664,0.000,0
1556039056.626,53.223,37.598,23.438,55.664,20.996,0
1556039056.630,47.363,35.645,17.090,53.711,39.062,0
1556039056.634,38.574,30.762,9.277,54.688,69.824,0
1556039056.638,40.527,28.809,6.348,59.082,60.547,0
1556039056.640,41.016,28.809,8.789,60.547,33.203,0
1556039056.644,46.387,29.785,21.973,57.129,33.691,0
1556039056.648,54.688,31.738,32.227,55.176,16.113,0
1556039056.652,51.270,36.621,24.414,50.293,11.719,0
1556039056.656,53.711,39.551,16.602,48.340,30.273,0
1556039056.660,60.547,41.504,18.066,50.293,16.113,0
1556039056.664,56.641,39.062,15.625,49.316,24.414,0
1556039056.667,54.199,35.156,10.742,45.410,7.324,0
1556039056.671,53.711,37.109,11.230,48.828,-21.484,0
1556039056.675,45.898,35.645,6.348,56.152,15.625,0
1556039056.679,42.480,32.715,0.488,54.688,28.809,0
1556039056.683,41.504,30.273,12.207,53.711,3.906,0
1556039056.685,46.387,33.691,24.902,51.758,30.762,0
1556039056.689,61.523,36.133,24.902,59.082,31.250,0
1556039056.693,67.383,33.691,23.926,64.941,-26.855,0
1556039056.697,62.500,35.645,25.391,66.895,10.254,0
1556039056.701,49.316,37.109,22.461,68.848,59.082,0
1556039056.705,44.922,34.180,17.578,63.965,48.828,0
1556039056.709,46.875,35.156,20.508,58.105,15.137,0
1556039056.712,44.922,36.621,21.973,49.316,10.742,0
1556039056.716,45.898,33.691,12.207,49.316,28.809,0
1556039056.720,49.316,35.156,4.395,58.594,47.363,2
1556039056.724,52.734,39.551,11.230,54.688,41.504,0
1556039056.728,53.223,40.039,28.809,47.852,52.734,0
1556039056.730,44.434,39.551,29.297,47.852,52.734,0
1556039056.734,40.039,35.156,27.832,46.387,77.148,0
1556039056.738,38.086,30.273,35.156,45.410,74.707,0
1556039056.742,31.250,29.785,33.691,54.199,59.570,0
1556039056.746,27.832,36.133,26.367,45.898,53.711,0
1556039056.750,34.180,39.062,17.090,37.109,45.410,0
1556039056.754,38.086,34.668,6.836,40.039,34.180,0
1556039056.757,38.086,34.180,0.488,33.691,-13.672,0
1556039056.761,34.180,35.156,13.184,26.367,35.156,0
1556039056.765,28.809,33.203,33.203,25.879,96.191,0
1556039056.769,32.715,31.738,39.062,26.855,48.828,0
1556039056.773,34.668,34.180,35.156,28.809,1.953,0
1556039056.775,26.367,38.086,26.367,30.273,3.418,0
1556039056.779,22.949,40.039,16.602,33.691,-33.691,0
1556039056.783,22.949,39.551,10.254,35.645,-40.527,0
1556039056.787,21.973,38.574,9.277,31.250,-17.578,0
1556039056.791,20.020,38.574,14.648,36.133,13.184,0
1556039056.795,21.484,39.551,12.207,42.969,19.531,0
1556039056.799,26.855,38.574,5.859,44.922,34.180,0
1556039056.802,32.227,35.156,19.531,38.574,53.711,0
1556039056.806,34.180,34.180,34.180,36.133,16.602,0
1556039056.810,21.484,33.691,35.645,36.133,29.785,0
1556039056.814,18.555,33.691,25.391,35.156,60.547,0
1556039056.818,27.344,43.945,10.254,45.410,6.348,0
1556039056.835,32.715,47.852,12.695,40.039,-17.090,0
1556039056.839,26.367,41.992,22.949,30.273,-1.465,0
1556039056.843,17.578,36.133,23.926,30.762,6.348,0
1556039056.847,22.461,28.809,25.391,24.414,1.465,0
1556039056.851,29.297,27.832,32.227,20.020,23.438,0
1556039056.855,21.484,36.621,30.762,20.996,17.578,0
1556039056.859,8.789,44.434,29.297,18.555,24.902,0
1556039056.862,7.812,47.363,25.391,18.066,32.715,0
1556039056.866,19.043,46.387,19.531,15.137,43.457,0
1556039056.870,20.508,43.945,20.996,12.207,28.809,0
1556039056.874,14.160,45.898,22.461,14.648,18.555,0
1556039056.878,29.785,51.270,20.508,23.926,26.855,0
1556039056.881,41.016,51.270,13.184,29.785,-30.273,0
1556039056.885,34.668,41.992,12.207,27.344,-32.227,0
1556039056.889,29.785,31.738,22.949,28.809,-24.414,0
1556039056.893,31.738,33.203,34.180,33.691,21.973,0
1556039056.897,40.039,40.039,35.156,33.203,59.082,0
1556039056.901,45.898,45.898,35.645,30.762,67.383,0
1556039056.905,39.551,47.852,36.621,30.762,62.988,0
1556039056.908,32.227,47.363,33.203,30.273,46.875,0
1556039056.912,35.645,43.457,29.297,40.039,44.922,0
1556039056.916,40.527,35.645,26.367,44.922,55.176,0
1556039056.920,33.691,36.133,27.344,39.062,66.406,0
1556039056.924,25.879,41.016,28.809,32.715,42.480,0
1556039056.925,27.344,39.551,22.461,25.879,8.789,0
1556039056.929,29.785,35.645,20.020,28.320,-5.371,0
1556039056.933,28.320,35.645,20.020,27.344,36.621,0
1556039056.937,26.367,34.180,18.066,30.762,62.988,0
1556039056.941,32.227,34.180,13.184,41.992,55.664,0
1556039056.945,47.852,37.598,21.484,48.828,15.137,0
1556039056.949,49.805,36.621,31.738,52.246,9.766,0
1556039056.952,40.039,33.691,29.297,52.246,31.738,0
1556039056.956,30.273,33.203,31.250,37.598,44.922,0
1556039056.960,35.156,34.668,30.273,35.156,50.293,0
1556039056.964,43.457,42.480,13.672,40.527,13.184,0
1556039056.968,46.387,48.340,9.277,37.598,-6.836,0
1556039056.970,46.387,46.387,27.344,39.062,14.648,0
1556039056.974,57.129,50.781,35.156,44.922,34.180,0
1556039056.978,60.547,49.805,29.785,39.062,-3.906,0
1556039056.982,42.969,47.363,19.043,34.668,1.465,0
1556039056.986,27.344,47.363,10.254,34.180,25.391,0
1556039056.990,25.391,44.434,18.555,27.344,-2.441,0
1556039056.994,36.133,43.945,29.297,28.320,1.953,0
1556039056.997,40.527,43.457,22.949,33.691,18.555,0
1556039057.001,36.621,42.480,20.020,37.109,-19.043,0
1556039057.005,31.738,41.992,25.391,37.598,31.250,0
1556039057.009,31.738,44.434,26.855,38.574,54.688,0
1556039057.013,30.273,43.457,35.156,36.621,14.648,0
1556039057.015,20.020,40.527,31.738,40.527,41.504,0
1556039057.019,15.625,38.574,26.367,41.504,10.742,0
1556039057.023,20.508,35.156,32.715,31.250,-22.949,0
1556039057.027,21.973,32.715,26.367,29.785,-40.527,0
1556039057.031,18.066,32.715,22.461,28.809,-7.812,0
1556039057.035,17.090,35.645,24.902,30.273,42.480,0
1556039057.039,20.996,37.109,24.414,31.250,17.578,0
1556039057.042,30.273,39.062,21.484,29.297,61.523,0
1556039057.046,26.855,40.527,26.367,33.203,110.352,0
1556039057.050,15.625,38.574,36.133,36.621,89.844,0
1556039057.054,15.137,36.621,36.133,32.715,107.910,0
1556039057.058,17.578,36.133,28.320,26.367,50.293,0
1556039057.060,20.996,39.062,27.832,22.461,13.672,0
1556039057.064,21.484,42.480,31.250,24.902,3.418,0
1556039057.068,37.109,46.875,25.391,42.969,-3.418,0
1556039057.072,47.852,45.898,31.250,41.504,53.711,0
1556039057.076,37.598,37.109,37.598,30.762,33.203,0
1556039057.080,23.438,36.133,32.227,37.109,-5.859,0
1556039057.084,17.090,40.527,33.691,36.133,6.836,0
1556039057.087,23.438,38.086,38.086,29.785,-13.184,0
1556039057.091,32.715,35.156,35.645,29.785,0.977,0
1556039057.095,31.250,36.621,28.809,31.738,-0.977,0
1556039057.099,18.066,32.227,27.344,31.738,49.805,0
1556039057.103,15.625,26.367,34.668,33.203,58.105,0
1556039057.105,19.043,30.273,36.621,36.133,22.461,0
1556039057.109,17.090,32.227,27.832,37.109,63.965,0
1556039057.113,20.508,37.109,28.320,42.480,43.945,0
1556039057.117,19.531,40.527,40.527,43.945,-4.395,0
1556039057.121,17.578,32.227,49.316,41.504,-39.062,0
1556039057.125,16.602,24.902,44.922,37.598,-12.207,0
1556039057.129,9.766,25.879,41.992,26.367,15.625,0
1556039057.132,9.277,29.297,35.156,26.367,-49.316,0
1556039057.136,15.625,30.762,27.344,37.598,-1.953,0
1556039057.140,20.020,27.344,30.762,34.180,91.797,0
1556039057.144,20.020,25.879,31.250,32.715,50.293,0
1556039057.148,19.531,28.809,25.879,26.855,38.574,0
1556039057.150,27.344,28.809,24.902,22.949,48.340,0
1556039057.154,31.250,30.273,27.832,32.227,12.207,0
1556039057.158,22.949,32.715,33.691,36.133,15.625,0
1556039057.162,17.578,36.133,41.504,38.086,70.312,0
1556039057.166,28.320,33.691,43.945,45.898,74.219,0
1556039057.170,30.273,33.203,32.227,32.227,71.777,0
1556039057.174,22.949,37.598,26.855,13.184,48.828,0
1556039057.177,23.438,40.527,26.855,13.184,-12.695,0
1556039057.181,22.461,46.387,16.602,7.324,-5.371,0
1556039057.185,31.738,42.480,14.160,2.930,-20.508,0
1556039057.189,36.621,38.574,24.414,4.395,-19.531,0
1556039057.193,34.180,40.039,30.273,11.230,-32.715,0
1556039057.210,29.297,41.504,29.785,20.996,-2.441,0
1556039057.214,32.715,37.598,28.320,25.391,49.805,0
1556039057.218,36.133,34.180,26.855,20.508,41.992,0
1556039057.222,31.250,38.086,21.484,21.973,26.367,0
1556039057.226,28.320,38.574,24.902,30.762,85.449,0
1556039057.230,28.320,30.273,38.086,28.809,64.941,0
1556039057.234,33.691,27.832,37.109,25.391,-22.461,0
1556039057.237,27.832,27.344,29.785,25.391,-0.977,0
1556039057.241,16.113,27.344,28.809,32.715,-1.953,0
1556039057.245,17.090,33.691,26.855,30.762,-27.344,0
1556039057.249,25.391,37.598,27.344,22.461,-41.016,0
1556039057.253,29.297,38.086,28.320,17.090,-29.785,0
1556039057.255,19.531,32.715,29.297,15.137,-7.324,0
1556039057.259,9.277,33.203,25.879,8.789,24.902,0
1556039057.263,1.465,36.133,17.578,2.930,-8.789,0
1556039057.267,-0.488,34.180,15.137,6.836,16.113,0
1556039057.271,0.488,33.691,18.066,8.789,63.965,0
1556039057.275,-1.465,36.621,25.391,9.766,15.137,0
1556039057.279,-1.465,38.086,24.414,8.301,7.324,0
1556039057.282,1.465,28.809,17.578,11.719,-24.902,0
1556039057.286,3.906,25.879,20.508,9.277,-7.324,0
1556039057.290,0.977,35.156,27.832,3.418,81.543,0
1556039057.294,0.000,36.621,33.691,4.395,71.777,0
1556039057.298,7.324,37.598,34.180,8.301,-3.418,0
1556039057.300,7.812,39.551,29.785,13.672,-19.043,0
1556039057.304,4.883,39.551,25.879,10.742,24.414,0
1556039057.308,2.930,38.574,21.484,16.113,95.215,0
1556039057.312,11.230,33.691,20.020,18.555,45.410,0
1556039057.316,15.625,32.715,15.137,16.602,-20.996,0
1556039057.320,11.719,33.203,16.602,21.484,-14.648,0
1556039057.324,17.578,37.598,22.949,26.367,-30.273,0
1556039057.327,26.855,44.434,22.461,26.855,7.812,0
1556039057.331,22.949,42.480,19.043,16.602,51.758,0
1556039057.335,9.277,39.551,20.020,3.906,31.250,0
1556039057.339,0.977,36.621,27.832,6.348,12.695,0
1556039057.343,13.672,32.715,28.320,7.324,13.672,0
1556039057.345,19.043,36.133,20.020,7.324,11.719,0
1556039057.349,8.789,39.062,20.508,3.906,-31.250,0
1556039057.353,-2.441,37.109,33.203,0.977,-5.371,0
1556039057.357,-11.230,39.551,34.180,2.930,59.082,0
1556039057.361,-6.836,40.039,32.715,-2.441,38.086,0
1556039057.365,-1.953,39.062,28.320,-9.277,40.039,0
1556039057.369,-5.371,41.016,20.508,-11.230,67.871,0
1556039057.372,-5.859,43.945,27.344,-13.184,42.480,0
1556039057.376,-8.789,46.387,37.598,-20.020,29.785,0
1556039057.380,-15.137,46.875,38.086,-21.484,27.832,0
1556039057.384,-10.742,49.805,33.691,-17.578,55.664,0
1556039057.388,-22.461,52.246,32.715,-20.020,24.902,0
1556039057.390,-30.762,49.805,38.574,-20.996,42.969,0
1556039057.394,-20.996,48.340,41.504,-22.461,52.734,0
1556039057.398,-20.020,56.641,29.785,-35.156,37.598,0
1556039057.402,-23.926,60.059,22.461,-43.457,76.172,0
1556039057.406,-23.926,60.059,28.809,-41.992,40.527,0
1556039057.410,-18.555,54.688,46.387,-39.062,15.625,0
1556039057.414,-36.133,45.898,44.922,-53.711,41.992,0
1556039057.417,-56.641,50.781,34.180,-57.617,22.949,0
1556039057.421,-55.176,47.852,28.320,-55.176,-16.602,0
1556039057.425,-55.176,46.875,25.391,-62.012,22.949,0
1556039057.429,-63.965,49.805,41.504,-58.105,68.359,0
1556039057.433,-75.195,41.016,56.152,-52.734,79.102,0
1556039057.435,-80.078,37.109,59.570,-53.223,70.801,0
1556039057.439,-78.125,40.527,52.734,-57.617,59.082,0
1556039057.443,-79.590,46.387,32.227,-70.312,23.438,0
1556039057.447,-76.172,55.176,25.391,-81.055,16.113,0
1556039057.451,-74.707,52.246,33.691,-86.914,63.965,0
1556039057.455,-71.777,50.781,46.875,-90.820,5.371,0
1556039057.459,-64.941,55.664,44.922,-89.355,-31.738,0
1556039057.462,-69.336,51.270,28.809,-84.473,-3.418,0
1556039057.466,-65.918,51.270,25.391,-79.590,-48.340,0
1556039057.470,-53.711,55.176,37.109,-75.684,-36.133,0
1556039057.474,-46.875,48.828,42.480,-76.172,61.035,0
1556039057.478,-49.316,45.898,33.691,-85.938,33.203,0
1556039057.480,-44.922,49.805,29.785,-78.613,-2.930,0
1556039057.484,-36.133,48.828,34.668,-62.988,52.734,0
1556039057.488,-29.297,42.480,32.227,-57.129,51.270,0
1556039057.492,-21.484,45.898,22.461,-52.246,32.227,0
1556039057.496,-11.719,58.594,23.926,-32.227,25.391,0
1556039057.500,-9.766,55.664,26.367,-11.230,-11.719,0
1556039057.504,-10.254,42.969,19.043,-6.836,-10.254,0
1556039057.507,5.371,40.527,15.625,4.395,10.254,0
1556039057.511,14.648,39.551,21.973,22.461,16.113,0
1556039057.515,22.949,32.227,26.367,33.203,28.320,0
1556039057.519,46.875,31.250,29.297,42.480,15.137,0
1556039057.523,55.664,38.086,29.297,47.852,-20.996,0
1556039057.525,45.410,39.062,20.508,52.734,20.996,0
1556039057.529,36.133,26.855,16.602,54.199,77.637,0
1556039057.533,37.598,21.484,24.414,51.758,44.434,0
1556039057.537,57.617,30.762,22.461,50.781,3.906,0
1556039057.541,69.336,39.062,12.695,51.758,-10.254,0
1556039057.545,61.035,41.016,20.508,49.316,-4.883,0
1556039057.549,56.152,42.480,24.414,49.805,0.000,0
1556039057.552,59.570,39.551,18.066,54.688,20.508,0
1556039057.556,66.406,39.551,14.648,55.176,39.551,0
1556039057.560,65.918,44.434,17.578,56.152,19.531,0
1556039057.564,61.035,41.016,18.555,63.477,44.434,0
1556039057.568,69.336,39.551,11.230,70.801,52.734,0
1556039057.585,79.102,41.016,3.418,69.824,61.523,0
1556039057.589,79.590,42.969,8.789,56.641,36.133,0
1556039057.593,70.801,41.992,20.508,44.434,36.133,0
1556039057.597,58.594,41.504,22.461,44.434,36.133,0
1556039057.601,62.500,41.504,20.508,51.758,36.621,0
1556039057.605,59.570,37.109,13.184,61.523,19.043,0
1556039057.609,59.082,36.133,-0.488,61.523,-39.062,0
1556039057.612,62.988,41.504,5.371,58.594,-25.391,0
1556039057.616,59.082,39.551,15.137,59.570,10.254,0
1556039057.620,57.129,36.133,8.301,56.641,-15.137,0
1556039057.624,59.082,42.480,8.789,54.199,-6.836,0
1556039057.628,59.082,48.828,12.695,60.059,18.066,0
1556039057.630,55.176,45.898,10.742,66.895,-24.414,0
1556039057.634,53.711,39.062,13.672,57.617,-36.621,0
1556039057.638,54.199,40.039,15.625,54.199,-31.250,0
1556039057.642,59.570,40.527,24.902,61.523,-15.137,0
1556039057.646,67.383,36.133,28.320,66.895,19.043,0
1556039057.650,73.242,38.086,16.113,55.664,20.996,0
1556039057.654,68.848,40.527,6.836,48.340,-52.734,0
1556039057.657,59.082,40.039,5.859,52.734,-34.180,0
1556039057.661,59.570,38.574,12.695,54.199,75.684,0
1556039057.665,70.312,46.875,26.855,58.105,87.891,0
1556039057.669,62.012,50.781,34.668,62.012,67.383,0
1556039057.673,41.992,40.527,33.203,58.105,51.758,0
1556039057.675,39.062,37.598,26.855,51.270,48.340,0
1556039057.679,49.316,38.086,22.949,49.316,73.730,0
1556039057.683,50.293,36.621,20.508,45.410,73.242,0
1556039057.687,44.434,38.086,7.812,44.434,76.660,0
1556039057.691,49.316,39.062,5.859,45.898,39.062,0
1556039057.695,48.340,34.180,18.555,41.992,51.758,0
1556039057.699,41.992,31.250,16.602,35.645,42.969,0
1556039057.702,38.574,33.691,14.648,37.109,-38.086,0
1556039057.706,39.062,42.969,24.902,41.016,5.859,0
1556039057.710,39.551,44.922,23.926,42.480,65.918,0
1556039057.714,31.738,32.227,19.531,40.039,27.344,0
1556039057.718,28.809,28.809,24.414,34.668,2.441,0
1556039057.720,23.926,31.250,25.879,38.086,45.410,0
1556039057.724,32.715,37.598,9.766,44.434,56.641,0
1556039057.728,48.340,46.387,0.000,44.434,26.367,0
1556039057.732,48.828,45.898,16.602,46.875,45.898,0
1556039057.736,40.527,41.016,24.902,50.293,28.320,0
1556039057.740,37.109,29.785,25.879,42.969,-30.762,0
1556039057.744,40.527,29.785,24.414,38.574,-18.066,0
1556039057.747,38.086,42.480,17.578,41.016,7.812,0
1556039057.751,39.551,46.875,24.902,30.762,-9.766,0
1556039057.755,40.527,41.016,31.250,22.949,20.020,0
1556039057.759,39.062,41.992,26.367,24.902,32.227,0
1556039057.763,44.922,41.992,21.484,26.855,28.320,0
1556039057.765,46.387,42.969,14.160,34.668,31.250,0
1556039057.769,39.551,46.875,12.207,37.109,24.902,0
1556039057.773,35.645,44.434,24.414,36.133,37.598,0
1556039057.777,30.273,37.598,22.461,37.109,21.973,0
1556039057.781,21.973,29.785,18.555,38.574,8.789,0
1556039057.785,12.207,25.391,24.414,41.992,32.715,0
1556039057.789,15.625,28.320,30.273,44.434,30.762,0
1556039057.792,20.508,31.738,38.086,31.738,-15.625,0
1556039057.796,24.902,36.133,34.180,24.902,-27.344,0
1556039057.800,31.250,41.504,26.855,36.133,39.062,0
1556039057.804,30.762,46.387,24.414,39.062,25.391,0
1556039057.808,35.645,45.898,26.367,36.621,8.789,0
1556039057.810,40.527,39.551,24.902,34.668,-28.809,0
1556039057.814,37.109,38.574,21.973,35.156,-17.578,0
1556039057.818,24.414,38.086,25.391,33.203,70.801,0
1556039057.822,20.996,33.691,26.367,29.785,62.988,0
1556039057.826,24.902,33.691,25.879,16.113,64.941,0
1556039057.830,18.066,41.016,15.625,3.906,66.895,0
1556039057.834,23.926,45.898,9.766,5.859,20.020,0
1556039057.837,41.016,48.340,10.254,16.113,-17.090,1
1556039057.841,40.527,49.805,12.207,22.949,-12.207,0
1556039057.845,33.691,52.246,18.066,24.902,1.465,0
1556039057.849,27.344,50.781,16.602,28.809,-9.766,0
1556039057.853,26.855,46.387,12.695,28.320,16.602,0
1556039057.855,29.785,43.457,17.578,21.484,17.090,0
1556039057.859,25.391,36.621,29.297,20.020,-2.930,0
1556039057.863,24.902,35.645,33.203,24.414,-8.301,0
1556039057.867,24.902,36.621,29.297,26.367,22.461,0
1556039057.871,31.250,41.504,20.508,26.855,1.465,0
1556039057.875,40.527,50.293,11.230,26.855,-10.254,0
1556039057.879,32.715,45.410,19.043,26.367,20.996,0
1556039057.882,28.809,43.945,25.879,20.996,24.414,0
1556039057.886,40.039,48.828,23.438,19.531,59.082,0
1556039057.890,36.133,48.340,27.344,27.344,22.949,0
1556039057.894,21.973,46.387,32.715,22.949,-0.488,0
1556039057.898,17.090,42.969,32.715,19.043,-48.828,0
1556039057.900,19.531,41.016,27.344,20.020,-34.668,0
1556039057.904,25.391,41.016,24.414,16.602,62.012,0
1556039057.908,22.949,31.738,26.367,12.695,30.273,0
1556039057.912,23.438,33.203,21.973,12.695,27.832,0
1556039057.916,33.203,53.223,18.066,18.555,53.223,0
1556039057.920,30.273,58.105,21.484,15.137,9.277,0
1556039057.924,18.555,50.781,20.508,1.953,11.719,0
1556039057.927,14.160,45.410,11.719,-2.441,37.109,0
1556039057.931,9.277,43.457,12.207,0.488,11.719,0
1556039057.935,16.113,46.387,23.438,3.418,4.883,0
1556039057.939,19.043,46.387,27.832,5.371,-1.953,0
1556039057.943,9.766,43.945,26.367,8.301,-13.184,0
1556039057.960,7.812,42.480,25.879,9.277,32.227,0
1556039057.964,16.113,36.133,22.461,11.719,41.016,0
1556039057.968,27.832,36.133,19.531,19.043,-2.441,0
1556039057.972,24.414,43.457,15.137,21.973,-15.137,0
1556039057.976,19.531,45.898,15.625,20.996,7.324,0
1556039057.980,25.391,45.410,21.973,25.391,38.086,0
1556039057.984,35.645,51.758,25.391,29.297,60.059,0
1556039057.987,38.086,55.176,24.902,31.738,51.270,0
1556039057.991,29.297,43.457,20.996,32.715,17.090,0
1556039057.995,24.902,36.621,20.996,28.320,3.418,0
1556039057.999,28.320,37.109,23.926,30.762,-2.930,0
1556039058.003,30.273,32.715,25.391,41.992,-23.438,0
1556039058.005,26.367,35.645,22.949,35.156,17.578,0
1556039058.009,18.066,45.898,20.508,32.227,45.898,0
1556039058.013,17.578,51.270,22.949,41.504,18.555,0
1556039058.017,26.367,46.387,22.949,39.551,68.359,0
1556039058.021,23.438,41.504,20.508,24.414,49.805,0
1556039058.025,23.926,39.062,21.973,22.461,32.227,0
1556039058.029,21.484,32.227,22.949,20.996,33.691,0
1556039058.032,22.949,35.645,20.020,16.602,60.547,0
1556039058.036,22.461,40.039,20.020,29.297,72.266,0
1556039058.040,-2.930,34.668,33.691,25.391,22.461,0
1556039058.044,-12.695,32.715,45.410,17.578,-49.316,0
1556039058.048,-0.488,30.273,47.852,24.414,-29.785,0
1556039058.050,9.766,29.785,44.434,26.367,-6.836,0
1556039058.054,7.812,29.785,35.156,25.879,-19.531,0
1556039058.058,7.324,32.715,30.762,17.090,56.641,0
1556039058.062,17.090,29.785,21.973,12.695,44.434,0
1556039058.066,21.973,30.273,18.555,22.949,9.766,0
1556039058.070,22.949,41.016,26.855,32.715,19.531,0
1556039058.074,28.320,43.457,37.109,27.832,22.461,0
1556039058.077,31.738,35.645,43.945,20.508,63.477,0
1556039058.081,36.621,35.156,42.969,19.043,50.293,0
1556039058.085,38.574,41.016,42.480,20.996,60.059,0
1556039058.089,35.156,41.992,37.109,21.484,31.250,0
1556039058.093,40.527,45.898,34.668,30.762,14.648,0
1556039058.095,37.598,46.387,35.156,31.250,56.152,0
1556039058.099,27.344,44.434,29.785,21.973,4.395,0
1556039058.103,23.926,37.109,30.762,30.762,17.090,0
1556039058.107,26.367,28.320,34.180,39.551,56.152,0
1556039058.111,27.344,25.391,36.133,38.086,67.383,0
1556039058.115,22.461,24.414,38.574,36.621,25.879,0
1556039058.119,19.531,32.715,42.480,43.457,30.762,0
1556039058.122,15.625,35.156,37.109,40.527,79.590,0
1556039058.126,18.066,32.227,30.273,36.621,64.941,0
1556039058.130,19.531,28.320,27.832,41.016,47.852,0
1556039058.134,20.020,33.203,37.109,41.992,32.227,0
1556039058.138,23.926,37.598,46.387,40.039,24.902,0
1556039058.140,22.949,30.762,30.273,39.062,45.898,0
1556039058.144,15.137,25.879,23.438,31.738,20.020,0
1556039058.148,7.812,28.809,32.227,17.578,0.488,0
1556039058.152,-0.977,31.250,36.133,13.184,-50.293,0
1556039058.156,4.395,29.297,38.086,17.578,-23.438,0
1556039058.160,19.043,35.645,39.062,12.695,39.551,0
1556039058.164,17.578,38.086,36.621,10.254,12.207,0
1556039058.167,13.672,36.621,30.762,14.648,9.766,0
1556039058.171,23.926,38.086,28.809,25.391,20.508,0
1556039058.175,33.203,38.086,28.809,33.203,35.156,0
1556039058.179,25.391,40.039,24.902,29.785,36.621,0
1556039058.183,6.836,37.598,27.344,30.762,3.906,0
1556039058.185,3.418,33.203,34.180,36.621,44.434,0
1556039058.189,11.230,30.273,31.738,32.227,96.191,0
1556039058.193,17.090,24.414,28.320,21.973,38.086,0
1556039058.197,18.555,28.320,24.902,18.066,-20.996,0
1556039058.201,12.207,37.109,23.438,9.766,-20.508,0
1556039058.205,11.719,35.645,24.414,7.812,33.203,0
1556039058.209,19.043,34.180,21.973,18.066,58.105,0
1556039058.212,26.367,38.086,21.973,25.391,11.230,0
1556039058.216,25.879,39.551,21.973,31.250,3.418,0
1556039058.220,28.809,38.574,20.020,31.738,-20.020,0
1556039058.224,36.621,36.621,13.184,22.949,-0.488,0
1556039058.228,40.039,35.645,9.766,25.879,54.688,0
1556039058.230,37.598,41.016,16.113,35.645,33.203,0
1556039058.234,25.391,41.504,14.648,29.297,57.617,0
1556039058.238,22.461,38.086,17.578,19.531,62.500,0
1556039058.242,26.367,35.645,21.484,20.508,26.855,0
1556039058.246,26.855,37.109,14.648,24.902,65.430,0
1556039058.250,31.738,38.574,19.043,20.508,74.219,0
1556039058.254,39.551,38.086,25.391,14.648,29.785,0
1556039058.257,31.738,34.668,20.508,12.207,6.836,0
1556039058.261,19.531,28.809,21.484,14.648,37.109,0
1556039058.265,12.207,30.762,27.344,19.043,62.500,0
1556039058.269,15.625,35.645,31.738,17.578,70.312,0
1556039058.273,21.484,35.645,29.785,10.254,40.527,0
1556039058.275,16.113,38.086,26.367,15.137,28.320,0
1556039058.279,7.324,41.016,23.438,14.160,16.602,0
1556039058.283,11.719,38.086,17.578,10.742,-2.930,0
1556039058.287,20.996,39.062,19.043,8.789,9.766,0
1556039058.291,19.043,38.574,16.602,7.812,-35.156,0
1556039058.295,17.578,34.668,18.555,13.184,-75.195,0
1556039058.299,18.066,38.086,26.855,8.301,-22.949,0
1556039058.302,21.973,37.598,27.832,8.789,2.930,0
1556039058.306,20.020,33.203,23.438,15.137,-9.766,0
1556039058.310,13.672,33.691,23.926,9.766,-11.230,0
1556039058.314,13.672,34.180,29.785,11.719,36.621,0
1556039058.318,20.508,28.809,28.809,10.254,80.078,0
1556039058.335,20.996,25.391,26.367,0.488,42.969,0
1556039058.339,10.742,29.785,21.973,3.418,6.348,0
1556039058.343,12.695,36.133,19.531,7.812,53.223,0
1556039058.347,22.949,36.621,21.484,12.207,54.688,0
1556039058.351,17.578,37.598,25.879,11.719,-3.418,0
1556039058.355,8.789,37.598,26.367,9.766,-42.969,0
1556039058.359,9.277,32.227,17.578,12.695,-18.066,0
1556039058.362,17.090,28.809,20.020,17.578,-13.184,0
1556039058.366,26.855,32.227,26.855,12.207,-35.645,0
1556039058.370,29.785,38.086,23.438,12.695,23.926,0
1556039058.374,16.602,34.180,25.879,29.297,44.922,0
1556039058.378,9.766,28.320,32.715,24.902,7.324,0
1556039058.380,18.555,31.738,34.180,11.230,-2.441,0
1556039058.384,19.043,35.156,33.203,9.766,-24.902,0
1556039058.388,20.508,32.227,33.203,6.348,9.277,0
1556039058.392,23.926,31.738,27.832,7.812,7.324,0
1556039058.396,18.066,32.715,26.855,12.207,-31.250,0
1556039058.400,8.789,38.086,30.762,19.531,0.000,0
1556039058.404,8.301,37.598,28.809,24.414,20.020,0
1556039058.407,9.766,36.133,30.273,16.113,37.109,0
1556039058.411,10.254,38.574,34.668,15.137,9.766,0
1556039058.415,15.137,35.645,38.086,13.184,-21.484,0
1556039058.419,20.020,32.715,38.574,11.719,-9.766,0
1556039058.423,14.160,36.133,37.109,8.789,21.973,0
1556039058.425,9.766,34.180,29.785,1.953,51.758,0
1556039058.429,11.230,24.902,17.578,4.395,35.645,0
1556039058.433,10.742,29.297,14.648,8.789,-13.184,0
1556039058.437,9.766,33.691,26.367,11.230,5.371,0
1556039058.441,13.672,32.227,36.621,11.230,37.109,0
1556039058.445,18.555,37.598,30.273,13.672,51.270,0
1556039058.449,27.832,46.387,23.926,18.066,25.879,0
1556039058.452,28.809,48.828,28.809,27.832,-6.348,0
1556039058.456,27.344,41.992,30.762,38.086,62.988,0
1556039058.460,39.062,43.945,25.391,35.156,34.668,0
1556039058.464,45.410,47.363,19.043,26.855,43.457,0
1556039058.468,33.203,37.109,20.020,21.973,84.961,0
1556039058.470,21.973,32.715,27.832,20.020,17.090,0
1556039058.474,28.809,38.086,33.203,17.578,18.555,0
1556039058.478,42.969,40.527,36.133,19.531,70.801,0
1556039058.482,37.598,43.945,35.156,28.809,71.289,0
1556039058.486,26.855,45.410,29.297,30.273,21.973,0
1556039058.490,29.785,42.969,20.020,32.227,9.277,0
1556039058.494,31.738,41.504,19.531,41.016,65.430,0
1556039058.497,27.832,43.457,22.949,44.922,88.867,0
1556039058.501,25.391,49.316,31.250,43.457,15.625,0
1556039058.505,21.484,49.805,37.109,34.668,-22.461,0
1556039058.509,18.066,43.457,31.250,22.949,-7.812,0
1556039058.513,16.113,34.180,27.832,13.672,12.207,0
1556039058.515,7.812,32.715,24.414,7.324,74.707,0
1556039058.519,9.766,42.480,16.602,-5.859,50.781,0
1556039058.523,13.672,47.363,17.090,-12.695,8.789,0
1556039058.527,15.625,46.875,23.926,-1.953,26.855,0
1556039058.531,24.902,50.781,24.414,4.883,61.523,0
1556039058.535,20.020,49.316,23.438,2.441,66.895,0
1556039058.539,13.672,42.480,25.879,1.953,31.738,0
1556039058.542,20.508,42.969,30.273,6.836,49.316,0
1556039058.546,17.090,41.504,28.809,16.113,42.969,0
1556039058.550,5.371,37.109,23.926,18.066,21.973,0
1556039058.554,0.977,40.039,17.578,10.742,-13.672,0
1556039058.558,3.906,40.527,15.137,13.672,11.719,0
1556039058.560,14.648,41.992,19.531,12.695,37.598,0
1556039058.564,16.602,45.410,25.879,8.301,77.637,0
1556039058.568,6.348,44.922,37.109,13.184,114.746,0
1556039058.572,1.465,39.062,43.945,20.508,39.551,0
1556039058.576,7.324,35.156,35.156,21.973,-24.414,0
1556039058.580,9.277,37.109,28.809,31.250,-37.109,0
1556039058.584,12.207,35.645,29.297,36.621,-18.555,0
1556039058.587,27.832,38.086,28.320,31.738,14.648,0
1556039058.591,42.480,41.992,31.738,36.621,53.223,0
1556039058.595,42.969,40.039,30.762,41.504,82.520,0
1556039058.599,28.809,39.551,25.391,30.762,21.973,0
1556039058.603,28.320,44.434,19.043,23.926,-62.500,0
1556039058.605,36.133,41.504,14.648,20.996,-11.230,0
1556039058.609,34.180,38.086,20.996,14.160,25.879,0
1556039058.613,39.062,47.363,22.461,14.160,12.207,0
1556039058.617,43.945,50.293,18.066,10.254,-7.812,0
1556039058.621,41.016,47.363,20.996,13.184,-12.695,0
1556039058.625,43.457,49.316,23.438,25.391,21.484,0
1556039058.629,37.109,50.293,25.391,19.043,61.523,0
1556039058.632,27.344,49.316,30.762,8.301,26.367,0
1556039058.636,30.273,43.945,28.320,6.836,-4.395,0
1556039058.640,28.809,37.109,22.949,7.812,-30.273,0
1556039058.644,15.137,36.133,21.484,13.672,8.301,0
1556039058.648,9.277,33.691,14.160,8.789,83.984,0
1556039058.650,17.578,30.762,13.184,4.883,74.219,0
1556039058.654,28.320,33.691,25.391,15.625,40.527,0
1556039058.658,28.320,43.945,26.367,18.066,41.992,0
1556039058.662,23.926,48.828,14.648,14.160,26.855,0
1556039058.666,29.785,44.922,12.695,17.090,38.086,0
1556039058.670,26.855,46.875,27.832,20.996,10.742,0
1556039058.674,12.207,44.922,36.621,20.508,-20.020,0
1556039058.677,3.418,41.016,28.320,13.672,-30.273,0
1556039058.681,3.906,39.551,16.602,12.695,-8.789,0
1556039058.685,7.812,37.598,14.160,20.020,62.500,0
1556039058.689,7.812,36.133,28.809,14.648,91.797,0
1556039058.693,4.883,27.344,37.598,14.160,37.109,0
1556039058.710,5.371,29.785,37.109,14.648,22.949,0
1556039058.714,14.648,41.016,33.691,12.695,65.430,0
1556039058.718,28.809,44.434,27.832,17.578,55.176,0
1556039058.722,27.344,48.340,28.809,14.160,40.527,0
1556039058.726,17.090,49.805,29.297,12.207,18.555,0
1556039058.730,28.320,46.387,24.902,11.230,13.184,0
1556039058.734,40.527,50.781,20.020,8.789,25.879,0
1556039058.737,27.832,53.711,22.949,8.789,33.691,0
1556039058.741,9.277,41.992,26.367,2.930,4.395,0
1556039058.745,8.789,35.156,27.344,3.906,0.977,0
1556039058.749,12.207,36.621,29.785,4.883,23.926,0
1556039058.753,10.254,34.180,28.809,-4.395,58.105,0
1556039058.755,0.000,28.809,28.809,-9.766,85.938,0
1556039058.759,-8.301,35.645,27.344,-8.789,23.926,0
1556039058.763,-0.977,42.480,21.484,-6.348,-19.043,0
1556039058.767,4.883,39.062,15.625,-5.859,39.551,0
1556039058.771,-4.395,34.180,13.184,2.441,29.297,0
1556039058.775,-0.977,36.621,15.625,13.184,10.254,0
1556039058.779,15.625,41.992,19.043,17.578,35.645,0
1556039058.782,28.809,46.875,26.855,20.020,-12.207,0
1556039058.786,28.320,47.852,31.738,25.391,-32.227,0
1556039058.790,21.484,42.969,26.367,25.879,0.977,0
1556039058.794,20.020,35.156,25.391,24.414,50.781,0
1556039058.798,20.508,33.203,29.297,18.066,55.176,0
1556039058.800,24.902,34.668,29.297,6.836,10.254,0
1556039058.804,23.926,33.203,26.855,2.930,8.301,0
1556039058.808,14.160,37.109,26.367,5.371,41.504,0
1556039058.812,12.207,44.434,20.020,2.441,36.133,0
1556039058.816,21.484,45.898,12.207,1.465,-14.648,0
1556039058.820,16.113,45.410,17.578,3.906,-8.789,0
1556039058.824,10.742,47.363,24.902,3.906,70.801,0
1556039058.827,9.766,40.527,25.879,4.883,71.289,0
1556039058.831,4.395,29.785,29.297,0.000,3.906,0
1556039058.835,8.789,27.344,27.832,6.836,23.438,0
1556039058.839,4.395,40.527,24.414,5.859,35.645,0
1556039058.843,-13.184,44.922,27.832,-23.438,12.695,0
1556039058.845,-14.648,41.992,31.738,-31.250,23.926,0
1556039058.849,-16.602,41.992,31.738,-15.625,19.043,0
1556039058.853,-21.973,37.598,29.785,-9.277,-35.645,0
1556039058.857,-6.348,39.551,27.344,-9.766,-33.203,0
1556039058.861,3.906,43.457,20.020,-8.301,50.293,0
1556039058.865,7.812,45.410,16.113,0.000,89.844,0
1556039058.869,9.766,46.875,17.090,1.465,0.488,0
1556039058.872,21.973,46.387,21.973,1.465,-19.043,0
1556039058.876,36.621,47.363,24.414,2.441,27.832,0
1556039058.880,27.832,41.016,20.996,-6.348,41.992,0
1556039058.884,15.625,34.668,17.578,-13.672,40.039,0
1556039058.888,10.742,28.809,20.020,-11.230,6.836,0
1556039058.890,12.207,24.414,23.438,-4.395,-12.695,0
1556039058.894,13.184,29.297,22.949,0.977,20.020,0
1556039058.898,2.441,31.738,20.508,-3.906,19.531,0
1556039058.902,-1.465,25.879,16.113,-5.859,35.645,0
1556039058.906,6.348,29.297,16.113,-7.324,24.414,0
1556039058.910,7.324,41.992,14.648,-21.973,20.020,0
1556039058.914,-2.930,49.805,18.066,-25.879,79.590,0
1556039058.917,-7.324,49.316,25.391,-21.484,9.766,0
1556039058.921,1.465,42.969,16.113,-27.344,41.504,0
1556039058.925,7.324,39.551,2.930,-21.484,58.105,0
1556039058.929,1.953,35.645,5.859,-8.789,14.160,0
1556039058.933,-3.906,31.250,17.578,-3.906,56.641,0
1556039058.935,2.930,33.691,26.855,0.977,34.180,0
1556039058.939,14.648,39.062,26.367,-1.953,13.672,0
1556039058.943,16.113,41.504,22.949,-9.277,-7.324,0
1556039058.947,10.742,44.434,20.996,-11.719,-9.766,0
1556039058.951,13.184,47.363,18.066,-7.324,34.668,0
1556039058.955,24.414,41.016,17.578,-0.977,30.762,0
1556039058.959,31.250,38.574,20.020,3.906,40.039,0
1556039058.962,20.508,41.504,22.461,5.371,54.688,0
1556039058.966,14.648,39.551,13.184,9.277,14.648,0
1556039058.970,11.230,36.133,3.418,14.648,31.738,0
1556039058.974,8.789,37.598,13.672,19.531,50.781,0
1556039058.978,9.277,35.645,30.273,15.625,62.500,0
1556039058.980,9.277,27.344,37.598,13.184,68.359,0
1556039058.984,12.695,25.391,33.691,15.137,21.973,0
1556039058.988,21.484,32.715,30.273,24.414,13.184,0
1556039058.992,27.832,35.645,31.250,21.484,37.109,0
1556039058.996,18.555,36.621,31.738,16.113,53.711,0
1556039059.000,18.066,39.062,28.320,20.020,3.418,1
1556039059.004,20.996,37.109,23.438,8.301,-23.926,0
1556039059.007,10.254,35.156,20.020,1.953,11.719,0
1556039059.011,4.883,37.109,17.090,7.324,-26.855,0
1556039059.015,-1.465,36.133,25.391,5.859,-15.625,0
1556039059.019,3.906,33.691,30.762,-1.953,34.180,0
1556039059.023,13.184,27.344,26.855,-2.930,47.363,0
1556039059.025,13.184,23.926,24.414,8.301,19.043,0
1556039059.029,19.531,35.156,20.996,19.531,2.930,0
1556039059.033,30.762,44.434,20.508,24.902,19.531,0
1556039059.037,40.039,43.457,25.391,29.297,26.367,0
1556039059.041,48.828,50.781,30.273,41.504,-13.184,0
1556039059.045,46.875,58.105,37.109,48.828,-4.395,0
1556039059.049,41.504,49.805,35.156,42.480,14.160,0
1556039059.052,43.945,42.969,24.414,34.180,36.133,0
1556039059.056,42.969,40.527,14.648,29.785,35.156,0
1556039059.060,38.574,37.109,19.531,37.109,-9.766,0
1556039059.064,28.809,34.180,31.738,43.945,5.371,0
1556039059.068,19.531,29.297,31.250,37.109,11.719,0
1556039059.085,19.043,27.832,32.227,27.832,18.555,0
1556039059.089,10.254,34.180,29.297,18.555,31.250,0
1556039059.093,7.324,36.621,20.996,15.137,18.555,0
1556039059.097,16.602,40.527,29.297,20.996,54.688,0
1556039059.101,27.344,43.457,38.086,15.625,29.297,0
1556039059.105,27.832,41.992,31.738,5.371,-3.906,0
1556039059.109,25.391,36.621,18.066,9.277,60.547,0
1556039059.112,23.926,31.738,17.090,16.113,43.457,0
1556039059.116,27.344,35.645,24.902,23.926,14.648,0
1556039059.120,23.926,36.133,31.738,24.902,-20.996,0
1556039059.124,10.254,28.320,39.551,24.902,-37.598,0
1556039059.128,11.230,29.785,29.785,24.414,8.789,0
1556039059.130,20.020,37.109,25.391,24.902,16.113,0
1556039059.134,19.531,34.668,43.457,32.715,37.109,0
1556039059.138,15.137,34.180,44.922,24.902,52.246,0
1556039059.142,17.090,29.785,31.738,20.020,56.152,0
1556039059.146,24.414,30.762,27.832,29.297,31.250,0
1556039059.150,37.598,37.598,30.273,36.133,50.293,0
1556039059.154,39.062,40.039,26.367,27.832,41.504,0
1556039059.157,38.086,45.898,20.996,26.855,6.348,0
1556039059.161,42.480,45.410,20.020,29.785,-5.371,0
1556039059.165,43.945,41.992,22.461,24.902,-40.527,0
1556039059.169,40.527,45.410,23.926,24.902,20.020,0
1556039059.173,35.645,46.387,18.066,31.250,-6.348,0
1556039059.175,42.969,47.363,20.020,33.691,20.020,0
1556039059.179,46.875,45.898,26.367,27.832,79.590,0
1556039059.183,36.133,43.457,22.949,20.020,18.066,0
1556039059.187,34.668,38.574,17.578,20.996,4.395,0
1556039059.191,38.574,34.668,14.160,26.855,28.320,0
1556039059.195,44.922,40.527,15.137,33.691,42.969,0
1556039059.199,53.711,46.387,20.996,36.621,2.930,0
1556039059.202,40.527,45.410,24.902,41.992,-11.719,0
1556039059.206,29.297,44.434,29.785,42.480,-8.301,0
1556039059.210,37.109,47.852,34.180,34.668,-11.719,0
1556039059.214,33.691,38.574,30.273,39.062,3.418,0
1556039059.218,34.668,32.715,25.391,42.969,8.301,0
1556039059.220,32.227,47.363,21.484,34.180,29.297,0
1556039059.224,22.949,47.852,16.113,19.531,66.406,0
1556039059.228,26.367,41.992,18.555,17.578,19.043,0
1556039059.232,22.461,46.875,19.531,21.484,14.648,0
1556039059.236,11.719,46.387,18.555,21.484,26.855,0
1556039059.240,15.625,41.504,17.578,21.973,20.020,0
1556039059.244,29.785,33.691,18.066,24.414,40.039,0
1556039059.247,37.598,35.645,14.160,34.180,41.016,0
1556039059.251,35.156,42.969,12.207,32.227,52.246,0
1556039059.255,33.203,39.062,19.043,24.902,69.336,0
1556039059.259,34.180,36.621,13.184,27.344,60.547,0
1556039059.263,39.062,44.434,5.371,27.344,12.695,0
1556039059.265,30.762,47.852,17.578,25.879,-20.020,0
1556039059.269,13.672,41.016,29.785,23.438,48.828,0
1556039059.273,17.090,34.180,25.879,22.461,68.848,0
1556039059.277,26.855,28.809,20.020,23.438,18.555,0
1556039059.281,28.320,32.715,20.508,20.508,33.691,0
1556039059.285,30.273,41.992,13.184,23.926,4.883,0
1556039059.289,37.598,40.527,16.602,28.320,-20.996,0
1556039059.292,35.645,42.969,24.902,20.508,38.574,0
1556039059.296,25.879,49.805,22.461,14.160,60.547,0
1556039059.300,22.461,48.340,21.484,21.484,18.555,0
1556039059.304,23.438,41.992,28.320,21.973,38.574,0
1556039059.308,31.250,40.039,33.203,17.090,61.523,0
1556039059.310,32.715,35.645,30.762,13.672,76.172,0
1556039059.314,11.230,29.785,27.832,6.836,92.773,0
1556039059.318,1.953,35.156,21.973,8.789,6.836,0
1556039059.322,10.254,39.062,9.766,16.602,6.348,0
1556039059.326,20.508,40.527,13.184,18.066,56.641,0
1556039059.330,15.137,41.016,28.320,12.695,29.297,0
1556039059.334,6.836,45.410,34.668,17.090,27.832,0
1556039059.337,15.137,46.387,29.297,17.578,-7.324,0
1556039059.341,20.020,41.504,33.203,23.438,-59.082,0
1556039059.345,20.996,39.062,39.551,34.180,17.578,0
1556039059.349,6.348,36.621,37.109,36.621,29.785,0
1556039059.353,-3.418,35.156,32.227,33.203,-22.949,0
1556039059.355,8.789,31.738,27.344,24.414,-1.953,0
1556039059.359,10.742,33.203,29.297,24.414,17.578,0
1556039059.363,8.789,41.016,29.297,22.949,62.012,0
1556039059.367,14.160,44.922,22.949,25.879,49.316,0
1556039059.371,26.855,43.457,22.949,32.715,43.457,0
1556039059.375,31.250,41.016,26.855,26.367,66.895,0
1556039059.379,27.344,39.062,28.809,18.066,9.766,0
1556039059.382,30.273,37.109,33.203,19.531,1.465,0
1556039059.386,30.762,38.086,36.133,20.020,51.758,0
1556039059.390,23.438,37.598,34.668,20.996,66.895,0
1556039059.394,20.508,30.762,30.273,32.715,81.055,0
1556039059.398,24.902,36.621,25.879,32.227,71.777,0
1556039059.400,36.133,44.922,27.344,21.484,69.336,0
1556039059.404,46.387,40.527,29.297,26.367,82.031,0
1556039059.408,45.410,41.504,25.879,26.855,48.828,0
1556039059.412,35.645,45.410,20.996,23.438,26.367,0
1556039059.416,29.297,43.945,16.113,24.902,52.246,0
1556039059.420,36.133,39.062,16.113,22.461,29.785,0
1556039059.424,36.621,31.250,29.297,20.020,19.531,0
1556039059.427,35.645,33.691,33.203,30.273,-33.203,0
1556039059.431,36.133,39.062,32.715,42.480,-27.344,0
1556039059.435,31.738,38.574,37.598,40.527,18.066,0
1556039059.439,26.855,42.969,36.133,30.762,12.207,0
1556039059.443,23.926,47.363,27.344,23.926,20.996,0
1556039059.460,20.508,44.434,23.438,18.555,20.020,0
1556039059.464,13.672,39.551,29.297,19.043,-41.016,0
1556039059.468,9.277,37.109,34.668,21.973,-6.836,0
1556039059.472,8.301,36.621,34.668,25.879,37.598,0
1556039059.476,8.789,34.180,32.715,26.855,-26.855,0
1556039059.480,14.648,31.738,32.227,25.391,5.859,0
1556039059.484,19.043,31.738,25.391,23.438,62.012,0
1556039059.487,19.531,28.320,23.438,21.973,18.555,0
1556039059.491,11.230,29.297,34.668,14.648,-3.906,0
1556039059.495,7.812,37.109,36.133,6.836,30.762,0
1556039059.499,17.090,42.480,32.227,17.090,29.785,0
1556039059.503,23.438,43.457,25.391,23.438,-40.039,0
1556039059.506,26.855,44.434,17.578,25.391,-39.062,0
1556039059.510,28.320,46.875,16.602,24.414,26.855,0
1556039059.514,41.992,41.016,22.949,23.926,40.527,0
1556039059.518,56.152,35.645,24.902,32.227,26.367,0
1556039059.522,44.922,36.621,24.902,29.297,40.527,0
1556039059.526,26.367,36.133,24.414,29.297,8.301,0
1556039059.530,34.668,40.527,17.090,30.762,32.227,0
1556039059.533,43.457,42.480,20.996,27.832,104.492,0
1556039059.537,39.062,41.016,23.438,27.344,80.566,0
1556039059.541,34.180,38.574,20.020,23.926,81.055,0
1556039059.545,25.391,39.062,25.391,21.973,61.523,0
1556039059.549,25.879,42.969,25.879,22.461,35.645,0
1556039059.550,21.484,42.480,24.902,25.879,33.691,0
1556039059.554,15.625,41.016,23.438,24.414,12.207,0
1556039059.558,25.879,43.945,17.090,16.113,0.000,0
1556039059.562,35.156,44.434,21.973,10.254,4.395,0
1556039059.566,25.391,40.527,31.250,8.301,-30.273,0
1556039059.570,12.695,40.039,32.715,9.277,3.418,0
1556039059.574,7.324,40.039,31.738,12.695,53.223,0
1556039059.577,-0.488,34.668,27.832,5.859,43.945,0
1556039059.581,0.488,34.668,21.973,0.488,54.688,0
1556039059.585,-6.348,33.203,27.832,0.000,69.336,0
1556039059.589,-15.137,26.855,31.250,-3.418,47.363,0
1556039059.593,-4.883,24.902,25.391,6.348,-25.879,0
1556039059.595,3.418,31.738,26.855,10.742,-34.668,0
1556039059.599,-1.465,38.086,32.227,0.977,-18.555,0
1556039059.603,-8.789,41.016,30.762,-4.883,2.441,0
1556039059.607,-3.418,46.387,27.344,-2.441,31.250,0
1556039059.611,13.184,45.898,29.297,-0.488,-15.625,0
1556039059.615,20.508,41.016,29.785,0.488,-20.508,0
1556039059.619,18.066,42.480,25.879,8.789,-18.555,0
1556039059.622,25.391,49.316,27.344,18.066,36.621,0
1556039059.626,30.762,46.875,28.809,16.602,50.293,0
1556039059.630,24.414,40.039,26.367,16.113,11.719,0
1556039059.634,18.555,36.621,28.320,12.695,-4.883,0
1556039059.638,15.137,31.738,29.297,8.789,33.691,0
1556039059.640,20.996,37.598,21.484,14.648,66.895,0
1556039059.644,21.973,43.945,15.137,18.066,20.020,0
1556039059.648,10.254,43.945,28.320,13.184,-5.859,0
1556039059.652,4.395,41.992,41.504,11.230,-40.039,0
1556039059.656,12.695,38.086,34.668,11.230,-33.203,0
1556039059.660,17.578,39.062,25.391,11.230,23.926,0
1556039059.664,4.883,41.504,26.855,13.184,102.539,0
1556039059.667,-15.625,34.180,27.344,8.301,50.293,0
1556039059.671,-18.555,22.461,30.273,-0.977,-16.113,0
1556039059.675,-8.789,17.578,25.879,-5.859,60.547,0
1556039059.679,-8.301,24.414,17.090,-3.906,85.938,0
1556039059.683,-7.812,35.645,22.949,0.000,66.895,0
1556039059.685,0.977,42.480,31.250,1.465,15.625,0
1556039059.689,12.207,42.480,30.273,12.207,-0.488,0
1556039059.693,28.320,45.410,21.484,26.855,78.613,0
1556039059.697,26.367,44.434,23.438,21.484,95.215,0
1556039059.701,16.602,37.598,17.578,12.695,51.270,0
1556039059.705,15.625,35.645,6.348,11.719,62.500,0
1556039059.709,7.324,37.598,21.484,3.418,-10.742,0
1556039059.712,4.395,40.039,40.527,5.859,-62.012,0
1556039059.716,6.348,39.551,44.434,12.695,-26.367,0
1556039059.720,14.648,40.039,36.621,11.230,31.250,0
1556039059.724,29.785,42.480,26.855,18.555,24.414,0
1556039059.728,22.949,42.969,25.879,23.438,-27.344,0
1556039059.730,20.508,45.410,29.297,20.996,-24.414,0
1556039059.734,33.691,41.992,23.438,23.438,25.391,0
1556039059.738,33.691,36.133,25.391,27.344,46.387,0
1556039059.742,25.879,38.574,30.273,25.879,22.461,0
1556039059.746,22.949,40.039,28.809,22.949,-19.043,0
1556039059.750,24.414,41.016,32.715,19.043,-25.879,0
1556039059.754,19.043,40.039,37.598,16.113,14.160,0
1556039059.757,9.766,31.738,40.039,9.277,19.043,0
1556039059.761,6.348,37.598,29.785,6.836,-20.020,0
1556039059.765,8.789,41.504,21.973,11.230,-13.184,0
1556039059.769,13.672,35.645,24.902,2.930,34.180,0
1556039059.773,18.066,33.691,26.855,-1.953,47.363,0
1556039059.775,11.230,32.715,30.762,0.000,8.789,0
1556039059.779,2.930,36.621,27.832,5.859,8.301,0
1556039059.783,7.324,35.156,27.832,12.695,-2.930,0
1556039059.787,21.484,36.133,30.762,6.836,-21.484,0
1556039059.791,26.855,40.527,27.344,12.207,-1.465,0
1556039059.795,20.508,44.434,26.855,22.461,-12.695,0
1556039059.799,16.113,44.922,17.578,5.371,-8.789,0
1556039059.802,22.461,46.875,18.555,-5.859,8.789,0
1556039059.806,21.973,48.828,32.715,5.859,-1.953,0
1556039059.810,13.184,40.039,32.227,10.742,41.016,0
1556039059.814,21.973,36.133,33.691,19.043,19.043,0
1556039059.818,33.203,39.551,29.785,29.297,19.043,0
1556039059.835,44.922,39.062,20.996,32.227,62.500,0
1556039059.839,46.875,41.504,11.719,35.645,14.648,0
1556039059.843,41.016,47.852,8.789,38.086,0.977,0
1556039059.847,37.598,37.109,23.926,38.574,34.180,0
1556039059.851,31.250,29.297,34.668,23.926,44.434,0
1556039059.855,26.855,35.645,39.551,12.695,14.160,0
1556039059.859,15.625,38.574,38.086,12.207,15.625,0
1556039059.862,7.812,38.574,31.738,7.324,83.496,0
1556039059.866,5.371,35.156,30.273,2.930,71.289,0
1556039059.870,-2.930,28.809,32.715,3.906,-4.883,0
1556039059.874,-18.555,24.902,33.203,3.906,60.059,0
1556039059.878,-20.996,27.344,28.809,3.906,116.699,0
1556039059.880,-9.766,32.715,19.043,8.789,41.992,0
1556039059.884,-6.348,35.645,22.949,7.812,-39.062,0
1556039059.888,-10.742,33.203,30.762,9.277,18.555,0
1556039059.892,-4.395,32.227,27.344,13.184,64.453,0
1556039059.896,14.160,34.668,24.902,7.812,37.109,0
1556039059.900,24.414,40.527,23.438,9.277,26.367,0
1556039059.904,27.344,45.410,26.855,18.555,-43.945,0
1556039059.907,16.113,42.480,33.691,15.137,-33.203,0
1556039059.911,14.648,40.039,35.156,13.184,2.930,0
1556039059.915,26.855,38.086,37.109,21.973,3.418,0
1556039059.919,25.879,39.551,34.180,30.762,48.340,0
1556039059.923,21.973,47.363,31.250,33.691,51.758,0
1556039059.925,25.879,47.852,31.738,39.551,3.418,0
1556039059.929,29.785,41.016,32.227,51.270,20.508,0
1556039059.933,29.297,34.668,29.297,39.062,-0.488,0
1556039059.937,34.180,33.691,30.273,34.668,34.180,0
1556039059.941,38.086,42.969,31.250,45.898,45.410,0
1556039059.945,34.180,50.781,26.855,25.879,-61.035,0
1556039059.949,36.133,53.223,20.996,7.324,-88.867,0
1556039059.952,35.156,52.246,13.672,18.555,-5.859,0
1556039059.956,20.020,45.410,17.090,20.020,87.891,0
1556039059.960,1.953,35.156,29.297,1.953,48.340,0
1556039059.964,-1.953,34.668,31.250,-7.324,20.020,0
1556039059.968,-4.395,38.574,20.508,0.977,47.852,0
1556039059.970,-3.906,35.156,17.578,6.348,52.246,0
1556039059.974,8.301,30.762,26.367,2.930,53.711,0
1556039059.978,17.578,31.738,28.809,9.766,24.414,0
1556039059.982,22.949,34.180,25.879,18.555,25.879,0
1556039059.986,9.277,38.574,30.273,17.090,25.879,0
1556039059.990,-2.930,41.992,35.645,15.625,-13.184,0
1556039059.994,2.930,39.062,33.691,8.301,41.992,0
1556039059.997,2.930,37.109,31.250,2.930,104.004,0
1556039060.001,-0.977,39.551,27.344,1.465,6.348,0
1556039060.005,-2.930,36.621,24.902,-1.953,-11.230,0
1556039060.009,4.395,34.180,20.996,6.348,38.574,0
1556039060.013,14.160,37.109,19.043,14.160,-9.766,0
1556039060.015,14.160,37.598,22.461,14.160,1.465,0
1556039060.019,13.184,41.992,20.996,12.695,29.297,0
1556039060.023,19.043,42.480,19.531,13.672,44.434,0
1556039060.027,23.926,39.551,22.461,13.184,40.039,0
1556039060.031,23.926,52.246,21.973,8.789,24.414,0
1556039060.035,16.602,52.734,17.578,1.465,50.293,0
1556039060.039,9.766,41.504,15.137,-7.812,77.637,0
1556039060.042,7.812,43.945,11.719,-17.090,37.598,0
1556039060.046,6.836,47.852,10.742,-20.508,18.555,0
1556039060.050,-3.906,42.969,14.648,-19.043,79.102,0
1556039060.054,-1.953,40.527,19.531,-15.137,74.707,0
1556039060.058,10.254,45.410,20.508,-15.625,-5.859,0
1556039060.060,7.324,48.828,17.578,-14.648,2.441,0
1556039060.064,-6.348,40.039,20.020,-12.695,14.160,0
1556039060.068,-4.883,34.668,21.484,-7.324,40.039,0
1556039060.072,7.324,43.457,18.555,1.465,42.969,0
1556039060.076,6.348,40.527,22.949,-0.488,-5.371,0
1556039060.080,-0.977,33.203,30.273,-2.930,19.531,0
1556039060.084,-8.301,31.250,30.762,-7.324,11.230,0
1556039060.087,-0.488,30.762,22.949,-13.672,-4.395,0
1556039060.091,4.883,34.180,18.066,-7.812,1.465,0
1556039060.095,2.930,33.203,20.020,2.930,-32.715,0
1556039060.099,6.836,34.180,23.926,2.441,2.441,0
1556039060.103,4.395,41.016,25.879,-6.836,-6.836,0
1556039060.105,2.441,34.668,24.414,-7.324,31.738,0
1556039060.109,10.254,29.297,28.320,5.859,47.363,0
1556039060.113,19.043,34.668,35.645,15.137,19.531,0
1556039060.117,20.508,36.133,32.715,14.160,27.832,0
1556039060.121,25.391,33.203,20.020,9.277,12.695,0
1556039060.125,29.785,33.203,9.766,12.207,29.785,0
1556039060.129,32.715,38.574,18.066,15.625,5.859,0
1556039060.132,37.598,38.574,28.809,14.160,-37.109,0
1556039060.136,40.527,38.086,30.762,16.113,-34.180,0
1556039060.140,45.898,40.527,26.855,19.043,20.020,0
1556039060.144,32.715,42.969,23.926,25.391,36.133,0
1556039060.148,21.484,41.504,31.738,34.180,38.086,0
1556039060.150,26.367,35.645,42.480,33.691,43.457,2
1556039060.154,25.879,33.203,41.504,27.832,-15.137,0
1556039060.158,23.926,34.668,27.344,23.926,-6.348,0
1556039060.162,18.066,32.227,19.043,19.531,57.129,0
1556039060.166,15.625,34.668,26.367,17.090,28.809,0
1556039060.170,25.879,39.551,32.715,14.648,1.465,0
1556039060.174,26.367,40.039,28.809,10.742,10.254,0
1556039060.177,20.996,42.969,24.414,11.719,38.574,0
1556039060.181,22.461,41.016,23.438,17.578,33.691,0
1556039060.185,31.738,32.227,25.879,18.066,37.598,0
1556039060.189,34.180,30.762,26.855,20.020,29.785,0
1556039060.193,23.438,40.039,25.879,23.926,-16.602,0
1556039060.210,26.855,45.410,27.344,31.738,-1.465,0
1556039060.214,35.645,41.016,15.625,33.691,-14.160,0
1556039060.218,39.551,35.156,12.207,30.273,6.836,0
1556039060.222,38.086,44.434,29.785,29.297,29.297,0
1556039060.226,33.203,48.340,38.086,30.273,30.762,0
1556039060.230,34.668,41.504,35.645,35.156,45.898,0
1556039060.234,37.598,36.621,28.809,25.391,57.129,0
1556039060.237,32.227,30.762,28.809,8.301,34.180,0
1556039060.241,24.414,33.203,29.297,20.020,32.227,0
1556039060.245,27.344,41.504,27.832,28.809,16.113,0
1556039060.249,32.715,35.645,28.320,28.320,47.852,0
1556039060.253,31.738,33.203,24.414,37.109,70.801,0
1556039060.255,35.156,45.898,20.020,45.410,30.762,0
1556039060.259,43.945,46.875,13.672,44.434,17.578,0
1556039060.263,41.016,34.668,15.625,41.504,-5.371,0
1556039060.267,38.574,36.133,24.902,33.203,-2.930,0
1556039060.271,38.086,42.480,32.227,26.367,-1.953,0
1556039060.275,31.738,41.992,38.574,28.809,0.488,0
1556039060.279,27.832,41.992,35.645,32.715,-20.020,0
1556039060.282,36.133,41.504,23.438,41.992,-8.789,0
1556039060.286,42.969,41.992,12.207,44.922,-2.930,0
1556039060.290,41.016,46.387,17.578,35.645,-4.395,0
1556039060.294,36.621,44.434,26.855,30.273,29.785,0
1556039060.298,40.039,41.504,33.691,34.668,21.484,0
1556039060.300,45.898,45.898,35.645,41.504,28.809,0
1556039060.304,36.133,42.480,32.715,39.551,29.785,0
1556039060.308,30.273,32.715,26.855,37.109,62.500,0
1556039060.312,35.156,36.133,23.926,41.504,105.957,0
1556039060.316,46.387,41.016,25.879,39.551,122.559,0
1556039060.320,43.457,40.039,26.855,35.645,71.289,0
1556039060.324,34.668,44.922,30.762,28.809,-18.066,0
1556039060.327,35.645,45.898,34.668,25.391,17.090,0
1556039060.331,32.227,41.016,33.203,29.297,-18.066,0
1556039060.335,19.043,40.527,28.809,27.832,-5.371,0
1556039060.339,11.230,42.480,24.414,28.320,31.250,0
1556039060.343,17.090,42.480,23.926,30.273,38.086,0
1556039060.345,25.879,42.480,26.855,23.926,50.293,0
1556039060.349,20.020,39.551,31.738,25.879,2.930,0
1556039060.353,7.812,33.203,33.203,29.785,-14.160,0
1556039060.357,12.695,32.715,31.738,29.785,18.066,0
1556039060.361,23.438,36.133,34.668,29.785,26.367,0
1556039060.365,24.902,39.551,33.203,29.785,61.523,0
1556039060.369,18.555,43.457,25.879,24.902,0.000,0
1556039060.372,12.695,44.434,32.227,22.949,-2.930,0
1556039060.376,22.461,45.898,32.227,19.531,81.543,0
1556039060.380,30.273,43.457,20.508,28.809,32.227,0
1556039060.384,33.691,30.273,20.996,37.598,20.020,0
1556039060.388,48.828,34.668,28.809,34.668,-17.090,0
1556039060.391,50.781,55.176,27.832,29.785,-2.441,0
1556039060.395,47.363,54.199,25.879,20.508,83.984,0
1556039060.399,45.410,46.387,29.297,25.391,55.664,0
1556039060.403,44.434,54.688,23.438,26.367,53.223,0
1556039060.407,50.781,60.059,12.207,19.531,85.449,0
1556039060.411,47.852,55.664,8.301,14.648,4.883,0
1556039060.415,43.457,48.828,7.324,14.160,-61.523,0
1556039060.418,34.180,49.316,9.277,11.230,-4.395,0
1556039060.422,25.391,50.293,12.695,0.977,14.160,0
1556039060.426,26.367,45.898,6.836,8.301,-35.645,0
1556039060.430,27.832,40.527,7.812,23.438,-11.230,0
1556039060.434,28.320,34.668,20.508,32.227,48.340,0
1556039060.435,37.109,35.156,23.926,39.062,66.895,0
1556039060.439,39.551,45.410,23.438,36.621,23.926,0
1556039060.443,29.297,52.246,23.438,29.297,42.480,0
1556039060.447,21.484,45.898,25.391,24.902,61.035,0
1556039060.451,17.578,45.410,20.996,23.926,-20.020,0
1556039060.455,18.066,47.852,19.043,23.926,-14.648,0
1556039060.459,16.602,41.016,26.855,23.438,55.664,0
1556039060.462,8.789,37.598,30.762,14.160,33.203,0
1556039060.466,7.812,37.598,30.273,7.812,-2.441,0
1556039060.470,15.137,41.504,26.367,13.672,30.762,0
1556039060.474,32.227,47.363,18.066,24.414,66.895,0
1556039060.478,40.039,44.922,14.648,31.250,51.758,0
1556039060.480,31.738,45.898,15.137,36.621,11.719,0
1556039060.484,26.855,51.270,17.578,36.133,-15.625,0
1556039060.488,30.762,46.875,23.926,27.832,5.371,0
1556039060.492,32.227,44.434,31.250,22.949,25.391,0
1556039060.496,23.438,45.898,31.738,12.207,10.254,0
1556039060.500,21.973,41.992,27.344,11.719,8.301,0
1556039060.504,30.273,37.598,27.832,15.625,-8.301,0
1556039060.507,40.039,44.434,28.809,22.461,-5.371,0
1556039060.511,33.203,54.688,27.344,29.297,84.961,0
1556039060.515,30.762,51.270,21.973,25.391,56.152,0
1556039060.519,35.156,43.945,19.531,24.902,-9.766,0
1556039060.523,38.086,41.504,20.996,25.391,7.324,0
1556039060.525,38.086,45.898,20.996,20.996,1.953,0
1556039060.529,26.855,46.387,19.531,17.090,-31.250,0
1556039060.533,17.090,38.086,15.137,22.461,16.602,0
1556039060.537,15.137,36.621,13.184,17.090,5.371,0
1556039060.541,14.160,39.062,18.066,2.930,-7.324,0
1556039060.545,10.742,38.086,21.973,-2.441,67.383,0
1556039060.549,15.625,37.109,24.414,4.883,75.684,0
1556039060.552,22.461,32.715,27.832,8.301,19.531,0
1556039060.556,18.555,32.715,28.320,12.695,-5.859,0
1556039060.560,12.207,43.457,28.320,16.113,39.062,0
1556039060.564,5.859,35.645,20.020,7.324,28.809,0
1556039060.568,12.695,22.949,12.207,0.977,33.203,0
1556039060.585,16.602,28.320,12.695,-2.441,80.078,0
1556039060.589,8.789,34.180,16.113,4.395,69.824,0
1556039060.593,-0.488,38.086,18.066,11.230,-8.789,0
1556039060.597,3.906,41.504,20.020,17.090,27.832,0
1556039060.601,19.531,40.527,25.391,23.438,61.523,0
1556039060.605,22.461,38.086,27.832,22.461,21.484,0
1556039060.609,27.344,38.086,25.879,26.855,6.836,0
1556039060.612,37.109,42.480,21.484,32.227,8.789,0
1556039060.616,41.992,48.828,20.020,32.715,42.969,0
1556039060.620,37.109,44.922,26.855,20.020,40.527,0
1556039060.624,21.973,32.715,34.180,7.324,27.832,0
1556039060.628,18.555,33.203,33.203,13.184,12.695,0
1556039060.630,26.367,40.527,27.344,18.066,-1.953,0
1556039060.634,28.809,44.434,24.414,16.113,5.371,0
1556039060.638,27.344,46.387,25.391,17.578,33.203,0
1556039060.642,20.508,41.992,22.461,20.508,60.547,0
1556039060.646,28.320,37.598,22.461,20.508,18.555,0
1556039060.650,36.621,41.504,23.438,27.344,-6.348,0
1556039060.654,31.738,43.945,19.043,34.668,13.184,0
1556039060.657,26.855,38.574,17.090,33.203,2.930,0
1556039060.661,29.297,42.969,22.461,35.156,30.762,0
1556039060.665,31.738,40.039,36.133,40.039,29.297,0
1556039060.669,30.762,31.250,31.738,33.203,16.602,0
1556039060.673,20.996,36.621,25.391,27.832,29.297,0
1556039060.675,19.531,42.969,25.879,17.578,10.742,0
1556039060.679,24.414,44.434,24.902,8.789,8.301,0
1556039060.683,18.555,45.898,21.484,12.207,50.293,0
1556039060.687,10.742,49.805,19.043,16.113,63.477,0
1556039060.691,17.090,50.293,20.508,18.066,7.324,0
1556039060.695,23.438,44.922,21.484,13.184,-18.555,0
1556039060.699,28.809,40.039,22.949,13.672,18.555,0
1556039060.702,25.391,39.551,25.391,20.020,55.176,0
1556039060.706,15.625,35.645,24.414,16.113,18.555,0
1556039060.710,17.090,32.227,20.020,12.207,29.785,0
1556039060.714,17.090,33.691,16.113,6.836,53.223,0
1556039060.718,15.137,34.180,13.672,-2.441,13.184,0
1556039060.720,16.602,34.180,12.207,3.418,-14.160,0
1556039060.724,28.809,33.691,7.324,14.160,8.301,0
1556039060.728,41.504,42.480,4.395,23.438,21.973,0
1556039060.732,34.180,49.316,11.230,27.832,8.789,0
1556039060.736,22.949,43.945,20.020,26.367,54.199,0
1556039060.740,22.461,41.504,22.949,25.391,50.293,0
1556039060.744,15.625,44.922,24.414,17.578,4.883,0
1556039060.747,5.859,44.922,23.926,12.207,44.922,0
1556039060.751,2.441,44.434,22.461,13.672,93.262,0
1556039060.755,9.277,49.805,18.555,24.902,39.551,0
1556039060.759,11.230,49.805,12.695,23.926,-1.953,0
1556039060.763,11.230,48.340,14.160,2.441,42.480,0
1556039060.765,8.301,52.246,14.160,-10.254,33.691,0
1556039060.769,3.906,54.199,13.672,-15.625,-13.184,0
1556039060.773,2.930,54.199,17.578,-17.578,5.859,0
1556039060.777,0.977,47.363,24.902,-16.113,33.691,0
1556039060.781,-9.766,43.457,27.344,-21.973,-23.926,0
1556039060.785,-34.668,39.062,27.832,-37.109,-37.598,0
1556039060.789,-39.551,42.480,27.344,-42.480,49.316,0
1556039060.792,-43.457,50.293,18.555,-53.711,71.777,0
1556039060.796,-63.477,44.922,24.414,-59.570,18.066,0
1556039060.800,-78.613,40.527,30.762,-58.594,-53.223,0
1556039060.804,-76.660,42.969,37.109,-56.152,-1.953,0
1556039060.808,-73.242,43.457,41.016,-58.105,65.430,0
1556039060.810,-73.730,46.875,36.133,-62.988,61.523,0
1556039060.814,-70.801,43.457,36.621,-62.988,41.992,0
1556039060.818,-74.219,35.645,41.016,-71.777,35.645,0
1556039060.822,-76.172,34.180,39.551,-71.777,-11.230,0
1556039060.826,-76.660,35.156,39.062,-69.824,-40.039,0
1556039060.830,-65.918,39.062,44.922,-62.500,60.059,0
1556039060.834,-63.965,38.574,47.852,-57.129,46.387,0
1556039060.837,-74.219,41.016,47.852,-69.336,22.461,0
1556039060.841,-83.008,43.457,41.504,-78.125,75.195,0
1556039060.845,-75.195,44.922,30.273,-74.219,72.266,0
1556039060.849,-73.730,47.363,37.109,-71.777,37.598,0
1556039060.853,-86.426,39.062,45.410,-87.891,11.719,0
1556039060.855,-74.219,37.598,43.457,-84.961,55.176,0
1556039060.859,-54.688,42.969,43.945,-68.848,96.191,0
1556039060.863,-64.453,44.434,28.320,-77.148,25.879,0
1556039060.867,-76.172,39.551,26.367,-80.078,-10.742,0
1556039060.871,-72.754,36.133,33.203,-75.195,9.277,0
1556039060.875,-62.012,41.504,24.414,-75.195,21.484,0
1556039060.879,-47.852,39.551,20.020,-69.336,46.875,0
1556039060.882,-43.457,36.133,27.344,-63.477,14.160,0
1556039060.886,-42.969,38.574,34.180,-58.594,-34.180,0
1556039060.890,-36.133,38.574,30.273,-52.246,2.930,0
1556039060.894,-39.551,37.109,26.855,-51.758,33.691,0
1556039060.898,-38.574,36.621,20.020,-45.410,4.883,0
1556039060.900,-23.926,37.598,19.531,-35.645,-6.836,0
1556039060.904,-20.996,30.273,31.738,-30.273,39.551,0
1556039060.908,-16.113,21.973,26.855,-20.996,46.875,0
1556039060.912,1.465,18.555,15.137,-3.418,-10.742,0
1556039060.916,14.160,17.578,12.207,5.371,1.465,0
1556039060.920,26.367,21.484,14.160,13.672,42.969,0
1556039060.924,18.066,18.555,15.137,18.066,35.645,0
1556039060.927,10.742,22.461,8.301,26.367,20.020,0
1556039060.931,20.996,30.762,0.488,38.574,16.602,0
1556039060.935,27.344,29.297,-4.883,39.551,11.230,0
1556039060.939,31.738,32.715,-4.395,31.738,3.906,0
1556039060.943,29.297,35.645,1.465,27.344,62.988,0
1556039060.960,28.320,38.574,0.000,28.320,2.441,0
1556039060.964,34.180,37.109,0.488,20.996,-63.965,0
1556039060.968,47.852,31.738,3.906,25.879,10.254,0
1556039060.972,56.152,41.504,2.930,33.691,34.180,0
1556039060.976,52.734,47.363,-5.371,27.344,34.668,0
1556039060.980,46.875,40.527,-9.277,23.438,57.129,0
1556039060.984,52.734,42.480,-7.324,27.344,39.062,0
1556039060.987,49.316,48.828,-9.277,29.297,30.762,0
1556039060.991,48.340,45.410,-14.648,36.621,47.852,0
1556039060.995,63.965,46.875,-19.531,44.434,89.355,0
1556039060.999,80.566,49.316,-16.113,48.828,80.078,0
1556039061.003,92.285,42.969,-4.395,53.223,22.949,0
1556039061.005,93.750,40.039,-2.930,55.176,19.531,0
1556039061.009,91.797,47.363,-3.906,65.918,22.461,0
1556039061.013,90.332,52.734,4.883,75.195,-29.297,0
1556039061.017,85.449,47.363,9.277,76.660,2.930,0
1556039061.021,76.172,44.434,9.766,75.195,62.988,0
1556039061.025,74.219,41.504,4.883,74.707,69.336,0
1556039061.029,72.266,44.434,0.977,70.801,38.086,0
1556039061.032,73.730,48.340,5.371,68.359,37.109,0
1556039061.036,74.219,46.875,10.254,65.430,35.645,0
1556039061.040,60.547,46.875,0.000,55.176,-16.113,0
1556039061.044,52.246,44.434,-5.371,53.223,-21.973,0
1556039061.048,58.105,41.016,-1.465,55.176,-27.832,0
1556039061.050,59.082,41.016,-4.395,51.270,15.137,0
1556039061.054,47.852,36.621,5.859,52.734,23.926,0
1556039061.058,46.387,32.715,5.859,55.176,-12.207,0
1556039061.062,54.199,31.250,-4.883,51.758,54.199,0
1556039061.066,58.105,30.273,6.348,49.316,43.457,0
1556039061.070,53.711,41.016,13.184,53.711,28.320,0
1556039061.074,58.105,45.898,10.254,62.500,49.316,0
1556039061.077,68.848,42.480,4.883,67.383,39.062,0
1556039061.081,80.078,45.898,-5.859,69.824,50.781,0
1556039061.085,82.031,49.316,-11.230,68.848,25.391,0
1556039061.089,78.125,48.340,-8.789,61.523,41.016,0
1556039061.093,86.914,47.852,3.418,60.059,71.777,0
1556039061.095,87.891,48.340,8.301,58.594,-14.160,0
1556039061.099,76.660,46.875,-2.441,63.477,-40.039,0
1556039061.103,68.848,43.457,6.348,71.289,24.902,0
1556039061.107,72.754,43.945,17.578,72.266,36.133,0
1556039061.111,79.102,42.969,14.648,69.824,28.320,0
1556039061.115,73.242,38.086,9.766,61.523,41.992,0
1556039061.119,63.965,39.062,2.441,61.035,30.762,0
1556039061.122,59.570,41.016,-1.953,56.152,39.551,0
1556039061.126,62.012,38.086,5.859,42.969,26.855,0
1556039061.130,54.688,40.527,10.742,36.133,-2.441,0
1556039061.134,40.527,45.410,9.766,30.273,5.371,0
1556039061.138,28.809,41.016,13.672,32.227,-8.301,0
1556039061.140,30.762,39.062,13.672,34.180,10.254,0
1556039061.144,41.504,39.551,7.324,38.086,33.203,0
1556039061.148,38.574,34.668,6.836,42.969,-3.906,0
1556039061.152,34.668,32.227,16.602,47.852,19.531,0
1556039061.156,33.691,36.133,21.484,45.898,76.660,0
1556039061.160,34.180,39.062,17.578,41.992,4.395,0
1556039061.164,37.109,37.598,17.578,45.410,-27.344,0
1556039061.167,27.832,35.156,15.137,47.852,34.668,0
1556039061.171,20.020,32.715,17.090,43.457,40.527,0
1556039061.175,24.902,29.785,25.879,33.203,22.461,0
1556039061.179,28.809,28.320,28.320,30.762,-0.977,0
1556039061.183,31.738,30.273,20.996,41.504,4.395,0
1556039061.185,30.762,32.715,17.578,35.645,-12.695,0
1556039061.189,37.598,32.715,21.973,29.785,-45.898,0
1556039061.193,48.828,31.250,29.297,41.016,-17.090,0
1556039061.197,45.898,35.156,38.086,40.527,-0.488,0
1556039061.201,35.645,40.039,36.133,34.180,-21.484,0
1556039061.205,38.086,42.480,34.668,30.762,12.207,0
1556039061.209,44.434,44.922,32.715,32.715,74.707,0
1556039061.212,40.039,41.504,24.414,23.926,24.414,0
1556039061.216,28.320,36.133,17.090,17.090,-57.617,0
1556039061.220,25.391,36.621,24.414,22.949,-16.602,0
1556039061.224,27.832,33.691,35.645,22.461,13.672,0
1556039061.228,20.508,25.879,40.039,21.973,27.344,0
1556039061.230,19.043,25.391,47.363,23.926,-27.832,0
1556039061.234,17.090,29.785,48.340,28.320,-26.855,0
1556039061.238,14.160,34.668,42.969,35.645,55.664,0
1556039061.242,26.367,39.062,41.992,42.969,43.457,0
1556039061.246,38.086,40.527,40.039,46.387,-4.883,0
1556039061.250,34.180,39.551,31.250,43.945,16.113,2
1556039061.254,42.969,42.480,21.973,41.016,26.855,0
1556039061.257,56.152,41.016,29.297,40.527,23.438,0
1556039061.261,41.016,32.715,39.062,28.320,19.043,0
1556039061.265,34.180,31.250,36.133,22.461,30.762,0
1556039061.269,44.434,28.809,37.109,23.926,36.133,0
1556039061.273,37.109,29.785,42.480,22.461,29.785,0
1556039061.275,25.879,35.156,46.387,20.508,4.395,0
1556039061.279,19.531,36.621,38.574,13.672,14.160,0
1556039061.283,29.785,42.480,34.668,6.836,21.973,0
1556039061.287,36.133,38.574,44.922,7.324,10.742,0
1556039061.291,19.531,37.598,49.316,12.207,87.891,0
1556039061.295,9.766,43.945,44.922,14.648,66.406,0
1556039061.299,12.207,38.574,45.410,9.766,21.484,0
1556039061.302,20.996,36.133,49.316,13.672,67.871,0
1556039061.306,23.926,35.156,48.828,18.066,53.223,0
1556039061.310,6.348,30.762,46.387,18.066,37.109,0
1556039061.314,-5.371,27.344,47.852,27.344,61.035,0
1556039061.318,0.977,28.320,46.387,30.762,72.266,0
1556039061.335,10.742,37.598,39.551,31.250,52.734,0
1556039061.339,3.418,35.156,29.785,25.879,17.578,0
1556039061.343,-0.977,20.996,29.785,16.602,44.922,0
1556039061.347,11.230,25.879,38.086,16.602,31.738,0
1556039061.351,13.184,38.086,37.109,8.789,30.762,0
1556039061.355,11.719,39.551,29.297,6.348,15.137,0
1556039061.359,10.254,41.992,25.391,12.695,-10.254,0
1556039061.362,11.719,44.922,31.250,18.066,18.066,0
1556039061.366,20.508,46.387,32.715,21.973,54.199,0
1556039061.370,18.555,42.480,30.762,11.719,68.848,0
1556039061.374,20.020,40.527,37.598,2.930,14.160,0
1556039061.378,24.414,43.945,37.109,-0.488,20.996,0
1556039061.380,26.855,44.922,31.738,-5.859,73.730,0
1556039061.384,19.531,36.133,34.668,-4.395,45.898,0
1556039061.388,0.488,26.855,34.668,-5.859,13.672,0
1556039061.392,-4.883,26.855,27.832,-7.812,10.742,0
1556039061.396,-5.859,22.949,33.691,-15.625,62.500,0
1556039061.400,-13.672,15.137,46.875,-22.949,96.191,0
1556039061.404,-12.695,17.090,45.898,-15.137,-24.902,0
1556039061.407,-6.348,27.344,36.133,-18.555,-58.594,0
1556039061.411,-5.859,29.785,34.668,-18.555,-12.695,0
1556039061.415,-2.441,28.320,33.691,-16.602,-21.973,0
1556039061.419,2.441,27.344,35.645,-15.625,-20.508,0
1556039061.423,5.859,28.809,45.898,0.000,23.438,0
1556039061.425,6.348,30.762,35.645,9.277,32.227,0
1556039061.429,12.695,31.738,32.227,16.113,40.039,0
1556039061.433,10.742,32.715,43.457,20.996,24.902,0
1556039061.437,-1.953,25.879,45.898,21.484,-12.695,0
1556039061.441,0.488,22.949,40.039,25.879,-48.340,0
1556039061.445,14.648,24.414,27.832,27.344,-33.691,0
1556039061.449,21.484,24.414,28.809,27.344,54.688,0
1556039061.452,13.184,27.832,33.203,27.832,34.668,0
1556039061.456,8.789,31.738,25.879,18.066,-16.602,0
1556039061.460,13.184,37.598,29.297,9.277,43.945,0
1556039061.464,21.484,39.062,34.668,18.066,53.223,0
1556039061.468,15.625,35.156,26.855,20.996,14.648,0
1556039061.470,3.906,33.691,25.391,12.207,17.578,0
1556039061.474,13.184,29.785,30.762,2.930,68.848,0
1556039061.478,23.926,29.785,28.320,4.395,56.152,0
1556039061.482,20.996,29.785,32.227,9.766,49.316,0
1556039061.486,13.672,31.738,37.598,7.324,41.016,0
1556039061.490,13.184,35.156,30.762,9.277,32.715,0
1556039061.494,18.555,36.133,28.809,11.230,59.570,0
1556039061.497,17.090,41.016,25.879,13.672,44.434,0
1556039061.501,16.602,40.527,30.762,19.531,14.648,0
1556039061.505,13.184,38.574,38.086,18.066,-5.371,0
1556039061.509,13.184,38.574,26.855,10.254,8.789,0
1556039061.513,10.742,31.738,25.879,13.184,35.645,0
1556039061.515,1.953,26.367,38.086,19.531,-20.020,0
1556039061.519,2.930,27.832,38.574,13.184,-6.348,0
1556039061.523,11.719,33.203,30.762,11.719,13.672,0
1556039061.527,11.719,40.527,29.297,8.301,17.578,0
1556039061.531,5.859,43.457,29.785,0.977,44.434,0
1556039061.535,12.695,42.480,29.297,0.000,3.906,0
1556039061.539,23.438,38.574,32.715,0.000,-16.602,0
1556039061.542,34.668,32.227,33.203,-0.977,7.812,0
1556039061.546,29.297,32.227,31.250,1.953,36.621,0
1556039061.550,19.531,32.715,26.855,15.137,61.523,0
1556039061.554,24.414,36.621,27.832,20.508,44.922,0
1556039061.558,29.297,43.457,24.414,15.137,60.547,0
1556039061.560,24.414,44.922,22.949,9.277,51.758,0
1556039061.564,16.602,43.945,25.879,7.812,15.137,0
1556039061.568,19.531,43.457,21.973,3.418,45.410,0
1556039061.572,23.926,44.922,24.902,6.348,63.965,0
1556039061.576,29.297,48.828,29.785,9.277,22.949,0
1556039061.580,30.762,43.457,34.180,7.324,19.531,0
1556039061.584,35.156,35.156,38.086,18.066,15.625,0
1556039061.587,43.945,37.598,32.715,21.973,20.020,0
1556039061.591,44.922,41.504,29.785,22.461,13.672,0
1556039061.595,36.621,41.992,33.691,30.273,-17.578,0
1556039061.599,23.438,41.992,33.203,32.227,-7.812,0
1556039061.603,29.297,40.527,22.949,31.738,9.277,0
1556039061.605,38.086,39.062,23.926,33.691,-18.555,0
1556039061.609,29.785,39.062,35.645,34.180,-12.695,0
1556039061.613,24.902,39.062,36.133,41.016,20.020,0
1556039061.617,23.438,34.180,31.250,45.898,-0.977,0
1556039061.621,21.484,33.691,26.367,28.320,-18.066,0
1556039061.625,23.438,41.016,27.344,21.484,31.738,0
1556039061.629,21.973,40.039,28.320,26.367,34.668,0
1556039061.632,26.367,33.691,33.203,27.344,-31.738,0
1556039061.636,33.691,40.527,34.668,28.320,-5.859,0
1556039061.640,36.133,45.410,28.809,26.367,-11.719,0
1556039061.644,29.297,41.992,32.715,21.973,28.320,0
1556039061.648,26.855,40.039,33.203,16.602,56.641,0
1556039061.650,29.785,38.574,30.273,18.555,4.395,0
1556039061.654,20.996,38.574,33.203,20.996,67.383,0
1556039061.658,22.461,45.898,30.273,24.414,53.711,0
1556039061.662,25.391,51.270,25.879,20.996,2.930,0
1556039061.666,22.949,46.875,29.297,15.625,-2.441,0
1556039061.670,27.344,37.598,27.832,20.508,14.648,0
1556039061.674,27.344,31.250,19.531,26.855,84.473,0
1556039061.677,23.926,37.109,8.301,38.086,84.473,0
1556039061.681,19.043,35.156,10.254,34.668,11.230,0
1556039061.685,17.578,30.762,21.484,26.367,-6.836,0
1556039061.689,22.461,35.645,30.273,22.949,-0.488,0
1556039061.693,25.879,43.457,30.762,11.230,28.320,0
1556039061.710,20.996,46.875,25.391,8.301,81.543,0
1556039061.714,26.855,46.875,28.320,20.020,54.688,0
1556039061.718,28.320,41.992,31.250,29.297,36.621,0
1556039061.722,21.973,39.062,30.762,37.109,-14.160,0
1556039061.726,23.438,37.598,23.438,41.016,-25.391,0
1556039061.730,21.973,36.133,22.949,32.715,39.551,0
1556039061.734,20.996,35.645,32.715,22.949,0.000,0
1556039061.737,13.184,35.156,34.668,17.578,20.508,0
1556039061.741,3.906,38.574,35.645,21.973,10.742,0
1556039061.745,0.000,38.574,27.344,25.391,-40.039,0
1556039061.749,9.277,36.621,23.926,19.531,19.043,0
1556039061.753,18.555,36.621,27.832,21.484,30.762,0
1556039061.755,22.949,36.133,26.367,34.668,8.301,0
1556039061.759,18.555,31.250,31.250,38.086,9.277,0
1556039061.763,20.020,32.227,37.598,31.250,-20.996,0
1556039061.767,31.738,37.109,36.133,29.297,-43.945,0
1556039061.771,28.809,37.598,28.809,25.879,10.742,0
1556039061.775,23.926,37.598,18.066,15.137,42.480,0
1556039061.779,17.578,42.969,9.766,16.113,3.906,0
1556039061.782,12.207,43.457,12.207,21.484,11.230,0
1556039061.786,13.184,41.992,19.531,22.461,19.043,0
1556039061.790,9.277,46.875,20.996,20.996,22.949,0
1556039061.794,20.508,48.340,22.461,18.555,6.348,0
1556039061.798,29.785,41.016,28.320,21.484,0.000,0
1556039061.800,25.391,34.668,28.809,26.367,40.039,0
1556039061.804,18.555,35.645,26.855,24.902,15.137,0
1556039061.808,25.391,39.551,23.926,28.809,44.434,0
1556039061.812,24.414,41.992,21.973,32.715,37.598,0
1556039061.816,13.672,36.133,29.785,25.391,3.418,0
1556039061.820,6.348,33.691,30.273,11.230,53.711,0
1556039061.824,0.000,37.109,23.438,0.000,39.062,0
1556039061.827,12.207,38.086,19.531,1.953,48.828,0
1556039061.831,21.973,38.086,19.531,5.859,31.738,0
1556039061.835,26.855,36.133,20.020,9.766,0.488,0
1556039061.839,27.344,34.668,21.484,18.555,15.137,0
1556039061.843,28.320,33.691,28.809,29.297,38.086,0
1556039061.845,31.250,32.715,34.668,32.227,-5.371,0
1556039061.849,21.484,32.715,25.391,20.508,14.648,0
1556039061.853,17.578,36.621,20.020,15.137,7.812,0
1556039061.857,18.066,38.574,27.344,10.254,-44.434,0
1556039061.861,15.625,37.598,23.438,5.371,-26.367,0
1556039061.865,15.137,39.062,17.090,6.348,18.555,0
1556039061.869,8.301,33.203,21.484,7.324,-3.906,0
1556039061.872,10.254,28.809,26.367,8.789,20.020,0
1556039061.876,20.508,31.250,17.090,12.695,34.668,0
1556039061.880,20.996,32.227,12.207,20.508,31.738,0
1556039061.884,18.066,34.668,27.832,20.508,46.875,0
1556039061.888,19.043,34.180,41.016,14.160,24.902,0
1556039061.890,26.855,33.203,36.621,4.883,9.766,0
1556039061.894,24.902,38.086,31.738,8.789,-14.648,0
1556039061.898,16.602,40.039,30.273,16.602,17.578,0
1556039061.902,10.742,32.227,26.855,14.160,48.340,0
1556039061.906,16.113,31.250,26.367,17.090,37.598,0
1556039061.910,21.973,34.180,25.879,20.020,10.742,0
1556039061.914,19.531,35.645,19.531,19.043,12.695,0
1556039061.917,19.531,41.504,18.555,21.973,5.859,0
1556039061.921,19.043,39.551,32.227,21.484,-22.461,0
1556039061.925,20.020,36.133,38.086,8.789,-0.977,0
1556039061.929,22.949,36.133,31.250,-0.977,19.043,0
1556039061.933,22.949,38.574,29.785,2.930,37.109,0
1556039061.935,22.949,40.039,32.227,6.348,43.457,0
1556039061.939,23.438,37.109,29.297,3.418,23.438,0
1556039061.943,16.602,35.156,25.391,-1.465,39.551,0
1556039061.947,15.625,35.156,26.855,-5.371,22.949,0
1556039061.951,18.555,36.133,26.855,-7.324,21.973,0
1556039061.955,11.719,36.621,15.137,-12.207,52.246,0
1556039061.959,11.719,34.668,8.301,-13.672,47.852,0
1556039061.962,9.766,38.086,13.184,-11.719,50.781,0
1556039061.966,-0.488,39.551,21.484,-9.277,64.941,0
1556039061.970,2.930,40.039,25.879,-8.301,63.965,0
1556039061.974,11.719,38.086,27.832,-3.906,34.668,0
1556039061.978,12.207,32.227,24.902,4.883,65.918,0
1556039061.981,13.672,32.227,21.484,16.602,22.949,0
1556039061.985,22.461,37.598,23.438,24.414,33.691,0
1556039061.989,33.203,36.621,24.414,31.738,65.918,0
1556039061.993,24.414,30.762,25.879,33.203,20.508,0
1556039061.997,11.719,38.086,28.809,28.320,36.621,0
1556039062.001,20.020,46.387,25.391,27.832,38.574,0
1556039062.005,30.273,47.363,25.879,28.809,8.301,0
1556039062.008,27.344,44.434,31.250,30.273,16.602,0
1556039062.012,20.996,39.551,34.180,29.297,13.184,0
1556039062.016,14.160,33.203,36.133,20.996,12.695,0
1556039062.020,14.160,26.855,33.691,16.602,48.340,0
1556039062.024,18.555,31.250,31.738,17.578,43.945,0
1556039062.025,12.695,34.180,33.691,13.184,15.625,0
1556039062.029,3.906,34.180,29.297,13.672,76.660,0
1556039062.033,2.930,40.039,21.973,7.324,117.676,0
1556039062.037,8.301,45.410,24.902,-10.254,33.691,0
1556039062.041,13.184,44.434,23.438,-10.742,4.395,0
1556039062.045,4.395,41.992,20.996,-2.441,34.668,0
1556039062.049,-4.883,38.574,26.855,-10.254,34.180,0
