timestamps,TP9,AF7,AF8,TP10,Marker0
1582221696.444,20.996,35.645,17.090,37.598,0
1582221696.448,29.785,27.344,19.043,31.738,0
1582221696.452,25.879,25.391,18.555,31.250,0
1582221696.456,15.137,31.738,16.113,41.504,0
1582221696.460,3.906,40.039,17.090,46.875,0
1582221696.464,9.277,37.598,18.555,20.996,0
1582221696.468,16.113,30.273,19.043,22.949,0
1582221696.471,-2.930,35.156,19.531,35.156,0
1582221696.475,-1.953,37.598,18.555,24.414,0
1582221696.479,14.160,37.598,17.090,15.625,0
1582221696.483,2.441,35.156,17.578,16.113,0
1582221696.487,-2.930,23.438,20.020,25.879,0
1582221696.489,4.883,25.879,22.949,22.461,0
1582221696.493,5.371,31.250,22.949,18.066,0
1582221696.497,8.301,33.691,22.461,15.137,0
1582221696.501,10.254,44.434,22.461,23.438,0
1582221696.505,8.301,42.480,21.973,30.273,0
1582221696.509,20.996,33.691,23.926,26.855,0
1582221696.513,19.043,26.855,25.879,20.996,0
1582221696.516,10.742,31.738,20.996,19.043,0
1582221696.520,4.395,42.969,19.531,29.785,0
1582221696.524,17.578,41.016,21.484,16.113,0
1582221696.528,33.691,32.715,22.461,8.301,0
1582221696.532,21.973,33.203,20.020,16.602,0
1582221696.535,7.812,40.527,15.625,24.414,0
1582221696.539,3.418,34.668,18.066,26.855,0
1582221696.543,18.555,34.668,20.996,12.207,0
1582221696.547,12.207,40.527,20.508,9.766,0
1582221696.551,-7.324,33.203,21.484,14.160,0
1582221696.555,-0.977,34.180,19.043,19.043,0
1582221696.559,8.789,32.715,19.531,20.996,0
1582221696.562,9.277,27.832,23.438,14.160,0
1582221696.566,7.812,29.785,26.367,3.906,0
1582221696.570,4.883,27.344,25.879,17.090,0
1582221696.574,3.418,24.902,27.832,23.438,0
1582221696.578,1.465,35.156,29.785,4.883,0
1582221696.579,0.000,38.086,28.809,7.324,0
1582221696.583,-1.953,29.785,27.344,20.020,0
1582221696.587,4.395,26.855,30.762,13.184,0
1582221696.591,7.812,33.691,28.809,6.348,0
1582221696.595,17.578,34.668,21.973,10.254,0
1582221696.599,20.508,38.574,21.484,12.207,0
1582221696.603,16.602,38.574,19.531,15.137,0
1582221696.606,29.785,35.645,18.555,10.742,0
1582221696.610,28.320,37.109,20.508,7.324,0
1582221696.614,22.949,41.504,20.508,15.137,0
1582221696.618,17.578,44.922,20.996,12.695,0
1582221696.622,1.953,41.016,23.438,-1.465,0
1582221696.640,1.465,36.133,25.879,-5.859,0
1582221696.644,5.371,31.250,23.438,5.371,0
1582221696.648,3.906,36.621,21.484,15.137,0
1582221696.652,11.719,43.457,21.484,4.883,0
1582221696.656,24.414,35.156,26.367,-4.395,0
1582221696.660,6.836,35.645,27.344,6.836,0
1582221696.664,-2.441,36.621,25.879,10.254,0
1582221696.667,0.000,30.273,28.320,11.230,0
1582221696.671,-2.441,37.598,22.949,2.930,0
1582221696.675,-4.395,43.457,18.555,-2.441,0
1582221696.679,-5.371,42.969,22.949,12.695,0
1582221696.683,0.000,29.785,22.949,24.414,0
1582221696.685,5.371,31.250,22.461,10.742,0
1582221696.689,-11.230,48.828,23.926,-4.883,0
1582221696.693,-13.672,37.109,23.926,6.836,0
1582221696.697,-4.395,37.109,21.973,13.672,0
1582221696.701,5.371,38.574,22.949,16.602,0
1582221696.705,17.090,33.203,22.949,13.184,0
1582221696.709,1.465,48.828,19.043,5.859,0
1582221696.712,-1.953,48.828,16.602,8.301,0
1582221696.716,-1.953,47.852,20.996,-1.465,0
1582221696.720,-6.836,42.969,20.508,-14.648,0
1582221696.724,0.000,42.480,19.531,-7.324,0
1582221696.728,-1.465,48.340,25.391,2.441,0
1582221696.731,-7.812,42.480,26.367,1.465,0
1582221696.735,-12.695,34.180,23.926,-7.812,0
1582221696.739,-11.719,35.156,22.461,-13.184,0
1582221696.743,-20.508,32.715,20.508,-2.441,0
1582221696.747,-20.996,24.902,17.090,-1.953,0
1582221696.751,-3.906,36.133,15.625,-9.277,0
1582221696.755,-4.395,36.133,16.113,-13.184,0
1582221696.758,-13.672,32.715,15.137,-7.324,0
1582221696.762,-17.578,32.715,20.020,11.719,0
1582221696.766,-11.719,31.250,22.461,12.207,0
1582221696.770,-5.371,34.668,20.508,0.000,0
1582221696.774,0.000,44.434,20.020,20.508,0
1582221696.775,8.301,45.410,20.508,30.762,0
1582221696.779,8.301,40.527,20.508,20.996,0
1582221696.783,6.836,36.133,20.996,12.207,0
1582221696.787,5.859,24.414,20.996,11.230,0
1582221696.791,-2.441,31.250,22.461,13.672,0
1582221696.795,-5.859,43.945,20.020,12.207,0
1582221696.799,0.000,38.086,19.043,9.766,0
1582221696.802,-0.977,35.645,20.996,0.000,0
1582221696.806,-6.348,33.203,21.484,4.395,0
1582221696.810,-0.977,30.273,17.090,13.672,0
1582221696.814,17.578,27.344,14.648,8.789,0
1582221696.818,5.371,30.762,15.137,-0.977,0
1582221696.821,-1.465,40.527,15.137,6.348,0
1582221696.825,18.066,36.621,18.555,27.344,0
1582221696.829,5.859,29.785,17.578,22.949,0
1582221696.833,10.254,43.457,14.160,5.371,0
1582221696.837,22.949,52.246,12.695,12.207,0
1582221696.841,21.973,44.434,16.602,13.184,0
1582221696.845,24.902,37.598,19.043,13.672,0
1582221696.848,25.879,37.109,19.043,17.578,0
1582221696.852,19.043,34.668,18.066,9.277,0
1582221696.856,23.438,40.527,17.578,11.719,0
1582221696.860,29.785,50.781,17.578,-0.488,0
1582221696.864,12.207,47.363,17.090,-18.555,0
1582221696.865,13.672,42.969,18.555,-8.301,0
1582221696.869,25.879,23.926,20.020,6.836,0
1582221696.873,17.578,27.344,18.555,4.883,0
1582221696.877,8.789,51.758,20.020,-7.812,0
1582221696.881,19.043,46.387,21.484,-7.324,0
1582221696.885,24.414,40.527,23.438,13.672,0
1582221696.889,18.555,43.457,24.902,21.484,0
1582221696.892,20.996,43.457,21.484,12.695,0
1582221696.896,22.461,36.621,21.484,5.859,0
1582221696.900,19.043,30.273,21.973,14.160,0
1582221696.904,25.391,40.039,25.391,29.297,0
1582221696.908,31.738,44.434,25.391,28.809,0
1582221696.911,29.785,30.762,28.809,29.785,0
1582221696.915,20.508,37.109,29.297,31.250,0
1582221696.919,10.254,37.598,27.344,31.250,0
1582221696.923,17.090,34.180,29.785,33.691,0
1582221696.927,28.320,48.340,27.832,23.926,0
1582221696.931,20.508,43.457,27.344,11.719,0
1582221696.935,4.395,38.086,28.320,6.836,0
1582221696.938,4.883,44.922,29.297,8.301,0
1582221696.942,12.207,38.086,27.832,4.883,0
1582221696.946,15.625,32.715,26.855,4.395,0
1582221696.950,9.766,41.016,26.855,7.812,0
1582221696.954,-0.977,38.086,26.367,4.395,0
1582221696.955,-4.395,40.039,24.902,0.488,0
1582221696.959,3.906,46.387,24.902,-2.930,0
1582221696.963,16.113,40.039,25.879,-6.836,0
1582221696.967,9.766,32.227,24.902,2.930,0
1582221696.971,4.395,40.039,23.926,0.488,0
1582221696.975,16.602,42.969,23.926,-1.953,0
1582221696.979,10.742,37.598,25.879,-4.883,0
1582221696.982,0.977,28.320,28.320,-0.488,0
1582221696.986,2.930,40.527,26.855,11.719,0
1582221696.990,16.113,49.316,26.367,1.953,0
1582221696.994,6.348,33.203,27.832,3.418,0
1582221696.998,5.371,33.691,28.809,23.926,0
1582221697.000,18.066,42.480,26.367,23.438,0
1582221697.004,29.785,46.387,22.949,18.555,0
1582221697.008,31.738,43.945,22.461,6.348,0
1582221697.012,23.926,35.156,23.926,7.324,0
1582221697.016,16.602,34.180,26.367,20.020,0
1582221697.020,14.648,35.156,25.879,19.043,0
1582221697.024,26.855,36.621,27.832,9.277,0
1582221697.027,29.785,33.691,31.250,6.836,0
1582221697.031,17.090,42.969,32.227,23.926,0
1582221697.035,6.348,59.082,30.273,25.391,0
1582221697.039,13.672,54.199,27.832,13.184,0
1582221697.043,8.301,41.992,28.320,8.789,0
1582221697.061,-0.488,41.016,29.297,9.277,0
1582221697.065,9.766,43.945,27.832,13.672,0
1582221697.069,10.254,44.922,26.367,19.531,0
1582221697.073,9.766,42.969,26.367,19.531,0
1582221697.077,16.602,39.062,28.320,26.367,0
1582221697.081,4.883,38.574,31.738,37.109,0
1582221697.085,11.719,31.250,29.297,41.992,0
1582221697.088,26.367,23.926,25.879,22.949,0
1582221697.092,16.602,36.621,20.996,10.742,0
1582221697.096,16.113,50.293,16.602,34.668,0
1582221697.100,25.879,51.270,20.508,43.457,0
1582221697.104,13.672,48.828,23.926,29.297,0
1582221697.105,18.066,36.621,23.926,28.320,0
1582221697.109,21.484,38.086,23.926,39.062,0
1582221697.113,18.555,49.805,20.020,41.992,0
1582221697.117,25.391,42.969,21.973,32.715,0
1582221697.121,24.414,35.645,22.949,18.066,0
1582221697.125,26.367,38.574,20.020,22.949,0
1582221697.129,21.973,35.156,22.949,36.133,0
1582221697.132,16.113,21.484,23.438,25.391,0
1582221697.136,15.137,32.227,22.949,16.602,0
1582221697.140,17.090,39.551,20.508,20.996,0
1582221697.144,9.766,31.738,21.484,37.598,0
1582221697.148,8.789,24.414,23.438,31.250,0
1582221697.150,23.926,27.832,24.414,17.090,0
1582221697.154,24.902,41.016,25.391,14.160,0
1582221697.158,12.695,38.574,26.367,20.508,0
1582221697.162,-2.930,37.598,26.855,15.625,0
1582221697.166,1.465,41.016,25.391,11.230,0
1582221697.170,9.766,41.016,29.785,20.996,0
1582221697.174,-0.488,37.109,31.738,20.020,0
1582221697.177,4.883,36.621,27.832,20.996,0
1582221697.181,14.160,41.992,25.879,17.578,0
1582221697.185,16.602,43.945,26.367,13.184,0
1582221697.189,15.137,40.039,28.320,20.996,0
1582221697.193,11.719,40.039,28.320,15.137,0
1582221697.195,19.043,49.805,25.391,11.230,0
1582221697.199,23.438,45.898,22.461,9.766,0
1582221697.203,13.184,41.992,22.461,2.930,0
1582221697.207,11.719,45.410,20.508,9.766,0
1582221697.211,21.484,37.109,18.555,10.254,0
1582221697.215,22.461,40.527,22.461,4.883,0
1582221697.219,18.555,41.016,21.484,9.277,0
1582221697.222,2.441,34.668,20.996,14.160,0
1582221697.226,0.488,38.574,26.367,6.836,0
1582221697.230,18.555,39.551,26.367,0.488,0
1582221697.234,15.137,34.668,23.438,5.859,0
1582221697.238,5.859,24.902,23.438,11.230,0
1582221697.239,-1.465,30.762,23.926,1.953,0
1582221697.243,-10.254,43.457,28.320,-4.395,0
1582221697.247,-14.160,40.527,28.320,-4.395,0
1582221697.251,-21.484,36.133,27.832,1.465,0
1582221697.255,-26.367,33.691,29.785,3.418,0
1582221697.259,-19.531,31.738,28.320,5.371,0
1582221697.263,-4.395,37.598,29.297,2.930,0
1582221697.266,-7.812,35.156,28.809,-3.418,0
1582221697.270,-7.812,24.414,26.367,7.812,0
1582221697.274,-3.418,19.043,26.855,13.672,0
1582221697.278,-5.859,37.109,22.949,-9.766,0
1582221697.282,2.930,47.363,20.508,-13.672,0
1582221697.285,-8.301,37.598,21.484,-1.465,0
1582221697.289,-9.766,47.363,24.414,5.371,0
1582221697.293,11.230,43.457,22.949,1.953,0
1582221697.297,16.113,37.598,22.949,2.441,0
1582221697.301,17.578,43.945,25.391,5.371,0
1582221697.305,26.367,42.480,21.973,10.254,0
1582221697.309,27.344,40.039,21.973,16.113,0
1582221697.312,20.508,36.133,23.438,3.906,0
1582221697.316,16.602,30.762,21.484,10.254,0
1582221697.320,15.625,35.645,23.438,15.625,0
1582221697.324,15.625,40.039,25.879,1.465,0
1582221697.328,8.301,14.160,29.297,-4.395,0
1582221697.329,7.812,20.020,32.227,3.906,0
1582221697.333,1.953,50.781,28.320,15.625,0
1582221697.337,-7.324,40.527,25.879,6.348,0
1582221697.341,-0.488,34.180,27.832,3.418,0
1582221697.345,3.418,38.574,28.809,12.207,0
1582221697.349,1.465,31.250,28.809,18.066,0
1582221697.353,-3.906,30.762,29.297,18.066,0
1582221697.356,-16.113,31.250,27.344,-4.395,0
1582221697.360,-9.277,27.344,27.832,-8.301,0
1582221697.364,-7.812,32.715,29.297,13.672,0
1582221697.368,-7.812,28.809,29.297,20.020,0
1582221697.372,-9.766,32.715,26.855,14.160,0
1582221697.375,-7.324,37.109,27.344,5.859,0
1582221697.379,2.441,40.527,25.391,5.371,0
1582221697.383,12.207,28.320,24.902,11.719,0
1582221697.387,16.602,26.367,25.391,3.418,0
1582221697.391,14.648,44.922,24.414,1.953,0
1582221697.395,5.859,53.223,24.902,-4.395,0
1582221697.399,19.531,46.387,22.949,7.812,17025
1582221697.402,34.668,31.738,25.879,18.066,0
1582221697.406,25.391,41.016,27.344,6.836,0
1582221697.410,27.832,35.645,25.879,20.020,0
1582221697.414,10.742,31.738,24.414,25.391,0
1582221697.418,5.371,39.062,21.484,11.230,0
1582221697.434,20.020,34.668,21.484,12.207,0
1582221697.438,17.578,38.086,22.461,19.531,0
1582221697.442,6.836,37.598,20.020,17.578,0
1582221697.446,7.812,39.062,20.996,15.625,0
1582221697.450,19.531,20.508,25.879,18.555,0
1582221697.454,23.926,21.484,28.320,21.973,0
1582221697.458,2.441,41.016,27.344,17.578,0
1582221697.461,-6.836,41.504,27.344,14.160,0
1582221697.465,0.488,38.086,25.879,7.324,0
1582221697.469,-6.348,41.016,25.391,-11.719,0
1582221697.473,-18.555,42.480,25.391,-16.113,0
1582221697.477,-19.531,42.969,25.391,2.441,0
1582221697.480,-12.207,40.527,27.344,8.301,0
1582221697.484,-6.836,39.551,26.367,-14.160,0
1582221697.488,11.230,33.691,26.367,0.488,0
1582221697.492,-4.883,20.996,24.414,21.973,0
1582221697.496,-13.672,26.855,19.531,15.625,0
1582221697.500,6.348,34.668,17.090,7.812,0
1582221697.504,11.719,42.969,14.648,2.930,0
1582221697.507,14.160,38.574,12.695,13.184,0
1582221697.511,14.648,27.832,13.184,23.438,0
1582221697.515,22.949,28.809,13.672,2.441,0
1582221697.519,20.508,33.691,12.207,-5.371,0
1582221697.523,11.230,40.527,13.672,13.672,0
1582221697.525,28.320,40.527,16.602,23.438,0
1582221697.529,30.762,39.062,16.602,22.949,0
1582221697.533,31.738,39.551,13.184,14.648,0
1582221697.537,27.832,32.227,11.230,10.254,0
1582221697.541,15.625,21.973,14.160,7.324,0
1582221697.545,11.230,39.551,13.184,0.488,0
1582221697.549,17.090,44.434,13.672,-6.836,0
1582221697.552,15.137,35.156,19.043,-16.113,0
1582221697.556,-0.488,50.293,20.020,-12.207,0
1582221697.560,-14.160,50.293,19.531,-11.719,0
1582221697.564,1.465,43.457,22.461,-16.113,0
1582221697.568,5.859,46.875,23.926,-8.301,0
1582221697.570,1.953,46.387,20.996,-0.977,0
1582221697.574,13.672,35.645,20.020,11.719,0
1582221697.578,19.043,26.855,24.902,11.719,0
1582221697.582,26.855,31.250,24.902,9.277,0
1582221697.586,24.902,45.410,23.438,27.832,0
1582221697.590,22.949,53.711,24.414,36.133,0
1582221697.594,31.738,53.223,20.996,29.785,0
1582221697.597,39.551,48.828,25.879,19.531,0
1582221697.601,27.344,42.480,26.367,7.324,0
1582221697.605,23.438,35.645,22.949,27.832,0
1582221697.609,36.621,37.598,25.391,42.480,0
1582221697.613,37.598,43.457,26.855,32.715,0
1582221697.615,40.527,45.898,26.855,25.879,0
1582221697.619,34.668,43.945,27.832,25.879,0
1582221697.623,26.855,36.621,28.809,36.621,0
1582221697.627,25.391,34.668,27.832,28.809,0
1582221697.631,19.043,38.574,23.926,12.207,0
1582221697.635,15.137,41.016,21.484,7.812,0
1582221697.639,18.555,41.992,17.578,15.137,0
1582221697.642,28.809,39.062,14.160,26.367,0
1582221697.646,30.762,33.203,13.672,4.395,0
1582221697.650,25.879,36.133,15.137,-2.441,0
1582221697.654,13.184,38.086,19.531,10.254,0
1582221697.658,16.113,31.738,20.508,11.719,0
1582221697.661,36.621,27.832,15.137,2.930,0
1582221697.665,40.039,11.230,13.184,0.000,0
1582221697.669,22.949,13.184,9.277,13.184,0
1582221697.673,17.090,39.062,5.859,9.277,0
1582221697.677,20.508,32.715,10.254,-1.465,0
1582221697.681,21.973,27.344,10.742,7.324,0
1582221697.685,16.602,29.297,8.301,30.762,0
1582221697.688,12.207,29.297,10.742,27.832,0
1582221697.692,9.277,31.738,12.695,6.348,0
1582221697.696,17.578,29.297,12.695,13.672,0
1582221697.700,22.461,27.344,14.160,33.203,0
1582221697.704,15.625,28.320,13.184,37.109,0
1582221697.706,16.602,25.391,13.672,33.691,0
1582221697.710,25.879,16.602,17.578,20.020,0
1582221697.714,24.414,20.996,15.625,20.020,0
1582221697.718,17.578,40.527,11.230,28.809,0
1582221697.722,18.066,38.086,13.184,35.645,0
1582221697.726,20.020,35.156,12.207,31.250,0
1582221697.730,18.555,39.062,10.254,20.508,0
1582221697.733,0.000,42.969,11.719,19.043,0
1582221697.737,1.953,43.457,14.648,18.555,0
1582221697.741,20.996,35.156,15.625,10.254,0
1582221697.745,20.020,32.227,16.113,7.812,0
1582221697.749,6.348,35.156,18.066,7.812,0
1582221697.750,-2.930,29.297,16.113,14.160,0
1582221697.754,0.000,23.926,17.090,14.648,0
1582221697.758,6.348,27.344,20.508,8.789,0
1582221697.762,6.348,26.367,21.973,7.812,0
1582221697.766,4.883,26.367,20.508,12.695,0
1582221697.770,14.648,32.715,17.090,16.113,0
1582221697.774,20.996,34.668,13.184,10.254,0
1582221697.777,12.695,23.438,11.719,12.207,0
1582221697.781,0.977,26.855,13.184,14.648,0
1582221697.785,4.883,37.598,9.766,19.531,0
1582221697.789,12.207,36.133,9.766,16.602,0
1582221697.793,3.418,29.785,15.137,9.766,0
1582221697.811,-7.812,29.785,12.695,15.137,0
1582221697.815,-5.371,28.320,10.254,24.902,0
1582221697.819,-9.766,30.762,11.719,14.648,0
1582221697.823,-3.906,31.738,15.137,13.184,0
1582221697.827,10.742,23.438,20.508,23.926,0
1582221697.831,10.742,26.367,20.020,25.879,0
1582221697.835,4.883,33.203,20.020,15.137,0
1582221697.838,1.953,43.945,18.555,4.395,0
1582221697.842,-0.488,43.457,19.043,14.160,0
1582221697.846,0.000,35.645,22.461,16.113,0
1582221697.850,-0.488,32.715,22.461,11.230,0
1582221697.854,7.812,34.180,22.461,9.277,0
1582221697.856,11.230,38.574,24.414,8.301,0
1582221697.860,2.930,42.480,23.438,18.066,0
1582221697.864,4.883,49.805,22.949,24.414,0
1582221697.868,12.207,42.480,25.879,19.531,0
1582221697.872,14.160,42.480,26.367,14.160,0
1582221697.876,0.977,45.898,25.879,10.254,0
1582221697.880,-1.465,41.016,24.414,24.414,0
1582221697.883,8.301,37.109,26.855,14.648,0
1582221697.887,5.371,36.621,30.273,0.000,0
1582221697.891,-0.488,33.691,29.297,4.883,0
1582221697.895,5.371,35.645,31.738,17.090,0
1582221697.899,-4.395,38.574,34.668,22.949,0
1582221697.901,2.930,29.785,33.691,19.531,0
1582221697.905,12.207,34.180,33.691,9.277,0
1582221697.909,-5.371,55.176,32.715,9.766,0
1582221697.913,5.371,59.082,31.738,18.066,0
1582221697.917,15.625,48.828,29.785,1.465,0
1582221697.921,10.254,46.875,28.809,-4.395,0
1582221697.925,2.441,44.922,29.785,8.301,0
1582221697.928,2.441,33.691,26.855,6.348,0
1582221697.932,13.672,29.297,23.926,-11.230,0
1582221697.936,9.766,35.156,24.902,-10.742,0
1582221697.940,-3.906,41.504,25.879,6.836,0
1582221697.944,-8.301,36.621,25.391,16.113,0
1582221697.946,-0.977,32.227,24.414,6.836,0
1582221697.950,15.137,37.109,22.949,-4.395,0
1582221697.954,7.812,37.598,22.949,5.859,0
1582221697.958,1.953,33.691,23.926,17.578,0
1582221697.962,9.277,28.809,24.414,6.836,0
1582221697.966,8.789,31.250,24.414,-1.953,0
1582221697.970,1.465,31.738,25.391,0.977,0
1582221697.973,1.465,39.062,27.832,14.648,0
1582221697.977,8.789,33.203,26.367,18.066,0
1582221697.981,7.812,25.879,24.902,7.324,0
1582221697.985,-2.930,38.574,24.414,8.789,0
1582221697.989,4.883,41.992,25.391,20.508,0
1582221697.991,11.719,36.621,25.879,18.066,0
1582221697.995,5.859,28.809,26.367,4.883,0
1582221697.999,10.254,33.203,29.297,4.395,0
1582221698.003,10.254,42.480,27.832,17.090,0
1582221698.007,4.883,47.852,25.391,14.648,0
1582221698.011,6.348,48.340,24.902,3.418,0
1582221698.015,18.066,43.457,25.391,0.488,0
1582221698.018,9.277,42.480,27.832,10.254,0
1582221698.022,-1.953,34.180,27.832,2.441,0
1582221698.026,10.254,22.949,23.438,-9.277,0
1582221698.030,7.812,32.227,24.902,-3.906,0
1582221698.034,-3.418,49.805,25.879,-0.488,0
1582221698.036,1.953,39.551,24.902,8.301,0
1582221698.040,12.207,27.344,24.902,5.859,0
1582221698.044,14.648,46.387,21.973,-8.301,0
1582221698.048,16.602,50.781,23.926,-0.977,0
1582221698.052,6.348,48.828,24.414,9.277,0
1582221698.056,3.418,50.781,20.020,12.207,0
1582221698.060,13.184,40.527,19.531,8.789,0
1582221698.063,18.066,31.250,23.438,2.930,0
1582221698.067,8.789,39.062,25.391,8.789,0
1582221698.071,0.000,40.527,25.391,12.695,0
1582221698.075,-4.883,35.156,24.902,9.277,0
1582221698.079,1.953,35.156,23.926,0.000,0
1582221698.081,5.859,31.250,25.391,2.441,0
1582221698.085,2.441,31.738,24.414,11.230,0
1582221698.089,13.184,39.551,22.949,4.395,0
1582221698.093,16.113,41.992,24.902,-3.418,0
1582221698.097,13.672,36.621,26.367,-1.953,0
1582221698.101,15.137,20.020,27.832,9.277,0
1582221698.105,4.395,29.785,30.762,15.137,0
1582221698.108,-0.977,45.410,28.809,-4.395,0
1582221698.112,0.977,36.621,25.879,-4.395,0
1582221698.116,0.000,37.109,25.391,9.766,0
1582221698.120,10.254,40.039,24.414,8.789,0
1582221698.124,0.000,35.156,23.926,0.488,0
1582221698.141,-7.812,26.855,21.973,-11.719,0
1582221698.145,-6.836,27.832,22.461,-2.930,0
1582221698.149,-10.742,29.297,24.902,3.906,0
1582221698.153,-6.348,37.598,21.973,-7.324,0
1582221698.157,2.930,29.297,20.508,-12.695,0
1582221698.161,10.254,22.949,22.949,-7.324,0
1582221698.165,3.906,36.133,19.043,2.930,0
1582221698.168,1.465,23.926,17.090,-2.441,0
1582221698.172,11.230,31.250,19.531,-12.695,0
1582221698.176,9.277,42.969,20.020,-3.418,0
1582221698.180,-1.465,32.227,20.508,7.812,0
1582221698.184,-0.488,28.809,21.973,11.719,0
1582221698.186,14.648,32.227,23.926,1.465,0
1582221698.190,8.301,33.691,23.926,-5.371,0
1582221698.194,0.977,38.574,21.973,4.883,0
1582221698.198,5.371,36.133,20.996,5.859,0
1582221698.202,5.371,30.762,23.438,2.930,0
1582221698.206,2.441,36.133,23.926,-1.465,0
1582221698.210,0.488,37.598,22.461,-4.883,0
1582221698.213,-3.906,35.645,24.902,1.953,0
1582221698.217,-6.836,29.785,25.879,-4.883,0
1582221698.221,-0.977,32.227,24.414,-8.789,0
1582221698.225,-0.488,45.410,23.438,-9.766,0
1582221698.229,-2.930,35.156,25.391,-3.906,0
1582221698.230,-3.906,31.250,25.391,9.277,0
1582221698.234,8.301,39.062,24.414,-5.371,0
1582221698.238,13.672,49.316,23.926,-7.812,0
1582221698.242,2.441,37.598,25.391,5.859,0
1582221698.246,-2.930,32.715,27.832,12.207,0
1582221698.250,7.812,41.992,25.391,3.906,0
1582221698.254,11.719,41.504,23.438,-5.859,0
1582221698.257,6.348,38.574,24.414,-1.953,0
1582221698.261,2.441,30.273,25.391,-2.930,0
1582221698.265,3.418,31.738,26.367,-6.348,0
1582221698.269,6.836,49.805,25.391,-4.395,0
1582221698.273,5.859,41.504,23.926,2.441,0
1582221698.276,0.977,37.109,24.902,13.184,0
1582221698.280,-5.859,48.828,22.949,9.277,0
1582221698.284,-8.301,46.387,22.949,-9.766,0
1582221698.288,0.000,47.363,25.391,-7.812,0
1582221698.292,8.301,43.945,28.320,6.836,0
1582221698.296,11.719,43.457,28.320,10.254,0
1582221698.300,13.184,41.016,26.855,-1.465,0
1582221698.303,11.230,37.598,28.320,-6.348,0
1582221698.307,2.930,41.016,24.902,4.395,0
1582221698.311,-6.836,38.574,22.461,11.230,0
1582221698.315,0.000,28.320,23.438,2.441,0
1582221698.319,12.207,31.738,24.902,-7.324,0
1582221698.321,1.953,40.039,24.414,4.395,0
1582221698.325,-3.418,49.316,24.414,18.555,0
1582221698.329,1.953,50.293,26.367,5.371,0
1582221698.333,6.348,41.504,26.855,-9.277,0
1582221698.337,4.883,34.180,26.855,0.000,0
1582221698.341,4.395,32.715,27.832,13.672,0
1582221698.345,2.441,41.992,27.344,14.648,0
1582221698.348,2.930,43.945,24.902,4.883,0
1582221698.352,5.371,35.156,20.508,0.488,0
1582221698.356,-5.371,31.250,20.996,-4.395,0
1582221698.360,-1.465,36.133,22.461,-0.977,0
1582221698.364,14.648,43.945,21.484,-4.883,0
1582221698.365,13.184,48.340,22.949,-4.395,0
1582221698.369,7.812,41.504,26.367,12.695,0
1582221698.373,7.324,37.598,26.855,14.648,0
1582221698.377,2.441,40.527,24.902,0.977,0
1582221698.381,-4.883,42.480,26.367,-3.418,0
1582221698.385,-4.883,45.898,28.320,9.277,0
1582221698.389,-0.977,35.156,27.832,18.066,0
1582221698.392,2.441,29.297,27.832,8.301,0
1582221698.396,5.371,38.086,28.809,-1.953,0
1582221698.400,-7.324,37.598,29.785,2.930,0
1582221698.404,-4.883,30.762,28.809,12.207,0
1582221698.408,10.742,42.480,29.297,16.113,0
1582221698.410,16.113,42.480,28.809,5.859,0
1582221698.414,9.277,40.527,26.367,0.488,0
1582221698.418,5.859,45.410,27.344,11.230,0
1582221698.422,6.836,42.969,26.367,15.625,0
1582221698.426,6.836,43.457,24.902,10.254,0
1582221698.430,8.301,36.621,24.902,2.441,0
1582221698.434,4.883,32.715,25.879,7.812,0
1582221698.437,2.930,29.785,26.367,12.695,0
1582221698.441,12.695,37.598,28.809,7.324,0
1582221698.445,8.301,44.434,30.273,5.371,0
1582221698.449,-1.465,44.922,27.344,7.324,0
1582221698.453,1.953,35.156,24.902,18.066,0
1582221698.455,0.000,36.621,21.973,20.020,0
1582221698.459,9.766,45.898,23.438,3.418,0
1582221698.463,11.719,38.086,26.367,1.953,0
1582221698.467,2.441,39.551,23.926,7.812,0
1582221698.471,13.184,43.457,24.414,10.254,0
1582221698.475,17.578,29.297,23.438,4.395,0
1582221698.479,16.602,29.785,21.973,-1.465,0
1582221698.482,12.207,40.039,20.020,1.465,0
1582221698.486,6.348,36.621,18.066,7.324,0
1582221698.490,12.695,34.180,22.461,0.977,0
1582221698.494,8.301,36.133,24.902,-5.859,0
1582221698.498,-1.953,40.039,23.438,4.883,0
1582221698.500,0.977,34.668,25.879,16.113,0
1582221698.504,-3.906,38.574,26.367,5.371,0
1582221698.508,-3.418,40.039,22.949,-3.906,0
1582221698.512,-3.418,41.016,21.973,6.836,0
1582221698.516,-13.672,37.598,23.926,11.719,0
1582221698.520,-6.348,34.180,21.973,11.230,0
1582221698.524,2.930,36.621,21.484,5.859,0
1582221698.527,-6.348,35.645,23.926,1.465,0
1582221698.531,-9.766,33.691,25.391,10.742,0
1582221698.535,-1.465,30.273,23.438,9.277,0
1582221698.539,-1.953,40.527,22.949,0.488,0
1582221698.543,-0.977,51.270,22.461,-1.465,0
1582221698.560,-3.906,45.898,21.973,6.836,0
1582221698.564,-11.719,43.945,21.484,10.254,0
1582221698.568,-4.395,27.832,21.484,5.859,0
1582221698.572,0.977,27.344,22.949,5.859,0
1582221698.576,-5.859,52.734,23.438,3.418,0
1582221698.580,-6.836,46.387,21.973,0.000,17060
1582221698.584,-8.789,35.645,20.020,-4.883,0
1582221698.587,-10.742,37.109,20.996,-13.672,0
1582221698.591,-14.648,30.273,20.508,-8.301,0
1582221698.595,-16.602,26.367,20.508,1.953,0
1582221698.599,-11.719,36.621,19.043,-9.277,0
1582221698.603,-1.953,42.480,17.578,-24.902,0
1582221698.605,3.906,44.434,17.578,-17.578,0
1582221698.609,2.441,37.109,20.020,0.000,0
1582221698.613,6.836,27.832,23.438,7.324,0
1582221698.617,10.742,29.297,22.949,-0.488,0
1582221698.621,9.766,37.109,21.484,-3.418,0
1582221698.625,1.953,45.410,22.461,12.695,0
1582221698.629,-7.324,33.691,22.949,27.832,0
1582221698.632,-4.883,32.227,20.996,19.043,0
1582221698.636,-7.324,39.551,22.949,9.766,0
1582221698.640,-13.184,38.086,26.855,18.555,0
1582221698.644,-17.090,39.551,26.855,24.902,0
1582221698.648,-11.230,30.762,26.855,15.625,0
1582221698.650,0.000,31.738,26.367,2.930,0
1582221698.654,-2.930,39.062,28.809,7.812,0
1582221698.658,-13.184,36.621,30.273,15.625,0
1582221698.662,-7.324,36.621,28.320,7.812,0
1582221698.666,1.953,34.180,26.855,-6.348,0
1582221698.670,-0.977,30.762,24.902,-2.441,0
1582221698.674,-6.836,34.180,24.414,5.859,0
1582221698.677,-10.254,41.992,23.926,0.488,0
1582221698.681,-9.277,41.016,21.973,-7.812,0
1582221698.685,-2.441,39.062,23.438,-3.906,0
1582221698.689,3.418,46.387,24.414,17.090,0
1582221698.693,1.953,35.156,23.926,19.531,0
1582221698.695,0.977,29.297,24.902,3.906,0
1582221698.699,0.977,40.039,23.926,4.395,0
1582221698.703,3.906,44.434,22.461,12.207,0
1582221698.707,7.324,31.250,23.926,13.184,0
1582221698.711,5.371,37.598,22.461,10.742,0
1582221698.715,3.418,41.016,20.996,4.395,0
1582221698.719,8.789,34.180,21.973,18.066,0
1582221698.722,7.812,46.387,24.902,25.391,0
1582221698.726,8.301,47.363,20.996,15.625,0
1582221698.730,10.254,42.969,20.508,9.277,0
1582221698.734,11.719,41.504,24.902,11.719,0
1582221698.738,10.254,41.992,22.461,26.367,0
1582221698.740,8.301,30.762,20.996,25.879,0
1582221698.744,10.254,32.227,22.461,10.254,0
1582221698.748,14.160,46.387,22.461,12.207,0
1582221698.752,11.230,44.922,20.020,26.367,0
1582221698.756,12.207,30.273,20.508,30.273,0
1582221698.760,15.625,34.180,20.508,17.578,0
1582221698.764,12.695,39.551,22.949,8.789,0
1582221698.767,6.348,36.133,23.926,24.414,0
1582221698.771,8.301,40.527,23.438,38.574,0
1582221698.775,9.277,37.109,26.367,32.715,0
1582221698.779,11.719,37.598,26.855,19.531,0
1582221698.783,17.090,44.434,24.414,28.320,0
1582221698.785,11.719,38.574,23.926,40.039,0
1582221698.789,13.184,32.715,26.855,34.668,0
1582221698.793,18.555,37.598,29.297,27.344,0
1582221698.797,15.625,38.086,29.297,22.949,0
1582221698.801,10.254,35.645,28.320,29.297,0
1582221698.805,12.207,40.039,27.344,36.621,0
1582221698.809,15.625,45.410,28.320,24.414,0
1582221698.812,18.066,31.738,30.762,17.578,0
1582221698.816,18.066,16.602,33.203,23.438,0
1582221698.820,11.719,26.855,29.297,25.391,0
1582221698.824,11.719,32.715,23.438,21.484,0
1582221698.828,10.254,36.133,24.902,12.695,0
1582221698.846,2.930,43.457,26.367,15.625,0
1582221698.850,8.301,44.922,24.902,26.367,0
1582221698.854,11.719,35.156,24.414,24.414,0
1582221698.858,12.695,36.133,26.367,18.555,0
1582221698.862,12.695,34.180,27.344,20.508,0
1582221698.866,7.324,30.762,27.344,35.645,0
1582221698.870,11.230,43.945,30.273,29.785,0
1582221698.873,17.090,37.598,29.297,7.812,0
1582221698.877,12.207,29.297,25.879,13.672,0
1582221698.881,0.977,35.645,28.320,25.879,0
1582221698.885,-6.836,37.598,29.297,21.973,0
1582221698.889,-2.441,28.809,28.320,0.977,0
1582221698.876,4.395,22.461,26.855,-4.883,0
1582221698.880,0.977,36.621,23.926,10.742,0
1582221698.884,4.883,39.551,26.367,20.020,0
1582221698.888,10.742,39.062,28.320,10.254,0
1582221698.892,13.672,37.109,26.367,-3.906,0
1582221698.896,11.719,35.645,25.879,5.859,0
1582221698.900,7.812,39.062,23.926,17.090,0
1582221698.903,11.230,40.039,21.484,9.766,0
1582221698.907,18.066,33.691,21.973,10.254,0
1582221698.911,18.555,32.227,22.949,11.230,0
1582221698.915,8.301,31.738,23.438,15.137,0
1582221698.919,8.789,24.414,25.391,19.043,0
1582221698.936,5.371,33.203,26.367,7.324,0
1582221698.940,0.488,31.738,24.902,4.395,0
1582221698.944,-1.953,27.344,24.902,12.207,0
1582221698.948,-7.324,35.156,24.902,24.902,0
1582221698.952,0.977,39.551,24.414,16.602,0
1582221698.956,-0.488,38.574,24.414,-1.465,0
1582221698.960,-9.277,32.715,26.367,13.184,0
1582221698.963,-10.742,37.109,25.879,17.090,0
1582221698.967,-6.836,34.180,25.391,5.859,0
1582221698.971,0.977,28.809,24.414,0.488,0
1582221698.975,-0.488,34.668,20.020,4.395,0
1582221698.979,-6.348,42.969,17.090,12.207,0
1582221698.981,2.930,27.344,20.020,10.742,0
1582221698.985,9.277,22.461,22.461,1.953,0
1582221698.989,2.441,48.828,21.484,3.418,0
1582221698.993,0.000,45.410,20.020,10.254,0
1582221698.997,5.859,39.062,20.020,16.602,0
1582221699.001,7.324,40.527,21.973,10.254,0
1582221699.005,4.883,42.480,24.414,3.906,0
1582221699.008,-1.953,41.504,23.438,8.301,0
1582221699.012,-6.348,41.504,22.949,13.672,0
1582221699.016,0.488,41.016,22.949,6.836,0
1582221699.020,6.836,32.715,23.926,-8.301,0
1582221699.024,4.395,30.762,24.902,0.000,0
1582221699.026,-2.930,36.133,24.902,16.113,0
1582221699.030,-5.859,42.480,23.926,5.371,0
1582221699.034,-5.859,29.785,20.020,-10.254,0
1582221699.038,-5.371,28.809,21.973,-10.254,0
1582221699.042,-5.859,44.922,22.461,-4.395,0
1582221699.046,-1.465,36.621,20.996,6.348,0
1582221699.050,1.465,38.574,20.996,-3.418,0
1582221699.053,-7.812,40.039,24.902,-6.836,0
1582221699.057,-15.137,35.645,30.273,-2.930,0
1582221699.061,-18.555,28.320,31.250,-5.371,0
1582221699.065,-16.602,27.832,30.762,-9.277,0
1582221699.069,-8.789,38.086,28.809,-10.254,0
1582221699.071,-12.695,29.785,26.855,-0.977,0
1582221699.075,-11.230,30.273,24.902,3.418,0
1582221699.079,6.348,38.086,24.414,3.906,0
1582221699.083,4.395,34.668,27.832,-0.488,0
1582221699.087,1.465,34.668,26.367,0.977,0
1582221699.091,1.465,30.762,25.879,11.230,0
1582221699.095,3.906,29.297,27.344,7.324,0
1582221699.098,8.301,29.297,23.926,0.000,0
1582221699.102,0.977,32.715,20.996,4.883,0
1582221699.106,-4.395,41.992,20.996,20.020,0
1582221699.110,-4.395,38.574,21.973,23.926,0
1582221699.114,-1.465,28.809,21.484,8.301,0
1582221699.116,-2.441,29.297,20.996,6.836,0
1582221699.120,-2.930,31.738,21.484,16.113,0
1582221699.124,-4.883,32.227,20.996,15.137,0
1582221699.128,-3.418,28.809,20.020,4.883,0
1582221699.132,-7.812,29.297,21.484,-7.324,0
1582221699.136,-15.625,29.297,20.508,0.488,0
1582221699.140,-8.789,18.555,19.043,9.766,0
1582221699.143,0.977,23.926,22.461,7.812,0
1582221699.147,4.395,40.039,25.391,-0.488,0
1582221699.151,-4.883,40.527,24.414,1.465,0
1582221699.155,-1.953,37.598,25.391,13.184,0
1582221699.159,5.859,40.527,25.879,12.207,0
1582221699.161,9.766,39.062,24.902,7.324,0
1582221699.165,7.324,37.598,26.367,15.137,0
1582221699.169,3.418,34.180,24.902,23.926,0
1582221699.173,4.395,33.691,21.484,24.902,0
1582221699.177,5.371,41.016,20.020,10.742,0
1582221699.181,5.371,35.645,21.484,3.906,0
1582221699.185,-2.930,32.227,22.949,10.254,0
1582221699.188,-1.953,32.227,22.461,5.859,0
1582221699.192,2.441,30.273,19.531,-4.395,0
1582221699.196,-2.930,52.246,16.602,-6.836,0
1582221699.200,-8.301,55.176,19.043,0.000,0
1582221699.204,-8.789,46.387,20.020,5.859,0
1582221699.206,-3.906,44.922,19.043,3.418,0
1582221699.210,3.906,42.969,21.484,3.906,0
1582221699.214,-2.930,36.621,24.414,4.395,0
1582221699.218,-4.883,32.715,25.391,11.719,0
1582221699.222,4.883,35.645,25.879,16.113,0
1582221699.226,4.395,41.992,24.902,6.348,0
1582221699.230,0.000,32.715,25.391,10.742,0
1582221699.233,-6.348,21.973,24.902,21.484,0
1582221699.237,-5.371,42.969,23.438,18.555,0
1582221699.241,1.465,47.363,24.414,4.883,0
1582221699.245,0.977,31.738,26.367,0.000,0
1582221699.249,-1.465,41.504,26.367,10.742,0
1582221699.266,-3.418,47.852,24.902,17.578,0
1582221699.270,-2.441,40.039,24.902,6.348,0
1582221699.274,0.000,36.133,25.879,-1.953,0
1582221699.278,0.000,37.109,25.879,10.254,0
1582221699.282,0.000,37.598,25.391,22.461,0
1582221699.286,9.277,34.180,26.367,17.578,0
1582221699.290,13.672,30.762,22.949,7.812,0
1582221699.293,2.930,21.973,21.973,9.766,0
1582221699.297,-3.418,33.691,23.926,13.184,0
1582221699.301,-2.930,41.016,19.531,11.719,0
1582221699.305,0.000,37.109,21.484,6.348,0
1582221699.309,2.930,28.320,25.391,5.859,0
1582221699.311,-1.953,19.531,24.902,17.090,0
1582221699.315,-2.441,35.156,26.855,18.066,0
1582221699.319,1.465,44.434,27.832,11.719,0
1582221699.323,1.953,35.156,25.391,12.207,0
1582221699.327,-1.953,34.180,23.438,16.602,0
1582221699.331,-6.348,41.992,23.926,19.043,0
1582221699.335,-11.230,40.039,25.879,5.859,0
1582221699.338,-6.836,40.527,28.320,4.395,0
1582221699.342,-3.906,47.852,28.320,12.695,0
1582221699.346,-5.371,48.828,27.344,11.719,0
1582221699.350,-4.883,39.551,25.879,-1.953,0
1582221699.354,-4.395,34.180,24.902,-9.766,0
1582221699.356,-2.441,26.855,24.414,6.348,0
1582221699.360,0.488,29.297,24.902,18.066,0
1582221699.364,4.395,36.133,25.879,15.625,0
1582221699.368,7.812,21.484,24.414,3.906,0
1582221699.372,9.766,31.250,23.438,0.000,0
1582221699.376,8.789,43.457,21.973,9.766,0
1582221699.380,5.371,41.992,20.996,10.254,0
1582221699.383,1.953,43.457,20.020,2.930,0
1582221699.387,-2.441,39.551,22.461,-0.488,0
1582221699.391,-9.766,40.039,21.484,4.395,0
1582221699.395,-11.719,35.645,19.531,12.695,0
1582221699.399,-13.672,34.180,25.391,9.277,0
1582221699.400,-5.859,38.086,25.391,4.395,0
1582221699.404,-1.465,42.969,24.414,6.348,0
1582221699.408,-6.836,24.902,27.832,13.672,0
1582221699.412,-7.324,19.531,26.367,13.672,0
1582221699.416,-6.348,39.551,23.438,1.953,0
1582221699.420,-8.301,35.156,23.926,7.812,0
1582221699.424,-13.672,39.551,24.902,13.672,0
1582221699.427,-13.184,41.992,22.461,10.742,0
1582221699.431,-11.230,41.016,22.949,4.395,0
1582221699.435,-11.230,43.945,21.973,-1.953,0
1582221699.439,-11.230,38.574,20.508,13.672,0
1582221699.443,-7.812,34.668,20.508,12.695,0
1582221699.445,-8.789,34.180,24.414,-2.930,0
1582221699.449,-2.441,28.320,25.391,2.441,0
1582221699.453,0.977,30.762,25.391,13.184,0
1582221699.457,-6.836,32.227,27.344,17.090,0
1582221699.461,-3.906,35.645,26.367,7.324,0
1582221699.465,3.906,46.387,27.832,-0.977,0
1582221699.469,2.930,39.551,27.344,11.230,0
1582221699.472,1.953,42.969,23.926,17.578,0
1582221699.476,3.906,54.199,21.973,6.836,0
1582221699.480,9.277,50.781,20.508,-5.859,0
1582221699.484,11.230,47.852,20.020,-3.906,0
1582221699.488,7.812,42.480,20.508,12.207,0
1582221699.490,4.883,30.762,22.949,20.996,0
1582221699.494,1.465,38.574,24.414,14.648,0
1582221699.498,0.488,41.504,22.461,4.883,0
1582221699.502,-7.812,32.227,21.973,10.254,0
1582221699.506,-23.438,46.875,24.414,11.719,0
1582221699.510,-19.531,41.016,27.344,3.418,0
1582221699.514,-8.301,30.273,26.855,0.977,0
1582221699.517,-8.789,48.828,26.855,6.836,0
1582221699.521,-13.184,51.758,28.809,14.160,0
1582221699.525,-15.625,48.340,23.926,12.695,0
1582221699.529,-1.465,38.574,24.414,15.137,0
1582221699.533,2.930,32.227,28.320,21.973,0
1582221699.535,-7.324,41.504,25.879,16.113,0
1582221699.539,-5.859,43.945,25.391,15.137,0
1582221699.543,-6.836,39.062,26.855,17.090,0
1582221699.547,-5.859,38.574,26.367,14.160,0
1582221699.551,-3.906,42.969,26.367,19.043,0
1582221699.555,-2.441,47.852,23.926,20.020,0
1582221699.559,3.906,37.109,24.414,10.254,0
1582221699.562,0.488,34.180,24.902,6.836,0
1582221699.566,-4.883,51.270,21.973,16.113,0
1582221699.570,-0.977,51.270,22.949,27.344,0
1582221699.574,4.395,42.969,21.484,17.578,0
1582221699.578,10.254,45.898,19.531,4.395,0
1582221699.580,6.348,47.852,22.461,12.207,0
1582221699.584,1.953,44.434,21.484,18.066,0
1582221699.588,3.906,45.898,19.531,13.672,27270
1582221699.592,5.371,40.039,19.531,-2.441,0
1582221699.596,1.465,41.504,16.113,-7.324,0
1582221699.600,-7.812,45.410,13.672,4.883,0
1582221699.604,-4.395,37.109,15.137,0.488,0
1582221699.607,-1.953,25.391,16.113,-5.371,0
1582221699.611,-11.230,21.484,19.043,-6.348,0
1582221699.615,-17.090,41.992,26.367,3.418,0
1582221699.619,-16.113,53.223,28.809,13.184,0
1582221699.623,-12.207,50.293,27.344,-1.465,0
1582221699.640,-10.254,41.992,28.320,-3.418,0
1582221699.644,-12.207,38.086,31.738,9.766,0
1582221699.648,-17.090,41.016,27.832,15.625,0
1582221699.652,-10.254,42.480,27.344,18.066,0
1582221699.656,-0.977,41.992,28.320,14.648,0
1582221699.660,-0.977,29.297,27.832,21.973,0
1582221699.664,1.953,27.832,30.273,32.227,0
1582221699.667,6.348,45.410,30.762,28.320,0
1582221699.671,9.277,46.875,32.227,20.508,0
1582221699.675,10.742,43.945,30.762,23.438,0
1582221699.679,2.930,39.551,29.785,27.344,0
1582221699.683,-1.953,38.086,29.785,14.160,0
1582221699.685,6.348,43.945,29.785,5.371,0
1582221699.689,2.441,44.922,27.832,6.348,0
1582221699.693,-14.160,38.574,23.438,8.789,0
1582221699.697,-15.137,29.785,20.508,4.883,0
1582221699.701,-0.488,27.832,19.043,-8.301,0
1582221699.705,3.418,27.344,15.137,-8.301,0
1582221699.709,-6.348,33.203,14.160,2.441,0
1582221699.712,-6.836,40.527,15.625,7.812,0
1582221699.716,-3.418,27.344,19.043,3.906,0
1582221699.720,-0.488,25.879,25.391,-5.859,0
1582221699.724,0.000,40.039,24.414,-1.953,0
1582221699.728,-2.441,37.598,26.367,13.672,0
1582221699.730,0.000,25.391,29.297,20.996,0
1582221699.734,0.977,31.250,24.902,9.277,0
1582221699.738,3.418,40.039,24.902,1.465,0
1582221699.742,4.883,34.180,27.344,15.137,0
1582221699.746,8.301,33.691,30.762,20.020,0
1582221699.750,17.578,38.086,33.203,15.137,0
1582221699.754,19.043,42.480,28.320,19.043,0
1582221699.757,6.836,46.875,25.879,24.902,0
1582221699.761,6.836,41.016,27.832,27.832,0
1582221699.765,16.113,35.645,28.809,14.648,0
1582221699.769,15.137,37.598,29.297,8.789,0
1582221699.773,18.066,23.926,31.250,26.367,0
1582221699.775,14.160,29.297,29.785,33.691,0
1582221699.779,11.719,51.758,27.832,22.949,0
1582221699.783,17.578,52.246,28.809,14.160,0
1582221699.787,15.625,37.109,30.762,21.973,0
1582221699.791,17.090,27.344,30.762,32.715,0
1582221699.795,19.043,46.387,27.344,29.785,0
1582221699.799,19.043,55.664,27.832,20.996,0
1582221699.802,17.090,49.316,26.855,23.926,0
1582221699.806,10.254,50.293,27.344,27.832,0
1582221699.810,12.207,42.969,27.832,23.438,0
1582221699.814,20.020,29.785,23.438,14.648,0
1582221699.818,19.043,36.133,23.926,9.766,0
1582221699.821,5.371,42.969,26.855,17.578,0
1582221699.825,0.488,45.410,26.367,21.484,0
1582221699.829,12.207,32.227,25.879,11.230,0
1582221699.833,16.602,33.691,27.344,3.418,0
1582221699.837,9.277,51.270,28.809,11.719,0
1582221699.841,5.859,50.781,27.344,26.855,0
1582221699.845,12.695,46.387,23.926,23.926,0
1582221699.848,10.742,40.527,23.438,6.348,0
1582221699.852,2.441,40.527,25.391,6.836,0
1582221699.856,1.465,38.574,28.320,25.391,0
1582221699.860,7.324,37.109,29.297,30.762,0
1582221699.864,9.277,31.250,29.297,16.113,0
1582221699.866,6.348,26.855,29.297,10.254,0
1582221699.870,6.836,37.598,26.855,25.391,0
1582221699.874,6.348,37.598,26.367,29.785,0
1582221699.878,11.230,36.621,27.832,17.578,0
1582221699.882,16.113,44.434,27.344,15.137,0
1582221699.886,11.230,45.410,28.320,29.297,0
1582221699.890,9.766,45.410,25.879,29.297,0
1582221699.893,12.695,48.828,25.391,17.090,0
1582221699.897,13.184,49.316,29.297,10.254,0
1582221699.901,10.742,37.598,27.832,12.207,0
1582221699.905,10.254,38.574,26.367,19.043,0
1582221699.909,13.672,32.227,27.344,18.066,0
1582221699.911,16.602,21.973,29.297,11.230,0
1582221699.915,15.625,33.203,28.320,11.230,0
1582221699.919,5.371,47.852,26.367,19.531,0
1582221699.923,8.789,48.340,26.855,18.555,0
1582221699.927,11.230,40.527,27.832,2.441,0
1582221699.931,6.836,41.992,27.344,0.000,0
1582221699.935,5.859,36.133,27.832,18.555,0
1582221699.938,5.859,34.668,29.785,20.508,0
1582221699.942,5.371,41.992,29.297,4.395,0
1582221699.946,7.324,35.645,27.344,2.441,0
1582221699.950,8.789,28.809,24.414,12.695,0
1582221699.954,0.000,34.180,21.484,14.648,0
1582221699.955,-2.930,37.598,21.484,5.371,0
1582221699.959,9.277,42.969,21.484,2.930,0
1582221699.963,8.301,46.875,20.996,4.395,0
1582221699.967,0.488,38.574,20.996,8.789,0
1582221699.971,4.883,35.645,21.484,13.184,0
1582221699.975,10.742,34.668,20.508,5.859,0
1582221699.979,6.348,32.715,21.484,3.906,0
1582221699.982,-0.488,40.527,20.996,10.254,0
1582221699.986,-1.465,41.504,20.020,15.625,0
1582221699.990,4.395,36.621,23.926,13.672,0
1582221699.994,13.184,40.527,24.902,9.277,0
1582221699.998,4.395,46.875,25.391,13.672,0
1582221700.016,-5.859,45.898,24.902,13.672,0
1582221700.020,5.371,26.855,26.367,10.254,0
1582221700.024,9.766,30.273,27.832,5.859,0
1582221700.028,3.418,49.316,23.926,10.254,0
1582221700.032,0.488,49.316,22.461,13.184,0
1582221700.036,4.395,48.340,21.484,4.395,0
1582221700.040,7.324,40.527,24.414,-0.488,0
1582221700.043,3.418,34.180,29.785,10.742,0
1582221700.047,6.836,45.898,29.297,29.297,0
1582221700.051,1.953,54.199,22.949,17.578,0
1582221700.055,-7.812,47.852,22.949,-7.812,0
1582221700.059,-10.742,41.992,24.414,-5.371,0
1582221700.061,-16.602,42.480,23.438,6.836,0
1582221700.065,-17.090,39.062,23.926,6.836,0
1582221700.069,-9.277,36.133,24.902,-1.465,0
1582221700.073,-2.441,38.086,26.367,0.000,0
1582221700.077,0.977,33.203,26.855,17.578,0
1582221700.081,1.465,34.180,25.879,22.949,0
1582221700.085,3.906,38.574,25.391,14.160,0
1582221700.088,-0.488,43.945,25.391,3.906,0
1582221700.092,-5.371,46.387,26.367,8.789,0
1582221700.096,-3.418,35.156,27.344,22.949,0
1582221700.100,-2.930,33.203,24.414,13.184,0
1582221700.104,3.418,44.434,22.949,0.977,0
1582221700.106,2.930,43.457,22.461,5.859,0
1582221700.110,1.953,44.922,23.438,16.602,0
1582221700.114,1.465,32.715,24.902,15.625,0
1582221700.118,4.883,30.762,22.949,-0.977,0
1582221700.122,7.324,30.273,21.973,-1.465,0
1582221700.126,8.301,27.832,23.438,13.184,0
1582221700.130,1.953,48.828,24.902,10.254,0
1582221700.133,2.441,48.340,26.367,3.418,0
1582221700.137,8.301,46.875,26.367,6.348,0
1582221700.141,3.906,42.969,24.902,13.672,0
1582221700.145,-5.859,41.016,24.902,14.160,0
1582221700.149,-1.465,42.969,25.879,7.324,0
1582221700.151,2.441,38.086,24.902,4.883,0
1582221700.155,-5.859,36.621,25.879,12.207,0
1582221700.159,-14.160,42.480,29.785,20.508,0
1582221700.163,-7.812,36.621,30.273,13.184,0
1582221700.167,9.277,17.578,28.809,4.883,0
1582221700.171,6.348,28.320,27.344,4.395,0
1582221700.175,-7.324,48.340,26.367,10.742,0
1582221700.178,-2.930,37.109,26.367,15.625,0
1582221700.182,2.441,41.504,26.367,-5.371,0
1582221700.186,-3.906,52.246,23.438,-18.066,0
1582221700.190,-8.301,43.945,21.973,2.441,0
1582221700.194,-6.836,40.527,20.996,11.230,0
1582221700.196,0.488,44.922,22.461,3.906,0
1582221700.200,5.859,43.457,24.414,-3.906,0
1582221700.204,0.488,42.969,23.438,8.789,0
1582221700.208,1.465,36.133,22.461,22.949,0
1582221700.212,5.859,29.785,24.414,7.812,0
1582221700.216,4.883,39.551,24.414,-1.465,0
1582221700.220,-2.441,44.434,20.996,3.418,0
1582221700.223,-9.766,44.434,19.531,3.906,0
1582221700.227,-6.836,41.016,19.531,1.953,0
1582221700.231,-9.277,30.762,21.484,-4.395,0
1582221700.235,-13.184,37.109,23.926,-0.977,0
1582221700.239,-12.695,38.086,22.949,6.348,0
1582221700.241,-8.789,41.992,19.531,4.395,0
1582221700.245,-0.977,29.297,20.508,-1.953,0
1582221700.249,-0.488,19.531,20.996,-1.953,0
1582221700.253,-9.277,36.133,20.020,9.766,0
1582221700.257,-14.160,40.527,21.484,7.812,0
1582221700.261,-8.301,47.363,20.996,-0.488,0
1582221700.265,-6.836,45.898,20.020,-1.465,0
1582221700.268,-11.719,39.551,22.461,-2.441,0
1582221700.272,-9.766,42.480,20.508,-0.977,0
1582221700.276,-1.953,36.621,21.484,-1.953,0
1582221700.280,4.883,37.598,22.949,-5.859,0
1582221700.284,-3.906,40.527,20.996,-2.441,0
1582221700.286,-7.812,43.945,22.461,2.930,0
1582221700.290,-1.953,39.551,24.414,3.418,0
1582221700.294,0.488,26.855,22.949,-3.906,0
1582221700.298,-1.465,28.320,21.973,-1.953,0
1582221700.302,-12.207,36.133,23.926,14.160,0
1582221700.306,-6.836,38.086,25.879,19.043,0
1582221700.310,0.488,38.574,23.926,8.789,0
1582221700.313,-0.977,39.062,20.020,1.953,0
1582221700.317,1.465,36.133,23.438,11.719,0
1582221700.321,5.371,27.832,23.926,21.973,0
1582221700.325,7.812,27.832,20.996,10.254,0
1582221700.329,3.418,38.574,19.043,2.441,0
1582221700.331,-2.930,37.598,20.996,4.395,0
1582221700.335,-6.348,26.855,23.926,10.742,0
1582221700.339,-4.395,33.691,21.484,9.277,0
1582221700.343,0.488,37.598,17.090,0.000,0
1582221700.347,-4.395,32.227,17.578,1.465,0
1582221700.351,-8.789,38.574,21.484,-0.488,0
1582221700.355,-4.883,39.062,16.113,-4.883,0
1582221700.358,-3.418,37.109,12.207,-14.160,0
1582221700.362,-3.906,36.621,14.648,-16.602,0
1582221700.366,-7.324,37.598,16.113,0.000,0
1582221700.370,-4.883,35.156,18.555,3.418,0
1582221700.374,2.441,34.180,19.043,-10.254,0
1582221700.376,11.230,21.484,21.484,-13.672,0
1582221700.380,10.254,20.020,22.949,-3.418,0
1582221700.384,2.930,39.551,20.020,-0.977,0
1582221700.388,6.836,37.109,19.043,-8.789,0
1582221700.392,12.207,27.832,19.043,-4.883,0
1582221700.396,11.719,35.645,21.484,9.277,0
1582221700.400,7.324,44.922,23.926,13.672,0
1582221700.403,5.859,32.227,27.832,17.090,0
1582221700.407,6.348,27.344,29.297,16.113,0
1582221700.411,0.488,37.598,26.855,16.602,0
1582221700.415,-4.395,39.062,28.320,32.227,0
1582221700.419,-4.395,26.855,27.832,29.297,0
1582221700.435,-8.789,15.625,26.855,4.883,0
1582221700.439,-2.441,26.367,26.855,-1.465,0
1582221700.443,0.488,40.527,26.367,9.277,0
1582221700.447,-6.836,51.270,25.391,7.324,0
1582221700.451,-5.859,55.176,22.949,-13.184,0
1582221700.455,-7.324,46.875,23.438,-17.578,0
1582221700.459,-12.695,38.574,23.438,-3.906,0
1582221700.462,-15.137,37.109,20.508,6.348,0
1582221700.466,-13.184,33.691,20.020,11.230,0
1582221700.470,-5.859,35.645,21.484,3.906,0
1582221700.474,-12.695,34.180,21.484,6.348,0
1582221700.478,-14.160,22.949,24.902,14.648,0
1582221700.480,-2.930,29.785,27.344,18.555,0
1582221700.484,-0.488,28.320,24.902,11.230,0
1582221700.488,2.441,33.691,22.949,11.230,0
1582221700.492,-3.418,44.434,24.902,24.902,0
1582221700.496,-9.277,44.434,28.320,19.043,0
1582221700.500,-3.906,47.363,30.273,0.000,0
1582221700.504,-1.953,35.645,29.297,-1.465,0
1582221700.507,-6.348,34.668,27.344,2.441,0
1582221700.511,-6.836,38.086,24.414,4.883,0
1582221700.515,0.977,36.621,26.367,-2.930,0
1582221700.519,2.930,34.668,28.320,-6.348,0
1582221700.523,-4.883,40.527,26.855,12.695,0
1582221700.525,-3.418,42.969,23.438,19.043,0
1582221700.529,2.441,27.832,23.926,11.719,0
1582221700.533,9.766,37.109,27.344,6.836,0
1582221700.537,12.695,48.340,26.367,16.113,0
1582221700.541,4.395,49.805,24.902,29.297,0
1582221700.545,5.371,41.504,24.902,20.996,0
1582221700.549,6.348,34.180,25.391,8.301,0
1582221700.552,5.859,44.434,24.902,16.113,0
1582221700.556,3.418,45.410,23.438,27.344,0
1582221700.560,-7.324,37.109,23.438,26.855,0
1582221700.564,-0.488,28.320,24.902,17.578,0
1582221700.568,8.789,29.785,25.879,13.672,0
1582221700.570,4.395,37.598,29.297,24.414,0
1582221700.574,4.395,34.180,29.297,34.180,0
1582221700.578,1.465,28.809,27.832,21.484,0
1582221700.582,5.859,41.504,25.879,12.207,0
1582221700.586,4.395,51.758,23.926,16.602,0
1582221700.590,-1.953,40.039,23.926,15.625,0
1582221700.594,0.488,36.133,20.508,16.113,0
1582221700.597,2.441,33.691,19.531,11.230,0
1582221700.601,2.930,23.926,20.996,6.348,0
1582221700.605,2.441,23.926,18.555,12.207,0
1582221700.609,7.812,39.062,18.555,13.672,0
1582221700.613,18.066,48.828,19.043,4.883,0
1582221700.615,21.973,45.898,16.113,13.672,0
1582221700.619,13.672,40.527,15.625,25.879,0
1582221700.623,7.324,36.133,17.578,20.020,0
1582221700.627,12.695,32.715,18.066,9.277,0
1582221700.631,13.672,38.574,17.578,8.789,0
1582221700.635,-1.953,37.109,17.090,15.625,0
1582221700.639,-2.930,42.969,18.066,17.090,0
1582221700.642,6.836,48.340,18.555,15.137,0
1582221700.646,7.324,39.551,20.020,3.906,0
1582221700.650,4.395,39.062,21.973,10.254,0
1582221700.654,3.418,32.227,20.508,27.832,0
1582221700.658,0.977,20.508,21.484,16.602,0
1582221700.660,5.371,33.691,25.879,0.000,0
1582221700.664,6.836,28.809,26.855,1.465,0
1582221700.668,1.953,23.438,21.973,8.789,0
1582221700.672,-0.977,40.527,19.531,4.395,0
1582221700.676,-0.488,43.457,20.508,-6.836,0
1582221700.680,1.953,25.391,20.996,-5.371,0
1582221700.684,-3.906,15.625,20.508,5.859,0
1582221700.687,-8.301,37.109,19.531,8.301,0
1582221700.691,-3.418,40.527,19.531,-0.977,0
1582221700.695,-4.395,37.109,18.555,-2.441,0
1582221700.699,-6.836,38.086,18.066,11.719,0
1582221700.703,-2.441,33.691,20.508,18.066,0
1582221700.705,-2.930,30.273,20.020,10.742,0
1582221700.709,-1.953,25.391,19.531,5.859,0
1582221700.713,2.930,29.785,21.484,15.625,0
1582221700.717,0.977,39.062,21.973,20.020,0
1582221700.721,4.395,29.785,22.949,11.230,0
1582221700.725,4.883,16.113,22.949,10.254,0
1582221700.729,-0.488,35.645,20.996,2.441,21560
1582221700.732,-2.930,50.293,19.043,8.301,0
1582221700.736,-8.301,45.898,20.996,14.648,0
1582221700.740,-2.930,45.410,21.973,3.906,0
1582221700.744,3.418,43.945,21.973,12.207,0
1582221700.748,-2.930,39.062,22.461,18.066,0
1582221700.765,-3.906,39.551,21.973,16.113,0
1582221700.769,0.488,41.016,23.926,6.348,0
1582221700.773,3.906,41.992,23.926,5.859,0
1582221700.777,-0.977,42.480,26.367,19.531,0
1582221700.781,0.977,36.133,29.785,27.344,0
1582221700.785,8.301,36.621,28.320,22.461,0
1582221700.789,12.695,39.062,28.809,13.672,0
1582221700.792,7.324,37.598,30.273,17.090,0
1582221700.796,-7.324,41.992,28.809,23.926,0
1582221700.800,-1.465,39.551,27.344,15.625,0
1582221700.804,8.789,37.109,27.832,6.836,0
1582221700.808,0.977,37.598,30.273,9.766,0
1582221700.810,-2.930,37.109,28.809,17.090,0
1582221700.814,-1.953,40.527,25.391,17.578,0
1582221700.818,2.441,46.387,26.367,0.488,0
1582221700.822,4.883,47.852,27.832,5.371,0
1582221700.826,0.488,41.992,27.344,15.137,0
1582221700.830,-2.930,34.180,26.367,7.812,0
1582221700.834,6.836,32.227,26.367,1.465,0
1582221700.837,8.301,44.434,24.902,1.465,0
1582221700.841,1.465,42.480,25.391,11.719,0
1582221700.845,-1.953,29.297,23.926,8.301,0
1582221700.849,1.465,29.785,23.926,3.906,0
1582221700.853,9.277,38.086,24.902,15.625,0
1582221700.855,5.371,36.621,21.973,20.508,0
1582221700.859,6.348,36.133,19.043,21.973,0
1582221700.863,9.277,42.969,18.066,13.672,0
1582221700.867,17.578,39.062,18.066,1.953,0
1582221700.871,20.996,36.621,18.555,10.742,0
1582221700.875,12.207,40.527,22.461,23.926,0
1582221700.879,4.883,37.109,22.461,24.414,0
1582221700.882,6.348,32.227,20.020,11.230,0
1582221700.886,7.812,30.273,19.531,3.906,0
1582221700.890,2.930,28.320,16.113,15.137,0
1582221700.894,11.230,30.273,19.531,26.367,0
1582221700.898,16.113,42.969,23.926,15.137,0
1582221700.900,15.625,41.016,20.996,0.488,0
1582221700.904,13.184,34.180,21.484,10.742,0
1582221700.908,12.207,41.992,20.996,27.344,0
1582221700.912,20.508,42.969,20.020,24.414,0
1582221700.916,22.949,38.574,19.043,9.766,0
1582221700.920,16.602,40.527,18.066,6.836,0
1582221700.924,13.672,44.434,15.137,17.578,0
1582221700.927,12.207,34.180,14.160,25.879,0
1582221700.931,13.672,34.180,18.555,16.113,0
1582221700.935,13.184,52.734,18.066,9.766,0
1582221700.939,3.418,52.734,19.531,15.625,0
1582221700.943,6.348,40.527,22.949,18.555,0
1582221700.945,16.602,31.250,18.555,8.301,0
1582221700.949,14.160,34.180,18.066,-2.441,0
1582221700.953,7.324,40.527,20.996,7.324,0
1582221700.957,0.977,41.992,18.066,8.301,0
1582221700.961,1.953,37.109,17.578,-6.348,0
1582221700.965,12.207,28.320,20.508,-1.953,0
1582221700.969,3.906,28.809,21.484,4.395,0
1582221700.972,-1.465,26.855,20.508,13.184,0
1582221700.976,0.488,35.156,18.555,9.277,0
1582221700.980,2.441,45.410,18.555,-3.418,0
1582221700.984,5.371,42.969,19.043,6.348,0
1582221700.988,-3.418,35.156,19.043,16.602,0
1582221700.991,-3.418,32.715,23.438,22.949,0
1582221700.995,5.859,34.668,24.902,7.324,0
1582221700.999,5.859,24.414,24.414,5.859,0
1582221701.003,1.953,25.879,26.855,22.949,0
1582221701.007,2.441,40.039,24.902,13.672,0
1582221701.011,8.301,40.527,21.484,11.719,0
1582221701.015,9.766,34.668,20.996,7.324,0
1582221701.018,8.301,35.645,20.508,14.648,0
1582221701.022,11.230,41.504,21.973,28.809,0
1582221701.026,5.371,39.062,21.973,18.555,0
1582221701.030,2.930,38.086,22.949,8.789,0
1582221701.034,4.883,30.762,25.391,10.742,0
1582221701.036,-0.977,30.273,26.367,16.602,0
1582221701.040,-2.930,36.133,22.461,19.531,0
1582221701.044,6.348,31.250,22.461,11.719,0
1582221701.048,2.930,37.598,26.855,1.953,0
1582221701.052,-2.441,48.828,26.855,11.719,0
1582221701.056,5.859,42.480,26.855,22.949,0
1582221701.060,2.930,27.344,28.320,8.301,0
1582221701.063,-0.977,39.551,27.344,0.977,0
1582221701.067,1.953,44.434,24.414,14.160,0
1582221701.071,0.000,34.180,27.832,11.719,0
1582221701.075,5.371,31.738,29.785,8.301,0
1582221701.079,5.371,39.551,29.785,10.254,0
1582221701.080,5.859,41.016,30.273,18.066,0
1582221701.084,8.789,41.504,28.809,32.227,0
1582221701.088,11.719,40.039,31.738,29.785,0
1582221701.092,12.207,36.133,33.691,19.043,0
1582221701.096,9.766,38.574,33.691,22.949,0
1582221701.100,3.418,34.668,32.715,34.668,0
1582221701.104,0.488,34.668,31.250,27.832,0
1582221701.107,0.977,41.504,30.762,6.836,0
1582221701.111,-1.953,37.109,27.832,8.301,0
1582221701.115,-5.859,44.434,27.344,15.625,0
1582221701.119,-8.301,56.152,28.809,12.695,0
1582221701.123,3.418,51.758,28.320,7.324,0
1582221701.140,5.371,43.945,30.762,-3.418,0
1582221701.144,-6.348,43.457,31.250,4.883,0
1582221701.148,4.395,46.875,27.832,17.090,0
1582221701.152,14.648,45.898,27.832,5.859,0
1582221701.156,11.230,32.227,31.738,3.906,0
1582221701.160,8.789,33.203,31.738,13.184,0
1582221701.164,9.277,50.781,29.785,19.043,0
1582221701.167,8.789,50.781,29.785,9.766,0
1582221701.171,8.301,42.969,29.785,0.000,0
1582221701.175,-1.953,39.551,31.250,5.859,0
1582221701.179,-7.324,36.621,30.273,10.742,0
1582221701.183,-1.953,42.480,30.273,12.207,0
1582221701.185,3.418,41.504,30.762,8.301,0
1582221701.189,1.953,35.156,28.809,12.207,0
1582221701.193,-5.371,40.527,28.320,22.461,0
1582221701.197,-0.977,46.875,28.320,18.555,0
1582221701.201,13.672,47.363,29.297,18.555,0
1582221701.205,17.578,38.086,29.785,22.949,0
1582221701.209,10.742,34.668,30.273,26.367,0
1582221701.212,5.371,48.828,28.809,20.508,0
1582221701.216,5.371,49.316,23.438,0.488,0
1582221701.220,5.859,44.922,21.484,-1.465,0
1582221701.224,-6.348,45.410,24.414,3.418,0
1582221701.228,-11.230,39.551,22.949,8.789,0
1582221701.231,0.488,37.109,20.996,5.859,0
1582221701.235,0.000,36.621,21.484,-1.953,0
1582221701.239,-1.465,33.203,21.973,7.324,0
1582221701.243,2.930,35.645,21.484,10.742,0
1582221701.247,-1.953,33.691,23.926,3.418,0
1582221701.251,-4.883,27.832,23.438,-5.371,0
1582221701.255,-0.977,38.086,22.461,-4.395,0
1582221701.258,-0.488,46.387,25.879,4.883,0
1582221701.262,4.883,41.016,27.832,6.836,0
1582221701.266,16.602,29.785,26.367,-1.953,0
1582221701.270,17.090,27.344,24.414,-12.695,0
1582221701.274,15.625,36.133,25.391,-4.883,0
1582221701.276,12.695,37.109,25.879,4.883,0
1582221701.280,6.348,30.273,25.391,4.395,0
1582221701.284,0.977,33.691,26.367,0.000,0
1582221701.288,-6.836,38.086,28.320,8.301,0
1582221701.292,-11.719,31.738,24.902,16.113,0
1582221701.296,-14.648,20.020,21.484,10.254,0
1582221701.300,-10.742,14.648,21.484,-2.441,0
1582221701.303,-4.883,29.785,20.508,-0.488,0
1582221701.307,-11.230,26.367,20.508,10.254,0
1582221701.311,-14.160,27.832,20.020,8.789,0
1582221701.315,-10.742,34.180,22.949,4.395,0
1582221701.319,-13.184,38.086,22.461,-0.977,0
1582221701.321,-20.996,36.133,20.996,0.977,0
1582221701.325,-16.602,33.691,21.973,3.906,0
1582221701.329,-7.812,41.016,21.484,-5.371,0
1582221701.333,-4.395,43.945,20.508,-11.719,0
1582221701.337,-3.418,34.668,23.438,0.977,0
1582221701.341,1.953,32.715,26.367,12.207,0
1582221701.345,2.441,37.109,24.414,2.441,0
1582221701.348,-2.930,24.902,22.949,-10.254,0
1582221701.352,-4.883,24.902,23.438,-1.465,0
1582221701.356,-6.348,43.945,22.949,7.812,0
1582221701.360,-6.836,41.504,21.973,5.371,0
1582221701.364,-8.301,30.762,25.879,2.441,0
1582221701.366,-6.836,38.086,26.855,2.930,0
1582221701.370,-9.277,35.156,23.438,6.836,0
1582221701.374,-7.324,32.715,24.414,9.766,0
1582221701.378,4.395,30.273,25.879,5.371,0
1582221701.382,-6.836,33.203,26.367,-10.742,0
1582221701.386,-9.766,41.504,26.367,0.000,0
1582221701.390,-4.883,35.156,28.809,14.648,0
1582221701.393,-7.812,31.738,30.273,-4.395,0
1582221701.397,1.953,28.809,31.738,-1.465,0
1582221701.401,0.977,32.715,31.738,17.090,0
1582221701.405,-3.418,30.273,29.785,20.996,0
1582221701.409,5.859,30.762,31.738,22.949,0
1582221701.411,8.789,38.086,31.738,15.137,0
1582221701.415,5.859,27.344,30.273,20.020,0
1582221701.419,-0.488,19.531,31.250,26.855,0
1582221701.423,3.906,32.227,32.715,21.973,0
1582221701.427,15.137,41.992,31.738,14.648,0
1582221701.431,8.789,41.504,32.715,11.230,0
1582221701.435,5.859,40.527,32.715,21.973,0
1582221701.438,8.301,38.574,29.785,14.160,0
1582221701.442,4.883,35.156,28.320,-3.906,0
1582221701.446,4.883,27.344,28.809,-0.977,0
1582221701.450,5.859,39.551,29.297,15.625,0
1582221701.454,3.906,43.945,25.879,18.555,0
1582221701.456,5.371,32.227,25.879,8.789,0
1582221701.460,8.789,28.320,28.809,9.277,0
1582221701.464,6.836,38.086,30.273,21.973,0
1582221701.468,4.883,48.828,31.738,30.762,0
1582221701.472,11.719,36.621,31.738,31.250,0
1582221701.476,15.625,32.227,33.203,19.531,0
1582221701.480,12.207,38.574,30.273,10.254,0
1582221701.483,9.766,29.297,25.879,19.043,0
1582221701.487,12.207,32.715,25.879,25.391,0
1582221701.491,18.555,46.875,26.855,22.949,0
1582221701.495,16.113,38.574,29.785,14.648,0
1582221701.499,8.789,33.203,31.738,18.555,0
1582221701.501,5.859,41.992,31.738,26.855,0
1582221701.505,14.648,45.898,31.738,16.113,0
1582221701.509,14.648,40.527,31.738,11.230,0
1582221701.513,6.348,40.039,30.273,13.184,0
1582221701.517,5.859,33.691,27.344,17.578,0
1582221701.521,9.277,21.484,29.785,16.113,0
1582221701.525,9.766,33.691,31.738,3.906,0
1582221701.528,-0.488,46.875,28.809,10.742,0
1582221701.532,-6.348,39.551,26.367,7.812,0
1582221701.536,4.395,34.180,26.367,-2.930,0
1582221701.540,12.207,41.992,25.391,-0.977,0
1582221701.544,7.812,46.387,26.367,1.465,0
1582221701.560,-5.371,44.434,29.785,15.137,0
1582221701.564,-6.836,41.016,26.855,8.789,0
1582221701.568,5.859,40.527,24.414,-6.836,0
1582221701.572,9.766,40.039,22.949,0.000,0
1582221701.576,6.836,40.527,22.949,8.301,0
1582221701.580,3.418,38.574,23.438,8.301,0
1582221701.584,5.371,33.691,22.461,-0.488,0
1582221701.587,6.348,39.062,21.484,-3.906,0
1582221701.591,8.301,29.785,22.461,13.184,0
1582221701.595,7.812,21.973,24.414,21.973,0
1582221701.599,4.883,40.039,21.973,11.230,0
1582221701.603,6.836,48.340,21.973,5.859,0
1582221701.605,4.395,47.363,22.461,14.160,0
1582221701.609,6.348,39.062,23.438,29.785,0
1582221701.613,-0.488,36.133,22.461,19.043,0
1582221701.617,0.488,34.668,18.066,4.883,0
1582221701.621,6.836,31.738,18.555,10.254,0
1582221701.625,-0.977,31.250,21.484,14.648,0
1582221701.629,-0.977,24.414,22.949,18.555,0
1582221701.632,3.418,26.367,23.926,8.301,0
1582221701.636,4.883,30.273,24.414,5.371,0
1582221701.640,-0.488,31.250,23.438,5.371,0
1582221701.644,-4.395,38.574,20.996,4.883,0
1582221701.648,1.953,33.203,18.555,1.953,0
1582221701.650,1.953,35.156,18.066,-12.207,0
1582221701.654,-0.977,41.504,20.996,-3.418,0
1582221701.658,-5.859,39.062,21.484,-2.441,0
1582221701.662,-6.348,33.203,23.438,-12.207,0
1582221701.666,-1.465,28.809,25.391,-9.766,0
1582221701.670,-9.277,39.062,23.926,-7.812,0
1582221701.674,-17.578,47.852,23.926,2.930,0
1582221701.677,-1.465,38.574,25.391,7.812,0
1582221701.681,5.859,38.086,24.902,-5.859,0
1582221701.685,-2.441,39.062,23.926,-0.488,0
1582221701.689,-3.418,36.133,26.367,14.160,0
1582221701.693,-0.977,39.062,27.344,16.113,0
1582221701.695,10.254,41.016,26.367,10.742,0
1582221701.699,12.207,41.016,26.855,3.418,0
1582221701.703,5.859,41.504,25.391,11.719,0
1582221701.707,5.859,41.992,26.367,21.973,0
1582221701.711,6.836,39.551,26.855,12.695,0
1582221701.715,13.184,35.645,23.926,0.977,0
1582221701.719,8.789,41.992,22.949,9.766,0
1582221701.722,2.930,46.875,21.973,14.160,0
1582221701.726,1.953,42.480,21.484,-2.930,0
1582221701.730,8.789,35.156,23.438,-7.812,0
1582221701.734,8.789,36.133,24.902,-2.930,0
1582221701.738,-5.859,32.715,26.855,0.000,0
1582221701.740,2.930,32.227,26.855,-3.418,0
1582221701.744,8.301,39.062,24.414,-11.719,0
1582221701.748,0.000,38.574,26.367,-3.906,0
1582221701.752,-5.371,36.621,29.297,5.859,0
1582221701.756,-0.488,37.109,26.367,12.207,0
1582221701.760,5.371,50.781,22.461,7.324,0
1582221701.764,5.371,44.434,26.367,4.883,27502
1582221701.767,3.906,41.016,30.273,14.160,0
1582221701.771,4.883,42.969,26.855,17.090,0
1582221701.775,9.766,40.039,26.367,12.695,0
1582221701.779,14.648,40.039,27.832,5.371,0
1582221701.783,10.742,47.363,27.832,6.836,0
1582221701.785,4.395,52.734,27.344,12.695,0
1582221701.789,5.859,47.852,28.809,7.812,0
1582221701.793,14.160,44.922,29.297,2.930,0
1582221701.797,10.254,41.504,29.297,11.719,0
1582221701.801,6.348,37.109,29.297,19.531,0
1582221701.805,7.812,35.156,30.273,14.648,0
1582221701.809,13.672,36.621,32.227,14.648,0
1582221701.812,13.672,30.762,30.273,15.137,0
1582221701.816,2.930,23.438,28.809,16.113,0
1582221701.820,0.488,36.133,26.855,19.531,0
1582221701.824,0.977,43.945,28.320,12.207,0
1582221701.828,1.465,40.039,28.809,2.930,0
1582221701.830,-8.789,41.992,25.391,8.789,0
1582221701.834,-9.277,36.621,25.879,14.648,0
1582221701.838,-1.465,34.668,23.438,-3.906,0
1582221701.842,0.488,38.086,21.484,-9.766,0
1582221701.846,-2.441,32.715,24.902,3.418,0
1582221701.850,-2.441,30.762,24.902,14.160,0
1582221701.854,4.395,29.785,25.391,4.883,0
1582221701.857,3.418,36.621,24.414,-13.184,0
1582221701.861,0.488,41.504,20.020,-6.348,0
1582221701.865,2.930,37.598,20.996,12.207,0
1582221701.869,6.836,41.016,22.949,11.230,0
1582221701.873,7.812,48.340,23.438,-1.953,0
1582221701.875,11.719,45.898,24.414,0.977,0
1582221701.879,7.812,41.016,22.461,12.207,0
1582221701.883,4.883,38.574,20.508,7.324,0
1582221701.887,10.254,44.434,17.090,5.371,0
1582221701.891,12.695,51.270,17.578,10.254,0
1582221701.895,9.766,48.340,20.020,17.090,0
1582221701.899,7.324,44.922,19.043,22.461,0
1582221701.902,6.836,38.086,20.996,18.066,0
1582221701.906,9.277,45.898,20.020,10.254,0
1582221701.910,14.160,45.898,21.484,15.625,0
1582221701.914,16.113,38.086,21.973,24.902,0
1582221701.918,15.137,39.551,20.508,20.996,0
1582221701.935,14.648,41.016,23.438,10.742,0
1582221701.939,9.277,36.133,24.902,18.066,0
1582221701.943,4.883,30.762,26.855,29.297,0
1582221701.947,6.348,39.551,27.832,28.320,0
1582221701.951,8.301,42.969,29.785,17.578,0
1582221701.955,7.324,42.969,32.715,20.020,0
1582221701.959,1.465,38.086,31.250,27.344,0
1582221701.962,-4.395,27.344,29.297,22.461,0
1582221701.966,4.883,38.086,28.809,15.137,0
1582221701.970,11.719,41.016,28.320,7.324,0
1582221701.974,5.859,36.133,26.855,16.602,0
1582221701.978,4.883,41.504,25.879,24.902,0
1582221701.981,8.301,41.992,23.438,15.625,0
1582221701.985,16.602,37.109,23.926,11.719,0
1582221701.989,16.602,35.645,26.367,17.578,0
1582221701.993,10.254,43.457,23.926,21.484,0
1582221701.997,11.719,36.133,23.926,23.926,0
1582221702.001,20.996,36.133,25.879,20.508,0
1582221702.005,15.137,38.086,24.414,15.625,0
1582221702.008,7.324,21.484,25.391,20.508,0
1582221702.012,6.836,31.250,28.320,25.879,0
1582221702.016,9.766,44.922,28.320,18.066,0
1582221702.020,10.742,47.852,29.297,11.719,0
1582221702.024,5.859,43.457,30.273,23.438,0
1582221702.026,6.836,37.109,28.809,27.344,0
1582221702.030,4.883,38.086,27.832,17.578,0
1582221702.034,8.789,33.691,27.832,17.090,0
1582221702.038,9.277,31.250,27.832,25.879,0
1582221702.042,1.953,39.062,26.855,25.879,0
1582221702.046,-1.953,41.016,24.414,13.672,0
1582221702.050,5.859,27.832,21.973,6.348,0
1582221702.053,13.184,33.691,21.484,13.184,0
1582221702.057,-5.371,44.922,20.508,12.207,0
1582221702.061,-7.812,40.039,21.973,7.812,0
1582221702.065,1.953,32.715,24.902,2.930,0
1582221702.069,3.418,31.738,24.414,-0.977,0
1582221702.071,5.371,33.203,22.461,10.742,0
1582221702.075,5.859,32.715,24.414,12.695,0
1582221702.079,17.090,33.691,25.391,7.324,0
1582221702.083,18.555,39.551,24.902,-4.883,0
1582221702.087,15.137,44.434,22.949,-5.371,0
1582221702.091,16.602,39.062,21.484,11.230,0
1582221702.095,18.555,27.832,23.438,10.254,0
1582221702.098,15.625,26.855,26.367,10.254,0
1582221702.102,2.930,37.109,27.832,15.137,0
1582221702.106,-5.859,41.504,29.297,25.879,0
1582221702.110,-8.789,39.551,30.762,30.762,0
1582221702.114,-12.207,40.039,29.297,12.695,0
1582221702.115,-14.160,35.645,29.297,12.207,0
1582221702.119,-16.113,30.762,28.809,21.484,0
1582221702.123,-16.113,30.762,24.414,16.602,0
1582221702.127,-8.301,38.574,23.926,7.812,0
1582221702.131,-4.883,35.645,24.414,7.324,0
1582221702.135,-6.348,33.691,25.391,14.160,0
1582221702.139,-1.953,41.504,26.855,16.602,0
1582221702.142,4.883,46.387,25.391,2.441,0
1582221702.146,6.836,45.410,25.391,0.488,0
1582221702.150,0.488,40.527,24.414,12.695,0
1582221702.154,-2.930,41.992,24.414,19.531,0
1582221702.158,7.324,37.598,24.414,16.602,0
1582221702.161,16.113,37.109,23.438,10.742,0
1582221702.165,16.113,44.922,26.855,21.484,0
1582221702.169,7.812,41.016,26.855,24.414,0
1582221702.173,14.160,40.039,22.949,23.926,0
1582221702.177,20.020,42.969,26.855,13.184,0
1582221702.181,7.812,33.203,26.367,7.812,0
1582221702.185,-4.883,30.762,22.949,20.996,0
1582221702.188,-2.441,39.551,24.902,15.625,0
1582221702.192,7.812,43.945,25.879,4.883,0
1582221702.196,1.953,32.715,26.367,-1.953,0
1582221702.200,-8.789,29.297,25.391,5.371,0
1582221702.204,-11.230,31.738,26.855,16.113,0
1582221702.206,-9.766,37.598,28.809,4.395,0
1582221702.210,-6.348,39.551,29.297,-1.953,0
1582221702.214,-7.812,31.738,31.250,1.465,0
1582221702.218,-6.836,31.250,30.762,8.789,0
1582221702.222,0.488,34.180,32.227,15.625,0
1582221702.226,4.883,43.457,34.180,7.812,0
1582221702.230,6.836,47.363,33.203,11.230,0
1582221702.233,1.953,39.551,32.227,18.066,0
1582221702.237,3.906,39.062,32.227,22.949,0
1582221702.241,12.207,43.457,31.738,20.996,0
1582221702.245,11.230,46.387,31.250,14.648,0
1582221702.249,5.371,44.922,30.762,25.879,0
1582221702.250,1.953,32.715,31.250,27.344,0
1582221702.254,7.324,32.227,31.738,16.602,0
1582221702.258,7.324,35.156,28.320,19.531,0
1582221702.262,-1.465,34.668,25.879,26.367,0
1582221702.266,0.977,37.109,29.785,29.297,0
1582221702.270,5.371,35.156,30.273,20.020,0
1582221702.274,6.836,41.992,29.785,7.324,0
1582221702.277,2.441,42.969,32.227,13.184,0
1582221702.281,0.000,40.527,34.180,19.531,0
1582221702.285,5.859,36.133,35.156,12.695,0
1582221702.289,7.324,36.133,35.156,2.930,0
1582221702.293,2.441,48.828,32.227,6.836,0
1582221702.311,-4.395,50.293,29.297,16.602,0
1582221702.315,-2.930,43.457,31.738,15.625,0
1582221702.319,7.812,34.668,30.273,12.695,0
1582221702.323,8.301,31.738,30.762,12.695,0
1582221702.327,1.953,39.062,33.203,24.414,0
1582221702.331,9.277,43.945,32.715,30.762,0
1582221702.335,20.508,32.227,35.156,23.926,0
1582221702.338,19.043,25.879,33.691,17.090,0
1582221702.342,6.348,46.875,33.203,26.367,0
1582221702.346,3.906,47.363,31.738,26.855,0
1582221702.350,13.184,40.039,27.832,6.836,0
1582221702.354,14.648,44.434,26.367,1.465,0
1582221702.356,13.184,43.457,27.344,12.695,0
1582221702.360,15.625,33.203,28.809,20.508,0
1582221702.364,12.207,33.203,26.367,13.672,0
1582221702.368,6.836,35.645,21.973,4.883,0
1582221702.372,-1.465,31.738,18.066,1.465,0
1582221702.376,-9.277,33.691,16.602,5.371,0
1582221702.380,-6.836,28.809,17.578,2.930,0
1582221702.383,-2.441,26.367,19.531,-8.789,0
1582221702.387,-0.488,36.133,20.508,-5.371,0
1582221702.391,0.977,37.109,22.461,0.977,0
1582221702.395,-1.465,29.785,24.902,4.395,0
1582221702.399,3.906,27.344,24.414,0.977,0
1582221702.401,6.836,34.180,23.438,-6.348,0
1582221702.405,-0.488,34.180,22.461,2.930,0
1582221702.409,-9.277,31.738,21.484,10.254,0
1582221702.413,-7.324,32.715,21.484,3.906,0
1582221702.417,-3.906,28.320,21.484,-1.953,0
1582221702.421,-12.695,32.227,20.020,0.488,0
1582221702.425,-12.695,32.715,19.043,7.812,0
1582221702.428,-3.418,29.785,20.996,15.625,0
1582221702.432,2.441,36.133,22.461,7.324,0
1582221702.436,-0.488,35.645,23.438,-0.977,0
1582221702.440,-6.836,33.691,24.902,11.719,0
1582221702.444,1.953,29.785,28.320,18.066,0
1582221702.446,11.719,29.297,25.391,7.812,0
1582221702.450,0.000,38.574,19.531,-3.418,0
1582221702.454,-6.836,40.527,22.461,4.883,0
1582221702.458,0.488,30.762,24.414,15.137,0
1582221702.462,5.859,29.297,22.461,7.324,0
1582221702.466,6.348,33.203,22.949,-2.441,0
1582221702.470,-2.441,25.391,27.832,2.441,0
1582221702.473,-1.953,33.691,26.855,12.207,0
1582221702.477,4.395,41.504,24.902,9.277,0
1582221702.481,3.418,41.992,24.414,0.488,0
1582221702.485,1.465,44.434,21.973,2.441,0
1582221702.489,-2.930,41.504,20.996,7.324,0
1582221702.491,-0.977,35.645,21.973,1.465,0
1582221702.495,7.324,40.039,23.438,-2.441,0
1582221702.499,9.766,39.551,21.973,6.348,0
1582221702.503,9.277,37.109,21.973,15.625,0
1582221702.507,9.766,39.551,22.461,17.578,0
1582221702.511,15.137,37.109,20.508,4.883,0
1582221702.515,13.184,34.180,19.531,5.859,0
1582221702.518,8.301,34.180,20.996,14.648,0
1582221702.522,4.883,44.922,21.973,13.184,0
1582221702.526,6.348,44.434,24.902,10.254,0
1582221702.530,9.277,36.133,25.391,2.441,0
1582221702.534,2.930,41.504,23.438,12.695,0
1582221702.536,-0.977,42.969,27.344,28.320,0
1582221702.540,5.371,34.668,28.809,17.090,0
1582221702.544,6.836,33.203,26.855,-3.906,0
1582221702.548,2.930,33.203,26.367,0.000,0
1582221702.552,0.000,37.109,25.391,12.695,0
1582221702.556,7.324,45.898,27.344,13.184,0
1582221702.560,10.254,35.645,29.785,8.789,0
1582221702.563,6.348,28.809,28.320,9.766,0
1582221702.567,-3.418,44.922,27.344,9.766,0
1582221702.571,-2.930,49.805,28.320,15.625,0
1582221702.575,11.230,37.109,29.785,14.160,0
1582221702.579,18.066,34.668,27.832,15.137,0
1582221702.580,15.625,43.457,26.367,24.902,0
1582221702.584,13.672,47.363,25.391,28.320,0
1582221702.588,18.066,47.363,21.484,21.973,0
1582221702.592,15.137,41.504,23.926,17.090,0
1582221702.596,7.324,41.016,24.902,20.020,0
1582221702.600,9.277,41.016,25.391,26.855,0
1582221702.604,12.695,23.926,31.738,20.508,0
1582221702.607,13.672,27.344,30.273,9.277,0
1582221702.611,10.742,41.504,27.832,16.602,0
1582221702.615,5.859,39.551,29.785,23.438,0
1582221702.619,7.324,39.062,27.344,17.578,0
1582221702.623,11.230,41.016,24.902,5.859,0
1582221702.625,10.742,46.875,24.902,2.930,0
1582221702.629,7.324,42.969,25.879,16.113,0
1582221702.633,-0.977,35.156,26.367,20.020,0
1582221702.637,3.906,42.480,23.438,9.766,0
1582221702.641,12.695,46.387,24.902,6.836,0
1582221702.645,8.789,39.062,27.344,19.531,0
1582221702.649,7.812,32.715,26.367,25.879,0
1582221702.652,10.742,31.250,25.879,17.578,0
1582221702.656,12.695,40.039,23.926,11.230,0
1582221702.660,8.789,43.457,24.902,12.695,0
1582221702.664,6.836,32.227,25.391,20.020,0
1582221702.668,6.348,37.598,23.438,15.137,0
1582221702.685,3.418,40.039,23.438,1.953,0
1582221702.689,5.859,35.156,23.438,2.441,0
1582221702.693,5.859,41.504,22.461,9.766,0
1582221702.697,0.000,40.039,21.973,12.207,0
1582221702.701,3.906,38.574,25.391,7.812,0
1582221702.705,11.230,33.203,24.414,4.883,0
1582221702.709,8.301,29.297,23.438,10.742,0
1582221702.712,4.883,38.574,25.879,12.207,0
1582221702.716,6.836,46.875,25.391,8.301,0
1582221702.720,8.301,38.574,21.484,7.324,0
1582221702.724,-1.465,32.227,18.066,11.719,0
1582221702.728,-7.812,35.645,18.555,13.672,0
1582221702.730,-3.906,37.598,19.531,8.301,0
1582221702.734,-2.930,31.738,20.508,-0.977,0
1582221702.738,-13.184,31.738,20.508,-1.465,0
1582221702.742,-18.555,30.273,19.043,8.789,0
1582221702.746,-8.789,25.391,21.973,9.766,0
1582221702.750,-5.371,31.250,22.949,3.906,0
1582221702.754,-8.301,27.344,20.996,6.836,0
1582221702.757,-9.766,28.320,22.949,14.160,0
1582221702.761,-9.277,24.902,24.902,14.648,0
1582221702.765,0.977,26.855,25.879,-0.488,0
1582221702.769,9.277,53.711,24.902,-4.395,0
1582221702.773,-0.488,52.246,24.414,7.812,0
1582221702.775,1.465,41.992,26.367,11.719,0
1582221702.779,10.254,42.969,25.879,-1.953,0
1582221702.783,-1.953,39.551,22.461,-9.766,0
1582221702.787,-0.488,32.715,22.461,3.418,0
1582221702.791,7.324,32.227,26.367,10.254,0
1582221702.795,5.859,37.109,26.855,5.859,0
1582221702.799,4.395,32.227,24.902,-1.953,25621
1582221702.802,0.488,28.809,26.367,-1.465,0
1582221702.806,-3.906,41.016,27.344,1.953,0
1582221702.810,-6.348,44.922,27.344,5.371,0
1582221702.814,-1.953,32.227,29.785,-0.488,0
1582221702.818,-2.930,31.738,30.762,0.000,0
1582221702.820,-11.719,43.457,30.273,6.836,0
1582221702.824,-13.672,44.922,28.320,5.371,0
1582221702.828,-8.789,33.203,29.785,-0.488,0
1582221702.832,2.930,27.832,31.738,-1.953,0
1582221702.836,6.836,34.180,30.762,6.836,0
1582221702.840,0.488,31.250,29.785,8.789,0
1582221702.844,-1.953,31.738,29.297,0.000,0
1582221702.847,-1.465,35.156,28.320,-10.254,0
1582221702.851,0.977,35.645,26.367,-4.883,0
1582221702.855,-0.977,30.273,23.926,8.789,0
1582221702.859,-2.441,39.062,21.484,-2.441,0
1582221702.863,5.371,48.828,21.973,-10.254,0
1582221702.865,4.883,29.785,24.902,-0.977,0
1582221702.869,-4.395,27.344,24.902,0.977,0
1582221702.873,-9.766,41.016,22.949,0.488,0
1582221702.877,1.465,32.715,23.926,-7.324,0
1582221702.881,2.930,26.855,22.949,-10.254,0
1582221702.885,-9.766,31.250,20.996,4.883,0
1582221702.889,-7.812,35.645,21.484,9.277,0
1582221702.892,-11.719,36.133,22.949,-2.441,0
1582221702.896,-14.160,30.273,23.926,-6.836,0
1582221702.900,-9.766,25.879,25.391,6.348,0
1582221702.904,-6.836,32.227,26.855,18.066,0
1582221702.908,-1.953,37.109,25.391,11.719,0
1582221702.910,-1.953,33.691,22.949,1.953,0
1582221702.914,0.000,23.926,22.461,8.789,0
1582221702.918,4.883,22.949,23.926,19.043,0
1582221702.922,8.789,35.156,20.996,12.207,0
1582221702.926,12.695,38.574,21.973,-2.930,0
1582221702.930,12.695,44.434,22.949,-1.465,0
1582221702.934,14.648,35.645,20.020,5.371,0
1582221702.937,20.020,32.715,21.973,2.441,0
1582221702.941,10.742,50.293,21.973,-4.395,0
1582221702.945,0.488,35.156,22.949,0.488,0
1582221702.949,2.441,26.367,25.391,20.020,0
1582221702.953,-3.418,44.922,23.438,23.438,0
1582221702.955,-4.395,41.504,24.902,16.602,0
1582221702.959,-1.953,35.156,26.855,20.508,0
1582221702.963,-6.348,33.203,25.391,22.461,0
1582221702.967,-6.836,22.461,26.855,30.762,0
1582221702.971,-5.859,28.320,28.320,23.926,0
1582221702.975,-6.348,41.504,22.461,4.395,0
1582221702.979,-9.277,36.133,19.531,5.859,0
1582221702.982,-13.184,31.738,24.414,10.742,0
1582221702.986,-10.254,31.250,27.832,12.207,0
1582221702.990,0.977,35.156,26.367,0.488,0
1582221702.994,1.953,30.273,27.344,6.836,0
1582221702.998,-4.883,30.273,30.273,22.461,0
1582221703.001,-0.977,34.180,28.320,14.160,0
1582221703.005,7.812,37.109,25.391,8.301,0
1582221703.009,5.371,47.363,23.438,6.836,0
1582221703.013,2.930,47.363,24.414,11.230,0
1582221703.017,5.859,41.992,26.367,21.484,0
1582221703.021,6.348,41.504,23.438,12.207,0
1582221703.025,15.137,38.574,21.484,2.441,0
1582221703.028,16.113,41.504,24.414,9.766,0
1582221703.032,9.766,44.922,27.344,19.043,0
1582221703.036,11.719,44.434,26.855,14.648,0
1582221703.040,19.043,33.691,28.809,9.277,0
1582221703.044,12.695,30.762,33.203,9.766,0
1582221703.061,3.906,41.992,32.715,12.695,0
1582221703.065,4.395,36.133,30.762,11.719,0
1582221703.069,9.766,29.297,28.809,2.930,0
1582221703.073,9.277,37.598,27.344,7.324,0
1582221703.077,-4.883,42.480,26.855,17.090,0
1582221703.081,-1.465,41.016,26.367,13.672,0
1582221703.085,7.324,42.969,27.832,14.160,0
1582221703.088,-4.395,32.227,24.414,14.160,0
1582221703.092,-4.395,24.902,22.949,17.090,0
1582221703.096,4.395,30.762,25.879,20.996,0
1582221703.100,5.371,38.086,24.414,11.230,0
1582221703.104,7.812,40.039,26.367,10.254,0
1582221703.106,6.348,43.945,28.809,22.461,0
1582221703.110,2.930,41.016,26.367,26.367,0
1582221703.114,5.371,34.180,26.367,17.578,0
1582221703.118,10.742,38.086,26.855,6.348,0
1582221703.122,2.441,40.039,25.391,6.836,0
1582221703.126,-3.418,45.410,25.391,19.531,0
1582221703.130,7.812,41.016,24.902,15.137,0
1582221703.133,13.184,31.738,22.461,1.953,0
1582221703.137,13.184,27.344,22.461,8.301,0
1582221703.141,13.672,29.785,25.879,20.996,0
1582221703.145,13.184,38.574,22.949,22.461,0
1582221703.149,13.672,38.086,20.020,13.184,0
1582221703.151,10.742,27.344,21.484,8.789,0
1582221703.155,4.883,30.273,21.973,17.578,0
1582221703.159,-4.395,34.180,17.578,13.184,0
1582221703.163,-3.418,28.320,15.137,2.441,0
1582221703.167,3.418,35.645,18.066,1.465,0
1582221703.171,-2.930,31.250,19.043,5.859,0
1582221703.175,-3.906,20.508,20.996,15.625,0
1582221703.178,2.441,31.738,23.438,19.531,0
1582221703.182,6.836,38.574,23.926,5.859,0
1582221703.186,2.441,41.504,24.902,4.395,0
1582221703.190,0.977,38.574,24.902,22.461,0
1582221703.194,6.836,33.691,24.902,21.484,0
1582221703.196,6.836,32.715,24.414,8.301,0
1582221703.200,5.371,36.133,26.855,7.812,0
1582221703.204,0.000,33.203,29.297,15.625,0
1582221703.208,-4.395,34.668,23.926,13.672,0
1582221703.212,1.465,33.691,22.949,4.883,0
1582221703.216,0.977,36.621,25.391,1.465,0
1582221703.220,-2.441,41.016,21.973,5.371,0
1582221703.223,2.441,38.574,19.043,11.719,0
1582221703.227,1.953,36.621,18.066,2.441,0
1582221703.231,-1.465,33.691,17.578,-9.277,0
1582221703.235,6.836,19.531,22.461,5.859,0
1582221703.239,12.207,27.344,22.949,15.137,0
1582221703.240,9.766,41.504,19.043,6.836,0
1582221703.244,4.883,38.086,18.066,2.930,0
1582221703.248,3.906,38.086,18.555,8.789,0
1582221703.252,5.859,41.016,20.508,20.020,0
1582221703.256,9.277,37.109,22.949,27.344,0
1582221703.260,15.137,35.645,22.949,20.020,0
1582221703.264,12.695,40.527,22.949,11.719,0
1582221703.267,9.766,31.250,21.973,24.414,0
1582221703.271,11.719,28.809,20.996,31.250,0
1582221703.275,16.113,40.527,21.973,17.578,0
1582221703.279,20.020,44.922,20.996,6.348,0
1582221703.283,17.578,36.621,22.461,16.602,0
1582221703.286,9.277,29.297,22.949,23.438,0
1582221703.290,9.766,34.668,20.996,13.184,0
1582221703.294,9.277,32.715,22.461,0.977,0
1582221703.298,7.812,35.156,23.438,5.859,0
1582221703.302,3.906,31.738,22.949,13.184,0
1582221703.306,-4.883,30.762,19.531,1.465,0
1582221703.310,0.977,33.203,16.602,-8.789,0
1582221703.313,6.836,27.344,17.090,-2.930,0
1582221703.317,1.465,35.645,16.602,7.324,0
1582221703.321,5.859,40.527,18.555,8.301,0
1582221703.325,15.137,35.645,18.555,2.441,0
1582221703.329,11.230,35.156,20.508,-0.488,0
1582221703.331,2.930,36.621,22.949,10.742,0
1582221703.335,4.883,40.527,22.461,20.508,0
1582221703.339,8.789,40.039,25.879,11.719,0
1582221703.343,14.160,32.227,27.832,6.836,0
1582221703.347,13.672,38.574,27.344,21.973,0
1582221703.351,3.906,45.898,29.297,23.926,0
1582221703.355,2.441,33.691,26.367,12.207,0
1582221703.358,4.883,29.297,22.461,-0.488,0
1582221703.362,0.488,36.133,25.879,1.465,0
1582221703.366,-1.953,35.156,27.832,15.137,0
1582221703.370,0.488,50.781,24.902,12.695,0
1582221703.374,2.441,36.133,23.926,0.488,0
1582221703.375,0.000,17.090,24.414,-0.488,0
1582221703.379,-2.930,35.645,23.438,1.953,0
1582221703.383,-7.324,37.109,25.391,-1.465,0
1582221703.387,-10.254,35.645,27.344,-7.812,0
1582221703.391,-0.488,44.922,26.855,-3.906,0
1582221703.395,5.859,39.551,26.367,5.371,0
1582221703.399,0.977,30.762,27.344,2.441,0
1582221703.402,-0.488,40.039,25.391,-1.465,0
1582221703.406,0.000,39.551,25.879,-3.906,0
1582221703.410,1.953,32.715,30.273,5.859,0
1582221703.414,0.488,35.156,29.785,11.230,0
1582221703.418,-3.906,25.879,30.762,5.859,0
1582221703.435,1.465,29.297,28.809,2.930,0
1582221703.439,8.301,44.922,24.902,1.953,0
1582221703.443,4.883,34.180,26.367,12.695,0
1582221703.447,1.953,34.668,25.391,8.301,0
1582221703.451,6.348,38.086,25.391,-6.348,0
1582221703.455,6.836,35.156,24.902,3.906,0
1582221703.459,5.859,40.039,22.949,15.137,0
1582221703.462,5.859,31.738,24.902,10.742,0
1582221703.466,8.301,30.273,26.367,-0.488,0
1582221703.470,10.254,43.457,25.391,-4.395,0
1582221703.474,2.441,37.109,26.855,5.859,0
1582221703.478,-5.859,30.273,23.926,11.719,0
1582221703.481,-3.418,44.434,23.438,7.324,0
1582221703.485,4.395,46.875,25.391,0.488,0
1582221703.489,0.000,40.039,25.879,5.859,0
1582221703.493,-2.441,35.645,28.809,22.461,0
1582221703.497,5.859,29.297,28.320,22.949,0
1582221703.501,3.906,24.414,26.855,12.695,0
1582221703.505,-5.371,35.156,27.344,7.324,0
1582221703.508,-6.348,41.992,30.762,15.137,0
1582221703.512,0.000,36.133,32.715,25.879,0
1582221703.516,4.883,33.203,32.227,10.254,0
1582221703.520,0.000,33.203,29.785,3.418,0
1582221703.524,0.488,31.738,30.273,15.625,0
1582221703.525,4.883,32.715,31.738,18.066,0
1582221703.529,4.883,35.156,29.297,5.859,0
1582221703.533,2.441,25.391,29.297,-4.883,0
1582221703.537,2.930,32.227,28.809,2.441,0
1582221703.541,5.371,49.316,25.879,6.348,0
1582221703.545,6.836,47.363,24.414,-1.465,0
1582221703.549,6.348,35.645,23.438,-11.719,0
1582221703.552,-1.953,40.039,21.973,-7.324,0
1582221703.556,-6.348,41.992,22.461,0.977,0
1582221703.560,0.488,37.109,22.461,-4.883,0
1582221703.564,10.742,38.086,20.996,-5.859,0
1582221703.568,11.230,36.621,20.996,7.812,0
1582221703.571,8.789,37.598,24.414,22.461,0
1582221703.575,5.859,34.180,27.832,22.461,0
1582221703.579,8.301,34.668,28.320,13.672,0
1582221703.583,10.742,21.973,31.250,12.695,0
1582221703.587,6.836,19.043,32.715,18.555,0
1582221703.591,7.812,37.109,32.227,23.926,0
1582221703.595,2.441,35.645,28.320,11.719,0
1582221703.598,-0.977,38.574,25.391,1.465,0
1582221703.602,-0.977,35.156,25.391,8.789,0
1582221703.606,-2.930,21.973,23.438,17.578,0
1582221703.610,0.488,26.855,26.855,15.625,0
1582221703.614,0.977,34.180,28.809,2.441,0
1582221703.615,-4.883,30.273,29.297,-0.488,0
1582221703.619,-11.230,26.855,30.273,4.883,0
1582221703.623,-7.324,23.438,29.785,5.859,0
1582221703.627,-3.906,23.438,30.273,-9.766,0
1582221703.631,-8.301,27.832,30.762,-17.578,0
1582221703.635,-10.742,36.133,27.344,-7.812,0
1582221703.639,-12.207,45.410,23.438,-6.836,0
1582221703.642,-4.883,34.668,27.832,-13.672,0
1582221703.646,0.488,33.203,29.297,-15.137,0
1582221703.650,-1.465,41.992,27.832,2.441,0
1582221703.654,2.441,34.180,29.297,11.719,0
1582221703.658,8.789,36.133,28.809,5.371,0
1582221703.660,10.254,42.969,27.832,6.348,0
1582221703.664,8.789,42.480,28.320,17.578,0
1582221703.668,8.301,41.992,27.832,30.273,0
1582221703.672,12.207,42.969,27.344,18.066,0
1582221703.676,15.625,44.434,27.832,0.977,0
1582221703.680,6.348,35.645,28.809,5.859,0
1582221703.684,-0.488,28.320,29.785,14.648,0
1582221703.687,-1.953,39.551,28.809,15.137,0
1582221703.691,-6.348,54.688,28.809,-1.953,0
1582221703.695,-1.953,42.480,32.715,0.977,0
1582221703.699,-1.953,35.645,35.645,18.066,0
1582221703.703,0.000,35.156,34.668,22.949,0
1582221703.705,0.488,32.715,33.203,17.090,0
1582221703.709,-3.906,44.434,33.203,9.766,0
1582221703.713,-7.812,42.969,31.738,16.113,0
1582221703.717,-3.906,40.039,32.715,21.484,0
1582221703.721,4.395,44.922,31.738,16.602,0
1582221703.725,9.766,45.898,30.762,7.324,0
1582221703.729,5.859,35.156,30.273,3.906,0
1582221703.732,-1.465,34.180,27.832,6.836,0
1582221703.736,1.465,41.504,25.391,6.836,0
1582221703.740,1.465,45.410,25.391,-0.488,0
1582221703.744,3.906,39.551,26.367,0.977,0
1582221703.748,3.906,25.879,26.367,1.953,0
1582221703.750,0.977,24.414,26.855,4.395,0
1582221703.754,2.930,38.574,27.832,3.906,0
1582221703.758,2.930,45.410,27.344,-0.488,0
1582221703.762,-5.371,37.598,26.367,8.789,0
1582221703.766,-6.836,35.645,24.414,11.719,0
1582221703.770,2.930,41.016,24.902,5.859,0
1582221703.774,8.301,38.574,30.273,2.441,0
1582221703.777,1.465,40.039,31.738,14.648,0
1582221703.781,-1.465,36.133,32.227,26.367,0
1582221703.785,8.301,32.227,33.203,13.672,0
1582221703.789,9.766,39.062,27.344,4.395,0
1582221703.793,0.977,42.969,27.832,12.207,0
1582221703.810,1.465,41.016,33.691,23.438,0
1582221703.814,3.906,22.461,35.645,19.531,0
1582221703.818,4.395,28.320,36.133,5.859,0
1582221703.822,-0.488,45.898,34.668,10.742,0
1582221703.826,-7.324,31.250,32.715,22.949,0
1582221703.830,-8.789,30.273,30.273,20.508,0
1582221703.834,-2.930,31.738,29.297,9.766,0
1582221703.837,2.930,37.109,31.250,5.859,0
1582221703.841,4.395,52.734,31.250,15.137,0
1582221703.845,6.836,52.734,33.203,16.602,0
1582221703.849,13.184,53.711,34.180,6.348,0
1582221703.853,20.996,47.852,35.156,3.418,0
1582221703.855,14.648,43.457,35.645,7.812,0
1582221703.859,14.648,45.410,28.320,13.672,0
1582221703.863,32.227,44.922,28.809,13.184,0
1582221703.867,34.668,41.992,33.203,2.930,0
1582221703.871,29.297,41.504,30.273,12.207,0
1582221703.875,20.996,48.340,28.809,25.391,0
1582221703.879,14.648,43.945,29.297,27.344,17187
1582221703.882,12.207,36.621,29.785,23.926,0
1582221703.886,5.371,35.156,33.203,23.438,0
1582221703.890,-1.465,36.133,33.691,28.809,0
1582221703.894,-4.395,45.898,31.250,24.902,0
1582221703.898,-0.488,45.898,30.762,16.113,0
1582221703.900,1.953,43.945,30.762,14.160,0
1582221703.904,1.953,34.668,31.738,25.391,0
1582221703.908,0.000,30.273,29.785,26.367,0
1582221703.912,4.395,45.410,26.367,9.277,0
1582221703.916,12.207,42.969,27.344,7.324,0
1582221703.920,9.277,34.180,28.320,15.625,0
1582221703.924,7.812,44.434,27.344,24.902,0
1582221703.927,4.883,50.293,25.879,19.043,0
1582221703.931,1.953,49.316,24.902,5.859,0
1582221703.935,0.000,45.898,25.879,13.672,0
1582221703.939,-1.465,35.156,28.320,24.414,0
1582221703.943,2.930,34.180,29.785,27.344,0
1582221703.945,10.254,45.898,28.809,17.578,0
1582221703.949,4.883,41.016,29.785,3.906,0
1582221703.953,1.465,35.645,29.297,15.137,0
1582221703.957,5.859,29.297,29.785,20.508,0
1582221703.961,4.883,28.809,31.738,7.324,0
1582221703.965,4.883,32.715,29.297,0.977,0
1582221703.969,4.395,36.621,25.879,8.789,0
1582221703.972,2.441,43.945,24.414,19.043,0
1582221703.976,0.977,42.480,22.461,8.789,0
1582221703.980,1.465,41.504,21.484,-0.977,0
1582221703.984,4.395,34.668,21.973,9.766,0
1582221703.988,5.371,32.715,21.973,17.090,0
1582221703.990,8.301,37.598,22.461,18.555,0
1582221703.994,9.277,28.809,21.484,6.836,0
1582221703.998,6.348,32.227,20.020,6.348,0
1582221704.002,2.441,44.922,19.043,15.625,0
1582221704.006,2.441,41.992,18.555,13.672,0
1582221704.010,5.371,32.715,20.996,10.254,0
1582221704.014,6.348,23.926,20.020,13.184,0
1582221704.017,-1.953,29.785,17.090,17.090,0
1582221704.021,-2.441,29.785,17.090,10.742,0
1582221704.025,4.883,31.738,17.090,5.859,0
1582221704.029,9.766,37.109,20.996,13.184,0
1582221704.033,7.324,38.086,23.926,22.949,0
1582221704.035,3.418,37.109,22.461,36.621,0
1582221704.039,8.301,28.809,23.438,21.973,0
1582221704.043,11.230,33.691,24.414,2.441,0
1582221704.047,6.348,39.551,23.926,20.020,0
1582221704.051,0.000,36.133,24.414,24.902,0
1582221704.055,4.883,28.320,24.902,16.113,0
1582221704.059,6.836,36.133,24.902,0.488,0
1582221704.062,6.836,47.363,21.973,-0.977,0
1582221704.066,8.301,44.434,23.438,21.484,0
1582221704.070,12.695,34.668,24.902,23.926,0
1582221704.074,20.020,25.391,21.973,16.602,0
1582221704.078,19.043,31.250,21.484,16.113,0
1582221704.080,9.277,43.457,22.461,17.090,0
1582221704.084,9.277,38.574,23.438,19.531,0
1582221704.088,18.066,35.156,26.855,16.602,0
1582221704.092,21.484,40.039,29.785,16.602,0
1582221704.096,15.137,35.156,27.344,20.020,0
1582221704.100,9.277,33.203,18.555,19.531,0
1582221704.104,1.465,34.668,11.230,4.883,0
1582221704.107,-9.277,33.691,9.766,-13.184,0
1582221704.111,-5.371,24.902,12.207,-3.418,0
1582221704.115,4.395,24.414,21.484,5.859,0
1582221704.119,10.742,33.691,26.367,8.789,0
1582221704.123,14.648,34.668,25.391,4.395,0
1582221704.125,16.113,38.086,27.344,3.418,0
1582221704.129,15.625,39.062,29.785,17.090,0
1582221704.133,17.578,41.504,30.273,20.508,0
1582221704.137,15.137,46.387,30.273,9.277,0
1582221704.141,8.789,46.875,29.297,5.859,0
1582221704.145,3.418,48.828,29.297,12.207,0
1582221704.149,2.930,42.969,30.762,20.996,0
1582221704.152,11.719,40.527,32.715,18.066,0
1582221704.156,16.602,34.668,32.715,9.277,0
1582221704.160,4.883,33.691,29.297,13.672,0
1582221704.164,0.000,48.828,25.879,17.578,0
1582221704.168,-2.441,39.551,25.879,10.742,0
1582221704.186,2.930,35.645,29.785,-5.859,0
1582221704.190,6.836,45.410,33.203,-4.395,0
1582221704.194,-1.953,41.992,32.227,13.672,0
1582221704.198,2.441,44.434,31.738,10.254,0
1582221704.202,7.324,43.457,33.203,1.953,0
1582221704.206,9.277,39.062,30.762,7.324,0
1582221704.210,0.488,38.086,30.762,6.836,0
1582221704.213,0.977,41.016,30.762,7.324,0
1582221704.217,11.230,40.527,29.785,2.930,0
1582221704.221,7.812,45.410,29.785,-2.441,0
1582221704.225,3.418,48.340,28.809,-0.977,0
1582221704.229,10.254,43.457,29.297,7.324,0
1582221704.231,21.973,34.180,28.320,8.301,0
1582221704.235,23.926,33.691,27.344,5.859,0
1582221704.239,21.484,39.551,27.344,13.184,0
1582221704.243,22.461,34.180,25.879,17.578,0
1582221704.247,22.949,44.434,23.926,20.020,0
1582221704.251,22.461,53.223,23.438,16.113,0
1582221704.255,15.625,46.387,21.484,17.090,0
1582221704.258,11.719,43.945,22.949,31.738,0
1582221704.262,18.066,38.086,25.391,21.973,0
1582221704.266,21.484,36.133,26.855,7.812,0
1582221704.270,11.719,42.969,29.785,14.648,0
1582221704.274,4.395,34.668,27.344,21.973,0
1582221704.276,9.766,33.203,25.879,20.508,0
1582221704.280,15.137,28.809,27.344,8.789,0
1582221704.284,10.742,33.691,26.855,0.977,0
1582221704.288,3.418,46.387,28.320,13.184,0
1582221704.292,-0.488,47.852,27.344,13.184,0
1582221704.296,1.953,50.781,21.484,6.348,0
1582221704.300,5.371,42.969,20.508,-0.488,0
1582221704.303,1.953,36.621,22.949,-3.418,0
1582221704.307,-4.883,44.434,22.461,8.789,0
1582221704.311,1.465,43.945,21.484,11.719,0
1582221704.315,8.301,39.551,23.926,5.371,0
1582221704.319,6.348,42.480,24.902,-0.488,0
1582221704.320,14.648,36.133,25.391,13.672,0
1582221704.324,19.531,39.062,26.855,24.902,0
1582221704.328,17.578,44.922,25.391,11.719,0
1582221704.332,22.949,41.504,26.367,12.207,0
1582221704.336,20.996,35.645,28.320,20.508,0
1582221704.340,16.113,27.344,29.785,24.414,0
1582221704.344,12.207,38.086,28.320,17.090,0
1582221704.347,9.766,41.992,28.809,8.789,0
1582221704.351,7.324,40.039,27.344,12.207,0
1582221704.355,2.441,37.109,22.949,14.160,0
1582221704.359,-0.488,39.062,21.973,13.184,0
1582221704.363,3.906,43.457,24.902,4.883,0
1582221704.366,2.441,39.551,29.785,6.836,0
1582221704.370,-0.977,48.828,30.762,17.090,0
1582221704.374,2.930,46.875,27.832,11.719,0
1582221704.378,3.418,36.133,27.344,2.441,0
1582221704.382,-0.977,38.086,26.367,6.348,0
1582221704.386,-6.348,41.992,24.902,18.066,0
1582221704.390,-4.395,36.133,25.879,15.625,0
1582221704.393,8.789,36.133,22.461,-1.953,0
1582221704.397,13.672,36.133,20.508,-0.488,0
1582221704.401,8.301,31.738,24.902,16.113,0
1582221704.405,9.766,25.879,27.344,18.555,0
1582221704.409,14.648,35.156,27.344,5.859,0
1582221704.411,16.602,37.598,26.367,-2.441,0
1582221704.415,7.324,39.062,24.414,4.395,0
1582221704.419,0.488,44.434,27.344,11.719,0
1582221704.423,6.836,40.039,28.809,10.254,0
1582221704.427,12.207,48.340,25.879,3.906,0
1582221704.431,3.906,52.246,25.391,5.371,0
1582221704.435,1.953,44.922,28.320,18.555,0
1582221704.438,8.789,36.133,28.320,16.113,0
1582221704.442,6.836,40.527,28.320,4.883,0
1582221704.446,8.301,46.875,30.762,10.742,0
1582221704.450,6.348,31.250,30.762,21.484,0
1582221704.454,2.441,26.367,29.297,23.438,0
1582221704.456,8.301,39.062,26.367,16.113,0
1582221704.460,8.789,43.945,25.879,9.766,0
1582221704.464,0.000,43.457,26.855,14.648,0
1582221704.468,0.000,39.551,25.879,18.555,0
1582221704.472,5.859,36.621,26.855,13.184,0
1582221704.476,4.883,27.344,28.809,7.812,0
1582221704.480,-2.930,34.180,28.809,9.277,0
1582221704.483,-2.930,48.340,29.785,15.625,0
1582221704.487,-0.977,42.969,31.738,13.184,0
1582221704.491,5.371,44.922,31.738,10.254,0
1582221704.495,5.859,37.598,30.273,17.578,0
1582221704.499,-9.277,28.320,29.785,18.555,0
1582221704.501,-3.418,40.527,30.762,15.137,0
1582221704.505,7.812,44.922,26.855,8.789,0
1582221704.509,8.301,36.621,25.391,16.113,0
1582221704.513,-0.977,34.180,28.320,23.438,0
1582221704.517,-2.930,33.203,30.273,22.461,0
1582221704.521,7.324,35.645,26.855,16.113,0
1582221704.525,12.695,38.574,23.438,10.742,0
1582221704.528,2.441,35.645,26.855,16.602,0
1582221704.532,-4.395,35.645,27.344,22.461,0
1582221704.536,0.977,26.855,25.391,11.719,0
1582221704.540,2.930,30.273,26.367,2.441,0
1582221704.544,-0.488,41.504,25.391,7.812,0
1582221704.561,-5.859,42.480,26.367,14.648,0
1582221704.565,-2.441,33.203,26.367,14.648,0
1582221704.569,8.789,25.879,25.879,12.695,0
1582221704.573,5.859,41.992,26.367,15.137,0
1582221704.577,-1.953,42.969,25.879,21.973,0
1582221704.581,-1.953,33.203,25.879,21.484,0
1582221704.585,0.488,33.691,24.902,6.348,0
1582221704.588,3.418,33.203,25.879,1.953,0
1582221704.592,3.906,41.504,24.902,18.066,0
1582221704.596,9.766,34.180,23.926,22.949,0
1582221704.600,10.254,36.133,23.926,7.324,0
1582221704.604,6.348,43.457,22.461,1.953,0
1582221704.606,0.977,40.527,23.438,14.160,0
1582221704.610,-3.418,42.480,23.926,24.902,0
1582221704.614,-3.418,31.250,24.414,14.648,0
1582221704.618,-4.395,23.438,27.344,5.859,0
1582221704.622,-1.953,41.016,26.855,15.137,0
1582221704.626,-0.488,46.387,26.367,22.949,0
1582221704.630,-0.488,37.109,26.367,19.043,0
1582221704.633,-1.465,34.668,27.832,2.441,0
1582221704.637,-2.441,40.039,28.809,3.906,0
1582221704.641,-4.395,40.527,29.297,10.742,0
1582221704.645,-9.766,33.691,29.785,3.906,0
1582221704.649,0.000,37.598,27.832,-1.465,0
1582221704.651,2.441,34.180,26.367,-0.488,0
1582221704.655,-5.371,37.109,25.391,16.113,0
1582221704.659,-2.441,35.156,27.832,17.090,0
1582221704.663,7.812,29.785,28.809,5.859,0
1582221704.667,7.812,37.598,25.879,-1.465,0
1582221704.671,0.977,33.691,26.367,8.789,0
1582221704.675,-1.465,35.645,27.344,21.484,0
1582221704.678,0.488,38.086,26.367,15.137,0
1582221704.682,7.812,33.203,25.391,7.324,0
1582221704.686,5.859,26.367,24.414,7.324,0
1582221704.690,-6.348,30.762,22.949,14.160,0
1582221704.694,-3.418,41.504,22.949,15.625,0
1582221704.695,5.859,38.574,20.996,3.418,0
1582221704.699,2.441,25.879,19.531,3.418,0
1582221704.703,-0.977,21.973,18.066,20.996,0
1582221704.707,-1.953,32.715,16.602,15.137,0
1582221704.711,4.883,41.992,16.602,0.000,0
1582221704.715,1.465,40.039,15.137,-4.883,0
1582221704.719,-4.395,34.180,15.625,0.000,0
1582221704.722,-1.953,36.621,18.066,4.883,0
1582221704.726,-2.441,31.738,19.531,-7.812,0
1582221704.730,-4.883,23.438,18.555,-8.301,0
1582221704.734,-10.254,23.438,18.555,2.441,0
1582221704.738,-12.695,23.438,18.066,5.859,0
1582221704.740,-11.230,28.320,17.090,-3.906,0
1582221704.744,-3.418,40.039,16.602,-10.254,0
1582221704.748,-1.953,37.109,19.043,1.465,0
1582221704.752,-4.395,30.273,23.438,12.695,0
1582221704.756,0.000,33.203,21.973,16.602,0
1582221704.760,7.324,34.180,20.996,9.277,0
1582221704.764,3.906,42.480,20.508,2.930,0
1582221704.767,-2.441,42.480,20.996,15.625,0
1582221704.771,-0.488,34.668,24.414,17.578,0
1582221704.775,-1.465,33.691,24.414,8.301,0
1582221704.779,4.395,43.457,23.438,2.930,0
1582221704.783,3.418,47.363,26.855,11.719,0
1582221704.785,4.395,40.527,27.832,19.531,0
1582221704.789,13.672,33.691,29.297,14.160,0
1582221704.793,19.043,36.133,31.250,9.766,0
1582221704.797,15.137,37.109,26.855,7.812,0
1582221704.801,8.789,37.109,26.367,10.742,0
1582221704.805,19.043,45.410,30.273,14.648,0
1582221704.809,24.902,39.551,29.297,3.906,0
1582221704.812,29.297,34.668,27.344,1.953,0
1582221704.816,35.156,33.691,26.855,5.371,0
1582221704.820,27.832,39.551,28.809,4.395,0
1582221704.824,23.926,48.340,27.832,2.930,0
1582221704.828,20.020,44.922,27.832,5.859,0
1582221704.830,6.348,44.434,29.297,14.160,0
1582221704.834,0.000,44.922,29.297,18.066,0
1582221704.838,0.000,41.016,26.855,13.672,0
1582221704.842,-3.906,40.527,26.855,8.301,0
1582221704.846,-8.789,44.922,31.738,17.578,0
1582221704.850,-9.277,41.016,27.344,26.855,0
1582221704.854,0.488,29.297,25.391,12.207,0
1582221704.857,6.348,34.668,29.297,-1.465,0
1582221704.861,6.348,39.062,27.344,13.672,0
1582221704.865,7.812,31.250,28.320,25.879,0
1582221704.869,8.301,41.504,28.809,14.648,0
1582221704.873,12.207,48.828,24.902,1.465,0
1582221704.875,10.742,45.410,23.438,1.465,0
1582221704.879,10.742,38.574,26.855,17.578,0
1582221704.883,10.742,39.062,27.344,19.043,0
1582221704.887,6.348,39.551,26.367,6.836,0
1582221704.891,11.719,36.621,25.879,8.789,0
1582221704.895,12.695,37.598,23.438,17.090,0
1582221704.899,1.953,36.621,23.926,19.531,0
1582221704.902,4.883,31.738,24.902,9.277,0
1582221704.906,13.184,26.855,22.461,6.348,0
1582221704.910,6.836,24.902,24.902,12.695,0
1582221704.914,-1.465,29.297,24.902,12.695,17025
1582221704.918,0.488,32.715,23.438,9.766,0
1582221704.934,7.812,37.598,25.391,1.465,0
1582221704.938,0.488,42.969,25.879,0.000,0
1582221704.942,-6.836,41.504,24.902,5.859,0
1582221704.946,-3.906,31.738,24.902,4.883,0
1582221704.950,-0.488,33.203,21.484,2.930,0
1582221704.954,-1.465,36.621,21.484,3.906,0
1582221704.958,-7.324,24.902,26.367,12.695,0
1582221704.961,-0.977,24.902,25.391,10.742,0
1582221704.965,4.883,34.180,25.391,2.441,0
1582221704.969,5.859,35.156,26.855,10.254,0
1582221704.973,2.930,41.504,26.367,15.137,0
1582221704.977,0.000,47.363,24.414,17.578,0
1582221704.980,-0.977,35.645,24.902,12.207,0
1582221704.984,-1.953,33.203,24.902,0.000,0
1582221704.988,-3.418,32.715,21.484,2.930,0
1582221704.992,-7.812,35.156,21.484,11.719,0
1582221704.996,-1.953,39.062,24.414,8.789,0
1582221705.000,7.812,39.551,25.391,-4.883,0
1582221705.004,5.371,33.691,20.996,8.789,0
1582221705.007,0.000,28.320,21.973,27.344,0
1582221705.011,3.418,28.320,27.832,22.461,0
1582221705.015,10.742,30.273,29.297,15.625,0
1582221705.019,15.137,34.668,31.250,19.043,0
1582221705.023,7.324,39.062,32.227,31.250,0
1582221705.025,2.930,43.945,29.297,38.086,0
1582221705.029,17.578,35.156,29.297,28.809,0
1582221705.033,20.996,29.785,29.297,21.973,0
1582221705.037,14.160,35.156,28.320,23.926,0
1582221705.041,9.277,41.016,30.273,25.879,0
1582221705.045,13.184,38.574,31.738,18.555,0
1582221705.049,19.043,27.344,30.273,10.742,0
1582221705.052,9.277,41.016,28.320,17.090,0
1582221705.056,4.883,48.340,30.762,18.555,0
1582221705.060,15.625,41.992,29.297,18.066,0
1582221705.064,18.555,43.457,25.391,11.719,0
1582221705.068,12.207,40.527,28.809,14.160,0
1582221705.070,4.395,36.133,31.250,26.855,0
1582221705.074,7.812,38.574,27.832,24.902,0
1582221705.078,15.137,32.715,27.344,21.484,0
1582221705.082,13.184,34.668,28.809,20.996,0
1582221705.086,11.719,41.992,27.832,28.809,0
1582221705.090,11.230,35.645,25.879,31.250,0
1582221705.094,18.066,41.992,26.367,23.926,0
1582221705.097,20.996,52.246,25.391,24.902,0
1582221705.101,10.742,47.852,22.949,23.926,0
1582221705.105,-2.441,35.156,24.902,24.902,0
1582221705.109,-2.441,33.691,25.879,15.625,0
1582221705.113,11.719,37.598,23.438,8.789,0
1582221705.115,11.719,40.527,22.949,19.043,0
1582221705.119,6.836,35.645,23.926,21.484,0
1582221705.123,8.301,32.715,24.902,17.578,0
1582221705.127,8.789,35.645,23.926,6.348,0
1582221705.131,6.348,26.367,20.508,-0.488,0
1582221705.135,4.395,30.762,21.973,7.324,0
1582221705.139,0.488,38.574,23.438,12.695,0
1582221705.142,1.465,36.133,21.973,0.000,0
1582221705.146,2.930,44.922,21.484,-6.836,0
1582221705.150,0.488,45.410,23.926,11.230,0
1582221705.154,-0.488,41.016,26.367,20.020,0
1582221705.158,-1.465,36.621,24.902,13.184,0
1582221705.256,9.277,39.062,22.949,9.766,0
1582221705.260,7.812,42.969,23.926,20.996,0
1582221705.264,2.930,37.598,23.438,34.180,0
1582221705.268,7.812,33.203,19.043,19.043,0
1582221705.272,4.395,32.715,16.113,-0.488,0
1582221705.276,-2.930,40.527,17.578,6.836,0
1582221705.280,-5.859,38.086,18.555,17.090,0
1582221705.283,-2.930,37.598,17.090,14.160,0
1582221705.287,8.301,44.434,18.555,4.883,0
1582221705.291,12.695,39.551,19.531,12.695,0
1582221705.295,6.348,32.715,22.949,27.344,0
1582221705.299,6.348,41.016,25.879,22.461,0
1582221705.259,11.230,45.898,23.926,13.184,0
1582221705.263,10.742,37.109,22.461,14.648,0
1582221705.267,7.324,34.668,24.414,19.531,0
1582221705.271,4.883,36.133,21.973,17.090,0
1582221705.275,3.418,23.438,19.531,2.441,0
1582221705.279,5.859,29.785,20.020,-2.441,0
1582221705.283,3.418,38.086,20.508,5.371,0
1582221705.286,-5.859,32.715,17.578,9.277,0
1582221705.290,-9.766,35.156,19.531,2.930,0
1582221705.294,-4.883,34.668,24.902,0.000,0
1582221705.298,0.977,24.414,26.855,5.371,0
1582221705.302,0.000,28.809,24.902,16.113,0
1582221705.263,-3.906,34.180,22.949,19.531,0
1582221705.267,-6.348,29.785,25.879,7.324,0
1582221705.271,-4.883,36.133,27.832,7.812,0
1582221705.275,-5.371,39.551,27.344,16.602,0
1582221705.279,-7.812,36.621,24.902,13.672,0
1582221705.283,-2.441,25.879,22.949,10.742,0
1582221705.287,-5.859,24.902,23.438,4.883,0
1582221705.290,-16.113,33.203,23.438,5.859,0
1582221705.294,-2.441,25.879,24.414,16.602,0
1582221705.298,4.883,23.926,22.461,8.301,0
1582221705.302,-1.465,33.691,21.973,-1.465,0
1582221705.306,-4.395,38.574,20.508,5.859,0
1582221705.311,-6.836,33.691,21.484,8.301,0
1582221705.315,-1.465,31.738,21.973,3.418,0
1582221705.319,3.418,36.133,20.020,-1.953,0
1582221705.323,1.465,29.785,23.438,3.906,0
1582221705.327,-3.418,35.156,25.879,23.438,0
1582221705.331,1.953,40.527,25.879,22.461,0
1582221705.335,10.742,34.668,24.902,-5.859,0
1582221705.338,14.160,33.203,28.320,4.883,0
1582221705.342,10.254,35.645,28.809,24.902,0
1582221705.346,1.953,36.621,27.344,18.555,0
1582221705.350,6.836,31.250,28.809,13.672,0
1582221705.354,11.230,39.551,28.320,12.695,0
1582221705.356,5.371,49.805,25.391,20.508,0
1582221705.360,-4.395,35.156,25.879,24.902,0
1582221705.364,-3.418,37.109,24.902,15.625,0
1582221705.368,4.883,44.434,24.902,4.883,0
1582221705.372,2.441,33.691,28.809,2.441,0
1582221705.376,-0.488,34.668,25.391,19.531,0
1582221705.380,1.953,37.109,19.531,16.602,0
1582221705.383,-1.465,37.109,22.461,-3.418,0
1582221705.387,0.000,35.645,23.438,-5.371,0
1582221705.391,-0.488,35.645,20.996,4.395,0
1582221705.395,-7.812,32.227,22.949,5.371,0
1582221705.399,-1.465,17.578,24.902,-3.418,0
1582221705.401,7.324,26.367,25.391,3.906,0
1582221705.405,5.371,45.410,23.926,13.672,0
1582221705.409,0.488,48.340,20.996,12.207,0
1582221705.413,0.488,43.457,21.484,2.930,0
1582221705.417,1.465,40.039,21.973,0.977,0
1582221705.421,-3.418,38.574,21.484,15.137,0
1582221705.425,-2.930,32.227,20.508,17.090,0
1582221705.428,3.906,32.227,20.508,5.859,0
1582221705.432,8.789,34.180,22.461,1.953,0
1582221705.436,4.883,27.344,22.949,6.348,0
1582221705.440,0.488,32.227,23.926,16.602,0
1582221705.444,-1.953,41.992,20.508,8.789,0
1582221705.446,1.465,27.832,18.555,-8.789,0
1582221705.450,3.418,27.832,22.461,-3.906,0
1582221705.454,-4.883,41.504,20.996,5.859,0
1582221705.458,-7.324,30.273,19.043,5.371,0
1582221705.462,4.395,27.344,23.926,-1.465,0
1582221705.466,2.441,39.062,24.414,-11.230,0
1582221705.470,-3.418,41.504,22.461,3.906,0
1582221705.473,-0.488,39.551,21.973,16.602,0
1582221705.477,0.488,32.715,21.973,2.930,0
1582221705.481,5.371,24.902,23.926,-8.301,0
1582221705.485,-3.418,28.320,22.949,-3.418,0
1582221705.489,-8.789,37.109,20.996,13.184,0
1582221705.490,-2.441,35.156,19.531,4.395,0
1582221705.494,2.441,24.414,17.090,-3.906,0
1582221705.498,0.977,30.273,21.484,5.859,0
1582221705.502,-4.395,43.945,25.391,12.695,0
1582221705.506,-1.953,40.527,26.367,8.301,0
1582221705.510,1.465,34.668,26.855,-4.395,0
1582221705.514,2.441,42.480,25.879,-0.488,0
1582221705.517,-1.953,48.340,23.926,2.930,0
1582221705.521,-0.488,41.992,21.973,-1.953,0
1582221705.525,4.395,37.598,20.996,-4.395,0
1582221705.529,1.465,41.504,21.484,-5.859,0
1582221705.533,-6.836,36.621,26.855,5.859,0
1582221705.536,-7.812,32.715,28.320,5.371,0
1582221705.540,3.906,33.203,27.344,3.906,0
1582221705.544,6.836,39.551,25.391,11.719,0
1582221705.548,1.953,34.668,21.973,21.973,0
1582221705.552,-0.488,24.414,23.438,31.250,0
1582221705.556,-0.488,30.273,21.973,17.090,0
1582221705.560,2.930,37.109,20.508,-1.953,0
1582221705.563,1.953,31.250,22.949,1.953,0
1582221705.567,-5.371,39.062,26.367,10.742,0
1582221705.571,0.977,53.711,27.344,9.277,0
1582221705.575,8.789,43.457,26.367,-4.883,0
1582221705.579,2.441,34.180,26.855,-3.906,0
1582221705.581,-2.441,41.016,26.367,11.230,0
1582221705.585,-4.395,44.922,25.879,14.648,0
1582221705.589,-1.953,40.039,28.809,11.230,0
1582221705.593,-1.465,27.832,28.320,4.395,0
1582221705.597,-6.836,23.926,26.855,4.395,0
1582221705.601,-4.395,37.109,27.832,9.766,0
1582221705.605,-1.465,38.574,27.344,0.977,0
1582221705.608,6.348,34.180,25.879,-7.324,0
1582221705.612,0.000,42.480,26.855,-7.324,0
1582221705.616,-0.488,35.645,26.367,1.465,0
1582221705.620,8.789,38.086,24.414,8.789,0
1582221705.624,9.766,52.734,23.926,-1.465,0
1582221705.641,9.277,39.062,26.855,1.465,0
1582221705.645,6.348,33.203,26.367,14.160,0
1582221705.649,4.395,47.852,25.879,18.555,0
1582221705.653,5.859,45.410,25.391,10.742,0
1582221705.657,7.812,42.480,24.414,4.395,0
1582221705.661,7.324,42.480,26.855,19.043,0
1582221705.665,1.953,40.527,26.855,15.137,0
1582221705.668,6.836,34.180,25.391,5.371,0
1582221705.672,11.230,34.180,27.344,4.395,0
1582221705.676,1.953,35.645,26.855,13.184,0
1582221705.680,7.324,33.691,24.414,23.926,0
1582221705.684,9.766,46.875,27.832,6.836,0
1582221705.686,3.418,54.688,28.320,-4.883,0
1582221705.690,1.465,46.387,27.344,4.883,0
1582221705.694,-4.883,42.969,28.320,12.695,0
1582221705.698,3.906,42.969,27.344,3.906,0
1582221705.702,18.555,38.086,28.809,-6.348,0
1582221705.706,15.625,37.109,32.715,1.953,0
1582221705.710,6.348,30.762,31.250,15.137,0
1582221705.713,4.883,36.621,29.297,12.207,0
1582221705.717,10.742,47.852,28.809,4.395,0
1582221705.721,5.859,40.527,27.832,1.953,0
1582221705.725,0.000,40.039,30.273,13.184,0
1582221705.729,3.906,43.457,29.297,18.555,0
1582221705.730,9.277,43.457,26.855,5.371,0
1582221705.734,18.066,42.969,28.809,2.930,0
1582221705.738,21.484,38.574,30.762,8.301,0
1582221705.742,19.531,37.109,30.273,12.695,0
1582221705.746,23.438,29.297,28.320,11.719,0
1582221705.750,21.484,24.902,29.297,4.883,0
1582221705.754,7.812,42.969,29.297,16.113,0
1582221705.757,5.371,44.434,29.785,24.902,0
1582221705.761,9.766,33.203,33.691,22.949,0
1582221705.765,2.930,39.551,34.180,18.066,0
1582221705.769,-3.906,44.922,32.227,12.695,0
1582221705.773,-2.441,42.480,34.668,20.020,0
1582221705.775,5.371,43.457,34.668,28.809,0
1582221705.779,8.301,32.715,31.738,17.578,0
1582221705.783,10.254,28.320,32.227,13.184,0
1582221705.787,11.230,27.832,32.715,24.414,0
1582221705.791,8.301,28.320,32.715,26.367,0
1582221705.795,7.324,51.270,28.320,16.602,0
1582221705.799,9.766,54.688,25.879,6.348,0
1582221705.802,6.836,41.504,27.344,9.766,0
1582221705.806,0.000,43.457,27.344,13.672,0
1582221705.810,0.488,39.551,32.227,4.395,0
1582221705.814,6.836,35.156,33.203,4.883,0
1582221705.818,2.930,39.062,30.273,13.672,0
1582221705.820,-1.953,41.504,29.785,21.973,0
1582221705.824,2.441,44.922,28.320,22.461,0
1582221705.828,8.789,35.645,29.297,12.695,0
1582221705.832,9.766,22.949,29.785,18.066,0
1582221705.836,6.348,34.180,28.809,31.738,0
1582221705.840,7.324,46.387,27.344,26.367,0
1582221705.844,13.672,36.621,29.785,17.578,0
1582221705.847,21.973,38.574,28.809,19.043,0
1582221705.851,14.160,40.039,26.367,15.137,0
1582221705.855,12.207,41.016,28.320,14.648,0
1582221705.859,17.578,51.270,29.297,17.578,0
1582221705.863,14.648,41.016,29.785,10.742,0
1582221705.865,10.254,39.551,29.297,12.695,0
1582221705.869,3.906,43.945,26.855,19.531,0
1582221705.873,0.000,37.109,25.879,13.184,0
1582221705.877,1.953,36.621,24.902,1.953,0
1582221705.881,4.395,41.016,25.391,1.953,0
1582221705.885,-0.977,41.016,27.344,11.719,0
1582221705.889,0.000,42.480,26.855,7.324,0
1582221705.892,10.742,39.062,25.391,-1.953,0
1582221705.896,10.742,41.992,24.902,4.883,0
1582221705.900,-0.977,41.504,24.414,15.625,0
1582221705.904,1.465,38.086,22.949,21.973,0
1582221705.908,7.812,43.945,22.949,13.672,0
1582221705.910,5.859,38.086,23.926,12.695,0
1582221705.914,4.883,28.809,24.902,30.273,0
1582221705.918,6.836,30.273,29.297,36.621,0
1582221705.922,14.648,38.086,28.809,25.879,0
1582221705.926,17.578,41.504,27.344,18.555,0
1582221705.930,11.230,35.156,25.391,26.855,0
1582221705.934,-3.906,31.738,21.973,32.227,0
1582221705.937,-4.883,39.062,20.508,18.555,0
1582221705.941,10.742,43.457,20.996,8.789,27270
1582221705.945,12.207,36.133,22.949,12.695,0
1582221705.949,9.277,32.715,23.926,21.973,0
1582221705.953,6.836,36.621,22.461,22.461,0
1582221705.955,9.766,35.156,21.973,9.766,0
1582221705.959,13.184,31.738,22.949,3.906,0
1582221705.963,5.371,35.645,21.484,11.719,0
1582221705.967,4.395,31.738,22.949,13.672,0
1582221705.971,9.766,32.715,23.438,8.789,0
1582221705.975,9.766,38.574,19.043,5.859,0
1582221705.979,6.836,37.598,18.555,6.836,0
1582221705.982,0.977,41.016,19.531,13.184,0
1582221705.986,3.418,38.574,19.531,8.301,0
1582221705.990,7.324,27.344,20.996,-1.465,0
1582221705.994,1.465,26.367,21.973,10.742,0
1582221705.998,-5.859,31.250,20.996,15.625,0
1582221706.000,-5.859,29.785,20.996,6.348,0
1582221706.004,3.906,27.344,21.484,3.418,0
1582221706.008,4.395,32.715,21.484,1.465,0
1582221706.012,-3.906,20.996,20.996,7.812,0
1582221706.016,-4.883,18.555,22.461,6.836,0
1582221706.020,2.930,43.457,23.438,-1.465,0
1582221706.024,3.418,45.410,22.461,-0.977,0
1582221706.027,-4.883,41.504,22.461,8.301,0
1582221706.031,-4.395,40.039,20.508,18.066,0
1582221706.035,8.789,39.551,22.949,15.625,0
1582221706.039,15.625,40.527,25.879,11.230,0
1582221706.043,12.695,39.062,25.391,22.949,0
1582221706.060,10.742,40.039,27.832,32.715,0
1582221706.064,7.812,37.598,26.367,18.555,0
1582221706.068,10.254,34.668,23.926,0.488,0
1582221706.072,9.277,29.785,24.414,7.324,0
1582221706.076,4.395,32.715,25.391,23.438,0
1582221706.080,9.277,35.645,28.809,23.926,0
1582221706.084,11.719,36.621,29.785,18.066,0
1582221706.087,10.254,42.969,28.320,19.043,0
1582221706.091,12.695,39.062,26.855,28.320,0
1582221706.095,12.207,34.668,25.879,27.344,0
1582221706.099,13.184,34.180,24.902,11.230,0
1582221706.103,13.672,35.645,24.902,8.789,0
1582221706.105,7.324,33.203,22.461,19.043,0
1582221706.109,8.789,25.879,23.438,26.367,0
1582221706.113,16.113,32.227,26.855,19.043,0
1582221706.117,18.066,36.133,28.320,9.277,0
1582221706.121,17.090,34.668,29.785,22.461,0
1582221706.125,12.695,38.086,30.273,33.691,0
1582221706.129,8.789,41.992,25.391,20.020,0
1582221706.132,14.160,48.828,25.879,12.695,0
1582221706.136,15.625,41.992,27.832,16.113,0
1582221706.140,12.207,31.738,24.902,22.461,0
1582221706.144,12.207,35.645,23.438,16.113,0
1582221706.148,14.160,39.551,25.391,6.348,0
1582221706.151,10.254,35.156,23.438,12.207,0
1582221706.155,2.441,38.574,23.438,15.625,0
1582221706.159,6.836,33.691,22.949,19.531,0
1582221706.163,13.184,34.180,24.414,5.859,0
1582221706.167,14.648,37.598,25.879,4.395,0
1582221706.171,17.090,39.062,24.902,24.902,0
1582221706.175,18.066,42.969,24.414,24.902,0
1582221706.178,19.043,44.434,25.391,16.602,0
1582221706.182,20.020,38.086,25.879,5.859,0
1582221706.186,15.625,41.504,24.414,8.789,0
1582221706.190,18.555,50.781,21.973,27.344,0
1582221706.194,17.090,44.922,22.461,19.043,0
1582221706.195,12.695,33.691,23.926,5.859,0
1582221706.199,16.113,32.227,25.391,10.254,0
1582221706.203,9.766,38.574,23.438,14.160,0
1582221706.207,7.812,42.969,20.020,13.184,0
1582221706.211,14.648,29.297,20.020,5.371,0
1582221706.215,12.207,33.203,20.508,6.836,0
1582221706.219,4.395,50.781,19.043,10.254,0
1582221706.222,6.348,47.852,19.531,9.766,0
1582221706.226,12.695,41.504,20.020,0.977,0
1582221706.230,6.836,39.551,19.531,-4.395,0
1582221706.234,2.441,35.645,21.973,18.555,0
1582221706.238,2.930,31.738,24.902,21.484,0
1582221706.241,6.348,34.668,25.879,9.766,0
1582221706.245,11.719,41.992,27.832,8.789,0
1582221706.249,8.789,44.922,26.367,9.766,0
1582221706.253,3.418,42.969,23.926,19.531,0
1582221706.257,3.418,38.574,24.414,12.695,0
1582221706.261,9.766,27.344,20.996,-1.953,0
1582221706.265,10.742,22.949,21.973,11.230,0
1582221706.268,12.695,41.504,23.926,19.043,0
1582221706.272,16.602,49.805,21.484,13.672,0
1582221706.276,17.578,41.504,24.414,7.324,0
1582221706.280,20.020,42.480,23.926,7.324,0
1582221706.284,15.625,45.898,23.438,21.484,0
1582221706.286,12.695,45.410,23.438,20.508,0
1582221706.290,14.160,39.551,21.973,8.301,0
1582221706.294,14.648,35.156,23.926,5.371,0
1582221706.298,6.348,35.645,23.438,11.230,0
1582221706.302,-1.953,36.133,26.367,17.090,0
1582221706.306,4.395,37.598,28.320,14.160,0
1582221706.310,2.930,43.457,25.391,4.883,0
1582221706.313,-1.953,41.992,23.926,3.906,0
1582221706.317,-1.953,34.180,24.414,14.648,0
1582221706.321,-0.488,34.668,25.879,13.672,0
1582221706.325,3.906,45.410,26.855,6.348,0
1582221706.329,4.883,48.340,27.344,12.207,0
1582221706.331,0.000,44.434,31.250,21.484,0
1582221706.335,0.488,44.922,32.715,24.414,0
1582221706.339,11.719,41.992,30.273,14.160,0
1582221706.343,6.348,29.785,29.297,3.418,0
1582221706.347,-3.906,27.344,29.297,12.695,0
1582221706.351,1.953,27.832,31.738,20.020,0
1582221706.355,1.465,35.156,33.203,3.418,0
1582221706.358,4.883,48.340,30.273,-1.953,0
1582221706.362,6.836,54.688,26.855,10.742,0
1582221706.366,4.883,51.270,27.832,16.602,0
1582221706.370,8.301,40.039,26.367,9.277,0
1582221706.374,6.836,35.645,23.926,0.488,0
1582221706.376,6.348,38.086,22.949,7.324,0
1582221706.380,0.977,41.016,22.949,16.602,0
1582221706.384,2.441,37.598,23.438,12.695,0
1582221706.388,10.742,27.832,19.531,0.000,0
1582221706.392,7.324,33.691,18.066,-0.977,0
1582221706.396,3.418,36.621,20.508,12.695,0
1582221706.400,6.836,25.879,22.461,15.137,0
1582221706.403,6.836,33.203,21.973,-1.465,0
1582221706.407,-0.977,40.527,22.949,-3.418,0
1582221706.411,-3.906,43.457,24.414,9.766,0
1582221706.415,-3.906,42.480,24.902,9.766,0
1582221706.419,-1.465,35.156,22.949,-0.488,0
1582221706.436,1.953,39.551,21.973,-2.930,0
1582221706.440,-3.906,39.551,20.020,1.465,0
1582221706.444,0.000,35.156,19.531,7.324,0
1582221706.448,4.883,39.062,25.391,5.371,0
1582221706.452,6.348,38.574,27.832,-4.883,0
1582221706.456,11.230,36.621,27.832,3.418,0
1582221706.460,15.137,37.109,27.344,13.672,0
1582221706.463,12.695,38.086,27.344,12.695,0
1582221706.467,4.883,39.551,30.273,2.441,0
1582221706.471,-1.465,39.551,31.738,-2.441,0
1582221706.475,-7.812,39.551,26.855,4.395,0
1582221706.479,-4.395,38.086,26.367,7.812,0
1582221706.481,0.977,33.691,30.273,-1.465,0
1582221706.485,0.000,28.809,28.809,-7.812,0
1582221706.489,-4.395,36.621,27.344,4.883,0
1582221706.493,-2.441,41.504,27.832,18.555,0
1582221706.497,5.371,40.527,26.855,7.324,0
1582221706.501,1.953,41.992,25.391,-2.441,0
1582221706.505,-10.254,33.203,24.902,7.324,0
1582221706.508,-8.301,35.156,25.391,17.090,0
1582221706.512,-2.930,45.410,26.367,12.695,0
1582221706.516,5.859,40.039,26.855,-1.953,0
1582221706.520,6.836,33.203,28.809,5.371,0
1582221706.524,-3.418,36.133,28.809,22.949,0
1582221706.526,-3.906,36.621,27.344,15.137,0
1582221706.530,7.324,41.504,25.879,3.418,0
1582221706.534,14.160,39.062,29.297,13.184,0
1582221706.538,6.348,39.062,32.227,27.344,0
1582221706.542,-0.977,40.039,30.273,22.461,0
1582221706.546,3.906,28.809,29.785,12.695,0
1582221706.550,8.301,24.902,29.297,2.930,0
1582221706.553,2.441,36.133,30.273,8.301,0
1582221706.557,-6.348,49.805,28.809,18.555,0
1582221706.561,1.953,45.898,27.832,12.207,0
1582221706.565,12.695,37.598,28.809,3.906,0
1582221706.569,6.836,38.574,27.344,8.789,0
1582221706.571,-0.488,44.434,28.320,15.625,0
1582221706.575,-2.441,40.527,30.762,8.789,0
1582221706.579,-2.441,37.598,28.809,-4.883,0
1582221706.583,-5.371,32.715,26.855,-4.883,0
1582221706.587,-2.441,33.691,29.297,7.812,0
1582221706.591,2.930,32.227,29.785,7.812,0
1582221706.595,11.230,27.832,27.832,-0.488,0
1582221706.598,11.719,41.016,25.879,0.000,0
1582221706.602,6.348,44.922,24.902,11.230,0
1582221706.606,8.789,41.504,23.438,14.648,0
1582221706.610,-1.465,28.809,22.949,2.441,0
1582221706.614,-1.465,27.344,23.438,11.230,0
1582221706.616,-1.953,37.109,21.973,27.344,0
1582221706.620,-16.602,32.227,23.926,23.926,0
1582221706.624,-12.207,36.621,25.391,19.531,0
1582221706.628,-4.395,39.062,23.926,15.137,0
1582221706.632,-3.906,37.109,25.879,20.508,0
1582221706.636,-3.906,32.715,27.832,30.273,0
1582221706.640,-4.395,30.762,27.344,24.902,0
1582221706.643,-2.930,30.273,27.344,8.301,0
1582221706.647,-6.348,26.367,26.367,7.812,0
1582221706.651,-11.719,28.809,22.461,20.508,0
1582221706.655,-9.766,30.762,20.996,19.531,0
1582221706.659,0.488,26.855,20.996,10.742,0
1582221706.661,3.906,28.320,19.043,1.465,0
1582221706.665,-6.348,39.551,19.043,0.488,0
1582221706.669,-2.930,36.133,20.508,7.324,0
1582221706.673,5.371,31.250,21.484,3.906,0
1582221706.677,1.465,27.832,22.461,-0.977,0
1582221706.681,2.930,32.715,24.414,5.371,0
1582221706.685,1.465,45.898,21.973,11.230,0
1582221706.688,4.395,41.992,21.484,13.184,0
1582221706.692,10.742,38.574,24.902,-6.348,0
1582221706.696,11.230,35.645,24.902,3.906,0
1582221706.700,3.418,39.551,24.414,24.414,0
1582221706.704,3.906,38.086,22.949,16.113,0
1582221706.706,11.230,35.156,22.949,6.836,0
1582221706.710,8.789,41.016,24.414,6.348,0
1582221706.714,0.000,37.109,25.391,19.043,0
1582221706.718,-8.301,33.203,22.949,14.648,0
1582221706.722,-0.977,40.527,22.461,-2.930,0
1582221706.726,7.324,39.551,26.367,0.000,0
1582221706.730,1.953,40.039,21.484,11.230,0
1582221706.733,-6.348,35.645,19.531,17.578,0
1582221706.737,-3.906,27.832,22.949,10.254,0
1582221706.741,6.836,29.297,23.438,0.000,0
1582221706.745,5.371,33.691,25.391,6.836,0
1582221706.749,0.488,34.668,27.344,11.719,0
1582221706.751,6.836,35.645,28.320,11.719,0
1582221706.755,7.812,35.156,25.391,-1.465,0
1582221706.759,0.977,29.785,23.926,-1.465,0
1582221706.763,-1.953,21.484,27.832,14.648,0
1582221706.767,4.395,29.297,28.320,13.672,0
1582221706.771,10.254,35.645,30.762,8.301,0
1582221706.775,8.301,35.645,34.180,4.883,0
1582221706.778,3.418,38.574,31.738,11.719,0
1582221706.782,1.953,34.180,29.785,21.973,0
1582221706.786,4.395,31.738,26.855,13.184,0
1582221706.790,5.371,26.855,23.926,5.859,0
1582221706.794,6.836,27.344,22.949,14.160,0
1582221706.810,-0.488,44.434,21.484,18.066,0
1582221706.814,-0.488,42.969,22.461,9.277,0
1582221706.818,3.906,29.297,22.461,1.953,0
1582221706.822,-4.395,37.598,23.438,12.695,0
1582221706.826,-12.207,47.363,22.949,19.531,0
1582221706.830,-5.371,38.574,23.438,9.766,0
1582221706.834,3.906,34.180,25.391,7.324,0
1582221706.837,-0.488,37.598,24.902,6.348,0
1582221706.841,0.488,37.109,24.902,16.602,0
1582221706.845,9.277,35.645,25.879,20.020,0
1582221706.849,9.277,33.203,25.391,10.254,0
1582221706.853,3.418,30.273,23.926,7.324,0
1582221706.855,4.395,27.344,22.949,9.766,0
1582221706.859,3.906,25.391,20.508,12.695,0
1582221706.863,5.859,36.621,20.020,1.953,0
1582221706.867,15.137,41.504,21.484,0.977,0
1582221706.871,13.672,37.598,21.973,14.648,0
1582221706.875,7.812,39.551,22.949,15.625,0
1582221706.879,-0.977,32.715,20.020,3.906,0
1582221706.882,4.395,29.785,17.578,-9.277,0
1582221706.886,9.277,35.156,17.578,-1.953,0
1582221706.890,1.465,39.551,17.578,7.324,0
1582221706.894,0.488,34.668,19.043,1.953,0
1582221706.898,0.488,28.809,19.531,-7.324,0
1582221706.900,-2.441,22.949,18.555,-12.207,0
1582221706.904,-2.930,20.508,20.508,-2.441,0
1582221706.908,-8.301,32.715,20.020,0.488,0
1582221706.912,-6.348,36.133,17.578,-8.301,0
1582221706.916,1.953,27.832,22.461,-4.395,0
1582221706.920,1.465,31.250,25.391,6.836,0
1582221706.924,0.000,40.039,22.949,7.324,0
1582221706.927,1.465,36.133,22.461,0.000,0
1582221706.931,2.930,33.203,21.973,-2.930,0
1582221706.935,-3.418,32.227,21.484,5.859,0
1582221706.939,-2.441,35.156,22.949,17.090,0
1582221706.943,1.465,33.691,25.879,13.184,0
1582221706.945,4.883,30.762,28.809,8.301,0
1582221706.949,5.859,37.109,30.273,13.184,0
1582221706.953,3.906,40.039,31.738,18.066,0
1582221706.957,8.789,40.527,30.273,16.113,0
1582221706.961,7.812,44.922,29.297,4.395,0
1582221706.965,0.488,38.574,27.344,1.953,0
1582221706.969,-7.812,23.438,23.438,5.371,0
1582221706.972,-14.648,24.414,20.996,4.395,0
1582221706.976,-10.742,25.879,21.973,-13.184,0
1582221706.980,-11.230,26.367,22.461,-18.555,0
1582221706.984,-18.066,38.574,22.949,1.465,0
1582221706.988,-16.113,41.992,24.414,5.371,0
1582221706.990,-12.207,39.551,27.832,-3.418,0
1582221706.994,-6.836,42.480,31.738,-11.719,0
1582221706.998,-0.977,47.852,31.738,1.465,0
1582221707.002,3.418,43.457,32.227,13.184,0
1582221707.006,7.812,41.504,32.715,8.789,0
1582221707.010,11.719,48.340,31.250,2.930,0
1582221707.014,7.324,47.363,29.297,2.441,28475
1582221707.017,0.977,43.945,30.273,9.766,0
1582221707.021,6.348,44.434,33.203,10.254,0
