timestamps,TP9,AF7,AF8,TP10,Marker0
1582146790.122,-26.367,94.727,188.965,-31.738,0
1582146790.126,-20.508,108.398,250.977,-3.906,0
1582146790.130,-21.973,97.168,239.258,-32.227,0
1582146790.134,-38.574,84.961,193.848,-70.312,0
1582146790.138,-56.641,79.590,196.777,-40.039,0
1582146790.142,-15.137,76.660,195.801,14.648,0
1582146790.146,20.508,88.867,186.035,-5.371,0
1582146790.149,-8.301,79.102,82.520,-47.852,0
1582146790.153,-25.879,67.871,89.355,-18.066,0
1582146790.157,-35.156,94.238,291.992,11.719,0
1582146790.161,-51.758,92.773,258.301,6.836,0
1582146790.165,-59.570,70.801,164.551,-23.926,0
1582146790.167,-56.152,65.430,109.375,-32.715,0
1582146790.171,-80.566,83.984,127.930,-5.859,0
1582146790.175,-65.430,74.707,138.672,-10.742,0
1582146790.179,-37.109,58.594,110.352,-6.836,0
1582146790.183,-44.434,60.547,157.227,-14.648,0
1582146790.187,-25.879,47.363,119.141,2.441,0
1582146790.191,-41.992,51.758,48.340,40.527,0
1582146790.194,-47.852,78.613,34.180,14.160,0
1582146790.198,-62.988,110.840,229.492,-19.531,0
1582146790.202,-98.633,91.797,318.848,-12.695,0
1582146790.206,-75.684,70.801,191.895,7.324,0
1582146790.210,-67.383,78.125,165.039,-9.277,0
1582146790.212,-86.914,67.383,219.238,-51.758,0
1582146790.216,-82.520,43.945,224.609,-17.578,0
1582146790.220,-76.172,60.547,174.805,13.672,0
1582146790.224,-82.520,85.449,154.297,-35.645,0
1582146790.228,-64.453,78.125,162.598,-46.875,0
1582146790.232,-57.617,77.637,181.641,-41.016,0
1582146790.236,-39.062,61.035,76.660,-8.789,0
1582146790.239,-24.902,57.617,108.398,2.930,0
1582146790.243,-58.594,70.312,298.828,-32.227,0
1582146790.247,-59.570,76.660,268.066,-8.301,0
1582146790.251,-50.293,82.031,205.078,34.668,0
1582146790.255,-50.293,76.660,208.496,31.250,0
1582146790.257,-44.922,87.402,264.160,-10.742,0
1582146790.261,-26.367,88.867,257.324,-36.133,0
1582146790.265,-19.043,76.660,183.594,8.789,0
1582146790.269,-38.086,87.891,210.938,37.109,0
1582146790.273,-24.414,83.984,244.629,31.250,0
1582146790.277,-3.906,51.270,115.723,28.809,0
1582146790.281,-3.418,54.199,38.086,48.828,0
1582146790.284,-38.086,89.844,241.699,42.969,0
1582146790.288,-40.527,78.125,308.105,18.555,0
1582146790.292,-32.715,66.895,152.344,-14.648,0
1582146790.296,-41.016,92.285,136.719,-38.086,0
1582146790.300,-14.648,111.816,210.938,-6.348,0
1582146790.317,10.254,110.840,224.121,12.695,0
1582146790.321,-15.625,86.914,156.738,-22.461,0
1582146790.325,-24.902,88.867,143.555,-47.363,0
1582146790.329,8.789,106.934,199.707,-24.902,0
1582146790.333,19.043,102.051,149.902,-10.254,0
1582146790.337,16.113,83.984,72.754,-27.344,0
1582146790.341,7.812,104.492,80.078,-39.062,0
1582146790.344,-5.859,136.719,195.801,-33.691,0
1582146790.348,-1.465,126.465,226.074,-18.066,0
1582146790.352,20.508,121.582,120.605,-28.809,0
1582146790.356,6.836,130.371,126.465,-66.406,0
1582146790.360,9.766,117.188,219.238,-59.570,0
1582146790.362,47.363,84.473,158.691,-10.742,0
1582146790.366,35.645,83.984,21.973,7.324,0
1582146790.370,27.832,128.906,105.957,-43.457,0
1582146790.374,27.832,128.418,199.707,-77.637,0
1582146790.378,24.902,101.074,124.023,-42.969,0
1582146790.382,31.250,91.309,76.660,-22.949,0
1582146790.386,32.227,89.844,125.000,-70.312,0
1582146790.389,41.016,82.520,249.023,-73.242,0
1582146790.393,68.359,72.266,192.871,-20.508,0
1582146790.397,51.758,80.078,53.223,-10.254,0
1582146790.401,30.273,122.070,199.219,-41.016,0
1582146790.405,66.895,131.836,322.754,-48.340,0
1582146790.407,69.336,102.051,226.074,-31.250,0
1582146790.411,65.918,103.516,220.703,-13.672,0
1582146790.415,73.730,107.910,333.984,-13.672,0
1582146790.419,86.914,83.984,270.996,-18.066,0
1582146790.423,91.309,81.543,195.312,-3.906,0
1582146790.427,94.238,78.125,178.223,26.855,0
1582146790.431,52.246,73.242,173.828,32.227,0
1582146790.434,35.156,88.379,229.492,0.000,0
1582146790.438,77.148,66.406,119.629,6.348,0
1582146790.442,57.129,81.055,134.277,34.180,0
1582146790.446,44.434,105.957,351.562,42.480,0
1582146790.450,47.852,85.449,313.477,30.762,0
1582146790.452,21.973,87.402,200.195,10.254,0
1582146790.456,18.066,88.379,233.887,16.602,0
1582146790.460,34.668,69.824,306.641,55.176,0
1582146790.464,43.945,41.016,198.730,70.312,0
1582146790.468,48.340,61.523,161.133,14.160,0
1582146790.472,41.016,78.125,194.336,5.859,0
1582146790.476,28.320,72.266,168.945,28.809,0
1582146790.479,35.645,71.777,205.566,51.758,0
1582146790.483,40.039,59.570,121.094,28.809,0
1582146790.487,0.000,83.984,224.121,-13.184,0
1582146790.491,2.930,83.008,328.125,25.391,0
1582146790.495,20.508,62.012,240.723,63.477,0
1582146790.497,18.555,79.590,234.375,41.992,0
1582146790.501,2.441,75.195,247.070,8.789,0
1582146790.505,-19.531,58.594,226.074,28.320,0
1582146790.509,-8.789,64.941,186.523,42.969,0
1582146790.513,3.906,70.801,188.965,31.738,0
1582146790.517,-12.695,72.754,184.082,8.789,0
1582146790.521,-31.250,54.199,158.691,36.621,0
1582146790.524,-17.578,25.879,80.566,64.941,0
1582146790.528,-8.789,47.852,98.145,28.809,0
1582146790.532,-5.371,73.242,284.180,10.742,0
1582146790.536,17.090,66.406,256.836,41.016,0
1582146790.540,2.930,73.730,161.133,85.449,0
1582146790.542,-28.320,77.637,177.734,61.035,0
1582146790.546,-31.738,71.289,215.820,8.789,0
1582146790.550,-30.762,47.852,170.898,18.555,0
1582146790.554,-31.250,38.574,123.535,24.902,0
1582146790.558,-21.484,44.434,169.434,27.344,0
1582146790.562,5.371,38.574,144.531,42.969,0
1582146790.566,18.555,42.480,100.098,56.641,0
1582146790.569,-18.555,54.199,76.660,69.824,0
1582146790.573,-59.082,83.496,228.027,28.809,0
1582146790.577,-39.551,67.383,259.766,17.090,0
1582146790.581,-22.949,48.340,115.234,5.371,0
1582146790.585,-37.598,51.758,148.438,29.785,0
1582146790.587,-44.434,54.199,231.445,71.777,0
1582146790.591,-26.367,42.480,217.285,36.133,0
1582146790.595,-5.859,34.180,141.113,8.301,0
1582146790.599,-4.395,48.340,150.391,22.461,0
1582146790.603,-28.809,45.898,188.477,53.223,0
1582146790.607,-20.508,32.715,151.855,62.500,0
1582146790.611,10.254,23.926,2.930,19.531,0
1582146790.614,16.602,50.781,28.809,8.301,0
1582146790.618,-3.418,89.355,279.297,56.152,0
1582146790.622,-12.695,69.824,276.855,65.430,0
1582146790.626,-20.020,47.852,180.664,36.133,0
1582146790.630,-25.391,49.805,193.359,0.000,0
1582146790.632,-24.414,40.039,177.734,0.977,0
1582146790.636,-20.020,34.180,167.969,32.715,0
1582146790.640,9.277,31.250,140.625,21.484,0
1582146790.644,17.578,41.016,153.809,9.277,0
1582146790.648,5.371,57.617,211.914,26.367,0
1582146790.652,17.578,50.781,98.633,52.734,0
1582146790.656,29.297,63.477,41.992,54.199,0
1582146790.659,-0.977,86.426,178.223,23.926,0
1582146790.663,7.812,66.895,211.914,21.484,0
1582146790.667,128.906,33.691,135.254,52.734,0
1582146790.671,125.977,27.344,118.164,86.426,0
1582146790.675,75.684,47.852,213.867,74.707,0
1582146790.693,95.703,58.594,233.887,74.707,0
1582146790.697,51.270,49.805,208.008,88.379,0
1582146790.701,28.320,40.527,188.965,68.848,0
1582146790.705,14.160,61.035,183.105,54.199,0
1582146790.709,1.953,60.547,206.543,48.340,0
1582146790.713,42.480,50.781,178.711,88.867,0
1582146790.717,63.477,56.641,163.086,125.000,0
1582146790.720,22.949,59.570,232.910,67.383,0
1582146790.724,-3.906,52.246,291.992,32.715,0
1582146790.728,20.508,27.832,173.828,63.477,0
1582146790.732,14.160,36.133,145.996,84.473,0
1582146790.736,-43.457,25.879,292.969,73.730,0
1582146790.738,-24.414,0.488,260.742,60.059,0
1582146790.742,0.488,11.230,170.898,79.590,0
1582146790.746,-39.062,17.090,214.355,72.266,0
1582146790.750,-30.273,17.090,303.711,72.754,0
1582146790.754,-6.836,-5.371,241.699,70.312,0
1582146790.758,-1.953,-17.578,128.418,41.504,0
1582146790.762,-9.766,-7.812,126.953,49.316,0
1582146790.765,-13.184,-0.488,223.633,63.477,0
1582146790.769,-9.766,-15.137,215.820,38.086,0
1582146790.773,-2.441,-25.391,66.895,9.277,0
1582146790.777,-24.902,13.184,168.945,10.742,0
1582146790.781,-27.832,21.973,291.016,30.273,0
1582146790.783,-8.789,12.207,249.023,37.109,0
1582146790.787,9.766,13.184,224.609,29.785,0
1582146790.791,20.508,23.926,268.555,12.695,0
1582146790.795,40.527,32.715,286.621,34.668,0
1582146790.799,20.996,24.414,228.027,46.875,0
1582146790.803,4.883,-5.371,168.945,17.578,0
1582146790.807,20.020,7.324,158.691,24.902,0
1582146790.810,9.277,48.828,275.391,51.270,0
1582146790.814,32.227,14.648,192.871,85.449,0
1582146790.818,36.621,17.578,95.215,60.547,0
1582146790.822,31.250,53.711,279.785,12.207,0
1582146790.826,51.758,34.668,284.668,41.504,0
1582146790.828,51.758,31.738,217.285,46.387,0
1582146790.832,40.039,26.855,219.727,9.277,0
1582146790.836,68.359,23.438,225.586,7.812,0
1582146790.840,95.215,33.203,171.387,43.457,0
1582146790.844,55.664,21.973,114.258,52.246,0
1582146790.848,31.250,23.926,101.562,35.156,0
1582146790.852,32.715,24.902,112.793,-1.953,0
1582146790.855,53.711,-1.953,73.730,7.324,0
1582146790.859,69.336,11.230,-19.531,66.895,0
1582146790.863,62.012,59.082,167.480,60.547,0
1582146790.867,83.496,49.316,270.508,37.598,0
1582146790.871,67.383,29.297,183.594,47.852,0
1582146790.873,25.879,15.625,101.562,72.754,0
1582146790.877,36.621,38.574,183.105,59.570,0
1582146790.881,45.898,39.062,216.309,39.062,0
1582146790.885,15.625,21.973,113.281,34.180,0
1582146790.889,21.973,42.480,143.555,39.062,0
1582146790.893,38.574,41.992,146.484,63.477,0
1582146790.897,35.156,25.391,131.348,65.430,0
1582146790.900,42.480,-3.906,23.926,47.852,0
1582146790.904,34.180,14.648,39.551,38.086,0
1582146790.908,6.348,55.664,256.348,46.875,0
1582146790.912,6.348,45.898,223.145,45.898,0
1582146790.916,8.789,36.621,169.922,18.066,0
1582146790.918,21.973,43.457,216.797,25.879,0
1582146790.922,31.738,49.316,224.121,54.199,0
1582146790.926,20.020,45.898,201.660,61.523,0
1582146790.930,-1.465,36.133,127.930,40.039,0
1582146790.934,-8.789,45.410,143.555,33.691,0
1582146790.938,18.555,22.461,140.137,57.129,0
1582146790.942,13.672,10.742,53.711,60.547,0
1582146790.945,6.348,38.086,47.363,36.621,0
1582146790.949,5.859,51.758,195.312,33.691,0
1582146790.953,7.812,50.293,326.660,71.777,0
1582146790.957,43.457,47.363,220.215,74.707,0
1582146790.961,18.066,51.758,149.414,44.922,0
1582146790.963,-29.785,55.664,186.523,-2.930,0
1582146790.967,-33.691,46.387,154.785,10.742,0
1582146790.971,-23.926,32.227,124.512,52.734,0
1582146790.975,-22.949,21.973,154.785,46.875,0
1582146790.979,-0.977,23.926,201.660,31.738,0
1582146790.983,14.648,34.668,150.391,51.758,0
1582146790.987,-11.230,19.043,-19.043,69.336,0
1582146790.990,-29.785,37.598,-3.906,42.480,0
1582146790.994,-19.531,70.312,217.285,11.719,0
1582146790.998,0.000,41.992,212.402,9.277,0
1582146791.002,-17.578,41.992,165.527,46.875,0
1582146791.006,-12.207,53.711,175.293,57.617,0
1582146791.008,2.441,47.363,173.828,28.809,0
1582146791.012,8.301,34.668,117.676,18.066,0
1582146791.016,-8.301,27.344,72.266,14.648,0
1582146791.020,-18.555,41.016,144.043,-0.488,0
1582146791.024,-6.836,34.180,156.250,3.906,0
1582146791.028,5.371,25.879,42.969,9.277,0
1582146791.032,19.531,34.668,-47.852,0.488,0
1582146791.035,-20.508,58.594,130.859,7.812,0
1582146791.039,-4.395,56.152,261.230,18.555,0
1582146791.043,40.039,24.902,88.379,13.184,0
1582146791.047,10.742,29.785,120.117,1.953,0
1582146791.051,-1.465,38.086,229.004,23.438,0
1582146791.068,12.695,36.621,175.781,48.828,0
1582146791.072,25.879,39.062,106.934,19.531,0
1582146791.076,29.785,38.086,91.309,-1.465,0
1582146791.080,6.348,44.434,166.992,22.949,0
1582146791.084,12.207,46.387,136.719,44.922,0
1582146791.088,35.645,34.668,31.738,24.902,0
1582146791.092,26.367,32.227,50.781,-7.812,0
1582146791.095,3.906,49.805,148.926,-8.301,0
1582146791.099,17.090,62.012,208.984,7.812,0
1582146791.103,18.555,42.480,89.844,16.113,0
1582146791.107,10.742,40.039,68.359,-29.297,0
1582146791.111,14.160,59.570,217.773,-25.391,0
1582146791.113,22.949,49.805,177.246,23.438,0
1582146791.117,39.062,40.527,122.070,5.859,0
1582146791.121,33.203,47.852,140.625,-23.438,0
1582146791.125,35.156,57.617,190.918,-22.461,0
1582146791.129,16.113,55.176,201.660,-1.465,0
1582146791.133,-0.977,43.457,86.426,14.648,0
1582146791.137,22.461,54.199,40.039,-9.766,0
1582146791.140,50.781,75.195,151.367,-15.625,0
1582146791.144,39.062,36.133,93.262,14.160,0
1582146791.148,22.949,7.812,-27.344,10.254,0
1582146791.152,19.043,61.523,167.480,-9.766,0
1582146791.156,40.527,79.590,284.180,-24.902,0
1582146791.158,29.297,53.223,177.734,-20.020,0
1582146791.162,20.508,55.176,198.242,-8.789,0
1582146791.166,53.711,56.641,177.734,-13.672,0
1582146791.170,61.035,48.340,111.328,-9.766,0
1582146791.174,62.500,31.738,158.691,-2.441,0
1582146791.178,47.852,31.738,120.605,25.879,0
1582146791.182,19.531,67.383,160.156,-3.418,0
1582146791.185,32.715,71.777,248.047,-57.129,0
1582146791.189,55.664,45.410,64.453,-34.668,0
1582146791.193,37.598,47.363,27.344,-26.855,0
1582146791.197,33.203,61.523,248.535,-5.859,0
1582146791.201,71.289,52.734,251.465,-0.977,0
1582146791.202,76.172,46.875,183.105,-41.992,0
1582146791.206,68.848,48.340,151.855,-30.762,0
1582146791.210,71.777,56.641,216.797,-7.812,0
1582146791.214,78.613,35.645,217.285,-7.324,0
1582146791.218,89.844,11.230,133.789,-21.484,0
1582146791.222,103.027,17.578,94.727,-15.625,0
1582146791.226,77.148,30.273,132.324,0.977,0
1582146791.229,59.570,28.320,150.879,5.859,0
1582146791.233,66.406,28.320,99.121,-14.648,0
1582146791.237,57.617,50.781,231.934,-2.441,0
1582146791.241,80.078,54.688,317.383,35.645,0
1582146791.245,105.957,52.734,219.238,44.922,0
1582146791.247,102.051,56.641,156.250,15.137,0
1582146791.251,90.332,48.340,201.660,0.000,0
1582146791.255,102.539,42.969,228.027,56.641,0
1582146791.259,82.031,40.039,175.293,53.223,0
1582146791.263,58.594,23.926,181.152,-8.789,0
1582146791.267,66.895,25.879,142.578,-19.043,0
1582146791.271,71.777,32.227,89.355,-3.418,0
1582146791.274,84.473,13.184,32.227,35.156,0
1582146791.278,98.633,15.625,31.738,47.363,0
1582146791.282,91.309,55.176,180.664,9.766,0
1582146791.286,81.055,57.617,232.422,16.113,0
1582146791.290,104.980,26.855,196.777,61.523,0
1582146791.292,98.633,23.438,194.336,43.945,0
1582146791.296,84.473,31.250,206.543,12.695,0
1582146791.300,86.914,39.551,165.527,27.344,0
1582146791.304,88.867,45.410,108.398,52.734,0
1582146791.308,92.285,50.293,157.227,55.176,0
1582146791.312,95.703,46.875,133.789,44.434,0
1582146791.316,96.680,29.297,37.598,31.738,0
1582146791.319,76.660,18.066,-45.898,51.270,0
1582146791.323,57.129,43.945,146.973,52.734,0
1582146791.327,65.430,40.039,283.691,38.086,0
1582146791.331,72.754,37.598,165.039,23.438,0
1582146791.335,67.383,54.199,128.906,22.949,0
1582146791.337,43.945,52.734,159.668,47.852,0
1582146791.341,80.078,43.457,206.055,30.762,0
1582146791.345,108.887,44.922,158.203,-7.812,0
1582146791.349,66.895,52.246,134.766,-3.906,0
1582146791.353,57.129,38.086,134.766,29.785,0
1582146791.357,61.523,41.504,97.168,45.410,0
1582146791.361,58.594,37.109,-14.648,19.043,0
1582146791.364,38.574,42.969,36.621,-0.488,0
1582146791.368,37.109,59.082,269.043,21.973,0
1582146791.372,52.246,43.945,266.113,55.176,0
1582146791.376,49.316,31.738,155.273,30.273,0
1582146791.380,48.340,25.879,141.602,-32.227,0
1582146791.382,19.043,42.480,185.547,-34.180,0
1582146791.386,13.672,54.199,170.898,11.719,0
1582146791.390,36.133,41.992,83.496,5.859,0
1582146791.394,2.441,38.086,61.035,-41.992,25470
1582146791.398,21.973,51.758,145.996,-36.133,0
1582146791.402,56.152,41.992,93.750,16.113,0
1582146791.406,26.367,30.273,-16.602,-3.906,0
1582146791.409,-6.348,45.410,123.535,-64.453,0
1582146791.413,-21.973,42.480,261.719,-45.898,0
1582146791.417,-14.160,37.598,175.781,-4.883,0
1582146791.421,-0.977,58.105,193.359,8.789,0
1582146791.425,8.301,64.941,271.484,-17.090,0
1582146791.442,5.371,53.223,190.918,-35.156,0
1582146791.446,-17.578,49.316,120.117,-8.789,0
1582146791.450,-43.945,47.852,95.215,-13.184,0
1582146791.454,-60.059,49.805,150.391,-66.895,0
1582146791.458,-55.176,32.227,136.719,-101.562,0
1582146791.462,-55.664,25.391,50.293,-54.199,0
1582146791.466,-72.266,33.203,64.453,-28.809,0
1582146791.469,-86.426,34.180,150.879,-50.293,0
1582146791.473,-67.871,48.828,219.238,-57.617,0
1582146791.477,-61.035,36.133,113.770,-37.598,0
1582146791.481,-86.426,43.457,119.629,-27.344,0
1582146791.485,-68.848,70.312,294.922,-17.578,0
1582146791.487,-81.055,41.992,221.191,-19.043,0
1582146791.491,-83.496,31.738,147.461,-35.156,0
1582146791.495,-83.496,52.246,242.676,-17.090,0
1582146791.499,-90.332,55.176,266.113,13.184,0
1582146791.503,-64.941,35.156,183.594,15.137,0
1582146791.507,-44.922,16.113,64.941,4.883,0
1582146791.511,-38.086,24.414,70.801,26.367,0
1582146791.514,-37.598,42.969,250.977,31.250,0
1582146791.518,-13.184,15.625,181.152,6.348,0
1582146791.522,0.000,14.160,2.930,3.418,0
1582146791.526,-28.809,76.660,202.637,-18.066,0
1582146791.530,-4.883,64.941,313.965,-11.719,0
1582146791.532,46.387,40.039,236.816,-14.160,0
1582146791.536,55.664,33.203,187.988,-47.852,0
1582146791.540,53.223,24.414,171.875,-36.133,0
1582146791.544,54.199,34.180,215.820,4.395,0
1582146791.548,55.664,35.156,191.895,8.301,0
1582146791.552,53.223,33.691,96.191,-21.484,0
1582146791.556,49.805,35.645,88.379,-39.062,0
1582146791.559,40.527,37.109,214.355,-7.324,0
1582146791.563,46.875,19.043,131.836,22.461,0
1582146791.567,46.387,18.555,36.133,-11.719,0
1582146791.571,41.016,45.410,229.980,-15.137,0
1582146791.575,40.527,27.344,213.379,27.344,0
1582146791.577,39.551,23.438,165.039,29.297,0
1582146791.581,32.715,47.363,240.723,3.906,0
1582146791.585,26.855,45.410,232.422,-35.156,0
1582146791.589,21.973,37.109,146.973,-6.836,0
1582146791.593,20.996,35.156,181.152,31.250,0
1582146791.597,23.438,26.367,188.965,22.461,0
1582146791.601,1.465,29.785,128.906,-15.625,0
1582146791.604,-4.395,33.203,112.305,-31.250,0
1582146791.608,-1.465,20.996,49.805,11.719,0
1582146791.612,-20.508,47.852,192.871,5.859,0
1582146791.616,4.883,49.805,278.320,-30.762,0
1582146791.620,38.086,34.668,154.785,-25.879,0
1582146791.623,0.000,37.598,104.980,5.859,0
1582146791.627,-2.930,47.852,223.633,2.930,0
1582146791.631,45.898,21.973,190.430,-15.625,0
1582146791.635,53.223,-5.859,60.059,-10.742,0
1582146791.639,56.641,37.109,165.527,26.367,0
1582146791.643,32.227,66.895,233.887,32.227,0
1582146791.647,14.160,36.133,179.199,-1.953,0
1582146791.650,11.230,7.812,47.852,-49.805,0
1582146791.654,-33.691,36.133,78.613,-73.730,0
1582146791.658,-27.832,70.312,292.969,-27.832,0
1582146791.662,1.465,47.363,309.082,0.000,0
1582146791.666,12.695,26.367,218.262,-46.387,0
1582146791.668,10.742,29.297,157.227,-51.758,0
1582146791.672,-25.879,37.109,171.387,-15.625,0
1582146791.676,-17.090,32.715,171.875,-6.836,0
1582146791.680,9.277,25.391,112.305,-14.648,0
1582146791.684,13.672,33.203,110.840,-25.391,0
1582146791.688,30.762,36.621,94.238,-0.977,0
1582146791.692,24.414,37.109,73.730,2.930,0
1582146791.695,4.395,38.574,29.785,-6.836,0
1582146791.699,14.648,60.059,136.230,-38.086,0
1582146791.703,32.715,52.734,234.375,-55.176,0
1582146791.707,30.762,31.738,139.160,-5.859,0
1582146791.711,20.508,34.180,118.164,-26.855,0
1582146791.728,10.742,28.320,139.648,-74.219,0
1582146791.732,21.973,24.902,146.973,-59.082,0
1582146791.736,28.320,28.809,128.906,-30.762,0
1582146791.740,13.184,28.809,112.305,-38.086,0
1582146791.744,10.254,37.598,157.715,-53.223,0
1582146791.748,18.066,47.363,171.875,-32.715,0
1582146791.752,20.996,21.973,23.926,6.348,0
1582146791.755,15.137,17.090,11.719,-11.230,0
1582146791.759,21.973,28.809,173.340,-41.992,0
1582146791.763,14.160,21.484,158.691,-24.414,0
1582146791.767,-3.906,23.438,156.250,-14.648,0
1582146791.771,-16.113,39.551,183.594,3.418,0
1582146791.758,3.906,45.410,205.566,0.977,0
1582146791.762,15.137,28.809,146.484,-40.039,0
1582146791.766,-0.488,24.414,112.793,-42.480,0
1582146791.770,-9.766,35.156,161.621,-10.254,0
1582146791.774,5.371,43.945,203.613,-20.020,0
1582146791.778,25.391,20.020,87.891,-54.199,0
1582146791.782,16.113,26.855,79.590,-46.875,0
1582146791.785,8.789,43.457,214.355,-21.484,0
1582146791.789,13.184,41.992,226.562,-28.809,0
1582146791.793,21.484,20.020,88.867,-44.434,0
1582146791.797,11.719,21.484,23.926,-47.852,0
1582146791.801,13.672,55.664,150.879,-24.902,0
1582146791.818,20.508,40.039,204.590,1.953,0
1582146791.822,15.137,34.180,151.367,-38.574,0
1582146791.826,-3.906,39.551,124.023,-72.754,0
1582146791.830,-32.227,56.152,234.863,-47.852,0
1582146791.834,-14.648,48.340,231.445,-30.762,0
1582146791.838,-17.578,26.367,98.145,-32.715,0
1582146791.842,-36.133,28.320,53.223,-57.617,0
1582146791.845,-33.691,37.598,128.418,-71.289,0
1582146791.849,-34.668,41.016,218.262,-25.879,0
1582146791.853,-22.949,28.809,128.906,-14.648,0
1582146791.857,-48.340,37.598,102.539,-52.246,0
1582146791.861,-52.246,60.059,231.934,-41.016,0
1582146791.863,-30.273,56.641,219.238,-20.020,0
1582146791.867,-23.438,47.852,179.688,-10.742,0
1582146791.871,-6.836,43.945,158.203,-52.734,0
1582146791.875,-35.156,50.293,179.688,-56.152,0
1582146791.879,-44.434,53.223,227.051,-10.742,0
1582146791.883,-37.598,31.250,172.363,-13.184,0
1582146791.887,-7.324,38.086,153.320,-29.785,0
1582146791.890,-21.973,62.988,272.461,-67.383,0
1582146791.894,-49.805,40.527,240.234,-44.434,0
1582146791.898,-35.156,20.020,92.773,-17.578,0
1582146791.902,-40.039,54.199,201.172,-47.363,0
1582146791.906,-27.832,61.523,307.617,-50.781,0
1582146791.908,-20.508,45.898,237.305,-36.621,0
1582146791.912,-39.551,43.457,239.746,-30.762,0
1582146791.916,-32.715,44.922,305.176,-51.758,0
1582146791.920,-30.762,35.156,243.164,-66.406,0
1582146791.924,-64.453,29.785,193.359,-58.105,0
1582146791.928,-39.551,23.438,192.871,-38.086,0
1582146791.932,20.508,25.879,193.848,-7.812,0
1582146791.935,18.555,48.340,274.902,-10.742,0
1582146791.939,-5.859,39.062,169.434,-35.645,0
1582146791.943,-13.672,46.387,127.930,-5.859,0
1582146791.947,-19.531,75.684,351.562,9.766,0
1582146791.951,-6.836,51.758,337.402,-24.902,0
1582146791.953,-7.812,33.203,227.539,-51.758,0
1582146791.957,-21.484,34.180,235.840,-36.133,0
1582146791.961,-20.020,36.133,291.016,-21.484,0
1582146791.965,4.395,31.738,269.531,-28.809,0
1582146791.969,7.324,20.020,196.777,-33.691,0
1582146791.973,1.953,28.809,177.734,-15.137,0
1582146791.977,3.906,37.598,206.543,-18.555,0
1582146791.980,43.457,19.531,227.051,-18.066,0
1582146791.984,46.387,19.531,140.137,-25.879,0
1582146791.988,6.348,52.734,216.797,-39.551,0
1582146791.992,13.672,55.664,347.168,-5.859,0
1582146791.996,-8.789,37.109,291.504,-6.836,0
1582146791.998,17.090,21.484,234.863,-40.527,0
1582146792.002,52.246,31.250,269.531,-40.527,0
1582146792.006,10.742,33.691,256.348,-3.906,0
1582146792.010,4.395,24.902,204.590,6.836,0
1582146792.014,27.832,21.973,214.844,-33.203,0
1582146792.018,38.086,29.297,198.730,-49.805,0
1582146792.022,7.324,41.992,214.844,-32.227,0
1582146792.025,-11.719,27.832,153.809,0.000,0
1582146792.029,13.672,30.762,148.926,-24.902,0
1582146792.033,18.066,51.758,332.520,-62.012,0
1582146792.037,23.438,37.109,305.664,-24.414,0
1582146792.041,30.273,24.414,187.988,0.488,0
1582146792.043,11.719,49.316,230.469,5.859,0
1582146792.047,13.672,57.617,317.383,-9.277,0
1582146792.051,45.410,28.809,203.613,0.977,0
1582146792.055,41.992,22.949,132.812,14.160,0
1582146792.059,20.996,34.180,209.961,24.902,0
1582146792.063,22.461,31.250,217.285,17.578,0
1582146792.067,27.344,21.973,145.508,5.371,0
1582146792.070,22.461,25.391,74.707,22.949,0
1582146792.074,-6.836,61.035,240.234,20.996,0
1582146792.078,4.395,69.336,408.203,-2.441,0
1582146792.082,3.906,36.621,291.016,-16.113,0
1582146792.086,-14.160,25.879,236.816,22.461,0
1582146792.088,-12.207,40.039,299.316,50.781,0
1582146792.092,-7.812,40.039,273.926,24.902,0
1582146792.096,4.395,33.203,193.848,-2.930,0
1582146792.100,-20.996,38.086,201.660,16.602,0
1582146792.104,-45.898,42.480,311.035,36.621,0
1582146792.108,-33.691,28.809,312.988,41.016,0
1582146792.112,-4.883,9.766,176.270,22.949,0
1582146792.115,-24.902,29.297,167.969,6.348,0
1582146792.119,-45.410,63.965,377.930,41.016,0
1582146792.123,-21.973,48.340,365.234,59.570,0
1582146792.127,-15.137,50.781,292.969,45.410,0
1582146792.131,0.000,54.688,357.910,31.738,0
1582146792.133,-11.230,41.992,334.473,38.574,0
1582146792.137,-41.016,43.457,285.645,69.336,0
1582146792.141,-45.898,44.922,290.039,48.828,0
1582146792.145,-57.129,63.477,328.613,-5.859,0
1582146792.149,-56.641,70.312,379.395,8.789,0
1582146792.153,-40.527,41.992,279.297,60.059,0
1582146792.157,-54.688,28.809,147.461,32.715,0
1582146792.160,-62.500,50.293,286.621,-21.484,0
1582146792.164,-32.715,66.406,419.922,1.953,0
1582146792.168,-33.691,51.758,353.027,44.434,0
1582146792.172,-47.363,43.945,337.402,42.480,0
1582146792.176,-51.758,50.293,368.652,8.301,0
1582146792.193,-56.641,33.691,381.836,2.930,0
1582146792.197,-46.387,23.926,332.520,50.781,0
1582146792.201,-48.828,32.227,295.410,59.570,0
1582146792.205,-62.988,51.758,371.582,22.949,0
1582146792.209,-42.969,41.016,376.953,24.414,0
1582146792.213,-24.414,26.855,247.070,63.477,0
1582146792.217,-33.203,38.574,222.168,94.238,0
1582146792.220,-13.184,45.898,343.750,73.242,0
1582146792.224,18.066,44.434,297.363,41.504,0
1582146792.228,4.395,32.227,146.484,18.555,0
1582146792.232,2.930,52.734,297.363,11.230,0
1582146792.236,31.738,53.711,429.688,4.883,0
1582146792.238,59.082,29.785,332.031,-40.527,0
1582146792.242,59.082,26.367,260.254,-43.945,0
1582146792.246,42.480,32.715,296.875,-9.766,0
1582146792.250,53.223,42.969,364.258,4.395,0
1582146792.254,96.680,26.367,309.570,-3.418,0
1582146792.258,110.352,10.254,182.129,-9.766,0
1582146792.262,90.820,27.832,160.645,18.555,0
1582146792.265,85.938,50.781,259.277,44.434,0
1582146792.269,102.051,37.109,258.789,20.508,0
1582146792.273,116.211,22.461,145.508,2.441,0
1582146792.277,89.844,56.641,310.547,5.859,0
1582146792.281,82.031,38.574,348.145,35.156,0
1582146792.283,70.312,19.531,180.176,40.039,0
1582146792.287,58.105,30.762,240.234,13.672,0
1582146792.291,75.195,39.062,329.590,28.809,0
1582146792.295,68.359,50.293,324.707,46.387,0
1582146792.299,55.664,47.363,250.000,39.062,0
1582146792.303,50.781,44.434,142.090,17.578,0
1582146792.307,40.039,41.992,153.320,-5.371,0
1582146792.310,30.762,56.152,325.684,20.996,0
1582146792.314,39.062,26.855,228.027,46.875,0
1582146792.318,41.016,15.625,105.469,11.719,0
1582146792.322,36.133,51.270,330.566,-5.371,0
1582146792.326,42.480,35.156,351.074,29.297,0
1582146792.327,32.227,44.434,289.062,52.246,0
1582146792.331,3.418,63.477,327.148,25.879,0
1582146792.335,18.555,56.641,308.105,11.230,0
1582146792.339,39.551,69.336,286.621,67.383,0
1582146792.343,21.484,51.270,282.715,63.965,0
1582146792.347,19.043,31.738,194.824,13.672,0
1582146792.351,-7.324,53.711,225.098,-29.785,0
1582146792.354,-3.418,38.574,285.645,-6.836,0
1582146792.358,20.996,22.461,136.719,55.176,0
1582146792.362,1.465,63.965,285.156,26.367,0
1582146792.366,-16.113,55.664,386.719,2.441,0
1582146792.370,-11.230,50.293,241.211,7.324,0
1582146792.372,-35.645,73.730,295.898,35.645,0
1582146792.376,-33.691,68.359,373.535,46.875,0
1582146792.380,-14.648,43.457,284.668,20.996,0
1582146792.384,-15.137,42.480,209.961,2.930,0
1582146792.388,-5.859,42.480,227.539,22.949,0
1582146792.392,-7.324,33.691,228.516,57.617,0
1582146792.396,-2.441,34.180,174.805,41.992,0
1582146792.399,2.930,43.945,178.711,9.766,0
1582146792.403,-3.906,60.547,284.668,21.484,0
1582146792.407,-5.371,62.012,360.840,13.672,0
1582146792.411,0.000,49.805,350.586,2.441,0
1582146792.415,25.879,27.832,167.480,-16.602,0
1582146792.417,15.137,45.410,166.992,-29.785,0
1582146792.421,7.812,60.547,366.699,16.602,0
1582146792.425,35.156,29.785,326.172,33.203,0
1582146792.429,44.922,32.715,206.543,-1.953,0
1582146792.433,33.203,61.035,243.652,-22.461,0
1582146792.437,15.625,40.527,224.121,2.441,0
1582146792.441,11.719,17.090,147.461,12.207,0
1582146792.444,23.438,28.320,158.691,-17.578,0
1582146792.448,14.648,55.176,207.031,-41.992,0
1582146792.452,12.695,74.707,328.125,-10.742,0
1582146792.456,18.555,61.035,302.734,15.625,0
1582146792.460,-6.348,44.434,257.324,7.324,0
1582146792.462,-1.953,38.574,282.715,-11.230,0
1582146792.466,22.461,34.180,246.582,0.488,0
1582146792.470,-14.160,39.062,133.789,31.738,0
1582146792.474,-6.348,49.316,102.539,21.484,0
1582146792.478,53.223,52.246,186.523,3.906,0
1582146792.482,1.465,39.062,177.734,15.625,17187
1582146792.486,-30.273,22.461,82.520,3.906,0
1582146792.489,5.859,33.203,128.906,2.930,0
1582146792.493,21.484,65.918,330.566,-8.789,0
1582146792.497,29.785,62.012,330.078,-11.719,0
1582146792.501,10.742,41.504,257.324,1.465,0
1582146792.505,20.508,30.273,186.523,-13.184,0
1582146792.507,24.902,40.527,249.023,-32.715,0
1582146792.511,39.062,51.270,318.359,-26.855,0
1582146792.515,48.340,52.246,269.531,0.488,0
1582146792.519,41.504,58.105,322.754,28.320,0
1582146792.523,38.574,50.781,332.520,21.973,0
1582146792.527,36.133,24.414,184.570,1.953,0
1582146792.531,10.254,21.484,47.852,-1.465,0
1582146792.534,-24.902,56.641,228.516,7.812,0
1582146792.538,-13.184,63.965,391.602,15.625,0
1582146792.542,-4.883,25.879,257.324,-3.906,0
1582146792.546,-2.930,17.090,174.805,-6.836,0
1582146792.550,-14.648,49.805,269.531,27.344,0
1582146792.568,-20.996,59.570,318.848,42.969,0
1582146792.572,-9.277,47.852,245.117,4.883,0
1582146792.576,-15.137,40.039,170.898,-10.254,0
1582146792.580,-26.855,46.875,259.766,21.484,0
1582146792.584,-26.855,45.410,297.363,35.156,0
1582146792.588,16.602,40.527,200.684,33.203,0
1582146792.592,10.254,57.617,198.730,-2.441,0
1582146792.595,-15.625,51.270,272.949,-4.883,0
1582146792.599,-5.371,38.086,278.809,39.551,0
1582146792.603,-10.742,33.691,183.105,32.227,0
1582146792.607,7.324,37.109,168.945,-1.465,0
1582146792.611,10.742,54.199,315.430,-8.789,0
1582146792.612,17.090,53.711,318.848,6.348,0
1582146792.616,30.273,57.129,250.000,20.020,0
1582146792.620,22.949,53.711,262.207,-9.277,0
1582146792.624,9.766,51.270,286.133,-28.320,0
1582146792.628,3.906,55.664,297.363,1.465,0
1582146792.632,10.254,39.551,233.887,10.254,0
1582146792.636,14.160,32.227,151.367,-13.672,0
1582146792.639,22.461,29.785,136.230,-26.855,0
1582146792.643,44.434,30.762,152.832,14.648,0
1582146792.647,28.320,31.738,129.395,27.344,0
1582146792.651,-11.719,48.340,294.434,-20.996,0
1582146792.655,9.766,53.223,391.113,-22.949,0
1582146792.657,39.551,53.223,259.766,-8.301,0
1582146792.661,49.316,62.012,244.141,17.578,0
1582146792.665,46.387,60.059,312.012,9.277,0
1582146792.669,26.367,52.734,273.926,-24.414,0
1582146792.673,16.113,33.691,165.527,-25.879,0
1582146792.677,12.207,36.133,156.738,-0.488,0
1582146792.681,14.648,43.457,184.570,9.277,0
1582146792.684,25.879,43.945,288.574,-29.785,0
1582146792.688,49.805,20.020,179.688,-33.203,0
1582146792.692,41.504,41.016,127.930,-3.418,0
1582146792.696,38.086,71.289,382.324,16.602,0
1582146792.700,70.801,44.922,382.324,-9.766,0
1582146792.703,60.547,42.969,282.227,-51.758,0
1582146792.707,25.879,56.641,265.137,-26.367,0
1582146792.711,36.133,64.453,354.980,4.883,0
1582146792.715,66.895,47.852,346.680,-9.766,0
1582146792.719,58.594,32.715,248.047,-33.691,0
1582146792.723,42.969,33.203,201.172,-8.301,0
1582146792.727,42.969,44.922,249.023,24.414,0
1582146792.730,63.477,39.551,284.668,31.738,0
1582146792.734,78.125,32.715,159.180,15.625,0
1582146792.738,37.598,61.523,232.422,-21.484,0
1582146792.742,16.113,53.711,365.234,-6.348,0
1582146792.746,21.484,32.715,240.234,14.160,0
1582146792.763,14.160,39.551,217.773,-13.672,0
1582146792.767,23.438,53.711,319.336,-28.809,0
1582146792.771,38.086,41.992,293.945,20.508,0
1582146792.775,41.504,44.434,256.836,32.227,0
1582146792.779,43.945,55.664,234.863,10.742,0
1582146792.783,34.180,37.598,203.613,8.301,0
1582146792.787,29.297,41.504,205.566,10.742,0
1582146792.790,34.668,50.293,173.828,39.062,0
1582146792.794,26.855,53.223,198.730,25.879,0
1582146792.798,28.320,52.734,327.637,-16.602,0
1582146792.802,22.949,26.855,293.457,-2.441,0
1582146792.806,5.371,30.762,231.445,44.434,0
1582146792.793,22.949,62.988,300.293,33.203,0
1582146792.797,39.062,59.570,365.234,-9.277,0
1582146792.801,25.391,41.016,220.703,-16.113,0
1582146792.805,9.766,52.246,210.938,9.766,0
1582146792.809,23.438,60.547,338.379,38.574,0
1582146792.813,29.785,47.363,298.340,28.320,0
1582146792.817,38.086,30.762,217.773,12.207,0
1582146792.820,42.480,22.949,218.750,26.367,0
1582146792.824,32.715,53.223,317.871,45.898,0
1582146792.828,32.227,66.895,405.762,25.879,0
1582146792.832,35.645,33.203,298.340,2.441,0
1582146792.836,6.348,32.715,182.129,20.508,0
1582146792.838,-21.973,74.219,336.426,8.301,0
1582146792.842,0.000,75.195,422.852,16.113,0
1582146792.846,6.348,49.316,271.973,0.977,0
1582146792.850,-11.230,51.270,301.270,-0.488,0
1582146792.854,13.672,55.664,383.789,51.758,0
1582146792.858,20.020,53.711,293.945,70.801,0
1582146792.862,1.953,39.062,182.129,26.367,0
1582146792.865,-15.625,31.250,227.051,13.672,0
1582146792.869,-35.645,57.129,430.176,40.527,0
1582146792.873,-15.625,59.570,433.105,31.250,0
1582146792.877,17.090,47.852,334.473,18.555,0
1582146792.881,-9.766,43.457,293.457,10.254,0
1582146792.898,-23.926,49.805,326.660,32.227,0
1582146792.902,-6.836,41.504,277.832,62.012,0
1582146792.906,-13.184,48.340,258.301,52.246,0
1582146792.910,-30.273,61.035,291.016,6.836,0
1582146792.914,-50.781,56.152,347.656,-10.742,0
1582146792.918,-56.152,24.902,221.680,21.484,0
1582146792.922,-51.270,27.344,71.289,17.578,0
1582146792.925,-50.781,69.824,266.602,-25.391,0
1582146792.929,-57.617,65.430,344.727,-17.578,0
1582146792.933,-55.176,51.270,298.340,25.391,0
1582146792.937,-59.082,38.086,325.684,31.250,0
1582146792.941,-60.547,42.969,358.887,17.090,0
1582146792.943,-35.156,52.734,351.562,0.977,0
1582146792.947,-40.527,35.645,273.926,5.371,0
1582146792.951,-59.570,39.551,264.648,21.973,0
1582146792.955,-35.645,52.734,354.980,27.344,0
1582146792.959,-17.578,48.828,311.523,22.949,0
1582146792.963,-8.301,40.039,184.082,13.672,0
1582146792.967,-7.324,47.363,198.730,16.602,0
1582146792.970,12.207,55.664,306.152,8.789,0
1582146792.974,38.086,44.922,334.961,-20.020,0
1582146792.978,46.875,23.926,159.180,-6.836,0
1582146792.982,67.383,34.180,142.090,7.324,0
1582146792.986,79.590,51.270,362.793,0.488,0
1582146792.988,75.684,38.086,388.184,-23.926,0
1582146792.992,79.102,36.621,339.844,-24.902,0
1582146792.996,63.477,43.457,375.000,1.465,0
1582146793.000,48.828,51.758,407.227,-15.625,0
1582146793.004,80.566,45.410,302.734,-30.273,0
1582146793.008,97.656,20.020,157.715,-16.113,0
1582146793.012,65.918,45.410,229.004,5.371,0
1582146793.015,66.895,68.848,332.031,14.160,0
1582146793.019,96.191,27.344,237.305,-6.348,0
1582146793.023,67.871,19.531,158.691,-29.785,0
1582146793.027,36.621,61.523,315.918,-15.625,0
1582146793.031,41.504,54.688,408.691,12.207,0
1582146793.033,48.828,44.434,302.246,15.625,0
1582146793.037,41.992,52.734,242.188,-13.672,0
1582146793.041,39.062,61.035,283.691,-17.578,0
1582146793.045,29.297,59.082,311.523,5.371,0
1582146793.049,12.695,36.621,283.691,16.113,0
1582146793.053,39.551,18.555,225.586,4.395,0
1582146793.057,42.969,27.344,200.195,-20.508,0
1582146793.060,15.625,52.246,306.641,13.184,0
1582146793.064,21.973,22.461,192.383,55.176,0
1582146793.068,23.926,21.973,96.680,4.395,0
1582146793.072,13.672,63.477,315.918,-13.184,0
1582146793.076,18.555,43.457,296.387,18.555,0
1582146793.078,20.996,43.457,240.723,26.855,0
1582146793.082,29.297,64.941,291.504,17.578,0
1582146793.086,33.203,51.270,266.602,-6.836,0
1582146793.090,23.926,36.133,217.285,-6.836,0
1582146793.094,14.648,29.297,174.316,5.371,0
1582146793.098,2.930,33.691,143.066,15.137,0
1582146793.102,10.254,51.758,185.059,-4.883,0
1582146793.105,20.508,28.320,173.828,0.977,0
1582146793.109,-3.418,-4.395,93.750,37.598,0
1582146793.113,-28.809,41.992,253.906,13.184,0
1582146793.117,0.488,63.477,381.348,-10.742,0
1582146793.121,9.766,40.039,294.434,0.488,0
1582146793.123,-21.973,36.621,252.930,28.320,0
1582146793.127,-25.391,47.363,318.359,38.086,0
1582146793.131,-22.461,46.875,354.004,10.742,0
1582146793.135,-20.508,41.504,270.996,-6.836,0
1582146793.139,-18.555,43.457,221.191,21.484,0
1582146793.143,-15.137,28.320,203.613,54.199,0
1582146793.147,-21.973,24.414,189.453,8.789,0
1582146793.150,-5.859,18.066,122.070,-20.996,0
1582146793.154,-10.254,31.738,115.234,-9.766,0
1582146793.158,-30.273,69.336,358.887,2.441,0
1582146793.162,3.418,42.969,372.559,22.461,0
1582146793.166,42.969,16.113,222.656,10.254,0
1582146793.168,24.902,30.762,203.613,-22.461,0
1582146793.172,-2.930,42.969,250.977,-4.395,0
1582146793.176,17.578,33.691,255.371,29.785,0
1582146793.180,33.203,38.574,222.168,4.883,0
1582146793.184,15.137,46.387,223.145,-20.996,0
1582146793.188,1.465,28.320,174.316,1.465,0
1582146793.192,13.672,19.043,136.719,17.090,0
1582146793.195,22.461,23.438,63.477,-6.836,0
1582146793.199,-1.465,51.270,210.449,-33.203,0
1582146793.203,0.000,42.969,345.703,15.625,0
1582146793.207,-16.113,8.789,195.801,24.414,0
1582146793.211,-23.438,23.926,154.297,-0.977,0
1582146793.213,0.488,61.035,223.145,-6.836,0
1582146793.217,15.137,55.664,203.125,6.836,0
1582146793.221,-0.488,41.992,129.395,31.250,0
1582146793.225,-26.367,45.410,161.133,4.883,0
1582146793.229,-30.273,29.785,179.199,-19.531,0
1582146793.233,-13.672,26.367,135.742,-19.043,0
1582146793.237,5.371,23.926,56.641,-3.906,0
1582146793.240,-5.859,21.973,87.891,-13.672,0
1582146793.244,-18.066,45.410,296.387,-28.320,0
1582146793.248,3.906,48.828,295.410,-37.109,0
1582146793.252,17.090,50.781,254.883,-27.344,0
1582146793.256,-8.301,45.410,272.949,-6.836,0
1582146793.258,11.230,44.922,309.570,-26.367,0
1582146793.262,53.223,32.715,223.633,-31.250,0
1582146793.266,32.227,41.504,165.039,-10.254,0
1582146793.270,5.371,55.664,269.531,10.742,0
1582146793.274,30.762,42.969,272.461,3.418,0
1582146793.278,34.668,39.062,208.496,-23.438,0
1582146793.282,-13.184,23.926,90.332,-22.461,0
1582146793.285,-30.273,42.480,170.898,-8.301,0
1582146793.289,-14.160,58.594,303.711,6.348,0
1582146793.293,-5.859,41.504,223.145,-6.348,0
1582146793.297,-10.254,29.785,190.430,-16.113,0
1582146793.301,-23.438,42.969,265.137,5.859,0
1582146793.318,-23.926,49.316,302.734,3.906,0
1582146793.322,-13.184,45.898,244.141,-3.418,0
1582146793.326,-19.043,40.039,195.801,-18.066,0
1582146793.330,-27.344,38.574,261.719,-17.578,0
1582146793.334,1.953,38.086,246.582,25.879,0
1582146793.338,14.648,21.484,92.773,13.672,0
1582146793.342,4.883,24.902,92.285,-26.367,0
1582146793.345,-15.137,48.340,256.836,-20.020,0
1582146793.349,-11.230,56.152,332.520,12.207,0
1582146793.353,29.297,36.133,161.133,7.324,0
1582146793.357,26.855,41.016,137.207,-30.762,0
1582146793.361,24.902,44.434,294.922,3.906,0
1582146793.363,18.066,39.062,307.129,20.508,0
1582146793.367,4.883,50.781,243.164,-27.832,0
1582146793.371,28.320,54.688,208.008,-50.781,0
1582146793.375,34.668,54.688,213.379,-43.945,0
1582146793.379,13.184,55.664,220.703,-10.254,0
1582146793.383,11.719,35.156,151.855,4.395,0
1582146793.387,14.160,37.598,116.211,-35.156,0
1582146793.390,15.625,48.340,152.832,-56.152,0
1582146793.394,35.645,31.738,125.488,-13.184,0
1582146793.398,30.273,34.180,108.398,0.977,0
1582146793.402,12.695,64.941,250.488,-26.855,0
1582146793.406,9.766,54.688,312.988,-45.898,0
1582146793.407,24.414,29.785,237.793,-36.621,0
1582146793.411,40.527,41.992,236.328,-16.602,0
1582146793.415,38.574,62.500,300.781,-18.555,0
1582146793.419,34.180,54.199,306.641,-32.715,0
1582146793.423,35.645,36.133,190.430,-33.691,0
1582146793.427,60.059,29.785,106.934,-5.859,0
1582146793.431,59.082,43.945,163.574,-7.812,0
1582146793.434,36.621,61.035,282.715,-25.391,0
1582146793.438,63.477,35.645,159.668,-11.719,0
1582146793.442,49.805,43.945,154.297,-9.766,0
1582146793.446,38.086,65.918,333.984,-0.488,0
1582146793.450,70.801,49.316,268.066,6.836,0
1582146793.452,65.918,54.688,248.047,-14.160,0
1582146793.456,33.203,55.664,272.949,-3.906,0
1582146793.460,30.273,58.594,320.801,13.184,0
1582146793.464,47.363,30.273,260.254,3.906,0
1582146793.468,50.781,20.996,194.824,-11.719,0
1582146793.472,35.156,42.969,212.891,-0.488,0
1582146793.476,10.742,64.941,263.672,28.320,0
1582146793.479,21.484,58.594,264.160,21.973,0
1582146793.483,37.109,33.203,119.141,-7.324,0
1582146793.487,-0.488,44.922,214.355,-31.250,0
1582146793.491,-12.207,42.969,340.820,7.812,0
1582146793.495,2.930,33.691,242.676,44.922,0
1582146793.497,-13.672,42.480,191.895,5.859,0
1582146793.501,-18.555,45.410,209.961,-7.812,0
1582146793.505,-16.113,49.805,256.348,31.250,0
1582146793.509,-30.762,50.293,267.090,31.738,0
1582146793.513,-17.090,52.246,242.188,17.090,0
1582146793.517,0.000,53.223,254.395,17.090,0
1582146793.521,6.836,19.531,204.590,16.113,0
1582146793.524,2.441,-0.977,59.082,54.199,0
1582146793.528,-21.484,44.434,88.867,48.828,0
1582146793.532,-31.738,74.707,345.215,-13.672,0
1582146793.536,-22.461,54.199,323.730,-5.371,0
1582146793.540,-18.555,49.316,208.984,25.879,0
1582146793.542,-14.648,57.617,235.840,27.832,0
1582146793.546,-4.883,60.059,264.160,15.625,0
1582146793.550,7.324,42.480,170.898,11.719,0
1582146793.554,-8.789,38.574,157.227,21.484,0
1582146793.558,-19.531,46.387,203.613,33.203,0
1582146793.562,5.371,30.762,156.250,14.160,0
1582146793.566,27.344,25.391,125.488,17.090,0
1582146793.569,25.391,33.203,92.285,46.875,0
1582146793.573,-13.184,65.430,214.844,33.691,0
1582146793.577,-5.371,78.125,317.871,15.625,17010
1582146793.581,6.348,47.852,201.172,1.953,0
1582146793.585,1.465,40.527,202.637,9.277,0
1582146793.587,5.371,54.688,301.758,41.016,0
1582146793.591,7.324,44.434,263.672,37.598,0
1582146793.595,20.996,38.574,141.113,-6.836,0
1582146793.599,18.555,45.898,160.156,-6.348,0
1582146793.603,8.789,50.293,259.766,20.508,0
1582146793.607,20.996,35.645,213.379,47.852,0
1582146793.611,56.152,7.324,35.156,21.973,0
1582146793.614,47.852,23.926,6.836,-20.996,0
1582146793.618,15.137,73.730,223.633,14.160,0
1582146793.622,14.160,80.566,329.102,40.527,0
1582146793.626,34.180,60.059,245.117,5.371,0
1582146793.630,25.879,57.617,241.211,-24.902,0
1582146793.632,17.578,44.434,259.766,-3.906,0
1582146793.636,28.809,39.062,202.148,26.367,0
1582146793.640,36.621,49.805,203.125,20.996,0
1582146793.644,24.414,61.523,214.355,-5.859,0
1582146793.648,14.160,54.199,196.289,14.160,0
1582146793.652,21.973,25.879,76.660,37.109,0
1582146793.656,-10.742,31.250,5.371,20.996,0
1582146793.659,-15.137,62.500,182.617,-20.996,0
1582146793.663,-10.742,64.453,284.180,-25.391,0
1582146793.667,-2.441,48.828,228.516,12.207,0
1582146793.671,4.883,44.434,162.109,20.508,0
1582146793.675,-1.953,65.430,175.293,2.441,0
1582146793.692,0.977,77.148,292.969,-4.883,0
1582146793.696,-23.438,52.246,245.117,17.578,0
1582146793.700,-55.176,57.129,240.723,21.973,0
1582146793.704,-42.480,56.152,263.184,-5.859,0
1582146793.708,-31.250,41.992,240.234,-22.949,0
1582146793.712,-40.039,27.832,166.504,5.371,0
1582146793.716,-33.203,37.598,123.535,50.781,0
1582146793.719,-34.668,66.406,276.855,41.992,0
1582146793.723,-19.531,53.711,334.961,16.602,0
1582146793.727,-6.836,28.320,166.016,25.879,0
1582146793.731,-25.879,54.688,164.551,63.965,0
1582146793.735,-7.812,70.312,311.523,64.941,0
1582146793.738,13.184,44.434,306.641,1.953,0
1582146793.742,11.719,33.691,197.266,-3.418,0
1582146793.746,17.090,48.828,191.406,13.184,0
1582146793.750,39.062,51.758,346.680,17.578,0
1582146793.754,65.918,30.762,349.609,17.090,0
1582146793.758,79.102,35.156,250.977,11.230,0
1582146793.762,68.359,40.527,177.246,7.324,0
1582146793.765,47.852,55.664,273.926,19.043,0
1582146793.769,65.430,48.340,327.637,22.949,0
1582146793.773,67.383,30.762,175.781,3.906,0
1582146793.777,45.898,60.059,280.762,10.742,0
1582146793.781,47.852,59.570,396.484,48.340,0
1582146793.783,63.965,30.273,262.207,49.805,0
1582146793.787,89.844,18.066,214.355,10.254,0
1582146793.791,72.754,24.902,282.227,-3.906,0
1582146793.795,48.828,33.691,262.207,24.902,0
1582146793.799,49.316,41.016,183.594,31.738,0
1582146793.803,54.688,42.969,122.070,19.043,0
1582146793.807,45.898,34.180,136.230,-2.930,0
1582146793.810,34.180,42.969,298.340,27.344,0
1582146793.814,49.805,30.273,233.398,59.570,0
1582146793.818,53.223,32.715,119.629,36.133,0
1582146793.822,45.410,56.641,302.734,2.441,0
1582146793.826,38.086,34.668,337.402,24.902,0
1582146793.828,26.367,29.785,274.902,49.805,0
1582146793.832,31.738,50.781,293.457,14.160,0
1582146793.836,35.156,55.664,346.680,-4.883,0
1582146793.840,49.316,25.879,279.785,12.695,0
1582146793.844,62.012,18.555,197.754,38.574,0
1582146793.848,41.992,37.598,180.664,33.691,0
1582146793.852,38.086,51.758,173.340,6.348,0
1582146793.855,48.828,42.969,169.434,4.395,0
1582146793.859,35.156,30.762,103.516,24.902,0
1582146793.863,26.855,55.176,256.348,26.367,0
1582146793.867,49.805,60.547,350.098,21.484,0
1582146793.871,41.504,45.898,240.723,-9.277,0
1582146793.873,22.461,47.363,202.148,0.977,0
1582146793.877,0.000,57.129,283.691,25.879,0
1582146793.881,-2.930,36.133,258.301,1.465,0
1582146793.885,12.207,37.109,161.621,-5.859,0
1582146793.889,5.371,59.570,195.801,18.555,0
1582146793.893,-4.883,51.270,183.594,43.457,0
1582146793.897,-14.160,44.922,141.602,25.391,0
1582146793.900,-7.324,28.320,40.039,3.906,0
1582146793.904,-3.906,34.180,48.340,8.789,0
1582146793.908,-17.090,57.617,293.945,18.555,0
1582146793.912,-22.949,42.969,264.648,34.180,0
1582146793.916,2.441,45.410,169.922,10.254,0
1582146793.918,-5.371,56.152,205.078,0.977,0
1582146793.922,-32.227,57.617,247.559,20.508,0
1582146793.926,-6.348,50.781,230.469,24.414,0
1582146793.930,20.020,34.180,143.066,1.953,0
1582146793.934,18.555,46.875,186.035,-11.719,0
1582146793.938,19.043,45.410,131.836,26.367,0
1582146793.942,26.855,28.320,35.645,39.062,0
1582146793.945,31.250,31.738,0.977,12.207,0
1582146793.949,16.602,68.848,134.766,-15.625,0
1582146793.953,22.461,80.078,271.484,3.418,0
1582146793.957,18.555,62.012,169.922,33.691,0
1582146793.961,9.766,59.082,125.977,10.742,0
1582146793.963,-2.441,59.082,192.871,-24.902,0
1582146793.967,9.766,48.828,171.387,3.418,0
1582146793.971,-0.977,60.547,147.949,29.785,0
1582146793.975,-12.207,67.871,224.121,18.555,0
1582146793.979,6.836,60.547,208.496,-0.488,0
1582146793.983,-9.766,52.734,150.879,4.883,0
1582146793.987,-15.137,36.621,43.945,39.551,0
1582146793.990,-9.277,56.641,56.152,26.855,0
1582146793.994,0.000,80.566,265.625,-8.301,0
1582146793.998,23.438,45.410,208.984,-8.789,0
1582146794.002,16.602,29.297,140.625,7.324,0
1582146794.006,-6.348,57.129,198.242,11.719,0
1582146794.008,1.465,71.289,222.656,5.859,0
1582146794.012,10.254,59.570,177.734,-17.578,0
1582146794.016,2.441,58.105,159.668,-5.859,0
1582146794.020,-11.230,75.684,221.191,12.695,0
1582146794.024,-9.277,62.988,197.754,-25.391,0
1582146794.028,4.395,40.039,108.887,-34.668,0
1582146794.032,-1.953,31.250,-9.277,-32.227,0
1582146794.035,-9.277,59.082,136.719,-15.137,0
1582146794.039,-4.883,70.312,356.445,-5.371,0
1582146794.043,15.625,36.621,227.539,-21.484,0
1582146794.047,12.695,31.250,145.020,-1.953,0
1582146794.051,16.602,63.477,252.930,33.203,0
1582146794.068,24.902,51.758,235.352,30.762,0
1582146794.072,7.324,27.344,124.512,-11.230,0
1582146794.076,-9.277,37.598,87.891,-37.598,0
1582146794.080,-11.230,59.570,166.016,-2.930,0
1582146794.084,-4.395,66.406,218.262,28.320,0
1582146794.088,10.254,60.059,185.547,18.066,0
1582146794.092,3.418,56.152,116.211,-15.137,0
1582146794.095,-12.695,54.199,130.371,-14.648,0
1582146794.099,-3.418,58.105,263.672,23.438,0
1582146794.103,-12.207,36.133,140.625,33.691,0
1582146794.107,-23.438,42.969,81.055,13.184,0
1582146794.111,-5.371,76.172,252.441,-22.461,0
1582146794.113,8.789,71.289,235.352,1.465,0
1582146794.117,14.648,39.062,174.316,44.922,0
1582146794.121,27.832,44.434,168.457,5.859,0
1582146794.125,9.277,63.477,212.402,-16.113,0
1582146794.129,20.996,50.293,165.039,9.277,0
1582146794.133,24.902,43.457,72.754,20.508,0
1582146794.137,11.719,38.086,67.871,-6.348,0
1582146794.140,-1.953,50.293,123.047,-30.762,0
1582146794.144,-0.977,49.316,159.668,0.977,0
1582146794.148,16.113,29.297,55.664,17.578,0
1582146794.152,8.789,52.246,103.027,5.859,0
1582146794.156,11.719,70.312,258.789,-10.742,0
1582146794.158,26.855,51.270,221.680,-19.531,0
1582146794.162,16.113,23.926,152.344,-1.465,0
1582146794.166,-7.324,39.551,202.637,-16.602,0
1582146794.170,11.230,48.340,202.148,-31.738,0
1582146794.174,36.133,19.531,54.688,-20.508,0
1582146794.178,30.273,18.066,-4.883,-4.395,0
1582146794.182,16.602,41.016,87.891,10.254,0
1582146794.185,12.695,60.059,212.891,-20.508,0
1582146794.189,33.691,37.598,93.750,-32.227,0
1582146794.193,30.273,28.320,15.625,-0.977,0
1582146794.197,40.039,50.781,228.027,-18.555,0
1582146794.201,50.293,45.898,258.301,-27.832,0
1582146794.203,45.410,41.504,167.969,-42.969,0
1582146794.207,37.109,46.875,139.648,-43.457,0
1582146794.211,23.438,60.547,247.070,-6.348,0
1582146794.215,35.645,42.480,227.539,-17.578,0
1582146794.219,60.059,33.691,140.625,-35.645,0
1582146794.223,50.293,40.527,153.809,-33.203,0
1582146794.227,20.020,41.992,133.789,-16.113,0
1582146794.230,46.875,40.039,131.836,7.324,0
1582146794.234,47.852,32.715,75.684,-16.602,0
1582146794.238,0.977,49.316,120.605,-35.645,0
1582146794.242,1.953,58.105,280.762,-13.672,0
1582146794.246,20.020,39.551,251.953,5.371,0
1582146794.248,21.484,39.551,138.184,-6.836,0
1582146794.252,18.555,62.012,171.875,-18.555,0
1582146794.256,9.766,56.641,187.988,-2.930,0
1582146794.260,6.836,29.785,115.723,9.766,0
1582146794.264,17.578,23.438,100.098,5.859,0
1582146794.268,9.277,34.668,100.098,0.000,0
1582146794.272,-8.301,57.129,167.480,-2.930,0
1582146794.275,-4.883,49.316,123.047,11.230,0
1582146794.279,-2.930,36.133,71.289,11.230,0
1582146794.283,-6.836,56.641,260.742,-25.391,0
1582146794.287,-16.113,44.922,245.117,-0.977,0
1582146794.291,-27.344,43.457,209.473,30.762,0
1582146794.302,-1.953,46.387,245.605,27.832,0
1582146794.306,6.836,43.457,189.453,7.324,0
1582146794.310,-9.766,35.645,163.574,-7.812,0
1582146794.314,-16.113,37.598,169.434,13.184,0
1582146794.318,-4.883,54.688,172.363,47.852,0
1582146794.322,-3.418,56.152,143.066,7.324,0
1582146794.326,1.953,42.480,62.500,-28.809,0
1582146794.329,-6.348,39.551,15.137,-9.277,0
1582146794.333,-43.945,58.105,201.660,-2.930,0
1582146794.337,-6.348,48.828,291.504,0.000,0
1582146794.341,1.465,43.945,152.832,-14.648,0
1582146794.345,-16.602,59.570,133.789,-2.441,0
1582146794.338,-8.789,60.547,234.863,29.297,0
1582146794.342,-10.254,47.852,244.629,12.207,0
1582146794.346,9.766,39.062,123.535,-3.906,0
1582146794.350,25.391,40.527,75.684,27.832,0
1582146794.354,-14.160,45.898,189.453,18.066,0
1582146794.358,-8.789,39.062,206.055,-6.348,0
1582146794.362,35.645,12.207,9.766,22.949,0
1582146794.365,4.395,23.926,-8.301,4.883,0
1582146794.369,-10.254,59.082,221.680,-6.836,0
1582146794.373,17.578,41.016,255.859,25.879,0
1582146794.377,1.465,30.273,158.203,4.883,0
1582146794.381,-2.441,42.480,140.137,-14.648,0
1582146794.383,11.719,38.574,194.824,6.836,0
1582146794.387,14.648,24.414,216.309,32.715,0
1582146794.391,16.113,21.973,165.527,17.578,0
1582146794.395,16.113,40.527,145.020,-22.949,0
1582146794.399,25.879,50.781,192.383,-15.137,0
1582146794.403,36.621,34.668,112.793,36.621,0
1582146794.407,48.340,37.109,-20.508,22.461,0
1582146794.410,34.668,54.688,67.383,-24.902,0
1582146794.414,31.738,53.223,187.012,-10.254,0
1582146794.418,37.109,41.016,159.180,13.184,0
1582146794.422,3.418,36.621,148.926,16.602,0
1582146794.426,-1.465,52.246,229.980,6.836,0
1582146794.443,13.672,46.875,209.961,-2.441,0
1582146794.447,6.348,24.902,91.797,7.324,0
1582146794.451,0.488,30.273,79.102,24.414,0
1582146794.455,2.930,41.992,150.391,12.695,0
1582146794.459,13.672,30.273,151.855,-5.859,0
1582146794.463,0.000,32.227,88.867,12.695,0
1582146794.467,-36.133,55.176,84.473,20.996,0
1582146794.470,-25.879,60.547,152.344,-0.488,0
1582146794.474,-7.812,57.129,225.586,-20.996,0
1582146794.478,-11.719,22.461,96.191,20.020,0
1582146794.482,-20.508,21.484,32.715,31.250,0
1582146794.486,-21.973,57.617,197.266,3.906,0
1582146794.487,-21.973,52.246,207.031,0.488,0
1582146794.491,-23.926,38.574,118.164,7.324,0
1582146794.495,-18.555,54.199,157.715,30.273,0
1582146794.499,-25.391,62.500,264.648,26.855,0
1582146794.503,-27.344,30.273,112.305,12.207,0
1582146794.507,-22.949,29.297,41.992,18.555,0
1582146794.511,-20.020,47.852,105.957,24.414,0
1582146794.514,-8.301,60.059,178.223,35.156,0
1582146794.518,1.953,44.922,183.594,16.602,0
1582146794.522,-5.371,22.949,-51.758,-9.277,0
1582146794.526,-9.277,57.617,102.051,-6.348,0
1582146794.530,17.578,50.293,306.641,12.207,0
1582146794.532,50.293,22.949,162.598,16.602,0
1582146794.536,49.805,28.809,118.652,-31.250,0
1582146794.540,52.246,46.387,177.734,-30.762,0
1582146794.544,63.965,55.176,202.637,14.648,0
1582146794.548,71.289,38.086,158.691,13.184,0
1582146794.552,83.496,29.297,85.938,2.441,0
1582146794.556,78.613,36.621,76.660,-9.277,0
1582146794.559,70.801,44.434,140.137,-11.230,0
1582146794.563,63.477,23.438,32.715,26.855,0
1582146794.567,80.566,26.855,-36.133,0.977,0
1582146794.571,83.496,66.895,190.430,-28.809,0
1582146794.575,74.219,46.875,204.102,8.789,0
1582146794.577,66.895,28.320,121.094,28.809,0
1582146794.581,64.453,46.387,149.902,9.766,0
1582146794.585,65.918,42.480,177.246,-3.906,0
1582146794.589,58.105,21.973,183.594,20.996,0
1582146794.593,41.504,27.832,158.691,40.527,0
1582146794.597,33.691,44.434,116.211,19.531,0
1582146794.601,23.438,45.898,90.332,-6.348,0
1582146794.604,26.367,39.551,103.516,6.836,0
1582146794.608,26.367,35.156,34.668,16.113,0
1582146794.612,25.391,56.152,127.441,19.043,0
1582146794.616,35.645,44.434,217.285,1.465,0
1582146794.620,25.391,22.949,124.023,-7.324,0
1582146794.622,28.320,46.387,140.137,22.461,0
1582146794.626,23.926,59.570,247.559,25.391,0
1582146794.630,24.902,27.832,205.078,-5.859,0
1582146794.634,37.598,29.785,94.238,-18.066,0
1582146794.638,32.227,44.922,113.770,17.578,0
1582146794.642,24.902,39.062,142.090,36.133,0
1582146794.646,12.207,42.969,169.922,8.789,0
1582146794.649,41.992,15.137,62.988,-8.301,0
1582146794.653,26.855,27.344,31.250,-1.465,0
1582146794.657,-7.324,59.570,239.746,11.719,0
1582146794.661,13.184,38.574,253.418,28.320,0
1582146794.665,14.160,52.246,175.293,5.859,0
1582146794.667,10.254,70.801,195.801,0.488,0
1582146794.671,-9.277,62.012,207.031,37.598,0
1582146794.675,2.441,51.270,161.621,45.410,0
1582146794.679,3.418,36.133,124.023,19.043,0
1582146794.683,-6.836,48.828,134.277,8.301,0
1582146794.687,13.184,55.664,135.254,18.555,25629
1582146794.691,-16.602,30.762,94.238,17.578,0
1582146794.694,-31.738,14.160,2.441,1.953,0
1582146794.698,-17.090,46.387,122.559,-28.320,0
1582146794.702,-29.297,62.988,292.969,3.906,0
1582146794.706,0.000,41.992,191.895,34.668,0
1582146794.710,7.324,33.203,125.977,6.836,0
1582146794.712,0.488,40.527,158.691,-23.438,0
1582146794.716,7.812,51.270,205.078,-5.859,0
1582146794.720,-11.719,50.293,178.711,41.504,0
1582146794.724,8.301,41.016,118.652,27.832,0
1582146794.728,21.973,43.945,111.816,-2.441,0
1582146794.732,20.996,40.527,65.918,-16.602,0
1582146794.736,36.133,20.508,-58.594,12.207,0
1582146794.739,13.184,39.551,32.227,18.066,0
1582146794.743,2.930,67.383,269.531,-31.250,0
1582146794.747,20.996,52.246,262.207,-23.438,0
1582146794.751,-1.465,50.781,210.449,2.441,0
1582146794.755,-6.836,56.641,201.660,12.207,0
1582146794.757,13.184,53.711,229.004,0.000,0
1582146794.761,29.785,47.363,174.316,-20.508,0
1582146794.765,20.508,40.039,101.074,-1.465,0
1582146794.769,-13.184,36.621,149.902,20.508,0
1582146794.773,10.254,37.109,157.715,15.137,0
1582146794.777,13.672,29.297,38.574,-9.277,0
1582146794.781,-1.465,19.531,-90.820,-1.465,0
1582146794.784,-10.742,48.340,56.152,-6.836,0
1582146794.788,-11.719,70.312,285.156,-14.648,0
1582146794.792,0.977,49.316,234.863,-22.461,0
1582146794.796,3.418,41.992,158.203,-19.531,0
1582146794.800,13.184,54.199,179.688,0.000,0
1582146794.817,24.414,46.387,195.801,2.441,0
1582146794.821,48.828,31.250,143.066,-25.391,0
1582146794.825,48.340,33.691,127.441,-48.828,0
1582146794.829,41.504,41.016,222.656,-21.484,0
1582146794.833,39.551,38.574,245.605,6.836,0
1582146794.837,27.832,26.367,115.723,1.953,0
1582146794.841,19.043,33.203,70.801,-38.574,0
1582146794.844,8.789,52.246,191.895,-17.090,0
1582146794.848,0.488,50.781,262.207,22.461,0
1582146794.852,23.926,28.320,91.797,8.301,0
1582146794.856,39.062,37.598,6.836,-17.090,0
1582146794.860,6.348,61.523,210.938,-16.113,0
1582146794.878,-19.043,53.711,245.117,8.789,0
1582146794.882,-6.348,28.809,168.945,12.695,0
1582146794.886,10.254,20.996,172.852,-12.695,0
1582146794.890,11.230,43.945,180.664,-4.395,0
1582146794.894,1.953,55.664,190.918,32.715,0
1582146794.898,6.836,37.598,133.301,37.598,0
1582146794.902,-7.812,38.574,64.941,15.137,0
1582146794.905,-21.484,55.176,159.668,-25.879,0
1582146794.909,1.953,32.715,139.648,-6.836,0
1582146794.913,-1.465,11.230,-20.996,20.508,0
1582146794.917,7.324,39.551,108.887,-22.949,0
1582146794.921,12.695,57.617,249.023,-34.668,0
1582146794.908,6.836,39.551,154.297,-16.602,0
1582146794.912,19.531,14.648,59.570,8.301,0
1582146794.916,18.066,22.949,82.520,13.184,0
1582146794.920,24.414,38.086,155.273,-6.348,0
1582146794.924,23.438,40.039,110.352,0.000,0
1582146794.928,14.160,42.969,38.086,1.953,0
1582146794.932,22.461,43.457,60.059,-6.836,0
1582146794.935,14.160,49.805,145.508,-24.414,0
1582146794.939,11.230,37.598,114.746,-25.391,0
1582146794.943,22.949,44.434,103.516,5.371,0
1582146794.947,4.395,49.805,159.668,20.996,0
1582146794.951,7.812,37.598,157.715,-6.836,0
1582146794.953,40.039,23.926,-13.672,-20.996,0
1582146794.957,22.949,30.762,-88.867,-18.555,0
1582146794.961,1.953,44.434,121.582,-5.859,0
1582146794.965,19.531,36.621,154.785,3.906,0
1582146794.969,42.480,41.504,52.734,-21.973,0
1582146794.973,26.855,40.527,13.184,-32.227,0
1582146794.977,-8.789,37.109,68.359,-27.344,0
1582146794.980,24.414,45.898,119.141,-18.555,0
1582146794.984,31.250,42.480,29.297,-48.340,0
1582146794.988,16.602,56.641,89.355,-81.055,0
1582146794.992,18.066,67.871,228.027,-52.246,0
1582146794.996,-1.465,47.852,211.914,-16.602,0
1582146794.998,17.578,38.086,154.297,-26.855,0
1582146795.002,11.230,49.316,152.832,-58.594,0
1582146795.006,2.930,40.039,168.457,-26.855,0
1582146795.010,16.113,41.992,153.809,14.160,0
1582146795.014,36.621,49.805,99.121,1.465,0
1582146795.018,33.691,35.645,2.930,-31.738,0
1582146795.022,19.043,47.363,37.109,-19.531,0
1582146795.025,15.625,41.504,30.762,22.949,0
1582146795.029,1.953,43.457,22.461,1.465,0
1582146795.033,-7.812,70.312,193.359,-40.527,0
1582146795.037,0.000,59.082,225.586,-26.367,0
1582146795.041,-17.578,53.223,170.898,-4.395,0
1582146795.043,-16.602,50.781,183.594,5.371,0
1582146795.047,13.672,39.062,214.355,-2.441,0
1582146795.051,8.789,31.250,155.273,0.488,0
1582146795.055,-16.113,51.758,122.559,27.832,0
1582146795.059,-11.719,73.242,180.664,23.926,0
1582146795.063,0.000,56.152,104.492,-7.812,0
1582146795.067,-10.254,43.945,22.949,-9.766,0
1582146795.070,-17.578,42.480,5.859,12.695,0
1582146795.074,-39.551,65.918,161.621,1.465,0
1582146795.078,-28.809,71.289,303.711,-3.906,0
1582146795.082,-7.324,51.270,137.695,-16.602,0
1582146795.086,-34.180,66.895,142.090,-25.879,0
1582146795.088,-67.871,73.242,266.602,-10.254,0
1582146795.092,-52.734,64.941,234.863,-38.574,0
1582146795.096,-44.922,64.453,143.555,-70.312,0
1582146795.100,-82.031,68.359,121.094,-64.941,0
1582146795.104,-87.402,67.871,164.551,-53.711,0
1582146795.108,-93.262,67.383,153.320,-47.363,0
1582146795.112,-89.844,54.199,1.953,-77.637,0
1582146795.115,-87.891,70.801,-58.105,-120.117,0
1582146795.119,-119.629,119.629,181.152,-116.211,0
1582146795.123,-121.094,115.723,270.508,-112.305,0
1582146795.127,-134.766,118.652,230.469,-155.762,0
1582146795.131,-167.969,126.465,161.621,-198.730,0
1582146795.148,-178.223,111.328,92.773,-192.383,0
1582146795.152,-190.430,93.750,96.191,-183.594,0
1582146795.156,-196.289,89.844,114.746,-201.660,0
1582146795.160,-187.988,102.051,174.316,-224.121,0
1582146795.164,-201.172,105.957,289.551,-212.402,0
1582146795.168,-176.758,98.145,249.512,-165.527,0
1582146795.172,-144.043,71.777,43.457,-156.738,0
1582146795.175,-173.828,89.355,123.047,-205.566,0
1582146795.179,-168.457,123.535,374.512,-220.215,0
1582146795.183,-136.230,103.027,316.895,-164.551,0
1582146795.187,-126.953,92.773,247.559,-133.789,0
1582146795.191,-126.953,96.680,294.922,-164.551,0
1582146795.193,-106.934,90.820,321.777,-157.227,0
1582146795.197,-68.848,80.566,279.785,-95.703,0
1582146795.201,-56.641,74.707,255.859,-60.059,0
1582146795.205,-29.297,91.797,259.766,-61.035,0
1582146795.209,-20.020,103.027,238.281,-65.918,0
1582146795.213,-22.949,82.520,152.832,-32.715,0
1582146795.217,-23.926,79.102,145.020,-3.906,0
1582146795.220,-2.441,95.703,348.145,-2.930,0
1582146795.224,38.086,80.566,336.426,-9.766,0
1582146795.228,37.598,53.223,104.004,8.789,0
1582146795.232,10.742,54.199,108.887,34.180,0
1582146795.236,25.879,82.520,294.434,40.527,0
1582146795.238,52.246,70.312,272.461,26.367,0
1582146795.242,41.992,62.500,219.238,20.996,0
1582146795.246,32.227,76.172,229.004,62.500,0
1582146795.250,28.809,80.078,294.434,73.730,0
1582146795.254,47.363,67.871,285.645,43.457,0
1582146795.258,71.777,57.129,133.789,50.781,0
1582146795.262,52.246,58.594,86.914,79.102,0
1582146795.265,41.504,56.641,173.340,83.984,0
1582146795.269,60.059,49.316,231.934,83.984,0
1582146795.273,61.035,40.039,132.324,102.539,0
1582146795.277,52.734,61.035,187.012,105.469,0
1582146795.281,63.477,70.801,302.246,104.492,0
1582146795.283,75.684,64.453,215.820,112.305,0
1582146795.287,71.289,52.246,155.762,76.660,0
1582146795.291,80.078,35.156,186.035,65.918,0
1582146795.295,79.102,41.016,191.406,88.379,0
1582146795.299,82.031,53.223,141.113,89.355,0
1582146795.303,100.586,58.105,70.312,53.711,0
1582146795.307,122.559,73.730,149.902,23.926,0
1582146795.310,127.441,83.984,283.691,48.828,0
1582146795.314,125.977,42.969,122.070,82.031,0
1582146795.318,131.836,23.438,-21.484,57.617,0
1582146795.322,139.648,62.012,166.992,28.320,0
1582146795.326,144.531,66.895,246.582,68.359,0
1582146795.328,131.348,49.316,217.285,81.055,0
1582146795.332,122.070,35.156,196.777,43.945,0
1582146795.336,133.301,41.992,175.781,27.344,0
1582146795.340,135.742,42.480,161.133,56.641,0
1582146795.344,134.277,34.180,161.133,96.191,0
1582146795.348,125.000,51.758,135.254,85.449,0
1582146795.352,101.562,62.500,115.234,51.270,0
1582146795.355,101.074,38.574,123.047,55.176,0
1582146795.359,127.930,20.020,-43.457,98.633,0
1582146795.363,91.309,71.777,77.637,66.895,0
1582146795.367,59.570,66.406,273.438,7.324,0
1582146795.371,71.289,25.879,144.043,9.277,0
1582146795.373,75.195,38.086,90.820,51.758,0
1582146795.377,80.078,57.129,88.867,71.289,0
1582146795.381,62.988,74.707,149.414,46.387,0
1582146795.385,51.758,68.848,134.277,26.367,0
1582146795.389,62.012,57.129,108.398,36.621,0
1582146795.393,81.543,44.922,80.078,58.105,0
1582146795.397,97.656,52.734,67.871,43.945,0
1582146795.400,88.379,41.992,21.484,15.625,0
1582146795.404,59.082,44.434,21.484,26.367,0
1582146795.408,33.691,76.660,213.867,49.316,0
1582146795.412,49.316,61.035,230.469,33.203,0
1582146795.416,51.270,43.457,141.602,-0.488,0
1582146795.418,32.715,35.645,156.250,8.789,0
1582146795.422,47.363,50.293,218.750,50.781,0
1582146795.426,34.180,60.059,179.688,56.641,0
1582146795.430,23.926,45.410,33.691,35.645,0
1582146795.434,36.621,62.012,24.902,18.555,0
1582146795.438,43.945,72.754,71.289,43.457,0
1582146795.442,39.062,57.129,72.266,72.266,0
1582146795.445,19.043,45.898,-5.859,28.809,0
1582146795.449,0.977,66.895,77.637,-13.184,0
1582146795.453,3.906,78.125,272.949,33.203,0
1582146795.457,20.020,54.199,160.156,80.566,0
1582146795.461,15.137,54.688,95.703,66.895,0
1582146795.463,11.719,71.289,199.219,17.578,0
1582146795.467,-1.465,66.895,232.422,29.785,0
1582146795.471,-1.465,64.941,149.414,74.219,0
1582146795.475,11.719,54.688,63.477,42.480,0
1582146795.479,2.930,46.875,115.234,-3.418,0
1582146795.483,11.719,59.570,92.285,-3.418,0
1582146795.487,5.371,48.340,-41.504,18.555,0
1582146795.490,-4.883,43.945,-32.227,10.742,0
1582146795.494,-5.371,66.406,161.621,-25.879,0
1582146795.498,5.371,68.848,228.027,-24.902,0
1582146795.502,38.086,68.359,161.133,20.996,0
1582146795.506,41.016,54.688,92.773,18.555,0
1582146795.508,10.254,54.199,129.395,-3.418,0
1582146795.512,12.695,64.941,129.883,-14.648,0
1582146795.516,14.160,61.523,80.078,-19.043,0
1582146795.520,-17.090,67.871,163.574,-9.766,0
1582146795.524,-5.371,58.594,182.129,-3.418,0
1582146795.528,24.414,34.180,16.113,-8.789,0
1582146795.532,11.719,29.297,-153.809,-13.184,0
1582146795.535,-0.977,55.176,-20.020,-3.418,0
1582146795.539,2.930,75.684,202.637,13.672,0
1582146795.543,12.695,66.406,111.328,5.371,0
1582146795.547,7.812,52.246,25.391,-21.484,0
1582146795.551,-9.766,71.289,134.766,-2.441,0
1582146795.568,-6.348,68.359,119.629,0.977,0
1582146795.572,-2.930,48.340,34.668,-45.410,0
1582146795.576,-0.488,51.270,14.160,-72.266,0
1582146795.580,-2.930,70.801,89.355,-55.176,0
1582146795.584,-5.859,69.824,168.457,-15.137,0
1582146795.588,3.906,44.434,44.922,-35.156,0
1582146795.592,7.812,50.781,-14.160,-80.566,0
1582146795.595,5.371,69.336,111.816,-64.453,0
1582146795.599,11.719,65.918,149.414,-22.461,0
1582146795.603,31.250,46.387,19.043,-9.766,0
1582146795.607,8.301,43.945,-7.812,-55.664,0
1582146795.611,-6.836,59.570,167.969,-59.082,0
1582146795.612,8.789,40.039,101.074,-23.926,0
1582146795.616,-3.906,45.898,1.953,-10.742,0
1582146795.620,-17.578,74.707,115.723,-40.527,0
1582146795.624,-12.207,68.359,131.836,-59.570,0
1582146795.628,-17.090,49.805,119.141,-20.996,0
1582146795.632,-8.789,31.738,14.160,5.371,0
1582146795.636,0.488,46.875,-60.059,-20.508,0
1582146795.639,-25.879,56.641,60.547,-55.664,0
1582146795.643,-27.344,38.086,85.938,-24.414,0
1582146795.647,-24.902,31.738,-21.484,-4.395,0
1582146795.651,-13.672,72.754,98.633,-32.227,0
1582146795.655,-4.395,71.777,168.457,-42.969,0
1582146795.657,-19.043,47.363,42.480,-32.715,0
1582146795.661,-20.020,53.711,56.641,-11.719,0
1582146795.665,-19.531,59.082,153.320,-22.949,0
1582146795.669,-2.930,37.598,91.797,-36.133,0
1582146795.673,-8.301,33.203,27.832,-31.738,0
1582146795.677,-14.648,44.922,26.855,-10.742,0
1582146795.681,-9.277,53.711,5.371,-1.465,0
1582146795.684,-17.578,78.613,155.762,-53.711,0
1582146795.688,-6.836,46.875,78.613,-70.801,0
1582146795.692,-12.695,39.551,-47.363,-35.156,0
1582146795.696,-27.344,72.754,176.270,-22.461,0
1582146795.700,-8.301,64.941,225.098,-32.227,0
1582146795.702,-13.672,41.016,79.590,-57.617,0
1582146795.706,-13.672,43.945,58.594,-35.156,0
1582146795.710,2.441,57.617,112.305,8.301,0
1582146795.714,1.953,45.898,40.527,-9.766,0
1582146795.718,9.766,53.223,30.762,-34.180,0
1582146795.722,29.297,58.105,48.828,-19.043,0
1582146795.726,29.297,62.988,30.762,13.672,0
1582146795.729,14.648,55.176,4.883,3.906,0
1582146795.733,0.977,45.898,-97.656,-32.227,0
1582146795.737,5.371,78.613,71.289,-37.598,0
1582146795.741,-1.953,74.219,271.973,-20.508,0
1582146795.745,0.977,39.551,135.742,-14.648,0
1582146795.747,4.883,47.852,90.820,-51.758,0
1582146795.751,12.207,57.617,149.902,-84.473,0
1582146795.755,14.160,48.340,105.957,-31.250,0
1582146795.759,15.137,43.945,45.898,0.000,0
1582146795.763,47.852,40.039,60.547,-31.250,0
1582146795.767,42.480,35.156,61.523,-51.758,0
1582146795.771,39.062,51.758,52.246,-31.738,0
1582146795.774,66.406,46.875,25.391,12.207,0
1582146795.778,46.875,43.457,12.695,-3.906,0
1582146795.782,39.551,75.684,179.688,-21.484,0
1582146795.786,43.945,74.219,201.172,-8.301,0
1582146795.790,32.715,66.406,135.254,-9.766,0
1582146795.792,15.625,66.406,140.625,-2.441,0
1582146795.796,25.391,64.941,170.410,-37.109,0
1582146795.800,55.664,47.852,105.469,-25.391,0
1582146795.804,47.852,39.551,50.781,18.555,27501
1582146795.808,40.527,53.223,125.488,31.250,0
1582146795.812,52.734,44.434,83.008,20.996,0
1582146795.816,30.762,41.992,-5.859,-21.973,0
1582146795.819,4.883,46.387,-41.016,-20.996,0
1582146795.823,-3.906,66.895,93.262,-3.906,0
1582146795.827,12.207,64.941,195.801,-12.695,0
1582146795.831,31.250,49.805,124.512,-14.160,0
1582146795.835,18.066,53.223,104.980,4.395,0
1582146795.837,19.043,60.059,103.516,17.090,0
1582146795.841,12.695,59.570,84.961,5.859,0
1582146795.845,6.836,44.434,71.289,-2.441,0
1582146795.849,14.160,44.922,83.496,-10.742,0
1582146795.853,-11.719,57.617,187.012,6.836,0
1582146795.857,-18.066,42.480,164.062,15.625,0
1582146795.861,1.953,20.508,-28.320,-3.906,0
1582146795.864,-8.789,41.016,-68.359,-32.715,0
1582146795.868,-40.039,78.125,145.508,-10.742,0
1582146795.872,-38.086,63.965,229.492,29.785,0
1582146795.876,-28.320,37.598,121.094,5.371,0
1582146795.880,-34.668,38.574,39.551,-19.531,0
1582146795.882,-26.367,66.895,142.090,-4.395,0
1582146795.886,-12.207,68.848,159.180,34.180,0
1582146795.890,2.930,54.688,55.176,33.203,0
1582146795.894,-11.719,57.129,14.160,-2.930,0
1582146795.898,-37.598,59.570,67.871,9.766,0
1582146795.902,-18.555,35.156,31.250,50.293,0
1582146795.906,-21.973,27.344,-74.707,43.457,0
1582146795.909,-23.438,52.246,-17.090,10.742,0
1582146795.913,-18.555,69.336,142.578,17.090,0
1582146795.917,-29.297,52.734,116.211,45.410,0
1582146795.921,-10.254,26.855,29.297,36.621,0
1582146795.925,-0.977,45.898,142.578,2.930,0
1582146795.942,-8.301,65.430,172.852,-6.348,0
1582146795.946,9.277,59.570,74.219,24.902,0
1582146795.950,-12.207,78.613,127.441,49.316,0
1582146795.954,-34.668,77.637,232.910,29.785,0
1582146795.958,-12.695,41.016,119.629,8.789,0
1582146795.962,-7.324,34.180,-16.602,28.809,0
1582146795.966,-11.230,38.574,-40.039,53.223,0
1582146795.969,-17.578,44.922,11.719,38.574,0
1582146795.973,-31.738,56.152,113.281,-6.836,0
1582146795.977,-32.227,41.016,46.875,17.578,0
1582146795.981,-20.996,53.711,46.387,41.992,0
1582146795.985,-11.230,81.055,225.098,24.414,0
1582146795.987,8.301,49.805,150.879,30.273,0
1582146795.991,19.531,45.898,12.207,22.949,0
1582146795.995,-12.695,77.637,78.125,24.902,0
1582146795.999,-23.438,69.824,146.973,13.184,0
1582146796.003,-16.602,43.945,126.953,-16.113,0
1582146796.007,-5.371,28.809,22.461,-20.508,0
1582146796.011,-2.441,48.340,-13.184,-9.766,0
1582146796.014,-29.297,68.848,147.949,17.578,0
1582146796.018,-9.277,55.664,178.223,11.719,0
1582146796.022,10.742,38.086,-47.852,-3.418,0
1582146796.026,0.000,72.754,115.234,1.953,0
1582146796.030,12.207,67.383,296.875,36.133,0
1582146796.033,9.766,41.016,173.828,44.922,0
1582146796.037,0.977,55.664,178.223,7.812,0
1582146796.041,-0.977,64.941,217.285,6.836,0
1582146796.045,6.836,66.895,191.895,42.480,0
1582146796.049,35.645,67.871,129.883,53.223,0
1582146796.053,28.320,43.945,23.926,19.043,0
1582146796.057,5.859,30.762,1.465,-5.371,0
1582146796.060,15.625,52.246,126.953,6.348,0
1582146796.064,21.484,45.898,88.379,26.855,0
1582146796.068,24.902,41.504,-2.441,-5.371,0
1582146796.072,17.578,66.406,220.215,-34.180,0
1582146796.076,20.996,64.941,302.246,0.488,0
1582146796.078,53.223,51.758,132.812,21.973,0
1582146796.082,51.758,53.223,130.859,-0.977,0
1582146796.086,39.062,66.895,233.887,-25.879,0
1582146796.090,74.219,50.293,166.016,12.207,0
1582146796.094,64.453,25.879,99.121,27.344,0
1582146796.098,53.223,35.645,71.777,11.230,0
1582146796.102,54.688,39.551,0.000,-8.301,0
1582146796.105,42.969,30.762,56.152,-14.648,0
1582146796.109,42.969,32.715,31.738,19.043,0
1582146796.113,43.457,67.871,126.465,-1.953,0
1582146796.117,56.152,66.895,272.949,-0.488,0
1582146796.121,57.129,44.434,178.711,37.598,0
1582146796.123,46.387,43.457,91.797,24.414,0
1582146796.127,14.648,45.898,123.535,10.742,0
1582146796.131,0.977,45.410,148.926,-4.883,0
1582146796.135,-6.348,45.410,13.184,-21.973,0
1582146796.139,-18.066,49.316,-7.812,-6.348,0
1582146796.143,-14.160,51.270,58.594,7.324,0
1582146796.147,-13.184,62.012,75.195,-21.973,0
1582146796.150,-27.832,62.988,47.852,-65.918,0
1582146796.154,-40.039,67.383,87.891,-57.129,0
1582146796.158,-30.273,72.266,230.469,-11.719,0
1582146796.162,-9.766,55.176,203.613,-5.371,0
1582146796.166,-1.953,46.875,57.129,-38.574,0
1582146796.168,-26.855,62.500,40.527,-56.152,0
1582146796.172,-43.945,64.941,160.156,-34.180,0
1582146796.176,-15.137,52.734,128.418,-10.742,0
1582146796.180,-3.906,59.570,96.191,-37.598,0
1582146796.184,-9.766,65.430,95.215,-47.363,0
1582146796.188,4.395,51.758,49.805,-21.973,0
1582146796.192,24.902,33.203,48.828,22.461,0
1582146796.195,21.484,44.922,-21.973,13.672,0
1582146796.199,0.000,76.172,68.359,-44.434,0
1582146796.203,-20.020,74.707,251.465,-21.973,0
1582146796.207,-23.438,55.176,155.762,5.859,0
1582146796.211,-19.531,48.340,73.730,-7.324,0
1582146796.228,-24.414,64.941,145.996,-29.297,0
1582146796.232,-4.883,71.777,174.316,-16.113,0
1582146796.236,16.602,57.129,98.145,33.691,0
1582146796.240,-8.789,54.688,121.094,18.066,0
1582146796.244,-0.977,58.594,174.316,-24.902,0
1582146796.248,1.953,60.059,107.422,-15.137,0
1582146796.252,-9.766,40.527,-35.645,-1.953,0
1582146796.255,-6.348,49.805,-13.672,-5.859,0
1582146796.259,2.930,62.988,176.758,-41.992,0
1582146796.263,17.090,38.574,88.379,-55.176,0
1582146796.267,21.973,53.711,36.133,-19.531,0
1582146796.271,37.109,67.383,158.203,4.883,0
1582146796.258,16.602,59.570,229.980,-1.953,0
1582146796.262,19.531,54.688,176.270,-21.973,0
1582146796.266,37.598,45.898,79.102,-30.273,0
1582146796.270,7.812,57.617,106.934,-18.555,0
1582146796.274,6.348,64.941,187.012,-18.555,0
1582146796.278,22.949,42.480,62.012,-33.691,0
1582146796.282,20.508,38.086,3.906,-41.016,0
1582146796.285,8.789,55.176,136.230,-15.137,0
1582146796.289,11.230,64.453,218.262,15.137,0
1582146796.293,30.273,41.992,107.422,-4.395,0
1582146796.297,21.484,40.039,-104.492,-22.949,0
1582146796.301,-4.395,69.336,4.883,-32.227,0
1582146796.318,-5.371,62.012,114.258,-22.949,0
1582146796.322,7.812,50.293,46.875,-39.062,0
1582146796.326,17.578,53.223,83.984,-54.688,0
1582146796.330,17.090,51.758,165.527,-24.414,0
1582146796.334,11.230,46.875,213.379,-23.438,0
1582146796.338,20.508,32.715,99.121,-24.414,0
1582146796.342,41.016,33.203,-1.953,-47.852,0
1582146796.345,38.086,63.477,125.000,-70.312,0
1582146796.349,15.625,72.754,206.543,-14.160,0
1582146796.353,27.832,42.969,34.180,-15.137,0
1582146796.357,23.438,50.781,-5.859,-62.500,0
1582146796.361,8.789,90.820,207.031,-43.945,0
1582146796.363,17.090,71.289,213.867,-6.348,0
1582146796.367,40.039,46.387,128.418,19.531,0
1582146796.371,41.016,55.664,145.020,-7.324,0
1582146796.375,-4.395,50.293,111.816,-49.316,0
1582146796.379,-3.418,50.781,112.305,-11.230,0
1582146796.383,18.066,42.480,59.570,26.855,0
1582146796.387,-1.953,22.949,-55.664,-0.977,0
1582146796.390,-23.438,38.086,77.148,-32.227,0
1582146796.394,-7.324,32.715,78.125,-23.926,0
1582146796.398,-13.184,28.320,-34.668,7.812,0
1582146796.402,-47.363,52.246,114.258,0.000,0
1582146796.406,-14.160,48.828,229.980,-21.484,0
1582146796.408,7.324,36.621,168.457,8.301,0
1582146796.412,-7.812,25.391,172.852,18.066,0
1582146796.416,-5.859,38.574,236.816,2.930,0
1582146796.420,19.531,53.223,207.520,0.000,0
1582146796.424,30.273,38.086,65.430,2.930,0
1582146796.428,9.277,29.785,-19.531,7.812,0
1582146796.432,8.301,34.180,49.805,13.184,0
1582146796.435,24.414,41.992,67.383,9.277,0
1582146796.439,33.691,40.039,-9.766,13.184,0
1582146796.443,4.395,41.504,14.648,19.531,0
1582146796.447,-6.348,63.477,205.078,10.742,0
1582146796.451,18.555,55.664,243.164,8.301,0
1582146796.453,28.809,37.598,153.320,0.977,0
1582146796.457,18.555,25.879,139.160,11.719,0
1582146796.461,14.648,33.691,184.570,30.762,0
1582146796.465,22.949,39.062,178.711,15.137,0
1582146796.469,17.578,32.715,91.797,-9.277,0
1582146796.473,-12.207,36.133,6.348,-26.855,0
1582146796.477,-5.371,46.875,49.805,-2.930,0
1582146796.480,11.230,36.133,128.418,23.438,0
1582146796.484,9.766,8.789,-1.953,-5.859,0
1582146796.488,6.348,40.527,41.992,-30.762,0
1582146796.492,5.859,55.664,225.586,8.301,0
1582146796.496,2.930,40.039,176.758,24.902,0
1582146796.498,14.648,46.875,111.328,-10.742,0
1582146796.502,27.832,62.012,176.270,-33.203,0
1582146796.506,27.832,61.035,149.902,-5.859,0
1582146796.510,24.414,60.547,45.410,14.648,0
1582146796.514,13.672,56.641,70.312,-10.742,0
1582146796.518,18.066,32.227,17.578,-29.785,0
1582146796.522,17.090,36.621,14.648,-27.344,0
1582146796.525,19.043,32.715,-17.090,6.348,0
1582146796.529,20.508,36.133,-52.246,3.906,0
1582146796.533,23.926,55.664,140.625,-28.809,0
1582146796.537,31.250,59.082,176.758,-23.438,0
1582146796.541,33.203,50.781,141.602,-12.207,0
1582146796.543,41.992,24.902,53.711,6.348,0
1582146796.547,29.785,39.062,61.523,-24.414,0
1582146796.551,32.227,50.781,113.281,-37.109,0
1582146796.555,46.387,49.805,116.211,10.742,0
1582146796.559,35.156,59.082,155.762,15.625,0
1582146796.563,25.391,47.852,102.539,-32.715,0
1582146796.567,21.484,32.715,10.742,-33.203,0
1582146796.570,17.090,43.945,-46.387,-3.906,0
1582146796.574,7.812,76.172,129.883,9.277,0
1582146796.578,17.578,66.895,270.020,-14.160,0
1582146796.582,39.062,40.039,162.598,-15.625,0
1582146796.586,38.574,41.992,65.918,2.930,0
1582146796.588,4.883,42.969,154.785,-9.277,0
1582146796.592,27.344,28.809,167.969,21.973,0
1582146796.596,51.758,41.504,60.059,14.160,0
1582146796.600,17.578,54.688,63.965,-7.812,0
1582146796.604,26.367,64.941,155.762,21.973,0
1582146796.608,24.902,63.477,190.918,18.066,0
1582146796.612,26.855,35.156,14.648,-11.230,0
1582146796.615,26.367,42.969,11.230,-31.250,0
1582146796.619,9.766,64.453,227.539,3.906,0
1582146796.623,12.695,43.945,267.090,52.246,0
1582146796.627,25.879,38.574,209.961,35.645,0
1582146796.631,22.949,43.457,160.156,14.648,0
1582146796.633,20.020,47.363,243.164,33.203,0
1582146796.637,31.250,45.898,242.676,53.223,0
1582146796.641,35.156,40.527,110.352,41.016,0
1582146796.645,25.391,44.922,82.031,11.230,0
1582146796.649,29.297,53.711,153.320,20.508,0
1582146796.653,46.875,44.434,56.152,63.965,0
1582146796.657,37.598,24.902,-87.402,66.895,0
1582146796.660,7.324,51.270,135.742,22.949,0
1582146796.664,3.906,73.242,306.152,20.020,0
1582146796.668,12.207,56.641,187.988,55.176,0
1582146796.672,4.395,51.270,125.000,59.570,0
1582146796.676,9.277,50.781,151.855,21.484,0
1582146796.693,5.859,45.410,179.199,15.137,0
1582146796.697,2.441,48.340,169.434,51.270,0
1582146796.701,18.066,53.223,154.785,78.613,0
1582146796.705,23.926,55.176,155.762,63.477,0
1582146796.709,3.906,58.105,150.391,25.391,0
1582146796.713,-18.555,35.156,46.875,20.996,0
1582146796.717,-17.578,40.039,22.949,39.551,0
1582146796.720,-13.672,70.801,181.152,29.785,0
1582146796.724,-13.672,61.035,217.285,-18.555,0
1582146796.728,0.000,28.320,56.152,2.930,0
1582146796.732,-25.879,49.316,93.262,36.621,0
1582146796.736,-40.527,69.336,292.969,11.230,0
1582146796.737,-7.324,44.922,264.648,2.441,0
1582146796.741,-15.625,42.480,175.293,22.461,0
1582146796.745,-16.602,70.801,228.516,44.434,0
1582146796.749,0.488,67.871,245.605,59.570,0
1582146796.753,-1.953,44.922,183.594,43.457,0
1582146796.757,5.371,45.898,86.914,27.344,0
1582146796.761,-14.648,54.688,47.852,33.203,0
1582146796.764,-24.902,67.383,187.988,32.227,0
1582146796.768,-6.836,58.105,198.730,42.969,0
1582146796.772,-13.184,28.809,-17.578,13.184,0
1582146796.776,-26.855,50.293,71.289,-11.719,0
1582146796.780,7.324,55.664,200.684,19.043,0
1582146796.782,24.902,41.016,41.992,23.926,0
1582146796.786,18.555,48.828,67.871,-17.578,0
1582146796.790,39.062,49.316,210.449,-1.953,0
1582146796.794,63.477,54.199,270.020,32.227,0
1582146796.798,59.570,50.293,238.770,18.555,0
1582146796.802,62.988,41.992,121.582,-3.906,0
1582146796.806,74.219,49.316,107.422,-6.836,0
1582146796.809,62.500,59.570,201.660,6.348,0
1582146796.813,61.035,33.691,89.844,31.250,0
1582146796.817,56.641,30.273,6.348,2.930,0
1582146796.821,51.758,70.312,245.605,-26.367,0
1582146796.825,50.781,63.477,284.668,19.043,0
1582146796.827,45.898,41.992,162.109,39.062,0
1582146796.831,35.156,36.133,139.648,12.695,0
1582146796.835,57.129,44.434,158.203,-1.465,0
1582146796.839,61.523,34.668,108.887,23.926,0
1582146796.843,48.828,21.484,40.527,39.551,0
1582146796.847,37.598,34.180,74.707,32.715,0
1582146796.851,20.508,47.852,108.887,16.602,0
1582146796.854,34.180,53.223,135.742,16.113,0
1582146796.858,23.438,36.621,20.996,34.180,0
1582146796.862,3.906,56.152,73.730,23.438,0
1582146796.866,19.043,65.918,263.184,5.859,0
1582146796.870,38.574,41.504,114.258,20.996,0
1582146796.872,26.855,43.457,55.664,42.969,0
1582146796.876,-0.488,51.758,176.758,32.227,0
1582146796.880,13.672,30.762,125.977,2.930,0
1582146796.884,20.020,25.391,32.715,-26.855,0
1582146796.888,30.273,26.855,44.434,-0.977,0
1582146796.892,47.363,36.133,56.152,27.832,0
1582146796.896,35.156,51.758,83.496,5.859,0
1582146796.899,39.062,41.504,5.859,-14.160,0
1582146796.903,31.250,62.988,4.883,-7.324,0
1582146796.907,8.789,81.055,234.375,12.695,0
1582146796.911,12.207,54.688,198.242,17.578,0
1582146796.915,9.766,48.828,100.098,-10.742,0
1582146796.917,28.320,54.199,138.184,-5.371,0
1582146796.921,38.086,64.941,208.984,20.020,0
1582146796.925,9.766,54.688,180.664,34.180,0
1582146796.929,12.695,36.621,50.781,10.742,28501
1582146796.933,19.531,48.828,98.633,-4.883,0
1582146796.937,20.020,52.734,126.953,31.738,0
1582146796.941,15.137,44.922,19.043,53.711,0
1582146796.944,27.344,59.082,-11.230,35.645,0
1582146796.948,27.832,68.359,83.984,-1.465,0
1582146796.952,7.324,53.711,184.082,10.742,0
1582146796.956,-0.488,47.852,129.883,41.016,0
1582146796.960,-13.184,57.129,112.305,33.203,0
1582146796.962,-11.719,62.500,167.969,-8.789,0
1582146796.966,27.832,52.734,137.695,-6.836,0
1582146796.970,21.973,45.898,95.215,35.645,0
1582146796.974,-1.465,44.434,80.078,28.320,0
1582146796.978,10.254,60.059,122.070,-23.926,0
1582146796.982,26.855,56.152,42.480,-27.344,0
1582146796.986,29.297,23.926,-125.488,4.883,0
1582146796.989,-5.859,21.973,-146.484,13.184,0
1582146796.993,-14.648,60.059,90.820,-5.859,0
1582146796.997,26.367,73.242,216.797,0.977,0
1582146797.001,25.879,83.008,192.871,24.414,0
1582146797.005,-3.418,67.383,95.215,19.531,0
1582146797.007,-19.531,62.500,51.758,0.488,0
1582146797.011,-6.348,69.336,86.914,-16.113,0
1582146797.015,8.301,53.223,39.062,-3.906,0
1582146797.019,-1.465,61.035,79.590,21.484,0
1582146797.023,12.695,67.871,110.352,31.250,0
1582146797.027,16.113,47.852,19.043,28.809,0
1582146797.031,-3.906,38.574,-105.469,12.695,0
1582146797.034,-21.484,60.059,6.836,-17.090,0
1582146797.038,-26.855,71.289,179.199,-21.973,0
1582146797.042,-5.859,64.453,121.582,-27.344,0
1582146797.046,11.719,61.035,95.703,-30.762,0
1582146797.050,9.766,51.270,124.512,-12.207,0
1582146797.067,10.254,43.945,129.883,12.207,0
1582146797.071,31.250,61.035,124.512,10.742,0
1582146797.075,33.691,65.918,61.523,-6.348,0
1582146797.079,17.090,66.406,87.891,8.789,0
1582146797.083,26.367,73.730,186.523,35.645,0
1582146797.087,39.062,42.480,53.711,13.672,0
1582146797.091,8.301,28.809,-78.125,-11.719,0
1582146797.094,0.977,69.336,89.844,-8.789,0
1582146797.098,13.672,68.848,180.176,22.949,0
1582146797.102,15.137,44.434,41.504,27.832,0
1582146797.106,10.254,58.594,3.418,-9.277,0
1582146797.110,-16.602,76.660,180.664,-12.695,0
1582146797.112,-21.973,56.152,170.410,-4.395,0
1582146797.116,-17.090,47.363,90.820,13.184,0
1582146797.120,-18.555,51.270,69.824,-1.953,0
1582146797.124,-11.719,57.617,86.914,-25.391,0
1582146797.128,-7.812,50.781,117.676,17.578,0
1582146797.132,11.719,13.184,-13.672,54.199,0
1582146797.136,4.883,28.809,-74.707,39.062,0
1582146797.139,-7.812,69.824,47.363,-12.695,0
1582146797.143,0.977,63.965,118.164,-10.742,0
1582146797.147,7.812,39.551,-53.223,21.973,0
1582146797.151,8.789,63.965,-12.207,-8.301,0
1582146797.155,19.531,80.566,202.637,-15.625,0
1582146797.157,30.273,62.500,138.184,7.324,0
1582146797.161,36.133,57.129,83.008,25.391,0
1582146797.165,52.734,58.594,120.605,20.508,0
1582146797.169,57.129,55.176,99.121,-1.953,0
1582146797.173,30.273,54.199,24.902,-0.977,0
1582146797.177,28.320,62.012,-51.758,35.156,0
1582146797.181,38.086,62.988,-76.172,25.879,0
1582146797.184,27.832,68.359,37.598,-26.855,0
1582146797.188,36.133,42.969,-50.781,-15.137,0
1582146797.192,37.598,41.016,-135.742,-3.418,0
1582146797.196,24.902,78.125,115.234,-4.395,0
1582146797.200,34.668,61.523,131.348,0.488,0
1582146797.202,29.297,40.527,47.852,-23.438,0
1582146797.206,27.344,48.340,59.082,-15.625,0
1582146797.210,50.293,69.824,120.117,31.738,0
1582146797.214,51.758,68.848,111.816,25.391,0
1582146797.218,38.574,48.340,-13.184,-32.715,0
1582146797.222,33.203,51.270,-84.961,-45.410,0
1582146797.226,31.250,58.105,-42.480,-14.648,0
1582146797.229,42.969,52.734,-2.930,0.000,0
1582146797.233,47.852,54.688,-77.148,-23.926,0
1582146797.237,10.254,73.730,27.832,-43.457,0
1582146797.241,12.695,70.312,208.496,-12.207,0
1582146797.245,47.363,43.457,97.168,4.883,0
1582146797.247,45.898,41.992,18.066,-12.207,0
1582146797.251,37.109,49.805,57.129,-34.668,0
1582146797.255,29.297,44.922,104.980,-16.602,0
1582146797.259,32.227,51.270,137.695,24.414,0
1582146797.263,51.270,43.457,39.551,5.371,0
1582146797.267,41.016,34.180,-46.875,-17.578,0
1582146797.271,20.508,44.434,-2.930,-11.230,0
1582146797.274,22.949,25.391,-85.449,17.090,0
1582146797.278,16.602,40.527,-91.797,25.391,0
1582146797.282,5.859,72.266,101.074,-35.156,0
1582146797.286,5.371,51.270,92.285,-30.762,0
1582146797.290,10.742,51.758,91.309,20.996,0
1582146797.292,-1.953,51.270,133.301,13.672,0
1582146797.296,12.207,39.551,154.785,-10.254,0
1582146797.300,41.504,37.109,68.359,5.371,0
1582146797.304,27.344,51.758,-8.301,23.438,0
1582146797.308,11.719,50.293,69.824,12.695,0
1582146797.312,5.371,34.180,31.738,-2.930,0
1582146797.316,3.418,41.016,-9.766,-12.695,0
1582146797.319,11.230,31.250,-86.914,3.906,0
1582146797.323,5.859,43.945,-18.066,16.602,0
1582146797.327,-3.418,45.898,148.926,-1.953,0
1582146797.331,0.488,18.066,54.199,-20.996,0
1582146797.335,4.883,30.762,33.203,18.555,0
1582146797.337,-4.883,46.875,141.113,46.387,0
1582146797.341,21.484,39.062,147.949,34.668,0
1582146797.345,53.711,25.879,19.043,35.645,0
1582146797.349,-1.465,35.156,-1.953,18.066,0
1582146797.353,-24.414,58.594,138.184,36.621,0
1582146797.357,5.859,50.781,88.867,55.176,0
1582146797.361,19.531,35.645,-62.988,22.461,0
1582146797.364,6.836,47.852,-68.359,1.953,0
1582146797.368,-25.391,82.031,153.320,8.301,0
1582146797.372,-15.137,71.777,203.125,42.969,0
1582146797.376,-12.207,47.363,93.750,26.367,0
1582146797.380,-3.906,46.875,65.430,-4.395,0
1582146797.382,-2.441,63.965,139.648,25.391,0
1582146797.386,-9.277,55.664,143.066,49.316,0
1582146797.390,-3.418,38.086,31.738,30.762,0
1582146797.394,-3.906,58.594,57.129,-1.953,0
1582146797.398,-1.953,75.684,132.812,6.348,0
1582146797.402,-12.695,52.734,38.086,32.227,0
1582146797.406,-28.809,30.273,-142.578,22.949,0
1582146797.409,-39.062,61.523,-56.152,-14.648,0
1582146797.413,-32.227,70.312,43.945,-6.348,0
1582146797.417,-17.578,48.340,-31.250,14.160,0
1582146797.421,-18.555,48.340,12.207,12.207,0
1582146797.425,-29.785,47.363,101.074,3.418,0
1582146797.442,-11.230,51.270,158.203,-2.441,0
1582146797.446,-6.836,44.922,93.262,9.766,0
1582146797.450,-39.551,41.992,48.828,18.555,0
1582146797.454,-38.574,62.988,147.461,2.930,0
1582146797.458,-23.438,63.477,157.715,-21.973,0
1582146797.462,-12.207,40.039,-28.320,1.465,0
1582146797.466,-19.043,49.805,-67.383,36.133,0
1582146797.469,-37.109,73.242,180.176,33.203,0
1582146797.473,-23.926,51.270,151.855,11.230,0
1582146797.477,-11.230,54.688,77.148,10.742,0
1582146797.481,-16.602,64.453,140.137,34.668,0
1582146797.485,-12.207,48.340,54.688,31.250,0
1582146797.487,16.113,41.992,10.254,-2.930,0
1582146797.491,21.973,41.992,108.887,-13.672,0
1582146797.495,7.324,44.922,139.648,14.648,0
1582146797.499,10.254,50.781,145.508,13.184,0
1582146797.503,35.156,35.645,63.965,-20.020,0
1582146797.507,67.383,31.738,-11.719,-24.414,0
1582146797.511,62.500,47.852,43.945,-13.184,0
1582146797.514,40.039,56.641,197.266,-7.812,0
1582146797.518,56.641,30.273,176.270,-17.090,0
1582146797.522,57.617,-0.977,-51.758,-59.570,0
1582146797.526,41.016,22.461,26.367,-50.781,0
1582146797.530,58.594,35.645,159.180,-1.465,0
1582146797.532,81.543,20.996,116.211,13.672,0
1582146797.536,74.219,18.066,91.797,-1.953,0
1582146797.540,62.500,24.414,52.246,-10.254,0
1582146797.544,70.801,28.320,38.086,21.973,0
1582146797.548,72.754,30.273,41.016,36.621,0
1582146797.552,49.805,28.809,1.465,-12.207,0
1582146797.556,44.434,25.879,-27.832,-41.992,0
1582146797.559,34.180,40.527,85.938,-19.531,0
1582146797.563,35.645,19.531,63.477,27.832,0
1582146797.567,30.762,-4.395,-77.637,4.395,0
1582146797.571,7.812,36.133,82.031,-37.109,0
1582146797.575,21.484,44.922,186.035,-4.395,0
1582146797.577,22.949,38.574,129.883,47.363,0
1582146797.581,27.344,41.016,121.582,37.109,0
1582146797.585,37.109,33.203,152.344,-9.277,0
1582146797.589,12.207,21.484,89.844,1.953,0
1582146797.593,-0.488,15.137,43.945,22.461,0
1582146797.597,21.484,9.766,-22.461,3.906,0
1582146797.601,37.598,12.207,-51.270,-13.672,0
1582146797.604,8.789,23.438,-10.254,-23.438,0
1582146797.608,-15.625,19.531,-80.078,-6.348,0
1582146797.612,-1.465,44.922,57.617,3.906,0
1582146797.616,12.207,56.152,192.871,-26.855,0
1582146797.620,0.488,17.578,84.961,-22.949,0
1582146797.637,-15.625,13.184,67.871,8.301,0
1582146797.641,-4.883,52.246,148.926,22.461,0
1582146797.645,15.625,56.152,112.793,13.184,0
1582146797.649,2.930,45.410,22.461,-23.926,0
1582146797.653,-14.160,36.621,-12.695,-3.418,0
1582146797.657,-18.555,20.996,-5.371,43.457,0
1582146797.661,-21.484,31.250,20.508,19.043,0
1582146797.664,-4.883,29.785,-31.738,-2.441,0
1582146797.668,4.883,27.344,-132.324,15.625,0
1582146797.672,-22.949,58.594,47.363,24.414,0
1582146797.676,-19.043,54.199,131.836,20.508,0
1582146797.680,-6.836,48.340,56.641,-0.488,0
1582146797.667,-15.625,45.410,63.965,-12.695,0
1582146797.671,-20.996,43.945,97.168,-2.930,0
1582146797.675,-9.277,39.551,81.055,15.625,0
1582146797.679,21.973,38.086,4.883,-5.371,0
1582146797.683,15.625,49.805,18.555,-21.973,0
1582146797.687,-2.930,39.062,-22.949,1.953,0
1582146797.691,-3.418,35.645,-57.129,17.090,0
1582146797.694,-10.742,44.922,-26.855,-6.348,0
1582146797.698,-4.395,46.875,3.418,-21.484,0
1582146797.702,-12.207,46.387,53.711,-16.113,0
1582146797.706,-5.859,27.344,61.523,-23.926,0
1582146797.710,21.973,0.977,-111.816,-13.672,0
1582146797.712,11.230,43.457,-7.324,-34.668,0
1582146797.716,10.254,59.082,180.664,-18.555,0
1582146797.720,1.465,34.668,112.305,26.367,0
1582146797.724,2.930,46.387,90.332,10.254,0
1582146797.728,2.930,58.105,83.496,-23.926,0
1582146797.732,-8.789,53.223,18.066,-0.488,0
1582146797.736,9.277,32.227,-139.160,35.156,0
1582146797.739,0.488,36.621,-114.746,31.250,0
1582146797.743,-8.789,58.105,130.371,-2.441,0
1582146797.747,-6.836,48.828,124.023,-35.645,0
1582146797.751,-25.391,44.922,60.059,-10.742,0
1582146797.755,-28.320,40.527,46.387,12.695,0
1582146797.757,-1.465,57.129,87.402,-1.465,0
1582146797.761,13.184,53.711,80.566,-33.203,0
1582146797.765,3.418,28.320,-32.227,-30.273,0
1582146797.769,9.766,38.086,42.480,8.301,0
1582146797.773,24.414,43.945,127.930,22.949,0
1582146797.777,26.367,37.598,-35.645,-5.371,0
1582146797.781,-4.395,47.363,-150.879,-25.879,0
1582146797.784,-18.555,72.266,44.922,-9.766,0
1582146797.788,1.953,76.172,250.000,18.555,0
1582146797.792,21.973,38.574,151.855,23.926,0
1582146797.796,34.668,26.855,89.844,10.742,0
1582146797.800,8.301,52.734,149.414,11.230,0
1582146797.817,1.465,64.453,145.996,26.367,0
1582146797.821,20.020,60.547,71.289,40.527,0
1582146797.825,13.184,55.176,36.133,13.672,0
1582146797.829,-12.207,56.641,107.422,4.395,0
1582146797.833,-18.066,54.199,149.414,37.598,0
1582146797.837,1.465,25.879,-24.902,30.273,0
1582146797.841,-4.395,14.648,-167.969,-1.953,0
1582146797.844,-28.809,26.367,4.883,4.883,0
1582146797.848,-20.508,47.363,166.992,53.711,0
1582146797.852,8.789,64.941,109.375,59.082,0
1582146797.856,-5.859,70.312,88.379,-0.488,0
1582146797.860,-18.555,67.871,169.922,-9.277,0
1582146797.862,-6.836,50.781,166.992,24.902,0
1582146797.866,14.160,38.086,55.664,44.434,0
1582146797.870,17.578,47.363,-11.719,6.836,0
1582146797.874,-5.371,49.805,122.070,-17.578,0
1582146797.878,3.906,38.086,171.387,12.207,0
1582146797.882,18.066,36.621,52.734,30.762,0
1582146797.886,2.930,52.734,8.301,0.488,0
1582146797.889,8.301,54.199,100.098,-29.785,0
1582146797.893,27.344,28.809,1.953,17.578,0
1582146797.897,19.531,35.645,-97.656,44.922,0
1582146797.901,-15.137,64.941,76.172,-9.766,0
1582146797.905,-16.602,69.336,219.238,-46.387,0
1582146797.907,1.953,47.363,119.141,-29.297,0
1582146797.911,0.488,41.016,70.801,1.953,0
1582146797.915,5.371,54.199,151.855,12.207,0
1582146797.919,26.855,48.828,204.102,-27.344,0
1582146797.923,20.508,25.879,148.438,-14.648,0
1582146797.927,30.273,16.602,75.195,28.320,0
1582146797.931,33.203,32.715,47.363,16.602,0
1582146797.934,12.207,73.730,149.414,-10.254,0
1582146797.938,20.508,49.316,106.934,-6.348,0
1582146797.942,19.531,24.414,-39.062,6.836,0
1582146797.946,20.020,44.922,174.805,-6.836,0
1582146797.950,32.227,31.738,214.844,-16.113,0
1582146797.952,38.574,41.992,134.766,-28.809,0
1582146797.956,29.785,57.617,214.844,-20.996,0
1582146797.960,12.695,47.852,324.219,0.977,0
1582146797.964,20.996,41.016,282.227,-15.137,0
1582146797.968,13.184,38.086,150.879,-59.570,0
1582146797.972,23.438,33.203,45.410,-45.898,0
1582146797.976,7.812,50.781,70.801,-16.113,0
1582146797.979,16.113,53.223,192.871,-3.418,0
1582146797.983,32.227,40.039,105.957,-25.391,0
1582146797.987,8.301,58.105,154.785,-42.480,0
1582146797.991,18.555,57.617,329.590,0.977,0
1582146797.995,15.625,33.691,243.164,34.180,0
1582146797.997,11.230,39.551,181.641,6.836,0
1582146798.001,24.414,52.246,246.582,-43.457,0
1582146798.005,10.254,42.969,204.590,-13.672,0
1582146798.009,8.789,51.270,161.133,34.668,0
1582146798.013,-0.977,60.547,259.766,11.230,0
1582146798.017,-6.348,43.457,205.566,-9.277,0
1582146798.021,4.883,48.828,121.094,-1.465,0
1582146798.024,14.160,54.688,114.746,27.344,0
1582146798.028,18.066,52.734,79.590,38.086,25621
1582146798.032,1.465,65.430,255.859,-3.906,0
1582146798.036,4.395,42.480,304.199,20.996,0
1582146798.040,5.859,42.969,215.332,30.762,0
1582146798.057,1.465,60.547,233.398,2.930,0
1582146798.061,9.277,56.641,265.625,2.441,0
1582146798.065,9.277,39.551,153.320,-10.742,0
1582146798.069,-5.859,41.016,109.863,1.953,0
1582146798.073,6.836,61.035,222.656,22.461,0
1582146798.077,13.184,52.246,176.270,9.277,0
1582146798.081,-5.371,52.246,91.797,-3.418,0
1582146798.084,1.465,48.340,35.156,20.020,0
1582146798.088,0.977,51.758,81.543,18.555,0
1582146798.092,-6.836,67.383,304.688,6.836,0
1582146798.096,18.066,48.340,226.074,-3.418,0
1582146798.100,16.602,27.344,80.566,0.977,0
1582146798.087,9.277,25.879,133.789,23.438,0
1582146798.091,-1.465,52.246,232.422,30.762,0
1582146798.095,4.883,62.500,200.195,14.648,0
1582146798.099,14.160,62.988,82.520,-4.395,0
1582146798.103,5.859,73.242,126.953,27.344,0
1582146798.107,-0.977,55.664,92.285,40.039,0
1582146798.111,1.953,32.227,-26.855,12.695,0
1582146798.114,6.348,48.340,45.898,-13.184,0
1582146798.118,0.488,57.617,160.156,18.066,0
1582146798.122,13.184,49.805,175.781,53.223,0
1582146798.126,32.227,40.039,27.344,38.574,0
1582146798.130,30.273,43.945,-4.883,5.859,0
1582146798.132,-13.184,55.664,209.473,6.836,0
1582146798.136,-20.996,58.594,215.820,40.527,0
1582146798.140,-2.441,59.082,186.523,22.949,0
1582146798.144,-5.371,48.340,140.137,-27.832,0
1582146798.148,-8.301,42.480,125.000,-14.160,0
1582146798.152,4.883,32.715,56.152,27.832,0
1582146798.156,2.930,41.504,-107.910,21.484,0
1582146798.159,-26.855,70.312,42.480,-23.438,0
1582146798.163,-35.156,70.312,276.367,-37.598,0
1582146798.167,-23.438,39.062,184.570,5.371,0
1582146798.171,2.441,30.273,98.633,13.184,0
1582146798.175,-3.906,42.969,122.070,-13.672,0
1582146798.192,-35.156,42.969,177.734,-13.672,0
1582146798.196,-16.602,33.691,226.074,35.645,0
1582146798.200,-4.395,35.156,207.520,65.430,0
1582146798.204,-20.508,57.617,258.301,20.508,0
1582146798.208,-8.789,60.547,248.047,10.742,0
1582146798.212,0.488,31.250,25.879,36.133,0
1582146798.216,0.488,19.531,-57.617,28.809,0
1582146798.219,3.906,38.086,138.184,8.301,0
1582146798.223,15.137,49.805,219.727,-15.137,0
1582146798.227,51.758,40.527,55.664,-5.371,0
1582146798.231,37.109,50.781,59.570,6.348,0
1582146798.235,36.621,56.152,218.750,-2.441,0
1582146798.237,56.641,34.180,143.555,-31.738,0
1582146798.241,58.594,25.879,63.477,-33.203,0
1582146798.245,66.895,35.645,27.344,7.324,0
1582146798.249,66.406,50.781,78.125,15.625,0
1582146798.253,70.312,37.109,156.250,-10.742,0
1582146798.257,70.801,23.438,70.801,-15.137,0
1582146798.261,62.988,41.992,39.062,15.625,0
1582146798.264,60.059,58.594,136.719,-3.418,0
1582146798.268,76.172,43.457,132.324,-10.742,0
1582146798.272,80.078,27.344,-59.082,-15.137,0
1582146798.276,52.246,58.105,23.438,-22.949,0
1582146798.280,38.086,70.801,251.953,10.742,0
1582146798.282,31.250,45.410,158.691,15.137,0
1582146798.286,39.062,32.227,40.527,-13.184,0
1582146798.290,34.668,38.086,33.203,-14.160,0
1582146798.294,27.344,48.340,132.812,32.227,0
1582146798.298,28.320,22.461,141.113,43.457,0
1582146798.302,28.320,17.578,56.641,-11.230,0
1582146798.306,22.461,43.945,6.348,-21.973,0
1582146798.309,11.719,60.547,128.906,11.719,0
1582146798.313,10.254,46.387,85.449,41.992,0
1582146798.317,29.785,47.363,-0.977,3.418,0
1582146798.321,4.883,63.965,181.641,-31.738,0
1582146798.325,5.859,51.270,175.293,9.277,0
1582146798.327,35.156,51.270,142.578,35.645,0
1582146798.331,14.160,44.434,165.039,16.602,0
1582146798.335,3.906,42.480,214.844,-29.785,0
1582146798.339,17.578,44.434,208.008,-15.625,0
1582146798.343,13.672,36.621,108.398,20.996,0
1582146798.347,0.977,38.574,30.762,5.371,0
1582146798.351,3.418,50.781,94.238,-7.324,0
1582146798.354,12.207,42.969,178.711,14.160,0
1582146798.358,5.859,25.879,54.688,27.344,0
1582146798.362,-7.812,51.270,146.973,20.508,0
1582146798.366,3.906,74.707,406.250,3.906,0
1582146798.370,1.465,51.758,367.676,9.766,0
1582146798.372,-13.184,48.340,325.195,27.344,0
1582146798.376,-20.020,66.406,416.504,41.016,0
1582146798.380,-9.277,52.246,380.859,24.902,0
1582146798.384,-8.301,36.621,264.648,-7.324,0
1582146798.388,-16.113,30.762,247.070,5.859,0
1582146798.392,-10.254,23.926,179.688,37.109,0
1582146798.396,-4.883,50.781,180.664,22.949,0
1582146798.399,11.230,51.270,166.992,-3.906,0
1582146798.403,4.395,44.922,44.922,7.812,0
1582146798.407,-19.043,67.871,249.023,14.160,0
1582146798.411,0.488,44.922,273.438,5.859,0
1582146798.415,11.230,41.992,88.867,-9.277,0
1582146798.417,8.789,55.176,105.469,-17.578,0
1582146798.421,20.508,56.641,241.211,14.160,0
1582146798.425,51.758,49.316,220.215,39.062,0
1582146798.429,58.594,32.715,129.395,8.789,0
1582146798.433,22.949,29.785,134.277,-15.625,0
1582146798.437,12.207,29.297,86.426,5.371,0
1582146798.441,23.926,31.250,78.613,29.785,0
1582146798.444,18.555,28.809,-11.230,12.695,0
1582146798.448,2.441,46.387,-0.488,-40.527,0
1582146798.452,7.324,57.617,186.523,-12.207,0
1582146798.456,20.020,23.926,139.648,34.668,0
1582146798.460,34.180,21.973,36.621,14.648,0
1582146798.462,12.207,49.316,82.520,-14.648,0
1582146798.466,0.488,39.551,116.699,-1.953,0
1582146798.470,11.230,20.996,-12.207,28.320,0
1582146798.474,-4.883,28.320,-69.336,15.137,0
1582146798.478,-11.230,35.645,22.949,-19.043,0
1582146798.482,4.395,30.762,45.410,-17.090,0
1582146798.486,26.855,20.508,-43.457,20.996,0
1582146798.489,7.812,12.695,-125.488,16.113,0
1582146798.493,-19.043,40.527,55.664,-33.691,0
1582146798.497,-4.883,58.105,227.051,-43.457,0
1582146798.501,4.883,52.246,212.402,-5.371,0
1582146798.505,10.254,46.875,158.203,-8.301,0
1582146798.507,5.859,54.688,224.121,-31.250,0
1582146798.511,20.508,55.176,259.766,-41.016,0
1582146798.515,27.832,45.898,189.453,-35.156,0
1582146798.519,6.836,46.875,216.309,-10.254,0
1582146798.523,13.184,41.504,271.973,-6.836,0
1582146798.527,25.391,23.926,157.715,-20.508,0
1582146798.531,17.578,23.438,-15.625,-20.020,0
1582146798.534,2.930,53.223,137.695,-8.789,0
1582146798.538,-6.348,60.059,315.918,5.859,0
1582146798.542,-3.906,52.246,203.125,-21.973,0
1582146798.546,-3.906,50.781,115.234,-18.066,0
1582146798.550,-15.625,52.734,191.406,8.789,0
1582146798.568,-3.906,66.406,269.043,18.555,0
1582146798.572,8.301,56.641,233.887,12.695,0
1582146798.576,-3.906,39.551,184.082,-28.809,0
1582146798.580,-17.090,49.316,241.211,-15.137,0
1582146798.584,-12.207,47.363,306.641,22.461,0
1582146798.588,19.531,13.672,94.238,22.949,0
1582146798.592,21.484,29.785,22.461,-18.555,0
1582146798.595,11.230,58.105,229.980,-9.277,0
1582146798.599,0.977,45.410,293.945,23.926,0
1582146798.603,12.695,37.109,217.773,6.348,0
1582146798.607,31.250,49.316,170.898,-17.090,0
1582146798.611,24.902,73.730,307.129,-8.789,0
1582146798.613,32.227,74.219,368.652,15.137,0
1582146798.617,35.156,58.105,313.477,5.371,0
1582146798.621,38.574,44.922,277.344,-16.602,0
1582146798.625,43.457,49.805,307.129,-18.066,0
1582146798.629,34.180,48.340,348.633,13.672,0
1582146798.633,35.645,28.809,279.297,23.438,0
1582146798.637,17.090,29.785,150.879,-14.648,0
1582146798.640,-0.488,53.223,255.859,-52.246,0
1582146798.644,11.719,47.363,334.961,-18.066,0
1582146798.648,24.414,29.785,160.645,27.832,0
1582146798.652,34.668,43.945,183.594,-10.742,0
1582146798.656,26.367,55.664,360.352,-32.715,0
1582146798.658,20.020,32.715,339.844,-17.090,0
1582146798.662,10.742,30.273,333.008,0.488,0
1582146798.666,34.668,51.270,436.523,17.090,0
1582146798.670,36.133,47.852,433.105,-19.531,0
1582146798.674,13.184,46.387,362.793,-29.785,0
1582146798.678,21.484,52.734,303.223,6.348,0
1582146798.682,29.297,58.105,338.379,8.789,0
1582146798.685,25.391,59.082,450.195,-26.855,0
1582146798.689,39.062,39.062,326.172,-36.621,0
1582146798.693,53.223,51.758,223.633,6.836,0
1582146798.697,42.480,92.773,516.602,19.043,0
1582146798.701,29.297,59.082,536.621,-20.020,0
1582146798.703,26.855,34.180,384.277,-29.297,0
1582146798.707,37.598,42.969,332.520,-5.859,0
1582146798.711,39.551,63.965,347.656,12.207,0
1582146798.715,23.926,68.359,416.992,0.977,0
1582146798.719,19.531,50.781,375.000,-19.531,0
1582146798.723,31.738,58.594,314.941,-11.230,0
1582146798.727,15.137,65.430,312.500,5.371,0
1582146798.730,2.930,60.059,299.805,7.812,0
1582146798.734,20.020,60.547,222.168,-6.836,0
1582146798.738,10.742,84.473,312.500,-24.902,0
1582146798.742,5.859,88.867,515.625,5.371,0
1582146798.746,31.738,69.824,480.469,27.344,0
1582146798.748,13.184,53.223,372.070,-1.465,0
1582146798.752,-11.230,59.570,407.715,-28.320,0
1582146798.756,-3.906,74.707,508.301,5.371,0
1582146798.760,11.230,72.266,479.492,41.504,0
1582146798.764,6.836,58.594,394.531,19.531,0
1582146798.768,1.465,38.086,286.133,-11.719,0
1582146798.772,-3.418,48.828,229.492,-10.254,0
1582146798.775,0.977,39.551,196.777,33.203,0
1582146798.779,-0.977,29.297,164.551,26.367,0
1582146798.783,-8.789,76.660,385.742,-19.531,0
1582146798.787,8.301,75.684,490.234,-12.207,0
1582146798.791,5.859,32.227,383.301,12.207,0
1582146798.793,-23.438,26.855,359.375,16.602,0
1582146798.797,-29.785,52.734,456.543,-14.160,0
1582146798.801,-26.855,48.340,423.340,-22.949,0
1582146798.805,-19.531,49.316,349.609,6.836,0
1582146798.809,7.324,64.453,431.641,33.203,0
1582146798.813,15.137,51.270,364.746,12.695,0
1582146798.817,-6.836,54.199,220.215,1.465,0
1582146798.820,-10.742,63.477,178.711,14.160,0
1582146798.824,-8.301,74.707,286.133,20.508,0
1582146798.828,-15.137,79.590,472.656,17.090,0
1582146798.832,-1.953,64.453,428.223,-6.836,0
1582146798.836,-10.742,66.406,379.883,-17.090,0
1582146798.838,-24.902,71.777,450.195,-5.859,0
1582146798.842,-24.902,66.406,443.359,15.625,0
1582146798.846,-10.742,56.641,357.422,-5.859,0
1582146798.850,2.441,49.805,301.270,-11.230,0
1582146798.854,-13.184,54.199,329.590,23.438,0
1582146798.858,-0.977,59.570,285.156,29.785,0
1582146798.862,17.578,47.363,156.250,18.066,0
1582146798.865,17.090,50.781,141.113,-4.883,0
1582146798.869,-2.441,85.938,428.223,-9.766,0
1582146798.873,-15.625,83.984,575.195,27.832,0
1582146798.877,10.254,68.848,449.219,17.578,0
1582146798.881,19.531,69.824,342.285,-18.066,0
1582146798.883,-8.789,81.543,424.316,-2.930,0
1582146798.887,-17.578,67.383,516.602,21.973,0
1582146798.891,-9.277,47.852,453.125,17.090,0
1582146798.895,3.418,49.805,359.375,-24.414,0
1582146798.899,-5.859,43.457,395.508,-19.531,0
1582146798.903,-4.395,34.180,357.910,35.156,0
1582146798.907,-6.836,19.531,193.359,24.414,0
1582146798.910,-14.160,41.016,282.715,-18.555,0
1582146798.914,-13.184,73.730,462.402,-7.324,0
1582146798.918,-28.320,66.406,461.426,15.137,0
1582146798.922,-38.086,50.293,435.059,0.977,0
1582146798.926,-36.133,42.969,492.188,-20.508,0
1582146798.942,-10.254,43.457,508.301,-28.809,0
1582146798.946,-23.926,39.062,410.645,-3.906,0
1582146798.950,-57.129,48.340,400.391,14.648,0
1582146798.954,-44.922,57.617,543.457,-20.508,0
1582146798.958,-24.902,40.039,557.129,-44.922,0
1582146798.962,-5.859,1.953,340.332,-10.742,0
1582146798.966,-38.086,11.719,273.926,16.602,0
1582146798.969,-50.293,62.012,496.582,18.066,0
1582146798.973,-23.926,46.875,468.750,-1.953,0
1582146798.977,-28.320,36.133,322.754,-7.812,0
1582146798.981,-21.973,50.293,335.938,24.902,0
1582146798.985,-9.766,47.363,420.410,7.324,0
1582146798.987,17.578,30.273,415.527,-18.555,0
1582146798.991,34.180,35.156,316.406,-19.043,0
1582146798.995,31.250,59.082,322.266,-12.695,0
1582146798.999,41.016,62.012,458.008,-6.348,0
1582146799.003,40.039,30.762,369.629,-14.160,0
1582146799.007,30.273,21.484,227.539,-32.227,0
1582146799.011,32.715,42.969,287.598,-29.297,0
1582146799.014,31.250,48.340,422.852,-10.254,0
1582146799.018,61.523,20.508,442.383,-0.977,0
1582146799.022,63.965,3.418,179.688,-24.902,0
1582146799.026,23.926,44.434,210.938,-36.621,0
1582146799.030,39.551,66.406,437.012,5.859,0
1582146799.032,64.941,49.316,421.387,13.672,0
1582146799.036,73.730,40.039,322.754,-16.602,0
1582146799.040,73.242,54.199,311.523,-12.207,0
1582146799.044,27.832,50.293,371.582,11.230,0
1582146799.048,17.578,22.949,314.941,19.531,0
1582146799.052,56.641,9.277,161.133,7.812,0
1582146799.056,37.109,32.227,175.293,-14.160,0
1582146799.059,14.160,37.598,281.738,4.395,0
1582146799.063,37.109,7.324,107.422,41.992,0
1582146799.067,38.086,29.785,13.672,11.719,0
1582146799.071,6.836,69.336,280.762,-26.367,0
1582146799.075,2.441,57.617,358.887,10.254,0
1582146799.077,1.465,48.828,318.359,20.996,0
1582146799.081,7.812,42.969,362.305,-1.953,0
1582146799.085,27.832,29.297,369.141,-13.184,0
1582146799.089,47.363,31.250,272.949,4.395,0
1582146799.093,49.805,43.457,224.121,30.273,0
1582146799.097,35.645,42.480,186.523,27.832,0
1582146799.101,22.461,36.133,121.094,-18.555,0
1582146799.104,12.695,29.297,145.508,-34.180,0
1582146799.108,24.902,21.484,103.027,6.348,0
1582146799.112,10.254,45.898,222.168,12.207,0
1582146799.116,8.301,47.852,311.523,-18.555,0
1582146799.120,13.184,27.832,146.484,-6.348,0
1582146799.122,10.254,43.457,179.199,9.766,0
1582146799.126,9.766,54.199,302.246,12.207,0
1582146799.130,1.953,43.457,283.203,25.879,0
1582146799.134,-5.859,46.387,183.594,-0.977,0
1582146799.138,9.277,57.129,213.867,13.672,0
1582146799.142,17.578,47.852,234.863,62.500,0
1582146799.146,-10.254,54.199,208.984,42.969,0
1582146799.149,18.066,51.758,153.320,14.648,0
1582146799.153,15.137,51.270,95.703,31.250,0
1582146799.157,-23.926,76.172,289.551,47.363,0
1582146799.161,4.883,51.758,321.777,38.086,0
1582146799.165,20.020,52.246,235.352,17.090,0
1582146799.167,9.766,86.914,291.992,4.395,0
1582146799.171,25.391,61.523,270.996,24.902,0
1582146799.175,19.531,39.062,174.805,42.969,0
1582146799.179,3.418,65.430,211.914,3.418,0
1582146799.183,2.930,67.383,199.707,-29.297,0
1582146799.187,8.301,65.430,166.504,-5.859,0
1582146799.191,3.906,63.477,124.023,15.625,0
1582146799.194,13.672,46.387,-6.348,0.977,0
1582146799.198,27.344,63.965,38.086,-24.902,0
1582146799.202,10.742,83.008,307.129,-11.230,0
1582146799.206,10.254,65.430,316.895,13.184,0
1582146799.210,-0.977,62.500,240.234,27.344,17090
1582146799.212,-21.973,72.754,270.996,-12.207,0
1582146799.216,-21.973,64.941,279.297,-38.086,0
1582146799.220,-8.301,42.480,218.750,14.648,0
1582146799.224,2.441,34.668,170.410,28.320,0
1582146799.228,8.789,41.992,164.551,9.766,0
1582146799.232,22.461,53.223,110.840,23.438,0
1582146799.236,16.602,45.410,-6.348,47.852,0
1582146799.239,-3.906,56.152,-72.754,32.715,0
1582146799.243,-31.250,88.867,192.871,9.277,0
1582146799.247,-15.625,68.848,291.504,10.742,0
1582146799.251,2.930,49.805,187.988,17.578,0
1582146799.255,-4.395,55.176,215.332,24.902,0
1582146799.257,0.977,64.941,297.363,5.859,0
1582146799.261,8.789,56.152,275.391,-6.836,0
1582146799.265,0.488,41.992,158.691,-1.953,0
1582146799.269,4.883,46.875,146.973,6.836,0
1582146799.273,6.348,49.805,193.848,4.395,0
1582146799.277,28.809,29.785,104.980,-9.766,0
1582146799.281,10.742,25.391,-33.203,-24.902,0
1582146799.284,-21.973,34.180,23.926,-14.160,0
1582146799.288,5.859,40.039,138.672,16.113,0
1582146799.292,27.832,51.758,170.898,5.371,0
1582146799.296,27.344,49.805,149.902,7.324,0
1582146799.300,-0.977,55.664,201.172,15.625,0
1582146799.317,-6.836,52.246,225.586,15.625,0
1582146799.321,1.953,32.227,109.863,29.297,0
1582146799.325,-0.977,41.016,58.594,-6.348,0
1582146799.329,-8.789,70.312,159.180,7.324,0
1582146799.333,-14.648,63.965,228.027,45.410,0
1582146799.337,-3.418,35.645,93.262,20.996,0
1582146799.341,-9.277,36.621,-9.766,-5.371,0
1582146799.344,-7.812,49.316,119.629,10.254,0
1582146799.348,9.766,50.293,202.148,48.828,0
1582146799.352,21.973,29.785,85.938,54.199,0
1582146799.356,30.762,22.461,-61.523,29.785,0
1582146799.360,11.719,54.199,114.258,7.812,0
1582146799.362,20.996,46.875,263.184,20.020,0
1582146799.366,29.785,31.738,231.445,22.949,0
1582146799.370,35.156,30.273,185.059,0.977,0
1582146799.374,38.574,32.715,138.184,-10.742,0
1582146799.378,29.297,32.227,170.898,10.254,0
1582146799.382,44.434,16.602,58.594,37.109,0
1582146799.386,48.340,42.480,37.598,18.066,0
1582146799.389,25.879,50.781,170.410,-29.785,0
1582146799.393,20.508,26.855,161.133,-18.066,0
1582146799.397,27.344,12.695,-77.148,24.414,0
1582146799.401,20.020,37.109,-63.477,-9.277,0
1582146799.405,26.367,56.152,147.949,-45.410,0
1582146799.407,34.668,38.086,95.215,-18.066,0
1582146799.411,27.344,28.320,-17.578,-10.742,0
1582146799.415,21.973,38.574,-31.738,-14.160,0
1582146799.419,30.762,53.711,117.676,-14.160,0
1582146799.423,61.035,39.062,116.699,-18.555,0
1582146799.427,41.992,38.086,-10.254,-0.488,0
1582146799.431,8.301,50.293,-67.871,13.672,0
1582146799.434,33.203,65.430,8.301,-31.250,0
1582146799.438,58.105,47.363,-73.730,-44.434,0
1582146799.442,46.387,44.434,-193.848,-3.418,0
1582146799.446,27.344,81.055,49.805,-6.836,0
1582146799.450,59.082,74.219,124.023,-19.043,0
1582146799.452,54.199,61.523,17.090,-39.062,0
1582146799.456,42.480,71.777,21.973,-19.043,0
1582146799.460,54.199,84.961,110.352,13.672,0
1582146799.464,67.871,65.430,102.051,1.465,0
1582146799.468,52.734,40.039,-31.738,-36.621,0
1582146799.472,37.598,52.734,-61.523,-21.484,0
1582146799.476,46.387,69.824,23.926,14.648,0
1582146799.479,60.059,69.336,82.520,41.992,0
1582146799.483,63.477,59.570,-61.035,15.137,0
1582146799.487,38.086,89.355,-13.184,-28.809,0
1582146799.491,34.668,94.238,215.332,8.301,0
1582146799.495,24.414,63.477,182.617,18.066,0
1582146799.498,8.301,57.617,153.320,-19.531,0
1582146799.502,3.906,73.730,265.625,-45.898,0
1582146799.506,17.578,67.871,298.828,-18.066,0
1582146799.510,13.184,50.781,203.613,22.461,0
1582146799.514,3.418,50.293,178.711,10.742,0
1582146799.518,14.648,44.434,130.859,-15.137,0
1582146799.522,-1.953,59.570,176.270,-20.020,0
1582146799.525,0.488,45.410,199.219,27.832,0
1582146799.529,-9.277,35.645,115.234,30.762,0
1582146799.533,-20.020,75.195,333.984,-25.879,0
1582146799.537,-8.301,80.078,435.059,-17.090,0
1582146799.541,-7.812,73.730,380.859,15.137,0
1582146799.543,0.000,69.336,386.230,22.949,0
1582146799.547,0.000,58.105,375.000,0.977,0
1582146799.551,-9.277,43.457,229.980,-5.859,0
1582146799.555,-10.254,51.758,179.688,9.277,0
1582146799.559,-17.578,45.410,230.957,15.625,0
1582146799.563,-14.648,15.137,76.660,6.836,0
1582146799.567,-8.301,22.949,-35.645,-12.207,0
1582146799.570,-18.066,31.738,-132.324,6.348,0
1582146799.574,-41.016,39.062,-114.258,14.648,0
1582146799.578,-29.297,56.152,83.008,-19.531,0
1582146799.582,-10.254,30.762,-95.215,-40.039,0
1582146799.586,-16.113,24.902,-283.203,-24.414,0
1582146799.587,-33.203,49.805,-165.527,-8.301,0
1582146799.591,-28.809,43.945,-159.180,-16.602,0
1582146799.595,-0.977,22.461,-339.355,-38.086,0
1582146799.599,-22.949,18.555,-462.891,-52.734,0
1582146799.603,-27.832,29.785,-410.645,-21.484,0
1582146799.607,-18.066,19.531,-470.703,4.395,0
1582146799.611,-7.324,2.930,-714.355,-23.926,0
1582146799.614,-7.324,12.695,-888.672,-72.754,0
1582146799.618,-78.613,39.551,-797.852,-90.820,0
1582146799.622,-93.750,41.016,-812.012,-69.824,0
1582146799.626,-61.035,24.902,-940.430,-75.684,0
1582146799.630,-55.664,18.066,-976.074,-97.168,0
1582146799.633,-95.703,39.551,-968.262,-113.770,0
1582146799.637,-132.324,44.434,-972.168,-117.188,0
1582146799.641,-159.668,40.527,-972.168,-144.531,0
1582146799.645,-171.387,42.480,-972.168,-196.777,0
1582146799.649,-195.312,22.949,-972.168,-215.332,0
1582146799.653,-208.496,8.301,-972.168,-195.312,0
1582146799.657,-201.660,4.883,-972.168,-200.195,0
1582146799.660,-201.660,18.555,-972.168,-224.121,0
1582146799.664,-188.965,29.297,-972.168,-222.656,0
1582146799.668,-200.684,25.391,-972.168,-177.734,0
1582146799.672,-209.473,18.066,-972.168,-181.641,0
1582146799.676,-211.426,21.484,-972.168,-229.004,0
1582146799.693,-196.777,27.344,-972.168,-211.426,0
1582146799.697,-171.387,17.090,-972.168,-159.668,0
1582146799.701,-165.527,23.438,-972.168,-127.441,0
1582146799.705,-147.461,25.879,-972.168,-149.902,0
1582146799.709,-145.020,14.648,-972.168,-157.715,0
1582146799.713,-142.578,8.789,-972.168,-122.559,0
1582146799.717,-121.582,17.090,-972.168,-86.426,0
1582146799.720,-95.215,32.715,-972.168,-66.895,0
1582146799.724,-75.684,22.949,-972.168,-91.309,0
1582146799.728,-73.242,6.348,-972.168,-91.309,0
1582146799.732,-81.543,15.137,-972.168,-53.223,0
1582146799.736,-62.012,24.902,-972.168,-18.555,0
1582146799.738,-15.625,4.395,-972.168,-4.883,0
1582146799.742,-2.930,-18.066,-972.168,-7.324,0
1582146799.746,-9.277,-15.137,-972.168,18.555,0
1582146799.750,16.113,9.766,-972.168,45.410,0
1582146799.754,48.828,8.789,-972.168,43.457,0
1582146799.758,56.641,-11.719,-972.168,34.668,0
1582146799.762,67.383,-9.766,-972.168,42.480,0
1582146799.765,88.379,-11.230,-972.168,69.336,0
1582146799.769,126.953,-22.461,-972.168,83.496,0
1582146799.773,139.160,-32.715,-972.168,41.992,0
1582146799.777,125.488,-7.324,-972.168,34.668,0
1582146799.781,144.531,9.766,-972.168,63.965,0
1582146799.782,162.598,-15.625,-972.168,87.402,0
1582146799.786,172.852,-20.996,-972.168,75.684,0
1582146799.790,172.852,-7.812,-972.168,68.848,0
1582146799.794,172.363,-6.836,-972.168,112.305,0
1582146799.798,176.270,-20.508,-972.168,112.793,0
1582146799.802,183.105,-25.391,-972.168,90.332,0
1582146799.806,174.316,-8.789,-972.168,97.656,0
1582146799.809,156.738,13.672,-972.168,113.770,0
1582146799.813,158.691,0.000,-972.168,137.695,0
1582146799.817,165.039,-9.277,-972.168,115.234,0
1582146799.821,151.855,13.672,-972.168,82.520,0
1582146799.825,138.184,19.531,-972.168,112.793,0
1582146799.827,130.859,18.555,-972.168,136.230,0
1582146799.831,138.184,22.461,-972.168,123.047,0
1582146799.835,133.301,21.973,-972.168,87.891,0
1582146799.839,123.535,17.090,-972.168,86.914,0
1582146799.843,133.789,23.438,-972.168,118.652,0
1582146799.847,129.883,25.879,-972.168,121.094,0
1582146799.851,108.887,35.645,-972.168,84.961,0
1582146799.854,112.305,36.133,-972.168,74.707,0
1582146799.858,125.488,11.230,-972.168,123.047,0
1582146799.862,125.488,41.016,-972.168,131.348,0
1582146799.866,145.508,54.199,-972.168,94.727,0
1582146799.870,129.883,40.527,-972.168,82.031,0
1582146799.872,91.309,47.852,-972.168,94.238,0
1582146799.876,91.309,42.480,-972.168,102.051,0
1582146799.880,92.773,39.551,-972.168,86.426,0
1582146799.884,79.590,45.898,-972.168,53.711,0
1582146799.888,80.078,51.758,-972.168,55.176,0
1582146799.892,89.355,39.062,-972.168,104.004,0
1582146799.896,74.707,41.504,-972.168,94.238,0
1582146799.899,76.660,44.434,-968.750,57.129,0
1582146799.903,68.848,50.293,-976.562,66.406,0
1582146799.907,34.668,79.102,-944.336,78.125,0
1582146799.911,46.875,79.102,-835.938,85.938,0
1582146799.915,68.359,65.430,-859.375,49.316,0
1582146799.918,24.902,41.992,-937.500,36.133,0
1582146799.922,0.000,42.480,-892.578,73.242,0
1582146799.926,25.391,50.293,-872.559,75.684,0
1582146799.930,24.902,55.176,-932.129,38.574,0
1582146799.934,28.320,60.547,-923.828,25.391,0
1582146799.938,39.551,47.852,-921.875,46.387,0
1582146799.942,33.691,40.039,-970.703,57.617,0
1582146799.945,23.438,49.316,-979.492,44.434,0
1582146799.949,22.461,69.336,-868.652,-0.488,0
1582146799.953,24.902,73.730,-726.562,11.230,0
1582146799.957,36.621,61.523,-753.906,56.641,0
1582146799.961,52.246,53.711,-782.227,43.457,0
1582146799.963,42.480,62.500,-693.359,-1.465,0
1582146799.967,41.992,60.547,-678.711,0.488,0
1582146799.971,45.898,43.457,-820.801,30.762,0
1582146799.975,40.039,43.457,-835.938,40.039,0
1582146799.979,43.945,46.875,-708.496,18.555,0
1582146799.983,48.340,50.781,-718.262,12.207,0
1582146799.987,39.551,39.062,-866.699,24.902,0
1582146799.990,24.902,31.738,-936.523,24.414,0
1582146799.994,20.020,68.848,-704.102,7.324,0
1582146799.998,38.086,80.566,-560.059,3.418,0
1582146800.002,41.504,62.988,-666.504,31.250,0
1582146800.006,32.715,58.594,-672.363,49.805,0
1582146800.008,38.086,46.875,-648.438,19.531,0
1582146800.012,27.344,33.691,-690.430,-6.836,0
1582146800.016,15.137,34.668,-697.266,10.254,0
1582146800.020,17.578,42.969,-682.129,28.809,0
1582146800.024,22.949,53.223,-626.465,14.648,0
1582146800.028,26.367,30.762,-759.766,-13.672,0
1582146800.032,17.090,18.555,-958.984,-15.625,0
1582146800.035,6.836,50.293,-837.402,-6.836,0
1582146800.039,23.926,66.406,-612.793,4.883,0
1582146800.043,38.086,45.898,-629.883,-11.719,0
1582146800.047,28.320,36.133,-729.980,-39.551,0
1582146800.051,24.414,56.641,-662.109,-20.020,0
1582146800.068,33.691,57.617,-592.285,8.301,0
1582146800.072,51.270,40.039,-649.414,3.906,0
1582146800.076,72.266,40.527,-642.578,-5.371,0
1582146800.080,38.086,44.434,-578.125,-2.930,0
1582146800.084,-2.441,43.945,-548.828,-13.184,0
1582146800.088,20.508,16.602,-743.164,-11.230,0
1582146800.092,24.902,24.414,-866.211,-23.438,0
1582146800.095,2.441,65.918,-613.770,-36.133,0
1582146800.099,7.812,49.316,-552.246,-18.066,0
1582146800.103,0.977,25.879,-681.641,-14.648,0
1582146800.107,-1.465,22.949,-713.379,-37.109,0
1582146800.111,19.531,32.227,-603.516,-31.738,0
1582146800.112,22.461,24.902,-579.590,-4.883,0
1582146800.116,1.465,18.555,-689.453,11.719,0
1582146800.120,-8.789,28.809,-659.668,-14.160,0
1582146800.124,-7.324,28.320,-582.031,-51.270,0
1582146800.128,-11.230,29.785,-586.914,-23.438,0
1582146800.132,-0.977,34.180,-625.000,-1.465,0
1582146800.136,-1.465,39.551,-620.117,-32.227,0
1582146800.139,-7.324,44.434,-513.184,-48.340,0
1582146800.143,9.766,19.043,-534.180,-9.277,0
1582146800.147,17.090,2.441,-749.512,23.438,0
1582146800.151,9.277,39.551,-648.926,-21.973,0
1582146800.155,5.859,47.363,-437.012,-56.152,0
1582146800.157,-5.371,33.691,-487.793,-33.691,0
1582146800.161,8.789,44.434,-448.242,-1.465,0
1582146800.165,19.043,46.875,-375.000,0.977,0
1582146800.169,-2.441,30.762,-413.086,-34.180,0
1582146800.173,-7.324,16.602,-554.688,-34.180,0
1582146800.177,-17.090,20.996,-679.688,4.395,0
1582146800.181,-15.137,36.133,-580.078,26.367,0
1582146800.184,5.371,33.203,-451.172,-2.930,0
1582146800.188,17.578,3.906,-622.559,-28.809,0
1582146800.192,15.137,17.090,-707.031,-18.066,0
1582146800.196,-5.371,39.062,-461.914,3.418,0
1582146800.200,-3.418,27.344,-392.578,6.348,0
1582146800.202,-5.859,33.203,-428.223,-16.113,0
1582146800.206,1.465,37.109,-412.109,0.977,0
1582146800.210,8.301,50.781,-322.266,38.574,0
1582146800.214,0.977,43.945,-304.688,38.086,0
1582146800.218,0.000,23.438,-415.039,0.488,0
1582146800.222,-4.395,21.973,-523.438,-16.602,0
1582146800.226,-21.973,25.879,-554.688,5.371,0
1582146800.229,2.441,29.297,-508.789,16.602,0
1582146800.233,26.367,21.973,-551.758,4.883,0
1582146800.237,-15.137,25.391,-453.125,8.301,0
1582146800.241,-16.602,41.992,-229.980,26.855,0
1582146800.245,-17.578,29.297,-303.711,1.953,0
1582146800.247,-7.812,28.809,-345.703,-15.625,0
1582146800.251,0.000,41.992,-253.906,-18.066,0
1582146800.255,-24.414,28.320,-245.605,-2.441,0
1582146800.259,-13.184,10.742,-351.562,31.250,0
