timestamps,TP9,AF7,AF8,TP10,Marker0
1581447052.269,-972.168,-507.812,-454.590,30.762,0
1581447052.273,-972.168,-390.625,-356.934,23.438,0
1581447052.277,-972.656,-423.340,-384.277,16.113,0
1581447052.281,-972.168,-564.453,-515.137,0.488,0
1581447052.285,-972.656,-509.766,-475.586,-1.465,0
1581447052.289,-972.168,-507.324,-482.422,-4.395,0
1581447052.293,-972.168,-607.910,-575.195,-6.348,0
1581447052.296,-972.168,-780.762,-732.910,-7.324,0
1581447052.300,-972.168,-822.266,-779.297,-14.160,0
1581447052.304,-972.168,-517.090,-518.066,-11.230,0
1581447052.308,-972.168,-529.297,-520.508,12.695,0
1581447052.312,-972.168,-629.395,-611.328,25.879,0
1581447052.314,-972.656,-524.414,-531.250,11.719,0
1581447052.318,-972.656,-365.234,-396.484,4.883,0
1581447052.322,-972.656,-399.902,-421.387,3.418,0
1581447052.326,-972.168,-541.992,-537.598,6.348,0
1581447052.330,-972.168,-494.141,-494.629,20.996,0
1581447052.334,-972.656,-452.637,-452.637,19.043,0
1581447052.338,-972.656,-548.340,-520.996,16.602,0
1581447052.341,-972.168,-782.715,-705.566,15.625,0
1581447052.345,-972.168,-696.289,-639.160,15.625,0
1581447052.349,-972.168,-377.441,-375.488,27.344,0
1581447052.353,-972.168,-417.480,-400.879,25.391,0
1581447052.357,-972.656,-497.559,-463.867,28.809,0
1581447052.359,-972.168,-526.367,-488.770,32.715,0
1581447052.363,-972.168,-480.957,-450.684,23.438,0
1581447052.367,-972.656,-478.027,-455.566,3.906,0
1581447052.371,-972.656,-527.832,-494.629,1.953,0
1581447052.375,-972.168,-474.121,-444.824,3.906,0
1581447052.379,-972.168,-540.527,-502.441,-3.418,0
1581447052.383,-972.168,-736.328,-664.551,9.277,0
1581447052.386,-972.168,-835.938,-757.324,23.438,0
1581447052.390,-972.168,-583.984,-553.223,30.762,0
1581447052.394,-972.656,-424.805,-409.180,51.758,0
1581447052.398,-974.121,-445.801,-424.805,50.781,0
1581447052.402,-966.797,-449.219,-438.477,15.625,0
1581447052.404,-966.309,-419.922,-423.340,5.859,0
1581447052.408,-937.012,-434.570,-439.453,-5.371,0
1581447052.412,-621.582,-452.148,-454.590,-2.930,0
1581447052.416,114.258,-492.676,-491.699,-1.953,0
1581447052.420,829.590,-478.516,-466.309,23.926,0
1581447052.424,-991.211,-535.645,-504.395,45.898,0
1581447052.428,981.445,-735.840,-686.035,18.066,0
1581447052.431,-999.512,-568.359,-559.082,2.930,0
1581447052.435,-1000.000,-317.383,-341.309,15.625,0
1581447052.439,999.512,-455.566,-445.801,50.293,0
1581447052.443,999.512,-513.184,-490.723,47.852,0
1581447052.447,999.512,-367.188,-371.094,40.039,0
1581447052.464,999.512,-328.613,-329.590,40.527,0
1581447052.468,999.512,-492.188,-462.402,55.664,0
1581447052.472,999.512,-538.086,-505.371,70.801,0
1581447052.476,999.512,-349.609,-343.262,54.688,0
1581447052.480,999.512,-306.152,-307.129,50.781,0
1581447052.484,999.512,-604.004,-555.664,54.688,0
1581447052.488,999.512,-839.844,-773.438,44.434,0
1581447052.491,999.512,-525.879,-520.996,51.758,0
1581447052.495,999.512,-290.527,-307.617,67.871,0
1581447052.499,999.512,-482.422,-473.145,69.336,0
1581447052.503,999.512,-493.652,-479.980,74.219,0
1581447052.507,999.512,-336.914,-349.609,82.520,0
1581447052.509,999.512,-334.473,-359.863,90.332,0
1581447052.513,999.512,-411.133,-424.316,89.844,0
1581447052.517,999.512,-451.172,-468.262,84.961,0
1581447052.521,999.512,-378.906,-410.156,87.402,0
1581447052.525,999.512,-387.207,-418.457,83.008,0
1581447052.529,999.512,-502.930,-520.020,74.219,0
1581447052.533,999.512,-603.516,-598.633,76.660,0
1581447052.536,999.512,-523.438,-532.227,76.660,0
1581447052.540,999.512,-414.062,-438.477,62.012,0
1581447052.544,999.512,-655.273,-646.484,48.340,0
1581447052.548,999.512,-605.957,-610.840,49.805,0
1581447052.552,999.512,-382.324,-416.504,52.734,0
1581447052.554,999.512,-474.609,-492.188,43.945,0
1581447052.558,999.512,-476.562,-495.117,42.969,0
1581447052.562,999.512,-372.559,-406.250,47.363,0
1581447052.566,999.512,-359.863,-392.578,47.852,0
1581447052.570,999.512,-449.219,-467.773,41.016,0
1581447052.574,999.512,-558.105,-572.266,40.039,0
1581447052.578,999.512,-573.730,-590.332,41.992,0
1581447052.581,999.512,-497.070,-522.461,30.762,0
1581447052.585,999.512,-609.863,-614.746,20.508,0
1581447052.589,999.512,-706.543,-704.102,5.371,0
1581447052.593,999.512,-407.227,-458.984,3.906,0
1581447052.597,999.512,-382.812,-425.781,4.883,0
1581447052.599,999.512,-535.156,-548.828,2.441,0
1581447052.603,999.512,-487.305,-513.672,13.672,0
1581447052.607,999.512,-332.520,-375.488,31.250,0
1581447052.611,999.512,-371.582,-401.367,38.086,0
1581447052.615,999.512,-482.422,-498.047,30.762,0
1581447052.619,999.512,-544.434,-553.711,30.273,0
1581447052.623,999.512,-497.070,-519.531,44.922,0
1581447052.626,999.512,-457.031,-490.723,64.453,0
1581447052.630,999.512,-699.707,-696.777,62.500,0
1581447052.634,999.512,-602.051,-629.883,41.016,0
1581447052.638,999.512,-282.715,-359.863,38.574,0
1581447052.642,999.512,-361.816,-402.832,45.898,0
1581447052.644,999.512,-450.684,-466.309,34.180,0
1581447052.648,999.512,-339.355,-374.023,35.156,0
1581447052.652,999.512,-302.734,-345.215,27.344,0
1581447052.656,999.512,-464.844,-486.328,17.578,0
1581447052.660,999.512,-541.992,-547.363,27.832,0
1581447052.664,999.512,-547.363,-548.340,5.371,0
1581447052.668,999.512,-536.621,-559.570,-17.090,0
1581447052.671,999.512,-600.586,-620.117,-21.484,0
1581447052.675,999.512,-660.645,-658.691,-21.973,0
1581447052.679,999.512,-396.973,-444.336,-24.414,0
1581447052.683,999.512,-295.410,-365.234,-28.809,0
1581447052.687,999.512,-362.793,-430.664,-32.227,0
1581447052.689,999.512,-433.105,-491.699,-51.270,0
1581447052.693,999.512,-406.738,-453.613,-53.711,0
1581447052.697,999.512,-377.930,-406.738,-45.898,0
1581447052.701,999.512,-396.973,-416.016,-57.129,0
1581447052.705,-998.535,-401.367,-417.480,-58.594,0
1581447052.709,973.145,-519.531,-508.301,-55.664,0
1581447052.713,-976.074,-600.586,-581.055,-57.129,0
1581447052.716,761.230,-758.789,-728.516,-49.805,0
1581447052.720,-180.664,-660.156,-661.133,-39.551,0
1581447052.724,-887.695,-429.199,-461.914,-13.672,0
1581447052.728,-969.238,-624.512,-616.699,3.906,0
1581447052.732,-956.543,-599.609,-604.980,8.301,0
1581447052.734,-975.098,-374.512,-423.340,36.621,0
1581447052.738,-972.656,-354.004,-412.109,46.875,0
1581447052.742,-972.168,-513.672,-564.453,48.340,0
1581447052.746,-972.168,-542.969,-609.863,57.617,0
1581447052.750,-972.168,-427.734,-536.621,66.406,0
1581447052.754,-972.168,-516.602,-638.184,80.078,0
1581447052.758,-972.656,-779.297,-854.004,86.914,0
1581447052.761,-972.168,-826.172,-883.789,93.750,0
1581447052.765,-972.168,-507.812,-639.160,91.309,0
1581447052.769,-972.656,-492.188,-607.910,94.727,0
1581447052.773,-972.168,-596.680,-667.969,109.863,0
1581447052.777,-972.168,-535.645,-604.004,105.469,0
1581447052.779,-972.168,-427.246,-500.977,100.098,0
1581447052.783,-972.168,-411.133,-471.680,85.938,0
1581447052.787,-972.168,-548.340,-570.312,88.867,0
1581447052.791,-972.656,-580.566,-590.820,107.422,0
1581447052.795,-972.168,-467.773,-490.234,100.098,0
1581447052.799,-972.168,-558.594,-565.430,102.051,0
1581447052.803,-972.168,-846.191,-816.895,105.957,0
1581447052.806,-972.168,-746.094,-736.816,106.445,0
1581447052.810,-972.168,-386.719,-432.617,114.258,0
1581447052.814,-972.168,-436.035,-484.863,110.352,0
1581447052.818,-972.168,-562.500,-602.539,124.512,0
1581447052.822,-972.168,-534.668,-585.938,131.836,0
1581447052.839,-972.168,-547.363,-600.586,126.953,0
1581447052.843,-972.168,-588.867,-641.113,129.883,0
1581447052.847,-972.168,-563.477,-618.652,132.812,0
1581447052.851,-972.656,-487.793,-550.781,147.949,0
1581447052.855,-972.656,-477.051,-541.016,146.973,0
1581447052.859,-972.656,-631.348,-667.969,131.348,0
1581447052.863,-972.168,-695.801,-721.680,128.906,0
1581447052.866,-972.168,-530.762,-574.219,127.930,0
1581447052.870,-972.168,-461.426,-500.488,135.742,0
1581447052.874,-972.168,-680.176,-665.527,126.465,0
1581447052.878,-972.656,-775.879,-747.559,119.141,0
1581447052.882,-972.168,-499.512,-515.625,142.090,0
1581447052.884,-972.168,-453.125,-458.496,146.484,0
1581447052.888,-972.168,-569.336,-561.523,143.555,0
1581447052.892,-972.168,-564.453,-570.312,133.789,0
1581447052.896,-972.656,-628.418,-625.977,135.742,0
1581447052.900,-972.656,-615.723,-603.516,146.973,0
1581447052.904,-972.168,-654.785,-635.254,144.043,0
1581447052.908,-972.656,-616.211,-607.422,150.879,0
1581447052.911,-972.656,-436.523,-460.449,154.785,0
1581447052.915,-972.656,-556.152,-569.336,163.086,0
1581447052.919,-972.656,-810.059,-776.855,170.410,0
1581447052.923,-972.168,-665.039,-669.434,170.898,0
1581447052.927,-972.168,-376.465,-444.336,173.828,0
1581447052.929,-972.168,-485.352,-533.203,163.574,0
1581447052.933,-972.656,-630.859,-669.922,167.480,0
1581447052.937,-972.656,-464.355,-539.062,172.363,0
1581447052.941,-972.168,-329.102,-420.410,161.621,0
1581447052.945,-972.168,-504.395,-563.965,172.852,0
1581447052.949,-972.168,-680.176,-726.074,157.715,0
1581447052.953,-972.168,-660.156,-730.469,138.672,0
1581447052.956,-972.656,-468.262,-585.449,140.137,0
1581447052.960,-972.168,-532.227,-632.812,128.418,0
1581447052.964,-972.168,-725.586,-794.922,133.789,0
1581447052.968,-972.656,-444.824,-577.148,133.301,0
1581447052.972,-972.168,-339.355,-500.488,117.188,0
1581447052.974,-972.168,-427.246,-572.754,104.980,0
1581447052.978,-972.168,-456.055,-583.984,104.492,0
1581447052.982,-972.656,-444.824,-562.012,114.258,0
1581447052.986,-972.168,-427.734,-527.832,121.582,0
1581447052.990,-972.168,-425.781,-500.977,129.395,0
1581447052.994,-972.656,-497.559,-545.898,128.418,0
1581447052.998,-972.168,-643.555,-677.734,119.629,0
1581447053.001,-972.656,-632.324,-671.387,128.906,0
1581447053.005,-972.168,-760.254,-771.484,131.348,0
1581447053.009,-972.168,-762.695,-781.738,118.652,0
1581447053.013,-972.168,-489.746,-565.430,124.512,0
1581447053.017,-972.168,-509.766,-587.891,131.348,0
1581447053.019,-972.656,-529.785,-618.652,124.512,0
1581447053.023,-972.656,-411.133,-534.180,116.699,0
1581447053.027,-972.168,-414.551,-540.039,112.305,0
1581447053.031,-972.168,-529.297,-634.277,113.281,0
1581447053.035,-972.168,-563.965,-666.504,112.793,0
1581447053.039,-972.168,-599.609,-687.500,113.281,0
1581447053.043,-972.168,-592.773,-671.387,113.770,0
1581447053.046,-972.168,-689.941,-739.258,105.957,0
1581447053.050,-972.168,-801.270,-822.266,98.633,0
1581447053.054,-972.168,-458.984,-530.273,101.074,0
1581447053.058,-972.168,-367.188,-436.523,103.516,0
1581447053.062,-972.168,-651.855,-668.457,97.168,0
1581447053.065,-972.168,-761.719,-761.230,96.191,0
1581447053.069,-972.656,-465.820,-505.371,99.121,0
1581447053.073,-972.656,-434.082,-471.191,95.703,0
1581447053.077,-972.656,-652.832,-663.086,89.355,0
1581447053.081,-972.168,-609.863,-635.742,79.590,0
1581447053.085,-972.656,-573.730,-609.375,84.961,0
1581447053.089,-972.656,-690.918,-706.055,98.145,0
1581447053.092,-972.168,-866.211,-866.699,86.426,0
1581447053.096,-972.656,-780.273,-820.312,64.941,0
1581447053.100,-972.656,-450.684,-539.551,58.594,0
1581447053.104,-972.656,-513.672,-596.680,61.523,0
1581447053.108,-972.656,-624.023,-698.730,62.500,0
1581447053.110,-972.656,-505.859,-606.445,59.570,0
1581447053.114,-972.168,-426.758,-547.363,64.941,0
1581447053.118,-972.168,-571.777,-671.387,68.359,0
1581447053.122,-972.168,-689.453,-770.020,85.449,0
1581447053.126,-972.656,-582.031,-672.363,96.191,0
1581447053.130,-972.656,-602.539,-690.430,82.520,0
1581447053.134,-972.168,-779.785,-834.473,70.801,0
1581447053.137,-972.168,-847.656,-883.301,64.453,0
1581447053.141,-972.656,-569.336,-660.156,71.777,0
1581447053.145,-972.168,-445.312,-547.852,70.801,0
1581447053.149,-972.168,-542.969,-634.277,57.129,0
1581447053.153,-972.168,-516.113,-617.676,56.641,0
1581447053.158,-972.168,-460.449,-562.012,60.059,0
1581447053.162,-972.656,-465.332,-559.082,62.012,0
1581447053.166,-972.168,-485.840,-576.172,53.711,0
1581447053.170,-972.656,-494.141,-601.562,41.016,0
1581447053.174,-972.168,-487.793,-597.168,51.758,0
1581447053.178,-972.168,-623.535,-700.195,57.617,0
1581447053.182,-972.168,-867.676,-898.438,62.988,0
1581447053.185,-972.168,-759.766,-803.711,84.961,0
1581447053.189,-972.168,-423.340,-511.719,96.680,0
1581447053.193,-972.168,-486.816,-553.711,90.332,0
1581447053.197,-972.168,-622.559,-676.270,81.055,0
1581447053.201,-972.168,-528.320,-616.211,69.336,0
1581447053.215,-972.168,-430.664,-532.227,73.730,0
1581447053.219,-972.168,-578.125,-647.949,72.754,0
1581447053.223,-974.121,-618.652,-680.176,63.965,0
1581447053.227,-964.844,-415.527,-514.160,62.500,0
1581447053.231,-967.285,-360.352,-470.215,80.566,0
1581447053.235,-953.125,-713.379,-757.812,92.285,0
1581447053.239,-548.340,-824.219,-843.262,90.820,0
1581447053.242,-75.195,-449.707,-527.832,83.496,0
1581447053.246,-160.156,-448.730,-526.855,84.473,0
1581447053.250,-414.062,-633.789,-674.805,96.191,0
1581447053.254,-583.008,-553.223,-596.191,91.309,0
1581447053.258,-841.797,-415.527,-483.887,76.660,0
1581447053.260,-981.445,-451.172,-528.809,61.035,0
1581447053.264,-965.820,-495.605,-556.641,49.316,0
1581447053.268,-971.191,-522.461,-575.195,46.875,0
1581447053.272,-974.609,-505.371,-572.266,50.293,0
1581447053.276,-960.938,-498.047,-576.660,49.316,0
1581447053.280,-982.910,-648.926,-701.660,51.758,0
1581447053.284,-855.469,-694.824,-734.375,59.082,0
1581447053.287,-481.445,-467.773,-542.480,68.359,0
1581447053.291,160.645,-402.832,-481.934,73.242,0
1581447053.295,850.098,-729.492,-766.602,83.496,0
1581447053.299,-990.234,-669.434,-725.098,81.543,0
1581447053.303,981.445,-467.773,-541.016,78.125,0
1581447053.305,-999.023,-605.469,-648.438,84.473,0
1581447053.309,-1000.000,-582.031,-636.230,85.938,0
1581447053.313,999.512,-509.766,-576.172,97.168,0
1581447053.317,999.512,-441.895,-501.465,99.121,0
1581447053.321,999.512,-528.320,-569.336,84.961,0
1581447053.325,991.211,-624.512,-655.762,79.102,0
1581447053.329,-980.469,-637.207,-666.016,72.266,0
1581447053.332,898.438,-595.215,-633.301,64.453,0
1581447053.336,777.832,-710.449,-729.980,35.156,0
1581447053.340,811.035,-817.383,-830.566,3.418,0
1581447053.344,850.586,-487.305,-558.594,7.812,0
1581447053.348,671.387,-463.867,-537.598,8.789,0
1581447053.350,216.797,-546.387,-601.074,4.395,0
1581447053.354,350.586,-528.320,-590.332,-7.812,0
1581447053.358,570.801,-541.992,-607.910,-15.625,0
1581447053.362,681.641,-550.293,-602.051,-12.695,0
1581447053.366,988.770,-580.078,-626.465,-26.367,0
1581447053.370,-996.582,-647.461,-700.195,-40.039,0
1581447053.374,990.723,-626.953,-689.453,-41.992,0
1581447053.377,-999.023,-540.527,-607.910,-31.250,0
1581447053.381,999.512,-796.875,-821.777,-15.625,0
1581447053.385,999.512,-748.047,-788.574,-17.090,0
1581447053.389,999.512,-375.000,-461.426,-5.859,0
1581447053.393,999.512,-493.164,-549.805,1.465,0
1581447053.395,999.512,-667.480,-714.355,0.000,0
1581447053.399,999.512,-543.945,-622.559,13.672,0
1581447053.403,999.512,-360.352,-451.172,14.160,0
1581447053.407,999.512,-437.988,-507.812,13.672,0
1581447053.411,999.512,-590.332,-646.973,10.742,0
1581447053.415,999.512,-617.188,-670.410,10.254,0
1581447053.419,999.512,-583.008,-632.324,19.043,0
1581447053.422,999.512,-692.871,-717.285,16.113,0
1581447053.426,999.512,-811.035,-813.477,22.949,0
1581447053.430,999.512,-536.133,-573.242,33.203,0
1581447053.434,999.512,-370.605,-415.039,37.598,0
1581447053.438,999.512,-456.055,-488.281,44.434,0
1581447053.440,999.512,-520.508,-548.340,51.270,0
1581447053.444,999.512,-498.535,-533.691,53.711,0
1581447053.448,999.512,-486.328,-526.855,33.203,0
1581447053.452,999.512,-500.000,-541.016,20.508,0
1581447053.456,999.512,-523.926,-571.777,22.949,0
1581447053.460,999.512,-621.094,-643.555,35.156,0
1581447053.464,999.512,-708.008,-713.379,52.246,0
1581447053.467,999.512,-845.703,-824.219,49.805,0
1581447053.471,999.512,-818.848,-787.109,67.383,0
1581447053.475,999.512,-519.043,-526.367,105.469,0
1581447053.479,999.512,-519.531,-511.230,100.098,0
1581447053.483,999.512,-539.551,-523.438,102.051,0
1581447053.485,999.512,-442.383,-445.312,103.516,0
1581447053.489,999.512,-413.574,-409.668,98.633,0
1581447053.493,999.512,-539.062,-505.371,115.723,0
1581447053.497,999.512,-587.891,-556.641,109.375,0
1581447053.501,999.512,-416.016,-408.691,103.516,0
1581447053.505,999.512,-514.160,-478.516,100.586,0
1581447053.509,999.512,-809.082,-741.699,99.609,0
1581447053.512,999.512,-859.375,-796.387,117.188,0
1581447053.516,999.512,-518.066,-474.609,117.188,0
1581447053.520,999.512,-420.410,-368.652,117.188,0
1581447053.524,999.512,-615.234,-521.484,108.887,0
1581447053.528,999.512,-726.074,-609.375,98.633,0
1581447053.530,999.512,-554.199,-453.125,111.816,0
1581447053.534,999.512,-456.055,-358.887,109.863,0
1581447053.538,999.512,-607.422,-492.188,100.098,0
1581447053.542,999.512,-638.672,-527.832,85.449,0
1581447053.546,999.512,-498.047,-400.879,69.824,0
1581447053.550,999.512,-573.242,-463.379,75.684,0
1581447053.554,999.512,-873.047,-754.395,83.008,0
1581447053.557,999.512,-790.527,-682.129,96.680,0
1581447053.561,999.512,-438.965,-360.352,96.680,0
1581447053.565,999.512,-479.980,-416.016,94.238,0
1581447053.569,999.512,-597.168,-541.016,99.121,0
1581447053.573,999.512,-527.832,-506.836,84.473,0
1581447053.590,999.512,-410.645,-429.199,74.219,0
1581447053.594,999.512,-482.910,-504.395,55.176,0
1581447053.598,999.512,-622.559,-633.789,53.711,0
1581447053.602,999.512,-572.266,-596.680,69.336,0
1581447053.606,999.512,-467.285,-490.234,78.125,0
1581447053.610,999.512,-636.230,-600.098,97.656,0
1581447053.614,999.512,-807.129,-729.004,108.887,0
1581447053.617,999.512,-585.449,-523.438,119.141,0
1581447053.621,999.512,-522.949,-441.406,109.375,0
1581447053.625,999.512,-617.188,-512.695,82.031,0
1581447053.629,999.512,-610.840,-504.395,82.520,0
1581447053.633,999.512,-549.316,-441.895,82.520,0
1581447053.635,999.512,-523.926,-402.832,88.867,0
1581447053.639,999.512,-572.266,-442.871,87.891,0
1581447053.643,999.512,-590.820,-477.051,70.312,0
1581447053.647,999.512,-533.203,-424.316,71.777,0
1581447053.651,999.512,-584.473,-465.820,75.684,0
1581447053.655,999.512,-704.102,-575.684,76.660,0
1581447053.659,999.512,-714.355,-593.750,74.219,0
1581447053.662,999.512,-642.090,-540.527,59.082,0
1581447053.666,999.512,-605.957,-511.230,53.711,0
1581447053.670,-999.512,-820.801,-688.477,58.105,0
1581447053.674,997.559,-749.512,-626.465,64.941,0
1581447053.678,972.656,-448.242,-362.305,71.777,0
1581447053.680,-964.355,-566.895,-445.801,72.754,0
1581447053.684,606.445,-648.926,-503.906,65.918,0
1581447053.688,-264.648,-567.871,-433.594,44.922,0
1581447053.692,-673.828,-549.316,-415.039,45.898,0
1581447053.696,-889.160,-642.090,-462.402,61.523,0
1581447053.700,-979.492,-867.676,-632.324,69.336,0
1581447053.704,-965.820,-892.090,-657.227,70.801,0
1581447053.707,-973.145,-730.957,-511.230,63.477,0
1581447053.711,-972.656,-837.402,-616.699,67.383,0
1581447053.715,-972.656,-892.090,-705.566,69.336,0
1581447053.719,-972.168,-650.879,-476.562,74.707,0
1581447053.723,-972.168,-551.270,-386.230,82.520,0
1581447053.725,-972.656,-611.816,-450.195,79.590,0
1581447053.729,-972.656,-624.512,-458.496,86.914,0
1581447053.733,-972.168,-538.574,-386.719,103.027,0
1581447053.737,-972.168,-514.160,-374.512,97.656,0
1581447053.741,-972.168,-614.746,-474.121,80.566,0
1581447053.745,-972.168,-749.512,-601.562,77.637,0
1581447053.749,-972.168,-732.910,-592.285,86.426,0
1581447053.752,-972.168,-663.574,-558.594,84.473,0
1581447053.756,-972.168,-782.715,-676.270,73.242,0
1581447053.760,-972.168,-674.805,-588.867,62.012,0
1581447053.764,-972.168,-570.312,-511.230,51.758,0
1581447053.768,-972.656,-736.328,-651.367,57.129,0
1581447053.770,-972.168,-624.023,-562.012,56.152,0
1581447053.774,-972.168,-511.719,-476.562,57.617,0
1581447053.778,-972.168,-495.117,-459.961,71.777,0
1581447053.782,-972.168,-635.254,-577.148,70.801,0
1581447053.786,-972.168,-686.523,-635.742,57.129,0
1581447053.790,-972.656,-670.410,-631.348,54.688,0
1581447053.794,-972.168,-750.000,-696.289,66.406,0
1581447053.797,-972.168,-816.895,-746.582,75.684,0
1581447053.801,-972.168,-861.816,-783.691,83.984,0
1581447053.805,-973.633,-560.059,-521.484,102.539,0
1581447053.809,-967.285,-487.305,-442.871,114.258,0
1581447053.813,-970.215,-644.531,-559.082,122.559,0
1581447053.814,-959.473,-592.773,-505.859,125.000,0
1581447053.818,-730.469,-519.531,-440.430,126.953,0
1581447053.822,-392.578,-506.836,-414.551,131.348,0
1581447053.826,-131.836,-623.535,-521.484,100.098,0
1581447053.830,94.727,-676.270,-587.402,75.195,0
1581447053.834,50.293,-583.496,-500.000,73.242,0
1581447053.838,-144.043,-631.836,-537.598,62.500,0
1581447053.841,-263.672,-869.629,-790.527,62.500,0
1581447053.845,-296.875,-805.664,-763.672,67.383,0
1581447053.849,-72.754,-479.980,-486.816,64.453,0
1581447053.853,-47.852,-465.820,-473.633,73.730,0
1581447053.857,-249.023,-577.637,-564.453,67.871,0
1581447053.859,-283.691,-544.922,-549.316,55.176,0
1581447053.863,-458.496,-438.477,-458.984,52.734,0
1581447053.867,-814.453,-562.500,-573.242,34.668,0
1581447053.871,-982.910,-645.020,-645.508,30.273,0
1581447053.875,-963.867,-657.227,-655.273,25.879,0
1581447053.879,-971.191,-783.691,-764.648,24.414,0
1581447053.883,-965.820,-828.125,-791.016,34.668,0
1581447053.886,-990.234,-861.816,-814.941,36.133,0
1581447053.890,-884.277,-663.086,-636.719,43.945,0
1581447053.894,-792.969,-509.766,-494.629,42.480,0
1581447053.898,-831.055,-544.434,-521.484,41.016,0
1581447053.902,-886.230,-562.500,-546.875,39.062,0
1581447053.904,-977.539,-561.523,-557.617,42.969,0
1581447053.908,-971.191,-582.520,-574.707,43.457,0
1581447053.912,-970.703,-611.328,-605.469,15.137,0
1581447053.916,-972.656,-601.074,-611.328,6.348,0
1581447053.920,-972.168,-524.902,-538.086,20.996,0
1581447053.924,-972.168,-638.184,-608.887,29.297,0
1581447053.928,-972.168,-872.070,-842.285,19.043,0
1581447053.931,-972.168,-829.590,-828.613,26.367,0
1581447053.935,-972.168,-583.984,-581.543,54.199,0
1581447053.939,-972.168,-587.402,-574.219,56.641,0
1581447053.943,-972.168,-609.863,-593.262,52.734,0
1581447053.947,-972.168,-458.008,-472.656,41.992,0
1581447053.964,-972.168,-418.945,-438.965,27.344,0
1581447053.968,-972.168,-571.777,-550.293,30.762,0
1581447053.972,-972.168,-666.504,-625.488,32.227,0
1581447053.976,-972.168,-536.133,-521.973,32.227,0
1581447053.980,-972.168,-454.102,-444.824,26.367,0
1581447053.984,-972.168,-746.582,-697.266,24.902,0
1581447053.988,-972.168,-872.559,-815.430,34.180,0
1581447053.991,-972.168,-552.734,-532.715,28.320,0
1581447053.995,-972.168,-402.832,-397.949,21.484,0
1581447053.999,-972.168,-573.242,-530.273,23.926,0
1581447054.003,-972.656,-800.781,-722.656,36.133,0
1581447054.007,-972.656,-679.688,-627.441,47.363,0
1581447054.009,-972.656,-472.656,-456.543,42.480,0
1581447054.013,-972.168,-505.859,-481.445,47.363,0
1581447054.017,-972.656,-616.699,-582.031,41.992,0
1581447054.021,-972.656,-572.754,-555.176,33.691,1
1581447054.025,-972.168,-495.117,-485.352,36.133,0
1581447054.029,-972.656,-643.555,-604.004,37.598,0
1581447054.033,-972.656,-732.422,-682.617,36.621,0
1581447054.036,-972.656,-575.195,-561.035,15.137,0
1581447054.040,-972.656,-543.945,-545.898,4.883,0
1581447054.044,-972.656,-783.691,-745.117,20.996,0
1581447054.048,-969.727,-744.629,-714.355,16.602,0
1581447054.052,-973.145,-517.578,-534.180,15.137,0
1581447054.054,-962.891,-568.359,-572.266,13.184,0
1581447054.058,-858.887,-646.484,-630.859,16.113,0
1581447054.062,-786.133,-587.891,-583.496,32.227,0
1581447054.066,-772.461,-554.688,-555.176,39.062,0
1581447054.070,-787.109,-630.371,-606.445,59.082,0
1581447054.074,-890.137,-709.473,-666.992,69.336,0
1581447054.078,-969.238,-703.613,-665.039,60.059,0
1581447054.081,-972.168,-547.363,-534.180,68.848,0
1581447054.085,-970.215,-665.527,-635.254,55.176,0
1581447054.089,-973.145,-832.520,-785.645,35.645,0
1581447054.093,-972.656,-519.043,-524.902,35.156,0
1581447054.097,-972.168,-489.258,-490.723,36.621,0
1581447054.099,-972.168,-581.055,-556.641,43.457,0
1581447054.103,-972.656,-563.965,-544.434,42.969,0
1581447054.107,-972.168,-520.508,-507.812,56.152,0
1581447054.111,-972.168,-509.766,-479.004,56.152,0
1581447054.115,-972.656,-641.602,-585.938,44.922,0
1581447054.119,-972.168,-695.312,-640.625,37.598,0
1581447054.123,-972.168,-697.754,-657.227,28.320,0
1581447054.126,-972.656,-714.844,-679.199,40.039,0
1581447054.130,-971.191,-861.816,-801.270,39.551,0
1581447054.134,-974.121,-795.410,-741.211,38.086,0
1581447054.138,-967.285,-489.258,-480.469,65.430,0
1581447054.142,-932.617,-560.059,-525.879,85.449,0
1581447054.144,-914.551,-685.059,-624.023,92.773,0
1581447054.148,-805.176,-562.500,-521.973,83.984,0
1581447054.152,-625.977,-473.145,-448.730,72.754,0
1581447054.156,-559.570,-550.781,-515.137,76.172,0
1581447054.160,-584.961,-605.469,-558.594,62.988,0
1581447054.164,-673.340,-627.441,-586.426,46.875,0
1581447054.168,-725.586,-618.164,-593.262,22.949,0
1581447054.171,-777.832,-761.230,-737.305,3.906,0
1581447054.175,-813.477,-858.398,-848.633,19.043,0
1581447054.179,-740.723,-583.984,-615.723,35.156,0
1581447054.183,-728.516,-448.242,-494.141,22.461,0
1581447054.187,-598.633,-485.352,-532.227,3.418,0
1581447054.189,-514.648,-502.930,-549.805,13.184,0
1581447054.193,-743.652,-482.422,-534.668,32.227,0
1581447054.197,-291.992,-491.211,-550.781,19.531,0
1581447054.201,616.699,-518.066,-579.590,14.160,0
1581447054.205,855.957,-513.184,-570.312,17.578,0
1581447054.209,905.273,-570.801,-623.535,12.207,0
1581447054.213,-993.652,-658.691,-706.055,9.277,0
1581447054.216,997.559,-830.078,-859.863,-8.301,0
1581447054.220,998.535,-716.797,-772.461,-13.672,0
1581447054.224,999.512,-418.945,-505.859,-2.441,0
1581447054.228,999.512,-602.051,-652.832,0.000,0
1581447054.232,999.512,-633.789,-694.824,-1.953,0
1581447054.235,999.512,-402.344,-496.582,2.930,0
1581447054.239,999.512,-374.512,-457.031,15.137,0
1581447054.243,999.512,-549.805,-600.098,18.066,0
1581447054.247,999.512,-560.547,-613.770,30.273,0
1581447054.251,999.512,-424.316,-498.535,30.273,0
1581447054.255,999.512,-548.828,-601.562,32.227,0
1581447054.259,999.512,-816.895,-831.055,48.828,0
1581447054.262,999.512,-818.848,-826.660,38.574,0
1581447054.266,999.512,-485.840,-551.758,32.715,0
1581447054.270,999.512,-425.293,-505.371,41.504,0
1581447054.274,999.512,-544.434,-592.773,59.570,0
1581447054.278,999.512,-535.645,-585.938,68.359,0
1581447054.280,999.512,-446.289,-515.625,58.594,0
1581447054.284,999.512,-518.066,-573.242,68.359,0
1581447054.288,999.512,-593.750,-631.836,73.730,0
1581447054.292,999.512,-537.109,-578.125,64.453,0
1581447054.296,999.512,-446.289,-500.977,62.500,0
1581447054.300,999.512,-561.523,-604.980,53.711,0
1581447054.304,999.512,-882.324,-893.066,47.363,0
1581447054.307,999.512,-810.547,-833.984,63.477,0
1581447054.311,999.512,-499.512,-552.734,61.035,0
1581447054.315,999.512,-488.281,-526.367,44.922,0
1581447054.319,999.512,-590.332,-609.863,38.574,0
1581447054.323,-999.512,-561.035,-593.262,43.945,0
1581447054.340,992.676,-413.086,-460.449,43.457,0
1581447054.344,992.188,-437.012,-482.910,35.645,0
1581447054.348,970.215,-518.066,-567.383,49.805,0
1581447054.352,507.324,-571.289,-609.375,59.082,0
1581447054.356,45.898,-631.348,-655.762,56.152,0
1581447054.360,-328.613,-743.652,-743.164,47.363,0
1581447054.364,-923.340,-850.098,-834.961,38.574,0
1581447054.367,-988.281,-619.629,-642.578,38.574,0
1581447054.371,-952.148,-532.715,-565.430,45.898,0
1581447054.375,-977.539,-626.953,-646.484,43.945,0
1581447054.379,-972.168,-623.535,-645.508,32.227,0
1581447054.383,-972.168,-504.883,-539.551,43.945,0
1581447054.385,-972.168,-520.508,-539.062,36.133,0
1581447054.389,-972.168,-631.348,-636.719,8.789,0
1581447054.393,-972.656,-583.984,-605.469,10.254,0
1581447054.397,-972.168,-526.855,-561.523,10.742,0
1581447054.401,-972.168,-612.793,-640.137,0.977,0
1581447054.405,-972.168,-715.332,-718.262,7.812,0
1581447054.409,-972.168,-799.805,-796.387,9.766,0
1581447054.412,-972.168,-716.797,-751.953,10.742,0
1581447054.416,-972.656,-546.387,-616.699,22.949,0
1581447054.420,-972.656,-791.016,-827.148,25.391,0
1581447054.424,-972.168,-805.176,-869.629,11.230,0
1581447054.428,-972.168,-449.219,-592.773,0.977,0
1581447054.430,-972.168,-539.062,-664.062,7.324,0
1581447054.434,-972.168,-642.090,-743.164,3.906,0
1581447054.438,-972.168,-481.445,-602.051,-6.836,0
1581447054.442,-972.168,-413.086,-531.738,-11.230,0
1581447054.446,-973.145,-621.582,-699.707,-16.113,0
1581447054.450,-970.703,-772.949,-805.176,-6.836,0
1581447054.454,-957.031,-746.094,-766.602,-8.789,0
1581447054.457,-976.562,-581.543,-623.535,-7.324,0
1581447054.461,-726.074,-600.586,-602.539,11.719,0
1581447054.465,41.992,-946.289,-875.977,23.926,0
1581447054.469,800.293,-737.305,-697.754,32.227,0
1581447054.473,-991.699,-428.223,-430.664,34.668,0
1581447054.475,980.957,-483.887,-473.145,36.621,0
1581447054.479,999.512,-574.707,-549.316,43.457,0
1581447054.483,-1000.000,-561.523,-541.992,45.410,0
1581447054.487,999.512,-482.422,-463.379,52.246,0
1581447054.491,999.512,-508.789,-475.098,41.504,0
1581447054.495,999.512,-638.184,-589.355,37.109,0
1581447054.499,999.512,-701.660,-649.414,41.504,0
1581447054.502,999.512,-624.023,-584.961,36.133,0
1581447054.506,999.512,-708.008,-652.344,34.180,0
1581447054.510,999.512,-689.941,-642.090,20.020,0
1581447054.514,-999.512,-482.422,-460.449,18.066,0
1581447054.518,993.652,-558.105,-504.395,17.578,0
1581447054.520,-999.023,-659.180,-585.938,5.859,0
1581447054.524,974.609,-567.871,-510.254,8.301,0
1581447054.528,729.980,-484.375,-423.340,18.555,0
1581447054.532,504.395,-596.191,-510.254,21.973,0
1581447054.536,353.516,-625.000,-533.691,18.066,0
1581447054.540,8.789,-654.297,-563.477,-1.465,0
1581447054.544,-471.680,-761.230,-642.090,1.465,0
1581447054.547,-862.305,-883.789,-774.414,9.277,0
1581447054.551,-973.633,-882.812,-832.031,0.488,0
1581447054.555,-964.355,-572.266,-519.531,9.766,0
1581447054.559,-972.168,-476.562,-414.062,14.648,0
1581447054.563,-972.656,-592.773,-518.066,21.973,0
1581447054.565,-972.168,-563.477,-496.582,30.762,0
1581447054.569,-972.168,-473.633,-434.082,27.832,0
1581447054.573,-972.656,-481.934,-439.941,27.344,0
1581447054.577,-972.656,-675.293,-604.004,28.320,0
1581447054.581,-972.168,-676.270,-612.793,27.832,0
1581447054.585,-972.168,-609.863,-567.383,20.508,0
1581447054.589,-972.168,-724.609,-664.551,21.484,0
1581447054.592,-972.168,-916.016,-875.488,28.320,0
1581447054.596,-972.168,-785.645,-794.434,22.461,0
1581447054.600,-972.168,-444.336,-466.309,22.461,0
1581447054.604,-972.168,-513.184,-528.320,11.719,0
1581447054.608,-972.168,-624.023,-626.953,5.371,0
1581447054.610,-972.168,-517.578,-545.410,3.418,0
1581447054.614,-972.168,-391.602,-442.383,8.301,0
1581447054.618,-972.168,-512.207,-551.758,7.812,0
1581447054.622,-972.168,-562.988,-586.426,2.441,0
1581447054.626,-972.168,-563.965,-580.566,13.672,0
1581447054.630,-972.168,-670.898,-668.457,16.113,0
1581447054.634,-972.168,-812.988,-777.344,0.977,0
1581447054.637,-972.168,-857.422,-817.871,0.488,0
1581447054.641,-972.168,-653.320,-632.812,9.277,0
1581447054.645,-972.168,-501.953,-480.957,21.973,0
1581447054.649,-972.168,-546.387,-508.301,16.113,0
1581447054.653,-972.168,-609.375,-572.754,2.930,0
1581447054.655,-972.656,-525.391,-493.652,6.836,0
1581447054.659,-972.656,-492.188,-449.707,-2.930,0
1581447054.663,-972.168,-544.922,-498.047,-2.441,0
1581447054.667,-972.168,-533.203,-504.395,-9.766,0
1581447054.671,-972.656,-457.520,-448.242,-14.648,0
1581447054.675,-972.168,-617.676,-592.773,1.465,0
1581447054.679,-972.168,-899.414,-852.539,-10.254,0
1581447054.682,-972.168,-741.211,-717.773,-6.836,0
1581447054.686,-972.656,-431.641,-443.359,8.301,0
1581447054.690,-972.656,-658.203,-621.582,5.371,0
1581447054.694,-972.168,-695.312,-634.277,9.277,0
1581447054.698,-972.656,-490.234,-456.055,-4.395,0
1581447054.715,-972.168,-487.793,-447.754,2.441,0
1581447054.719,-972.168,-648.926,-564.453,5.371,0
1581447054.723,-972.168,-755.859,-649.902,-8.301,0
1581447054.727,-972.168,-593.262,-516.113,-5.371,0
1581447054.731,-972.656,-530.762,-436.523,-1.465,0
1581447054.735,-972.656,-807.617,-696.289,9.766,0
1581447054.739,-972.168,-916.504,-812.500,0.488,0
1581447054.742,-972.168,-639.648,-517.578,-10.254,0
1581447054.746,-972.168,-474.609,-369.629,-3.418,0
1581447054.750,-972.168,-694.824,-552.246,-6.836,0
1581447054.754,-974.121,-796.875,-640.137,-3.906,0
1581447054.758,-960.938,-560.059,-451.660,-12.695,0
1581447054.760,-982.910,-595.703,-489.746,-21.973,0
1581447054.764,-904.785,-663.574,-555.176,-13.184,0
1581447054.768,-529.297,-621.094,-522.949,-14.160,0
1581447054.772,-436.035,-526.855,-448.730,-16.113,0
1581447054.776,-855.957,-476.074,-416.016,-23.926,0
1581447054.780,-1000.000,-656.738,-576.172,-18.555,0
1581447054.784,-954.102,-817.871,-714.844,-2.930,0
1581447054.787,-974.609,-685.547,-610.840,-6.836,0
1581447054.791,-972.656,-550.293,-491.211,0.488,0
1581447054.795,-972.168,-793.457,-696.289,-6.836,0
1581447054.799,-972.168,-784.180,-685.059,-1.465,0
1581447054.803,-972.168,-518.066,-449.707,6.836,0
1581447054.805,-972.168,-637.695,-557.617,-12.207,0
1581447054.809,-972.168,-650.879,-564.941,-4.395,0
1581447054.813,-972.168,-522.949,-442.383,7.812,0
1581447054.817,-972.168,-652.344,-545.898,16.602,0
1581447054.821,-972.168,-754.395,-629.395,23.926,0
1581447054.825,-972.168,-773.438,-645.508,23.438,0
1581447054.829,-972.168,-764.160,-640.137,17.578,0
1581447054.832,-972.168,-611.328,-503.906,-1.465,0
1581447054.836,-972.168,-705.078,-581.543,-7.812,0
1581447054.840,-972.168,-885.742,-749.512,-3.418,0
1581447054.844,-972.168,-607.910,-496.582,8.301,0
1581447054.848,-972.168,-512.207,-412.598,12.207,0
1581447054.850,-972.656,-623.047,-517.578,-4.395,0
1581447054.854,-973.633,-548.340,-451.660,-17.578,0
1581447054.858,-968.750,-420.410,-335.938,-10.254,0
1581447054.862,-958.984,-475.098,-375.977,-12.207,0
1581447054.866,-979.980,-626.953,-505.859,-15.625,0
1581447054.870,-670.410,-632.324,-509.766,-17.578,0
1581447054.874,-17.090,-533.691,-427.734,-26.855,0
1581447054.877,493.164,-577.148,-472.168,-23.438,0
1581447054.881,763.184,-807.129,-667.969,-17.578,0
1581447054.885,976.562,-719.727,-605.957,-12.695,0
1581447054.889,865.234,-395.508,-336.426,-19.531,0
1581447054.893,524.902,-471.680,-379.395,-13.672,0
1581447054.895,663.574,-580.078,-459.473,9.766,0
1581447054.899,867.676,-478.516,-376.465,-6.836,0
1581447054.903,849.121,-416.504,-326.660,-23.438,0
1581447054.907,789.551,-458.008,-344.727,-19.531,0
1581447054.911,691.406,-554.199,-419.434,-18.066,0
1581447054.915,796.387,-660.645,-521.484,-9.766,0
1581447054.919,940.430,-605.957,-483.398,-6.836,0
1581447054.922,897.461,-607.910,-479.980,-1.953,0
1581447054.926,790.527,-848.145,-682.129,-10.254,0
1581447054.930,735.352,-744.629,-609.375,-3.418,0
1581447054.934,775.391,-503.906,-408.691,15.625,0
1581447054.938,772.949,-475.098,-374.512,3.418,0
1581447054.939,720.703,-488.281,-375.977,1.465,0
1581447054.943,664.062,-492.676,-380.859,2.441,0
1581447054.947,632.812,-531.250,-413.086,-0.488,0
1581447054.951,824.707,-563.477,-444.336,1.953,0
1581447054.955,-990.723,-555.664,-439.941,0.488,0
1581447054.959,995.117,-669.434,-535.645,0.488,0
1581447054.963,996.094,-748.535,-611.328,-7.324,0
1581447054.966,-999.512,-804.688,-651.855,-6.348,0
1581447054.970,999.512,-658.203,-519.043,6.836,0
1581447054.974,999.512,-408.203,-299.316,7.812,0
1581447054.978,999.512,-520.996,-395.020,7.324,0
1581447054.982,999.512,-574.707,-446.777,13.184,0
1581447054.984,999.512,-521.973,-397.461,12.695,0
1581447054.988,999.512,-480.957,-358.887,7.812,0
1581447054.992,999.512,-591.797,-454.102,12.207,0
1581447054.996,999.512,-572.266,-435.059,9.277,0
1581447055.000,999.512,-409.180,-298.828,5.371,0
1581447055.004,999.512,-535.156,-404.297,14.160,0
1581447055.008,999.512,-785.156,-623.047,14.648,0
1581447055.011,999.512,-870.605,-725.586,14.160,0
1581447055.015,999.512,-578.125,-478.516,19.531,0
1581447055.019,999.512,-386.230,-298.340,14.648,0
1581447055.023,999.512,-540.039,-423.340,21.484,0
1581447055.027,999.512,-572.266,-458.496,33.691,0
1581447055.029,999.512,-395.996,-314.941,35.645,0
1581447055.033,999.512,-375.488,-299.805,18.555,0
1581447055.037,999.512,-544.922,-442.383,3.418,0
1581447055.041,999.512,-612.793,-505.371,11.719,0
1581447055.045,999.512,-528.320,-434.082,14.160,0
1581447055.049,999.512,-567.871,-467.285,13.672,0
1581447055.053,999.512,-808.594,-672.852,-0.488,0
1581447055.056,999.512,-740.723,-619.141,-20.020,0
1581447055.060,-1000.000,-380.859,-308.105,-18.555,0
1581447055.064,999.023,-373.047,-288.574,-24.414,0
1581447055.068,975.586,-516.602,-417.969,-30.762,0
1581447055.072,-967.285,-519.043,-425.781,-20.020,0
1581447055.074,683.105,-418.945,-329.590,-17.578,0
1581447055.078,-71.289,-481.934,-375.000,-27.832,0
1581447055.082,-494.629,-585.449,-468.750,-32.227,0
1581447055.086,-812.988,-505.859,-401.855,-16.602,0
1581447055.090,-937.500,-518.555,-410.156,0.488,0
1581447055.094,-700.195,-725.586,-581.543,-0.488,0
1581447055.098,-592.285,-904.785,-732.910,-5.859,0
1581447055.101,-633.789,-669.922,-526.855,-4.395,0
1581447055.105,-657.715,-481.445,-352.539,-4.395,0
1581447055.109,-821.777,-636.230,-486.816,-11.230,0
1581447055.113,-728.027,-659.180,-516.602,-9.766,0
1581447055.117,-346.680,-494.629,-371.582,3.906,0
1581447055.134,-75.684,-482.910,-354.980,16.113,0
1581447055.138,188.477,-547.363,-411.621,16.602,0
1581447055.142,660.156,-521.484,-401.855,2.441,1
1581447055.146,985.840,-428.711,-325.684,2.441,0
1581447055.150,-995.117,-492.188,-374.512,12.207,0
1581447055.154,922.852,-662.598,-517.090,3.906,0
1581447055.158,774.414,-667.969,-525.391,-1.465,0
1581447055.161,551.758,-481.445,-359.375,16.602,0
1581447055.165,-142.090,-546.387,-395.996,28.809,0
1581447055.169,-831.055,-837.402,-638.184,20.020,0
1581447055.173,-975.098,-707.520,-542.480,10.742,0
1581447055.177,-957.031,-460.938,-345.215,6.348,0
1581447055.179,-973.145,-573.730,-432.617,1.465,0
1581447055.183,-973.145,-687.500,-527.832,-2.930,0
1581447055.187,-972.168,-612.793,-479.004,-0.977,0
1581447055.191,-972.168,-537.109,-416.992,-4.883,0
1581447055.195,-973.145,-624.023,-480.957,-16.113,0
1581447055.199,-968.262,-812.012,-642.090,-17.578,0
1581447055.203,-981.445,-767.090,-620.117,-22.461,0
1581447055.206,-943.848,-505.859,-421.875,-24.414,0
1581447055.210,-883.789,-607.910,-521.484,-24.902,0
1581447055.214,-916.016,-848.633,-742.676,-28.809,0
1581447055.218,-615.723,-515.137,-482.422,-34.180,0
1581447055.222,-232.910,-468.262,-451.172,-52.734,0
1581447055.225,-302.246,-650.879,-614.258,-54.199,0
1581447055.229,-282.715,-571.777,-532.715,-46.387,0
1581447055.233,-207.031,-476.562,-418.945,-51.270,0
1581447055.237,-177.246,-462.891,-385.254,-58.594,0
1581447055.241,-529.785,-571.777,-462.402,-64.941,0
1581447055.245,-840.820,-702.148,-552.246,-59.082,0
1581447055.249,26.367,-697.754,-521.484,-61.035,0
1581447055.252,875.488,-626.953,-456.055,-62.500,0
1581447055.256,996.094,-757.812,-571.289,-68.359,0
1581447055.260,982.422,-730.957,-547.852,-77.637,0
1581447055.264,-999.023,-583.008,-422.363,-55.664,0
1581447055.268,999.512,-578.125,-405.762,-48.828,0
1581447055.269,999.512,-513.184,-354.004,-52.246,0
1581447055.273,999.512,-413.086,-276.367,-39.062,0
1581447055.277,999.512,-529.297,-375.000,-24.902,0
1581447055.281,999.512,-627.441,-464.844,-5.859,0
1581447055.285,999.512,-521.973,-383.301,-18.066,0
1581447055.289,999.512,-518.555,-380.371,-20.020,0
1581447055.293,999.512,-562.012,-418.945,-7.324,0
1581447055.296,999.512,-667.969,-520.020,-30.762,0
1581447055.300,999.512,-713.867,-563.965,-34.668,0
1581447055.304,999.512,-440.430,-332.031,-23.926,0
1581447055.308,999.512,-384.277,-270.508,-10.742,0
1581447055.312,999.512,-486.328,-335.938,-1.953,0
1581447055.314,-999.512,-494.141,-343.262,-11.719,0
1581447055.318,993.652,-429.688,-303.711,-7.812,0
1581447055.322,998.535,-424.805,-290.527,-6.348,0
1581447055.326,983.398,-560.059,-403.809,-4.883,0
1581447055.330,722.656,-567.871,-409.180,6.348,0
1581447055.334,400.879,-570.312,-392.578,12.695,0
1581447055.338,59.082,-654.297,-456.055,19.531,0
1581447055.341,-366.211,-846.680,-624.512,19.043,0
1581447055.345,-768.555,-810.059,-586.914,20.508,0
1581447055.349,-979.004,-489.746,-320.312,5.371,0
1581447055.353,-964.355,-481.934,-324.219,-15.625,0
1581447055.357,-969.727,-600.586,-425.781,-1.953,0
1581447055.360,-973.633,-551.758,-398.926,-1.465,0
1581447055.364,-972.656,-429.688,-297.852,-5.371,0
1581447055.368,-972.168,-489.746,-340.332,-11.230,0
1581447055.372,-972.168,-588.379,-430.664,-11.719,0
1581447055.376,-972.168,-530.273,-390.625,-0.977,0
1581447055.380,-972.168,-556.641,-415.039,8.789,0
1581447055.384,-972.168,-706.543,-548.828,10.742,0
1581447055.387,-972.168,-784.668,-624.512,-7.324,0
1581447055.391,-972.168,-636.719,-515.625,-11.230,0
1581447055.395,-972.168,-503.418,-414.062,4.883,0
1581447055.399,-972.168,-490.234,-411.133,2.930,0
1581447055.403,-972.168,-486.328,-416.016,-9.277,0
1581447055.405,-972.168,-427.246,-373.047,-14.160,0
1581447055.409,-972.168,-422.363,-368.652,-2.441,0
1581447055.413,-972.168,-455.078,-398.926,6.836,0
1581447055.417,-972.168,-444.336,-405.273,-3.906,0
1581447055.421,-972.168,-441.406,-407.227,-7.324,0
1581447055.425,-972.656,-548.828,-482.422,-5.371,0
1581447055.429,-972.168,-820.312,-699.219,-3.418,0
1581447055.432,-972.168,-737.305,-624.023,6.348,0
1581447055.436,-972.168,-432.129,-344.238,10.742,0
1581447055.440,-972.656,-496.094,-371.094,16.602,0
1581447055.444,-972.168,-572.754,-422.363,13.672,0
1581447055.448,-972.168,-564.453,-418.945,4.883,0
1581447055.450,-972.656,-476.074,-342.285,21.484,0
1581447055.454,-972.168,-591.309,-437.988,30.762,0
1581447055.458,-972.168,-685.059,-531.738,33.203,0
1581447055.462,-973.145,-503.418,-395.996,28.809,0
1581447055.466,-971.191,-462.891,-373.535,20.508,0
1581447055.470,-951.172,-704.590,-579.102,21.484,0
1581447055.474,-1000.000,-800.293,-664.062,22.461,0
1581447055.477,-694.336,-476.562,-400.391,21.973,0
1581447055.481,-77.148,-360.352,-297.852,22.949,0
1581447055.485,-155.762,-547.363,-444.824,26.855,0
1581447055.489,-763.184,-616.699,-502.441,30.762,0
1581447055.493,-998.047,-463.379,-369.629,24.414,0
1581447055.510,-953.125,-440.430,-351.074,11.719,0
1581447055.514,-972.168,-564.453,-450.195,4.395,0
1581447055.518,-973.145,-714.844,-572.754,-1.953,0
1581447055.522,-972.656,-619.141,-494.141,1.953,0
1581447055.526,-972.656,-501.953,-389.160,3.906,0
1581447055.530,-972.168,-676.758,-528.320,14.648,0
1581447055.534,-972.168,-800.293,-638.184,13.672,0
1581447055.537,-972.168,-629.883,-503.418,9.766,0
1581447055.541,-972.168,-512.207,-399.414,15.625,0
1581447055.545,-972.168,-715.332,-572.266,0.488,0
1581447055.549,-972.168,-690.918,-559.082,0.488,0
1581447055.553,-972.656,-476.074,-377.441,4.395,0
1581447055.555,-972.168,-569.336,-462.891,-9.277,0
1581447055.559,-972.168,-655.762,-549.805,-9.766,0
1581447055.563,-972.656,-519.531,-435.059,4.395,0
1581447055.567,-972.168,-464.355,-382.324,10.254,0
1581447055.571,-972.656,-570.801,-481.934,2.930,0
1581447055.575,-972.168,-717.285,-620.117,2.930,0
1581447055.579,-972.168,-781.250,-683.594,-1.465,0
1581447055.582,-972.168,-612.793,-548.828,-1.465,0
1581447055.586,-972.168,-683.105,-607.910,-2.441,0
1581447055.590,-972.168,-834.961,-744.629,-17.090,0
1581447055.594,-972.168,-525.879,-488.281,-0.488,0
1581447055.598,-972.168,-459.473,-426.758,4.395,0
1581447055.600,-972.168,-534.668,-482.910,-1.953,0
1581447055.604,-972.168,-482.422,-431.152,0.977,0
1581447055.608,-972.656,-453.613,-416.016,-7.812,0
1581447055.612,-972.656,-479.004,-434.082,1.953,0
1581447055.616,-972.168,-583.008,-515.625,7.324,0
1581447055.620,-972.656,-669.434,-599.609,2.930,0
1581447055.624,-972.168,-656.250,-599.121,2.930,0
1581447055.627,-972.168,-630.371,-575.195,14.648,0
1581447055.631,-972.168,-827.148,-738.770,31.738,0
1581447055.635,-972.168,-710.938,-626.465,41.992,0
1581447055.639,-972.168,-332.031,-301.270,41.992,0
1581447055.643,-972.656,-476.074,-430.176,33.203,0
1581447055.645,-972.168,-612.305,-546.875,27.832,0
1581447055.649,-972.168,-499.023,-458.496,24.902,0
1581447055.653,-972.656,-407.227,-383.789,27.832,0
1581447055.657,-975.098,-491.211,-450.195,32.715,0
1581447055.661,-955.566,-590.820,-536.621,29.785,0
1581447055.665,-993.164,-698.242,-636.719,16.113,0
1581447055.669,-883.301,-623.535,-579.102,20.020,0
1581447055.672,-439.941,-599.609,-555.664,19.531,0
1581447055.676,-341.309,-800.781,-729.492,14.648,0
1581447055.680,-517.578,-547.363,-518.066,27.832,0
1581447055.684,-762.207,-490.234,-463.379,20.996,0
1581447055.688,-974.609,-613.281,-576.172,16.113,0
1581447055.690,-971.191,-530.762,-509.766,20.020,0
1581447055.694,-948.242,-454.590,-440.918,25.391,0
1581447055.698,-994.141,-429.688,-414.551,28.320,0
1581447055.702,-815.430,-465.332,-447.266,13.672,0
1581447055.706,-175.781,-514.160,-495.605,8.301,0
1581447055.710,356.445,-580.078,-536.621,22.461,0
1581447055.714,791.016,-634.277,-577.637,14.160,0
1581447055.717,-987.305,-756.836,-690.918,-4.395,0
1581447055.721,987.793,-684.570,-640.625,-9.277,0
1581447055.725,998.047,-455.566,-447.266,7.324,0
1581447055.729,-1000.000,-481.934,-450.195,21.973,0
1581447055.733,999.512,-550.781,-509.766,8.301,0
1581447055.735,999.512,-442.383,-432.617,-9.277,0
1581447055.739,999.512,-445.801,-425.781,-4.883,0
1581447055.743,999.512,-647.949,-590.332,10.254,0
1581447055.747,999.512,-562.012,-518.066,14.160,0
1581447055.751,999.512,-395.020,-374.023,14.160,0
1581447055.755,999.512,-506.836,-474.121,6.836,0
1581447055.759,999.512,-741.211,-677.246,-3.906,0
1581447055.762,999.512,-805.176,-735.352,4.395,0
1581447055.766,999.512,-489.746,-470.215,7.324,0
1581447055.770,999.512,-335.449,-324.219,-10.254,0
1581447055.774,999.512,-498.047,-459.473,-17.090,0
1581447055.778,999.512,-527.344,-488.281,-21.484,0
1581447055.780,999.512,-368.652,-345.215,-25.879,0
1581447055.784,999.512,-334.961,-307.129,-19.043,0
1581447055.788,999.512,-489.746,-438.477,-15.137,0
1581447055.792,999.512,-541.992,-495.605,-19.531,0
1581447055.796,999.512,-525.391,-488.770,-28.809,0
1581447055.800,999.512,-645.996,-587.891,-15.137,0
1581447055.804,999.512,-858.398,-794.922,-2.930,0
1581447055.807,999.512,-842.285,-780.273,-6.348,0
1581447055.811,999.512,-514.160,-478.027,-4.883,0
1581447055.815,999.512,-479.004,-453.613,-3.418,0
1581447055.819,999.512,-540.527,-502.930,11.230,0
1581447055.823,999.512,-500.977,-473.145,20.508,0
1581447055.840,999.512,-426.758,-409.668,14.648,0
1581447055.844,999.512,-453.613,-428.223,-3.906,0
1581447055.848,999.512,-563.477,-528.809,-4.395,0
1581447055.852,999.512,-451.660,-418.945,15.625,0
1581447055.856,999.512,-387.207,-347.656,24.414,0
1581447055.860,999.512,-628.906,-548.828,18.555,0
1581447055.864,999.512,-695.801,-609.375,13.184,0
1581447055.867,999.512,-538.574,-473.145,20.020,0
1581447055.871,999.512,-541.504,-466.797,34.668,0
1581447055.875,999.512,-632.324,-547.363,32.715,0
1581447055.879,999.512,-629.883,-554.199,18.066,0
1581447055.883,999.512,-472.168,-425.293,17.578,0
1581447055.885,999.512,-529.785,-477.539,25.879,0
1581447055.889,999.512,-575.195,-520.020,25.879,0
1581447055.893,999.512,-496.094,-459.473,18.555,0
1581447055.897,999.512,-436.523,-404.785,25.391,0
1581447055.901,999.512,-581.055,-524.414,32.715,0
1581447055.905,999.512,-687.988,-627.441,27.344,0
1581447055.909,999.512,-673.340,-627.930,29.297,0
1581447055.912,999.512,-547.852,-524.414,27.344,0
1581447055.916,999.512,-534.180,-514.160,31.250,0
1581447055.920,999.512,-809.082,-737.305,26.367,0
1581447055.924,999.512,-792.969,-718.262,24.414,0
1581447055.928,999.512,-471.680,-460.938,28.320,0
1581447055.930,999.512,-548.828,-526.855,21.973,0
1581447055.934,999.512,-663.574,-624.512,14.160,0
1581447055.938,999.512,-500.977,-485.840,1.953,0
1581447055.942,999.512,-408.203,-399.902,-7.812,0
1581447055.946,999.512,-542.480,-497.559,1.465,0
1581447055.950,999.512,-721.680,-633.301,16.113,0
1581447055.954,999.512,-676.270,-591.309,11.230,0
1581447055.957,999.512,-449.219,-390.137,-3.906,0
1581447055.961,999.512,-621.582,-534.668,1.465,0
1581447055.965,999.512,-876.465,-754.395,13.184,0
1581447055.969,999.512,-558.105,-474.609,7.812,0
1581447055.973,999.512,-410.645,-355.469,4.883,0
1581447055.975,999.512,-506.348,-442.871,0.488,0
1581447055.979,999.512,-613.281,-535.156,4.395,0
1581447055.983,999.512,-607.910,-530.273,11.230,0
1581447055.987,999.512,-499.512,-443.848,6.836,0
1581447055.991,999.512,-526.855,-473.145,8.301,0
1581447055.995,999.512,-636.230,-570.312,14.160,0
1581447055.999,999.512,-682.617,-631.348,10.254,0
1581447056.002,-1000.000,-583.496,-576.660,10.254,0
1581447056.006,998.535,-693.359,-694.824,11.719,0
1581447056.010,986.328,-678.711,-703.613,16.113,0
1581447056.014,-992.676,-405.273,-472.168,13.184,0
1581447056.018,792.969,-460.938,-510.742,15.625,0
1581447056.020,250.000,-493.652,-531.250,28.320,0
1581447056.024,-458.496,-425.781,-471.191,23.926,0
1581447056.028,-518.066,-430.664,-457.520,23.438,0
1581447056.032,196.777,-587.891,-572.754,6.836,0
1581447056.036,772.949,-697.266,-661.621,0.488,0
1581447056.040,969.727,-622.559,-586.914,20.996,0
1581447056.044,-991.211,-574.219,-527.344,42.480,0
1581447056.047,816.895,-758.789,-683.105,47.852,0
1581447056.051,314.453,-861.816,-784.668,39.062,0
1581447056.055,-224.609,-527.344,-483.887,35.156,0
1581447056.059,-797.852,-409.180,-367.188,41.016,0
1581447056.063,-987.793,-575.684,-513.184,50.293,0
1581447056.065,-956.055,-544.434,-486.816,50.781,0
1581447056.069,-973.145,-439.453,-407.227,35.156,0
1581447056.073,-972.656,-496.094,-461.914,39.551,0
1581447056.077,-972.168,-614.746,-554.688,56.641,0
1581447056.081,-972.168,-591.797,-530.762,57.129,0
1581447056.085,-972.656,-533.691,-479.004,51.758,0
1581447056.089,-972.168,-635.254,-548.340,36.621,0
1581447056.092,-972.168,-884.277,-824.707,29.297,0
1581447056.096,-972.168,-831.543,-808.594,40.527,0
1581447056.100,-972.168,-557.617,-516.602,46.875,0
1581447056.104,-972.656,-617.188,-545.898,51.758,0
1581447056.108,-972.168,-704.102,-597.168,56.152,0
1581447056.110,-972.168,-614.746,-513.184,60.059,0
1581447056.114,-972.168,-502.441,-409.668,68.359,0
1581447056.118,-972.168,-585.938,-472.656,73.242,0
1581447056.122,-972.168,-669.922,-532.227,83.496,0
1581447056.126,-972.656,-600.586,-471.191,79.102,0
1581447056.130,-972.168,-616.699,-480.957,80.566,0
1581447056.134,-972.168,-775.879,-616.211,86.914,0
1581447056.137,-972.168,-900.879,-729.004,78.125,0
1581447056.141,-972.168,-714.355,-581.055,83.984,0
1581447056.145,-972.168,-571.289,-463.379,90.332,0
1581447056.149,-972.168,-628.906,-516.602,82.520,0
1581447056.153,-972.168,-567.383,-470.703,89.355,0
1581447056.154,-972.168,-488.770,-397.949,95.215,0
1581447056.158,-972.656,-517.090,-425.781,84.961,0
1581447056.162,-972.656,-543.457,-456.543,70.801,0
1581447056.166,-972.168,-548.828,-478.516,69.824,0
1581447056.170,-972.168,-522.461,-464.355,75.195,0
1581447056.174,-972.168,-614.746,-543.457,74.219,0
1581447056.178,-972.168,-860.840,-765.137,76.660,0
1581447056.181,-972.168,-791.504,-727.539,59.570,0
1581447056.185,-972.656,-497.070,-497.559,52.734,0
1581447056.189,-972.168,-505.371,-503.418,63.965,0
1581447056.193,-972.168,-557.129,-549.805,58.105,0
1581447056.197,-972.656,-453.125,-478.027,59.570,0
1581447056.214,-972.168,-393.555,-432.129,65.430,0
1581447056.218,-972.168,-614.746,-617.676,70.801,0
1581447056.222,-972.168,-644.531,-646.484,74.219,0
1581447056.226,-972.168,-457.520,-500.977,63.965,0
1581447056.230,-972.168,-436.035,-482.422,67.871,0
1581447056.234,-972.168,-719.727,-713.867,54.688,0
1581447056.238,-972.168,-892.578,-859.863,47.363,0
1581447056.241,-972.168,-616.211,-609.375,62.988,0
1581447056.245,-972.168,-449.219,-450.684,69.824,0
1581447056.249,-972.168,-546.875,-517.578,76.660,0
1581447056.253,-972.168,-604.492,-564.941,74.219,0
1581447056.257,-972.168,-500.488,-484.863,71.777,0
1581447056.259,-972.168,-467.285,-460.449,70.312,0
1581447056.263,-972.168,-539.062,-510.742,80.078,0
1581447056.267,-972.168,-572.754,-537.109,87.402,0
1581447056.271,-972.168,-582.520,-564.941,70.801,0
1581447056.275,-972.656,-600.098,-595.703,61.523,0
1581447056.279,-972.168,-621.582,-620.605,66.895,0
1581447056.283,-972.168,-682.129,-671.387,73.242,0
1581447056.286,-972.168,-566.406,-579.102,72.754,0
1581447056.290,-972.656,-393.555,-425.293,72.754,0
1581447056.294,-972.168,-676.270,-646.484,70.801,0
1581447056.298,-972.168,-766.113,-718.750,68.848,0
1581447056.302,-972.168,-498.535,-481.445,66.895,0
1581447056.304,-972.168,-507.324,-465.820,69.336,0
1581447056.308,-972.168,-566.406,-504.395,62.988,0
1581447056.312,-972.168,-565.918,-509.277,63.965,0
1581447056.316,-972.168,-553.223,-483.398,75.684,0
1581447056.320,-972.168,-674.805,-569.336,66.406,0
1581447056.324,-972.168,-727.539,-613.770,58.594,0
1581447056.328,-972.168,-724.609,-607.910,66.406,0
1581447056.331,-972.168,-685.059,-572.266,82.520,0
1581447056.335,-972.168,-770.020,-660.156,75.684,1
1581447056.339,-972.168,-846.191,-742.188,54.199,0
1581447056.343,-972.168,-540.039,-478.027,57.129,0
1581447056.347,-972.656,-538.086,-483.398,46.387,0
1581447056.349,-972.168,-645.508,-587.402,36.133,0
1581447056.353,-972.168,-525.391,-490.723,38.574,0
1581447056.357,-972.168,-433.594,-421.387,40.039,0
1581447056.361,-972.656,-485.840,-468.262,50.293,0
1581447056.365,-972.168,-585.449,-552.246,54.199,0
1581447056.369,-972.168,-654.297,-614.746,52.246,0
1581447056.373,-972.168,-652.832,-623.047,45.898,0
1581447056.376,-972.168,-591.309,-566.895,43.457,0
1581447056.380,-972.168,-753.906,-690.430,47.852,0
1581447056.384,-973.145,-823.730,-750.000,45.410,0
1581447056.388,-960.938,-568.848,-543.945,51.758,0
1581447056.392,-991.699,-530.762,-512.207,68.359,0
1581447056.394,-865.723,-630.371,-591.309,78.125,0
1581447056.398,-583.008,-516.602,-489.746,79.590,0
1581447056.402,-544.922,-377.930,-362.793,76.660,0
1581447056.406,-674.805,-493.652,-457.031,75.195,0
1581447056.410,-800.781,-632.812,-573.730,74.707,0
1581447056.414,-912.598,-678.223,-607.422,72.266,0
1581447056.418,-973.633,-636.719,-569.336,78.125,0
1581447056.421,-970.215,-667.480,-594.238,77.637,0
1581447056.425,-971.680,-850.586,-747.070,79.102,0
1581447056.429,-972.656,-667.480,-602.539,97.656,0
1581447056.433,-972.168,-454.590,-418.945,107.422,0
1581447056.437,-972.656,-485.352,-440.918,97.656,0
1581447056.439,-972.656,-616.699,-559.570,88.867,0
1581447056.443,-973.145,-616.211,-560.547,83.008,0
1581447056.447,-965.332,-499.512,-470.703,69.824,0
1581447056.451,-992.188,-486.816,-469.238,64.941,0
1581447056.455,-896.973,-495.605,-478.516,60.059,0
1581447056.459,-844.727,-565.918,-533.203,62.012,0
1581447056.463,-975.098,-668.457,-627.930,78.125,0
1581447056.466,-954.102,-839.844,-786.133,76.172,0
1581447056.470,-608.398,-709.961,-666.992,62.988,0
1581447056.474,-202.637,-434.570,-433.594,56.641,0
1581447056.478,104.980,-491.699,-476.074,50.781,0
1581447056.482,378.906,-534.180,-515.137,43.945,0
1581447056.484,375.488,-450.195,-454.102,34.668,0
1581447056.488,292.969,-405.273,-405.273,35.645,0
1581447056.492,166.504,-547.363,-512.207,40.039,0
1581447056.496,-73.730,-631.348,-574.219,35.156,0
1581447056.500,-279.297,-534.668,-496.582,22.461,0
1581447056.504,-455.078,-620.117,-574.707,24.414,0
1581447056.508,-780.762,-813.965,-728.027,39.062,0
1581447056.511,-977.051,-862.793,-793.945,35.645,0
1581447056.515,-965.332,-567.871,-549.805,27.344,0
1581447056.519,-969.727,-414.551,-393.066,44.922,0
1581447056.523,-973.145,-600.098,-539.551,63.965,0
1581447056.527,-972.168,-594.727,-531.738,61.523,0
1581447056.529,-972.656,-455.566,-413.574,57.617,0
1581447056.533,-974.121,-413.574,-375.000,51.758,0
1581447056.537,-965.820,-544.922,-483.887,53.223,0
1581447056.541,-961.914,-596.191,-528.809,55.664,0
1581447056.545,-929.199,-498.535,-453.125,53.711,0
1581447056.549,-499.023,-537.598,-472.656,58.594,0
1581447056.553,422.852,-810.059,-718.750,56.641,0
1581447056.556,984.375,-804.688,-731.445,53.223,0
1581447056.560,987.305,-450.195,-414.551,53.223,0
1581447056.564,988.770,-412.109,-379.395,51.758,0
1581447056.568,-997.559,-550.293,-491.211,57.617,0
1581447056.572,999.512,-564.941,-506.348,60.059,0
1581447056.590,999.512,-455.566,-408.691,67.383,0
1581447056.594,999.512,-529.785,-475.586,74.219,0
1581447056.598,999.512,-609.375,-546.875,86.914,0
1581447056.602,999.512,-516.113,-459.473,77.148,0
1581447056.606,999.512,-473.633,-418.457,63.965,0
1581447056.610,999.512,-666.016,-584.961,69.336,0
1581447056.614,999.512,-797.363,-703.613,63.477,0
1581447056.617,999.512,-574.707,-522.461,64.453,0
1581447056.621,999.512,-497.070,-455.078,68.359,0
1581447056.625,999.512,-574.707,-517.578,61.035,0
1581447056.629,999.512,-533.691,-489.258,65.430,0
1581447056.633,999.512,-434.570,-402.344,70.312,0
1581447056.635,999.512,-467.285,-424.316,70.801,0
1581447056.639,999.512,-559.082,-509.277,55.664,0
1581447056.643,999.512,-544.922,-505.859,38.574,0
1581447056.647,999.512,-429.199,-396.973,50.293,0
1581447056.651,999.512,-476.562,-425.293,54.199,0
1581447056.655,999.512,-647.949,-583.008,56.641,0
1581447056.659,999.512,-639.648,-579.102,57.129,0
1581447056.662,999.512,-494.141,-450.195,50.293,0
1581447056.666,999.512,-473.145,-426.758,59.082,0
1581447056.670,999.512,-745.605,-651.855,66.895,0
1581447056.674,999.512,-697.266,-620.117,67.383,0
1581447056.678,999.512,-372.070,-340.332,59.570,0
1581447056.680,999.512,-537.109,-470.215,61.523,0
1581447056.684,999.512,-657.227,-573.242,74.707,0
1581447056.688,999.512,-458.008,-401.855,72.754,0
1581447056.692,999.512,-349.609,-299.805,75.684,0
1581447056.696,999.512,-500.000,-423.340,81.543,0
1581447056.700,999.512,-721.191,-614.746,88.379,0
1581447056.704,999.512,-686.523,-593.750,88.867,0
1581447056.707,999.512,-381.348,-325.684,78.613,0
1581447056.711,999.512,-472.656,-380.859,75.195,0
1581447056.715,999.512,-806.152,-676.270,59.082,0
1581447056.719,999.512,-526.855,-450.195,55.176,0
1581447056.723,999.512,-334.961,-279.785,65.430,0
1581447056.725,999.512,-452.637,-378.418,54.688,0
1581447056.729,999.512,-503.906,-419.922,52.246,0
1581447056.733,999.512,-449.707,-369.629,53.711,0
1581447056.737,999.512,-543.945,-449.219,60.547,0
1581447056.741,999.512,-573.730,-474.121,69.824,0
1581447056.745,999.512,-594.238,-490.723,66.406,0
1581447056.749,999.512,-672.363,-562.012,64.941,0
1581447056.752,999.512,-571.777,-481.445,58.105,0
1581447056.756,999.512,-738.770,-630.371,47.852,0
1581447056.760,999.512,-724.609,-608.398,65.430,0
1581447056.764,999.512,-416.992,-333.008,89.844,0
1581447056.768,999.512,-477.539,-377.441,101.562,0
1581447056.770,999.512,-541.504,-439.941,88.379,0
1581447056.774,999.512,-443.848,-358.398,80.078,0
1581447056.778,999.512,-407.715,-309.570,84.961,0
1581447056.782,999.512,-473.633,-352.539,80.566,0
1581447056.786,999.512,-511.230,-383.789,77.148,0
1581447056.790,999.512,-574.707,-447.266,62.500,0
1581447056.794,999.512,-628.418,-489.258,62.012,0
1581447056.797,999.512,-718.262,-545.410,70.312,0
1581447056.801,999.512,-788.574,-609.863,61.035,0
1581447056.805,999.512,-498.535,-372.559,60.547,0
1581447056.809,999.512,-389.648,-267.578,50.781,0
1581447056.813,999.512,-550.781,-405.273,44.434,0
1581447056.815,999.512,-539.551,-390.137,57.129,0
1581447056.819,999.512,-403.320,-256.348,50.293,0
1581447056.823,999.512,-411.621,-242.676,50.781,0
1581447056.827,999.512,-567.383,-371.094,50.293,0
1581447056.831,999.512,-614.258,-426.270,32.715,0
1581447056.835,999.512,-508.789,-320.801,43.945,0
1581447056.839,999.512,-584.961,-380.859,54.199,0
1581447056.842,999.512,-852.539,-622.559,44.434,0
1581447056.846,999.512,-794.922,-575.195,25.391,0
1581447056.850,999.512,-533.691,-382.812,19.531,0
1581447056.854,999.512,-489.746,-355.957,35.645,0
1581447056.858,999.512,-552.734,-405.762,47.852,0
1581447056.860,999.512,-498.047,-362.793,73.730,0
1581447056.864,999.512,-425.293,-313.965,75.684,0
1581447056.868,999.512,-475.586,-375.488,74.219,0
1581447056.872,-998.047,-532.227,-451.660,92.285,0
1581447056.876,979.004,-518.066,-477.539,106.445,0
1581447056.880,-986.328,-489.258,-466.797,127.441,0
1581447056.884,854.004,-544.434,-518.066,129.883,0
1581447056.887,99.121,-724.121,-686.523,126.465,0
1581447056.891,-597.656,-575.195,-578.125,140.625,0
1581447056.895,-871.582,-390.137,-407.715,153.809,0
1581447056.899,-987.793,-455.566,-448.730,164.551,0
1581447056.903,-907.715,-481.445,-461.426,155.273,0
1581447056.905,-633.301,-577.148,-537.598,150.879,0
1581447056.909,-648.438,-529.297,-476.562,149.902,0
1581447056.913,-742.188,-454.102,-391.113,129.395,0
1581447056.917,-568.848,-496.582,-424.805,117.188,0
1581447056.921,-375.000,-469.727,-395.508,103.027,0
1581447056.925,-504.883,-629.395,-529.785,100.586,0
1581447056.929,-801.270,-880.859,-743.164,116.211,0
1581447056.932,-929.199,-793.945,-673.828,119.629,0
1581447056.936,-969.238,-497.070,-425.781,143.066,0
1581447056.940,-970.703,-544.434,-457.520,167.480,0
1581447056.944,-972.168,-627.441,-532.715,166.504,0
1581447056.948,-972.656,-475.586,-416.016,146.973,0
1581447056.965,-972.168,-418.457,-372.559,136.719,0
1581447056.969,-972.168,-554.688,-486.328,137.695,0
1581447056.973,-972.656,-750.000,-657.227,133.789,0
1581447056.977,-972.168,-675.781,-609.863,134.766,0
1581447056.981,-972.168,-453.125,-405.762,141.113,0
1581447056.985,-972.168,-719.727,-626.465,148.438,0
1581447056.989,-972.168,-927.734,-833.984,154.297,0
1581447056.992,-972.168,-638.184,-566.895,161.133,0
1581447056.996,-972.168,-444.336,-376.465,165.527,0
1581447057.000,-972.656,-547.852,-449.219,160.156,0
1581447057.004,-972.168,-636.719,-522.949,149.902,0
1581447057.008,-972.168,-508.301,-416.504,145.508,0
1581447057.010,-972.656,-513.672,-428.223,134.766,0
1581447057.014,-972.656,-643.066,-541.504,134.277,0
1581447057.018,-972.168,-619.629,-506.348,148.926,0
1581447057.022,-972.168,-517.090,-418.457,146.973,0
1581447057.026,-972.168,-484.375,-400.879,125.977,0
1581447057.030,-972.168,-690.918,-589.355,113.770,0
1581447057.034,-972.656,-862.305,-742.676,128.906,0
1581447057.037,-972.168,-806.641,-711.914,129.883,0
1581447057.041,-972.168,-629.883,-582.520,120.117,0
1581447057.045,-972.656,-766.113,-714.844,110.352,0
1581447057.049,-972.168,-821.777,-775.879,109.375,0
1581447057.053,-972.168,-527.832,-533.203,125.000,0
1581447057.055,-972.656,-477.539,-493.652,137.207,0
1581447057.059,-972.168,-522.461,-542.969,145.508,0
1581447057.063,-972.168,-461.914,-507.812,146.973,0
1581447057.067,-972.168,-413.574,-473.633,145.508,0
1581447057.071,-972.168,-526.367,-579.102,132.324,0
1581447057.075,-972.168,-638.672,-681.641,126.465,0
1581447057.079,-972.168,-634.766,-691.895,124.023,0
1581447057.082,-972.168,-504.395,-594.238,131.348,0
1581447057.086,-972.168,-559.570,-630.859,131.836,0
1581447057.090,-972.168,-752.930,-797.363,116.211,0
1581447057.094,-972.168,-514.160,-619.629,119.629,0
1581447057.098,-972.168,-397.461,-517.090,137.695,0
1581447057.100,-972.656,-528.809,-628.418,133.301,0
1581447057.104,-972.168,-492.188,-604.492,122.070,0
1581447057.108,-972.168,-370.117,-487.305,143.555,0
1581447057.112,-972.168,-438.965,-522.461,166.504,0
1581447057.116,-972.168,-604.004,-645.996,167.969,0
1581447057.120,-972.168,-668.945,-685.059,167.480,0
1581447057.124,-972.168,-601.562,-614.258,164.551,0
1581447057.127,-972.168,-547.363,-564.453,157.715,0
1581447057.131,-972.656,-789.551,-773.926,160.645,0
1581447057.135,-972.168,-742.188,-728.027,162.598,0
1581447057.139,-972.168,-387.695,-440.430,155.273,0
1581447057.143,-972.168,-504.395,-549.316,154.785,0
1581447057.145,-973.145,-644.043,-677.246,164.062,0
1581447057.149,-967.773,-516.113,-592.773,162.598,0
1581447057.153,-979.980,-362.305,-467.285,163.574,0
1581447057.157,-954.590,-454.590,-545.898,160.645,0
1581447057.161,-864.258,-605.957,-671.387,157.227,0
1581447057.165,-924.316,-644.043,-694.824,160.645,0
1581447057.169,-983.887,-590.332,-643.066,161.133,0
1581447057.172,-967.285,-688.477,-717.285,169.922,0
1581447057.176,-972.656,-823.242,-819.336,168.945,0
1581447057.180,-972.656,-553.223,-592.773,163.086,0
1581447057.184,-972.168,-387.695,-452.148,158.691,0
1581447057.188,-972.656,-466.309,-515.625,147.461,0
1581447057.189,-972.168,-504.395,-541.016,149.414,0
1581447057.193,-972.168,-497.559,-536.621,138.672,0
1581447057.197,-972.656,-585.449,-612.305,125.977,0
1581447057.201,-972.168,-628.906,-651.855,117.676,0
1581447057.205,-972.168,-521.973,-563.477,107.910,0
1581447057.209,-972.168,-601.074,-631.348,106.934,0
1581447057.213,-972.168,-701.172,-728.516,99.121,0
1581447057.216,-972.168,-833.984,-852.051,86.914,0
1581447057.220,-972.168,-764.160,-814.941,86.426,0
1581447057.224,-972.168,-445.312,-554.199,92.285,0
1581447057.228,-972.168,-527.344,-624.023,86.914,0
1581447057.232,-972.168,-610.840,-705.078,83.008,0
1581447057.234,-972.168,-478.516,-604.004,89.844,0
1581447057.238,-972.168,-434.570,-568.848,105.957,0
1581447057.242,-972.656,-546.875,-653.320,122.559,0
1581447057.246,-972.168,-586.914,-689.941,117.188,0
1581447057.250,-972.656,-445.801,-572.754,102.539,0
1581447057.254,-972.656,-506.836,-612.305,99.609,0
1581447057.258,-972.168,-784.668,-833.496,107.910,0
1581447057.261,-972.168,-881.348,-910.645,110.840,0
1581447057.265,-972.168,-543.945,-642.090,107.422,0
1581447057.269,-973.145,-374.023,-500.977,106.934,0
1581447057.273,-965.820,-557.129,-651.855,107.910,0
1581447057.277,-982.910,-578.613,-666.016,116.699,0
1581447057.280,-915.039,-406.250,-517.090,104.492,0
1581447057.284,-752.930,-350.586,-464.355,95.215,0
1581447057.288,-737.305,-460.938,-545.410,84.961,0
1581447057.292,-893.066,-602.051,-676.758,77.148,0
1581447057.296,-981.934,-530.762,-626.953,81.543,0
1581447057.300,-966.797,-515.625,-600.098,76.660,0
1581447057.304,-971.680,-828.613,-856.445,66.895,0
1581447057.307,-972.656,-797.363,-834.473,62.500,0
1581447057.311,-972.168,-516.113,-606.445,73.242,0
1581447057.315,-972.656,-497.559,-591.309,98.633,0
1581447057.319,-972.168,-540.039,-630.859,116.211,0
1581447057.323,-972.656,-496.094,-593.750,128.418,0
1581447057.339,-972.168,-388.672,-496.582,116.211,0
1581447057.343,-972.168,-484.375,-589.844,86.914,0
1581447057.347,-972.656,-562.988,-665.039,77.637,0
1581447057.351,-972.168,-484.863,-599.121,77.637,0
1581447057.355,-972.168,-389.648,-511.719,86.426,0
1581447057.359,-972.168,-574.707,-666.016,79.590,0
1581447057.363,-972.168,-743.652,-813.477,78.613,0
1581447057.366,-972.168,-559.082,-661.621,91.797,0
1581447057.370,-972.656,-475.098,-592.773,91.797,0
1581447057.374,-972.656,-601.562,-688.477,68.848,0
1581447057.378,-972.656,-658.691,-737.793,43.457,0
1581447057.382,-972.168,-511.230,-610.840,69.336,0
1581447057.384,-972.168,-498.535,-591.797,93.262,0
1581447057.388,-972.168,-554.688,-643.066,80.078,0
1581447057.392,-972.168,-499.023,-594.238,77.637,2
1581447057.396,-972.168,-428.711,-532.227,79.590,0
1581447057.400,-972.168,-475.098,-564.453,77.148,0
1581447057.404,-972.656,-611.328,-674.316,74.707,0
1581447057.408,-972.168,-706.543,-764.648,58.105,0
1581447057.411,-972.168,-552.246,-640.137,54.199,0
1581447057.415,-972.168,-468.262,-561.035,55.664,0
1581447057.419,-972.656,-780.273,-812.012,58.105,0
1581447057.423,-972.168,-747.559,-790.039,70.801,0
1581447057.427,-972.168,-368.652,-472.656,74.219,0
1581447057.429,-972.168,-455.078,-533.203,79.590,0
1581447057.433,-972.168,-599.121,-654.297,83.984,0
1581447057.437,-972.168,-586.914,-652.344,79.590,0
1581447057.441,-972.656,-455.566,-546.387,76.660,0
1581447057.445,-972.168,-468.262,-546.875,76.660,0
1581447057.449,-972.168,-719.727,-756.836,78.613,0
1581447057.453,-972.656,-717.285,-765.137,72.266,0
1581447057.456,-972.168,-465.332,-567.871,75.195,0
1581447057.460,-973.145,-518.555,-603.516,92.285,0
1581447057.464,-964.844,-779.785,-811.523,92.773,0
1581447057.468,-982.910,-537.109,-618.652,93.262,0
1581447057.472,-898.926,-367.188,-480.957,80.078,0
1581447057.474,-713.379,-452.148,-555.664,62.500,0
1581447057.478,-514.160,-476.562,-581.055,63.965,0
1581447057.482,-519.043,-427.246,-553.223,53.711,0
1581447057.486,-837.891,-384.766,-529.785,40.527,0
1581447057.490,-982.910,-447.754,-591.309,32.227,0
1581447057.494,-958.008,-609.863,-729.980,39.062,0
1581447057.498,-977.051,-700.684,-808.594,49.805,0
1581447057.501,-919.434,-642.090,-759.277,46.387,0
1581447057.505,-747.070,-752.930,-844.238,41.992,0
1581447057.509,-475.586,-670.410,-770.996,46.387,0
1581447057.513,-223.145,-441.895,-588.379,60.547,0
1581447057.517,-383.301,-494.141,-633.301,69.336,0
1581447057.519,-749.512,-492.676,-635.254,61.523,0
1581447057.523,-942.871,-441.895,-604.004,56.152,0
1581447057.527,-969.238,-394.043,-550.781,52.246,0
1581447057.531,-968.262,-461.914,-597.656,39.551,0
1581447057.535,-973.145,-535.645,-673.340,27.832,0
1581447057.539,-972.168,-580.078,-719.727,17.090,0
1581447057.543,-972.168,-560.547,-704.102,23.438,0
1581447057.546,-972.168,-618.164,-737.793,28.320,0
1581447057.550,-972.656,-814.941,-895.020,26.855,0
1581447057.554,-972.168,-522.461,-671.875,32.715,0
1581447057.558,-972.656,-392.578,-559.082,30.762,0
1581447057.562,-972.168,-578.125,-712.891,22.461,0
1581447057.564,-972.168,-541.504,-679.688,14.160,0
1581447057.568,-972.168,-389.648,-549.316,28.809,0
1581447057.572,-972.168,-401.855,-553.223,50.293,0
1581447057.576,-972.168,-554.688,-670.410,53.711,0
1581447057.580,-972.168,-600.586,-698.730,67.871,0
1581447057.584,-972.656,-520.996,-627.930,61.035,0
1581447057.588,-974.121,-572.266,-685.059,46.875,0
1581447057.591,-968.262,-823.730,-883.789,50.293,0
1581447057.595,-951.172,-789.551,-867.188,41.504,0
1581447057.599,-990.723,-446.777,-616.211,41.504,0
1581447057.603,-545.410,-355.957,-520.020,53.711,0
1581447057.607,338.379,-481.445,-606.445,62.500,0
1581447057.609,866.699,-447.266,-582.520,56.641,0
1581447057.613,995.605,-302.246,-471.680,36.621,0
1581447057.617,989.258,-393.555,-556.641,26.367,0
1581447057.621,999.512,-464.844,-614.258,24.414,0
1581447057.625,-1000.000,-411.621,-568.848,26.367,0
1581447057.629,999.512,-424.805,-579.102,38.086,0
1581447057.633,999.512,-546.875,-685.059,36.621,0
1581447057.636,999.512,-686.523,-815.918,36.621,0
1581447057.640,999.512,-493.652,-660.156,49.316,0
1581447057.644,999.512,-295.410,-480.469,62.500,0
1581447057.648,999.512,-434.570,-594.238,66.895,0
1581447057.652,999.512,-489.258,-645.020,54.688,0
1581447057.655,999.512,-333.008,-508.789,50.293,0
1581447057.659,999.512,-423.828,-583.496,43.457,0
1581447057.663,999.512,-472.656,-622.559,31.250,0
1581447057.667,999.512,-331.543,-503.906,24.902,0
1581447057.671,999.512,-308.594,-479.004,29.297,0
1581447057.675,999.512,-456.543,-597.656,30.273,0
1581447057.679,999.512,-768.066,-855.469,11.719,0
1581447057.682,999.512,-677.734,-796.875,16.113,0
1581447057.686,999.512,-337.891,-511.230,31.250,0
1581447057.690,999.512,-416.016,-564.453,31.250,0
1581447057.694,999.512,-463.867,-607.422,28.809,0
1581447057.698,999.512,-299.805,-470.703,6.836,0
1581447057.700,999.512,-255.859,-437.988,-3.418,0
1581447057.704,999.512,-435.547,-588.867,0.977,0
1581447057.708,999.512,-497.070,-629.395,3.906,0
1581447057.712,999.512,-371.582,-517.578,-2.441,0
1581447057.716,999.512,-384.277,-524.414,-16.113,0
1581447057.720,999.512,-619.629,-698.730,-14.648,0
1581447057.724,999.512,-685.547,-748.535,-15.137,0
1581447057.727,999.512,-437.988,-557.129,-29.297,0
1581447057.731,999.512,-303.223,-442.871,-40.039,0
1581447057.735,999.512,-459.473,-555.664,-37.109,0
1581447057.739,999.512,-556.641,-637.207,-25.879,0
1581447057.743,999.512,-337.402,-458.008,-13.672,0
1581447057.760,999.512,-258.789,-383.301,-11.230,0
1581447057.764,999.512,-392.578,-503.418,-16.113,0
1581447057.768,999.512,-462.891,-570.801,-19.531,0
1581447057.772,999.512,-377.441,-512.207,-14.648,0
1581447057.776,999.512,-326.172,-487.305,-7.324,0
1581447057.780,999.512,-517.578,-671.387,-8.301,0
1581447057.784,999.512,-545.410,-719.238,0.000,0
1581447057.787,999.512,-398.438,-608.887,9.277,0
1581447057.791,999.512,-379.883,-610.840,8.301,0
1581447057.795,999.512,-488.281,-713.867,-1.953,0
1581447057.799,999.512,-536.621,-768.555,-20.020,0
1581447057.803,999.512,-337.891,-606.445,-17.578,0
1581447057.805,999.512,-328.125,-578.613,-14.160,0
1581447057.809,999.512,-392.090,-616.699,-13.672,0
1581447057.813,999.512,-367.188,-581.543,5.371,0
1581447057.817,999.512,-352.539,-546.387,17.578,0
1581447057.821,999.512,-421.387,-579.102,20.020,0
1581447057.825,999.512,-555.176,-683.594,8.301,0
1581447057.829,999.512,-526.855,-647.461,7.324,0
1581447057.832,999.512,-382.324,-512.695,15.137,0
1581447057.836,999.512,-508.301,-610.840,3.418,0
1581447057.840,999.512,-621.094,-706.055,-17.578,0
1581447057.844,999.512,-452.148,-573.730,-27.344,0
1581447057.848,999.512,-450.684,-564.453,-15.625,0
1581447057.850,999.512,-461.914,-567.383,-8.789,0
1581447057.854,999.512,-389.648,-509.766,-26.367,0
1581447057.858,999.512,-320.801,-462.402,-35.645,0
1581447057.862,999.512,-363.281,-503.418,-32.715,0
1581447057.866,999.512,-473.633,-599.609,-55.176,0
1581447057.870,999.512,-548.828,-670.410,-71.777,0
1581447057.874,999.512,-543.457,-673.828,-73.242,0
1581447057.877,999.512,-457.520,-595.215,-76.660,0
1581447057.881,-1000.000,-616.699,-715.820,-71.289,0
1581447057.885,980.957,-585.938,-680.664,-65.918,0
1581447057.889,-979.492,-306.641,-442.871,-80.078,0
1581447057.893,796.387,-359.863,-470.703,-76.172,0
1581447057.895,171.875,-458.496,-539.551,-69.336,0
1581447057.899,-369.141,-479.492,-562.012,-83.008,0
1581447057.903,-770.996,-451.660,-546.387,-83.496,0
1581447057.907,-1000.000,-467.773,-560.059,-86.914,0
1581447057.911,-763.184,-502.930,-573.730,-86.914,0
1581447057.915,-157.227,-546.387,-608.398,-82.520,0
1581447057.919,-37.109,-549.316,-626.465,-98.633,0
1581447057.922,-288.086,-577.637,-657.227,-109.863,0
1581447057.926,-423.340,-736.328,-792.969,-110.840,0
1581447057.930,-402.832,-495.605,-593.262,-104.492,0
1581447057.934,-400.879,-322.754,-454.102,-98.633,0
1581447057.938,-486.328,-374.023,-511.230,-104.980,0
1581447057.940,-608.887,-349.121,-493.652,-95.215,0
1581447057.944,-840.332,-328.613,-481.445,-68.359,0
1581447057.948,-979.004,-369.629,-529.785,-62.988,0
1581447057.952,-967.285,-416.504,-583.496,-74.219,0
1581447057.956,-970.215,-483.887,-647.461,-58.105,0
1581447057.960,-973.145,-538.086,-688.965,-35.156,0
1581447057.964,-972.168,-569.336,-723.633,-26.855,0
1581447057.967,-972.656,-704.102,-842.285,-19.531,0
1581447057.971,-972.168,-617.676,-783.691,-10.254,0
1581447057.975,-972.168,-317.871,-542.969,13.672,0
1581447057.979,-972.168,-338.867,-553.223,43.457,0
1581447057.983,-973.633,-388.672,-603.027,38.574,0
1581447057.985,-968.750,-339.355,-584.961,33.203,0
1581447057.989,-966.309,-296.387,-546.387,42.480,0
1581447057.993,-973.145,-368.652,-595.703,44.922,0
1581447057.997,-730.469,-463.867,-681.152,44.922,0
1581447058.001,-336.426,-385.742,-617.188,34.180,0
1581447058.005,30.762,-420.898,-622.070,49.805,0
1581447058.009,373.535,-646.973,-781.250,63.965,0
1581447058.012,581.055,-722.656,-839.355,58.594,0
1581447058.016,856.445,-417.969,-587.402,52.734,0
1581447058.020,-985.352,-243.164,-426.270,45.898,0
1581447058.024,990.234,-375.488,-528.320,43.945,0
1581447058.028,999.023,-384.766,-537.598,35.156,0
1581447058.030,999.023,-236.328,-412.598,33.203,0
1581447058.034,987.305,-218.262,-402.344,45.898,0
1581447058.038,-983.398,-349.609,-526.367,51.270,0
1581447058.042,826.172,-434.082,-620.605,51.270,0
1581447058.046,425.293,-316.406,-534.180,29.297,0
1581447058.050,291.504,-317.871,-542.969,17.578,0
1581447058.054,225.586,-653.809,-809.570,41.016,0
1581447058.057,87.402,-698.730,-846.680,38.086,0
1581447058.061,-97.656,-344.238,-557.617,39.551,0
1581447058.065,-302.246,-245.605,-448.730,47.363,0
1581447058.069,-626.465,-423.828,-584.961,42.969,0
1581447058.073,-951.172,-466.797,-622.559,44.922,0
1581447058.090,-973.633,-358.887,-530.762,37.598,0
1581447058.094,-963.867,-417.969,-576.660,34.668,0
1581447058.098,-974.121,-452.637,-591.309,35.156,0
1581447058.102,-972.168,-405.762,-543.457,42.480,0
1581447058.106,-972.168,-357.422,-492.188,57.617,0
1581447058.110,-972.656,-577.148,-667.480,58.105,0
1581447058.114,-973.633,-716.309,-793.457,61.523,0
1581447058.117,-959.961,-461.426,-579.590,60.059,0
1581447058.121,-988.770,-320.312,-457.031,54.199,0
1581447058.125,-859.863,-510.742,-625.488,36.133,0
1581447058.129,-505.859,-615.723,-733.887,7.812,0
1581447058.133,-196.777,-375.488,-537.598,12.207,0
1581447058.135,-134.766,-378.418,-534.180,10.742,0
1581447058.139,-455.566,-472.656,-617.676,1.953,0
1581447058.143,-783.203,-370.117,-542.480,1.465,0
1581447058.147,-950.195,-274.414,-472.656,-6.836,0
1581447058.151,-971.680,-351.562,-541.504,-5.859,0
1581447058.155,-968.262,-506.836,-678.711,-9.277,0
1581447058.159,-973.145,-520.020,-700.684,-15.625,0
1581447058.162,-972.168,-380.371,-593.750,-12.695,0
1581447058.166,-972.168,-340.820,-554.688,-15.137,0
1581447058.170,-972.168,-703.613,-830.566,-22.461,0
1581447058.174,-972.656,-675.781,-821.777,-34.180,0
1581447058.178,-972.656,-335.938,-557.129,-28.809,0
1581447058.180,-972.656,-419.434,-604.492,-9.277,0
1581447058.184,-972.656,-504.395,-669.434,-9.277,0
1581447058.188,-972.656,-376.465,-576.172,-18.066,0
1581447058.192,-972.656,-259.277,-481.445,-30.762,0
1581447058.196,-972.656,-453.125,-640.137,-29.297,0
1581447058.200,-972.168,-658.691,-811.523,-10.742,0
1581447058.204,-972.168,-578.125,-741.699,-17.090,0
1581447058.207,-972.168,-388.184,-597.656,-34.668,0
1581447058.211,-972.168,-497.070,-683.105,-32.715,0
1581447058.215,-972.168,-788.086,-912.598,-19.531,0
1581447058.219,-972.168,-581.055,-747.559,-12.207,0
1581447058.223,-972.656,-313.477,-515.137,-16.113,0
1581447058.225,-973.145,-365.723,-550.781,-8.301,0
1581447058.229,-970.703,-423.340,-596.191,6.348,0
1581447058.233,-957.520,-369.629,-550.293,20.508,0
1581447058.237,-987.305,-346.680,-533.691,21.484,0
1581447058.241,-724.121,-366.699,-551.758,16.602,0
1581447058.245,-132.812,-455.078,-610.840,23.926,0
1581447058.249,363.281,-508.789,-649.414,14.648,0
1581447058.252,797.852,-397.949,-564.453,-13.672,0
1581447058.256,-997.070,-574.219,-734.375,-41.016,0
1581447058.260,991.211,-593.750,-766.602,-41.992,0
1581447058.264,997.070,-274.414,-486.328,-23.926,0
1581447058.268,-999.512,-302.734,-500.000,-27.344,0
1581447058.270,999.512,-390.137,-581.543,-35.156,0
1581447058.274,999.512,-333.496,-530.273,-25.391,0
1581447058.278,999.512,-271.484,-458.008,-18.066,0
1581447058.282,999.512,-337.891,-498.047,-8.789,0
1581447058.286,999.512,-391.113,-552.246,-26.855,0
1581447058.290,999.512,-419.922,-588.867,-32.227,0
1581447058.294,999.512,-451.660,-611.816,-15.625,0
1581447058.297,999.512,-499.023,-642.090,-18.555,0
1581447058.301,999.512,-583.008,-710.449,-28.320,0
1581447058.305,999.512,-354.004,-523.926,-29.297,0
1581447058.309,999.512,-318.848,-487.793,-16.113,0
1581447058.313,999.512,-455.078,-607.422,-15.137,0
1581447058.315,999.512,-358.887,-526.855,-19.531,0
1581447058.319,-1000.000,-193.848,-379.395,-9.277,0
1581447058.323,995.117,-222.168,-398.438,-0.977,0
1581447058.327,-997.559,-362.793,-517.578,7.324,0
1581447058.331,964.355,-359.863,-516.113,14.160,0
1581447058.335,819.824,-359.863,-509.277,8.301,0
1581447058.339,639.648,-364.258,-503.906,13.672,0
1581447058.342,533.203,-607.910,-709.473,2.930,0
1581447058.346,448.242,-653.809,-759.766,-8.789,0
1581447058.350,324.219,-259.277,-426.270,-12.695,0
1581447058.354,297.363,-235.840,-394.043,-25.879,0
1581447058.358,318.359,-307.617,-443.359,-31.738,0
1581447058.359,292.969,-436.523,-562.500,-34.668,0
1581447058.363,256.836,-386.719,-526.855,-27.344,0
1581447058.367,177.246,-258.789,-406.250,-20.020,0
1581447058.371,84.473,-340.332,-474.121,-19.531,0
1581447058.375,45.898,-335.449,-476.562,-11.719,0
1581447058.379,66.895,-387.695,-521.973,-15.625,0
1581447058.383,109.375,-508.301,-618.652,-16.113,0
1581447058.386,16.602,-607.422,-694.336,-0.488,0
1581447058.390,-238.770,-418.945,-537.598,9.277,0
1581447058.394,-344.727,-297.363,-439.941,3.418,0
1581447058.398,-318.359,-331.055,-465.332,-7.324,0
1581447058.402,-244.141,-329.102,-465.332,-8.301,0
1581447058.404,-133.789,-327.148,-474.609,-2.930,0
1581447058.408,-104.492,-329.102,-476.562,3.906,0
1581447058.412,-65.918,-348.633,-493.652,4.395,0
1581447058.416,0.000,-366.211,-503.418,-3.418,0
1581447058.420,-26.855,-414.551,-534.668,0.977,0
1581447058.424,-197.754,-496.582,-608.887,3.906,0
1581447058.428,-498.535,-692.871,-779.297,-13.184,0
1581447058.431,-833.496,-602.539,-713.379,-20.996,0
1581447058.435,-978.516,-277.344,-438.965,-16.113,0
1581447058.439,-964.844,-365.723,-506.348,-17.090,0
1581447058.443,-971.191,-434.082,-562.988,-3.418,0
1581447058.447,-973.145,-304.199,-453.125,-5.859,0
1581447058.464,-972.168,-268.066,-429.688,-25.391,0
1581447058.468,-972.168,-360.352,-503.418,-28.809,0
1581447058.472,-972.168,-427.246,-560.547,-40.527,0
1581447058.476,-972.168,-290.039,-452.148,-51.758,0
1581447058.480,-972.656,-227.539,-394.531,-32.227,0
1581447058.484,-972.656,-508.789,-619.141,-7.324,0
1581447058.488,-972.656,-780.273,-846.191,-16.602,0
1581447058.491,-972.168,-518.555,-642.090,-21.973,0
1581447058.495,-972.168,-273.438,-440.918,-25.879,0
1581447058.499,-972.656,-395.508,-538.086,-21.973,0
1581447058.503,-972.656,-479.004,-610.352,-13.672,0
1581447058.507,-972.168,-352.051,-507.324,-12.207,0
1581447058.509,-972.168,-315.918,-481.445,-6.836,0
1581447058.513,-972.656,-425.293,-569.824,5.371,0
1581447058.517,-972.656,-452.148,-584.473,18.066,0
1581447058.521,-972.168,-387.695,-536.621,13.672,0
1581447058.525,-972.168,-349.609,-508.301,0.977,0
1581447058.529,-974.121,-442.871,-583.496,-1.465,0
1581447058.533,-965.332,-577.148,-698.730,-1.953,0
1581447058.536,-963.379,-457.520,-607.422,-5.371,0
1581447058.540,-951.660,-267.578,-448.242,-8.789,0
1581447058.544,-584.473,-570.801,-697.266,-22.461,0
1581447058.548,244.141,-604.980,-717.773,-19.043,0
1581447058.552,908.691,-262.695,-419.434,-5.859,0
1581447058.554,-997.559,-298.828,-443.848,-10.254,0
1581447058.558,982.422,-385.254,-520.996,-21.484,1
1581447058.562,-996.094,-337.402,-480.957,-14.160,0
1581447058.566,987.305,-338.867,-484.375,3.418,0
1581447058.570,-980.957,-399.902,-535.156,13.184,0
1581447058.574,908.203,-486.328,-612.793,3.418,0
1581447058.578,615.723,-500.977,-635.742,-16.602,0
1581447058.581,625.488,-398.438,-555.664,-14.648,0
1581447058.585,637.207,-504.395,-639.160,4.395,0
1581447058.589,562.012,-613.281,-723.633,7.324,0
1581447058.593,566.895,-333.984,-493.652,7.812,0
1581447058.597,590.820,-219.727,-385.254,10.254,0
1581447058.599,585.449,-415.527,-551.758,13.672,0
1581447058.603,175.781,-511.230,-659.180,20.996,0
1581447058.607,-343.262,-323.730,-524.902,20.996,0
1581447058.611,-401.367,-288.574,-510.742,15.625,0
1581447058.615,-244.141,-391.113,-609.375,11.719,0
1581447058.619,-9.766,-463.379,-687.012,12.695,0
1581447058.623,440.430,-404.297,-653.320,21.973,0
1581447058.626,881.348,-268.555,-542.969,29.785,0
1581447058.630,952.637,-548.340,-767.578,45.410,0
1581447058.634,607.422,-604.004,-802.246,60.547,0
1581447058.638,704.590,-263.184,-496.582,75.195,0
1581447058.642,-968.262,-258.301,-464.355,83.008,0
1581447058.644,993.164,-406.738,-578.613,69.824,0
1581447058.648,993.652,-344.238,-523.926,42.969,0
1581447058.652,-999.512,-217.285,-408.203,17.090,0
1581447058.656,999.512,-355.957,-511.230,21.484,0
1581447058.660,999.512,-458.984,-590.820,29.785,0
1581447058.664,999.512,-501.465,-629.395,8.301,0
1581447058.668,999.512,-473.633,-613.281,-7.324,0
1581447058.671,999.512,-410.156,-548.340,-5.859,0
1581447058.675,999.512,-594.727,-701.660,-9.766,0
1581447058.679,999.512,-444.336,-589.355,-6.836,0
1581447058.683,999.512,-223.145,-398.438,-9.766,0
1581447058.687,999.512,-256.836,-423.828,-8.789,0
1581447058.689,999.512,-274.414,-442.871,-13.184,0
1581447058.693,999.512,-264.648,-445.801,-5.859,0
1581447058.697,999.512,-252.441,-436.035,23.438,0
1581447058.701,999.512,-290.039,-465.820,33.691,0
1581447058.705,999.512,-283.691,-451.660,43.457,0
1581447058.709,999.512,-401.367,-549.805,46.875,0
1581447058.713,999.512,-521.973,-661.133,53.711,0
1581447058.716,999.512,-599.121,-717.773,58.105,0
1581447058.720,999.512,-539.062,-669.922,44.434,0
1581447058.724,999.512,-313.477,-483.887,52.734,0
1581447058.728,999.512,-348.633,-505.371,37.109,0
1581447058.732,999.512,-370.117,-524.902,11.719,0
1581447058.734,999.512,-287.109,-459.473,18.066,0
1581447058.738,999.512,-244.141,-411.621,25.391,0
1581447058.742,999.512,-367.188,-504.395,29.297,0
1581447058.746,999.512,-432.617,-567.383,22.949,0
1581447058.750,999.512,-320.801,-485.352,20.020,0
1581447058.754,999.512,-380.859,-539.062,27.832,0
1581447058.758,999.512,-553.223,-682.129,22.461,0
1581447058.761,999.512,-645.020,-778.320,10.742,0
1581447058.765,999.512,-336.914,-530.762,1.465,0
1581447058.769,999.512,-250.000,-449.219,5.371,0
1581447058.773,999.512,-412.109,-592.285,8.789,0
1581447058.777,999.512,-344.238,-539.062,7.812,0
1581447058.779,999.512,-159.668,-382.812,5.859,0
1581447058.783,999.512,-119.629,-353.027,-16.113,0
1581447058.787,-1000.000,-298.340,-520.020,-12.695,0
1581447058.791,997.559,-354.492,-578.613,9.277,0
1581447058.795,993.164,-259.277,-499.512,-1.953,0
1581447058.799,-991.699,-362.793,-601.074,-16.113,0
1581447058.803,856.934,-651.367,-839.355,-15.625,0
1581447058.806,616.211,-598.633,-786.621,2.441,0
1581447058.810,481.445,-256.836,-505.859,23.926,0
1581447058.814,316.406,-196.777,-450.684,23.926,0
1581447058.818,89.355,-312.988,-551.270,32.227,0
1581447058.822,-234.375,-348.633,-588.379,34.668,0
1581447058.840,-485.352,-333.984,-575.684,30.762,0
1581447058.844,-418.945,-331.543,-566.895,38.086,0
1581447058.848,-261.230,-358.887,-580.078,36.621,0
1581447058.852,-198.730,-346.680,-553.223,35.645,0
1581447058.856,1.953,-324.707,-508.789,21.973,0
1581447058.860,397.949,-445.801,-594.238,8.789,0
1581447058.864,834.473,-537.109,-675.293,3.906,0
1581447058.867,-991.211,-371.094,-543.945,9.277,0
1581447058.871,989.746,-252.930,-439.941,13.184,0
1581447058.875,994.141,-407.227,-572.266,-4.883,0
1581447058.879,-998.535,-505.371,-681.152,-7.324,0
1581447058.883,972.656,-261.230,-489.746,2.930,0
1581447058.885,815.918,-271.973,-502.441,7.324,0
1581447058.889,604.004,-363.770,-599.609,-4.883,0
1581447058.893,335.938,-410.645,-661.133,-32.227,0
1581447058.897,-70.312,-414.062,-672.363,-29.297,0
1581447058.901,-410.156,-346.680,-607.422,-7.812,0
1581447058.905,-703.125,-455.566,-683.105,3.418,0
1581447058.909,-952.148,-509.277,-718.262,0.488,0
1581447058.912,-973.633,-353.027,-579.590,-12.207,0
1581447058.916,-965.820,-280.273,-499.023,10.742,0
1581447058.920,-974.121,-642.578,-786.621,16.602,0
1581447058.924,-972.168,-657.715,-812.500,-1.953,0
1581447058.928,-972.168,-313.965,-529.297,6.836,0
1581447058.930,-972.168,-397.461,-586.914,8.301,0
1581447058.934,-972.168,-514.160,-686.523,5.371,0
1581447058.938,-972.656,-407.227,-601.562,-10.254,0
1581447058.942,-972.656,-337.402,-558.594,-29.785,0
1581447058.946,-972.168,-458.496,-662.109,-13.672,0
1581447058.950,-972.168,-577.148,-745.605,1.465,0
1581447058.954,-972.656,-550.293,-729.492,-8.789,0
1581447058.957,-972.168,-462.402,-681.152,-24.414,0
1581447058.961,-972.168,-529.297,-740.234,-21.484,0
1581447058.965,-972.168,-722.168,-903.809,-14.648,0
1581447058.969,-972.168,-489.746,-731.934,-13.672,0
1581447058.973,-972.168,-261.230,-541.016,-13.672,0
1581447058.975,-972.168,-338.379,-608.398,-11.719,0
1581447058.979,-972.168,-468.262,-728.516,4.883,0
1581447058.983,-972.168,-418.457,-692.383,28.809,0
1581447058.987,-972.168,-306.641,-598.633,35.645,0
1581447058.991,-972.168,-351.562,-641.113,34.668,0
1581447058.995,-972.168,-543.457,-800.293,43.945,0
1581447058.999,-972.168,-562.988,-805.176,61.523,0
1581447059.002,-972.168,-327.148,-600.586,61.523,0
1581447059.006,-972.168,-515.625,-756.348,29.785,0
1581447059.010,-972.168,-586.426,-814.941,27.344,0
1581447059.014,-972.168,-284.180,-557.129,53.711,0
1581447059.018,-972.168,-288.086,-545.410,60.547,0
1581447059.020,-972.168,-375.000,-620.117,51.270,0
1581447059.024,-972.168,-351.074,-604.492,45.898,0
1581447059.028,-972.656,-268.066,-517.578,54.199,0
1581447059.032,-972.168,-329.102,-552.734,61.035,0
1581447059.036,-972.168,-390.137,-605.957,49.805,0
1581447059.040,-972.168,-511.719,-728.027,29.785,0
1581447059.044,-972.168,-543.457,-755.371,26.855,0
1581447059.047,-972.168,-537.109,-737.305,25.391,0
1581447059.051,-972.168,-655.762,-843.262,14.648,0
1581447059.055,-972.656,-456.055,-695.801,14.648,0
1581447059.059,-972.656,-353.027,-611.328,15.137,0
1581447059.063,-972.168,-481.445,-717.773,22.461,0
1581447059.065,-972.168,-495.117,-731.934,40.039,0
1581447059.069,-972.656,-295.898,-571.289,42.480,0
1581447059.073,-972.168,-250.000,-530.273,36.133,0
1581447059.077,-972.168,-373.047,-627.441,26.855,0
1581447059.081,-972.168,-399.414,-657.715,26.855,0
1581447059.085,-972.168,-399.902,-663.574,46.387,0
1581447059.089,-972.168,-486.328,-745.605,62.012,0
1581447059.092,-972.168,-721.191,-895.020,53.223,0
1581447059.096,-972.168,-690.430,-868.652,36.133,0
1581447059.100,-972.168,-273.926,-568.848,15.625,0
1581447059.104,-972.168,-247.070,-538.574,4.395,0
1581447059.108,-972.168,-424.805,-694.824,9.277,0
1581447059.110,-973.145,-427.246,-709.473,-0.488,0
1581447059.114,-968.750,-268.066,-574.707,3.418,0
1581447059.118,-968.750,-302.246,-588.867,15.137,0
1581447059.122,-949.219,-429.688,-694.824,21.484,0
1581447059.126,-749.023,-335.938,-614.746,14.160,0
1581447059.130,-443.359,-344.238,-614.258,10.742,0
1581447059.134,-105.957,-486.328,-725.586,11.230,0
1581447059.137,255.859,-631.836,-863.770,-3.906,0
1581447059.141,525.391,-397.461,-677.734,-6.836,0
1581447059.145,720.703,-200.684,-499.512,1.953,0
1581447059.149,814.941,-308.105,-595.215,4.883,0
1581447059.153,918.457,-360.840,-652.344,1.953,0
1581447059.155,-994.141,-307.617,-609.375,8.789,0
1581447059.159,996.582,-255.859,-550.293,26.855,0
1581447059.163,998.535,-333.984,-617.188,31.738,0
1581447059.167,999.512,-309.570,-597.168,40.039,0
1581447059.171,999.512,-229.004,-512.695,45.898,0
1581447059.175,999.512,-378.906,-642.090,33.203,0
1581447059.179,999.512,-661.621,-872.070,18.555,0
1581447059.182,999.512,-620.117,-853.027,13.184,0
1581447059.186,999.512,-281.738,-582.520,20.996,0
1581447059.190,999.512,-314.453,-586.426,32.227,0
1581447059.194,999.512,-367.676,-623.535,30.273,0
1581447059.198,999.512,-203.125,-484.375,29.297,0
1581447059.215,999.512,-107.422,-399.414,33.203,0
1581447059.219,999.512,-220.703,-489.746,32.715,0
1581447059.223,999.512,-315.918,-579.590,25.879,0
1581447059.227,999.512,-170.898,-461.914,18.555,0
1581447059.231,999.512,-97.168,-399.414,20.508,0
1581447059.235,999.512,-361.816,-612.305,22.949,0
1581447059.239,999.512,-650.391,-875.000,11.719,0
1581447059.242,999.512,-405.273,-697.754,5.371,0
1581447059.246,999.512,-219.238,-528.320,15.137,0
1581447059.250,999.512,-346.191,-621.582,34.180,0
1581447059.254,999.512,-362.793,-632.812,41.992,0
1581447059.258,999.512,-207.520,-509.277,42.969,0
1581447059.260,999.512,-147.949,-463.867,34.668,0
1581447059.264,999.512,-304.199,-598.633,20.508,0
1581447059.268,999.512,-383.789,-670.898,12.695,0
1581447059.272,999.512,-263.184,-563.965,2.930,0
1581447059.276,999.512,-266.113,-564.941,3.906,0
1581447059.280,999.512,-385.742,-671.387,4.883,0
1581447059.284,999.512,-472.168,-749.023,-2.441,0
1581447059.287,999.512,-367.188,-668.945,-2.930,0
1581447059.291,999.512,-205.566,-527.832,-8.789,0
1581447059.295,999.512,-454.102,-726.562,-22.949,0
1581447059.299,999.512,-523.926,-793.457,-28.809,0
1581447059.303,999.512,-316.406,-625.977,-13.672,0
1581447059.305,999.512,-356.445,-661.621,2.441,0
1581447059.309,999.512,-296.387,-606.445,2.441,0
1581447059.313,999.512,-235.840,-548.828,12.695,0
1581447059.317,999.512,-237.305,-549.805,27.344,0
1581447059.321,999.512,-239.746,-538.086,38.574,0
1581447059.325,999.512,-345.703,-618.652,50.781,0
1581447059.329,999.512,-431.641,-700.684,76.660,0
1581447059.332,999.512,-313.477,-599.609,83.008,0
1581447059.336,999.512,-332.520,-592.285,57.617,0
1581447059.340,999.512,-537.598,-764.648,35.645,0
1581447059.344,999.512,-303.711,-565.430,41.992,0
1581447059.348,999.512,-159.180,-407.227,60.547,0
1581447059.350,999.512,-336.426,-556.152,46.387,0
1581447059.354,999.512,-350.586,-589.355,24.414,0
1581447059.358,999.512,-325.684,-579.590,30.762,0
1581447059.362,999.512,-270.996,-522.949,40.527,0
1581447059.366,999.512,-317.383,-552.246,37.598,0
1581447059.370,999.512,-452.637,-674.316,32.227,0
1581447059.374,999.512,-447.266,-684.082,9.277,0
1581447059.377,999.512,-356.934,-607.910,-1.953,0
1581447059.381,999.512,-501.465,-716.797,-9.277,0
1581447059.385,999.512,-566.406,-802.246,-13.184,0
1581447059.389,999.512,-216.309,-536.621,7.324,0
1581447059.393,999.512,-172.363,-500.000,13.672,0
1581447059.395,999.512,-320.801,-647.461,20.020,0
1581447059.399,999.512,-242.188,-605.957,30.273,0
1581447059.403,999.512,-84.961,-480.469,29.785,0
1581447059.407,-997.559,-166.016,-557.617,25.879,0
1581447059.411,983.398,-285.645,-657.715,19.531,0
1581447059.415,-991.699,-347.656,-707.031,7.324,0
1581447059.419,927.734,-391.113,-753.418,5.371,0
1581447059.422,375.977,-445.312,-781.738,6.348,0
1581447059.426,-130.371,-603.516,-890.137,13.672,0
1581447059.430,-53.223,-422.363,-737.305,13.184,0
1581447059.434,-109.375,-226.562,-557.129,15.137,0
1581447059.438,-705.566,-305.664,-609.375,19.531,0
1581447059.440,-995.117,-364.258,-651.367,3.418,0
1581447059.444,-957.031,-270.020,-556.641,5.371,0
1581447059.448,-969.238,-245.117,-528.320,8.789,0
1581447059.452,-973.633,-373.535,-645.508,-4.883,0
1581447059.456,-972.168,-422.363,-692.383,-4.883,0
1581447059.460,-972.168,-505.859,-762.695,0.488,0
1581447059.464,-972.168,-488.281,-750.977,0.977,0
1581447059.467,-972.168,-570.801,-805.176,-4.883,0
1581447059.471,-972.168,-684.570,-906.250,3.906,0
1581447059.475,-972.168,-387.207,-662.598,30.762,0
1581447059.479,-972.656,-454.590,-709.473,36.621,0
1581447059.483,-972.168,-487.793,-737.793,34.180,0
1581447059.485,-972.168,-306.641,-576.172,27.832,0
1581447059.489,-972.168,-303.223,-567.383,25.879,0
1581447059.493,-972.168,-437.988,-670.410,36.621,0
1581447059.497,-972.168,-462.402,-683.105,46.875,0
1581447059.501,-972.168,-333.008,-573.730,48.828,0
1581447059.505,-972.168,-434.082,-647.461,45.898,0
1581447059.509,-972.168,-608.887,-767.090,55.176,0
1581447059.512,-972.168,-730.957,-871.582,49.805,0
1581447059.516,-972.168,-478.027,-673.828,39.062,0
1581447059.520,-972.168,-270.508,-489.746,34.180,0
1581447059.524,-972.168,-426.758,-616.211,33.203,0
1581447059.528,-972.168,-500.000,-680.664,43.457,0
1581447059.530,-972.168,-362.793,-579.590,43.457,0
1581447059.534,-972.168,-244.141,-479.492,41.016,0
1581447059.538,-972.168,-395.508,-605.957,44.434,0
1581447059.542,-972.656,-471.191,-680.176,36.621,0
1581447059.546,-972.168,-356.445,-583.496,31.738,0
1581447059.550,-972.168,-385.254,-611.328,34.180,0
1581447059.554,-972.656,-660.156,-826.172,33.203,0
1581447059.557,-972.168,-666.504,-832.031,29.297,0
1581447059.561,-972.168,-331.055,-585.449,31.250,0
1581447059.565,-972.168,-275.879,-545.410,32.715,0
1581447059.569,-972.656,-331.543,-592.773,37.109,0
1581447059.573,-972.656,-382.812,-647.461,39.551,0
1581447059.589,-972.168,-291.504,-573.730,43.457,0
1581447059.593,-972.168,-312.500,-596.191,36.621,0
1581447059.597,-972.168,-417.480,-695.312,30.762,0
1581447059.601,-972.168,-371.094,-660.645,39.062,0
1581447059.605,-972.168,-296.875,-598.633,44.922,0
1581447059.609,-972.168,-433.105,-707.031,41.992,0
1581447059.613,-972.656,-658.691,-909.180,26.367,0
1581447059.616,-972.656,-468.750,-773.926,27.832,0
1581447059.620,-972.168,-329.590,-654.297,32.715,0
1581447059.624,-972.168,-375.488,-682.617,22.461,0
1581447059.628,-972.656,-348.145,-656.738,20.020,0
1581447059.632,-972.656,-302.246,-610.840,15.625,0
1581447059.634,-972.168,-356.445,-638.672,13.672,0
1581447059.638,-972.168,-406.250,-662.109,13.672,0
1581447059.642,-972.168,-394.531,-648.438,16.113,0
1581447059.646,-972.168,-331.055,-593.750,26.855,0
1581447059.650,-972.168,-421.875,-658.203,30.762,0
1581447059.654,-972.168,-589.355,-791.504,37.598,0
1581447059.658,-972.656,-595.215,-806.152,30.273,0
1581447059.661,-971.191,-424.805,-669.922,29.297,0
1581447059.665,-976.074,-299.316,-562.012,39.551,0
1581447059.669,-957.520,-583.984,-788.086,34.180,0
1581447059.673,-950.684,-649.902,-869.141,38.086,0
1581447059.677,-974.609,-316.895,-604.492,64.453,0
1581447059.679,-972.656,-348.633,-604.492,75.684,0
1581447059.683,-971.680,-507.812,-731.934,64.941,0
1581447059.687,-972.656,-450.195,-686.035,57.617,0
1581447059.691,-972.656,-371.094,-608.887,71.289,0
1581447059.695,-972.168,-526.367,-715.820,87.402,0
1581447059.699,-972.168,-688.477,-837.402,89.355,0
1581447059.703,-972.168,-646.484,-796.387,89.844,0
1581447059.706,-972.168,-531.738,-700.684,92.773,0
1581447059.710,-972.168,-653.809,-782.715,102.051,0
1581447059.714,-972.168,-842.285,-917.480,103.027,0
1581447059.718,-972.656,-593.262,-727.051,103.516,0
1581447059.722,-972.656,-373.535,-550.781,114.258,0
1581447059.724,-972.168,-487.305,-646.973,121.094,0
1581447059.728,-972.168,-558.594,-716.309,123.047,0
1581447059.732,-972.168,-457.031,-634.277,114.746,0
1581447059.736,-972.168,-392.578,-587.402,92.773,0
1581447059.740,-972.168,-459.961,-653.809,89.355,0
1581447059.744,-972.656,-625.977,-792.480,96.680,0
1581447059.748,-972.656,-705.566,-862.305,90.820,1
1581447059.751,-972.656,-580.078,-777.344,83.008,0
1581447059.755,-972.168,-695.312,-840.332,74.219,0
1581447059.759,-972.168,-693.359,-842.773,81.055,0
1581447059.763,-972.168,-486.816,-715.332,88.379,0
1581447059.767,-972.168,-577.637,-783.691,83.984,0
1581447059.769,-972.168,-495.117,-712.891,88.867,0
1581447059.773,-972.168,-442.871,-673.828,85.938,0
1581447059.777,-972.168,-446.777,-673.340,82.520,0
1581447059.781,-972.168,-529.297,-726.562,74.707,0
1581447059.785,-972.168,-559.570,-743.652,76.172,0
1581447059.789,-972.168,-537.598,-713.379,97.168,0
1581447059.793,-973.633,-582.031,-741.699,108.398,0
1581447059.796,-968.750,-649.414,-788.086,94.238,0
1581447059.800,-959.473,-774.902,-885.254,75.195,0
1581447059.804,-985.840,-487.793,-664.062,79.590,0
1581447059.808,-648.438,-334.961,-537.598,83.008,0
1581447059.812,-118.652,-503.906,-663.574,80.566,0
1581447059.814,166.016,-474.121,-634.766,77.148,0
1581447059.818,507.812,-395.508,-569.824,63.965,0
1581447059.822,812.988,-479.004,-639.648,58.594,0
1581447059.826,799.805,-524.902,-683.105,66.406,0
1581447059.830,523.438,-475.586,-642.578,69.824,0
1581447059.834,592.285,-475.586,-634.277,59.570,0
1581447059.838,938.477,-459.473,-638.184,52.734,0
1581447059.841,-991.211,-668.945,-792.969,60.059,0
1581447059.845,986.328,-747.559,-855.957,61.523,0
1581447059.849,997.070,-368.164,-579.590,56.641,0
1581447059.853,-999.512,-304.199,-513.184,52.734,0
1581447059.857,998.047,-435.059,-625.000,35.156,0
1581447059.859,992.676,-476.074,-676.270,26.367,0
1581447059.863,-987.305,-381.836,-598.633,19.531,0
1581447059.867,865.723,-416.992,-621.094,1.953,0
1581447059.871,677.246,-478.027,-658.691,1.953,0
1581447059.875,524.414,-545.898,-709.473,20.020,0
1581447059.879,367.676,-642.090,-783.203,47.852,0
1581447059.883,339.844,-705.078,-823.730,58.594,0
1581447059.886,234.375,-778.809,-889.160,60.547,0
1581447059.890,-155.762,-619.629,-765.137,63.965,0
1581447059.894,-592.285,-483.398,-636.719,68.359,0
1581447059.898,-821.289,-521.973,-657.227,64.453,0
1581447059.902,-957.031,-521.973,-665.527,51.758,0
1581447059.904,-972.656,-464.844,-619.629,54.199,0
1581447059.908,-969.238,-489.746,-637.207,44.434,0
1581447059.912,-973.633,-525.391,-665.039,28.809,0
1581447059.916,-972.656,-499.512,-645.508,30.762,0
1581447059.920,-974.121,-484.863,-629.883,28.320,0
1581447059.924,-966.797,-600.586,-725.098,34.180,0
1581447059.928,-963.867,-862.793,-913.086,38.086,0
1581447059.931,-965.332,-830.566,-871.582,51.758,0
1581447059.935,-623.535,-449.219,-571.777,72.754,0
1581447059.939,-19.043,-421.387,-541.504,73.730,0
1581447059.943,499.023,-541.504,-646.973,66.895,0
1581447059.947,839.355,-440.430,-574.707,44.434,0
1581447059.949,971.680,-324.707,-478.027,48.340,0
1581447059.953,998.535,-440.918,-568.359,66.895,0
1581447059.957,996.582,-607.422,-713.867,72.754,0
1581447059.961,-1000.000,-519.043,-652.344,78.125,0
1581447059.965,999.512,-383.301,-527.832,89.355,0
1581447059.969,999.512,-595.703,-688.965,96.191,0
1581447059.973,999.512,-887.207,-931.152,89.355,0
1581447059.976,999.512,-584.473,-687.500,80.078,0
1581447059.980,999.512,-353.516,-502.930,75.195,0
1581447059.984,999.512,-499.023,-620.117,66.895,0
1581447059.988,999.512,-605.957,-706.055,71.289,0
1581447059.992,999.512,-479.004,-602.051,104.004,0
1581447060.009,999.512,-341.797,-482.422,108.887,0
1581447060.013,999.512,-430.176,-553.223,97.656,0
1581447060.017,999.512,-497.070,-606.445,104.492,0
1581447060.021,999.512,-454.590,-576.172,109.863,0
1581447060.025,999.512,-387.207,-524.414,103.516,0
1581447060.029,999.512,-517.090,-627.930,97.656,0
1581447060.033,999.512,-658.203,-756.836,87.891,0
1581447060.036,999.512,-518.066,-646.973,77.148,0
1581447060.040,999.512,-429.688,-573.730,77.637,0
1581447060.044,999.512,-639.648,-755.371,93.750,0
1581447060.048,999.512,-653.320,-770.996,87.402,0
1581447060.052,-999.512,-451.660,-604.492,85.938,0
1581447060.055,987.793,-457.031,-607.422,81.543,0
1581447060.059,-987.305,-544.922,-685.059,67.383,0
1581447060.063,898.438,-539.062,-688.477,76.172,0
1581447060.067,532.715,-439.453,-595.703,79.102,0
1581447060.071,310.059,-485.352,-619.141,92.285,0
1581447060.075,275.391,-633.301,-744.629,90.332,0
1581447060.079,176.270,-661.621,-778.320,68.848,0
1581447060.082,-66.406,-517.578,-652.344,70.312,0
1581447060.086,-360.352,-589.355,-696.777,69.824,0
1581447060.090,-332.520,-796.875,-869.141,62.012,0
1581447060.094,-296.387,-557.129,-671.875,44.922,0
1581447060.098,-497.070,-444.336,-575.684,37.598,0
1581447060.100,-683.105,-572.266,-684.082,55.176,0
1581447060.104,-491.699,-525.879,-649.414,56.152,0
1581447060.108,-436.035,-439.453,-587.402,44.434,0
1581447060.112,-236.816,-497.559,-634.277,27.832,0
1581447060.116,667.480,-633.301,-743.652,15.625,0
1581447060.120,-956.543,-688.477,-797.363,25.879,0
1581447060.124,950.195,-661.133,-785.645,35.645,0
1581447060.127,-978.027,-492.676,-640.137,52.734,0
1581447060.131,816.406,-708.008,-778.809,56.641,0
1581447060.135,222.168,-840.820,-889.648,46.875,0
1581447060.139,-250.488,-481.445,-617.676,51.758,0
1581447060.143,-190.430,-483.887,-605.957,58.105,0
1581447060.145,477.051,-601.074,-697.266,63.965,0
1581447060.149,942.871,-481.445,-598.633,66.406,0
1581447060.153,991.699,-366.211,-510.254,68.359,0
1581447060.157,990.723,-458.496,-587.402,76.172,0
1581447060.161,-999.512,-568.848,-674.805,82.031,0
1581447060.165,999.512,-632.324,-722.168,83.496,0
1581447060.169,999.512,-552.246,-644.043,71.777,0
1581447060.172,999.512,-536.133,-613.770,59.082,0
1581447060.176,999.512,-783.691,-820.312,64.453,0
1581447060.180,999.512,-585.449,-649.902,76.660,0
1581447060.184,999.512,-367.188,-451.660,72.754,0
1581447060.188,999.512,-474.609,-547.363,55.664,0
1581447060.190,999.512,-551.270,-622.070,62.012,0
1581447060.194,999.512,-451.660,-531.250,82.031,0
1581447060.198,999.512,-396.484,-476.074,98.145,0
1581447060.202,999.512,-448.730,-524.902,101.562,0
1581447060.206,999.512,-435.547,-517.090,84.473,0
1581447060.210,999.512,-548.828,-619.141,82.520,0
1581447060.214,999.512,-625.977,-688.477,91.309,0
1581447060.217,999.512,-679.688,-738.770,70.801,0
1581447060.221,999.512,-659.180,-750.488,50.781,0
1581447060.225,999.512,-429.199,-581.543,53.223,0
1581447060.229,999.512,-569.336,-721.191,45.410,0
1581447060.233,999.512,-562.012,-742.676,45.410,0
1581447060.235,-998.535,-357.422,-580.078,57.617,0
1581447060.239,993.164,-327.148,-558.594,53.223,0
1581447060.243,973.633,-482.422,-696.289,35.156,0
1581447060.247,-976.074,-496.094,-699.707,28.320,0
1581447060.251,458.008,-364.258,-569.824,15.625,0
1581447060.255,-630.371,-518.555,-688.477,12.695,0
1581447060.259,-998.535,-720.703,-836.914,14.160,0
1581447060.262,-945.312,-834.473,-920.898,-18.555,0
1581447060.266,-970.703,-599.121,-732.422,-15.625,0
1581447060.270,-973.633,-418.945,-567.871,1.465,0
1581447060.274,-972.168,-616.699,-721.191,-6.348,0
1581447060.278,-972.168,-649.414,-749.023,-14.648,0
1581447060.280,-972.656,-561.035,-677.246,-22.461,0
1581447060.284,-972.168,-611.328,-718.262,-9.277,0
1581447060.288,-972.168,-670.898,-763.672,-3.418,0
1581447060.292,-972.168,-638.672,-727.539,-6.348,0
1581447060.296,-972.168,-454.590,-562.012,-9.766,0
1581447060.300,-972.656,-569.824,-668.457,-22.949,0
1581447060.304,-972.168,-880.859,-918.457,-24.902,0
1581447060.307,-972.168,-843.750,-884.277,-17.090,0
1581447060.311,-972.168,-551.758,-668.945,-17.090,0
1581447060.315,-972.168,-536.133,-659.668,-18.066,0
1581447060.319,-972.168,-607.422,-705.078,-4.883,0
1581447060.323,-972.168,-635.254,-716.309,17.578,0
1581447060.340,-972.168,-574.219,-656.738,23.926,0
1581447060.344,-972.656,-559.082,-626.953,18.555,0
1581447060.348,-972.168,-616.699,-660.645,20.508,0
1581447060.352,-972.168,-673.340,-692.383,27.344,0
1581447060.356,-972.168,-693.359,-702.637,29.785,0
1581447060.360,-972.168,-701.172,-706.055,22.461,0
1581447060.364,-972.168,-898.926,-890.625,6.836,0
1581447060.367,-972.168,-754.883,-773.926,17.578,0
1581447060.371,-972.656,-554.688,-584.473,33.691,0
1581447060.375,-972.168,-634.766,-652.832,44.434,0
1581447060.379,-972.168,-681.152,-703.613,59.082,0
1581447060.383,-972.168,-566.406,-615.234,55.176,0
1581447060.385,-972.168,-527.344,-577.637,61.035,0
1581447060.389,-972.168,-604.004,-643.066,70.312,0
1581447060.393,-972.168,-576.172,-629.883,69.824,0
1581447060.397,-972.168,-511.719,-588.379,64.941,0
1581447060.401,-972.168,-527.832,-602.539,55.664,0
1581447060.405,-972.168,-687.988,-748.047,41.504,0
1581447060.409,-972.168,-774.902,-843.262,30.273,0
1581447060.412,-972.168,-688.965,-781.738,35.645,0
1581447060.416,-972.168,-527.344,-658.203,50.293,0
1581447060.420,-972.168,-742.676,-809.570,41.016,0
1581447060.424,-972.168,-832.520,-903.320,23.438,0
1581447060.428,-972.168,-437.012,-626.465,33.691,0
1581447060.430,-972.168,-414.062,-596.191,53.711,0
1581447060.434,-972.168,-559.082,-720.703,53.711,0
1581447060.438,-972.168,-497.559,-679.688,66.406,0
1581447060.442,-972.656,-361.816,-568.848,81.055,0
1581447060.446,-972.656,-373.535,-565.918,83.008,0
1581447060.450,-972.168,-622.070,-774.414,78.613,0
1581447060.454,-972.168,-643.066,-804.199,59.570,0
1581447060.457,-972.168,-406.250,-609.863,51.758,0
1581447060.461,-972.168,-488.770,-663.086,48.340,0
1581447060.465,-972.168,-791.992,-896.484,44.434,0
1581447060.469,-972.168,-606.445,-739.258,48.828,0
1581447060.473,-972.168,-380.859,-541.504,50.781,0
1581447060.475,-972.168,-516.113,-649.414,55.664,0
1581447060.479,-972.656,-551.758,-664.551,62.500,0
1581447060.483,-972.656,-486.328,-607.422,51.270,0
1581447060.487,-972.168,-476.562,-606.445,41.992,0
1581447060.491,-973.633,-501.465,-620.117,33.691,0
1581447060.495,-969.727,-635.254,-730.957,23.926,0
1581447060.499,-957.031,-720.703,-809.570,32.715,0
1581447060.502,-988.770,-524.414,-663.086,41.016,0
1581447060.506,-679.199,-665.527,-782.715,36.621,0
1581447060.510,-49.805,-731.445,-837.891,49.316,0
1581447060.514,426.758,-421.387,-587.891,66.406,0
1581447060.518,712.402,-419.922,-573.730,67.871,0
1581447060.520,554.199,-500.977,-628.418,62.500,0
1581447060.524,-47.363,-480.957,-613.281,60.059,0
1581447060.528,-611.328,-459.473,-603.027,69.824,0
1581447060.532,-851.074,-534.180,-650.391,73.242,0
1581447060.536,-916.992,-525.391,-627.930,54.199,0
1581447060.540,-973.145,-564.453,-662.109,45.898,0
1581447060.544,-971.680,-623.047,-695.801,61.035,0
1581447060.547,-971.680,-745.605,-787.109,52.246,0
1581447060.551,-972.656,-871.094,-903.809,28.320,0
1581447060.555,-972.168,-609.863,-700.684,27.344,0
1581447060.559,-972.168,-445.801,-559.570,51.270,0
1581447060.563,-972.168,-578.613,-662.109,77.637,0
1581447060.564,-972.168,-611.328,-702.148,79.102,0
1581447060.568,-972.168,-466.309,-592.285,79.590,0
1581447060.572,-972.168,-455.078,-584.961,90.820,0
1581447060.576,-972.168,-579.590,-686.523,99.121,0
1581447060.580,-972.168,-644.043,-746.582,103.516,0
1581447060.584,-972.168,-604.492,-730.469,90.332,0
1581447060.588,-972.168,-612.793,-757.812,87.891,0
1581447060.591,-972.168,-835.938,-907.227,86.426,0
1581447060.595,-972.168,-807.129,-874.512,67.871,0
1581447060.599,-972.168,-354.492,-538.574,60.059,0
1581447060.603,-974.121,-344.238,-532.715,52.734,0
1581447060.607,-961.426,-516.602,-686.523,40.039,0
1581447060.609,-981.934,-444.824,-624.023,31.250,0
1581447060.613,-910.645,-301.270,-500.000,31.738,0
1581447060.617,-562.988,-326.660,-507.812,42.969,0
1581447060.621,-313.477,-453.125,-604.004,41.016,0
1581447060.625,-102.539,-446.777,-598.633,40.039,0
1581447060.629,155.762,-479.980,-621.582,41.016,0
1581447060.633,303.711,-610.352,-738.281,25.879,0
1581447060.636,227.539,-723.145,-839.844,22.949,0
1581447060.640,1.465,-557.617,-706.055,26.367,0
1581447060.644,-67.871,-373.047,-552.246,21.973,0
1581447060.648,-38.574,-411.621,-583.008,12.695,0
1581447060.652,27.832,-448.730,-616.211,26.855,0
1581447060.654,-289.062,-375.000,-548.828,56.152,0
1581447060.658,-830.078,-366.211,-537.109,45.410,0
1581447060.662,-983.398,-493.164,-657.715,17.090,0
1581447060.666,-958.496,-485.352,-660.645,2.441,0
1581447060.670,-972.656,-418.945,-599.121,22.949,0
1581447060.674,-977.051,-518.066,-685.547,30.273,0
1581447060.678,-952.637,-763.184,-869.629,8.789,0
1581447060.681,-964.844,-750.488,-877.930,12.207,0
1581447060.685,-923.340,-418.457,-630.859,25.879,0
1581447060.689,72.754,-526.855,-694.336,34.180,0
1581447060.693,-991.211,-586.914,-750.977,45.410,0
1581447060.697,984.863,-336.426,-538.086,45.410,0
1581447060.714,980.957,-259.277,-461.914,53.223,0
1581447060.718,-995.605,-406.738,-585.449,58.594,0
1581447060.722,999.512,-499.023,-666.992,51.270,0
1581447060.726,999.512,-340.332,-536.133,44.434,0
1581447060.730,999.512,-240.723,-446.777,35.156,0
1581447060.734,999.512,-502.441,-662.109,35.645,0
1581447060.738,999.512,-830.078,-933.594,37.109,0
1581447060.741,999.512,-557.617,-715.820,37.109,0
1581447060.745,999.512,-255.859,-459.473,49.316,0
1581447060.749,999.512,-456.055,-620.117,58.105,0
1581447060.753,999.512,-564.941,-717.285,53.711,0
1581447060.757,999.512,-378.906,-559.082,38.086,0
1581447060.759,999.512,-385.254,-556.152,40.039,0
1581447060.763,999.512,-519.531,-672.363,41.504,0
1581447060.767,999.512,-516.602,-677.734,22.949,0
1581447060.771,999.512,-420.898,-602.051,21.484,0
1581447060.775,999.512,-333.496,-529.785,20.996,0
1581447060.779,999.512,-442.871,-624.512,15.137,0
1581447060.783,999.512,-584.473,-753.418,14.160,0
1581447060.786,999.512,-431.152,-621.094,20.020,0
1581447060.790,999.512,-243.164,-446.289,32.715,2
1581447060.794,999.512,-491.211,-647.949,21.973,0
1581447060.798,999.512,-641.602,-791.992,20.996,0
1581447060.802,999.512,-388.184,-584.961,32.227,0
1581447060.804,999.512,-327.637,-519.531,27.344,0
1581447060.808,999.512,-367.676,-553.711,28.320,0
1581447060.812,999.512,-375.488,-565.430,24.414,0
1581447060.816,999.512,-435.547,-615.723,17.090,0
1581447060.820,999.512,-462.402,-637.207,15.625,0
1581447060.824,999.512,-517.578,-691.895,10.742,0
1581447060.828,999.512,-523.438,-698.730,13.184,0
1581447060.831,999.512,-395.020,-587.891,18.066,0
1581447060.835,-994.141,-435.059,-608.398,26.855,0
1581447060.839,949.707,-635.254,-780.273,39.551,0
1581447060.843,-930.176,-465.820,-656.738,51.758,0
1581447060.847,646.484,-314.453,-513.184,62.500,0
1581447060.849,-628.906,-462.402,-634.277,48.340,0
1581447060.853,-1000.000,-530.762,-712.402,38.086,0
1581447060.857,-929.199,-383.301,-588.867,59.570,0
1581447060.861,-978.516,-379.883,-574.707,74.707,0
1581447060.865,-964.355,-518.066,-691.895,63.477,0
1581447060.869,-949.219,-622.070,-781.250,41.016,0
1581447060.873,-1000.000,-696.777,-856.934,39.551,0
1581447060.876,-314.453,-497.559,-680.176,47.852,0
1581447060.880,172.852,-627.441,-760.742,40.039,0
1581447060.884,-637.695,-708.008,-845.215,34.668,0
1581447060.888,-1000.000,-367.676,-597.168,36.133,0
1581447060.892,-936.035,-381.836,-604.492,49.316,0
1581447060.894,-771.973,-491.211,-688.965,59.570,0
1581447060.898,-446.289,-409.668,-618.652,57.617,0
1581447060.902,437.988,-273.438,-503.906,51.270,0
1581447060.906,-949.219,-334.961,-552.246,45.898,0
1581447060.910,972.168,-507.812,-698.730,52.246,0
1581447060.914,993.164,-521.973,-708.008,62.500,0
1581447060.918,-998.535,-478.516,-671.387,63.965,0
1581447060.921,999.512,-552.734,-736.328,64.453,0
1581447060.925,999.512,-684.570,-839.844,59.082,0
1581447060.929,999.512,-572.266,-757.812,63.477,0
1581447060.933,999.512,-294.922,-515.137,70.801,0
1581447060.937,999.512,-301.758,-509.766,65.918,0
1581447060.939,999.512,-374.512,-574.219,64.453,0
1581447060.943,999.512,-320.312,-523.438,65.430,0
1581447060.947,999.512,-299.805,-505.859,62.500,0
1581447060.951,999.512,-351.074,-547.852,52.734,0
1581447060.955,999.512,-438.965,-625.488,42.969,0
1581447060.959,999.512,-485.840,-663.574,46.875,0
1581447060.963,999.512,-541.992,-710.449,43.457,0
1581447060.966,999.512,-655.762,-807.129,27.344,0
1581447060.970,999.512,-580.566,-746.094,24.902,0
1581447060.974,999.512,-320.312,-527.344,34.180,0
1581447060.978,999.512,-318.359,-518.555,32.227,0
1581447060.982,999.512,-440.430,-616.699,17.090,0
1581447060.985,999.512,-445.801,-619.629,21.973,0
1581447060.989,999.512,-257.812,-446.289,34.180,0
1581447060.993,999.512,-312.988,-482.422,29.785,0
1581447060.997,999.512,-388.672,-553.223,28.320,0
1581447061.001,999.512,-273.438,-466.797,25.879,0
1581447061.005,999.512,-335.449,-518.066,35.156,0
1581447061.009,999.512,-540.039,-688.965,38.574,0
1581447061.012,999.512,-657.227,-793.945,37.109,0
1581447061.016,999.512,-396.484,-569.824,38.574,0
1581447061.020,999.512,-248.047,-425.781,47.852,0
1581447061.024,999.512,-455.078,-588.867,61.523,0
1581447061.028,999.512,-523.926,-646.973,66.406,0
1581447061.030,999.512,-348.145,-497.559,66.406,0
1581447061.034,999.512,-286.133,-443.848,63.477,0
1581447061.038,999.512,-481.934,-615.723,65.430,0
1581447061.042,999.512,-594.238,-727.051,69.336,0
1581447061.046,999.512,-423.828,-589.355,65.918,0
1581447061.050,999.512,-402.832,-579.590,54.688,0
1581447061.054,999.512,-711.914,-821.777,52.246,0
1581447061.057,999.512,-771.484,-877.930,50.781,0
1581447061.061,999.512,-397.461,-605.469,44.434,0
1581447061.065,999.512,-267.578,-498.535,34.668,0
1581447061.069,999.512,-353.027,-586.914,41.992,0
1581447061.073,999.512,-371.094,-620.117,47.363,0
1581447061.075,999.512,-284.180,-564.453,37.598,0
1581447061.079,999.512,-298.340,-597.168,40.039,0
1581447061.083,-1000.000,-375.977,-675.293,44.922,0
1581447061.087,999.512,-354.004,-658.691,46.387,0
1581447061.091,980.957,-351.562,-653.809,52.734,0
1581447061.095,-993.164,-478.027,-743.652,53.223,0
1581447061.099,798.828,-664.551,-880.371,35.645,0
1581447061.102,-12.207,-546.387,-779.297,31.738,0
1581447061.106,-777.832,-363.770,-601.562,38.574,0
1581447061.110,-969.727,-433.594,-633.789,25.879,0
1581447061.114,-958.008,-487.793,-686.523,-2.441,0
1581447061.118,-971.191,-403.320,-610.840,-8.301,0
1581447061.135,-973.633,-381.348,-563.477,-1.953,0
1581447061.139,-972.656,-506.836,-666.016,-10.254,0
1581447061.143,-972.168,-474.609,-640.625,-8.789,0
1581447061.147,-972.168,-397.949,-580.566,-9.277,0
1581447061.151,-972.168,-479.004,-652.344,4.883,0
1581447061.155,-972.168,-615.234,-763.184,5.859,0
1581447061.159,-972.168,-668.945,-818.848,-12.695,0
1581447061.162,-972.168,-481.445,-672.363,-1.953,0
1581447061.166,-972.656,-460.449,-647.949,22.461,0
1581447061.170,-972.168,-758.789,-885.254,36.621,0
1581447061.174,-972.168,-704.590,-864.746,32.227,0
1581447061.178,-972.656,-348.145,-575.684,20.996,0
1581447061.180,-972.656,-385.742,-587.891,25.879,0
1581447061.184,-972.168,-549.805,-720.215,24.902,0
1581447061.188,-972.168,-501.465,-684.570,12.207,0
1581447061.192,-972.168,-429.688,-624.023,-1.953,0
1581447061.196,-972.168,-478.027,-641.113,-12.695,0
1581447061.200,-972.168,-703.125,-812.988,-28.809,0
1581447061.204,-972.168,-703.125,-808.105,-39.062,0
1581447061.207,-972.656,-380.371,-536.133,-34.668,0
1581447061.211,-972.656,-457.031,-603.027,-38.574,0
1581447061.215,-972.168,-830.078,-904.785,-44.922,0
1581447061.219,-972.168,-599.121,-717.773,-37.109,0
1581447061.223,-972.656,-456.543,-615.723,-33.691,0
1581447061.225,-972.656,-609.863,-753.906,-34.668,0
1581447061.229,-972.168,-612.793,-767.578,-29.785,0
1581447061.233,-972.168,-494.141,-672.363,-24.902,0
1581447061.237,-972.656,-405.762,-605.957,-26.367,0
1581447061.241,-972.168,-530.762,-723.145,-38.086,0
1581447061.245,-972.168,-637.207,-812.012,-44.434,0
1581447061.249,-972.168,-629.395,-812.988,-57.129,0
1581447061.252,-972.168,-528.320,-768.555,-58.594,0
1581447061.256,-972.168,-659.668,-837.891,-67.383,0
1581447061.260,-972.168,-748.535,-896.484,-54.688,0
1581447061.264,-972.168,-454.590,-723.633,-7.324,0
1581447061.268,-972.168,-402.832,-684.082,0.977,0
1581447061.269,-972.168,-461.426,-747.559,-0.977,0
1581447061.273,-972.168,-441.406,-752.441,-6.348,0
1581447061.277,-972.168,-481.445,-792.480,-13.184,0
1581447061.281,-972.656,-564.941,-860.840,-8.301,0
1581447061.285,-972.656,-474.121,-777.832,-14.648,0
1581447061.289,-972.168,-490.234,-789.062,-8.789,0
1581447061.293,-972.168,-527.832,-830.078,1.465,0
1581447061.296,-972.656,-521.484,-822.266,-2.441,0
1581447061.300,-972.168,-666.992,-921.875,0.000,0
1581447061.304,-972.168,-480.469,-793.457,11.719,0
1581447061.308,-972.656,-341.309,-675.781,27.832,0
1581447061.312,-972.656,-512.695,-780.762,34.180,0
1581447061.314,-972.168,-511.719,-761.719,48.340,0
1581447061.318,-972.168,-319.336,-584.961,66.406,0
1581447061.322,-972.656,-308.105,-561.523,71.289,0
