,timestamps,TP9,AF7,AF8,TP10,Right AUX,Marker0
0,1581350653.68,24.902,36.133,159.18,16.113,0.0,0
1,1581350653.684,6.348,41.992,291.016,8.789,0.0,0
2,1581350653.688,15.137,24.902,196.777,21.973000000000006,0.0,0
3,1581350653.6920002,40.039,22.949,35.156,18.066,0.0,0
4,1581350653.696,48.34,32.227,128.418,16.602,0.0,0
5,1581350653.7,40.039,20.508000000000006,106.445,32.715,0.0,0
6,1581350653.704,-6.836,22.461,62.5,21.484,0.0,0
7,1581350653.707,19.043,-3.418,-73.73,26.855,0.0,0
8,1581350653.711,60.547,-1.465,-169.43400000000003,36.133,0.0,0
9,1581350653.715,36.621,41.504,191.406,34.668,0.0,0
10,1581350653.719,48.828,24.414,251.953,43.945,0.0,0
11,1581350653.7229998,43.945,32.227,110.352,30.273000000000003,0.0,0
12,1581350653.725,32.227,39.551,137.695,5.859,0.0,0
13,1581350653.729,40.039,28.809,210.938,16.602,0.0,0
14,1581350653.7329998,35.645,19.043,118.652,19.531,0.0,0
15,1581350653.7370002,37.109,3.906,31.738000000000003,9.277,0.0,0
16,1581350653.7410002,45.41,27.344,103.516,19.043,0.0,0
17,1581350653.745,39.551,43.457,84.473,19.531,0.0,0
18,1581350653.7489998,52.734,29.785,-39.062,27.344,0.0,0
19,1581350653.752,54.199,16.113,-268.555,38.574,0.0,0
20,1581350653.756,35.156,53.71100000000001,-136.719,20.02,0.0,0
21,1581350653.76,64.941,79.59,214.355,27.344,0.0,0
22,1581350653.764,76.66,43.945,116.699,53.71100000000001,0.0,0
23,1581350653.768,80.078,31.738000000000003,-32.227,48.828,0.0,0
24,1581350653.77,68.848,53.71100000000001,99.121,29.785,0.0,0
25,1581350653.774,74.219,56.152,158.203,31.738000000000003,0.0,0
26,1581350653.778,68.359,39.062,55.664,24.902,0.0,0
27,1581350653.782,53.71100000000001,35.156,15.137,31.738000000000003,0.0,0
28,1581350653.786,62.5,37.109,82.031,28.809,0.0,0
29,1581350653.79,74.707,23.926,27.832,21.973000000000006,0.0,0
30,1581350653.794,46.875,6.836,-143.066,25.879,0.0,0
31,1581350653.7970002,22.949,20.02,-182.617,18.555,0.0,0
32,1581350653.801,24.414,46.875,-26.367,5.859,0.0,0
33,1581350653.805,54.688,35.645,27.832,1.953,0.0,0
34,1581350653.809,62.5,42.969,136.719,3.418,0.0,0
35,1581350653.813,48.34,38.086,139.16,13.184,0.0,0
36,1581350653.815,40.039,32.715,67.383,23.926,0.0,0
37,1581350653.819,30.273000000000003,30.762,87.891,24.414,0.0,0
38,1581350653.823,26.367,23.438,92.773,20.508000000000006,0.0,0
39,1581350653.827,20.02,29.297,103.027,5.859,0.0,0
40,1581350653.831,32.227,26.367,88.37899999999998,8.301,0.0,0
41,1581350653.835,37.598,11.719,-102.051,26.367,0.0,0
42,1581350653.839,29.297,2.93,-311.523,28.32,0.0,0
43,1581350653.842,35.156,19.531,-206.055,25.879,0.0,0
44,1581350653.846,56.152,33.691,-33.691,20.508000000000006,0.0,0
45,1581350653.85,41.992,21.484,-84.961,32.227,0.0,0
46,1581350653.854,40.039,8.789,-164.551,21.484,0.0,0
47,1581350653.8579998,34.668,24.902,-196.289,11.719,0.0,0
48,1581350653.875,17.09,29.785,-185.547,27.344,0.0,0
49,1581350653.879,35.645,10.254,-223.633,33.203,0.0,0
50,1581350653.883,42.48,15.625,-278.809,31.738000000000003,0.0,0
51,1581350653.887,30.762,34.18,-178.22299999999996,28.809,0.0,0
52,1581350653.891,34.18,28.809,-124.023,33.691,0.0,0
53,1581350653.895,41.01600000000001,3.906,-342.773,40.039,0.0,0
54,1581350653.899,29.297,0.0,-483.398,39.062,0.0,0
55,1581350653.9020002,55.176,18.066,-351.5619999999999,33.691,0.0,0
56,1581350653.906,71.289,27.344,-169.922,24.902,0.0,0
57,1581350653.91,67.383,-9.277,-429.199,28.32,0.0,0
58,1581350653.914,54.199,-0.977,-626.465,22.461,0.0,0
59,1581350653.918,40.527,37.598,-349.121,23.926,0.0,0
60,1581350653.92,28.809,30.762,-256.348,16.602,0.0,0
61,1581350653.924,41.504,20.996,-316.406,14.648,0.0,0
62,1581350653.928,45.898,18.555,-391.602,31.25,0.0,0
63,1581350653.9320002,45.898,31.25,-367.1880000000001,29.297,0.0,0
64,1581350653.936,51.758,28.32,-302.7340000000001,27.832,0.0,0
65,1581350653.94,22.461,0.977,-439.453,14.16,0.0,0
66,1581350653.944,-4.883,-2.93,-618.164,-4.883,0.0,0
67,1581350653.947,0.977,23.926,-504.395,-6.836,0.0,0
68,1581350653.951,19.531,14.648,-416.992,0.488,0.0,0
69,1581350653.955,-12.207,-10.254,-653.809,-25.879,0.0,0
70,1581350653.959,-41.504,20.02,-675.293,-49.316,0.0,0
71,1581350653.9629998,-23.438,33.691,-495.117,-55.664,0.0,0
72,1581350653.965,-16.113,16.602,-576.172,-65.43,0.0,0
73,1581350653.969,-48.34,16.113,-598.145,-80.566,0.0,0
74,1581350653.9729998,-92.285,13.672,-560.059,-102.051,0.0,0
75,1581350653.9770002,-124.512,14.648,-556.641,-131.34799999999998,0.0,0
76,1581350653.981,-144.043,9.277,-562.5,-158.691,0.0,0
77,1581350653.985,-158.691,-4.395,-677.2460000000002,-171.875,0.0,0
78,1581350653.9889998,-181.641,-6.348,-762.695,-181.152,0.0,0
79,1581350653.992,-197.754,8.789,-776.367,-202.148,0.0,0
80,1581350653.996,-192.383,-2.93,-876.465,-196.289,0.0,0
81,1581350654.0,-201.66,4.395,-843.75,-222.168,0.0,0
82,1581350654.004,-194.336,41.504,-553.2230000000002,-222.168,0.0,0
83,1581350654.008,-181.641,26.855,-494.629,-170.41,0.0,0
84,1581350654.01,-185.05900000000003,19.531,-542.48,-158.691,0.0,0
85,1581350654.014,-164.062,27.832,-520.508,-143.066,0.0,0
86,1581350654.018,-142.578,25.391,-419.434,-146.484,0.0,0
87,1581350654.022,-110.84,5.859,-402.832,-132.32399999999998,0.0,0
88,1581350654.026,-79.59,-9.766,-494.141,-90.332,0.0,0
89,1581350654.03,-55.664,-7.324,-569.8240000000002,-59.082,0.0,0
90,1581350654.034,-51.27,7.324,-540.039,-36.621,0.0,0
91,1581350654.0370002,-26.367,9.277,-483.398,-19.043,0.0,0
92,1581350654.041,1.465,0.977,-621.094,-3.906,0.0,0
93,1581350654.045,-6.348,28.809,-521.9730000000002,-41.504,0.0,0
94,1581350654.049,-4.883,47.852,-238.281,-23.926,0.0,0
95,1581350654.053,28.809,37.109,-257.324,45.41,0.0,0
96,1581350654.055,49.805,30.762,-316.895,77.637,0.0,0
97,1581350654.059,56.64100000000001,46.387,-210.938,85.449,0.0,0
98,1581350654.063,63.965,43.457,-130.859,81.543,0.0,0
99,1581350654.0670002,63.965,23.438,-203.125,71.289,0.0,0
100,1581350654.071,63.965,19.043,-261.719,82.031,0.0,0
101,1581350654.075,75.195,21.484,-268.066,75.195,0.0,0
102,1581350654.079,91.309,36.621,-226.074,71.777,0.0,0
103,1581350654.082,91.797,13.672,-325.684,89.844,0.0,0
104,1581350654.086,79.59,9.766,-418.457,71.777,0.0,0
105,1581350654.09,64.941,51.27,-156.738,76.66,0.0,0
106,1581350654.094,94.727,32.715,-49.316,100.586,0.0,0
107,1581350654.0979998,112.305,14.16,-133.789,78.613,0.0,0
108,1581350654.1,99.609,25.879,-123.535,89.844,0.0,0
109,1581350654.104,92.773,32.715,-45.898,122.559,0.0,0
110,1581350654.1079998,89.355,29.297,-76.172,95.703,0.0,0
111,1581350654.1120002,93.75,25.879,-145.50799999999995,85.449,0.0,0
112,1581350654.1160002,84.961,28.809,-141.602,94.238,0.0,0
113,1581350654.12,78.125,19.043,-209.473,91.309,0.0,0
114,1581350654.1239998,92.773,8.301,-314.453,93.75,0.0,0
115,1581350654.127,108.887,8.301,-410.645,62.988,0.0,0
116,1581350654.131,74.707,31.738000000000003,-241.211,39.062,0.0,0
117,1581350654.135,60.547,35.645,-69.336,72.75399999999998,0.0,0
118,1581350654.139,84.473,24.902,-175.293,76.66,0.0,0
119,1581350654.143,83.49600000000002,26.855,-164.551,65.43,0.0,0
120,1581350654.146,81.543,33.691,-81.055,77.637,0.0,0
121,1581350654.15,70.801,25.879,-120.117,78.613,0.0,0
122,1581350654.154,71.777,4.395,-303.223,65.43,0.0,0
123,1581350654.158,83.49600000000002,17.09,-293.945,56.64100000000001,0.0,0
124,1581350654.1620002,79.59,35.156,-181.641,59.57,0.0,0
125,1581350654.166,76.172,27.344,-299.805,67.383,0.0,0
126,1581350654.17,86.914,-6.836,-604.004,50.293,0.0,0
127,1581350654.173,83.49600000000002,-5.859,-749.512,49.316,0.0,0
128,1581350654.177,61.035,29.785,-510.742,55.664,0.0,0
129,1581350654.181,49.316,21.484,-429.6880000000001,57.129,0.0,0
130,1581350654.185,57.617,12.207,-627.93,51.27,0.0,0
131,1581350654.189,58.105,23.926,-678.711,52.246,0.0,0
132,1581350654.191,69.824,31.25,-601.0740000000002,44.922,0.0,0
133,1581350654.195,59.57,21.973000000000006,-634.2769999999998,25.391,0.0,0
134,1581350654.199,51.27,12.695,-785.645,51.27,0.0,0
135,1581350654.2029998,61.523,22.461,-861.328,60.547,0.0,0
136,1581350654.207,40.527,19.043,-872.559,44.922,0.0,0
137,1581350654.211,59.082,-8.789,-966.797,70.312,0.0,0
138,1581350654.215,84.961,-3.418,-976.074,77.148,0.0,0
139,1581350654.218,71.777,28.32,-953.125,58.105,0.0,0
140,1581350654.222,73.73,50.78100000000001,-883.301,60.059,0.0,0
141,1581350654.226,87.402,43.457,-875.0,76.172,0.0,0
142,1581350654.23,64.941,20.508000000000006,-964.355,57.617,0.0,0
143,1581350654.234,46.387,22.949,-977.051,15.137,0.0,0
144,1581350654.2510002,43.457,19.043,-968.75,29.297,0.0,0
145,1581350654.255,67.87100000000001,16.602,-973.633,90.82,0.0,0
146,1581350654.2589998,70.312,12.207,-972.656,92.285,0.0,0
147,1581350654.2629998,53.71100000000001,14.648,-972.656,72.75399999999998,0.0,0
148,1581350654.2670002,60.547,22.949,-972.168,45.898,0.0,0
149,1581350654.271,61.035,-3.906,-972.656,29.297,0.0,0
150,1581350654.275,49.805,-1.465,-972.168,54.199,0.0,0
151,1581350654.278,42.48,25.879,-972.168,60.059,0.0,0
152,1581350654.282,62.012,24.902,-972.168,46.387,0.0,0
153,1581350654.286,57.617,36.621,-972.168,29.297,0.0,0
154,1581350654.29,40.039,41.992,-972.656,20.508000000000006,0.0,0
155,1581350654.294,41.504,47.363,-972.656,39.062,0.0,0
156,1581350654.296,60.547,35.645,-972.168,65.43,0.0,0
157,1581350654.3,36.621,27.832,-972.168,67.383,0.0,0
158,1581350654.304,37.109,30.762,-972.168,60.059,0.0,0
159,1581350654.3079998,60.547,33.203,-972.168,51.758,0.0,0
160,1581350654.312,57.617,31.25,-972.656,38.086,0.0,0
161,1581350654.316,73.242,18.066,-972.168,52.734,0.0,0
162,1581350654.32,61.035,20.996,-972.168,53.223,0.0,0
163,1581350654.323,53.71100000000001,41.504,-972.168,53.71100000000001,0.0,0
164,1581350654.327,46.387,32.715,-972.656,63.965,0.0,0
165,1581350654.331,43.457,12.695,-972.168,51.27,0.0,0
166,1581350654.335,52.246,32.715,-973.145,27.344,0.0,0
167,1581350654.339,49.316,44.922,-971.191,20.996,0.0,0
168,1581350654.341,40.039,34.18,-961.914,20.508000000000006,0.0,0
169,1581350654.345,43.457,22.461,-979.492,23.926,0.0,0
170,1581350654.349,46.387,51.27,-924.316,24.414,0.0,0
171,1581350654.353,25.391,58.105,-857.422,24.902,0.0,0
172,1581350654.357,41.992,26.367,-926.27,35.156,0.0,0
173,1581350654.361,50.78100000000001,20.02,-972.656,34.18,0.0,0
174,1581350654.365,13.184,33.203,-987.305,-0.488,0.0,0
175,1581350654.3679998,8.301,54.199,-890.625,-11.719,0.0,0
176,1581350654.3720002,19.043,24.902,-872.07,-5.371,0.0,0
177,1581350654.3760002,23.926,24.902,-968.75,2.93,0.0,0
178,1581350654.38,15.137,75.684,-805.664,-13.672,0.0,0
179,1581350654.3839998,-5.371,58.105,-690.43,-29.297,0.0,0
180,1581350654.387,-17.578,51.758,-743.164,-0.488,0.0,0
181,1581350654.391,15.137,46.875,-827.637,8.301,0.0,0
182,1581350654.395,51.758,42.969,-865.2339999999998,16.602,0.0,0
183,1581350654.399,47.852,57.617,-735.84,14.648,0.0,0
184,1581350654.403,36.621,38.574,-693.3589999999998,-7.812,0.0,0
185,1581350654.407,34.668,9.766,-828.613,-12.695,0.0,0
186,1581350654.411,13.672,20.508000000000006,-885.2539999999998,18.066,0.0,0
187,1581350654.414,12.207,46.875,-711.426,14.648,0.0,0
188,1581350654.418,36.133,35.645,-820.312,8.301,0.0,0
189,1581350654.4220002,27.832,60.059,-815.918,6.348,0.0,0
190,1581350654.426,20.508000000000006,70.801,-618.6519999999998,5.859,0.0,0
191,1581350654.43,32.715,39.551,-676.27,26.367,0.0,0
192,1581350654.431,38.086,36.621,-705.566,28.32,0.0,0
193,1581350654.435,41.504,51.758,-569.8240000000002,13.672,0.0,0
194,1581350654.439,43.457,39.551,-571.7769999999998,18.066,0.0,0
195,1581350654.4429998,35.156,35.645,-633.3009999999998,33.691,0.0,0
196,1581350654.447,35.645,39.062,-638.672,12.207,0.0,0
197,1581350654.451,41.504,33.203,-713.3789999999998,4.883,0.0,0
198,1581350654.455,42.969,37.598,-687.5,21.973000000000006,0.0,0
199,1581350654.458,47.852,20.02,-759.7660000000002,28.32,0.0,0
200,1581350654.462,49.805,18.555,-824.2189999999998,28.32,0.0,0
201,1581350654.466,20.996,55.176,-522.461,14.648,0.0,0
202,1581350654.47,25.391,43.945,-426.27,20.02,0.0,0
203,1581350654.474,23.926,39.062,-533.691,34.668,0.0,0
204,1581350654.476,3.418,52.246,-509.766,22.949,0.0,0
205,1581350654.48,20.02,54.199,-407.227,11.23,0.0,0
206,1581350654.484,45.41,41.992,-415.527,14.648,0.0,0
207,1581350654.488,47.363,35.156,-547.852,30.273000000000003,0.0,0
208,1581350654.492,49.805,45.41,-463.867,39.062,0.0,0
209,1581350654.496,63.477,38.086,-417.969,38.086,0.0,0
210,1581350654.5,61.035,36.621,-545.41,35.645,0.0,0
211,1581350654.5029998,47.852,29.785,-691.895,43.457,0.0,0
212,1581350654.5070002,40.527,49.316,-588.867,26.367,0.0,0
213,1581350654.5110002,37.598,72.75399999999998,-363.77,13.672,0.0,0
214,1581350654.515,41.992,59.57,-387.695,26.367,0.0,0
215,1581350654.519,35.645,53.71100000000001,-394.043,26.367,0.0,0
216,1581350654.521,33.203,56.152,-341.797,13.184,0.0,0
217,1581350654.525,42.48,50.78100000000001,-299.316,19.531,0.0,0
218,1581350654.529,45.41,41.01600000000001,-328.125,32.227,0.0,0
219,1581350654.533,40.039,36.133,-349.6090000000001,20.02,0.0,0
220,1581350654.5370002,26.367,40.039,-328.125,28.809,0.0,0
221,1581350654.541,27.344,41.01600000000001,-326.172,38.574,0.0,0
222,1581350654.545,42.48,13.672,-520.02,28.32,0.0,0
223,1581350654.548,39.062,8.301,-663.086,28.809,0.0,0
224,1581350654.552,32.227,38.574,-421.875,14.648,0.0,0
225,1581350654.556,41.992,41.01600000000001,-273.438,21.973000000000006,0.0,0
226,1581350654.56,43.457,44.922,-313.965,21.973000000000006,0.0,0
227,1581350654.564,40.039,54.199,-321.777,10.254,0.0,0
228,1581350654.566,61.035,57.617,-251.465,36.133,0.0,0
229,1581350654.57,18.066,47.363,-238.281,25.879,0.0,0
230,1581350654.574,-9.766,40.039,-263.672,2.441,0.0,0
231,1581350654.5779998,7.324,31.25,-348.6330000000001,-11.23,0.0,0
232,1581350654.582,-22.949,18.555,-406.73800000000006,-9.277,0.0,0
233,1581350654.586,2.441,7.812,-470.703,7.324,0.0,0
234,1581350654.59,20.996,-4.395,-700.195,-1.465,0.0,0
235,1581350654.593,-1.465,28.32,-510.254,-14.648,0.0,0
236,1581350654.597,-8.789,44.434,-224.609,-9.766,0.0,0
237,1581350654.601,-3.418,5.859,-354.98,-5.859,0.0,0
238,1581350654.605,16.602,10.742,-423.828,-1.953,0.0,0
239,1581350654.609,24.902,39.062,-278.809,6.348,0.0,0
240,1581350654.6260002,19.531,27.344,-237.793,6.348,0.0,0
241,1581350654.63,29.297,13.184,-424.316,13.672,0.0,0
242,1581350654.6339998,41.504,31.25,-472.168,17.578,0.0,0
243,1581350654.6379998,8.789,59.082,-340.82,-7.812,0.0,0
244,1581350654.6420002,-18.555,56.152,-269.531,-20.02,0.0,0
245,1581350654.646,25.391,2.441,-521.9730000000002,12.695,0.0,0
246,1581350654.65,43.457,-5.859,-695.801,10.742,0.0,0
247,1581350654.653,45.898,43.945,-441.406,6.836,0.0,0
248,1581350654.657,36.133,47.363,-318.848,-6.836,0.0,0
249,1581350654.661,22.949,23.926,-476.562,0.488,0.0,0
250,1581350654.665,27.344,23.926,-519.531,33.203,0.0,0
251,1581350654.669,35.156,45.41,-359.86300000000006,30.762,0.0,0
252,1581350654.671,47.852,41.992,-406.25,24.414,0.0,0
253,1581350654.675,41.992,37.598,-514.648,19.531,0.0,0
254,1581350654.679,27.832,55.176,-488.77,22.461,0.0,0
255,1581350654.6829998,37.109,66.406,-374.023,20.996,0.0,0
256,1581350654.687,46.387,41.992,-440.43,17.09,0.0,0
257,1581350654.691,37.598,25.391,-542.969,16.113,0.0,0
258,1581350654.695,34.668,34.18,-580.078,28.809,0.0,0
259,1581350654.698,32.715,54.688,-421.387,20.02,0.0,0
260,1581350654.702,34.668,42.48,-298.828,20.996,0.0,0
261,1581350654.706,41.992,19.531,-564.453,33.691,0.0,0
262,1581350654.71,29.785,37.598,-552.734,12.207,0.0,0
263,1581350654.714,24.414,45.898,-313.965,7.324,0.0,0
264,1581350654.717,34.18,22.461,-350.586,26.367,0.0,0
265,1581350654.721,25.879,19.043,-391.602,20.996,0.0,0
266,1581350654.725,20.508000000000006,32.715,-292.48,19.043,0.0,0
267,1581350654.729,24.414,26.855,-256.348,33.203,0.0,0
268,1581350654.7329998,26.367,28.32,-339.355,31.25,0.0,0
269,1581350654.7370002,31.25,27.832,-434.082,29.297,0.0,0
270,1581350654.7410002,24.902,33.691,-422.852,22.461,0.0,0
271,1581350654.744,22.949,36.133,-422.852,29.297,0.0,0
272,1581350654.748,20.996,15.137,-538.5740000000002,27.832,0.0,0
273,1581350654.752,31.25,13.184,-533.691,19.043,0.0,0
274,1581350654.756,36.621,42.969,-253.418,30.273000000000003,0.0,0
275,1581350654.76,33.203,31.738000000000003,-185.547,39.551,0.0,0
276,1581350654.76,31.738000000000003,27.344,-244.629,24.414,0.0,0
277,1581350654.764,52.246,54.688,-182.617,23.926,0.0,0
278,1581350654.768,38.086,56.64100000000001,-105.469,26.855,0.0,0
279,1581350654.772,-6.348,35.645,-120.117,22.461,0.0,0
280,1581350654.776,39.551,17.09,-202.637,34.668,0.0,0
281,1581350654.78,56.64100000000001,5.859,-290.039,26.855,0.0,0
282,1581350654.784,23.926,23.438,-319.336,16.602,0.0,0
283,1581350654.7870002,39.062,37.109,-259.766,33.203,0.0,0
284,1581350654.791,85.449,8.789,-454.59,61.523,0.0,0
285,1581350654.795,52.734,33.691,-352.051,53.71100000000001,0.0,0
286,1581350654.799,33.203,46.875,-134.27700000000002,19.043,0.0,0
287,1581350654.803,34.668,33.203,-235.84,29.297,0.0,0
288,1581350654.805,11.23,37.109,-239.258,19.531,0.0,0
289,1581350654.809,16.113,71.777,-134.766,-5.371,0.0,0
290,1581350654.813,14.16,84.473,-48.828,-1.465,0.0,0
291,1581350654.8170002,4.883,62.988,-154.785,18.066,0.0,0
292,1581350654.821,10.742,50.78100000000001,-273.926,29.785,0.0,0
293,1581350654.825,23.438,31.738000000000003,-370.605,34.668,0.0,0
294,1581350654.829,20.996,45.898,-372.07,44.434,0.0,0
295,1581350654.832,27.344,46.387,-436.523,31.738000000000003,0.0,0
296,1581350654.836,28.809,44.922,-576.172,33.203,0.0,0
297,1581350654.84,23.438,83.984,-348.145,31.25,0.0,0
298,1581350654.844,37.598,77.148,-261.23,32.715,0.0,0
299,1581350654.8479998,20.02,80.566,-297.8520000000001,24.414,0.0,0
300,1581350654.85,4.883,81.543,-341.797,32.227,0.0,0
301,1581350654.854,28.32,84.473,-337.402,33.203,0.0,0
302,1581350654.8579998,40.039,82.031,-247.55900000000003,4.883,0.0,0
303,1581350654.8620002,39.062,67.87100000000001,-289.062,17.09,0.0,0
304,1581350654.8660002,21.973000000000006,64.941,-292.48,29.297,0.0,0
305,1581350654.87,11.719,53.223,-363.77,18.066,0.0,0
306,1581350654.8739998,43.457,57.617,-493.164,29.297,0.0,0
307,1581350654.877,61.523,67.87100000000001,-563.965,32.715,0.0,0
308,1581350654.881,34.668,100.586,-385.742,19.531,0.0,0
309,1581350654.885,17.578,98.145,-174.805,14.648,0.0,0
310,1581350654.889,36.133,62.988,-260.254,30.273000000000003,0.0,0
311,1581350654.893,60.547,77.637,-302.246,57.617,0.0,0
312,1581350654.895,48.34,89.355,-205.566,60.059,0.0,0
313,1581350654.899,25.391,71.777,-190.43,46.875,0.0,0
314,1581350654.903,20.996,64.453,-265.137,24.414,0.0,0
315,1581350654.907,28.32,59.57,-302.7340000000001,12.695,0.0,0
316,1581350654.911,37.598,59.57,-312.5,32.715,0.0,0
317,1581350654.915,22.461,59.082,-375.0,31.25,0.0,0
318,1581350654.919,32.715,38.574,-603.0269999999998,21.484,0.0,0
319,1581350654.9220002,36.621,49.805,-651.855,14.648,0.0,0
320,1581350654.926,31.25,84.473,-385.742,23.438,0.0,0
321,1581350654.93,28.32,82.52,-275.879,33.691,0.0,0
322,1581350654.934,17.09,67.87100000000001,-363.281,22.461,0.0,0
323,1581350654.938,33.691,62.5,-421.387,16.602,0.0,0
324,1581350654.94,43.457,76.66,-283.203,23.926,0.0,0
325,1581350654.944,-0.977,75.684,-183.594,19.531,0.0,2
326,1581350654.948,2.441,48.34,-332.031,14.648,0.0,0
327,1581350654.952,48.34,44.434,-423.34,15.625,0.0,0
328,1581350654.956,40.039,54.199,-369.141,12.695,0.0,0
329,1581350654.96,33.691,41.504,-455.566,8.301,0.0,0
330,1581350654.964,28.32,23.438,-729.492,12.695,0.0,0
331,1581350654.967,16.113,41.992,-675.293,13.184,0.0,0
332,1581350654.971,34.18,63.477,-386.719,22.461,0.0,0
333,1581350654.975,29.785,66.406,-400.391,35.645,0.0,0
334,1581350654.979,21.484,74.707,-483.887,23.926,0.0,0
335,1581350654.9829998,17.578,77.637,-431.641,8.789,0.0,0
336,1581350655.0,8.789,69.824,-371.094,4.883,0.0,0
337,1581350655.004,26.855,64.453,-450.195,9.277,0.0,0
338,1581350655.008,39.551,69.824,-523.438,21.973000000000006,0.0,0
339,1581350655.012,25.391,87.402,-481.934,21.484,0.0,0
340,1581350655.016,19.531,80.566,-479.98,14.648,0.0,0
341,1581350655.02,20.996,45.41,-652.832,18.066,0.0,0
342,1581350655.024,40.527,56.64100000000001,-661.6210000000002,23.438,0.0,0
343,1581350655.0270002,53.223,85.449,-408.691,52.246,0.0,0
344,1581350655.031,47.852,67.87100000000001,-403.32,40.039,0.0,0
345,1581350655.035,52.734,56.64100000000001,-548.828,0.488,0.0,0
346,1581350655.039,44.434,68.848,-546.875,9.277,0.0,0
347,1581350655.043,41.504,72.266,-458.496,24.414,0.0,0
348,1581350655.045,48.34,71.289,-470.703,26.855,0.0,0
349,1581350655.049,38.574,73.73,-470.703,28.32,0.0,0
350,1581350655.053,47.363,73.73,-448.73,32.227,0.0,0
351,1581350655.0570002,47.363,79.59,-403.32,32.227,0.0,0
352,1581350655.061,56.64100000000001,71.289,-444.336,34.668,0.0,0
353,1581350655.065,83.008,62.988,-594.238,36.621,0.0,0
354,1581350655.069,69.336,70.801,-557.129,37.109,0.0,0
355,1581350655.072,52.734,76.172,-409.18,50.293,0.0,0
356,1581350655.076,56.64100000000001,44.922,-454.59,38.574,0.0,0
357,1581350655.08,58.105,16.602,-722.6560000000002,19.531,0.0,0
358,1581350655.084,59.082,55.176,-617.188,11.719,0.0,0
359,1581350655.0879998,57.617,57.617,-318.3590000000001,29.297,0.0,0
360,1581350655.09,55.664,33.691,-484.375,39.551,0.0,0
361,1581350655.094,41.01600000000001,53.71100000000001,-460.449,27.344,0.0,0
362,1581350655.0979998,54.199,68.848,-219.238,43.457,0.0,0
363,1581350655.1020002,71.289,62.012,-166.016,41.504,0.0,0
364,1581350655.106,61.035,45.898,-247.55900000000003,23.438,0.0,0
365,1581350655.11,59.57,30.762,-448.242,36.621,0.0,0
366,1581350655.1139998,65.43,38.574,-445.801,38.574,0.0,0
367,1581350655.117,63.477,54.688,-225.098,40.527,0.0,0
368,1581350655.121,57.617,26.367,-307.129,42.969,0.0,0
369,1581350655.125,51.27,13.184,-462.402,29.297,0.0,0
370,1581350655.129,48.34,47.363,-229.004,32.715,0.0,0
371,1581350655.133,62.988,15.625,-172.852,61.035,0.0,0
372,1581350655.1360002,63.965,12.207,-208.008,42.969,0.0,0
373,1581350655.14,61.035,46.387,-165.03900000000004,27.344,0.0,0
374,1581350655.144,48.828,38.574,-170.898,41.01600000000001,0.0,0
375,1581350655.1479998,57.617,26.855,-235.352,38.086,0.0,0
376,1581350655.1520002,50.293,34.18,-242.188,31.25,0.0,0
377,1581350655.156,33.203,32.227,-270.996,38.086,0.0,0
378,1581350655.16,45.898,30.273000000000003,-320.312,46.387,0.0,0
379,1581350655.163,51.27,25.879,-302.7340000000001,30.762,0.0,0
380,1581350655.167,58.594,7.324,-431.152,25.879,0.0,0
381,1581350655.171,51.758,34.668,-354.004,34.668,0.0,0
382,1581350655.175,34.668,44.434,-153.32,14.16,0.0,0
383,1581350655.179,23.926,21.484,-205.566,14.16,0.0,0
384,1581350655.181,43.945,18.555,-292.48,20.508000000000006,0.0,0
385,1581350655.185,31.25,29.785,-229.98,10.742,0.0,0
386,1581350655.189,17.09,27.832,-164.551,21.973000000000006,0.0,0
387,1581350655.1929998,25.879,20.996,-296.387,29.297,0.0,0
388,1581350655.197,45.41,15.137,-350.586,29.297,0.0,0
389,1581350655.201,58.105,6.836,-381.348,22.949,0.0,0
390,1581350655.205,43.945,25.391,-430.176,17.09,0.0,0
391,1581350655.208,47.852,11.719,-545.41,38.086,0.0,0
392,1581350655.212,35.645,6.348,-620.605,12.207,0.0,0
393,1581350655.216,7.324,42.969,-328.61300000000006,-11.23,0.0,0
394,1581350655.22,36.133,41.01600000000001,-279.785,21.484,0.0,0
395,1581350655.224,53.223,40.527,-360.352,37.109,0.0,0
396,1581350655.226,55.664,41.01600000000001,-293.945,24.902,0.0,0
397,1581350655.23,56.152,40.039,-248.535,21.484,0.0,0
398,1581350655.234,43.457,16.113,-321.777,24.414,0.0,0
399,1581350655.238,37.109,-0.977,-477.539,15.137,0.0,0
400,1581350655.242,24.902,26.367,-422.852,17.578,0.0,0
401,1581350655.246,22.949,25.879,-373.535,14.16,0.0,0
402,1581350655.25,29.785,9.277,-482.91,5.859,0.0,0
403,1581350655.2529998,39.062,4.395,-665.039,23.438,0.0,0
404,1581350655.2570002,39.062,24.414,-607.422,22.949,0.0,0
405,1581350655.2610002,39.062,30.273000000000003,-403.32,22.949,0.0,0
406,1581350655.265,53.223,14.16,-440.43,33.203,0.0,0
407,1581350655.269,37.109,10.254,-499.023,31.25,0.0,0
408,1581350655.271,23.926,23.926,-414.551,16.602,0.0,0
409,1581350655.275,32.227,30.273000000000003,-328.125,1.465,0.0,0
410,1581350655.279,25.879,20.02,-390.137,-0.488,0.0,0
411,1581350655.283,5.859,22.949,-450.195,-10.254,0.0,0
412,1581350655.2870002,3.418,19.531,-387.207,-18.555,0.0,0
413,1581350655.291,28.809,-7.812,-431.641,19.043,0.0,0
414,1581350655.295,32.715,-28.809,-686.035,28.32,0.0,0
415,1581350655.298,13.184,-9.277,-774.9019999999998,10.742,0.0,0
416,1581350655.302,-4.883,33.203,-514.648,-9.277,0.0,0
417,1581350655.306,0.488,19.531,-399.902,-7.812,0.0,0
418,1581350655.31,16.602,12.207,-422.852,7.324,0.0,0
419,1581350655.314,16.602,13.184,-420.898,-2.441,0.0,0
420,1581350655.316,8.789,6.348,-532.715,0.488,0.0,0
421,1581350655.32,10.742,16.113,-531.25,23.438,0.0,0
422,1581350655.324,19.043,8.789,-494.141,25.879,0.0,0
423,1581350655.3279998,27.344,17.09,-503.418,22.461,0.0,0
424,1581350655.332,5.859,36.621,-386.23,16.113,0.0,0
425,1581350655.336,19.043,8.789,-490.234,18.555,0.0,0
426,1581350655.34,36.133,-18.555,-809.082,15.625,0.0,0
427,1581350655.343,32.715,20.508000000000006,-704.102,9.766,0.0,0
428,1581350655.347,23.438,47.852,-367.1880000000001,10.742,0.0,0
429,1581350655.351,22.949,16.113,-454.59,13.184,0.0,0
430,1581350655.355,32.227,7.324,-508.301,16.602,0.0,0
431,1581350655.359,13.672,20.996,-338.867,12.695,0.0,0
432,1581350655.3760002,5.371,11.23,-310.059,3.418,0.0,0
433,1581350655.38,7.324,-4.883,-469.727,3.906,0.0,0
434,1581350655.3839998,-0.977,-4.395,-522.9490000000002,-4.883,0.0,0
435,1581350655.3879998,2.441,-2.441,-479.492,-9.766,0.0,0
436,1581350655.3920002,-0.977,-7.324,-447.754,-17.578,0.0,0
437,1581350655.396,-10.742,-27.832,-599.609,-6.348,0.0,0
438,1581350655.4,-0.977,-20.02,-747.07,-2.441,0.0,0
439,1581350655.403,4.883,19.531,-504.883,-14.16,0.0,0
440,1581350655.407,5.371,25.879,-322.754,-16.602,0.0,0
441,1581350655.411,-2.441,7.324,-433.105,-18.555,0.0,0
442,1581350655.415,-0.488,0.0,-539.5509999999998,-4.395,0.0,0
443,1581350655.419,-2.441,21.973000000000006,-377.93,-14.16,0.0,0
444,1581350655.421,-13.184,21.973000000000006,-264.16,-28.32,0.0,0
445,1581350655.425,-11.719,-15.137,-396.484,-22.461,0.0,0
446,1581350655.429,-40.527,-19.043,-451.66,-46.387,0.0,0
447,1581350655.4329998,-40.527,-4.395,-315.43,-38.574,0.0,0
448,1581350655.437,-1.465,-7.812,-230.957,-33.691,0.0,0
449,1581350655.441,0.0,-25.879,-320.801,-36.621,0.0,0
450,1581350655.445,-15.625,-38.574,-512.695,-19.043,0.0,0
451,1581350655.448,-19.043,-19.531,-433.105,-38.574,0.0,0
452,1581350655.452,-13.672,-32.715,-321.777,-30.762,0.0,0
453,1581350655.456,-15.137,-56.152,-529.785,-13.672,0.0,0
454,1581350655.46,-18.066,-23.926,-472.168,-22.461,0.0,0
455,1581350655.464,-20.508000000000006,-4.395,-249.023,-26.367,0.0,0
456,1581350655.466,-15.625,-15.137,-298.828,-29.297,0.0,0
457,1581350655.47,-46.875,-20.02,-326.66,-28.809,0.0,0
458,1581350655.474,-45.41,-13.672,-256.836,-22.461,0.0,0
459,1581350655.478,0.488,-11.719,-230.469,-13.184,0.0,0
460,1581350655.482,6.836,-26.367,-320.801,-25.879,0.0,0
461,1581350655.486,4.883,-33.203,-366.699,-18.555,0.0,0
462,1581350655.49,-10.742,-34.18,-345.7030000000001,-9.277,0.0,0
463,1581350655.4929998,-13.672,-22.949,-275.879,-18.555,0.0,0
464,1581350655.4970002,3.418,-40.039,-415.039,-21.484,0.0,0
465,1581350655.5010002,-0.488,-49.316,-580.566,-25.391,0.0,0
466,1581350655.505,-19.043,-5.371,-314.453,-19.531,0.0,0
467,1581350655.5089998,-20.508000000000006,-9.277,-247.55900000000003,-15.625,0.0,0
468,1581350655.5110002,-8.789,-27.344,-363.281,-20.508000000000006,0.0,0
469,1581350655.515,13.184,-25.879,-349.6090000000001,-6.348,0.0,0
470,1581350655.519,20.508000000000006,-3.906,-234.863,17.09,0.0,0
471,1581350655.5229998,10.742,-16.113,-250.977,24.414,0.0,0
472,1581350655.5270002,-4.395,-31.738000000000003,-399.414,2.441,0.0,0
473,1581350655.531,7.812,-26.367,-458.008,0.488,0.0,0
474,1581350655.535,20.508000000000006,-18.066,-485.84,15.137,0.0,0
475,1581350655.538,15.137,-1.465,-442.871,5.859,0.0,0
476,1581350655.542,27.344,-27.344,-652.344,4.883,0.0,0
477,1581350655.546,15.625,-4.395,-654.785,1.953,0.0,0
478,1581350655.55,5.371,30.762,-311.523,-6.348,0.0,0
479,1581350655.554,23.438,-9.766,-409.668,24.414,0.0,0
480,1581350655.556,52.246,-28.32,-615.7230000000002,42.969,0.0,0
481,1581350655.56,33.691,6.836,-476.562,16.113,0.0,0
482,1581350655.564,24.414,18.066,-339.355,13.184,0.0,0
483,1581350655.5679998,28.32,-1.465,-460.449,26.367,0.0,0
484,1581350655.572,4.883,-7.812,-540.039,15.137,0.0,0
485,1581350655.576,-15.137,-22.461,-637.207,11.23,0.0,0
486,1581350655.58,14.16,-10.254,-627.441,12.695,0.0,0
487,1581350655.583,47.363,-19.043,-631.836,15.137,0.0,0
488,1581350655.587,39.062,-30.762,-799.316,20.996,0.0,0
489,1581350655.591,23.438,14.16,-616.211,19.531,0.0,0
490,1581350655.595,18.066,13.184,-488.77,10.742,0.0,0
491,1581350655.599,10.254,6.348,-505.371,12.695,0.0,0
492,1581350655.601,6.348,4.883,-554.688,16.113,0.0,0
493,1581350655.605,-20.02,13.672,-520.996,-0.488,0.0,0
494,1581350655.609,-10.742,1.465,-563.965,12.695,0.0,0
495,1581350655.613,18.066,-7.324,-652.832,18.066,0.0,0
496,1581350655.617,2.93,4.395,-538.086,-0.977,0.0,0
497,1581350655.621,16.602,-11.23,-576.172,1.953,0.0,0
498,1581350655.625,16.602,-18.066,-659.18,-12.207,0.0,0
499,1581350655.6279998,19.043,-17.09,-791.992,-1.465,0.0,0
500,1581350655.6320002,6.836,21.973000000000006,-741.211,21.484,0.0,0
501,1581350655.6360002,-5.859,41.992,-525.391,9.277,0.0,0
502,1581350655.64,20.996,14.648,-577.148,17.578,0.0,0
503,1581350655.644,28.809,8.301,-615.7230000000002,13.184,0.0,0
504,1581350655.646,8.789,17.578,-505.859,3.906,0.0,0
505,1581350655.65,6.836,22.461,-426.758,10.254,0.0,0
506,1581350655.654,8.301,-0.977,-581.055,-1.465,0.0,0
507,1581350655.658,15.625,3.418,-591.797,8.789,0.0,0
508,1581350655.6620002,12.695,19.531,-442.871,18.555,0.0,0
509,1581350655.666,9.766,1.953,-573.242,16.602,0.0,0
510,1581350655.67,24.902,-28.809,-854.492,18.555,0.0,0
511,1581350655.673,21.973000000000006,-16.602,-875.977,9.766,0.0,0
512,1581350655.677,2.93,27.832,-545.41,2.441,0.0,0
513,1581350655.681,1.953,23.438,-402.832,-6.348,0.0,0
514,1581350655.685,15.625,7.812,-558.594,5.371,0.0,0
515,1581350655.689,27.344,12.207,-587.4019999999998,8.789,0.0,0
516,1581350655.691,29.785,8.301,-490.234,10.742,0.0,0
517,1581350655.695,10.742,-7.812,-498.535,15.137,0.0,0
518,1581350655.699,9.277,-5.859,-604.98,1.953,0.0,0
519,1581350655.7029998,18.066,0.0,-620.117,0.977,0.0,0
520,1581350655.707,18.555,0.977,-545.898,11.719,0.0,0
521,1581350655.711,25.391,0.977,-611.816,12.695,0.0,0
522,1581350655.715,19.043,-10.254,-844.727,5.371,0.0,0
523,1581350655.718,9.766,12.695,-798.828,2.93,0.0,0
524,1581350655.722,15.625,24.902,-577.148,4.395,0.0,0
525,1581350655.726,22.949,9.766,-580.566,-4.883,0.0,0
526,1581350655.73,23.926,11.719,-568.359,-3.418,0.0,0
527,1581350655.734,11.719,15.625,-544.434,-4.883,0.0,0
528,1581350655.7510002,2.93,18.555,-498.047,-6.836,0.0,0
529,1581350655.755,11.719,9.766,-519.043,-4.883,0.0,0
530,1581350655.7589998,12.207,8.301,-556.1519999999998,0.0,0.0,0
531,1581350655.7629998,4.395,20.508000000000006,-506.348,5.859,0.0,0
532,1581350655.7670002,1.465,31.25,-441.895,10.254,0.0,0
533,1581350655.771,21.484,-7.812,-635.742,25.391,0.0,0
534,1581350655.775,26.855,-13.672,-763.184,1.953,0.0,0
535,1581350655.778,3.906,20.508000000000006,-495.117,-9.277,0.0,0
536,1581350655.782,2.441,11.23,-419.434,6.348,0.0,0
537,1581350655.786,16.602,9.766,-515.137,-2.441,0.0,0
538,1581350655.79,28.809,26.855,-458.984,-14.648,0.0,0
539,1581350655.794,34.18,26.367,-456.055,0.488,0.0,0
540,1581350655.795,31.738000000000003,12.207,-546.875,8.789,0.0,0
541,1581350655.799,20.996,19.531,-517.09,4.883,0.0,0
542,1581350655.803,19.043,39.062,-479.98,3.418,0.0,0
543,1581350655.8070002,33.203,48.34,-395.508,3.418,0.0,0
544,1581350655.811,19.043,35.156,-403.809,0.488,0.0,0
545,1581350655.815,28.809,23.438,-487.793,15.137,0.0,0
546,1581350655.819,44.922,26.367,-504.883,20.508000000000006,0.0,0
547,1581350655.822,11.719,33.203,-358.88699999999994,1.953,0.0,0
548,1581350655.826,6.348,10.742,-325.684,12.207,0.0,0
549,1581350655.83,28.32,-12.207,-645.02,14.648,0.0,0
550,1581350655.834,28.809,34.18,-550.781,4.395,0.0,0
551,1581350655.8379998,33.691,45.41,-232.422,19.531,0.0,0
552,1581350655.84,47.852,9.766,-352.539,26.855,0.0,0
553,1581350655.844,10.254,18.555,-403.809,14.16,0.0,0
554,1581350655.8479998,-6.836,33.203,-347.168,-3.906,0.0,0
555,1581350655.8520002,41.992,36.133,-278.809,4.395,0.0,0
556,1581350655.856,40.527,23.926,-329.59,29.785,0.0,0
557,1581350655.86,34.668,14.648,-499.512,23.926,0.0,0
558,1581350655.8639998,38.574,15.625,-487.793,19.531,0.0,0
559,1581350655.867,36.133,20.996,-360.352,7.324,0.0,0
560,1581350655.871,32.227,11.719,-459.961,4.395,0.0,0
561,1581350655.875,20.996,17.578,-584.4730000000002,9.277,0.0,0
562,1581350655.879,14.648,47.852,-290.527,7.812,0.0,0
563,1581350655.883,25.391,26.367,-198.242,7.324,0.0,0
564,1581350655.885,27.832,23.926,-269.043,6.836,0.0,0
565,1581350655.889,13.184,38.086,-272.461,8.789,0.0,0
566,1581350655.893,10.742,49.805,-252.441,19.531,0.0,0
567,1581350655.897,50.293,42.48,-227.539,23.926,0.0,0
568,1581350655.901,53.223,21.484,-258.789,22.461,0.0,0
569,1581350655.905,33.691,13.184,-362.305,30.762,0.0,0
570,1581350655.909,27.832,22.461,-411.621,23.926,0.0,0
571,1581350655.9120002,32.227,27.344,-369.141,27.832,0.0,0
572,1581350655.916,42.48,14.16,-497.07,22.461,0.0,0
573,1581350655.92,30.762,29.785,-455.566,6.836,0.0,0
574,1581350655.924,19.531,44.434,-234.863,8.789,0.0,0
575,1581350655.928,35.156,23.926,-291.016,18.066,0.0,0
576,1581350655.93,34.668,24.414,-333.9840000000001,9.766,0.0,0
577,1581350655.934,17.09,43.945,-243.164,8.789,0.0,0
578,1581350655.938,18.066,38.574,-231.445,8.301,0.0,0
579,1581350655.9420002,16.113,24.902,-332.52,14.16,0.0,0
580,1581350655.946,16.602,29.297,-322.266,11.23,0.0,0
581,1581350655.95,24.414,20.02,-372.559,-3.906,0.0,0
582,1581350655.954,5.371,20.996,-432.129,0.488,0.0,0
583,1581350655.957,14.648,11.23,-496.582,20.508000000000006,0.0,0
584,1581350655.961,45.41,1.953,-619.629,15.625,0.0,0
585,1581350655.965,34.668,47.363,-343.26199999999994,5.859,0.0,0
586,1581350655.969,18.555,34.668,-246.582,13.672,0.0,0
587,1581350655.9729998,2.93,15.625,-388.184,19.531,0.0,0
588,1581350655.975,14.16,29.785,-375.977,4.883,0.0,1
589,1581350655.979,34.668,38.086,-280.273,-0.977,0.0,0
590,1581350655.9829998,28.32,20.508000000000006,-312.988,20.508000000000006,0.0,0
591,1581350655.9870002,6.348,12.207,-390.137,9.766,0.0,0
592,1581350655.9910002,16.113,17.578,-375.0,5.371,0.0,0
593,1581350655.995,40.527,-0.488,-435.547,20.508000000000006,0.0,0
594,1581350655.9989998,33.203,-7.324,-550.781,23.438,0.0,0
595,1581350656.002,27.832,-3.906,-716.309,18.555,0.0,0
596,1581350656.006,30.273000000000003,31.738000000000003,-591.309,20.996,0.0,0
597,1581350656.01,26.367,46.387,-284.18,6.836,0.0,0
598,1581350656.014,30.762,13.184,-314.941,4.395,0.0,0
599,1581350656.018,31.738000000000003,0.0,-527.344,40.039,0.0,0
600,1581350656.021,26.367,22.461,-514.648,24.414,0.0,0
601,1581350656.025,18.555,35.645,-348.145,6.348,0.0,0
602,1581350656.029,19.043,15.137,-404.297,18.555,0.0,0
603,1581350656.033,12.207,7.324,-475.586,9.766,0.0,0
604,1581350656.0370002,9.277,16.113,-437.98800000000006,5.371,0.0,0
605,1581350656.041,34.18,10.254,-484.86300000000006,19.531,0.0,0
606,1581350656.045,44.922,-15.625,-653.32,20.996,0.0,0
607,1581350656.048,21.973000000000006,-11.719,-777.832,10.254,0.0,0
608,1581350656.052,2.441,34.18,-522.461,9.277,0.0,0
609,1581350656.056,22.461,25.879,-352.539,18.066,0.0,0
610,1581350656.06,30.273000000000003,19.531,-448.73,15.137,0.0,0
611,1581350656.064,21.973000000000006,31.738000000000003,-489.258,17.09,0.0,0
612,1581350656.08,37.598,41.992,-377.441,25.391,0.0,0
613,1581350656.084,43.457,36.133,-337.891,28.809,0.0,0
614,1581350656.0879998,37.109,24.414,-396.484,19.043,0.0,0
615,1581350656.092,35.645,30.273000000000003,-375.977,24.902,0.0,0
616,1581350656.096,41.992,31.738000000000003,-363.77,25.879,0.0,0
617,1581350656.1,15.625,10.254,-529.785,8.789,0.0,0
618,1581350656.104,12.695,-15.625,-811.523,15.625,0.0,0
619,1581350656.107,31.25,12.695,-691.4060000000002,25.391,0.0,0
620,1581350656.111,15.625,33.691,-373.047,12.207,0.0,0
621,1581350656.115,18.066,5.371,-454.59,7.324,0.0,0
622,1581350656.119,8.301,0.977,-531.25,9.277,0.0,0
623,1581350656.123,3.906,21.973000000000006,-395.996,7.324,0.0,0
624,1581350656.125,14.16,23.926,-333.0080000000001,6.348,0.0,0
625,1581350656.129,5.859,0.977,-460.9380000000001,8.301,0.0,0
626,1581350656.133,10.254,0.0,-517.578,8.301,0.0,0
627,1581350656.137,14.648,15.137,-376.465,-2.441,0.0,0
628,1581350656.141,-0.488,9.766,-265.625,6.348,0.0,0
629,1581350656.145,-7.324,-16.602,-487.305,26.855,0.0,0
630,1581350656.149,13.184,-13.672,-688.477,22.461,0.0,0
631,1581350656.1520002,40.527,11.719,-569.336,5.859,0.0,0
632,1581350656.156,29.785,31.25,-356.445,2.93,0.0,0
633,1581350656.16,33.691,-9.277,-553.711,22.949,0.0,0
634,1581350656.164,26.855,-10.254,-753.9060000000002,26.367,0.0,0
635,1581350656.168,20.996,40.039,-436.035,12.695,0.0,0
636,1581350656.17,24.902,28.809,-322.754,17.578,0.0,0
637,1581350656.174,20.508000000000006,19.531,-415.039,21.484,0.0,0
638,1581350656.178,29.785,21.973000000000006,-461.914,19.043,0.0,0
639,1581350656.1820002,22.461,19.531,-403.32,11.719,0.0,0
640,1581350656.186,25.879,6.836,-396.484,5.859,0.0,0
641,1581350656.19,33.691,-2.441,-532.715,9.766,0.0,0
642,1581350656.194,28.809,11.719,-562.5,24.414,0.0,0
643,1581350656.197,22.461,19.043,-474.121,25.879,0.0,0
644,1581350656.201,36.133,3.418,-493.164,22.461,0.0,0
645,1581350656.205,41.992,-1.953,-645.508,29.297,0.0,0
646,1581350656.209,12.695,24.414,-577.148,11.23,0.0,0
647,1581350656.2129998,4.883,36.133,-350.586,6.348,0.0,0
648,1581350656.216,5.859,25.879,-377.441,5.371,0.0,0
649,1581350656.22,19.043,20.508000000000006,-444.336,-12.695,0.0,0
650,1581350656.224,21.973000000000006,27.832,-358.88699999999994,5.859,0.0,0
651,1581350656.228,5.371,33.203,-340.332,23.438,0.0,0
652,1581350656.232,17.09,17.578,-462.891,15.625,0.0,0
653,1581350656.236,25.391,11.23,-561.523,13.184,0.0,0
654,1581350656.24,8.301,14.16,-615.234,9.766,0.0,0
655,1581350656.2429998,18.066,24.414,-520.02,15.137,0.0,0
656,1581350656.2470002,41.992,-3.418,-620.117,17.09,0.0,0
657,1581350656.2510002,23.438,-7.324,-761.23,-0.488,0.0,0
658,1581350656.255,18.555,23.926,-515.137,20.508000000000006,0.0,0
659,1581350656.2589998,16.602,22.461,-456.055,35.645,0.0,0
660,1581350656.2610002,18.555,43.945,-457.031,15.137,0.0,0
661,1581350656.265,33.691,50.293,-430.176,20.996,0.0,0
662,1581350656.269,27.344,46.387,-337.402,22.461,0.0,0
663,1581350656.2729998,50.293,37.598,-355.469,22.949,0.0,0
664,1581350656.2770002,47.363,22.949,-500.48800000000006,37.598,0.0,0
665,1581350656.281,29.785,18.066,-585.4490000000002,40.039,0.0,0
666,1581350656.285,41.992,34.18,-544.922,31.25,0.0,0
667,1581350656.288,41.01600000000001,39.062,-448.73,37.109,0.0,0
668,1581350656.292,30.762,12.207,-631.836,44.434,0.0,0
669,1581350656.296,40.527,34.668,-600.586,22.949,0.0,0
670,1581350656.3,28.809,44.434,-364.746,20.02,0.0,0
671,1581350656.304,24.414,14.648,-451.172,28.809,0.0,0
672,1581350656.306,33.691,12.695,-524.414,23.438,0.0,0
673,1581350656.31,22.949,24.902,-551.758,27.344,0.0,0
674,1581350656.314,44.922,30.273000000000003,-552.246,33.203,0.0,0
675,1581350656.3179998,41.504,37.109,-499.512,28.809,0.0,0
676,1581350656.322,27.344,32.227,-490.234,22.461,0.0,0
677,1581350656.326,33.203,13.184,-586.914,27.344,0.0,0
678,1581350656.33,22.461,26.855,-567.871,27.344,0.0,0
679,1581350656.333,23.926,4.395,-595.703,27.344,0.0,0
680,1581350656.337,44.434,-9.766,-734.375,38.086,0.0,0
681,1581350656.341,41.01600000000001,48.828,-470.215,19.531,0.0,0
682,1581350656.345,23.438,45.898,-380.859,14.16,0.0,0
683,1581350656.349,28.32,18.555,-491.211,33.691,0.0,0
684,1581350656.351,30.273000000000003,13.672,-538.5740000000002,26.855,0.0,0
685,1581350656.355,20.02,26.367,-429.6880000000001,20.996,0.0,0
686,1581350656.359,14.16,23.438,-407.715,26.855,0.0,0
687,1581350656.363,21.484,20.02,-480.957,13.184,0.0,0
688,1581350656.367,32.227,12.695,-509.277,9.277,0.0,0
689,1581350656.371,23.926,-3.906,-619.141,30.762,0.0,0
690,1581350656.375,18.555,-1.465,-672.852,13.184,0.0,0
691,1581350656.3779998,19.043,-3.418,-773.438,-22.949,0.0,0
692,1581350656.3820002,14.648,21.484,-652.344,-0.488,0.0,0
693,1581350656.3860002,7.812,42.969,-345.215,21.973000000000006,0.0,0
694,1581350656.39,13.184,24.414,-370.117,18.066,0.0,0
695,1581350656.394,24.902,11.719,-477.539,5.859,0.0,0
696,1581350656.396,16.113,27.344,-356.445,7.812,0.0,0
697,1581350656.4,10.742,14.648,-331.055,3.418,0.0,0
698,1581350656.404,15.137,-1.953,-418.457,-0.977,0.0,0
699,1581350656.408,12.695,10.254,-389.16,-5.371,0.0,0
700,1581350656.4120002,-7.324,17.09,-298.34,-11.23,0.0,0
701,1581350656.416,14.16,8.789,-339.844,1.953,0.0,0
702,1581350656.42,34.18,-16.602,-571.289,12.695,0.0,0
703,1581350656.423,29.297,-19.043,-711.914,11.23,0.0,0
704,1581350656.427,12.207,30.273000000000003,-431.152,-2.441,0.0,0
705,1581350656.431,1.953,35.645,-228.516,-5.371,0.0,0
706,1581350656.435,17.578,13.184,-332.031,16.113,0.0,0
707,1581350656.439,13.184,15.625,-394.043,7.324,0.0,0
708,1581350656.441,23.926,14.648,-313.4770000000001,-2.441,0.0,0
709,1581350656.445,41.01600000000001,10.254,-327.148,14.648,0.0,0
710,1581350656.449,26.855,22.461,-401.367,13.184,0.0,0
711,1581350656.4529998,14.16,32.227,-385.254,-5.371,0.0,0
712,1581350656.457,25.391,38.086,-272.949,-7.324,0.0,0
713,1581350656.461,25.879,21.484,-325.684,15.137,0.0,0
714,1581350656.465,30.762,-13.672,-663.086,18.555,0.0,0
715,1581350656.468,32.227,5.859,-680.176,16.113,0.0,0
716,1581350656.472,9.277,41.01600000000001,-351.5619999999999,20.02,0.0,0
717,1581350656.476,18.555,16.602,-311.523,17.09,0.0,0
718,1581350656.48,28.32,-3.906,-501.465,16.602,0.0,0
719,1581350656.484,11.719,20.508000000000006,-458.496,22.461,0.0,0
720,1581350656.5010002,4.883,27.832,-334.961,15.625,0.0,0
721,1581350656.505,24.414,-0.488,-397.949,14.16,0.0,0
722,1581350656.5089998,42.969,-7.324,-472.656,34.668,0.0,0
723,1581350656.5129998,16.113,23.926,-383.301,36.621,0.0,0
724,1581350656.5170002,14.648,20.508000000000006,-343.75,31.738000000000003,0.0,0
725,1581350656.521,35.156,-13.184,-557.129,20.02,0.0,0
726,1581350656.525,37.598,4.395,-608.887,22.461,0.0,0
727,1581350656.528,28.809,37.598,-369.629,26.855,0.0,0
728,1581350656.532,22.949,21.484,-327.637,27.344,0.0,0
729,1581350656.536,24.414,-0.977,-521.9730000000002,35.645,0.0,0
730,1581350656.54,35.645,12.207,-525.879,28.809,0.0,0
731,1581350656.544,29.297,24.414,-360.352,27.832,0.0,0
732,1581350656.546,17.578,14.16,-372.07,19.043,0.0,0
733,1581350656.55,16.602,14.648,-426.27,7.324,0.0,0
734,1581350656.554,0.977,21.484,-407.715,19.043,0.0,0
735,1581350656.5579998,9.277,18.555,-373.535,17.578,0.0,0
736,1581350656.562,35.156,8.301,-405.273,17.578,0.0,0
737,1581350656.566,19.043,-5.859,-516.602,18.066,0.0,0
738,1581350656.57,24.902,4.883,-572.754,13.184,0.0,0
739,1581350656.573,33.691,33.203,-421.875,23.926,0.0,0
740,1581350656.577,38.574,13.184,-370.605,31.738000000000003,0.0,0
741,1581350656.581,29.297,-17.09,-629.883,27.344,0.0,0
742,1581350656.585,-5.859,19.043,-581.055,5.859,0.0,0
743,1581350656.589,20.02,42.48,-324.707,8.301,0.0,0
744,1581350656.591,52.734,14.648,-448.242,20.02,0.0,0
745,1581350656.595,40.527,6.836,-520.02,25.879,0.0,0
746,1581350656.599,19.531,28.32,-373.047,20.02,0.0,0
747,1581350656.603,14.648,27.832,-326.172,9.277,0.0,0
748,1581350656.607,11.23,1.953,-485.352,10.742,0.0,0
749,1581350656.611,23.438,0.488,-608.398,18.066,0.0,0
750,1581350656.615,41.01600000000001,16.113,-616.211,36.621,0.0,0
751,1581350656.6179998,24.902,42.969,-453.125,19.043,0.0,0
752,1581350656.6220002,28.809,18.555,-483.887,14.16,0.0,0
753,1581350656.6260002,41.01600000000001,4.883,-680.664,25.391,0.0,0
754,1581350656.63,40.039,50.78100000000001,-405.273,28.809,0.0,0
755,1581350656.6339998,51.758,42.48,-300.781,32.715,0.0,0
756,1581350656.6360002,32.227,37.598,-376.465,24.902,0.0,0
757,1581350656.64,16.113,44.922,-375.48800000000006,22.461,0.0,0
758,1581350656.644,21.973000000000006,40.527,-344.23800000000006,31.25,0.0,0
759,1581350656.6479998,28.809,40.039,-334.961,24.414,0.0,0
760,1581350656.6520002,39.062,24.414,-388.184,17.578,0.0,0
761,1581350656.656,31.25,10.742,-508.301,26.367,0.0,0
762,1581350656.66,13.184,16.602,-582.52,23.926,0.0,0
763,1581350656.663,18.066,8.789,-601.562,-0.977,0.0,0
764,1581350656.667,44.434,3.906,-706.543,15.625,0.0,0
765,1581350656.671,41.01600000000001,31.738000000000003,-590.332,20.996,0.0,0
766,1581350656.675,26.855,47.852,-314.941,13.672,0.0,0
767,1581350656.679,31.738000000000003,22.949,-382.324,24.414,0.0,0
768,1581350656.681,42.969,18.066,-475.098,30.762,0.0,0
769,1581350656.685,25.391,37.598,-347.656,30.762,0.0,0
770,1581350656.689,14.648,38.086,-280.762,32.715,0.0,0
771,1581350656.6929998,36.621,25.879,-395.996,39.551,0.0,0
772,1581350656.697,52.246,40.527,-389.648,22.949,0.0,0
773,1581350656.701,53.71100000000001,30.273000000000003,-393.555,29.297,0.0,0
774,1581350656.705,52.246,16.602,-541.992,27.344,0.0,0
775,1581350656.708,39.551,21.973000000000006,-619.629,33.691,0.0,0
776,1581350656.712,28.32,23.926,-620.117,29.785,0.0,0
777,1581350656.716,42.48,51.758,-336.426,5.371,0.0,0
778,1581350656.72,29.785,37.109,-324.219,24.414,0.0,0
779,1581350656.724,15.625,33.203,-441.895,24.414,0.0,0
780,1581350656.726,33.203,43.945,-354.98,15.137,0.0,0
781,1581350656.73,29.297,45.41,-241.211,20.508000000000006,0.0,0
782,1581350656.734,25.391,31.738000000000003,-263.184,8.301,0.0,0
783,1581350656.738,41.01600000000001,22.461,-387.207,22.949,0.0,0
784,1581350656.742,44.922,39.062,-358.88699999999994,30.762,0.0,0
785,1581350656.746,33.203,29.785,-323.242,13.184,0.0,0
786,1581350656.75,30.762,14.16,-427.246,22.949,0.0,0
787,1581350656.7529998,25.391,9.766,-594.727,32.227,0.0,0
788,1581350656.7570002,25.879,28.809,-518.066,18.555,0.0,0
789,1581350656.7610002,28.809,51.758,-251.953,16.602,0.0,0
790,1581350656.765,34.668,40.039,-249.512,22.949,0.0,0
791,1581350656.769,39.062,20.996,-376.465,22.949,0.0,0
792,1581350656.771,8.301,29.297,-357.91,11.719,0.0,0
793,1581350656.775,19.043,41.992,-291.504,13.672,0.0,0
794,1581350656.779,53.223,28.809,-377.93,22.949,0.0,0
795,1581350656.783,31.25,22.949,-428.223,20.996,0.0,0
796,1581350656.7870002,31.738000000000003,37.109,-317.871,25.391,0.0,0
797,1581350656.791,47.852,34.18,-314.453,36.621,0.0,0
798,1581350656.795,52.734,6.836,-530.273,45.41,0.0,0
799,1581350656.798,54.688,7.812,-655.273,42.48,0.0,0
800,1581350656.802,9.766,58.105,-377.441,23.438,0.0,0
801,1581350656.806,-1.953,47.852,-281.738,20.508000000000006,0.0,0
802,1581350656.81,38.574,35.156,-370.117,15.137,0.0,0
803,1581350656.814,47.852,41.992,-330.566,11.719,0.0,0
804,1581350656.815,29.785,33.691,-297.363,26.855,0.0,0
805,1581350656.819,15.625,30.273000000000003,-325.684,25.391,0.0,0
806,1581350656.823,36.133,32.227,-393.555,21.973000000000006,0.0,0
807,1581350656.827,41.504,26.855,-439.941,30.273000000000003,0.0,0
808,1581350656.831,31.25,30.762,-389.16,30.273000000000003,0.0,0
809,1581350656.835,27.832,28.32,-451.172,33.203,0.0,0
810,1581350656.839,31.25,12.207,-629.883,34.18,0.0,0
811,1581350656.842,18.066,34.18,-505.859,14.16,0.0,0
812,1581350656.846,26.367,49.805,-298.34,5.371,0.0,0
813,1581350656.85,35.645,35.645,-339.844,6.348,0.0,0
814,1581350656.854,20.996,29.297,-412.109,7.812,0.0,0
815,1581350656.8579998,29.297,38.574,-354.98,14.16,0.0,0
816,1581350656.875,32.227,43.457,-260.742,11.23,0.0,0
817,1581350656.879,59.57,23.438,-351.074,18.066,0.0,0
818,1581350656.883,48.828,17.578,-378.418,32.227,0.0,0
819,1581350656.887,26.855,39.551,-275.879,32.227,0.0,0
820,1581350656.891,28.32,40.039,-254.395,20.996,0.0,0
821,1581350656.895,32.715,11.719,-520.996,31.25,0.0,0
822,1581350656.899,35.645,20.996,-665.5269999999998,51.27,0.0,0
823,1581350656.9020002,30.273000000000003,47.852,-494.629,27.344,0.0,0
824,1581350656.906,19.531,58.594,-354.004,13.184,0.0,0
825,1581350656.91,21.973000000000006,46.387,-394.531,28.809,0.0,0
826,1581350656.914,24.414,44.434,-450.195,32.227,0.0,0
827,1581350656.918,19.043,63.965,-294.922,14.648,0.0,0
828,1581350656.92,47.852,48.34,-259.766,14.648,0.0,0
829,1581350656.924,31.25,37.598,-334.473,13.184,0.0,0
830,1581350656.928,23.438,46.875,-381.836,17.09,0.0,0
831,1581350656.9320002,33.691,59.082,-300.781,21.484,0.0,0
832,1581350656.936,25.391,48.828,-277.832,20.996,0.0,0
833,1581350656.94,38.574,29.785,-409.668,20.02,0.0,0
834,1581350656.944,30.762,33.203,-455.078,15.625,0.0,0
835,1581350656.947,2.93,49.805,-341.309,26.367,0.0,0
836,1581350656.951,-1.953,50.293,-251.953,28.809,0.0,0
837,1581350656.955,20.02,26.367,-456.055,16.602,0.0,0
838,1581350656.959,29.785,44.922,-468.75,15.625,0.0,0
839,1581350656.9629998,18.555,56.64100000000001,-203.125,23.926,0.0,0
840,1581350656.966,13.672,31.738000000000003,-205.566,26.367,0.0,0
841,1581350656.97,37.598,41.01600000000001,-182.129,28.809,0.0,0
842,1581350656.974,36.133,48.828,-122.559,18.555,0.0,0
843,1581350656.978,30.273000000000003,44.434,-147.94899999999996,23.438,0.0,0
844,1581350656.982,59.082,22.949,-231.93400000000003,40.039,0.0,0
845,1581350656.986,50.78100000000001,6.348,-387.207,31.25,0.0,0
846,1581350656.99,34.668,16.113,-479.98,22.461,0.0,0
847,1581350656.9929998,33.203,39.062,-422.852,28.809,0.0,0
848,1581350656.9970002,33.203,23.438,-468.75,20.508000000000006,0.0,0
849,1581350657.0010002,48.34,7.324,-605.469,7.324,0.0,0
850,1581350657.005,38.574,38.086,-369.141,20.02,0.0,0
851,1581350657.0089998,24.902,24.902,-277.832,22.461,0.0,2
852,1581350657.01,23.926,9.766,-467.285,12.207,0.0,0
853,1581350657.014,28.809,25.391,-458.008,15.625,0.0,0
854,1581350657.018,53.223,41.01600000000001,-316.406,15.137,0.0,0
855,1581350657.022,46.387,34.668,-350.586,12.207,0.0,0
856,1581350657.026,27.344,20.02,-438.477,21.484,0.0,0
857,1581350657.03,24.902,18.555,-500.0,21.973000000000006,0.0,0
858,1581350657.034,34.18,20.508000000000006,-491.699,19.043,0.0,0
859,1581350657.0370002,41.01600000000001,24.902,-423.828,17.09,0.0,0
860,1581350657.041,33.691,-1.465,-611.816,19.043,0.0,0
861,1581350657.045,31.738000000000003,15.625,-587.4019999999998,33.691,0.0,0
862,1581350657.049,38.086,53.223,-286.621,35.156,0.0,0
863,1581350657.053,28.809,33.691,-343.75,27.832,0.0,0
864,1581350657.055,22.461,23.926,-443.848,23.926,0.0,0
865,1581350657.059,36.133,41.504,-346.68,34.668,0.0,0
866,1581350657.063,26.855,40.039,-250.0,31.738000000000003,0.0,0
867,1581350657.0670002,40.039,16.113,-326.66,21.973000000000006,0.0,0
868,1581350657.071,45.898,12.207,-398.4380000000001,30.273000000000003,0.0,0
869,1581350657.075,31.25,16.602,-419.922,33.691,0.0,0
870,1581350657.079,34.18,27.832,-397.461,30.762,0.0,0
871,1581350657.082,44.434,16.602,-454.102,25.391,0.0,0
872,1581350657.086,33.203,7.812,-577.148,26.367,0.0,0
873,1581350657.09,23.926,41.01600000000001,-374.023,22.461,0.0,0
874,1581350657.094,51.27,39.062,-220.703,31.25,0.0,0
875,1581350657.0979998,59.082,30.273000000000003,-254.395,42.969,0.0,0
876,1581350657.1,44.434,29.785,-291.016,33.691,0.0,0
877,1581350657.104,41.992,34.18,-251.465,30.762,0.0,0
878,1581350657.1079998,40.039,32.227,-248.535,31.25,0.0,0
879,1581350657.1120002,41.504,26.855,-272.949,26.367,0.0,0
880,1581350657.1160002,40.039,25.879,-278.32,23.438,0.0,0
881,1581350657.12,28.32,17.578,-388.672,24.902,0.0,0
882,1581350657.1239998,26.367,10.742,-467.773,21.973000000000006,0.0,0
883,1581350657.127,40.527,-7.324,-675.293,20.996,0.0,0
884,1581350657.131,11.23,20.02,-569.8240000000002,9.766,0.0,0
885,1581350657.135,1.953,37.109,-272.949,12.695,0.0,0
886,1581350657.139,35.645,12.207,-363.281,19.531,0.0,0
887,1581350657.143,49.805,16.602,-406.25,16.602,0.0,0
888,1581350657.145,42.48,37.598,-312.988,21.973000000000006,0.0,0
889,1581350657.149,28.32,34.18,-272.461,23.438,0.0,0
890,1581350657.153,22.461,15.137,-394.043,29.297,0.0,0
891,1581350657.157,30.273000000000003,11.23,-469.23800000000006,32.227,0.0,0
892,1581350657.161,46.875,16.113,-354.004,35.645,0.0,0
893,1581350657.165,47.363,17.09,-373.535,40.527,0.0,0
894,1581350657.169,60.059,-7.324,-610.84,44.922,0.0,0
895,1581350657.1720002,52.246,-17.09,-756.3480000000002,28.32,0.0,0
896,1581350657.176,41.01600000000001,38.086,-426.27,4.883,0.0,0
897,1581350657.18,29.785,39.062,-324.707,20.508000000000006,0.0,0
898,1581350657.184,8.789,25.879,-476.074,15.625,0.0,0
899,1581350657.188,27.344,23.438,-480.957,20.508000000000006,0.0,0
900,1581350657.191,31.25,31.25,-369.629,26.367,0.0,0
901,1581350657.195,19.043,36.621,-267.09,8.789,0.0,0
902,1581350657.199,10.742,30.762,-326.172,23.926,0.0,0
903,1581350657.2029998,44.922,39.062,-329.59,35.645,0.0,0
904,1581350657.207,64.941,37.109,-255.859,35.156,0.0,0
905,1581350657.211,65.918,9.766,-401.367,41.992,0.0,0
906,1581350657.215,41.504,-12.207,-691.4060000000002,33.691,0.0,0
907,1581350657.218,17.578,15.625,-631.3480000000002,18.555,0.0,0
908,1581350657.222,37.598,44.434,-327.148,16.113,0.0,0
909,1581350657.226,51.27,25.391,-307.129,30.762,0.0,0
910,1581350657.23,43.457,18.555,-385.254,32.715,0.0,0
911,1581350657.234,30.273000000000003,24.902,-333.496,21.484,0.0,0
912,1581350657.2510002,42.48,17.578,-364.258,21.973000000000006,0.0,0
913,1581350657.255,52.734,8.789,-479.492,30.762,0.0,0
914,1581350657.2589998,43.457,17.578,-478.027,27.832,0.0,0
915,1581350657.2629998,35.156,41.992,-364.746,22.949,0.0,0
916,1581350657.2670002,40.039,26.367,-305.176,13.184,0.0,0
917,1581350657.271,43.945,-11.23,-483.887,25.879,0.0,0
918,1581350657.275,54.688,14.16,-609.863,44.434,0.0,0
919,1581350657.278,41.992,65.43,-369.141,27.832,0.0,0
920,1581350657.282,12.695,55.664,-222.656,20.508000000000006,0.0,0
921,1581350657.286,34.18,23.438,-387.695,20.996,0.0,0
922,1581350657.29,56.152,26.367,-471.191,6.348,0.0,0
923,1581350657.294,18.066,45.898,-271.973,9.277,0.0,0
924,1581350657.296,29.297,23.926,-280.762,27.344,0.0,0
925,1581350657.3,58.594,14.648,-403.809,25.391,0.0,0
926,1581350657.304,48.828,26.367,-372.559,17.578,0.0,0
927,1581350657.3079998,29.785,19.043,-400.391,14.648,0.0,0
928,1581350657.312,27.832,29.785,-392.09,20.02,0.0,0
929,1581350657.316,34.668,29.785,-411.621,35.645,0.0,0
930,1581350657.32,27.344,20.02,-487.305,31.738000000000003,0.0,0
931,1581350657.323,41.992,38.086,-380.371,23.438,0.0,0
932,1581350657.327,41.992,28.32,-364.258,26.855,0.0,0
933,1581350657.331,41.992,-2.93,-640.137,30.762,0.0,0
934,1581350657.335,28.809,32.715,-573.242,10.742,0.0,0
935,1581350657.339,30.762,59.57,-247.07,3.418,0.0,0
936,1581350657.342,45.41,21.484,-317.871,13.184,0.0,0
937,1581350657.346,24.414,2.93,-484.86300000000006,22.461,0.0,0
938,1581350657.35,32.227,26.855,-382.324,29.785,0.0,0
939,1581350657.354,38.574,33.691,-253.906,25.879,0.0,0
940,1581350657.3579998,20.508000000000006,12.695,-354.492,20.02,0.0,0
941,1581350657.3620002,24.902,-3.418,-542.48,5.859,0.0,0
942,1581350657.3660002,31.738000000000003,-1.465,-620.605,8.789,0.0,0
943,1581350657.369,19.043,17.09,-519.043,11.23,0.0,0
944,1581350657.373,22.461,4.395,-533.203,15.625,0.0,0
945,1581350657.377,24.414,-13.184,-682.1289999999998,14.648,0.0,0
946,1581350657.381,12.207,26.367,-435.059,3.418,0.0,0
947,1581350657.385,19.043,29.297,-283.691,11.23,0.0,0
948,1581350657.3860002,22.949,11.719,-368.652,17.578,0.0,0
949,1581350657.39,19.531,12.207,-401.855,17.09,0.0,0
950,1581350657.394,20.996,20.508000000000006,-366.699,14.648,0.0,0
951,1581350657.3979998,28.32,22.949,-338.379,15.625,0.0,0
952,1581350657.4020002,30.762,12.207,-409.668,16.602,0.0,0
953,1581350657.406,24.902,1.953,-521.9730000000002,16.113,0.0,0
954,1581350657.41,24.902,5.859,-569.8240000000002,19.043,0.0,0
955,1581350657.413,37.598,16.113,-498.047,11.23,0.0,0
956,1581350657.417,38.086,-5.371,-610.352,6.836,0.0,0
957,1581350657.421,20.02,-4.395,-680.176,10.254,0.0,0
958,1581350657.425,15.137,27.344,-383.789,13.184,0.0,0
959,1581350657.429,20.508000000000006,16.113,-355.957,14.648,0.0,0
960,1581350657.431,21.484,9.766,-455.566,13.184,0.0,0
961,1581350657.435,17.09,32.227,-359.375,8.789,0.0,0
962,1581350657.439,24.414,19.531,-329.102,20.508000000000006,0.0,0
963,1581350657.4429998,35.645,-1.465,-425.293,37.109,0.0,0
964,1581350657.447,41.504,15.625,-397.949,32.227,0.0,0
965,1581350657.451,36.621,8.301,-437.98800000000006,25.391,0.0,0
966,1581350657.455,27.832,12.207,-478.027,22.461,0.0,0
967,1581350657.458,37.109,-3.906,-574.707,33.203,0.0,0
968,1581350657.462,37.109,-12.695,-684.57,25.391,0.0,0
969,1581350657.466,27.832,36.621,-376.465,13.672,0.0,0
970,1581350657.47,31.25,22.461,-271.973,26.367,0.0,0
971,1581350657.474,11.23,2.441,-371.094,30.762,0.0,0
972,1581350657.476,21.484,9.277,-414.551,28.809,0.0,0
973,1581350657.48,46.875,24.902,-297.363,24.414,0.0,0
974,1581350657.484,42.969,21.973000000000006,-229.004,20.508000000000006,0.0,0
975,1581350657.488,37.109,7.812,-358.88699999999994,21.484,0.0,0
976,1581350657.492,24.414,11.23,-425.781,20.996,0.0,0
977,1581350657.496,30.273000000000003,11.719,-438.477,19.043,0.0,0
978,1581350657.5,37.598,4.395,-488.77,18.555,0.0,0
979,1581350657.5029998,32.227,-18.066,-666.0160000000002,21.973000000000006,0.0,0
980,1581350657.5070002,31.25,1.953,-611.328,11.719,0.0,0
981,1581350657.5110002,19.043,30.762,-285.156,6.836,0.0,0
982,1581350657.515,23.926,-0.488,-332.52,17.578,0.0,0
983,1581350657.519,21.484,0.977,-421.875,12.695,0.0,0
984,1581350657.521,21.484,23.438,-360.352,3.906,0.0,0
985,1581350657.525,13.672,25.391,-317.383,3.906,0.0,0
986,1581350657.529,18.555,6.348,-366.211,3.906,0.0,0
987,1581350657.533,34.668,1.465,-435.059,9.277,0.0,0
988,1581350657.5370002,22.949,18.555,-358.398,12.695,0.0,0
989,1581350657.541,36.621,16.113,-340.82,12.695,0.0,0
990,1581350657.545,51.758,-6.348,-474.609,19.043,0.0,0
991,1581350657.548,40.527,-13.184,-605.469,22.461,0.0,0
992,1581350657.552,11.719,17.09,-448.242,17.09,0.0,0
993,1581350657.556,14.648,11.719,-329.102,20.02,0.0,0
994,1581350657.56,28.809,4.395,-309.082,13.672,0.0,0
995,1581350657.564,5.859,10.254,-285.645,3.906,0.0,0
996,1581350657.566,8.301,12.695,-238.77,16.113,0.0,0
997,1581350657.57,19.531,9.277,-229.98,28.32,0.0,0
998,1581350657.574,8.789,-9.277,-335.449,17.578,0.0,0
999,1581350657.5779998,30.273000000000003,-7.324,-356.445,20.02,0.0,0
1000,1581350657.582,43.945,13.184,-227.051,25.391,0.0,0
1001,1581350657.586,43.945,4.395,-359.375,29.297,0.0,0
1002,1581350657.59,42.969,-12.207,-652.832,34.668,0.0,0
1003,1581350657.593,38.086,14.16,-535.156,26.855,0.0,0
1004,1581350657.597,25.391,43.457,-226.074,24.902,0.0,0
1005,1581350657.601,15.137,20.996,-246.094,36.133,0.0,0
1006,1581350657.605,29.785,14.16,-336.914,27.344,0.0,0
1007,1581350657.609,46.387,35.156,-255.859,10.742,0.0,0
1008,1581350657.6260002,45.41,32.715,-188.965,29.785,0.0,0
1009,1581350657.63,39.062,9.766,-253.906,42.48,0.0,0
1010,1581350657.6339998,46.875,9.766,-318.3590000000001,31.25,0.0,0
1011,1581350657.6379998,28.32,39.551,-197.266,24.414,0.0,0
1012,1581350657.6420002,17.578,41.01600000000001,-82.52,17.578,0.0,0
1013,1581350657.646,16.602,7.324,-310.547,15.625,0.0,0
1014,1581350657.65,25.391,4.883,-459.473,19.043,0.0,0
1015,1581350657.653,48.34,37.598,-207.031,18.555,0.0,0
1016,1581350657.657,45.898,22.949,-204.59,20.996,0.0,0
1017,1581350657.661,37.109,0.488,-427.734,22.949,0.0,0
1018,1581350657.665,20.508000000000006,12.695,-418.457,16.602,0.0,0
1019,1581350657.669,31.25,38.574,-189.453,19.531,0.0,0
1020,1581350657.671,53.223,42.48,-121.582,35.645,0.0,0
1021,1581350657.675,40.527,25.879,-189.941,39.551,0.0,0
1022,1581350657.679,25.879,14.648,-274.902,29.785,0.0,0
1023,1581350657.6829998,22.949,17.09,-251.465,18.555,0.0,0
1024,1581350657.687,37.109,13.184,-215.82,18.066,0.0,0
1025,1581350657.691,37.598,6.348,-348.145,24.902,0.0,0
1026,1581350657.695,28.32,4.883,-501.953,30.762,0.0,0
1027,1581350657.698,19.531,25.391,-438.477,20.996,0.0,0
1028,1581350657.702,16.602,37.109,-311.523,21.484,0.0,0
1029,1581350657.706,23.926,-0.488,-558.105,16.113,0.0,0
1030,1581350657.71,25.879,10.742,-564.453,-0.977,0.0,0
1031,1581350657.714,16.113,31.738000000000003,-359.86300000000006,17.09,0.0,0
1032,1581350657.716,24.902,10.742,-466.797,20.02,0.0,0
1033,1581350657.72,31.738000000000003,20.02,-390.625,3.906,0.0,0
1034,1581350657.724,10.254,29.297,-303.223,21.973000000000006,0.0,0
1035,1581350657.728,15.625,26.855,-321.289,30.273000000000003,0.0,0
1036,1581350657.732,29.785,22.949,-369.141,24.414,0.0,0
1037,1581350657.736,28.809,8.789,-492.1880000000001,17.578,0.0,0
1038,1581350657.74,24.902,2.441,-546.387,18.555,0.0,0
1039,1581350657.7429998,27.344,16.602,-464.844,34.18,0.0,0
1040,1581350657.7470002,40.527,-0.488,-511.23,29.785,0.0,0
1041,1581350657.7510002,26.855,-2.441,-691.895,13.672,0.0,0
1042,1581350657.755,8.789,50.78100000000001,-464.355,2.441,0.0,0
1043,1581350657.7589998,15.137,58.105,-307.617,3.418,0.0,0
1044,1581350657.7610002,34.668,33.203,-325.195,23.926,0.0,0
1045,1581350657.765,35.645,23.438,-306.641,16.113,0.0,0
1046,1581350657.769,32.715,28.32,-343.26199999999994,17.578,0.0,0
1047,1581350657.7729998,25.879,28.809,-340.82,27.344,0.0,0
1048,1581350657.7770002,18.555,27.344,-330.566,24.414,0.0,0
1049,1581350657.781,39.551,18.066,-411.621,24.902,0.0,0
1050,1581350657.785,36.621,19.043,-407.227,19.043,0.0,0
1051,1581350657.788,32.715,22.461,-365.723,28.809,0.0,0
1052,1581350657.792,16.113,11.719,-518.066,19.531,0.0,0
1053,1581350657.796,10.742,25.391,-508.301,4.883,0.0,0
1054,1581350657.8,28.32,53.223,-189.941,0.977,0.0,0
1055,1581350657.804,35.156,28.809,-185.05900000000003,2.93,0.0,0
1056,1581350657.806,34.18,10.254,-313.965,16.602,0.0,0
1057,1581350657.81,23.438,23.926,-274.902,20.508000000000006,0.0,0
1058,1581350657.814,39.062,22.461,-226.074,24.414,0.0,0
1059,1581350657.8179998,39.551,10.742,-344.727,14.16,0.0,0
1060,1581350657.822,27.832,10.254,-450.195,14.648,0.0,0
1061,1581350657.826,41.504,16.113,-446.777,22.461,0.0,0
1062,1581350657.83,41.01600000000001,11.719,-474.121,17.09,0.0,0
1063,1581350657.833,21.973000000000006,-14.16,-609.375,13.184,0.0,0
1064,1581350657.837,18.555,-14.648,-703.613,18.066,0.0,0
1065,1581350657.841,30.273000000000003,26.367,-459.961,17.578,0.0,0
1066,1581350657.845,30.273000000000003,34.668,-281.738,15.625,0.0,0
1067,1581350657.849,41.504,26.367,-320.312,19.043,0.0,0
1068,1581350657.851,34.668,25.391,-359.375,10.742,0.0,0
1069,1581350657.855,2.93,19.531,-370.605,26.855,0.0,0
1070,1581350657.859,20.02,14.16,-390.625,29.297,0.0,0
1071,1581350657.863,46.387,24.414,-361.328,11.719,0.0,0
1072,1581350657.867,35.156,32.227,-309.082,26.855,0.0,0
1073,1581350657.871,26.855,21.973000000000006,-376.465,34.18,0.0,0
1074,1581350657.875,26.367,6.836,-542.48,34.668,0.0,0
1075,1581350657.8779998,27.832,4.395,-652.832,25.391,0.0,0
1076,1581350657.8820002,32.715,26.855,-629.395,11.719,0.0,0
1077,1581350657.8860002,24.902,54.688,-395.02,12.695,0.0,0
1078,1581350657.89,28.32,45.898,-318.848,19.043,0.0,0
1079,1581350657.894,22.949,31.25,-381.836,26.855,0.0,0
1080,1581350657.896,21.484,46.387,-288.574,15.625,0.0,0
1081,1581350657.9,34.18,49.316,-230.957,14.16,0.0,0
1082,1581350657.904,21.484,21.973000000000006,-367.1880000000001,22.949,0.0,0
1083,1581350657.908,10.254,20.02,-431.152,18.555,0.0,0
1084,1581350657.9120002,43.457,34.18,-324.219,19.043,0.0,0
1085,1581350657.916,57.617,19.043,-385.742,29.297,0.0,0
1086,1581350657.92,47.363,-1.953,-652.832,33.691,0.0,0
1087,1581350657.923,37.109,11.23,-702.148,28.809,0.0,0
1088,1581350657.927,32.227,54.199,-383.789,17.09,0.0,0
1089,1581350657.931,25.879,42.48,-263.672,13.672,0.0,0
1090,1581350657.935,28.809,7.324,-433.594,12.695,0.0,0
1091,1581350657.939,35.156,10.742,-537.109,16.113,0.0,0
1092,1581350657.941,22.949,41.992,-402.344,17.09,0.0,0
1093,1581350657.945,37.109,43.457,-357.422,27.344,0.0,0
1094,1581350657.949,43.457,34.668,-445.801,32.227,0.0,0
1095,1581350657.9529998,25.391,39.062,-440.43,13.672,0.0,0
1096,1581350657.957,29.785,42.48,-347.656,1.953,0.0,0
1097,1581350657.961,34.18,26.367,-398.4380000000001,21.484,0.0,0
1098,1581350657.965,36.133,8.789,-674.805,29.785,0.0,0
1099,1581350657.968,27.832,31.738000000000003,-663.574,8.301,0.0,0
1100,1581350657.972,29.297,50.78100000000001,-390.137,23.438,0.0,0
1101,1581350657.976,38.086,35.645,-348.6330000000001,35.645,0.0,0
1102,1581350657.98,41.992,25.879,-451.66,38.086,0.0,0
1103,1581350657.984,37.109,41.01600000000001,-423.828,28.809,0.0,0
1104,1581350658.0,27.344,46.387,-343.26199999999994,24.902,0.0,0
1105,1581350658.004,43.457,37.598,-389.648,42.48,0.0,0
1106,1581350658.008,56.64100000000001,25.879,-472.656,35.645,0.0,0
1107,1581350658.012,39.551,35.645,-392.09,40.039,0.0,0
1108,1581350658.016,41.992,42.48,-293.945,46.387,0.0,0
1109,1581350658.02,57.617,13.184,-484.375,43.945,0.0,0
1110,1581350658.024,53.71100000000001,11.23,-666.0160000000002,36.621,0.0,0
1111,1581350658.0270002,44.434,57.617,-487.793,34.18,0.0,0
1112,1581350658.031,36.133,60.547,-357.422,30.762,0.0,0
1113,1581350658.035,46.387,45.41,-417.48,26.367,0.0,0
1114,1581350658.039,59.57,52.734,-401.367,22.949,0.0,0
1115,1581350658.043,50.78100000000001,54.199,-345.7030000000001,31.738000000000003,0.0,0
1116,1581350658.045,40.527,43.945,-438.965,39.062,0.0,0
1117,1581350658.049,50.78100000000001,45.898,-516.602,32.715,0.0,0
1118,1581350658.053,38.574,52.246,-457.52,46.875,0.0,0
1119,1581350658.0570002,14.648,57.129,-328.125,40.039,0.0,0
1120,1581350658.061,37.109,47.363,-285.645,33.691,0.0,0
1121,1581350658.065,56.64100000000001,24.414,-443.848,34.18,0.0,0
1122,1581350658.069,50.293,23.926,-575.684,28.809,0.0,0
1123,1581350658.072,44.434,44.434,-528.32,25.391,0.0,0
1124,1581350658.076,41.01600000000001,43.457,-462.891,21.973000000000006,0.0,0
1125,1581350658.08,41.01600000000001,18.066,-670.898,26.855,0.0,0
1126,1581350658.084,21.973000000000006,49.805,-625.0,15.625,0.0,0
1127,1581350658.0879998,29.785,76.172,-291.992,17.578,0.0,0
1128,1581350658.09,55.664,48.34,-376.465,33.203,0.0,0
1129,1581350658.094,77.637,48.828,-442.871,39.062,0.0,0
1130,1581350658.0979998,59.082,70.312,-297.363,31.738000000000003,0.0,0
1131,1581350658.1020002,24.414,71.777,-270.996,20.508000000000006,0.0,0
1132,1581350658.106,32.227,47.363,-387.207,28.809,0.0,0
1133,1581350658.11,38.086,21.484,-556.641,41.504,0.0,0
1134,1581350658.1139998,28.809,23.926,-624.023,37.598,0.0,0
1135,1581350658.117,22.949,54.688,-406.73800000000006,32.715,0.0,0
1136,1581350658.121,28.32,34.668,-454.102,33.691,0.0,0
1137,1581350658.125,31.738000000000003,20.508000000000006,-716.797,31.25,0.0,0
1138,1581350658.129,20.02,66.406,-475.098,17.09,0.0,0
1139,1581350658.133,27.344,69.336,-313.965,8.301,0.0,0
1140,1581350658.135,33.203,56.152,-414.062,10.254,0.0,0
1141,1581350658.139,30.762,48.828,-485.84,20.508000000000006,0.0,0
1142,1581350658.143,26.367,56.152,-396.973,20.996,0.0,0
1143,1581350658.147,23.438,43.457,-362.305,19.043,0.0,0
1144,1581350658.151,34.18,32.227,-437.98800000000006,23.438,0.0,2
1145,1581350658.155,41.01600000000001,28.809,-541.992,27.344,0.0,0
1146,1581350658.159,44.434,23.926,-590.332,20.996,0.0,0
1147,1581350658.1620002,50.78100000000001,43.945,-466.797,21.973000000000006,0.0,0
1148,1581350658.166,49.805,30.762,-576.172,31.25,0.0,0
1149,1581350658.17,29.297,36.133,-620.117,29.297,0.0,0
1150,1581350658.174,20.02,46.387,-457.52,29.297,0.0,0
1151,1581350658.178,43.945,25.879,-505.371,23.926,0.0,0
1152,1581350658.18,49.316,29.785,-496.094,17.578,0.0,0
1153,1581350658.184,29.297,48.828,-366.211,21.484,0.0,0
1154,1581350658.188,29.785,51.27,-284.668,26.367,0.0,0
1155,1581350658.1920002,44.434,31.738000000000003,-394.531,30.762,0.0,0
1156,1581350658.196,49.805,28.32,-437.012,28.32,0.0,0
1157,1581350658.2,48.828,21.973000000000006,-439.453,28.32,0.0,0
1158,1581350658.204,33.691,24.902,-470.215,30.273000000000003,0.0,0
1159,1581350658.207,31.738000000000003,12.207,-609.375,35.645,0.0,0
1160,1581350658.211,45.41,13.184,-707.0310000000002,29.785,0.0,0
1161,1581350658.215,38.086,62.5,-422.36300000000006,23.438,0.0,0
1162,1581350658.219,24.902,61.035,-310.059,25.879,0.0,0
1163,1581350658.2229998,23.926,40.039,-436.035,19.043,0.0,0
1164,1581350658.225,41.01600000000001,40.039,-425.781,23.438,0.0,0
1165,1581350658.229,48.34,45.41,-307.129,29.297,0.0,0
1166,1581350658.2329998,37.598,42.48,-334.961,22.461,0.0,0
1167,1581350658.2370002,37.109,41.504,-431.641,30.273000000000003,0.0,0
1168,1581350658.2410002,25.879,36.621,-404.297,26.855,0.0,0
1169,1581350658.245,31.738000000000003,18.066,-457.031,0.977,0.0,0
1170,1581350658.2489998,36.621,15.625,-524.9019999999998,14.16,0.0,0
1171,1581350658.252,17.09,5.371,-662.5980000000002,31.738000000000003,0.0,0
1172,1581350658.256,26.855,20.508000000000006,-657.227,24.414,0.0,0
1173,1581350658.26,30.762,51.27,-324.219,20.996,0.0,0
1174,1581350658.264,38.574,29.785,-285.156,24.414,0.0,0
1175,1581350658.268,47.852,17.09,-412.109,28.809,0.0,0
1176,1581350658.27,37.598,25.879,-371.094,12.207,0.0,0
1177,1581350658.274,34.668,29.297,-284.668,10.254,0.0,0
1178,1581350658.278,41.992,16.113,-373.047,23.926,0.0,0
1179,1581350658.282,39.551,10.742,-468.75,30.273000000000003,0.0,0
1180,1581350658.286,11.719,25.391,-404.297,24.414,0.0,0
1181,1581350658.29,5.859,28.809,-435.059,19.043,0.0,0
1182,1581350658.294,36.621,8.789,-581.055,25.879,0.0,0
1183,1581350658.2970002,27.832,0.977,-678.2230000000002,31.738000000000003,0.0,0
1184,1581350658.301,13.672,41.504,-428.223,16.602,0.0,0
1185,1581350658.305,31.25,31.25,-295.898,15.137,0.0,0
1186,1581350658.309,36.621,14.648,-349.6090000000001,19.531,0.0,0
1187,1581350658.313,41.504,13.672,-330.0780000000001,5.859,0.0,0
1188,1581350658.315,20.02,12.695,-271.973,0.488,0.0,0
1189,1581350658.319,1.953,10.254,-289.551,-4.395,0.0,0
1190,1581350658.323,12.207,3.906,-386.23,4.395,0.0,0
1191,1581350658.327,24.902,14.648,-357.91,9.277,0.0,0
1192,1581350658.331,23.438,13.184,-279.785,14.16,0.0,0
1193,1581350658.335,30.273000000000003,-11.719,-457.52,21.973000000000006,0.0,0
1194,1581350658.339,29.297,-10.742,-670.41,14.648,0.0,0
1195,1581350658.342,22.949,-2.441,-607.422,12.207,0.0,0
1196,1581350658.346,32.227,-2.441,-413.574,17.578,0.0,0
1197,1581350658.35,19.043,7.812,-351.074,18.555,0.0,0
1198,1581350658.354,8.789,9.277,-359.375,12.207,0.0,0
1199,1581350658.3579998,20.02,21.973000000000006,-312.988,10.254,0.0,0
1200,1581350658.3760002,26.367,20.508000000000006,-285.156,15.625,0.0,0
1201,1581350658.38,33.203,-6.836,-407.227,34.18,0.0,0
1202,1581350658.3839998,47.852,-7.812,-454.59,32.227,0.0,0
1203,1581350658.3879998,36.621,12.207,-351.5619999999999,24.414,0.0,0
1204,1581350658.3920002,31.738000000000003,1.953,-307.129,27.344,0.0,0
1205,1581350658.396,40.527,-34.18,-540.5269999999998,29.785,0.0,0
1206,1581350658.4,24.902,-28.32,-682.617,20.996,0.0,0
1207,1581350658.403,19.531,8.301,-429.199,13.672,0.0,0
1208,1581350658.407,25.879,-1.465,-356.445,7.812,0.0,0
1209,1581350658.411,40.039,-19.043,-513.184,14.648,0.0,0
1210,1581350658.415,23.926,-37.109,-661.6210000000002,20.996,0.0,0
1211,1581350658.419,-9.277,-42.969,-580.078,-17.09,0.0,0
1212,1581350658.421,-20.02,-43.457,-437.98800000000006,-38.574,0.0,0
1213,1581350658.425,-29.785,-52.246,-454.59,-22.461,0.0,0
1214,1581350658.429,-29.297,-45.41,-435.547,-22.461,0.0,0
1215,1581350658.4329998,-35.645,-41.01600000000001,-342.773,-30.762,0.0,0
1216,1581350658.437,-26.367,-39.551,-310.059,-24.414,0.0,0
1217,1581350658.441,-7.324,-52.246,-424.805,-29.297,0.0,0
1218,1581350658.445,-28.32,-49.805,-527.344,-44.434,0.0,0
1219,1581350658.448,-35.645,-33.691,-387.695,-37.598,0.0,0
1220,1581350658.452,-21.484,-48.828,-329.102,-18.066,0.0,0
1221,1581350658.456,-20.508000000000006,-68.848,-583.984,-18.555,0.0,0
1222,1581350658.46,-22.949,-37.598,-586.4259999999998,-30.273000000000003,0.0,0
1223,1581350658.464,-18.555,-15.625,-381.836,-31.738000000000003,0.0,0
1224,1581350658.466,-20.996,-41.504,-502.441,-26.367,0.0,0
1225,1581350658.47,-11.719,-40.039,-540.039,-21.973000000000006,0.0,0
1226,1581350658.474,-6.836,-24.902,-403.809,-23.438,0.0,0
1227,1581350658.478,-14.648,-21.484,-317.871,-29.785,0.0,0
1228,1581350658.482,12.207,-40.527,-364.258,-20.508000000000006,0.0,0
1229,1581350658.486,14.16,-54.688,-530.273,-13.184,0.0,0
1230,1581350658.49,-9.277,-40.527,-607.91,-11.23,0.0,0
1231,1581350658.4929998,-12.207,-6.348,-443.848,-18.066,0.0,0
1232,1581350658.4970002,10.742,-33.691,-516.602,1.465,0.0,0
1233,1581350658.5010002,18.555,-51.27,-690.43,7.324,0.0,0
1234,1581350658.505,2.93,0.977,-429.199,-6.836,0.0,0
1235,1581350658.5089998,-8.301,0.488,-291.992,0.977,0.0,0
1236,1581350658.5110002,-5.859,-13.672,-373.535,-3.418,0.0,0
1237,1581350658.515,9.277,-6.348,-373.535,-10.254,0.0,0
1238,1581350658.519,16.113,-4.395,-291.504,-7.812,0.0,0
1239,1581350658.5229998,2.441,-4.883,-290.039,-6.348,0.0,0
1240,1581350658.5270002,15.137,-16.602,-421.387,3.906,0.0,0
1241,1581350658.531,20.996,-20.02,-509.277,11.719,0.0,0
1242,1581350658.535,-0.488,-4.395,-452.637,-3.418,0.0,0
1243,1581350658.538,4.883,6.836,-348.6330000000001,-8.789,0.0,0
1244,1581350658.542,19.531,-20.508000000000006,-547.852,0.0,0.0,0
1245,1581350658.546,-10.742,-9.277,-583.984,-9.277,0.0,0
1246,1581350658.55,-10.742,16.602,-288.574,-6.348,0.0,0
1247,1581350658.554,25.391,-2.93,-301.758,7.324,0.0,0
1248,1581350658.556,22.461,-9.277,-409.18,13.184,0.0,0
1249,1581350658.56,30.273000000000003,2.441,-390.625,-0.977,0.0,0
1250,1581350658.564,20.508000000000006,2.93,-356.934,0.977,0.0,0
1251,1581350658.5679998,27.344,-8.301,-436.523,9.766,0.0,0
1252,1581350658.572,32.715,-3.418,-453.125,7.812,0.0,0
1253,1581350658.576,11.719,-9.277,-478.027,12.207,0.0,0
1254,1581350658.58,24.902,-10.742,-525.391,9.766,0.0,0
1255,1581350658.583,42.969,-23.926,-583.984,16.113,0.0,0
1256,1581350658.587,31.25,-30.273000000000003,-662.1089999999998,16.602,0.0,0
1257,1581350658.591,5.371,10.254,-443.359,6.836,0.0,0
1258,1581350658.595,7.324,6.348,-331.543,9.766,0.0,0
1259,1581350658.599,21.973000000000006,-12.207,-425.781,13.672,0.0,0
1260,1581350658.601,27.832,-3.418,-449.707,11.23,0.0,0
1261,1581350658.605,7.812,10.254,-372.07,9.766,0.0,0
1262,1581350658.609,0.0,7.812,-335.449,8.301,0.0,0
1263,1581350658.613,27.344,10.742,-385.742,13.184,0.0,0
1264,1581350658.617,27.344,14.648,-377.441,9.766,0.0,0
1265,1581350658.621,25.879,2.93,-458.008,6.836,0.0,0
1266,1581350658.625,38.574,-1.465,-556.1519999999998,19.043,0.0,0
1267,1581350658.6279998,34.668,-10.254,-620.605,17.578,0.0,0
1268,1581350658.6320002,29.297,13.672,-513.672,10.742,0.0,0
1269,1581350658.6360002,20.996,34.18,-314.941,4.883,0.0,0
1270,1581350658.64,16.113,-0.977,-501.465,9.766,0.0,0
1271,1581350658.644,32.227,6.348,-512.695,20.508000000000006,0.0,0
1272,1581350658.646,18.555,32.227,-311.523,12.695,0.0,0
1273,1581350658.65,2.441,28.32,-249.512,10.742,0.0,0
1274,1581350658.654,16.113,20.996,-326.172,13.184,0.0,0
1275,1581350658.658,7.324,21.484,-386.719,5.371,0.0,0
1276,1581350658.6620002,21.973000000000006,18.555,-303.711,9.766,0.0,0
1277,1581350658.666,45.41,-2.441,-425.293,18.066,0.0,0
1278,1581350658.67,27.832,-18.066,-665.039,18.066,0.0,0
1279,1581350658.673,27.344,-6.348,-723.633,26.367,0.0,0
1280,1581350658.677,40.527,31.25,-468.75,14.648,0.0,0
1281,1581350658.681,36.133,36.621,-304.199,6.836,0.0,0
1282,1581350658.685,26.855,26.367,-392.09,16.113,0.0,0
1283,1581350658.689,34.18,23.438,-397.461,18.066,0.0,0
1284,1581350658.691,48.34,20.996,-339.355,17.09,0.0,0
1285,1581350658.695,41.01600000000001,7.324,-400.391,20.02,0.0,0
1286,1581350658.699,24.902,-1.953,-454.102,19.043,0.0,0
1287,1581350658.7029998,23.926,12.695,-416.504,9.766,0.0,0
1288,1581350658.707,26.855,13.672,-345.215,11.719,0.0,0
1289,1581350658.711,22.949,-10.742,-444.824,18.555,0.0,0
1290,1581350658.715,14.16,-9.766,-561.035,13.184,0.0,0
1291,1581350658.718,24.902,9.277,-503.418,16.113,0.0,0
1292,1581350658.722,29.297,26.367,-368.652,18.555,0.0,0
1293,1581350658.726,45.41,9.277,-328.125,16.113,0.0,0
1294,1581350658.73,50.78100000000001,-15.137,-500.48800000000006,12.695,0.0,0
1295,1581350658.734,9.766,11.719,-464.355,2.93,0.0,0
1296,1581350658.7510002,8.301,16.602,-327.148,12.207,0.0,0
1297,1581350658.755,15.137,-1.953,-434.082,14.16,0.0,0
1298,1581350658.7589998,2.441,3.906,-448.73,5.371,0.0,0
1299,1581350658.7629998,13.672,22.461,-343.75,-1.953,0.0,0
1300,1581350658.7670002,13.672,11.23,-393.066,-1.953,0.0,0
1301,1581350658.771,19.043,-19.531,-565.43,15.625,0.0,0
1302,1581350658.775,11.719,-17.09,-633.3009999999998,2.441,0.0,0
1303,1581350658.778,-10.742,20.996,-446.777,-10.742,0.0,0
1304,1581350658.782,-2.441,24.902,-361.328,9.277,0.0,0
1305,1581350658.786,21.484,13.184,-425.293,15.625,0.0,0
1306,1581350658.79,41.01600000000001,18.066,-406.25,11.719,0.0,0
1307,1581350658.794,28.809,21.973000000000006,-271.48400000000004,14.648,0.0,0
1308,1581350658.796,7.812,9.766,-256.348,15.137,0.0,0
1309,1581350658.8,27.832,-3.906,-379.395,11.23,0.0,0
1310,1581350658.804,35.645,-1.465,-377.441,13.184,0.0,0
1311,1581350658.8079998,10.742,8.789,-304.688,14.648,0.0,0
1312,1581350658.812,19.043,9.766,-344.727,16.113,0.0,0
1313,1581350658.816,45.898,2.93,-484.375,20.02,0.0,0
1314,1581350658.82,48.828,21.973000000000006,-480.957,21.973000000000006,0.0,0
1315,1581350658.823,50.293,45.898,-368.164,26.367,0.0,0
1316,1581350658.827,49.316,41.992,-348.145,42.969,0.0,0
1317,1581350658.831,50.293,20.02,-562.988,52.734,0.0,0
1318,1581350658.835,54.199,55.176,-488.77,52.246,0.0,0
1319,1581350658.839,67.87100000000001,78.125,-228.027,54.688,0.0,0
1320,1581350658.844,76.172,60.547,-297.8520000000001,55.664,0.0,0
1321,1581350658.8479998,65.918,61.035,-308.594,58.105,0.0,0
1322,1581350658.8520002,76.66,64.453,-250.488,58.594,0.0,0
1323,1581350658.856,76.66,63.477,-211.914,56.64100000000001,0.0,0
1324,1581350658.86,58.105,41.992,-287.1090000000001,54.199,0.0,0
1325,1581350658.8639998,64.453,21.484,-492.676,51.758,0.0,0
1326,1581350658.8679998,69.824,34.668,-528.809,33.691,0.0,0
1327,1581350658.871,56.64100000000001,56.64100000000001,-308.105,31.738000000000003,0.0,0
1328,1581350658.875,74.707,26.367,-359.86300000000006,69.824,0.0,0
1329,1581350658.879,96.191,-6.836,-673.828,78.613,0.0,0
1330,1581350658.883,68.848,33.691,-519.531,46.875,0.0,0
1331,1581350658.887,58.105,53.71100000000001,-280.273,41.992,0.0,0
1332,1581350658.8860002,32.715,31.25,-325.195,58.105,0.0,0
1333,1581350658.89,35.156,28.32,-343.26199999999994,46.875,0.0,0
1334,1581350658.894,47.852,24.902,-304.199,31.738000000000003,0.0,0
1335,1581350658.8979998,47.363,17.09,-301.758,46.875,0.0,0
1336,1581350658.9020002,56.152,10.254,-344.727,52.246,0.0,0
1337,1581350658.906,24.902,-6.348,-469.727,33.691,0.0,0
1338,1581350658.91,9.766,-2.93,-494.141,24.414,0.0,0
1339,1581350658.913,57.129,5.859,-428.711,28.32,0.0,0
1340,1581350658.917,78.613,-6.836,-545.898,27.832,0.0,0
1341,1581350658.921,44.922,15.137,-531.738,27.344,0.0,0
1342,1581350658.925,14.648,37.598,-316.406,29.785,0.0,0
1343,1581350658.929,40.039,0.488,-348.6330000000001,39.062,0.0,0
1344,1581350658.931,55.664,-19.043,-470.703,9.277,0.0,0
1345,1581350658.935,34.668,8.789,-423.34,-18.066,0.0,0
1346,1581350658.939,25.391,25.879,-318.3590000000001,8.789,0.0,0
1347,1581350658.9429998,2.93,-6.348,-369.629,0.977,0.0,0
1348,1581350658.947,-9.766,-34.18,-411.133,-9.277,0.0,0
1349,1581350658.951,6.348,-43.457,-465.82,-8.789,0.0,0
1350,1581350658.955,-13.184,-43.945,-485.84,-25.879,0.0,0
1351,1581350658.958,-15.625,-64.941,-568.359,-25.391,0.0,0
1352,1581350658.962,-22.461,-67.87100000000001,-717.285,-24.902,0.0,0
1353,1581350658.966,-36.133,-30.762,-478.027,-41.01600000000001,0.0,0
1354,1581350658.97,-15.137,-35.645,-317.871,-34.18,0.0,0
1355,1581350658.974,-24.902,-43.457,-408.203,-27.832,0.0,0
1356,1581350658.976,-21.973000000000006,-35.156,-463.379,-19.043,0.0,0
1357,1581350658.98,-13.672,-25.879,-388.184,3.418,0.0,0
1358,1581350658.984,-13.184,-28.32,-340.332,-18.555,0.0,0
1359,1581350658.988,-0.488,-37.109,-481.445,-52.246,0.0,0
1360,1581350658.992,-25.391,-29.297,-496.094,-38.086,0.0,0
1361,1581350658.996,-28.32,-30.762,-452.148,-1.953,0.0,0
1362,1581350659.0,16.602,-28.809,-528.32,2.441,0.0,0
1363,1581350659.0029998,10.254,-36.621,-696.289,2.93,0.0,0
1364,1581350659.0070002,-7.324,-20.996,-690.918,0.977,0.0,0
1365,1581350659.0110002,14.16,6.836,-392.09,0.488,0.0,0
1366,1581350659.015,14.648,-15.625,-357.422,-0.977,0.0,0
1367,1581350659.019,-3.418,-20.02,-437.98800000000006,-4.395,0.0,0
1368,1581350659.021,0.488,-9.277,-415.527,-4.395,0.0,0
1369,1581350659.025,7.324,-6.348,-377.93,-15.137,0.0,0
1370,1581350659.029,4.395,-8.789,-394.043,-13.184,0.0,0
1371,1581350659.033,-0.977,-4.883,-404.297,6.836,0.0,0
1372,1581350659.0370002,-1.465,-5.371,-401.367,-6.836,0.0,0
1373,1581350659.041,8.789,-16.113,-500.977,-4.883,0.0,0
1374,1581350659.045,14.16,-29.297,-648.9259999999998,10.742,0.0,0
1375,1581350659.048,17.09,-18.066,-713.3789999999998,10.254,0.0,0
1376,1581350659.052,9.277,23.438,-470.703,7.324,0.0,0
1377,1581350659.056,9.277,12.695,-383.789,2.441,0.0,0
1378,1581350659.06,19.531,8.301,-402.832,7.812,0.0,0
1379,1581350659.064,15.137,14.648,-366.211,15.137,0.0,0
1380,1581350659.066,-5.859,10.742,-333.0080000000001,0.488,0.0,0
1381,1581350659.07,2.93,4.395,-322.754,0.0,0.0,0
1382,1581350659.074,25.879,3.906,-366.699,6.348,0.0,0
1383,1581350659.0779998,18.555,15.137,-353.027,14.648,0.0,0
1384,1581350659.082,14.648,13.672,-321.777,28.32,0.0,0
1385,1581350659.086,24.902,-7.324,-468.75,24.414,0.0,0
1386,1581350659.09,31.25,-21.973000000000006,-699.2189999999998,17.09,0.0,0
1387,1581350659.093,18.066,4.395,-606.934,8.789,0.0,0
1388,1581350659.097,4.883,30.273000000000003,-300.781,6.836,0.0,0
1389,1581350659.101,5.859,-2.441,-405.762,9.277,0.0,0
1390,1581350659.105,12.207,-0.488,-522.9490000000002,5.371,0.0,0
1391,1581350659.109,25.391,26.855,-355.957,11.719,0.0,0
1392,1581350659.125,28.809,30.762,-206.055,13.184,0.0,0
1393,1581350659.129,27.832,16.602,-286.621,13.672,0.0,0
1394,1581350659.133,36.133,10.742,-442.383,20.508000000000006,0.0,0
1395,1581350659.137,30.762,36.133,-339.844,17.09,0.0,0
1396,1581350659.141,27.344,41.504,-238.77,16.113,0.0,0
1397,1581350659.145,26.367,4.883,-433.594,36.621,0.0,0
1398,1581350659.149,11.23,-5.859,-676.758,36.133,0.0,0
1399,1581350659.1520002,16.602,45.41,-443.359,6.348,0.0,0
1400,1581350659.156,28.809,51.758,-237.793,26.367,0.0,0
1401,1581350659.16,28.32,29.297,-382.812,40.039,0.0,0
1402,1581350659.164,35.645,33.203,-474.609,34.18,0.0,0
1403,1581350659.168,32.227,52.246,-345.7030000000001,24.414,0.0,0
1404,1581350659.17,39.062,42.969,-374.512,21.973000000000006,0.0,0
1405,1581350659.174,42.48,35.645,-476.562,30.273000000000003,0.0,0
1406,1581350659.178,26.855,41.01600000000001,-429.199,24.902,0.0,0
1407,1581350659.1820002,39.062,43.457,-383.789,27.832,0.0,0
1408,1581350659.186,57.617,50.293,-346.68,30.273000000000003,0.0,0
1409,1581350659.19,52.734,33.203,-503.906,31.738000000000003,0.0,0
1410,1581350659.194,20.508000000000006,32.227,-674.316,18.555,0.0,0
1411,1581350659.197,20.996,62.012,-528.809,14.16,0.0,0
1412,1581350659.201,45.898,68.848,-341.797,43.945,0.0,0
1413,1581350659.205,52.734,38.574,-544.434,46.387,0.0,0
1414,1581350659.209,42.48,53.223,-574.707,35.645,0.0,0
1415,1581350659.2129998,53.71100000000001,77.637,-366.699,56.152,0.0,0
1416,1581350659.215,75.195,66.895,-432.129,73.242,0.0,0
1417,1581350659.219,66.895,67.383,-453.125,71.289,0.0,0
1418,1581350659.2229998,69.824,78.613,-372.559,60.059,0.0,0
1419,1581350659.2270002,61.523,70.801,-445.312,63.965,0.0,0
1420,1581350659.231,62.988,57.617,-546.387,75.684,0.0,0
1421,1581350659.235,69.824,52.246,-550.293,73.73,0.0,0
1422,1581350659.2389998,72.75399999999998,55.664,-601.562,59.57,0.0,0
1423,1581350659.242,64.941,76.66,-468.75,42.48,0.0,0
1424,1581350659.246,62.988,58.594,-490.723,55.664,0.0,0
1425,1581350659.25,59.57,47.363,-672.852,51.27,0.0,0
1426,1581350659.254,40.527,76.66,-485.84,39.062,0.0,0
1427,1581350659.258,34.18,66.895,-431.641,35.645,0.0,0
1428,1581350659.26,49.805,58.105,-494.141,41.504,0.0,0
1429,1581350659.264,64.941,51.27,-477.539,48.828,0.0,0
1430,1581350659.268,55.664,66.895,-350.098,50.293,0.0,2
1431,1581350659.272,48.34,70.801,-315.918,43.457,0.0,0
1432,1581350659.276,62.012,56.64100000000001,-437.5,44.434,0.0,0
1433,1581350659.28,62.988,53.71100000000001,-567.871,42.48,0.0,0
1434,1581350659.284,55.176,57.129,-569.336,33.203,0.0,0
1435,1581350659.2870002,62.988,50.78100000000001,-541.992,38.086,0.0,0
1436,1581350659.291,43.945,27.832,-742.676,40.527,0.0,0
1437,1581350659.295,34.18,46.387,-665.039,22.949,0.0,0
1438,1581350659.299,41.504,70.801,-303.223,22.461,0.0,0
1439,1581350659.303,29.785,48.828,-328.61300000000006,37.598,0.0,0
1440,1581350659.306,39.551,40.527,-424.805,44.434,0.0,0
1441,1581350659.31,55.664,48.828,-343.26199999999994,38.574,0.0,0
1442,1581350659.314,39.062,48.34,-305.664,20.996,0.0,0
1443,1581350659.3179998,37.598,27.344,-368.652,27.344,0.0,0
1444,1581350659.322,41.01600000000001,9.277,-480.957,36.133,0.0,0
1445,1581350659.326,30.762,25.391,-530.762,27.832,0.0,0
1446,1581350659.33,59.082,43.945,-449.219,38.086,0.0,0
1447,1581350659.333,67.383,23.438,-464.355,46.387,0.0,0
1448,1581350659.337,53.223,5.859,-647.461,21.973000000000006,0.0,0
1449,1581350659.341,54.199,29.297,-623.047,17.09,0.0,0
1450,1581350659.345,48.828,37.598,-509.766,33.691,0.0,0
1451,1581350659.349,46.387,48.34,-395.996,16.602,0.0,0
1452,1581350659.35,26.367,48.34,-340.332,9.766,0.0,0
1453,1581350659.354,20.996,40.039,-330.0780000000001,15.625,0.0,0
1454,1581350659.3579998,34.668,35.156,-323.73,20.508000000000006,0.0,0
1455,1581350659.3620002,25.879,25.391,-386.719,34.18,0.0,0
1456,1581350659.3660002,26.855,26.367,-422.36300000000006,26.855,0.0,0
1457,1581350659.37,26.855,22.949,-478.516,15.625,0.0,0
1458,1581350659.3739998,24.414,28.809,-442.383,18.555,0.0,0
1459,1581350659.377,45.41,9.277,-582.52,20.02,0.0,0
1460,1581350659.381,29.785,19.531,-636.23,22.461,0.0,0
1461,1581350659.385,14.16,52.734,-318.3590000000001,24.414,0.0,0
1462,1581350659.389,36.133,33.691,-331.543,20.996,0.0,0
1463,1581350659.393,49.805,26.855,-396.484,23.438,0.0,0
1464,1581350659.395,46.875,35.645,-376.465,31.25,0.0,0
1465,1581350659.399,40.039,42.48,-320.801,23.438,0.0,0
1466,1581350659.403,38.086,24.902,-367.1880000000001,23.438,0.0,0
1467,1581350659.407,35.156,19.043,-457.031,26.367,0.0,0
1468,1581350659.411,51.758,40.039,-370.117,23.926,0.0,0
1469,1581350659.415,66.406,31.25,-390.625,30.762,0.0,0
1470,1581350659.419,42.969,-2.441,-625.977,38.574,0.0,0
1471,1581350659.4220002,24.414,3.418,-705.566,32.715,0.0,0
1472,1581350659.426,37.109,42.969,-435.059,7.324,0.0,0
1473,1581350659.43,46.875,40.039,-298.34,11.719,0.0,0
1474,1581350659.434,42.969,23.438,-364.746,26.367,0.0,0
1475,1581350659.438,33.691,25.391,-423.828,21.484,0.0,0
1476,1581350659.441,21.484,39.551,-355.957,9.766,0.0,0
1477,1581350659.445,20.02,39.551,-260.742,18.066,0.0,0
1478,1581350659.449,40.039,19.043,-389.648,7.812,0.0,0
1479,1581350659.4529998,36.133,18.066,-546.387,0.0,0.0,0
1480,1581350659.457,33.203,37.598,-420.41,24.902,0.0,0
1481,1581350659.461,35.156,28.32,-369.629,31.25,0.0,0
1482,1581350659.465,29.785,1.953,-645.508,29.785,0.0,0
1483,1581350659.468,30.273000000000003,27.832,-615.234,21.973000000000006,0.0,0
1484,1581350659.472,30.273000000000003,59.082,-325.195,19.043,0.0,0
1485,1581350659.476,31.25,41.01600000000001,-303.711,10.742,0.0,0
1486,1581350659.48,26.855,22.949,-391.11300000000006,13.672,0.0,0
1487,1581350659.484,15.625,29.785,-357.91,9.766,0.0,0
1488,1581350659.5010002,17.09,40.039,-298.34,7.812,0.0,0
1489,1581350659.505,35.645,31.738000000000003,-358.398,17.578,0.0,0
1490,1581350659.5089998,48.828,29.785,-405.273,12.695,0.0,0
1491,1581350659.5129998,42.969,39.062,-372.559,0.977,0.0,0
1492,1581350659.5170002,41.504,35.645,-333.0080000000001,22.949,0.0,0
1493,1581350659.521,48.34,7.324,-500.48800000000006,41.504,0.0,0
1494,1581350659.525,44.922,-0.488,-720.215,32.227,0.0,0
1495,1581350659.528,19.531,33.691,-595.703,27.832,0.0,0
1496,1581350659.532,20.02,43.457,-415.039,30.762,0.0,0
1497,1581350659.536,34.668,32.227,-415.039,30.762,0.0,0
1498,1581350659.54,38.574,33.203,-391.11300000000006,15.625,0.0,0
1499,1581350659.544,22.949,41.992,-290.527,17.578,0.0,0
1500,1581350659.546,13.184,36.133,-290.527,34.668,0.0,0
1501,1581350659.55,20.996,34.18,-357.91,20.996,0.0,0
1502,1581350659.554,37.109,38.574,-348.6330000000001,19.043,0.0,0
1503,1581350659.5579998,52.734,39.062,-251.465,29.297,0.0,0
1504,1581350659.562,39.551,33.691,-282.715,28.809,0.0,0
1505,1581350659.566,39.551,20.508000000000006,-453.125,21.484,0.0,0
1506,1581350659.57,43.945,20.996,-496.094,18.555,0.0,0
1507,1581350659.573,40.527,41.992,-332.031,23.926,0.0,0
1508,1581350659.577,29.297,38.574,-285.645,23.926,0.0,0
1509,1581350659.581,44.922,9.277,-587.4019999999998,33.691,0.0,0
1510,1581350659.585,49.316,35.156,-564.941,23.438,0.0,0
1511,1581350659.589,29.785,60.547,-255.371,11.23,0.0,0
1512,1581350659.591,42.48,33.203,-313.4770000000001,22.461,0.0,0
1513,1581350659.595,47.852,21.484,-401.855,32.227,0.0,0
1514,1581350659.599,43.945,33.203,-340.332,36.133,0.0,0
1515,1581350659.603,54.688,44.922,-283.203,37.598,0.0,0
1516,1581350659.607,54.688,41.504,-296.875,32.715,0.0,0
1517,1581350659.611,43.457,21.973000000000006,-447.266,22.949,0.0,0
1518,1581350659.615,43.945,22.949,-492.1880000000001,38.086,0.0,0
1519,1581350659.6179998,35.645,46.387,-311.035,35.156,0.0,0
1520,1581350659.6220002,32.715,18.555,-358.398,22.949,0.0,0
1521,1581350659.6260002,27.344,-6.348,-571.7769999999998,24.414,0.0,0
1522,1581350659.63,18.066,43.945,-297.8520000000001,15.137,0.0,0
1523,1581350659.6339998,19.043,24.414,-249.512,8.301,0.0,0
1524,1581350659.637,15.137,6.836,-397.949,19.043,0.0,0
1525,1581350659.641,27.344,31.25,-270.996,20.02,0.0,0
1526,1581350659.645,27.832,24.902,-217.285,26.367,0.0,0
1527,1581350659.649,21.973000000000006,20.02,-217.285,32.227,0.0,0
1528,1581350659.653,37.598,24.414,-250.0,17.578,0.0,0
1529,1581350659.657,35.156,3.418,-427.734,23.438,0.0,0
1530,1581350659.661,18.555,0.977,-476.562,23.438,0.0,0
1531,1581350659.664,46.875,14.16,-339.844,30.273000000000003,0.0,0
1532,1581350659.668,37.598,-5.371,-518.066,29.297,0.0,0
1533,1581350659.6720002,3.418,22.461,-523.9259999999998,7.324,0.0,0
1534,1581350659.676,17.09,48.34,-227.051,5.371,0.0,0
1535,1581350659.68,23.438,17.578,-286.133,19.043,0.0,0
1536,1581350659.681,24.414,10.254,-342.285,22.949,0.0,0
1537,1581350659.685,25.391,25.391,-229.98,21.973000000000006,0.0,0
1538,1581350659.689,28.809,18.555,-264.648,20.996,0.0,0
1539,1581350659.6929998,30.762,12.695,-365.723,23.926,0.0,0
1540,1581350659.697,29.297,17.578,-326.66,27.832,0.0,0
1541,1581350659.701,20.996,15.625,-314.941,15.625,0.0,0
1542,1581350659.705,17.578,20.508000000000006,-350.586,13.184,0.0,0
1543,1581350659.708,11.719,0.488,-480.469,12.207,0.0,0
1544,1581350659.712,17.09,-1.953,-552.734,14.648,0.0,0
1545,1581350659.716,32.227,37.109,-290.527,8.301,0.0,0
1546,1581350659.72,32.227,32.227,-154.297,8.301,0.0,0
1547,1581350659.724,22.949,14.648,-257.324,25.391,0.0,0
1548,1581350659.726,12.207,5.371,-371.582,23.438,0.0,0
1549,1581350659.73,13.672,25.391,-272.461,16.602,0.0,0
1550,1581350659.734,17.09,24.902,-227.051,19.531,0.0,0
1551,1581350659.738,21.484,11.719,-361.816,20.508000000000006,0.0,0
1552,1581350659.742,26.855,18.066,-444.336,13.184,0.0,0
1553,1581350659.746,33.203,18.066,-422.36300000000006,13.184,0.0,0
1554,1581350659.75,31.738000000000003,5.859,-416.504,10.254,0.0,0
1555,1581350659.7529998,28.32,-6.348,-653.32,14.16,0.0,0
1556,1581350659.7570002,15.625,25.879,-617.6759999999998,24.902,0.0,0
1557,1581350659.7610002,25.879,58.594,-220.703,19.043,0.0,0
1558,1581350659.765,34.668,37.109,-226.074,13.184,0.0,0
1559,1581350659.769,30.273000000000003,26.367,-351.5619999999999,26.855,0.0,0
1560,1581350659.771,48.34,31.25,-313.4770000000001,27.832,0.0,0
1561,1581350659.775,42.969,29.785,-256.348,19.043,0.0,0
1562,1581350659.779,37.598,24.414,-315.918,22.949,0.0,0
1563,1581350659.783,24.414,27.832,-380.859,9.766,0.0,0
1564,1581350659.7870002,27.344,36.133,-326.66,5.859,0.0,0
1565,1581350659.791,40.039,29.297,-355.469,16.113,0.0,0
1566,1581350659.795,27.832,9.277,-510.254,15.137,0.0,0
1567,1581350659.798,20.02,8.789,-618.164,12.695,0.0,0
1568,1581350659.802,15.137,39.551,-474.609,7.812,0.0,0
1569,1581350659.806,10.254,29.297,-436.523,-1.465,0.0,0
1570,1581350659.81,15.137,21.973000000000006,-451.66,-3.906,0.0,0
1571,1581350659.814,3.418,35.156,-350.586,5.859,0.0,0
1572,1581350659.816,-30.273000000000003,28.809,-269.043,-17.09,0.0,0
1573,1581350659.82,-45.898,-0.977,-307.617,-29.297,0.0,0
1574,1581350659.824,-19.531,-19.531,-429.6880000000001,-18.555,0.0,0
1575,1581350659.8279998,-7.812,-19.043,-412.598,-42.48,0.0,0
1576,1581350659.832,-33.203,-24.902,-341.797,-47.852,0.0,0
1577,1581350659.836,-52.246,-43.945,-431.641,-46.387,0.0,0
1578,1581350659.84,-55.664,-68.359,-680.176,-53.71100000000001,0.0,0
1579,1581350659.843,-55.664,-57.129,-625.488,-53.71100000000001,0.0,0
1580,1581350659.847,-58.594,-38.086,-355.957,-69.336,0.0,0
1581,1581350659.851,-69.824,-52.734,-372.07,-72.75399999999998,0.0,0
1582,1581350659.855,-67.87100000000001,-68.359,-426.758,-75.195,0.0,0
1583,1581350659.859,-51.27,-60.547,-434.082,-67.87100000000001,0.0,0
1584,1581350659.8760002,-61.035,-48.34,-363.77,-77.637,0.0,0
1585,1581350659.88,-91.797,-65.918,-406.25,-75.195,0.0,0
1586,1581350659.8839998,-86.914,-69.824,-496.582,-65.43,0.0,0
1587,1581350659.8879998,-37.109,-44.922,-384.277,-75.195,0.0,0
1588,1581350659.8920002,-33.203,-33.691,-270.996,-56.64100000000001,0.0,0
1589,1581350659.896,-48.828,-79.102,-544.922,-42.48,0.0,0
1590,1581350659.9,-50.78100000000001,-78.125,-759.2769999999998,-47.852,0.0,0
1591,1581350659.903,-35.156,-24.902,-500.48800000000006,-50.78100000000001,0.0,0
1592,1581350659.907,-27.344,-27.344,-350.586,-54.688,0.0,0
1593,1581350659.911,-32.715,-42.969,-410.156,-55.176,0.0,0
1594,1581350659.915,-28.32,-32.715,-432.129,-39.062,0.0,0
1595,1581350659.919,-18.066,-21.973000000000006,-365.234,-28.32,0.0,0
1596,1581350659.921,-12.695,-24.414,-337.402,-26.367,0.0,0
1597,1581350659.925,-1.953,-25.879,-410.645,-27.344,0.0,0
1598,1581350659.929,-10.254,-35.645,-559.57,-17.578,0.0,0
1599,1581350659.9329998,-32.715,-15.625,-492.1880000000001,-12.207,0.0,0
1600,1581350659.937,-5.371,-2.441,-407.227,-9.766,0.0,0
1601,1581350659.941,5.371,-11.23,-478.516,-2.93,0.0,0
1602,1581350659.945,-1.465,-16.113,-582.031,7.324,0.0,0
1603,1581350659.948,29.785,9.277,-529.297,19.531,0.0,0
1604,1581350659.952,50.78100000000001,34.668,-340.82,36.133,0.0,0
1605,1581350659.956,52.734,2.93,-569.8240000000002,41.01600000000001,0.0,0
1606,1581350659.96,47.852,21.484,-664.062,33.203,0.0,0
1607,1581350659.964,44.922,60.547,-377.441,45.898,0.0,0
1608,1581350659.966,56.152,42.48,-400.391,44.434,0.0,0
1609,1581350659.97,50.78100000000001,34.668,-481.934,54.199,0.0,0
1610,1581350659.974,36.133,49.805,-374.023,54.688,0.0,0
1611,1581350659.978,37.109,44.922,-342.773,48.34,0.0,0
1612,1581350659.982,53.223,31.738000000000003,-468.75,51.758,0.0,0
1613,1581350659.986,67.383,31.738000000000003,-559.082,40.039,0.0,0
1614,1581350659.99,60.059,36.621,-618.164,41.992,0.0,0
1615,1581350659.9929998,49.805,44.922,-538.5740000000002,38.574,0.0,0
1616,1581350659.9970002,42.48,35.156,-543.945,21.973000000000006,0.0,0
1617,1581350660.0010002,41.992,29.785,-660.1560000000002,20.508000000000006,0.0,0
1618,1581350660.005,49.805,64.941,-455.566,25.391,0.0,0
1619,1581350660.0089998,43.457,64.453,-356.934,20.02,0.0,0
1620,1581350660.0110002,33.691,47.363,-483.398,19.531,0.0,0
1621,1581350660.015,41.504,51.27,-470.703,18.066,0.0,0
1622,1581350660.019,50.78100000000001,56.64100000000001,-376.465,17.578,0.0,0
1623,1581350660.0229998,40.039,50.78100000000001,-416.992,29.297,0.0,0
1624,1581350660.0270002,46.387,45.41,-487.793,36.621,0.0,0
1625,1581350660.031,73.73,46.875,-539.5509999999998,38.574,0.0,0
1626,1581350660.035,85.449,51.758,-549.805,49.316,0.0,0
1627,1581350660.038,65.918,51.27,-519.043,50.78100000000001,0.0,0
1628,1581350660.042,42.48,36.133,-701.172,48.34,0.0,0
1629,1581350660.046,71.777,59.57,-677.2460000000002,38.574,0.0,0
1630,1581350660.05,63.477,88.867,-326.172,44.434,0.0,0
1631,1581350660.054,66.406,67.87100000000001,-318.3590000000001,59.57,0.0,0
1632,1581350660.056,83.49600000000002,56.64100000000001,-403.809,54.199,0.0,0
1633,1581350660.06,48.828,68.359,-385.254,36.621,0.0,0
1634,1581350660.064,45.898,70.801,-323.73,38.086,0.0,0
1635,1581350660.0679998,65.43,56.64100000000001,-388.672,46.875,0.0,0
1636,1581350660.072,50.293,40.039,-466.797,48.828,0.0,0
1637,1581350660.076,41.504,34.668,-494.629,54.199,0.0,0
1638,1581350660.08,50.78100000000001,51.758,-510.254,44.434,0.0,0
1639,1581350660.083,45.41,41.01600000000001,-530.273,41.504,0.0,0
1640,1581350660.087,39.551,29.297,-677.2460000000002,49.316,0.0,0
1641,1581350660.091,37.109,69.336,-466.797,38.574,0.0,0
1642,1581350660.095,40.527,79.59,-317.383,27.344,0.0,0
1643,1581350660.099,44.434,75.684,-480.469,31.738000000000003,0.0,0
1644,1581350660.101,36.621,96.191,-451.66,28.32,0.0,0
1645,1581350660.105,36.133,102.051,-356.934,26.855,0.0,0
1646,1581350660.109,39.062,93.75,-348.145,30.762,0.0,0
1647,1581350660.113,43.945,84.961,-367.676,35.156,0.0,0
1648,1581350660.117,45.41,72.266,-401.367,29.785,0.0,0
1649,1581350660.121,39.062,70.312,-448.73,22.461,0.0,0
1650,1581350660.125,34.668,67.383,-539.062,31.25,0.0,0
1651,1581350660.1279998,18.555,48.34,-693.8480000000002,31.25,0.0,0
1652,1581350660.1320002,12.207,67.87100000000001,-600.0980000000002,17.09,0.0,0
1653,1581350660.1360002,23.438,87.402,-338.867,11.719,0.0,0
1654,1581350660.14,29.297,66.895,-359.375,16.602,0.0,0
1655,1581350660.144,40.527,61.523,-467.773,24.414,0.0,0
1656,1581350660.146,40.527,75.195,-382.812,22.949,0.0,0
1657,1581350660.15,41.992,69.336,-303.711,14.648,0.0,0
1658,1581350660.154,38.086,47.363,-493.652,7.812,0.0,0
1659,1581350660.158,6.836,53.223,-521.484,9.766,0.0,0
1660,1581350660.1620002,9.277,58.105,-407.715,16.602,0.0,0
1661,1581350660.166,30.762,44.922,-417.48,11.23,0.0,0
1662,1581350660.17,26.367,21.484,-624.512,13.184,0.0,0
1663,1581350660.173,20.02,26.855,-743.164,9.277,0.0,0
1664,1581350660.177,21.973000000000006,52.734,-514.648,-3.418,0.0,0
1665,1581350660.181,28.809,36.621,-422.36300000000006,9.766,0.0,0
1666,1581350660.185,13.672,38.086,-448.73,24.902,0.0,0
1667,1581350660.189,19.043,57.129,-402.344,15.625,0.0,0
1668,1581350660.191,20.02,66.406,-328.125,2.441,0.0,0
1669,1581350660.195,3.418,55.176,-293.945,9.277,0.0,0
1670,1581350660.199,9.766,37.109,-399.902,13.672,0.0,0
1671,1581350660.2029998,15.625,45.898,-411.621,19.043,0.0,0
1672,1581350660.207,29.785,46.875,-354.004,17.09,0.0,0
1673,1581350660.211,45.898,27.832,-437.012,21.973000000000006,0.0,0
1674,1581350660.215,33.203,25.391,-558.105,29.297,0.0,0
1675,1581350660.218,8.789,41.504,-522.9490000000002,18.066,0.0,0
1676,1581350660.222,6.836,50.78100000000001,-381.348,6.836,0.0,0
1677,1581350660.226,31.25,44.434,-353.516,8.789,0.0,0
1678,1581350660.23,41.992,27.832,-497.559,16.602,0.0,0
1679,1581350660.234,38.086,37.109,-493.164,13.672,0.0,0
1680,1581350660.2510002,30.273000000000003,41.01600000000001,-363.77,7.812,0.0,0
1681,1581350660.255,31.738000000000003,23.438,-373.047,7.324,0.0,0
1682,1581350660.2589998,22.461,13.672,-449.707,3.906,0.0,0
1683,1581350660.2629998,-7.324,25.391,-438.477,6.836,0.0,0
1684,1581350660.2670002,-2.93,35.645,-327.148,7.324,0.0,0
1685,1581350660.271,33.691,-6.348,-528.809,14.648,0.0,0
1686,1581350660.275,34.668,-4.883,-707.0310000000002,22.949,0.0,0
1687,1581350660.278,31.738000000000003,41.504,-502.441,13.184,0.0,0
1688,1581350660.282,27.832,38.574,-437.98800000000006,10.254,0.0,0
1689,1581350660.286,8.789,36.621,-449.707,11.23,0.0,0
1690,1581350660.29,26.855,36.621,-400.879,10.742,0.0,0
1691,1581350660.294,40.039,40.527,-314.941,19.531,0.0,0
1692,1581350660.295,27.344,35.156,-316.406,25.879,0.0,0
1693,1581350660.299,31.738000000000003,15.137,-443.848,15.137,0.0,0
1694,1581350660.303,28.809,17.578,-473.633,14.16,0.0,0
1695,1581350660.3070002,25.879,29.297,-328.61300000000006,15.137,0.0,0
1696,1581350660.311,20.508000000000006,16.602,-335.449,25.879,0.0,0
1697,1581350660.315,24.414,9.766,-494.629,27.832,0.0,0
1698,1581350660.319,20.996,18.555,-549.805,15.625,0.0,0
1699,1581350660.322,27.832,29.785,-393.555,10.742,0.0,0
1700,1581350660.326,24.902,29.297,-284.18,9.277,0.0,0
1701,1581350660.33,1.465,1.465,-537.109,16.602,0.0,0
1702,1581350660.334,14.648,0.488,-633.789,18.555,0.0,0
1703,1581350660.3379998,33.691,22.949,-405.762,7.812,0.0,0
1704,1581350660.34,37.109,8.789,-376.953,13.672,0.0,0
1705,1581350660.344,41.504,-5.371,-466.797,15.625,0.0,0
1706,1581350660.3479998,35.156,19.531,-397.949,3.418,0.0,0
1707,1581350660.3520002,25.391,34.668,-282.715,4.883,0.0,0
1708,1581350660.356,19.043,14.648,-336.914,7.812,0.0,0
1709,1581350660.36,19.531,-2.441,-482.91,-1.953,0.0,0
1710,1581350660.3639998,30.762,0.977,-590.82,16.113,0.0,0
1711,1581350660.367,17.578,23.438,-420.898,17.578,0.0,0
1712,1581350660.371,13.672,-0.977,-409.668,13.672,0.0,0
1713,1581350660.375,20.02,-18.066,-644.531,21.484,0.0,0
1714,1581350660.379,-10.254,36.133,-436.523,-2.93,0.0,0
1715,1581350660.383,-2.93,28.809,-305.176,-9.766,0.0,0
1716,1581350660.385,17.578,1.465,-392.578,-2.93,0.0,0
1717,1581350660.389,11.23,-10.742,-472.168,1.953,0.0,0
1718,1581350660.393,5.859,-5.371,-447.266,-3.906,0.0,0
1719,1581350660.397,10.742,6.348,-355.957,-5.859,0.0,0
1720,1581350660.401,20.996,0.977,-337.402,0.0,0.0,0
1721,1581350660.405,19.531,-11.719,-431.641,-0.488,0.0,0
1722,1581350660.409,1.953,-18.555,-555.1759999999998,0.488,0.0,0
1723,1581350660.4120002,-8.789,-6.348,-505.859,-3.906,0.0,0
1724,1581350660.416,0.0,-16.113,-573.242,-2.441,0.0,0
1725,1581350660.42,-14.648,0.977,-563.477,-7.324,0.0,0
1726,1581350660.424,11.23,36.621,-259.277,-1.953,0.0,0
1727,1581350660.428,27.832,6.348,-316.895,12.695,0.0,0
1728,1581350660.43,-1.465,-32.227,-427.734,-8.789,0.0,0
1729,1581350660.434,-24.414,-40.039,-362.793,-39.551,0.0,0
1730,1581350660.438,-32.715,-40.039,-324.219,-46.387,0.0,0
1731,1581350660.4420002,-18.555,-43.945,-366.699,-49.805,0.0,0
1732,1581350660.446,-30.762,-46.387,-484.375,-66.406,0.0,0
1733,1581350660.45,-26.855,-49.805,-546.875,-62.012,0.0,0
1734,1581350660.454,-35.156,-38.574,-486.816,-49.316,0.0,0
1735,1581350660.457,-50.293,-42.48,-471.68,-59.57,0.0,0
1736,1581350660.461,-26.855,-56.64100000000001,-577.148,-55.176,0.0,0
1737,1581350660.465,-34.18,-16.602,-333.496,-43.945,0.0,0
1738,1581350660.469,-47.852,-20.02,-181.641,-42.969,0.0,0
1739,1581350660.4729998,-51.27,-38.574,-328.61300000000006,-37.598,0.0,0
1740,1581350660.475,-30.273000000000003,-20.02,-339.844,-29.785,0.0,0
1741,1581350660.479,-2.441,6.836,-185.547,-14.648,0.0,2
1742,1581350660.4829998,2.441,14.648,-185.05900000000003,0.0,0.0,0
1743,1581350660.4870002,20.508000000000006,21.484,-274.414,7.324,0.0,0
1744,1581350660.4910002,33.203,26.855,-289.551,27.832,0.0,0
1745,1581350660.495,38.574,20.508000000000006,-356.934,36.133,0.0,0
1746,1581350660.4989998,47.363,19.043,-430.664,26.367,0.0,0
1747,1581350660.502,42.969,7.324,-671.387,33.691,0.0,0
1748,1581350660.506,30.273000000000003,42.48,-650.879,25.391,0.0,0
1749,1581350660.51,31.738000000000003,73.73,-299.805,28.809,0.0,0
1750,1581350660.514,37.598,54.199,-267.578,27.344,0.0,0
1751,1581350660.518,37.598,42.969,-364.746,20.02,0.0,0
1752,1581350660.52,44.434,48.828,-367.1880000000001,29.785,0.0,0
1753,1581350660.524,53.223,52.246,-282.715,26.367,0.0,0
1754,1581350660.528,53.71100000000001,38.086,-283.691,25.879,0.0,0
1755,1581350660.532,39.551,36.133,-320.801,20.508000000000006,0.0,0
1756,1581350660.536,34.668,41.01600000000001,-297.363,20.02,0.0,0
1757,1581350660.54,41.992,27.344,-375.0,23.926,0.0,0
1758,1581350660.544,45.41,9.277,-538.5740000000002,28.809,0.0,0
1759,1581350660.5470002,28.32,7.324,-612.793,31.25,0.0,0
1760,1581350660.551,22.949,39.062,-407.715,23.438,0.0,0
1761,1581350660.555,41.992,40.527,-259.277,20.02,0.0,0
1762,1581350660.559,45.41,20.996,-348.6330000000001,15.137,0.0,0
1763,1581350660.563,29.785,25.879,-388.184,17.578,0.0,0
1764,1581350660.58,15.137,41.992,-312.5,24.414,0.0,0
1765,1581350660.584,16.113,55.664,-230.957,16.602,0.0,0
1766,1581350660.5879998,26.367,43.457,-346.68,16.602,0.0,0
1767,1581350660.592,48.34,40.527,-398.4380000000001,24.414,0.0,0
1768,1581350660.596,44.922,39.551,-322.754,23.438,0.0,0
1769,1581350660.6,46.387,26.855,-414.551,25.391,0.0,0
1770,1581350660.604,55.664,0.0,-660.645,28.809,0.0,0
1771,1581350660.607,54.199,18.066,-619.141,25.879,0.0,0
1772,1581350660.611,52.246,55.176,-279.297,17.09,0.0,0
1773,1581350660.615,38.574,27.832,-336.426,20.996,0.0,0
1774,1581350660.619,29.785,20.02,-434.57,29.785,0.0,0
1775,1581350660.623,48.828,36.621,-323.242,31.738000000000003,0.0,0
1776,1581350660.61,31.738000000000003,30.273000000000003,-261.23,36.621,0.0,0
1777,1581350660.6139998,25.391,5.371,-413.574,39.062,0.0,0
1778,1581350660.6179998,52.246,4.395,-540.5269999999998,34.668,0.0,0
1779,1581350660.6220002,41.992,38.574,-394.043,22.949,0.0,0
1780,1581350660.6260002,32.715,40.039,-269.043,19.043,0.0,0
1781,1581350660.63,49.316,-4.395,-450.195,22.461,0.0,0
1782,1581350660.6339998,26.855,1.465,-645.02,17.09,0.0,0
1783,1581350660.637,2.93,42.48,-488.281,11.23,0.0,0
1784,1581350660.641,29.297,50.293,-301.758,16.113,0.0,0
1785,1581350660.645,43.945,20.02,-427.734,25.879,0.0,0
1786,1581350660.649,30.273000000000003,-6.836,-687.012,21.973000000000006,0.0,0
1787,1581350660.653,28.32,34.668,-495.605,14.648,0.0,0
1788,1581350660.671,50.78100000000001,47.852,-317.383,31.25,0.0,0
1789,1581350660.675,41.01600000000001,25.391,-422.852,35.645,0.0,0
1790,1581350660.679,36.133,19.043,-504.395,26.367,0.0,0
1791,1581350660.6829998,30.273000000000003,28.32,-457.031,13.672,0.0,0
1792,1581350660.687,43.457,28.32,-442.871,18.555,0.0,0
1793,1581350660.691,41.01600000000001,15.137,-554.688,31.25,0.0,0
1794,1581350660.695,14.16,21.973000000000006,-574.219,29.297,0.0,0
1795,1581350660.698,29.785,44.434,-402.344,35.645,0.0,0
1796,1581350660.702,41.01600000000001,39.551,-306.152,41.504,0.0,0
1797,1581350660.706,27.344,18.066,-435.547,34.18,0.0,0
1798,1581350660.71,29.785,29.785,-419.922,28.809,0.0,0
1799,1581350660.714,35.645,42.48,-300.781,24.414,0.0,0
1800,1581350660.716,37.598,24.902,-343.26199999999994,18.555,0.0,0
1801,1581350660.72,43.945,21.973000000000006,-368.164,11.23,0.0,0
1802,1581350660.724,44.922,26.855,-327.148,14.16,0.0,0
1803,1581350660.728,31.738000000000003,24.414,-330.0780000000001,30.273000000000003,0.0,0
1804,1581350660.732,20.02,17.09,-426.758,27.344,0.0,0
1805,1581350660.736,31.25,16.113,-483.887,14.648,0.0,0
1806,1581350660.74,33.203,22.461,-478.027,17.09,0.0,0
1807,1581350660.7429998,28.809,31.25,-442.383,21.973000000000006,0.0,0
1808,1581350660.7470002,39.551,11.719,-512.207,31.25,0.0,0
1809,1581350660.7510002,43.945,0.488,-681.6410000000002,16.602,0.0,0
1810,1581350660.755,20.996,41.504,-509.277,-3.906,0.0,0
1811,1581350660.7589998,13.184,44.434,-316.895,0.488,0.0,0
1812,1581350660.7610002,11.23,34.668,-355.957,3.906,0.0,0
1813,1581350660.765,14.16,42.969,-370.605,7.812,0.0,0
1814,1581350660.769,19.043,51.27,-255.859,3.906,0.0,0
1815,1581350660.7729998,21.484,45.41,-250.0,5.371,0.0,0
1816,1581350660.7770002,6.836,34.668,-316.406,5.859,0.0,0
1817,1581350660.781,19.043,19.531,-459.473,12.207,0.0,0
1818,1581350660.785,31.25,26.367,-549.316,4.395,0.0,0
1819,1581350660.788,20.508000000000006,46.875,-439.453,-11.719,0.0,0
1820,1581350660.792,31.738000000000003,19.531,-588.379,7.812,0.0,0
1821,1581350660.796,26.367,12.695,-677.7339999999998,19.043,0.0,0
1822,1581350660.8,17.09,40.039,-437.98800000000006,14.16,0.0,0
1823,1581350660.804,28.32,29.297,-363.281,5.859,0.0,0
1824,1581350660.806,7.324,21.484,-394.531,3.418,0.0,0
1825,1581350660.81,-19.531,37.109,-323.242,6.836,0.0,0
1826,1581350660.814,20.02,40.527,-206.055,20.02,0.0,0
1827,1581350660.8179998,36.621,36.133,-256.348,21.973000000000006,0.0,0
1828,1581350660.822,29.785,31.738000000000003,-370.117,28.32,0.0,0
1829,1581350660.826,41.01600000000001,23.926,-482.91,36.621,0.0,0
1830,1581350660.83,32.715,33.691,-446.777,25.879,0.0,0
1831,1581350660.833,27.344,21.484,-410.156,16.602,0.0,0
1832,1581350660.837,20.996,4.883,-585.4490000000002,5.859,0.0,0
1833,1581350660.841,10.254,37.598,-451.172,12.207,0.0,0
1834,1581350660.845,13.672,34.18,-316.406,16.113,0.0,0
1835,1581350660.849,23.438,20.508000000000006,-369.629,4.883,0.0,0
1836,1581350660.851,30.762,14.16,-413.574,14.16,0.0,0
1837,1581350660.855,6.836,6.348,-432.129,9.766,0.0,0
1838,1581350660.859,10.254,14.648,-357.422,12.695,0.0,0
1839,1581350660.863,42.48,21.484,-354.98,16.602,0.0,0
1840,1581350660.867,36.621,28.32,-353.516,-0.977,0.0,0
1841,1581350660.871,34.668,17.09,-416.992,5.371,0.0,0
1842,1581350660.875,19.043,8.301,-552.734,10.254,0.0,0
1843,1581350660.8779998,22.461,2.441,-681.1519999999998,10.254,0.0,0
1844,1581350660.8820002,31.738000000000003,21.973000000000006,-553.2230000000002,8.789,0.0,0
1845,1581350660.8860002,25.391,43.945,-263.672,10.254,0.0,0
1846,1581350660.89,25.879,29.297,-289.551,22.461,0.0,0
1847,1581350660.894,23.926,17.09,-356.934,14.16,0.0,0
1848,1581350660.896,14.16,30.273000000000003,-300.781,4.883,0.0,0
1849,1581350660.9,6.836,38.086,-254.883,13.184,0.0,0
1850,1581350660.904,8.789,18.066,-318.848,17.578,0.0,0
1851,1581350660.908,21.484,6.836,-430.176,7.324,0.0,0
1852,1581350660.9120002,32.715,9.277,-446.289,3.906,0.0,0
1853,1581350660.916,23.926,17.09,-399.902,8.301,0.0,0
1854,1581350660.92,13.672,3.418,-530.762,12.207,0.0,0
1855,1581350660.923,14.16,4.883,-646.484,9.766,0.0,0
1856,1581350660.927,9.277,44.922,-371.094,5.371,0.0,0
1857,1581350660.931,6.348,32.715,-174.31599999999997,-14.16,0.0,0
1858,1581350660.935,-3.418,-10.254,-306.152,-24.414,0.0,0
1859,1581350660.939,-37.109,-23.926,-425.781,-28.32,0.0,0
1860,1581350660.941,-53.71100000000001,-20.996,-362.305,-39.062,0.0,0
1861,1581350660.945,-32.227,-22.461,-292.48,-41.01600000000001,0.0,0
1862,1581350660.949,-35.645,-33.203,-388.184,-48.828,0.0,0
1863,1581350660.9529998,-45.41,-32.227,-416.992,-48.828,0.0,0
1864,1581350660.957,-28.809,-23.926,-344.23800000000006,-44.922,0.0,0
1865,1581350660.961,-36.133,-35.645,-415.039,-31.25,0.0,0
1866,1581350660.965,-58.105,-66.406,-693.3589999999998,-34.668,0.0,0
1867,1581350660.968,-66.895,-48.828,-719.238,-45.898,0.0,0
1868,1581350660.972,-40.039,-17.578,-375.977,-40.527,0.0,0
1869,1581350660.976,-18.555,-34.18,-349.6090000000001,-32.227,0.0,0
1870,1581350660.98,-29.785,-24.902,-396.973,-33.203,0.0,0
1871,1581350660.984,-34.668,-21.973000000000006,-380.859,-34.668,0.0,0
1872,1581350661.0010002,-6.348,-19.043,-431.152,-21.484,0.0,0
1873,1581350661.005,15.137,5.859,-394.043,-11.23,0.0,0
1874,1581350661.0089998,19.043,2.93,-380.371,0.488,0.0,0
1875,1581350661.0129998,15.625,14.648,-328.61300000000006,10.742,0.0,0
1876,1581350661.0170002,24.902,24.902,-310.547,10.742,0.0,0
1877,1581350661.021,47.852,10.742,-472.656,20.996,0.0,0
1878,1581350661.025,47.363,8.301,-663.574,28.32,0.0,0
1879,1581350661.028,38.574,43.457,-487.793,27.344,0.0,0
1880,1581350661.032,38.574,53.223,-311.035,35.645,0.0,0
1881,1581350661.036,48.34,27.832,-418.945,36.621,0.0,0
1882,1581350661.04,36.621,21.973000000000006,-505.371,21.484,0.0,0
1883,1581350661.044,25.879,46.387,-368.652,15.625,0.0,0
1884,1581350661.046,45.41,47.363,-283.691,35.156,0.0,0
1885,1581350661.05,51.758,39.062,-380.859,35.645,0.0,0
1886,1581350661.054,61.035,38.574,-408.203,34.668,0.0,0
1887,1581350661.0579998,55.664,41.504,-336.426,38.086,0.0,0
1888,1581350661.062,40.527,31.25,-370.117,33.691,0.0,0
1889,1581350661.066,41.992,20.508000000000006,-465.332,38.574,0.0,0
1890,1581350661.07,49.316,27.344,-491.211,39.551,0.0,0
1891,1581350661.073,33.203,40.527,-391.11300000000006,30.273000000000003,0.0,0
1892,1581350661.077,24.414,32.227,-337.891,29.297,0.0,0
1893,1581350661.081,42.969,2.441,-602.0509999999998,38.574,0.0,0
1894,1581350661.085,45.898,27.832,-599.121,37.109,0.0,0
1895,1581350661.089,22.949,63.477,-270.508,26.367,0.0,0
1896,1581350661.091,34.18,33.203,-350.098,27.344,0.0,0
1897,1581350661.095,50.293,17.09,-510.254,39.551,0.0,0
1898,1581350661.099,42.48,36.133,-458.984,35.156,0.0,0
1899,1581350661.103,34.668,55.664,-337.891,16.602,0.0,0
1900,1581350661.107,39.551,39.551,-329.59,22.949,0.0,0
1901,1581350661.111,35.645,4.395,-552.734,32.227,0.0,0
1902,1581350661.115,21.484,23.438,-581.055,27.344,0.0,0
1903,1581350661.1179998,32.715,52.246,-371.582,22.461,0.0,0
1904,1581350661.1220002,49.805,21.973000000000006,-477.539,23.926,0.0,0
1905,1581350661.1260002,36.133,3.906,-718.262,26.855,0.0,0
1906,1581350661.13,21.973000000000006,39.551,-529.297,20.996,0.0,0
1907,1581350661.1339998,22.949,46.875,-325.195,24.902,0.0,0
1908,1581350661.1360002,12.695,35.156,-391.11300000000006,13.184,0.0,0
1909,1581350661.14,20.996,30.762,-472.656,24.414,0.0,0
1910,1581350661.144,36.621,42.48,-354.98,32.227,0.0,0
1911,1581350661.1479998,39.551,25.391,-386.719,17.09,0.0,0
1912,1581350661.1520002,48.828,17.578,-466.797,19.531,0.0,0
1913,1581350661.156,36.133,20.996,-481.445,22.461,0.0,0
1914,1581350661.16,28.809,22.461,-576.66,27.344,0.0,0
1915,1581350661.163,41.504,37.598,-446.289,32.715,0.0,0
1916,1581350661.167,44.434,13.672,-507.812,20.996,0.0,0
1917,1581350661.171,29.785,19.043,-601.562,29.297,0.0,0
1918,1581350661.175,24.902,54.688,-324.707,37.109,0.0,0
1919,1581350661.179,29.297,36.621,-280.762,38.086,0.0,0
1920,1581350661.181,41.992,14.648,-350.098,34.668,0.0,0
1921,1581350661.185,18.555,33.203,-261.719,23.438,0.0,0
1922,1581350661.189,10.742,30.273000000000003,-231.445,22.461,0.0,0
1923,1581350661.1929998,42.969,9.766,-384.766,33.691,0.0,0
1924,1581350661.197,45.41,9.766,-477.051,23.926,0.0,0
1925,1581350661.201,39.062,15.137,-476.074,14.648,0.0,0
1926,1581350661.205,39.551,18.555,-471.191,21.484,0.0,0
1927,1581350661.208,46.875,5.371,-584.961,37.109,0.0,0
1928,1581350661.212,51.27,9.277,-676.27,49.805,0.0,0
1929,1581350661.216,44.434,45.41,-418.457,27.832,0.0,0
1930,1581350661.22,32.227,46.875,-239.746,14.16,0.0,0
1931,1581350661.224,30.762,31.25,-327.637,18.555,0.0,0
1932,1581350661.226,27.344,22.461,-392.09,27.344,0.0,0
1933,1581350661.23,31.25,24.902,-317.871,40.039,0.0,0
1934,1581350661.234,39.062,20.02,-308.105,47.852,0.0,0
1935,1581350661.238,30.762,12.695,-413.086,40.039,0.0,0
1936,1581350661.242,40.039,18.066,-446.289,32.227,0.0,0
1937,1581350661.246,62.5,18.555,-442.871,44.922,0.0,0
1938,1581350661.25,64.453,23.438,-436.035,37.109,0.0,0
1939,1581350661.2529998,47.363,12.207,-601.562,29.297,0.0,0
1940,1581350661.2570002,46.387,21.484,-596.68,35.645,0.0,0
1941,1581350661.2610002,50.78100000000001,29.785,-421.387,46.387,0.0,0
1942,1581350661.265,46.387,11.23,-455.566,48.828,0.0,0
1943,1581350661.269,48.34,10.742,-475.586,36.621,0.0,0
1944,1581350661.271,41.01600000000001,24.414,-456.055,25.391,0.0,0
1945,1581350661.275,28.32,31.25,-392.578,24.414,0.0,0
1946,1581350661.279,36.133,18.066,-429.199,26.855,0.0,0
1947,1581350661.283,32.715,18.555,-446.289,25.391,0.0,0
1948,1581350661.2870002,29.297,12.695,-393.066,27.832,0.0,0
1949,1581350661.291,31.738000000000003,-4.883,-492.1880000000001,35.156,0.0,0
1950,1581350661.295,45.898,-6.836,-629.883,39.551,0.0,0
1951,1581350661.298,44.434,-3.906,-720.703,32.227,0.0,0
1952,1581350661.302,23.438,28.809,-551.758,19.531,0.0,0
1953,1581350661.306,33.691,39.062,-395.02,20.508000000000006,0.0,0
1954,1581350661.31,44.922,28.32,-448.242,18.066,0.0,0
1955,1581350661.314,48.828,28.32,-438.477,12.207,0.0,0
1956,1581350661.316,38.086,24.414,-451.172,17.09,0.0,0
1957,1581350661.32,10.254,35.645,-390.625,12.695,0.0,0
1958,1581350661.324,14.648,32.227,-403.809,13.672,0.0,0
1959,1581350661.3279998,47.852,23.926,-481.445,24.902,0.0,0
1960,1581350661.332,35.156,33.691,-381.836,26.855,0.0,0
1961,1581350661.336,20.02,14.16,-490.723,28.809,0.0,0
1962,1581350661.34,32.715,-9.277,-776.367,31.738000000000003,0.0,0
1963,1581350661.343,37.598,23.438,-679.688,26.367,0.0,0
1964,1581350661.347,28.32,50.78100000000001,-351.5619999999999,21.484,0.0,0
1965,1581350661.351,29.785,28.809,-339.844,23.926,0.0,0
1966,1581350661.355,36.133,10.742,-460.9380000000001,27.832,0.0,0
1967,1581350661.359,44.434,20.996,-448.242,23.926,0.0,0
1968,1581350661.361,43.945,35.156,-365.723,25.879,0.0,0
1969,1581350661.365,43.945,17.09,-434.082,27.832,0.0,0
1970,1581350661.369,23.438,6.348,-502.441,20.996,0.0,0
1971,1581350661.373,27.832,18.066,-512.207,20.508000000000006,0.0,0
1972,1581350661.377,53.71100000000001,22.949,-443.359,20.508000000000006,0.0,0
1973,1581350661.381,48.34,-1.465,-557.129,18.066,0.0,0
1974,1581350661.385,30.762,-10.254,-779.297,12.207,0.0,0
1975,1581350661.3879998,28.32,32.227,-519.043,8.789,0.0,0
1976,1581350661.3920002,35.645,43.457,-287.598,16.602,0.0,0
1977,1581350661.396,49.316,20.02,-404.297,30.273000000000003,0.0,0
1978,1581350661.4,23.438,17.09,-445.312,29.297,0.0,0
1979,1581350661.404,26.855,21.973000000000006,-374.023,22.461,0.0,0
1980,1581350661.421,61.523,12.207,-411.621,16.602,0.0,0
1981,1581350661.425,29.785,16.113,-425.293,16.602,0.0,0
1982,1581350661.429,9.766,8.789,-446.289,7.812,0.0,0
1983,1581350661.4329998,4.395,0.977,-422.36300000000006,-10.742,0.0,0
1984,1581350661.437,-16.602,-18.555,-394.043,-27.344,0.0,0
1985,1581350661.441,-19.043,-51.27,-499.023,-37.598,0.0,0
1986,1581350661.445,-21.973000000000006,-57.129,-602.539,-34.18,0.0,0
1987,1581350661.448,-43.457,-42.48,-514.648,-37.109,0.0,0
1988,1581350661.452,-36.621,-33.691,-384.766,-43.457,0.0,0
1989,1581350661.456,-22.949,-51.27,-552.734,-51.27,0.0,0
1990,1581350661.46,-37.598,-42.48,-591.797,-45.898,0.0,0
1991,1581350661.464,-61.035,-24.902,-417.969,-44.434,0.0,0
1992,1581350661.465,-32.227,-29.785,-418.457,-46.387,0.0,0
1993,1581350661.469,0.488,-30.762,-429.199,-36.133,0.0,0
1994,1581350661.4729998,-12.695,-19.531,-401.367,-27.344,0.0,0
1995,1581350661.4770002,-27.832,-8.789,-366.699,-26.367,0.0,0
1996,1581350661.481,-22.949,-19.043,-434.082,-22.461,0.0,0
1997,1581350661.485,-0.488,-24.902,-566.895,-22.461,0.0,0
1998,1581350661.4889998,14.16,-9.766,-600.586,-1.953,0.0,0
1999,1581350661.492,20.996,19.043,-488.77,19.531,0.0,0
2000,1581350661.496,26.855,21.973000000000006,-519.043,19.531,0.0,0
2001,1581350661.5,38.574,13.672,-702.148,28.32,0.0,0
2002,1581350661.504,34.668,54.688,-500.977,33.691,0.0,0
2003,1581350661.508,47.852,62.988,-305.176,37.109,0.0,0
2004,1581350661.51,51.27,43.945,-399.414,40.039,0.0,0
2005,1581350661.514,50.78100000000001,48.828,-441.406,36.621,0.0,0
2006,1581350661.518,49.316,66.406,-288.574,36.133,0.0,0
2007,1581350661.522,41.01600000000001,61.035,-291.016,37.598,0.0,0
2008,1581350661.526,49.805,48.34,-432.617,44.434,0.0,0
2009,1581350661.53,56.64100000000001,39.062,-564.941,50.78100000000001,0.0,0
2010,1581350661.534,47.852,45.898,-606.934,44.434,0.0,0
2011,1581350661.5370002,46.875,55.664,-514.16,35.645,0.0,0
2012,1581350661.541,59.082,27.832,-710.449,36.621,0.0,0
2013,1581350661.545,59.57,41.992,-738.77,39.062,0.0,0
2014,1581350661.549,39.551,76.66,-398.4380000000001,29.297,0.0,0
2015,1581350661.553,39.551,48.34,-386.719,48.34,0.0,0
2016,1581350661.555,56.152,36.133,-484.86300000000006,54.688,0.0,0
2017,1581350661.559,37.109,54.688,-445.801,41.01600000000001,0.0,0
2018,1581350661.563,40.527,61.523,-316.895,35.645,0.0,0
2019,1581350661.5670002,49.316,40.527,-342.285,31.738000000000003,0.0,0
2020,1581350661.571,32.715,26.367,-501.465,24.414,0.0,0
2021,1581350661.575,43.457,28.32,-563.477,28.32,0.0,0
2022,1581350661.579,47.363,30.762,-570.312,38.574,0.0,0
2023,1581350661.582,44.922,21.973000000000006,-563.477,25.391,0.0,0
2024,1581350661.586,48.34,17.09,-666.0160000000002,30.762,0.0,0
2025,1581350661.59,40.039,53.223,-529.297,40.039,0.0,0
2026,1581350661.594,41.504,61.523,-366.211,36.621,0.0,0
2027,1581350661.5979998,40.039,48.828,-362.305,41.504,0.0,0
2028,1581350661.6,44.434,41.504,-406.25,38.574,0.0,0
2029,1581350661.604,39.062,45.41,-346.191,27.344,0.0,0
2030,1581350661.6079998,31.25,41.01600000000001,-372.07,34.668,0.0,0
2031,1581350661.6120002,52.734,41.992,-477.539,39.551,0.0,0
2032,1581350661.6160002,40.527,52.734,-407.227,25.391,0.0,0
2033,1581350661.62,25.879,37.598,-435.547,26.855,0.0,0
2034,1581350661.6239998,33.203,24.902,-535.156,24.414,0.0,0
2035,1581350661.627,28.32,5.859,-673.34,21.484,0.0,2
2036,1581350661.631,22.461,20.508000000000006,-643.555,12.695,0.0,0
2037,1581350661.635,27.832,62.988,-369.629,20.996,0.0,0
