timestamps,TP9,AF7,AF8,TP10,Right AUX,Marker0
1581351676.656,18.555,16.602,34.18,15.625,0.0,0
1581351676.66,11.23,15.137,37.598,12.207,0.0,0
1581351676.664,5.371,20.508000000000006,33.203,7.324,0.0,0
1581351676.668,9.277,15.137,34.18,3.906,0.0,0
1581351676.6720002,13.184,2.441,35.645,9.277,0.0,0
1581351676.676,13.184,3.906,31.25,13.184,0.0,0
1581351676.68,7.812,17.09,26.855,16.113,0.0,0
1581351676.6829998,13.184,24.902,26.367,12.207,0.0,0
1581351676.687,26.855,20.508000000000006,26.367,14.16,0.0,0
1581351676.691,31.738000000000003,23.926,27.344,15.137,0.0,0
1581351676.695,25.391,33.691,27.832,15.625,0.0,0
1581351676.699,20.02,29.785,31.738000000000003,22.461,0.0,0
1581351676.716,37.109,34.668,33.691,18.555,0.0,0
1581351676.72,32.715,28.32,30.273000000000003,8.789,0.0,0
1581351676.724,10.254,16.113,38.574,15.625,0.0,0
1581351676.728,8.789,20.996,36.133,21.484,0.0,0
1581351676.732,24.902,19.531,30.273000000000003,22.949,0.0,0
1581351676.736,45.41,19.531,32.227,26.855,0.0,0
1581351676.74,34.18,10.254,30.762,25.879,0.0,0
1581351676.7429998,24.902,8.789,33.691,25.879,0.0,0
1581351676.7470002,32.715,6.836,34.668,31.738000000000003,0.0,0
1581351676.7510002,33.691,10.254,33.203,36.621,0.0,0
1581351676.755,34.668,32.227,35.156,32.227,0.0,0
1581351676.7589998,23.926,34.668,37.109,26.855,0.0,0
1581351676.7610002,17.578,29.297,33.203,26.855,0.0,0
1581351676.765,28.32,25.879,30.273000000000003,23.926,0.0,0
1581351676.769,32.715,22.949,34.668,23.926,0.0,0
1581351676.7729998,21.973000000000006,23.926,35.645,20.996,0.0,0
1581351676.7770002,21.484,32.715,34.668,16.602,0.0,0
1581351676.781,37.109,32.227,37.109,25.391,0.0,0
1581351676.785,41.504,22.949,32.715,29.297,0.0,0
1581351676.788,36.621,26.367,29.297,22.461,0.0,0
1581351676.792,26.855,30.762,32.715,16.113,0.0,0
1581351676.796,34.18,31.25,32.715,17.09,0.0,0
1581351676.8,35.645,27.832,28.32,20.996,0.0,0
1581351676.804,20.996,21.973000000000006,30.762,20.996,0.0,0
1581351676.806,15.137,25.391,31.738000000000003,14.16,0.0,0
1581351676.81,25.879,29.785,35.645,13.672,0.0,0
1581351676.814,37.598,26.855,40.039,22.461,0.0,0
1581351676.8179998,33.203,22.461,33.203,32.715,0.0,0
1581351676.822,18.555,14.648,31.738000000000003,22.949,0.0,0
1581351676.826,15.137,4.883,40.039,8.301,0.0,0
1581351676.83,31.25,17.09,38.574,13.672,0.0,0
1581351676.833,36.133,32.227,33.691,22.949,0.0,0
1581351676.837,19.043,29.785,25.391,8.789,0.0,0
1581351676.841,13.184,15.625,22.949,-2.441,0.0,0
1581351676.845,27.832,19.531,29.785,12.695,0.0,0
1581351676.849,29.785,20.508000000000006,25.879,14.648,0.0,0
1581351676.851,16.113,8.301,22.949,13.672,0.0,0
1581351676.855,15.137,15.137,27.832,15.137,0.0,0
1581351676.859,23.926,22.461,32.715,25.391,0.0,0
1581351676.863,27.832,26.367,35.156,35.645,0.0,0
1581351676.867,19.043,18.066,34.18,26.367,0.0,0
1581351676.871,9.766,15.137,30.762,24.902,0.0,0
1581351676.875,16.602,20.996,30.273000000000003,28.809,0.0,0
1581351676.8779998,29.785,13.672,35.156,27.832,0.0,0
1581351676.8820002,30.273000000000003,7.812,35.645,25.391,0.0,0
1581351676.8860002,16.602,19.531,30.273000000000003,20.02,0.0,0
1581351676.89,18.066,31.738000000000003,29.785,18.066,0.0,0
1581351676.894,29.785,30.273000000000003,28.32,22.949,0.0,0
1581351676.896,34.18,31.738000000000003,29.297,27.832,0.0,0
1581351676.9,17.09,33.203,31.738000000000003,22.461,0.0,0
1581351676.904,1.465,12.695,27.344,3.906,0.0,0
1581351676.908,9.277,-0.977,27.832,4.395,0.0,0
1581351676.9120002,15.625,11.719,26.855,6.836,0.0,0
1581351676.916,13.672,14.16,24.902,0.0,0.0,0
1581351676.92,8.301,17.578,27.344,3.906,0.0,0
1581351676.923,12.207,19.531,23.438,4.395,0.0,0
1581351676.927,20.508000000000006,2.93,23.926,3.418,0.0,0
1581351676.931,19.043,13.184,30.762,2.441,0.0,0
1581351676.935,11.23,34.668,36.621,0.0,0.0,0
1581351676.939,14.648,26.367,40.039,3.418,0.0,0
1581351676.941,28.32,24.414,34.18,2.441,0.0,0
1581351676.945,32.227,28.809,25.879,-0.977,0.0,0
1581351676.949,27.832,27.344,27.832,1.465,0.0,0
1581351676.9529998,28.809,12.695,28.809,0.0,0.0,0
1581351676.957,30.273000000000003,5.371,19.531,-7.812,0.0,0
1581351676.961,26.855,20.996,19.043,-10.742,0.0,0
1581351676.965,23.926,21.973000000000006,24.414,-2.441,0.0,0
1581351676.968,18.555,14.16,23.438,6.348,0.0,0
1581351676.972,23.438,20.996,21.484,10.742,0.0,0
1581351676.976,31.738000000000003,9.277,22.949,17.578,0.0,0
1581351676.98,29.297,7.812,28.32,23.926,0.0,0
1581351676.984,34.18,31.738000000000003,34.18,37.598,0.0,0
1581351676.986,35.645,31.25,32.715,37.109,0.0,0
1581351676.99,35.156,29.785,22.461,27.832,0.0,0
1581351676.994,31.25,37.109,20.508000000000006,28.809,0.0,0
1581351676.998,23.438,38.086,31.25,32.227,0.0,0
1581351677.002,31.738000000000003,28.809,37.109,38.086,0.0,0
1581351677.006,42.969,23.438,33.203,41.504,0.0,0
1581351677.01,30.762,22.461,25.391,20.996,0.0,0
1581351677.0129998,19.043,25.391,27.344,7.324,0.0,0
1581351677.0170002,20.508000000000006,21.973000000000006,31.25,10.742,0.0,0
1581351677.021,24.902,7.812,21.484,8.301,0.0,0
1581351677.025,32.227,15.137,21.484,5.371,0.0,0
1581351677.029,22.461,37.109,31.738000000000003,2.441,0.0,0
1581351677.0470002,11.719,31.25,29.785,-2.93,0.0,0
1581351677.051,19.531,19.043,25.879,-11.23,0.0,0
1581351677.055,26.367,24.414,20.996,-10.742,0.0,0
1581351677.059,24.902,20.508000000000006,21.484,-9.277,0.0,0
1581351677.063,17.578,15.625,26.855,-6.348,0.0,0
1581351677.0670002,20.508000000000006,18.555,25.391,3.418,0.0,0
1581351677.071,32.227,21.973000000000006,25.879,6.836,0.0,0
1581351677.074,32.227,21.484,28.32,11.719,0.0,0
1581351677.0779998,23.438,20.508000000000006,27.832,12.207,0.0,0
1581351677.082,26.855,22.461,33.203,17.578,0.0,0
1581351677.086,39.551,14.648,32.715,31.25,0.0,0
1581351677.09,34.18,15.137,21.973000000000006,18.555,0.0,0
1581351677.092,15.625,20.996,19.043,8.301,0.0,0
1581351677.096,11.719,13.672,28.32,11.23,0.0,0
1581351677.1,20.02,7.324,35.645,11.719,0.0,0
1581351677.104,22.461,5.859,39.551,15.137,0.0,0
1581351677.1079998,11.719,21.484,40.039,5.371,0.0,0
1581351677.1120002,0.488,35.645,37.109,-6.348,0.0,0
1581351677.1160002,7.324,28.809,34.668,-1.953,0.0,0
1581351677.119,18.066,18.555,33.203,2.441,0.0,0
1581351677.123,16.113,18.066,33.691,3.906,0.0,0
1581351677.127,9.277,14.16,32.715,2.441,0.0,0
1581351677.131,14.648,18.066,25.391,0.0,0.0,0
1581351677.135,25.879,30.273000000000003,27.344,2.441,0.0,0
1581351677.137,28.809,28.32,39.551,3.906,0.0,0
1581351677.141,18.066,26.855,35.645,5.371,0.0,0
1581351677.145,10.254,24.414,24.902,-2.441,0.0,0
1581351677.149,17.578,13.184,23.926,-1.953,0.0,0
1581351677.153,23.926,13.184,28.809,8.301,0.0,0
1581351677.157,20.508000000000006,26.367,39.551,17.578,0.0,0
1581351677.161,20.02,36.621,43.457,28.809,0.0,0
1581351677.164,26.855,28.809,38.086,27.344,0.0,0
1581351677.168,29.297,11.719,35.156,19.043,0.0,0
1581351677.1720002,20.996,18.066,35.645,17.09,0.0,0
1581351677.176,10.742,18.555,33.691,13.184,0.0,0
1581351677.18,14.648,14.648,30.762,12.207,0.0,0
1581351677.1820002,24.414,29.297,31.738000000000003,12.695,0.0,0
1581351677.186,20.508000000000006,23.438,34.18,8.789,0.0,0
1581351677.19,6.348,11.23,26.367,3.418,0.0,0
1581351677.194,6.836,22.461,27.832,8.789,0.0,0
1581351677.198,14.16,20.996,24.902,12.207,0.0,0
1581351677.202,11.719,14.16,19.531,1.465,0.0,0
1581351677.206,3.418,14.16,29.785,-4.395,0.0,0
1581351677.209,-2.441,6.348,34.18,-6.348,0.0,0
1581351677.2129998,7.324,10.254,29.297,1.465,0.0,0
1581351677.217,14.648,17.09,24.414,10.742,0.0,0
1581351677.221,10.254,9.277,27.344,12.207,0.0,0
1581351677.225,6.836,13.672,33.203,15.625,0.0,0
1581351677.2270002,14.648,24.414,30.273000000000003,19.531,0.0,0
1581351677.231,20.508000000000006,21.484,27.344,17.578,0.0,0
1581351677.235,17.09,16.602,29.785,16.602,0.0,0
1581351677.2389998,7.324,25.391,30.762,17.578,0.0,0
1581351677.2429998,7.324,37.598,26.855,19.043,0.0,0
1581351677.2470002,18.555,23.438,23.438,12.207,0.0,0
1581351677.2510002,20.02,21.973000000000006,21.973000000000006,5.371,0.0,0
1581351677.254,6.836,26.367,22.461,4.395,0.0,0
1581351677.258,3.418,26.367,18.066,0.488,0.0,0
1581351677.262,25.391,30.273000000000003,12.207,10.742,0.0,0
1581351677.266,32.227,27.832,16.113,20.508000000000006,0.0,0
1581351677.27,22.461,28.32,27.344,22.949,0.0,0
1581351677.272,22.461,15.137,31.738000000000003,24.414,0.0,0
1581351677.276,32.227,7.812,37.109,21.973000000000006,0.0,0
1581351677.28,33.691,15.137,39.551,23.926,0.0,0
1581351677.284,22.949,11.719,38.086,23.438,0.0,0
1581351677.288,14.648,15.137,34.668,17.09,0.0,0
1581351677.292,17.578,31.25,28.32,20.508000000000006,0.0,0
1581351677.296,25.879,37.598,33.203,19.043,0.0,0
1581351677.299,17.09,32.715,34.668,3.906,0.0,0
1581351677.303,7.324,20.996,25.879,-4.883,0.0,0
1581351677.3070002,10.254,10.254,26.855,1.465,0.0,0
1581351677.311,16.113,12.207,34.18,7.812,0.0,0
1581351677.315,14.16,15.625,32.227,6.836,0.0,0
1581351677.3170002,1.465,18.555,27.344,0.0,0.0,0
1581351677.321,0.0,15.137,24.414,0.977,0.0,0
1581351677.325,12.207,24.902,16.602,4.883,0.0,0
1581351677.329,16.602,34.18,19.043,1.953,0.0,0
1581351677.333,6.836,30.762,26.367,3.418,0.0,0
1581351677.337,4.395,21.484,27.344,7.812,0.0,0
1581351677.341,11.23,16.602,25.391,12.695,0.0,0
1581351677.344,16.113,21.973000000000006,23.438,15.137,0.0,0
1581351677.3479998,13.184,24.414,24.902,17.09,0.0,0
1581351677.3520002,5.859,21.484,24.414,14.16,0.0,0
1581351677.356,9.277,21.973000000000006,26.367,13.184,0.0,0
1581351677.36,17.578,30.273000000000003,26.855,18.066,0.0,0
1581351677.3620002,9.766,28.809,21.484,15.137,0.0,0
1581351677.3660002,0.488,11.719,23.438,9.766,0.0,0
1581351677.37,6.348,2.93,33.203,12.695,0.0,0
1581351677.3739998,17.09,11.719,35.645,18.066,0.0,0
1581351677.3779998,16.113,18.066,32.227,21.484,0.0,0
1581351677.3820002,6.348,20.996,32.715,16.602,0.0,0
1581351677.3860002,9.277,8.789,35.645,9.766,0.0,0
1581351677.389,17.578,10.742,42.969,16.113,0.0,0
1581351677.393,16.113,21.484,43.945,19.043,0.0,0
1581351677.397,-2.93,15.625,35.156,5.371,0.0,0
1581351677.401,-15.137,31.738000000000003,30.273000000000003,-0.977,0.0,0
1581351677.405,-2.93,29.785,29.785,0.977,0.0,0
1581351677.407,8.301,27.344,29.297,4.883,0.0,0
1581351677.411,5.371,38.574,27.344,6.836,0.0,0
1581351677.415,4.395,37.598,23.438,3.906,0.0,0
1581351677.419,11.719,27.832,20.02,6.348,0.0,0
1581351677.423,23.926,23.438,23.926,19.531,0.0,0
1581351677.427,31.25,15.137,34.668,18.555,0.0,0
1581351677.431,24.414,12.207,36.621,11.23,0.0,0
1581351677.434,18.066,22.949,30.762,8.301,0.0,0
1581351677.438,22.461,33.691,27.344,7.324,0.0,0
1581351677.4420002,23.438,34.668,31.25,10.254,0.0,0
1581351677.446,17.09,26.367,30.762,4.883,0.0,0
1581351677.45,16.113,19.531,26.855,7.812,0.0,0
1581351677.467,24.902,17.578,28.809,12.207,0.0,0
1581351677.471,30.762,21.484,25.879,10.742,0.0,0
1581351677.475,26.367,15.625,23.438,15.137,0.0,0
1581351677.479,27.832,15.137,24.902,18.555,0.0,0
1581351677.4829998,28.32,23.438,22.461,21.973000000000006,0.0,0
1581351677.4870002,27.344,29.785,26.367,19.043,0.0,0
1581351677.4910002,27.344,39.551,30.762,18.066,0.0,0
1581351677.494,12.207,34.18,19.531,15.625,0.0,0
1581351677.498,9.277,17.578,15.625,10.254,0.0,0
1581351677.502,11.719,20.996,27.344,9.766,0.0,0
1581351677.506,10.254,30.762,30.273000000000003,7.324,0.0,0
1581351677.51,3.906,21.973000000000006,27.344,8.301,0.0,0
1581351677.512,6.836,19.531,27.344,7.324,0.0,0
1581351677.516,30.273000000000003,30.273000000000003,22.949,4.883,0.0,0
1581351677.52,30.273000000000003,26.367,23.926,9.766,0.0,0
1581351677.524,19.531,19.531,30.762,11.719,0.0,0
1581351677.528,17.09,21.484,30.762,6.836,0.0,0
1581351677.532,24.902,22.461,25.879,1.953,0.0,0
1581351677.536,32.715,18.555,27.344,0.977,0.0,0
1581351677.539,25.391,14.648,26.367,4.883,0.0,0
1581351677.543,18.555,21.973000000000006,26.367,8.301,0.0,0
1581351677.5470002,25.391,29.785,32.227,5.371,0.0,0
1581351677.551,41.01600000000001,23.926,29.785,4.883,0.0,0
1581351677.555,39.551,20.508000000000006,26.367,10.254,0.0,0
1581351677.5570002,29.785,21.484,28.32,12.695,0.0,0
1581351677.561,30.273000000000003,24.902,31.25,11.23,0.0,0
1581351677.565,34.18,28.809,32.715,10.742,0.0,0
1581351677.569,36.133,28.32,39.551,17.09,0.0,0
1581351677.573,30.273000000000003,20.996,29.297,14.648,0.0,0
1581351677.577,28.32,15.137,23.438,9.766,0.0,0
1581351677.581,38.574,10.742,37.109,16.113,0.0,0
1581351677.584,40.039,14.648,39.062,17.09,0.0,0
1581351677.5879998,25.391,22.949,38.086,6.348,0.0,0
1581351677.592,26.367,20.02,36.621,6.836,0.0,0
1581351677.596,33.203,11.719,28.32,16.113,0.0,0
1581351677.6,21.973000000000006,4.883,21.973000000000006,15.137,0.0,0
1581351677.601,11.23,12.695,22.949,13.672,0.0,0
1581351677.605,8.301,25.391,25.391,8.301,0.0,0
1581351677.609,23.438,24.414,25.879,8.789,0.0,0
1581351677.613,25.391,24.902,23.926,19.043,0.0,0
1581351677.617,12.695,27.344,22.949,18.555,0.0,0
1581351677.621,15.625,21.484,24.902,7.812,0.0,0
1581351677.625,21.973000000000006,21.973000000000006,23.926,4.883,0.0,0
1581351677.6279998,20.996,17.578,21.484,7.324,0.0,0
1581351677.6320002,24.414,10.742,17.09,1.953,0.0,0
1581351677.6360002,21.973000000000006,11.719,19.531,2.441,0.0,0
1581351677.64,20.996,7.324,29.785,15.625,0.0,0
1581351677.644,31.738000000000003,16.113,31.25,19.531,0.0,0
1581351677.646,37.109,21.973000000000006,22.461,19.531,0.0,0
1581351677.65,30.273000000000003,14.16,22.461,18.066,0.0,0
1581351677.654,22.461,14.16,30.762,12.207,0.0,0
1581351677.658,31.25,23.438,28.32,6.836,0.0,0
1581351677.6620002,34.668,26.855,24.414,7.324,0.0,0
1581351677.666,24.902,21.973000000000006,26.367,7.812,0.0,0
1581351677.67,19.531,22.461,26.855,4.395,0.0,0
1581351677.673,21.973000000000006,26.367,32.227,-0.977,0.0,0
1581351677.677,31.738000000000003,21.973000000000006,40.039,6.836,0.0,0
1581351677.681,19.043,17.578,34.18,12.207,0.0,0
1581351677.685,5.859,24.414,25.879,4.395,0.0,0
1581351677.689,10.254,20.02,28.809,3.418,0.0,0
1581351677.691,18.066,8.789,26.855,8.301,0.0,0
1581351677.695,20.996,5.859,18.555,7.812,0.0,0
1581351677.699,19.043,14.16,23.438,12.207,0.0,0
1581351677.7029998,22.949,16.113,36.133,18.066,0.0,0
1581351677.707,25.879,14.648,39.062,19.043,0.0,0
1581351677.711,24.902,22.461,36.621,15.625,0.0,0
1581351677.715,22.949,26.855,37.598,9.766,0.0,0
1581351677.718,19.531,33.691,31.25,5.859,0.0,0
1581351677.722,26.367,21.484,23.438,6.348,0.0,0
1581351677.726,37.109,9.766,29.785,12.695,0.0,0
1581351677.73,20.508000000000006,18.066,29.785,3.418,0.0,0
1581351677.734,4.883,26.855,22.461,1.953,0.0,0
1581351677.736,14.16,27.832,22.461,10.254,0.0,0
1581351677.74,22.461,20.996,21.973000000000006,4.395,0.0,0
1581351677.744,19.531,29.297,17.578,6.348,0.0,0
1581351677.748,15.625,32.227,24.414,14.16,0.0,0
1581351677.752,23.438,22.949,31.738000000000003,19.531,0.0,0
1581351677.756,32.715,-5.859,26.367,26.855,0.0,0
1581351677.76,22.461,-9.766,20.996,22.949,0.0,0
1581351677.7629998,8.789,23.926,27.344,15.137,0.0,0
1581351677.7670002,3.906,37.109,37.598,18.555,0.0,0
1581351677.771,3.906,35.156,39.062,23.926,0.0,1
1581351677.775,13.672,38.086,36.133,25.879,0.0,0
1581351677.779,10.742,33.691,30.762,22.461,0.0,0
1581351677.796,5.371,35.156,32.227,26.855,0.0,0
1581351677.8,13.672,40.527,38.086,34.18,0.0,0
1581351677.804,16.602,32.227,33.203,31.25,0.0,0
1581351677.8079998,8.789,25.879,31.25,21.484,0.0,0
1581351677.812,5.371,16.113,34.668,21.973000000000006,0.0,0
1581351677.816,14.648,5.859,32.715,26.367,0.0,0
1581351677.82,20.02,12.695,28.809,21.484,0.0,0
1581351677.823,18.555,27.344,26.367,21.484,0.0,0
1581351677.827,14.16,32.227,27.832,16.602,0.0,0
1581351677.831,15.625,32.227,25.879,10.254,0.0,0
1581351677.835,28.32,25.879,23.926,18.066,0.0,0
1581351677.839,30.273000000000003,21.484,27.832,23.926,0.0,0
1581351677.841,18.066,20.996,26.855,18.555,0.0,0
1581351677.845,18.555,10.742,29.297,18.066,0.0,0
1581351677.849,33.203,14.648,36.621,20.02,0.0,0
1581351677.853,41.01600000000001,18.555,35.645,22.461,0.0,0
1581351677.857,29.785,12.207,32.227,25.391,0.0,0
1581351677.861,20.996,20.996,24.414,19.531,0.0,0
1581351677.865,30.273000000000003,29.785,18.555,14.648,0.0,0
1581351677.8679998,34.18,31.738000000000003,23.926,17.578,0.0,0
1581351677.8720002,35.645,32.227,34.668,21.484,0.0,0
1581351677.8760002,28.32,26.367,32.715,11.23,0.0,0
1581351677.88,23.926,20.508000000000006,29.785,5.859,0.0,0
1581351677.8839998,34.18,18.555,33.203,15.137,0.0,0
1581351677.887,27.344,21.484,35.645,17.09,0.0,0
1581351677.891,17.09,22.461,31.25,16.602,0.0,0
1581351677.895,20.02,20.508000000000006,27.344,20.02,0.0,0
1581351677.899,23.926,17.09,30.273000000000003,24.414,0.0,0
1581351677.903,28.32,6.836,31.25,21.484,0.0,0
1581351677.907,27.832,14.648,28.32,27.344,0.0,0
1581351677.911,29.297,29.297,30.273000000000003,39.551,0.0,0
1581351677.914,32.227,27.344,30.762,34.668,0.0,0
1581351677.918,36.133,34.668,27.344,28.32,0.0,0
1581351677.9220002,35.645,34.18,27.344,32.227,0.0,0
1581351677.926,27.344,26.855,29.785,28.809,0.0,0
1581351677.93,27.832,22.949,30.273000000000003,25.879,0.0,0
1581351677.931,31.25,22.949,27.832,26.855,0.0,0
1581351677.935,26.855,26.855,33.203,21.484,0.0,0
1581351677.939,20.02,28.32,35.645,21.973000000000006,0.0,0
1581351677.9429998,22.461,26.367,32.715,20.02,0.0,0
1581351677.947,35.156,24.414,29.785,18.066,0.0,0
1581351677.951,33.203,23.926,29.297,16.113,0.0,0
1581351677.955,20.508000000000006,21.484,33.203,11.23,0.0,0
1581351677.958,16.113,18.555,35.645,8.789,0.0,0
1581351677.962,26.367,18.555,36.621,8.301,0.0,0
1581351677.966,31.738000000000003,19.531,32.715,8.301,0.0,0
1581351677.97,23.926,16.113,26.367,12.207,0.0,0
1581351677.974,18.555,9.766,28.809,16.602,0.0,0
1581351677.9770002,26.367,13.672,32.227,21.484,0.0,0
1581351677.981,26.855,26.367,28.32,25.391,0.0,0
1581351677.985,14.648,28.32,20.996,24.414,0.0,0
1581351677.9889998,8.789,23.438,27.344,22.461,0.0,0
1581351677.9929998,18.555,19.531,36.133,31.25,0.0,0
1581351677.9970002,25.391,22.461,37.598,32.227,0.0,0
1581351678.0010002,17.578,20.508000000000006,36.621,27.344,0.0,0
1581351678.004,6.348,17.578,21.973000000000006,26.367,0.0,0
1581351678.008,4.395,19.043,14.648,26.855,0.0,0
1581351678.012,19.043,16.113,24.414,32.227,0.0,0
1581351678.016,23.926,18.555,32.227,29.297,0.0,0
1581351678.02,4.395,24.902,31.25,24.414,0.0,0
1581351678.022,1.465,26.367,22.461,21.973000000000006,0.0,0
1581351678.026,14.648,18.555,18.555,19.043,0.0,0
1581351678.03,10.742,6.348,18.555,15.137,0.0,0
1581351678.034,2.93,14.16,24.414,9.766,0.0,0
1581351678.038,6.348,28.32,35.156,7.812,0.0,0
1581351678.042,20.508000000000006,21.973000000000006,37.598,16.602,0.0,0
1581351678.046,27.344,14.16,34.668,19.043,0.0,0
1581351678.049,15.625,17.09,26.367,2.93,0.0,0
1581351678.053,5.859,19.043,24.902,0.0,0.0,0
1581351678.0570002,13.184,20.02,24.902,15.625,0.0,0
1581351678.061,27.344,19.531,23.438,17.578,0.0,0
1581351678.065,30.273000000000003,23.438,30.762,18.066,0.0,0
1581351678.0670002,19.531,16.602,31.25,13.672,0.0,0
1581351678.071,20.508000000000006,10.742,24.902,-0.977,0.0,0
1581351678.075,30.762,7.324,20.996,2.441,0.0,0
1581351678.079,23.438,1.465,19.531,11.719,0.0,0
1581351678.083,15.625,29.785,22.461,9.766,0.0,0
1581351678.087,20.996,44.922,21.973000000000006,15.625,0.0,0
1581351678.091,27.832,33.203,20.996,19.531,0.0,0
1581351678.094,24.902,30.273000000000003,26.367,14.16,0.0,0
1581351678.0979998,7.812,33.203,24.902,13.672,0.0,0
1581351678.1020002,7.324,17.09,22.949,16.602,0.0,0
1581351678.106,28.809,8.301,19.531,26.855,0.0,0
1581351678.11,31.25,19.531,17.578,32.227,0.0,0
1581351678.1120002,23.926,22.461,24.414,34.18,0.0,0
1581351678.1160002,19.531,22.461,32.715,34.18,0.0,0
1581351678.12,15.137,24.902,29.785,26.855,0.0,0
1581351678.1239998,19.043,23.926,22.461,16.602,0.0,0
1581351678.1279998,21.484,20.996,26.367,16.113,0.0,0
1581351678.1320002,10.742,25.391,35.645,20.02,0.0,0
1581351678.1360002,8.789,23.926,32.715,19.531,0.0,0
1581351678.139,23.438,7.324,27.344,8.789,0.0,0
1581351678.143,33.691,0.0,32.227,8.789,0.0,0
1581351678.147,26.855,-0.977,34.18,17.09,0.0,0
1581351678.151,20.996,0.977,29.297,17.09,0.0,0
1581351678.155,30.273000000000003,22.461,21.484,19.043,0.0,0
1581351678.157,35.645,40.039,19.043,20.508000000000006,0.0,0
1581351678.161,24.414,39.551,29.785,20.996,0.0,0
1581351678.165,17.09,33.691,38.086,28.809,0.0,0
1581351678.169,21.484,31.738000000000003,33.691,35.156,0.0,0
1581351678.173,22.949,28.809,32.715,26.855,0.0,0
1581351678.177,16.602,26.367,35.156,26.367,0.0,0
1581351678.181,9.766,32.715,36.621,22.949,0.0,0
1581351678.184,8.301,29.785,35.645,18.066,0.0,0
1581351678.188,12.207,16.602,35.156,23.926,0.0,0
1581351678.1920002,17.578,17.578,37.598,26.855,0.0,0
1581351678.196,17.09,13.672,31.25,22.461,0.0,0
1581351678.2,17.09,16.113,25.391,22.461,0.0,0
1581351678.217,30.762,21.484,30.273000000000003,30.273000000000003,0.0,0
1581351678.221,38.574,25.391,31.25,37.109,0.0,0
1581351678.225,22.949,36.133,26.367,27.832,0.0,0
1581351678.229,8.301,34.668,23.438,20.02,0.0,0
1581351678.2329998,15.625,32.227,22.949,25.391,0.0,0
1581351678.2370002,25.391,32.227,22.949,31.25,0.0,0
1581351678.2410002,19.043,29.297,24.414,30.762,0.0,0
1581351678.244,12.695,24.902,26.855,26.367,0.0,0
1581351678.248,20.508000000000006,25.879,32.715,26.855,0.0,0
1581351678.252,21.484,27.344,27.832,21.973000000000006,0.0,0
1581351678.256,16.602,16.113,23.438,15.625,0.0,0
1581351678.26,12.695,1.465,28.809,18.555,0.0,0
1581351678.262,15.137,9.766,29.297,14.16,0.0,0
1581351678.266,23.438,21.973000000000006,27.832,16.113,0.0,0
1581351678.27,20.996,20.508000000000006,22.949,17.578,0.0,0
1581351678.274,10.254,22.949,24.414,9.766,0.0,0
1581351678.278,12.207,29.785,27.832,15.137,0.0,0
1581351678.282,20.02,28.809,27.832,18.066,0.0,0
1581351678.286,16.113,20.508000000000006,27.344,14.648,0.0,0
1581351678.289,7.812,18.555,22.461,11.719,0.0,0
1581351678.293,2.93,25.879,20.996,0.488,0.0,0
1581351678.2970002,10.742,16.113,27.344,-1.465,0.0,0
1581351678.301,15.625,0.488,26.367,2.441,0.0,0
1581351678.305,6.836,17.578,16.113,6.348,0.0,0
1581351678.3070002,1.465,30.273000000000003,15.625,-1.465,0.0,0
1581351678.311,3.906,24.902,19.043,-9.766,0.0,0
1581351678.315,8.789,23.926,21.484,0.0,0.0,0
1581351678.319,14.648,20.996,33.203,4.395,0.0,0
1581351678.323,7.324,22.949,32.227,0.488,0.0,0
1581351678.327,-0.977,34.668,24.902,-5.859,0.0,0
1581351678.331,7.812,36.621,26.855,-2.441,0.0,0
1581351678.334,9.277,25.879,28.32,4.395,0.0,0
1581351678.3379998,4.883,23.926,28.809,0.488,0.0,0
1581351678.342,9.277,28.809,33.203,5.371,0.0,0
1581351678.346,18.555,27.344,31.738000000000003,6.836,0.0,0
1581351678.35,25.391,24.414,30.762,5.859,0.0,0
1581351678.353,16.602,24.414,28.809,10.742,0.0,0
1581351678.357,7.324,10.254,27.344,9.277,0.0,0
1581351678.361,12.695,-4.883,33.203,13.184,0.0,0
1581351678.365,20.996,0.977,36.621,15.625,0.0,0
1581351678.369,17.09,24.902,33.203,12.695,0.0,0
1581351678.373,12.207,39.062,28.32,12.695,0.0,0
1581351678.377,20.02,32.715,29.785,15.625,0.0,0
1581351678.38,27.832,23.926,31.738000000000003,18.066,0.0,0
1581351678.3839998,24.414,29.785,29.297,7.812,0.0,0
1581351678.3879998,16.602,31.738000000000003,24.414,2.93,0.0,0
1581351678.3920002,20.508000000000006,22.461,22.949,9.766,0.0,0
1581351678.396,32.227,17.09,25.879,12.695,0.0,0
1581351678.397,26.855,20.508000000000006,28.809,9.766,0.0,0
1581351678.401,11.719,22.461,26.855,5.859,0.0,0
1581351678.405,16.113,13.672,22.461,3.906,0.0,0
1581351678.409,27.344,10.742,27.344,3.906,0.0,0
1581351678.413,23.926,22.461,26.855,2.441,0.0,0
1581351678.417,17.09,33.203,23.926,4.883,0.0,0
1581351678.421,9.766,29.785,25.879,3.418,0.0,0
1581351678.424,15.137,25.391,26.367,5.371,0.0,0
1581351678.428,29.785,29.785,27.344,18.066,0.0,0
1581351678.4320002,25.391,23.926,29.785,19.531,0.0,0
1581351678.436,16.602,5.371,35.645,11.719,0.0,0
1581351678.44,18.066,3.906,34.18,10.254,0.0,0
1581351678.4420002,31.25,15.625,27.344,17.578,0.0,0
1581351678.446,33.691,14.16,28.809,21.973000000000006,0.0,0
1581351678.45,16.113,7.324,33.203,11.23,0.0,0
1581351678.454,15.137,8.301,27.832,8.789,0.0,0
1581351678.458,28.809,20.02,16.113,12.695,0.0,0
1581351678.462,35.645,36.133,20.996,19.043,0.0,0
1581351678.466,15.625,27.344,21.973000000000006,11.23,0.0,0
1581351678.469,0.0,22.949,15.625,3.906,0.0,0
1581351678.4729998,16.602,32.227,16.602,14.648,0.0,0
1581351678.4770002,23.926,28.32,25.391,17.09,0.0,0
1581351678.481,11.23,20.02,28.809,11.719,0.0,0
1581351678.485,9.766,14.16,21.484,9.766,0.0,0
1581351678.4870002,20.02,19.531,19.043,10.742,0.0,0
1581351678.4910002,20.02,14.648,21.973000000000006,17.09,0.0,0
1581351678.495,10.254,8.301,20.996,16.602,0.0,0
1581351678.4989998,1.465,16.113,20.02,7.324,0.0,0
1581351678.5029998,4.395,20.508000000000006,20.02,2.93,0.0,0
1581351678.5070002,16.602,17.09,24.414,13.184,0.0,0
1581351678.5110002,17.09,14.16,27.344,16.113,0.0,0
1581351678.514,7.324,31.25,28.809,10.742,0.0,0
1581351678.518,5.371,27.832,28.32,13.184,0.0,0
1581351678.522,17.09,13.672,23.926,24.902,0.0,0
1581351678.526,16.602,20.02,24.414,21.973000000000006,0.0,0
1581351678.53,3.418,6.836,26.367,13.672,0.0,0
1581351678.5470002,-0.977,-6.836,29.297,18.555,0.0,0
1581351678.551,13.184,12.695,29.785,25.391,0.0,0
1581351678.555,14.648,19.043,23.438,17.578,0.0,0
1581351678.559,-0.488,19.531,19.043,12.695,0.0,0
1581351678.563,-7.324,23.926,21.484,15.137,0.0,0
1581351678.5670002,8.789,21.484,23.438,5.371,0.0,0
1581351678.571,25.391,23.926,20.02,7.812,0.0,0
1581351678.574,20.996,24.414,20.02,18.555,0.0,0
1581351678.5779998,15.137,14.648,27.344,20.508000000000006,0.0,0
1581351678.582,18.555,8.789,39.551,21.973000000000006,0.0,0
1581351678.586,35.645,12.207,41.504,20.508000000000006,0.0,0
1581351678.59,34.18,28.32,33.691,19.043,0.0,0
1581351678.592,9.277,32.227,34.668,15.625,0.0,0
1581351678.596,-0.488,25.879,35.156,9.766,0.0,0
1581351678.6,15.137,20.508000000000006,30.273000000000003,11.23,0.0,0
1581351678.604,12.695,16.602,25.391,14.648,0.0,0
1581351678.6079998,8.301,23.926,21.973000000000006,20.508000000000006,0.0,0
1581351678.6120002,19.531,23.926,25.391,20.508000000000006,0.0,0
1581351678.6160002,26.855,18.066,28.32,23.438,0.0,0
1581351678.619,28.809,16.113,26.367,29.297,0.0,0
1581351678.623,31.25,13.184,23.438,21.973000000000006,0.0,0
1581351678.627,23.926,19.531,23.926,11.23,0.0,0
1581351678.631,19.043,28.32,27.344,10.254,0.0,0
1581351678.635,17.09,34.18,31.25,13.184,0.0,0
1581351678.64,16.113,28.809,34.668,14.16,0.0,0
1581351678.644,14.16,10.742,31.25,6.836,0.0,0
1581351678.6479998,7.812,11.23,32.715,4.395,0.0,0
1581351678.6520002,19.043,20.508000000000006,37.109,7.324,0.0,0
1581351678.656,29.297,21.973000000000006,37.598,3.906,0.0,0
1581351678.66,21.973000000000006,14.16,36.133,11.23,0.0,0
1581351678.664,15.625,16.602,31.738000000000003,8.789,0.0,0
1581351678.667,35.156,29.297,35.645,9.766,0.0,0
1581351678.671,48.34,22.461,30.762,18.555,0.0,0
1581351678.675,31.738000000000003,16.602,21.973000000000006,13.184,0.0,0
1581351678.679,20.996,19.043,22.949,11.23,0.0,0
1581351678.6829998,25.879,25.879,25.391,17.09,0.0,0
1581351678.6820002,35.156,31.738000000000003,30.762,19.531,0.0,0
1581351678.686,28.32,28.809,34.18,17.09,0.0,0
1581351678.69,25.879,28.809,25.391,24.902,0.0,0
1581351678.694,33.203,30.273000000000003,19.043,31.25,0.0,0
1581351678.698,43.945,23.438,28.32,22.461,0.0,0
1581351678.702,42.969,10.254,33.203,15.137,0.0,0
1581351678.706,24.902,9.766,31.25,17.09,0.0,0
1581351678.709,28.32,21.973000000000006,32.227,24.414,0.0,0
1581351678.7129998,39.062,24.414,26.367,13.184,0.0,0
1581351678.717,35.645,22.949,21.973000000000006,3.906,0.0,0
1581351678.721,30.273000000000003,26.855,29.297,12.695,0.0,0
1581351678.725,32.715,25.879,32.227,17.09,0.0,0
1581351678.7270002,39.062,25.391,38.086,16.113,0.0,0
1581351678.731,44.434,29.785,37.598,22.461,0.0,0
1581351678.735,35.645,16.113,34.668,28.32,0.0,0
1581351678.7389998,22.461,5.371,40.039,22.949,0.0,0
1581351678.7429998,37.109,18.066,39.551,23.926,0.0,0
1581351678.7470002,58.105,25.879,40.527,35.156,0.0,0
1581351678.7510002,49.805,24.414,39.551,33.691,0.0,0
1581351678.754,34.18,23.926,37.598,28.809,0.0,0
1581351678.758,28.809,17.09,38.574,25.879,0.0,0
1581351678.762,33.203,-3.906,39.551,26.855,0.0,0
1581351678.766,26.855,6.348,35.645,31.738000000000003,0.0,0
1581351678.77,14.16,41.504,28.809,25.391,0.0,0
1581351678.771,16.113,47.852,34.668,23.926,0.0,0
1581351678.775,28.32,42.969,38.086,31.738000000000003,0.0,0
1581351678.779,27.344,39.062,36.621,31.25,0.0,0
1581351678.783,16.602,19.043,31.738000000000003,19.531,0.0,0
1581351678.7870002,17.578,15.625,28.809,18.555,0.0,0
1581351678.791,23.926,27.344,29.785,23.438,0.0,0
1581351678.795,25.879,34.668,30.273000000000003,31.738000000000003,0.0,0
1581351678.798,16.602,36.133,35.156,33.203,0.0,0
1581351678.802,7.812,23.438,36.133,14.648,0.0,0
1581351678.806,17.09,20.996,33.691,8.789,0.0,0
1581351678.81,31.738000000000003,22.949,41.01600000000001,18.555,0.0,0
1581351678.814,23.926,15.625,37.598,12.695,0.0,0
1581351678.816,8.789,14.16,30.273000000000003,8.789,0.0,0
1581351678.82,15.137,22.461,33.203,19.531,0.0,0
1581351678.824,34.18,33.203,34.668,14.16,0.0,0
1581351678.8279998,34.668,32.227,35.645,6.348,0.0,0
1581351678.832,25.391,27.832,35.645,14.16,0.0,0
1581351678.836,17.09,26.367,28.809,19.043,0.0,0
1581351678.84,29.297,20.508000000000006,26.855,21.973000000000006,0.0,0
1581351678.843,35.645,18.555,31.738000000000003,24.414,0.0,0
1581351678.847,14.648,17.09,32.715,29.785,0.0,0
1581351678.851,5.371,20.508000000000006,35.645,33.203,0.0,0
1581351678.855,11.719,19.043,34.18,33.203,0.0,0
1581351678.859,11.719,14.648,35.645,28.809,0.0,0
1581351678.861,5.371,20.02,41.992,20.996,0.0,0
1581351678.865,2.441,22.461,39.551,18.066,0.0,0
1581351678.869,7.812,12.695,32.227,17.578,0.0,0
1581351678.873,11.23,10.254,34.18,16.602,0.0,0
1581351678.877,9.766,17.09,36.133,17.09,0.0,0
1581351678.881,5.859,24.902,34.668,16.602,0.0,0
1581351678.885,-0.977,30.762,29.785,3.906,0.0,0
1581351678.8879998,7.324,29.785,24.414,7.324,0.0,0
1581351678.8920002,15.625,30.273000000000003,31.738000000000003,20.02,0.0,0
1581351678.896,10.254,31.738000000000003,32.227,16.602,0.0,0
1581351678.9,5.859,17.09,33.691,7.324,0.0,0
1581351678.904,9.766,0.488,33.691,7.324,0.0,0
1581351678.906,18.066,20.508000000000006,31.738000000000003,10.742,0.0,0
1581351678.91,8.789,38.574,34.668,1.953,0.0,0
1581351678.914,-0.977,25.391,33.691,-0.488,0.0,0
1581351678.918,9.766,22.461,40.039,10.254,0.0,0
1581351678.9220002,21.484,33.691,41.992,17.578,0.0,0
1581351678.926,15.137,23.926,34.668,13.672,0.0,0
1581351678.93,6.348,16.113,26.367,7.812,0.0,0
1581351678.9329998,17.09,25.391,22.949,14.648,0.0,0
1581351678.937,27.344,10.254,28.809,18.066,0.0,0
1581351678.941,15.625,2.441,35.645,13.184,0.0,0
1581351678.945,3.906,20.02,35.156,9.277,0.0,0
1581351678.949,5.371,28.809,25.879,6.836,0.0,0
1581351678.966,18.555,37.598,27.344,12.207,0.0,2
1581351678.97,23.438,31.25,32.715,14.16,0.0,0
1581351678.974,11.719,30.762,36.621,10.742,0.0,0
1581351678.978,0.0,33.691,36.133,6.836,0.0,0
1581351678.982,10.254,33.691,31.738000000000003,10.254,0.0,0
1581351678.986,20.508000000000006,31.25,24.902,15.137,0.0,0
1581351678.99,11.23,14.648,26.855,7.812,0.0,0
1581351678.9929998,3.418,13.672,39.062,4.883,0.0,0
1581351678.9970002,10.254,24.902,41.992,12.695,0.0,0
1581351679.0010002,20.996,20.508000000000006,40.039,12.695,0.0,0
1581351679.005,17.578,21.484,34.18,4.883,0.0,0
1581351679.0089998,9.766,31.738000000000003,35.156,-7.812,0.0,0
1581351679.0110002,19.531,29.297,35.156,-3.906,0.0,0
1581351679.015,24.902,25.879,25.879,4.883,0.0,0
1581351679.019,22.949,35.156,23.438,0.488,0.0,0
1581351679.0229998,18.555,26.855,35.156,3.906,0.0,0
1581351679.0270002,13.672,17.578,41.992,6.348,0.0,0
1581351679.031,19.531,31.25,35.156,6.348,0.0,0
1581351679.035,16.602,28.809,32.227,11.23,0.0,0
1581351679.038,9.277,22.949,38.086,14.648,0.0,0
1581351679.042,15.137,15.625,41.992,14.16,0.0,0
1581351679.046,26.855,0.977,37.598,11.719,0.0,0
1581351679.05,30.273000000000003,10.742,29.785,21.484,0.0,0
1581351679.054,22.949,19.043,29.297,25.391,0.0,0
1581351679.056,17.09,20.02,37.109,22.461,0.0,0
1581351679.06,25.391,28.32,38.574,23.438,0.0,0
1581351679.064,33.691,30.762,37.109,16.602,0.0,0
1581351679.0679998,20.996,31.738000000000003,33.691,10.254,0.0,0
1581351679.072,8.789,26.367,38.086,10.742,0.0,0
1581351679.076,14.648,17.578,37.109,11.719,0.0,0
1581351679.08,31.25,26.855,33.203,15.625,0.0,0
1581351679.083,26.855,25.879,38.574,11.23,0.0,0
1581351679.087,10.254,13.672,42.969,0.977,0.0,0
1581351679.091,8.301,14.16,41.504,1.953,0.0,0
1581351679.095,15.625,20.996,42.48,8.301,0.0,0
1581351679.099,21.484,17.09,42.969,11.719,0.0,0
1581351679.101,15.625,12.207,44.922,9.766,0.0,0
1581351679.105,7.324,19.043,40.039,11.719,0.0,0
1581351679.109,15.625,24.414,35.645,19.043,0.0,0
1581351679.113,25.879,22.461,40.039,21.973000000000006,0.0,0
1581351679.117,20.02,17.09,38.574,18.555,0.0,0
1581351679.121,18.555,14.648,38.574,19.531,0.0,0
1581351679.125,24.902,23.438,37.598,24.902,0.0,0
1581351679.1279998,33.691,31.738000000000003,39.551,24.414,0.0,0
1581351679.1320002,31.25,23.926,40.527,15.137,0.0,0
1581351679.1360002,18.066,18.555,31.738000000000003,13.672,0.0,0
1581351679.14,21.973000000000006,20.508000000000006,25.879,20.02,0.0,0
1581351679.144,33.691,15.625,29.297,18.555,0.0,0
1581351679.146,30.762,13.672,34.18,15.137,0.0,0
1581351679.15,28.809,20.996,34.18,20.508000000000006,0.0,0
1581351679.154,31.25,18.066,24.414,26.855,0.0,0
1581351679.158,37.598,22.461,21.484,23.926,0.0,0
1581351679.1620002,44.434,37.109,30.273000000000003,24.902,0.0,0
1581351679.166,41.504,29.297,36.621,29.297,0.0,0
1581351679.17,38.574,21.973000000000006,31.738000000000003,27.832,0.0,0
1581351679.173,39.551,20.996,17.09,20.508000000000006,0.0,0
1581351679.177,48.828,27.344,20.508000000000006,22.949,0.0,0
1581351679.181,49.316,36.621,25.879,30.273000000000003,0.0,0
1581351679.185,32.715,34.668,21.484,26.367,0.0,0
1581351679.189,30.762,28.809,24.902,22.949,0.0,0
1581351679.1920002,40.039,22.949,28.809,22.949,0.0,0
1581351679.196,33.203,20.02,31.25,18.066,0.0,0
1581351679.2,18.555,19.043,26.855,12.207,0.0,0
1581351679.204,23.438,21.484,31.25,18.066,0.0,0
1581351679.208,34.18,23.926,34.18,26.367,0.0,0
1581351679.212,33.691,21.484,29.785,26.855,0.0,0
1581351679.216,33.203,11.23,28.32,24.414,0.0,0
1581351679.219,26.855,12.695,33.203,25.879,0.0,0
1581351679.2229998,25.879,16.602,30.762,24.414,0.0,0
1581351679.2270002,31.25,16.602,21.484,25.391,0.0,0
1581351679.231,24.902,13.672,20.02,25.879,0.0,0
1581351679.235,16.113,0.977,22.949,19.531,0.0,0
1581351679.2370002,19.531,6.348,29.785,22.949,0.0,0
1581351679.2410002,27.344,26.367,30.762,23.438,0.0,0
1581351679.245,32.227,29.785,21.973000000000006,20.996,0.0,0
1581351679.2489998,20.996,29.297,18.555,13.184,0.0,0
1581351679.2529998,15.137,24.902,24.414,4.883,0.0,0
1581351679.2570002,26.855,15.137,26.855,14.648,0.0,0
1581351679.2610002,32.227,23.926,30.273000000000003,22.461,0.0,0
1581351679.264,19.043,27.832,34.668,19.531,0.0,0
1581351679.268,10.742,25.879,32.715,17.09,0.0,0
1581351679.272,27.832,29.785,25.879,17.578,0.0,0
1581351679.276,36.133,18.066,20.508000000000006,19.531,0.0,0
1581351679.28,16.602,1.465,24.902,16.113,0.0,0
1581351679.282,14.16,13.672,27.832,17.09,0.0,0
1581351679.286,30.762,24.414,25.879,22.461,0.0,0
1581351679.29,26.367,18.066,21.484,17.09,0.0,0
1581351679.294,18.066,16.602,21.484,13.184,0.0,0
1581351679.298,14.16,4.883,21.973000000000006,15.137,0.0,0
1581351679.302,12.207,7.324,19.531,20.508000000000006,0.0,0
1581351679.306,23.926,27.344,25.391,19.043,0.0,0
1581351679.309,24.414,29.297,19.531,8.301,0.0,0
1581351679.313,18.555,24.414,11.719,10.254,0.0,0
1581351679.3170002,20.996,22.949,20.996,15.625,0.0,0
1581351679.321,19.531,17.09,22.949,9.277,0.0,0
1581351679.325,4.883,2.93,13.672,5.859,0.0,0
1581351679.342,-3.906,4.883,12.695,6.348,0.0,0
1581351679.346,-6.348,14.648,21.484,4.883,0.0,0
1581351679.35,-7.812,16.113,22.949,7.324,0.0,0
1581351679.354,-3.418,26.367,13.184,6.348,0.0,0
1581351679.3579998,-6.348,16.113,16.602,4.883,0.0,0
1581351679.3620002,-3.906,7.812,20.996,6.348,0.0,0
1581351679.3660002,10.742,23.926,19.043,6.348,0.0,0
1581351679.369,11.719,25.391,14.648,9.277,0.0,0
1581351679.373,0.0,23.438,13.672,3.906,0.0,0
1581351679.377,-3.418,21.973000000000006,21.484,-2.93,0.0,0
1581351679.381,7.324,24.902,21.484,-4.395,0.0,0
1581351679.385,21.484,22.949,22.949,0.977,0.0,0
1581351679.387,18.555,19.043,24.414,6.348,0.0,0
1581351679.391,6.836,26.855,17.09,7.812,0.0,0
1581351679.395,9.277,28.809,12.695,11.719,0.0,0
1581351679.399,21.973000000000006,25.879,22.949,7.324,0.0,0
1581351679.403,20.508000000000006,20.996,34.18,7.324,0.0,0
1581351679.407,3.418,15.137,35.645,7.812,0.0,0
1581351679.411,5.371,22.461,25.391,7.812,0.0,0
1581351679.414,20.996,28.32,20.996,18.066,0.0,0
1581351679.418,25.879,13.184,22.949,22.461,0.0,0
1581351679.4220002,23.438,3.906,22.949,24.902,0.0,0
1581351679.426,19.043,16.602,24.414,21.973000000000006,0.0,0
1581351679.43,22.461,24.902,22.461,25.391,0.0,0
1581351679.4320002,27.832,24.902,21.973000000000006,24.414,0.0,0
1581351679.436,19.043,18.555,22.461,19.043,0.0,0
1581351679.44,14.648,12.695,17.09,18.555,0.0,0
1581351679.444,23.438,12.207,20.996,28.32,0.0,0
1581351679.448,31.25,17.09,25.391,32.227,0.0,0
1581351679.452,27.832,15.137,23.438,23.438,0.0,0
1581351679.456,20.02,7.324,25.391,20.996,0.0,0
1581351679.459,20.508000000000006,13.672,17.09,25.879,0.0,0
1581351679.4629998,30.762,30.273000000000003,13.672,19.531,0.0,0
1581351679.467,39.062,38.086,15.625,20.02,0.0,0
1581351679.471,30.273000000000003,26.855,17.578,26.367,0.0,0
1581351679.475,19.531,16.113,25.391,24.414,0.0,0
1581351679.4770002,27.344,16.113,23.438,34.18,0.0,0
1581351679.481,31.25,17.578,21.973000000000006,49.316,0.0,0
1581351679.485,28.809,20.996,22.461,56.64100000000001,0.0,0
1581351679.4889998,31.738000000000003,24.414,16.602,55.176,0.0,0
1581351679.4929998,39.062,15.625,15.137,64.453,0.0,0
1581351679.4970002,49.316,13.672,19.531,81.543,0.0,0
1581351679.5010002,39.062,21.484,20.996,83.008,0.0,0
1581351679.504,21.484,20.996,17.09,82.031,0.0,0
1581351679.508,27.832,20.996,15.625,83.984,0.0,0
1581351679.512,43.945,21.484,17.578,85.449,0.0,0
1581351679.516,48.34,25.391,19.043,90.82,0.0,0
1581351679.52,45.41,20.02,13.672,91.797,0.0,0
1581351679.522,40.527,18.066,11.23,88.867,0.0,0
1581351679.526,36.621,24.902,11.719,83.008,0.0,0
1581351679.53,38.574,31.25,14.648,84.961,0.0,0
1581351679.534,35.645,28.809,30.273000000000003,95.703,0.0,0
1581351679.538,24.414,15.625,28.809,95.215,0.0,0
1581351679.542,25.391,15.625,20.996,99.121,0.0,0
1581351679.546,26.367,22.949,18.066,103.027,0.0,0
1581351679.549,13.184,34.668,11.23,86.914,0.0,0
1581351679.553,12.695,39.062,9.277,71.289,0.0,0
1581351679.5570002,12.695,28.32,12.695,73.73,0.0,0
1581351679.561,14.648,28.809,20.02,82.52,0.0,0
1581351679.565,13.184,32.227,20.02,67.87100000000001,0.0,0
1581351679.5670002,4.883,29.297,16.602,44.434,0.0,0
1581351679.571,-4.883,28.809,19.531,43.945,0.0,0
1581351679.575,-8.789,25.391,22.949,42.48,0.0,0
1581351679.579,-20.996,5.371,26.367,30.273000000000003,0.0,0
1581351679.583,-42.48,2.93,33.691,8.301,0.0,0
1581351679.587,-37.598,22.949,34.668,-2.93,0.0,0
1581351679.591,-28.32,37.598,32.715,1.953,0.0,0
1581351679.594,-44.434,41.504,33.691,-14.648,0.0,0
1581351679.5979998,-67.383,39.551,31.25,-28.32,0.0,0
1581351679.6020002,-78.125,42.48,25.879,-31.25,0.0,0
1581351679.606,-75.195,22.949,33.691,-28.32,0.0,0
1581351679.61,-61.523,0.488,45.41,-18.066,0.0,0
1581351679.6120002,-69.824,13.672,30.762,-32.715,0.0,0
1581351679.6160002,-87.891,38.086,36.133,-40.527,0.0,0
1581351679.62,-75.684,36.621,44.922,-35.645,0.0,0
1581351679.6239998,-76.172,18.066,34.668,-36.133,0.0,0
1581351679.6279998,-83.984,18.066,30.762,-33.203,0.0,0
1581351679.6320002,-71.777,23.926,33.203,-30.273000000000003,0.0,0
1581351679.6360002,-57.129,34.18,34.668,-14.648,0.0,0
1581351679.639,-43.457,25.391,27.832,-7.324,0.0,0
1581351679.643,-34.18,16.602,12.207,-3.418,0.0,0
1581351679.647,-26.855,24.902,8.301,20.508000000000006,0.0,0
1581351679.651,-9.277,37.109,12.695,34.668,0.0,0
1581351679.655,2.441,41.01600000000001,9.277,39.551,0.0,0
1581351679.6720002,4.883,23.438,17.09,44.434,0.0,0
1581351679.676,11.719,13.672,26.855,52.246,0.0,0
1581351679.68,14.648,8.789,26.367,61.035,0.0,0
1581351679.684,24.902,17.578,25.391,62.5,0.0,0
1581351679.688,36.621,30.762,22.949,70.312,0.0,0
1581351679.6920002,34.18,23.438,18.555,74.707,0.0,0
1581351679.696,31.738000000000003,17.09,21.973000000000006,70.312,0.0,0
1581351679.699,44.434,16.602,25.879,81.543,0.0,0
1581351679.7029998,54.199,21.484,22.949,81.543,0.0,0
1581351679.707,49.316,17.578,18.555,71.289,0.0,0
1581351679.711,49.805,8.301,17.09,68.848,0.0,0
1581351679.715,66.406,10.254,15.137,76.66,0.0,0
1581351679.717,80.078,14.16,11.719,95.703,0.0,0
1581351679.721,78.125,29.297,16.602,93.75,0.0,0
1581351679.725,65.918,37.598,26.855,96.68,0.0,0
1581351679.729,57.129,28.32,28.32,100.586,0.0,0
1581351679.7329998,79.59,17.578,30.273000000000003,111.816,0.0,0
1581351679.7370002,94.238,20.02,29.297,125.488,0.0,0
1581351679.7410002,71.289,12.695,19.531,118.652,0.0,0
1581351679.744,53.71100000000001,11.23,17.09,109.375,0.0,0
1581351679.748,68.848,24.414,21.484,102.539,0.0,0
1581351679.752,81.543,23.926,21.484,103.516,0.0,0
1581351679.756,62.012,15.625,20.508000000000006,107.422,0.0,0
1581351679.76,43.457,9.766,20.996,99.121,0.0,0
1581351679.762,56.152,12.695,20.02,87.891,0.0,0
1581351679.766,67.383,22.461,13.672,86.914,0.0,0
1581351679.77,55.664,15.137,17.09,87.402,0.0,0
1581351679.774,55.176,12.695,33.203,99.121,0.0,0
1581351679.778,61.035,30.762,31.25,104.492,0.0,0
1581351679.782,65.43,30.273000000000003,20.508000000000006,93.262,0.0,0
1581351679.786,66.895,21.973000000000006,21.484,80.078,0.0,0
1581351679.789,58.594,16.602,15.625,76.66,0.0,0
1581351679.793,48.34,8.301,11.719,81.055,0.0,0
1581351679.7970002,46.875,10.742,21.973000000000006,72.75399999999998,0.0,0
1581351679.801,54.199,22.949,30.273000000000003,77.637,0.0,0
1581351679.805,43.457,21.973000000000006,26.367,74.707,0.0,0
1581351679.8070002,32.227,12.207,18.555,64.453,0.0,0
1581351679.811,43.457,11.719,24.902,79.102,0.0,0
1581351679.815,53.223,4.883,23.926,82.52,0.0,0
1581351679.819,48.34,7.324,20.02,82.031,0.0,0
1581351679.823,46.875,11.23,25.391,83.49600000000002,0.0,0
1581351679.827,51.27,13.672,27.832,83.008,0.0,0
1581351679.831,52.246,24.902,25.879,83.984,0.0,0
1581351679.834,46.875,33.203,23.926,79.102,0.0,0
1581351679.8379998,32.715,34.668,15.137,74.707,0.0,0
1581351679.842,32.227,31.738000000000003,10.254,62.5,0.0,0
1581351679.846,41.992,20.996,21.973000000000006,60.059,0.0,0
1581351679.85,37.598,12.695,20.508000000000006,62.988,0.0,0
1581351679.8520002,36.621,22.949,23.926,63.477,0.0,0
1581351679.856,38.574,23.926,26.855,55.664,0.0,0
1581351679.86,37.109,9.277,22.461,43.457,0.0,0
1581351679.8639998,39.551,15.137,26.855,41.992,0.0,0
1581351679.8679998,28.32,17.578,25.879,39.551,0.0,0
1581351679.8720002,16.602,16.602,26.855,35.645,0.0,0
1581351679.8760002,23.438,24.902,26.367,34.668,0.0,0
1581351679.879,29.297,18.555,25.391,27.344,0.0,0
1581351679.883,23.926,11.23,27.344,26.855,0.0,0
1581351679.887,14.16,19.043,20.996,31.738000000000003,0.0,0
1581351679.891,23.926,20.508000000000006,18.555,39.062,0.0,0
1581351679.895,39.062,13.672,22.461,42.969,0.0,0
1581351679.897,41.992,12.207,25.391,40.527,0.0,0
1581351679.901,33.203,20.508000000000006,22.461,41.01600000000001,0.0,0
1581351679.905,25.879,23.438,19.531,41.992,0.0,0
1581351679.909,35.156,21.484,27.832,42.969,0.0,0
1581351679.913,43.457,23.438,34.668,47.852,0.0,0
1581351679.917,31.738000000000003,22.461,32.227,44.922,0.0,0
1581351679.921,22.949,32.715,29.297,41.01600000000001,0.0,0
1581351679.924,33.203,27.344,27.832,33.691,0.0,0
1581351679.928,36.133,10.254,20.996,21.973000000000006,0.0,0
1581351679.9320002,23.438,13.184,13.184,25.391,0.0,0
1581351679.936,17.578,14.16,22.461,18.555,0.0,0
1581351679.94,21.484,20.02,30.273000000000003,12.695,0.0,0
1581351679.941,26.367,31.25,26.367,19.531,0.0,0
1581351679.945,21.484,29.297,23.438,16.113,0.0,0
1581351679.949,14.16,21.973000000000006,23.926,13.184,0.0,0
1581351679.9529998,20.02,20.508000000000006,32.715,15.625,0.0,0
1581351679.957,25.879,24.902,33.203,19.043,0.0,0
1581351679.961,22.461,27.832,30.273000000000003,18.555,0.0,0
1581351679.965,17.578,23.926,29.785,22.949,0.0,0
1581351679.968,13.184,22.461,28.809,24.414,0.0,0
1581351679.972,22.461,19.043,29.785,26.367,0.0,0
1581351679.976,33.203,22.461,32.227,28.32,0.0,0
1581351679.98,21.484,18.555,37.109,22.949,0.0,0
1581351679.984,19.531,20.996,42.969,28.32,0.0,0
1581351679.986,29.785,28.809,43.945,28.32,0.0,0
1581351679.99,30.762,20.996,31.738000000000003,18.555,0.0,0
1581351679.994,20.996,23.438,29.297,17.09,0.0,0
1581351679.998,8.789,23.926,32.715,19.043,0.0,0
1581351680.002,16.113,30.273000000000003,32.715,12.695,0.0,0
1581351680.006,26.855,23.438,37.598,10.254,0.0,0
1581351680.01,15.137,16.602,32.715,-2.93,0.0,0
1581351680.0129998,7.324,21.484,28.809,-7.324,0.0,0
1581351680.0170002,18.555,18.555,36.133,14.16,0.0,0
1581351680.021,24.414,20.508000000000006,37.598,19.531,0.0,0
1581351680.025,21.484,22.949,37.109,14.16,0.0,0
1581351680.029,17.578,30.762,33.203,13.184,0.0,0
1581351680.031,20.996,30.273000000000003,29.785,27.344,0.0,0
1581351680.035,35.645,13.184,37.598,41.504,0.0,0
1581351680.039,41.504,19.043,36.133,43.457,0.0,0
1581351680.043,36.133,27.344,33.691,42.969,0.0,0
1581351680.0470002,21.973000000000006,18.066,30.762,36.621,0.0,0
1581351680.051,25.391,20.508000000000006,27.832,32.227,0.0,0
1581351680.055,31.738000000000003,20.996,30.762,25.879,0.0,0
1581351680.0579998,20.996,20.02,34.18,27.832,0.0,0
1581351680.062,12.207,32.227,26.367,27.832,0.0,0
1581351680.066,12.695,34.668,26.855,19.043,0.0,0
1581351680.07,24.414,26.367,38.574,21.973000000000006,0.0,0
1581351680.074,28.32,15.625,39.551,27.832,0.0,1
1581351680.091,19.531,17.578,34.668,27.832,0.0,0
1581351680.095,22.949,20.996,32.227,31.738000000000003,0.0,0
1581351680.099,32.715,22.949,25.879,31.738000000000003,0.0,0
1581351680.103,34.18,27.344,23.926,32.227,0.0,0
1581351680.107,29.785,17.09,24.414,35.156,0.0,0
1581351680.111,30.762,15.137,25.391,34.18,0.0,0
1581351680.115,41.992,12.695,31.25,33.691,0.0,0
1581351680.1179998,43.945,6.836,36.621,33.203,0.0,0
1581351680.1220002,30.273000000000003,29.297,30.273000000000003,31.738000000000003,0.0,0
1581351680.1260002,17.578,36.621,23.926,20.996,0.0,0
1581351680.13,15.625,22.461,26.367,21.484,0.0,0
1581351680.1339998,26.367,24.902,26.367,33.203,0.0,0
1581351680.1360002,22.949,24.414,25.391,29.297,0.0,0
1581351680.14,9.277,26.367,27.344,27.832,0.0,0
1581351680.144,9.277,29.297,30.273000000000003,32.227,0.0,0
1581351680.1479998,19.531,28.809,31.25,31.738000000000003,0.0,0
1581351680.1520002,20.508000000000006,25.879,30.762,27.832,0.0,0
1581351680.156,16.113,20.02,32.227,25.391,0.0,0
1581351680.16,19.043,20.996,29.297,26.367,0.0,0
1581351680.163,28.809,19.043,24.414,32.227,0.0,0
1581351680.167,39.062,9.766,21.484,36.621,0.0,0
1581351680.171,30.273000000000003,17.09,21.973000000000006,35.645,0.0,0
1581351680.175,17.578,22.949,29.785,32.715,0.0,0
1581351680.179,21.484,25.879,30.762,28.32,0.0,0
1581351680.181,22.949,31.25,20.508000000000006,23.926,0.0,0
1581351680.185,17.578,23.438,26.367,26.367,0.0,0
1581351680.189,19.043,14.16,39.062,32.227,0.0,0
1581351680.1929998,21.973000000000006,13.184,30.762,30.762,0.0,0
1581351680.197,20.996,19.531,21.973000000000006,30.762,0.0,0
1581351680.201,16.113,24.414,24.414,33.203,0.0,0
1581351680.205,16.602,26.367,27.832,32.715,0.0,0
1581351680.208,28.32,20.996,25.879,35.156,0.0,0
1581351680.212,30.273000000000003,10.742,23.926,31.738000000000003,0.0,0
1581351680.216,24.902,23.926,23.926,29.785,0.0,0
1581351680.22,16.602,35.156,24.902,34.668,0.0,0
1581351680.224,13.672,26.855,30.762,33.203,0.0,0
1581351680.226,30.762,20.996,32.715,27.832,0.0,0
1581351680.23,40.039,16.113,27.832,26.367,0.0,0
1581351680.234,30.273000000000003,7.324,20.996,26.855,0.0,0
1581351680.238,30.762,16.602,26.367,29.785,0.0,0
1581351680.242,34.668,25.391,34.668,32.227,0.0,0
1581351680.246,37.598,23.926,33.203,36.133,0.0,0
1581351680.25,34.668,28.809,32.715,36.621,0.0,0
1581351680.2529998,22.949,21.484,31.25,36.621,0.0,0
1581351680.2570002,24.414,13.672,31.738000000000003,39.062,0.0,0
1581351680.2610002,37.109,17.578,36.133,47.852,0.0,0
1581351680.265,32.715,14.648,28.809,45.41,0.0,0
1581351680.269,20.508000000000006,24.414,24.902,31.738000000000003,0.0,0
1581351680.272,28.32,38.574,26.855,40.039,0.0,0
1581351680.276,42.48,35.156,22.461,45.898,0.0,0
1581351680.28,43.945,24.902,22.949,44.434,0.0,0
1581351680.284,34.668,26.855,26.367,43.945,0.0,0
1581351680.288,27.344,29.297,28.809,41.01600000000001,0.0,0
1581351680.292,40.527,20.02,33.203,44.434,0.0,0
1581351680.296,51.27,17.09,37.109,48.828,0.0,0
1581351680.299,32.715,26.367,32.227,39.551,0.0,0
1581351680.303,24.414,30.273000000000003,28.32,32.715,0.0,0
1581351680.3070002,34.668,23.926,27.344,34.668,0.0,0
1581351680.311,35.156,19.531,27.344,34.18,0.0,0
1581351680.315,29.297,15.137,29.785,35.645,0.0,0
1581351680.3170002,22.949,21.484,31.25,32.227,0.0,0
1581351680.321,26.367,33.203,29.785,26.855,0.0,0
1581351680.325,28.32,31.738000000000003,24.414,23.438,0.0,0
1581351680.329,17.09,22.461,22.461,23.926,0.0,0
1581351680.333,6.348,14.16,20.996,19.531,0.0,0
1581351680.337,15.137,22.461,22.949,32.227,0.0,0
1581351680.341,30.273000000000003,22.461,27.344,41.01600000000001,0.0,0
1581351680.344,26.855,11.23,27.344,26.855,0.0,0
1581351680.3479998,18.555,17.09,29.785,30.762,0.0,0
1581351680.3520002,11.23,14.16,29.785,32.715,0.0,0
1581351680.356,21.484,16.113,29.785,28.32,0.0,0
1581351680.36,31.738000000000003,29.785,29.785,27.344,0.0,0
1581351680.363,20.508000000000006,34.668,26.367,24.414,0.0,0
1581351680.367,9.277,21.973000000000006,32.715,21.484,0.0,0
1581351680.371,23.926,10.254,38.574,25.391,0.0,0
1581351680.375,31.738000000000003,18.066,33.691,26.855,0.0,0
1581351680.379,21.484,26.855,30.273000000000003,20.508000000000006,0.0,0
1581351680.383,15.137,38.574,28.809,18.555,0.0,0
1581351680.387,13.672,37.598,28.32,15.137,0.0,0
1581351680.39,24.414,16.113,28.32,18.555,0.0,0
1581351680.394,23.926,13.184,27.344,20.508000000000006,0.0,0
1581351680.3979998,12.207,29.785,24.414,12.207,0.0,0
1581351680.4020002,10.254,36.621,17.578,9.766,0.0,0
1581351680.406,22.949,39.551,20.996,21.484,0.0,0
1581351680.407,28.809,38.086,30.273000000000003,23.438,0.0,0
1581351680.411,15.137,31.738000000000003,30.273000000000003,11.23,0.0,0
1581351680.415,8.301,26.367,27.344,7.324,0.0,0
1581351680.419,20.996,30.273000000000003,33.203,18.555,0.0,0
1581351680.423,26.367,21.973000000000006,37.598,27.832,0.0,0
1581351680.427,13.184,17.09,27.344,24.902,0.0,0
1581351680.431,5.859,15.137,22.461,21.484,0.0,0
1581351680.434,8.301,5.859,26.367,15.137,0.0,0
1581351680.438,15.625,20.996,24.414,19.043,0.0,0
1581351680.4420002,15.625,28.32,23.926,28.809,0.0,0
1581351680.446,5.371,17.09,30.273000000000003,18.555,0.0,0
1581351680.45,12.695,21.484,30.273000000000003,15.625,0.0,0
1581351680.467,20.996,32.715,20.996,16.602,0.0,0
1581351680.471,11.719,30.273000000000003,21.973000000000006,9.277,0.0,0
1581351680.475,6.348,28.32,31.738000000000003,7.324,0.0,0
1581351680.479,6.348,30.273000000000003,32.715,7.812,0.0,0
1581351680.4829998,14.16,19.043,33.691,14.16,0.0,0
1581351680.4870002,17.09,18.555,39.062,12.695,0.0,0
1581351680.4910002,8.301,26.855,42.969,13.672,0.0,0
1581351680.494,0.0,17.09,42.969,13.184,0.0,0
1581351680.498,4.883,20.996,46.875,12.695,0.0,0
1581351680.502,20.02,25.879,54.199,21.484,0.0,0
1581351680.506,11.719,15.625,58.105,12.695,0.0,0
1581351680.51,-2.93,12.207,55.176,3.906,0.0,0
1581351680.5129998,1.953,19.043,48.828,14.16,0.0,0
1581351680.5170002,7.812,22.461,49.316,19.043,0.0,0
1581351680.521,2.93,22.949,50.78100000000001,16.113,0.0,0
1581351680.525,-2.93,11.23,53.223,12.207,0.0,0
1581351680.529,-1.953,4.395,52.246,19.043,0.0,0
1581351680.533,6.836,18.066,53.71100000000001,23.438,0.0,0
1581351680.5370002,14.16,25.391,61.523,21.973000000000006,0.0,0
1581351680.54,8.789,28.809,62.5,20.508000000000006,0.0,0
1581351680.544,9.277,34.668,52.734,20.508000000000006,0.0,0
1581351680.548,17.578,28.32,40.527,18.066,0.0,0
1581351680.552,13.672,26.855,39.062,16.113,0.0,0
1581351680.556,0.0,32.227,39.551,11.719,0.0,0
1581351680.5579998,-1.465,34.18,35.645,11.719,0.0,0
1581351680.562,5.371,32.715,34.668,9.766,0.0,0
1581351680.566,10.742,18.555,29.785,7.812,0.0,0
1581351680.57,6.348,19.531,21.973000000000006,9.277,0.0,0
1581351680.574,-3.906,19.531,18.066,4.883,0.0,0
1581351680.5779998,-2.441,4.395,14.16,3.418,0.0,0
1581351680.582,9.277,10.254,13.184,2.441,0.0,0
1581351680.585,17.578,22.949,19.043,4.883,0.0,0
1581351680.589,9.766,17.578,17.578,2.441,0.0,0
1581351680.593,7.812,16.602,18.066,-8.301,0.0,0
1581351680.597,18.066,7.812,16.113,-4.883,0.0,0
1581351680.601,20.508000000000006,17.578,9.766,0.488,0.0,0
1581351680.6020002,9.766,37.109,12.695,3.906,0.0,0
1581351680.606,9.766,35.156,14.648,10.254,0.0,0
1581351680.61,26.855,31.25,19.531,22.949,0.0,0
1581351680.6139998,25.879,23.926,18.066,20.996,0.0,0
1581351680.6179998,13.184,18.066,9.766,17.578,0.0,0
1581351680.6220002,15.625,10.742,5.371,25.879,0.0,0
1581351680.6260002,23.926,7.812,4.395,28.32,0.0,0
1581351680.629,27.344,20.02,5.859,23.438,0.0,0
1581351680.633,18.066,21.973000000000006,4.883,16.602,0.0,0
1581351680.637,12.695,18.555,14.648,16.602,0.0,0
1581351680.641,15.625,21.484,18.066,18.066,0.0,0
1581351680.645,20.996,21.973000000000006,8.789,16.602,0.0,0
1581351680.647,21.484,15.625,11.23,17.09,0.0,0
1581351680.651,17.578,18.555,18.555,11.719,0.0,0
1581351680.655,24.414,22.461,24.902,11.23,0.0,0
1581351680.659,33.691,28.32,27.344,19.043,0.0,0
1581351680.663,28.809,22.461,20.508000000000006,18.066,0.0,0
1581351680.667,16.602,12.207,17.09,15.625,0.0,0
1581351680.671,11.719,19.043,15.625,15.625,0.0,0
1581351680.674,15.625,25.879,16.113,10.254,0.0,0
1581351680.678,14.648,26.855,17.09,9.766,0.0,0
1581351680.6820002,10.742,25.391,17.578,14.648,0.0,0
1581351680.686,10.742,17.09,18.066,19.043,0.0,0
1581351680.69,15.137,19.043,21.484,20.996,0.0,0
1581351680.695,27.344,29.297,31.25,20.508000000000006,0.0,0
1581351680.699,36.621,30.273000000000003,36.133,29.297,0.0,0
1581351680.7029998,24.902,17.578,26.855,28.809,0.0,0
1581351680.707,17.09,13.184,20.02,25.391,0.0,0
1581351680.711,30.762,20.508000000000006,22.949,27.832,0.0,0
1581351680.715,33.203,6.348,24.414,27.344,0.0,0
1581351680.719,25.391,8.789,25.391,29.297,0.0,0
1581351680.722,27.344,28.809,19.531,26.367,0.0,0
1581351680.726,33.691,30.762,25.391,28.809,0.0,0
1581351680.73,36.133,28.32,32.227,30.273000000000003,0.0,0
1581351680.734,23.926,20.02,34.668,22.949,0.0,0
1581351680.738,11.719,13.184,32.715,19.531,0.0,0
1581351680.7529998,17.578,21.484,26.855,17.578,0.0,0
1581351680.7570002,25.879,17.09,31.25,16.602,0.0,0
1581351680.7610002,20.996,5.371,31.25,14.16,0.0,0
1581351680.765,13.672,6.836,29.297,12.207,0.0,0
1581351680.769,19.043,20.02,33.203,18.555,0.0,0
1581351680.7729998,24.414,36.133,31.25,22.461,0.0,0
1581351680.7770002,16.602,31.738000000000003,22.461,13.184,0.0,0
1581351680.78,11.23,27.344,15.625,9.277,0.0,0
1581351680.784,12.695,30.762,19.531,17.578,0.0,0
1581351680.788,16.602,31.738000000000003,30.762,22.461,0.0,0
1581351680.792,18.555,22.461,32.715,23.926,0.0,0
1581351680.796,12.695,13.184,31.738000000000003,25.879,0.0,0
1581351680.782,6.348,18.066,26.367,24.902,0.0,0
1581351680.786,18.555,11.23,20.508000000000006,24.414,0.0,0
1581351680.79,28.32,9.766,19.531,25.879,0.0,0
1581351680.794,18.555,21.973000000000006,11.719,20.02,0.0,0
1581351680.798,7.324,26.367,12.207,14.648,0.0,0
1581351680.802,12.695,24.902,13.184,14.16,0.0,0
1581351680.806,21.973000000000006,28.809,10.742,19.043,0.0,0
1581351680.809,13.672,17.578,9.766,16.113,0.0,0
1581351680.813,10.254,13.184,9.277,12.695,0.0,0
1581351680.8170002,23.438,25.391,9.277,21.973000000000006,0.0,0
1581351680.821,27.832,25.879,10.742,18.066,0.0,0
1581351680.825,26.855,19.531,15.625,11.719,0.0,0
1581351680.842,22.949,21.484,19.531,16.113,0.0,0
1581351680.846,21.973000000000006,26.367,13.672,20.02,0.0,0
1581351680.85,29.297,27.832,9.766,22.461,0.0,0
1581351680.854,33.203,30.273000000000003,20.02,21.973000000000006,0.0,0
1581351680.8579998,20.02,19.531,20.508000000000006,15.137,0.0,0
1581351680.8620002,15.625,17.09,14.16,14.16,0.0,0
1581351680.8660002,23.926,15.137,14.16,18.555,0.0,0
1581351680.869,28.809,16.113,17.09,22.461,0.0,0
1581351680.873,21.973000000000006,29.297,18.066,20.508000000000006,0.0,0
1581351680.877,16.602,30.762,12.695,14.648,0.0,0
1581351680.881,25.391,34.668,11.23,21.973000000000006,0.0,0
1581351680.885,29.785,25.879,16.113,25.879,0.0,0
1581351680.887,26.855,7.812,23.438,26.855,0.0,0
1581351680.891,19.043,13.672,28.32,25.879,0.0,0
1581351680.895,22.461,20.02,20.996,22.949,0.0,0
1581351680.899,33.203,23.926,5.859,30.273000000000003,0.0,0
1581351680.903,29.785,1.953,14.648,31.738000000000003,0.0,0
1581351680.907,23.926,-2.441,36.621,34.18,0.0,0
1581351680.911,27.344,37.598,42.48,39.062,0.0,0
1581351680.914,32.715,41.992,33.691,28.809,0.0,0
1581351680.918,29.297,33.203,26.855,17.09,0.0,0
1581351680.9220002,19.531,34.668,26.855,21.484,0.0,0
1581351680.926,20.02,34.18,23.438,31.25,0.0,0
1581351680.93,32.227,28.32,20.508000000000006,35.645,0.0,0
1581351680.9320002,41.01600000000001,31.25,31.738000000000003,36.133,0.0,0
1581351680.936,32.715,26.367,33.203,30.273000000000003,0.0,0
1581351680.94,26.855,16.113,27.344,25.391,0.0,0
1581351680.944,38.086,21.484,29.785,27.832,0.0,0
1581351680.948,43.457,21.973000000000006,34.668,29.297,0.0,0
1581351680.952,31.25,7.324,39.062,26.367,0.0,0
1581351680.956,18.066,11.719,34.18,22.949,0.0,0
1581351680.959,21.484,29.785,32.227,20.996,0.0,0
1581351680.9629998,32.715,35.645,29.785,20.508000000000006,0.0,0
1581351680.967,31.738000000000003,38.086,30.762,19.531,0.0,0
1581351680.971,20.508000000000006,32.715,36.133,17.578,0.0,0
1581351680.975,20.508000000000006,31.738000000000003,32.227,22.949,0.0,0
1581351680.9770002,24.414,24.902,31.738000000000003,17.09,0.0,0
1581351680.981,23.438,23.438,33.691,13.184,0.0,0
1581351680.985,16.602,22.461,27.832,16.113,0.0,0
1581351680.9889998,7.324,17.578,31.25,17.578,0.0,0
1581351680.9929998,9.277,22.461,35.645,19.043,0.0,0
1581351680.9970002,12.207,22.461,28.32,13.184,0.0,0
1581351681.0010002,9.277,3.906,30.762,16.113,0.0,0
1581351681.004,6.836,-0.977,40.527,12.695,0.0,0
1581351681.008,12.695,12.207,36.133,12.207,0.0,0
1581351681.012,26.855,12.695,30.273000000000003,19.531,0.0,0
1581351681.016,32.227,26.367,27.832,17.09,0.0,0
1581351681.02,19.531,39.062,17.578,8.301,0.0,0
1581351681.022,12.207,33.691,22.949,1.465,0.0,0
1581351681.026,22.949,31.738000000000003,38.086,8.301,0.0,0
1581351681.03,22.949,33.691,42.48,17.09,0.0,0
1581351681.034,9.277,27.832,41.01600000000001,12.207,0.0,0
1581351681.038,3.418,17.578,35.156,10.742,0.0,0
1581351681.042,15.137,12.207,34.668,12.695,0.0,0
1581351681.046,17.09,15.625,39.062,15.625,0.0,0
1581351681.049,7.812,18.066,36.133,14.648,0.0,0
1581351681.053,3.906,19.531,30.273000000000003,10.254,0.0,0
1581351681.0570002,10.254,27.344,28.32,19.043,0.0,0
1581351681.061,18.066,23.926,28.32,17.578,0.0,0
1581351681.065,14.16,19.043,24.902,16.602,0.0,0
1581351681.066,15.625,26.367,26.855,20.996,0.0,0
1581351681.07,23.926,31.738000000000003,31.25,11.23,0.0,0
1581351681.074,24.902,41.01600000000001,34.18,10.742,0.0,0
1581351681.0779998,24.902,37.598,35.645,7.812,0.0,0
1581351681.082,22.461,24.414,34.18,-3.418,0.0,0
1581351681.086,22.461,24.902,31.25,0.0,0.0,0
1581351681.09,29.785,21.973000000000006,35.156,2.93,0.0,0
1581351681.093,30.762,20.508000000000006,36.133,-5.859,0.0,0
1581351681.097,22.461,25.391,34.668,-12.695,0.0,0
1581351681.101,17.09,22.461,32.227,-18.555,0.0,0
1581351681.105,17.09,22.461,26.367,-21.973000000000006,0.0,0
1581351681.109,19.531,21.973000000000006,28.32,-26.855,0.0,0
1581351681.1260002,13.184,21.484,32.227,-30.762,0.0,0
1581351681.13,6.836,23.438,34.668,-29.785,0.0,0
1581351681.1339998,15.625,22.949,36.133,-19.043,0.0,0
1581351681.1379998,27.344,10.742,33.691,-4.883,0.0,0
1581351681.1420002,19.531,11.719,28.809,-7.812,0.0,0
1581351681.146,11.23,23.926,26.367,-11.719,0.0,0
1581351681.15,16.113,18.066,23.926,-16.113,0.0,0
1581351681.153,19.043,10.254,19.043,-18.066,0.0,0
1581351681.157,21.973000000000006,26.855,26.855,-5.859,0.0,0
1581351681.161,12.207,41.504,37.598,-4.883,0.0,0
1581351681.165,4.883,38.574,37.109,-9.766,0.0,0
1581351681.169,12.695,36.621,30.273000000000003,-8.301,0.0,0
1581351681.156,17.09,36.621,33.203,-9.766,0.0,0
1581351681.16,16.602,28.809,39.551,-5.371,0.0,0
1581351681.164,9.766,15.625,35.645,-8.789,0.0,0
1581351681.168,10.742,17.09,24.902,-13.184,0.0,0
1581351681.1720002,20.996,25.391,23.438,-12.695,0.0,0
1581351681.176,18.066,35.645,32.227,-14.648,0.0,0
1581351681.18,6.348,20.508000000000006,33.691,-13.672,0.0,0
1581351681.1829998,5.859,1.465,20.996,-13.184,0.0,0
1581351681.187,21.484,17.09,22.949,-4.883,0.0,0
1581351681.191,19.531,33.203,34.18,-5.371,0.0,0
1581351681.195,0.488,35.156,34.18,-22.949,0.0,0
1581351681.199,6.836,26.367,38.086,-20.02,0.0,0
1581351681.216,15.625,17.578,41.01600000000001,-9.277,0.0,0
1581351681.22,12.695,23.926,39.062,-1.465,0.0,0
1581351681.224,4.395,28.809,34.18,2.93,0.0,0
1581351681.228,12.207,24.414,38.574,15.137,0.0,0
1581351681.232,22.949,13.184,43.945,24.414,0.0,0
1581351681.236,20.02,8.789,44.922,25.879,0.0,0
1581351681.24,18.066,20.02,43.457,35.156,0.0,0
1581351681.2429998,19.531,15.625,39.551,39.551,0.0,0
1581351681.2470002,32.227,4.395,41.992,42.969,0.0,1
1581351681.2510002,32.715,18.555,43.457,45.898,0.0,0
1581351681.255,23.926,37.598,47.852,35.645,0.0,0
1581351681.2589998,14.648,46.387,55.664,35.645,0.0,0
1581351681.2610002,15.137,32.715,44.434,38.574,0.0,0
1581351681.265,12.695,26.367,34.18,28.809,0.0,0
1581351681.269,2.93,40.039,38.574,28.32,0.0,0
1581351681.2729998,-0.488,32.227,44.922,29.297,0.0,0
1581351681.2770002,11.23,26.367,53.223,28.809,0.0,0
1581351681.281,22.949,27.832,50.293,30.762,0.0,0
1581351681.285,14.648,18.555,48.828,33.691,0.0,0
1581351681.288,17.09,11.719,48.34,39.551,0.0,0
1581351681.292,13.184,20.02,39.551,42.48,0.0,0
1581351681.296,9.766,20.996,38.086,42.48,0.0,0
1581351681.3,20.996,22.461,45.898,41.504,0.0,0
1581351681.304,23.438,35.156,53.71100000000001,43.945,0.0,0
1581351681.306,18.555,39.062,52.246,44.922,0.0,0
1581351681.31,27.832,33.203,45.898,53.71100000000001,0.0,0
1581351681.314,33.203,20.996,40.527,51.758,0.0,0
1581351681.3179998,26.855,20.508000000000006,35.645,43.457,0.0,0
1581351681.322,25.391,24.414,41.504,48.34,0.0,0
1581351681.326,26.367,19.043,43.457,47.852,0.0,0
1581351681.33,24.902,7.812,36.621,42.969,0.0,0
1581351681.333,19.043,17.578,29.785,40.039,0.0,0
1581351681.337,9.277,28.32,30.762,31.25,0.0,0
1581351681.341,5.859,22.949,41.992,32.227,0.0,0
1581351681.345,17.09,31.25,47.363,35.645,0.0,0
1581351681.349,16.602,41.01600000000001,37.109,25.879,0.0,0
1581351681.351,7.324,30.762,34.18,19.531,0.0,0
1581351681.355,12.695,21.484,40.527,18.555,0.0,0
1581351681.359,22.461,25.391,37.109,22.949,0.0,0
1581351681.363,28.32,22.949,24.414,30.762,0.0,0
1581351681.367,20.996,17.578,20.996,27.344,0.0,0
1581351681.371,19.531,15.137,36.133,26.367,0.0,0
1581351681.375,31.25,19.043,33.691,28.32,0.0,0
1581351681.3779998,39.062,28.809,27.344,35.645,0.0,0
1581351681.3820002,38.574,21.973000000000006,23.926,41.504,0.0,0
1581351681.3860002,26.367,17.578,20.508000000000006,37.598,0.0,0
1581351681.39,24.902,24.902,25.879,36.133,0.0,0
1581351681.394,34.668,20.508000000000006,23.926,37.598,0.0,0
1581351681.396,38.086,27.344,23.926,43.457,0.0,0
1581351681.4,33.203,39.062,27.832,50.293,0.0,0
1581351681.404,33.203,36.621,22.461,53.223,0.0,0
1581351681.408,40.527,25.391,24.902,48.34,0.0,0
1581351681.4120002,40.527,19.531,27.344,40.039,0.0,0
1581351681.416,34.18,25.879,22.949,38.574,0.0,0
1581351681.42,33.203,16.602,24.414,41.01600000000001,0.0,0
1581351681.423,38.086,9.277,19.043,38.574,0.0,0
1581351681.427,42.48,20.996,15.625,32.715,0.0,0
1581351681.431,38.086,21.484,20.02,31.25,0.0,0
1581351681.435,31.25,20.508000000000006,20.02,33.203,0.0,0
1581351681.439,38.574,25.879,28.809,35.645,0.0,0
1581351681.4420002,55.664,27.832,36.621,43.945,0.0,0
1581351681.446,47.852,25.391,29.297,42.48,0.0,0
1581351681.45,30.273000000000003,21.973000000000006,28.809,33.691,0.0,0
1581351681.454,34.668,18.066,31.25,34.668,0.0,0
1581351681.458,37.598,20.996,26.367,36.621,0.0,0
1581351681.462,27.832,25.879,25.391,38.086,0.0,0
1581351681.466,19.043,15.625,19.531,35.645,0.0,0
1581351681.469,13.184,5.371,13.672,25.391,0.0,0
1581351681.4729998,20.02,16.602,15.625,26.855,0.0,0
1581351681.4770002,29.297,39.062,20.508000000000006,32.715,0.0,0
1581351681.481,16.602,34.668,19.531,27.344,0.0,0
1581351681.485,10.742,20.02,14.16,26.367,0.0,0
1581351681.4870002,23.438,15.137,20.508000000000006,29.785,0.0,0
1581351681.4910002,30.762,21.484,27.832,33.691,0.0,0
1581351681.495,24.902,22.949,30.273000000000003,34.18,0.0,0
1581351681.4989998,17.578,15.137,31.738000000000003,26.855,0.0,0
1581351681.5029998,19.531,26.367,25.391,24.902,0.0,0
1581351681.5070002,27.832,33.203,22.461,28.32,0.0,0
1581351681.5110002,28.32,24.902,27.344,26.855,0.0,0
1581351681.514,18.066,16.602,19.043,19.531,0.0,0
1581351681.518,18.066,15.625,10.742,21.484,0.0,0
1581351681.522,31.25,20.996,21.973000000000006,31.738000000000003,0.0,0
1581351681.526,28.32,19.043,27.832,31.25,0.0,0
1581351681.53,14.16,24.414,20.996,26.367,0.0,0
1581351681.532,18.555,29.785,25.879,28.32,0.0,0
1581351681.536,30.762,26.855,27.344,32.227,0.0,0
1581351681.54,32.227,24.902,19.531,33.203,0.0,0
1581351681.544,27.344,24.902,17.578,28.32,0.0,0
1581351681.548,26.367,24.902,26.367,27.832,0.0,0
1581351681.552,40.039,27.344,41.01600000000001,36.621,0.0,0
1581351681.556,47.852,26.855,38.086,37.598,0.0,0
1581351681.559,31.738000000000003,23.926,28.32,28.809,0.0,0
1581351681.563,18.066,23.926,22.461,20.508000000000006,0.0,0
1581351681.5670002,20.996,25.879,22.461,21.973000000000006,0.0,0
1581351681.571,24.414,27.344,29.785,20.996,0.0,0
1581351681.575,23.926,31.25,36.133,20.02,0.0,0
1581351681.592,18.555,29.297,40.527,24.414,0.0,0
1581351681.596,13.184,19.531,31.738000000000003,15.137,0.0,0
1581351681.6,22.949,16.113,24.902,14.16,0.0,0
1581351681.604,25.391,20.02,19.531,20.02,0.0,0
1581351681.6079998,16.602,28.809,20.996,14.16,0.0,0
1581351681.6120002,17.578,29.785,30.273000000000003,11.23,0.0,0
1581351681.6160002,30.273000000000003,32.715,27.344,15.137,0.0,0
1581351681.619,33.203,25.391,24.902,20.02,0.0,0
1581351681.623,31.25,6.836,36.133,20.996,0.0,0
1581351681.627,24.414,10.254,37.109,17.09,0.0,0
1581351681.631,24.902,23.926,32.227,15.625,0.0,0
1581351681.635,38.086,33.203,36.133,24.902,0.0,0
1581351681.637,25.879,32.715,20.508000000000006,26.855,0.0,0
1581351681.641,12.695,19.531,-22.949,19.043,0.0,0
1581351681.645,20.508000000000006,14.648,-55.664,23.926,0.0,0
1581351681.649,27.344,25.391,-76.66,27.344,0.0,0
1581351681.653,23.926,24.902,-90.82,21.484,0.0,0
1581351681.657,17.578,15.625,-91.797,21.484,0.0,0
1581351681.661,14.648,28.809,-96.68,19.531,0.0,0
1581351681.664,18.555,36.621,-104.492,20.996,0.0,0
1581351681.668,22.949,31.25,-99.609,24.414,0.0,0
1581351681.6720002,16.113,23.926,-94.727,15.625,0.0,0
1581351681.676,13.672,5.371,-93.75,13.184,0.0,0
1581351681.68,26.367,11.23,-84.473,22.949,0.0,0
1581351681.6820002,33.203,31.738000000000003,-81.055,24.902,0.0,0
1581351681.686,21.973000000000006,35.645,-80.078,23.438,0.0,0
1581351681.69,15.625,15.137,-70.312,27.344,0.0,0
1581351681.694,19.531,6.348,-68.359,28.32,0.0,0
1581351681.698,21.484,18.555,-69.824,29.297,0.0,0
1581351681.702,17.09,18.555,-64.941,25.879,0.0,0
1581351681.706,13.184,25.879,-59.082,24.414,0.0,0
1581351681.709,19.043,32.227,-54.688,27.832,0.0,0
1581351681.7129998,28.809,18.066,-50.78100000000001,24.902,0.0,0
1581351681.717,31.25,18.555,-44.922,28.809,0.0,0
1581351681.721,24.902,31.738000000000003,-45.898,36.133,0.0,0
1581351681.725,19.043,31.25,-43.945,30.762,0.0,0
1581351681.7270002,23.926,25.391,-36.621,30.762,0.0,0
1581351681.731,35.645,25.391,-31.738000000000003,37.109,0.0,0
1581351681.735,30.762,30.273000000000003,-24.414,39.551,0.0,0
1581351681.7389998,16.602,24.902,-23.438,33.203,0.0,0
1581351681.7429998,20.02,18.555,-22.949,26.855,0.0,0
1581351681.7470002,25.879,17.09,-16.602,26.855,0.0,0
1581351681.7510002,21.973000000000006,23.438,-18.066,26.367,0.0,0
1581351681.754,19.531,25.391,-15.625,26.855,0.0,0
1581351681.758,19.531,20.996,-8.301,23.926,0.0,0
1581351681.762,20.508000000000006,15.625,-6.836,19.531,0.0,0
1581351681.766,19.531,8.789,-3.418,24.414,0.0,0
1581351681.77,16.113,17.09,2.93,29.297,0.0,0
1581351681.772,18.066,28.32,1.465,25.879,0.0,0
1581351681.776,27.344,25.879,2.441,28.32,0.0,0
1581351681.78,25.879,17.09,2.93,26.367,0.0,0
1581351681.784,17.09,15.137,0.977,21.484,0.0,0
1581351681.788,10.254,20.02,-1.465,21.973000000000006,0.0,0
1581351681.792,20.02,24.414,-6.836,19.531,0.0,0
1581351681.796,30.762,21.973000000000006,0.488,22.949,0.0,0
1581351681.799,15.625,18.066,10.254,19.531,0.0,0
1581351681.803,16.113,21.484,8.301,14.16,0.0,0
1581351681.8070002,21.973000000000006,20.996,4.883,16.602,0.0,0
1581351681.811,28.32,17.578,6.836,16.602,0.0,0
1581351681.815,31.25,20.02,7.324,11.719,0.0,0
1581351681.8170002,20.02,26.855,12.695,9.766,0.0,0
1581351681.821,19.531,19.043,17.578,12.207,0.0,0
1581351681.825,34.18,9.766,10.254,22.461,0.0,0
1581351681.829,35.645,14.16,8.789,23.438,0.0,0
1581351681.833,20.02,14.648,9.766,13.672,0.0,0
1581351681.837,20.02,22.461,10.254,21.973000000000006,0.0,0
1581351681.841,33.691,30.273000000000003,11.719,30.273000000000003,0.0,0
1581351681.844,37.598,32.227,5.859,28.809,0.0,0
1581351681.8479998,25.391,33.691,5.371,28.32,0.0,0
1581351681.8520002,11.23,18.066,9.277,23.438,0.0,0
1581351681.856,17.09,17.09,19.043,19.043,0.0,0
1581351681.86,25.391,22.461,20.02,21.973000000000006,0.0,0
1581351681.8620002,22.461,19.531,15.137,18.066,0.0,0
1581351681.8660002,14.16,21.484,13.184,9.766,0.0,0
1581351681.87,24.414,16.602,19.043,17.09,0.0,0
1581351681.8739998,31.25,24.414,22.461,13.672,0.0,0
1581351681.8779998,19.531,18.555,20.508000000000006,9.766,0.0,0
1581351681.8820002,12.207,5.859,20.508000000000006,20.02,0.0,0
1581351681.8860002,17.09,23.926,21.484,18.066,0.0,0
1581351681.889,20.996,32.227,20.02,6.348,0.0,0
1581351681.893,11.23,26.855,17.09,-0.488,0.0,0
1581351681.897,10.742,23.438,19.531,4.395,0.0,0
1581351681.901,17.578,23.438,14.648,13.672,0.0,0
1581351681.905,30.762,30.762,11.719,23.926,0.0,0
1581351681.9220002,40.527,40.527,22.949,35.156,0.0,0
1581351681.926,28.809,33.691,31.25,28.809,0.0,0
1581351681.93,18.066,14.648,30.273000000000003,20.02,0.0,0
1581351681.934,31.25,11.23,25.391,26.367,0.0,0
1581351681.938,33.691,5.859,25.879,23.926,0.0,0
1581351681.9420002,21.973000000000006,16.113,28.809,21.484,0.0,0
1581351681.946,18.555,19.043,22.461,20.02,0.0,0
1581351681.949,24.902,15.137,15.625,21.973000000000006,0.0,0
1581351681.9529998,34.18,23.926,22.949,31.738000000000003,0.0,0
1581351681.957,33.203,29.297,24.902,28.809,0.0,0
1581351681.961,22.461,34.668,22.949,31.25,0.0,0
1581351681.965,26.855,32.715,21.973000000000006,35.645,0.0,0
1581351681.967,43.945,30.273000000000003,23.438,31.738000000000003,0.0,0
1581351681.971,43.457,13.672,27.832,30.273000000000003,0.0,0
1581351681.975,32.715,4.395,28.809,28.32,0.0,0
1581351681.979,23.926,20.996,27.344,22.949,0.0,0
1581351681.9829998,26.855,24.902,21.484,22.949,0.0,0
1581351681.9870002,34.18,24.414,21.973000000000006,28.32,0.0,0
1581351681.9910002,27.344,34.18,32.227,31.25,0.0,0
1581351681.994,20.996,14.16,32.715,28.32,0.0,0
1581351681.998,31.25,13.672,31.738000000000003,27.832,0.0,0
1581351682.002,36.133,29.785,22.949,23.926,0.0,0
1581351682.006,28.32,24.414,20.996,20.02,0.0,0
1581351682.01,19.043,27.832,34.668,19.531,0.0,0
1581351682.012,22.949,25.879,38.574,20.508000000000006,0.0,0
1581351682.016,29.785,22.461,38.574,22.461,0.0,0
1581351682.02,26.855,25.391,30.762,21.484,0.0,0
1581351682.024,17.09,24.414,33.203,19.531,0.0,0
1581351682.028,15.137,19.531,40.039,20.02,0.0,0
1581351682.032,26.367,17.09,32.227,29.297,0.0,0
1581351682.036,23.438,16.602,26.367,30.762,0.0,0
1581351682.039,10.254,19.531,23.926,22.461,0.0,0
1581351682.043,11.23,32.227,25.391,26.855,0.0,0
1581351682.0470002,21.484,28.809,31.25,29.785,0.0,0
1581351682.051,23.438,10.742,25.879,28.809,0.0,0
1581351682.055,17.578,18.555,22.461,33.691,0.0,0
1581351682.0570002,16.602,25.391,25.879,33.203,0.0,0
1581351682.061,19.531,24.414,25.879,29.297,0.0,0
1581351682.065,22.461,27.344,29.785,32.227,0.0,0
1581351682.069,24.414,28.809,35.156,27.344,0.0,0
1581351682.073,14.648,29.297,35.645,16.113,0.0,0
1581351682.077,12.207,20.02,36.621,9.766,0.0,0
1581351682.081,16.113,16.113,36.133,9.766,0.0,0
1581351682.084,12.695,20.02,27.832,13.672,0.0,0
1581351682.0879998,9.766,14.648,27.832,11.719,0.0,0
1581351682.092,15.137,20.02,34.18,14.16,0.0,0
1581351682.096,25.391,21.973000000000006,29.785,28.809,0.0,0
1581351682.1,23.438,26.367,29.785,26.367,0.0,0
1581351682.1020002,10.742,35.156,31.25,18.555,0.0,0
1581351682.106,2.93,24.902,21.973000000000006,19.043,0.0,0
1581351682.11,12.695,22.461,20.996,22.461,0.0,0
1581351682.1139998,20.508000000000006,27.832,31.738000000000003,24.414,0.0,0
1581351682.1179998,12.207,27.344,31.738000000000003,24.414,0.0,0
1581351682.1220002,1.465,22.461,28.32,17.578,0.0,0
1581351682.1260002,12.207,24.902,26.855,15.137,0.0,0
1581351682.129,21.484,24.414,13.672,17.09,0.0,0
1581351682.133,17.09,20.02,11.719,17.09,0.0,0
1581351682.137,11.719,16.113,23.438,17.578,0.0,0
1581351682.141,17.578,10.254,28.809,17.578,0.0,0
1581351682.145,26.367,19.043,31.738000000000003,21.484,0.0,0
1581351682.147,20.508000000000006,26.855,26.855,15.625,0.0,0
1581351682.151,12.695,23.438,19.531,10.742,0.0,0
1581351682.155,12.207,14.648,20.508000000000006,14.16,0.0,0
1581351682.159,22.949,10.742,24.902,15.625,0.0,0
1581351682.163,24.414,26.855,27.832,12.695,0.0,0
1581351682.167,12.695,30.762,24.902,8.301,0.0,0
1581351682.171,9.277,35.156,17.578,7.324,0.0,0
1581351682.174,15.137,31.25,19.043,13.672,0.0,0
1581351682.178,23.438,23.438,26.855,12.695,0.0,0
1581351682.1820002,15.137,28.809,26.855,8.301,0.0,0
1581351682.186,5.859,26.367,23.926,7.812,0.0,0
1581351682.19,15.137,26.367,25.391,9.277,0.0,0
1581351682.191,21.973000000000006,26.367,30.273000000000003,16.113,0.0,0
1581351682.195,16.602,20.508000000000006,29.785,17.578,0.0,0
1581351682.199,14.648,21.484,25.391,20.996,0.0,0
1581351682.2029998,12.207,13.184,19.531,24.902,0.0,0
1581351682.207,16.113,16.113,14.16,20.02,0.0,0
1581351682.211,14.648,22.949,22.949,12.207,0.0,0
1581351682.215,0.0,17.09,29.785,10.254,0.0,0
1581351682.218,-3.906,20.996,23.926,5.859,0.0,0
1581351682.222,11.719,27.832,16.602,11.23,0.0,0
1581351682.226,19.043,20.02,10.742,16.602,0.0,0
1581351682.23,8.301,11.719,14.16,18.066,0.0,0
1581351682.234,3.418,19.043,20.02,12.207,0.0,0
1581351682.2510002,10.742,27.344,19.531,10.254,0.0,0
1581351682.255,24.414,26.855,18.066,19.531,0.0,0
1581351682.2589998,12.207,18.066,15.625,11.23,0.0,0
1581351682.2629998,-4.395,14.16,13.672,2.93,0.0,0
1581351682.2670002,14.648,12.207,15.137,10.254,0.0,0
1581351682.271,21.973000000000006,16.113,20.02,13.672,0.0,0
1581351682.275,11.719,23.926,21.484,9.277,0.0,0
1581351682.278,6.836,31.738000000000003,19.531,8.301,0.0,0
1581351682.282,17.578,36.133,18.555,19.531,0.0,0
1581351682.286,37.598,28.32,21.484,27.344,0.0,0
1581351682.29,29.297,12.207,20.02,26.367,0.0,0
1581351682.294,17.09,11.719,17.578,22.461,0.0,0
1581351682.281,19.531,26.855,11.23,18.066,0.0,0
1581351682.285,25.391,25.879,6.348,15.137,0.0,0
1581351682.289,26.855,17.578,9.766,19.531,0.0,0
1581351682.293,19.043,20.996,15.625,15.137,0.0,0
1581351682.2970002,18.066,22.949,23.438,7.324,0.0,0
1581351682.301,23.438,26.855,23.926,13.184,0.0,0
1581351682.305,27.832,21.484,22.949,15.625,0.0,0
1581351682.3079998,23.926,15.625,28.32,14.648,0.0,0
1581351682.312,13.672,25.391,29.297,13.184,0.0,0
1581351682.316,18.066,27.832,29.785,12.695,0.0,0
1581351682.32,35.156,29.785,31.738000000000003,19.531,0.0,0
1581351682.324,26.367,27.344,28.809,20.02,0.0,0
1581351682.341,13.672,22.949,22.461,16.602,0.0,0
1581351682.345,21.973000000000006,21.973000000000006,25.879,23.926,0.0,0
1581351682.349,29.297,16.113,23.926,21.973000000000006,0.0,0
1581351682.353,34.668,20.996,17.09,21.973000000000006,0.0,0
1581351682.357,27.832,14.16,19.043,25.879,0.0,2
1581351682.361,16.602,13.184,18.066,19.043,0.0,0
1581351682.365,22.949,27.832,23.926,20.508000000000006,0.0,0
1581351682.3679998,27.832,21.484,33.203,22.949,0.0,0
1581351682.3720002,19.531,17.578,32.715,19.043,0.0,0
1581351682.3760002,17.578,24.414,35.156,16.113,0.0,0
1581351682.38,22.461,27.344,27.832,15.625,0.0,0
1581351682.3839998,25.879,34.18,20.996,18.555,0.0,0
1581351682.3860002,20.508000000000006,35.645,25.391,16.113,0.0,0
1581351682.39,10.742,26.855,21.484,10.254,0.0,0
1581351682.394,15.137,13.672,22.949,16.113,0.0,0
1581351682.3979998,26.855,11.719,28.809,19.531,0.0,0
1581351682.4020002,26.367,25.879,25.391,20.02,0.0,0
1581351682.406,19.531,31.25,19.531,15.625,0.0,0
1581351682.41,19.531,21.484,18.555,14.16,0.0,0
1581351682.413,34.18,17.578,24.902,29.785,0.0,0
1581351682.417,36.621,13.672,25.879,25.879,0.0,0
1581351682.421,23.438,16.602,21.484,15.137,0.0,0
1581351682.425,16.602,19.531,19.043,13.672,0.0,0
1581351682.429,24.414,9.766,22.461,15.625,0.0,0
1581351682.431,37.109,12.207,32.715,26.855,0.0,0
1581351682.435,29.785,35.156,35.645,28.809,0.0,0
1581351682.439,22.949,33.203,31.25,27.832,0.0,0
1581351682.4429998,33.691,28.32,32.715,29.785,0.0,0
1581351682.447,38.574,24.414,30.762,29.785,0.0,0
1581351682.451,31.738000000000003,22.461,30.273000000000003,34.18,0.0,0
1581351682.455,22.461,32.227,19.531,29.297,0.0,0
1581351682.458,25.391,31.738000000000003,15.137,28.32,0.0,0
1581351682.462,36.133,26.367,29.785,28.809,0.0,0
1581351682.466,37.598,23.438,33.691,24.902,0.0,0
1581351682.47,35.645,27.832,30.762,30.762,0.0,0
1581351682.474,31.738000000000003,27.344,25.391,26.855,0.0,0
1581351682.476,32.715,20.508000000000006,23.926,20.02,0.0,0
1581351682.48,36.621,20.996,25.879,21.973000000000006,0.0,0
1581351682.484,28.809,15.137,25.391,19.531,0.0,0
1581351682.488,20.02,20.02,26.855,20.996,0.0,0
1581351682.492,22.461,27.344,25.391,22.949,0.0,0
1581351682.496,27.344,22.461,19.043,21.484,0.0,0
1581351682.5,25.879,22.461,18.555,20.996,0.0,0
1581351682.5029998,20.996,25.879,20.02,17.578,0.0,0
1581351682.5070002,30.273000000000003,20.508000000000006,27.832,21.973000000000006,0.0,0
1581351682.5110002,39.062,16.602,24.414,22.949,0.0,0
1581351682.515,32.227,22.461,15.137,17.578,0.0,0
1581351682.519,22.461,28.32,21.973000000000006,18.555,0.0,0
1581351682.521,19.531,27.832,26.855,16.602,0.0,0
1581351682.525,22.461,14.16,22.461,20.02,0.0,0
1581351682.529,20.02,16.113,20.02,25.879,0.0,0
1581351682.533,14.16,19.043,16.113,27.344,0.0,0
1581351682.5370002,20.996,20.02,11.23,24.902,0.0,0
1581351682.541,37.598,23.926,9.766,29.785,0.0,0
1581351682.545,41.504,30.273000000000003,8.301,41.01600000000001,0.0,0
1581351682.548,26.367,29.785,8.789,29.785,0.0,0
1581351682.552,18.066,24.414,8.789,21.973000000000006,0.0,0
1581351682.556,31.738000000000003,32.715,9.277,30.273000000000003,0.0,0
1581351682.56,40.039,28.32,16.113,29.785,0.0,0
1581351682.564,27.832,19.043,23.438,25.391,0.0,0
1581351682.5670002,20.508000000000006,24.414,12.695,25.391,0.0,0
1581351682.571,28.32,20.996,15.625,32.715,0.0,0
1581351682.575,33.203,6.836,31.738000000000003,31.738000000000003,0.0,0
1581351682.579,28.809,15.625,30.273000000000003,23.438,0.0,0
1581351682.583,20.996,20.508000000000006,21.973000000000006,18.555,0.0,0
1581351682.587,20.508000000000006,7.324,18.066,18.555,0.0,0
1581351682.591,28.809,12.695,19.043,20.508000000000006,0.0,0
1581351682.594,27.344,27.832,18.555,8.789,0.0,0
1581351682.5979998,20.996,38.574,14.16,12.695,0.0,0
1581351682.6020002,23.926,40.039,19.043,21.973000000000006,0.0,0
1581351682.606,28.809,35.156,22.949,19.043,0.0,0
1581351682.61,26.367,26.367,19.043,20.02,0.0,0
1581351682.6120002,19.531,14.16,18.555,18.555,0.0,0
1581351682.6160002,17.09,20.996,28.32,16.602,0.0,0
1581351682.62,21.973000000000006,25.879,37.598,19.531,0.0,0
1581351682.6239998,21.484,28.32,24.902,19.531,0.0,0
1581351682.6279998,15.625,40.039,19.531,19.043,0.0,0
1581351682.6320002,12.207,37.109,25.391,16.602,0.0,0
1581351682.6360002,17.09,27.344,29.297,15.625,0.0,0
1581351682.639,25.879,24.902,33.203,18.555,0.0,0
1581351682.643,23.438,19.531,36.133,20.996,0.0,0
1581351682.647,10.254,19.043,32.227,18.066,0.0,0
1581351682.651,10.742,22.949,27.832,12.695,0.0,0
1581351682.655,23.926,23.438,27.344,15.625,0.0,0
1581351682.657,25.879,16.602,23.926,15.625,0.0,0
1581351682.661,18.066,16.602,32.715,15.137,0.0,0
1581351682.665,16.602,21.484,40.039,17.578,0.0,0
1581351682.669,28.32,10.254,27.344,16.602,0.0,0
1581351682.673,37.109,11.23,19.043,20.996,0.0,0
1581351682.677,24.414,16.113,16.602,21.484,0.0,0
1581351682.681,14.16,20.996,23.926,17.578,0.0,0
1581351682.684,18.555,31.738000000000003,32.715,22.461,0.0,0
1581351682.688,27.344,29.785,22.949,27.344,0.0,0
1581351682.6920002,20.508000000000006,25.879,20.02,26.367,0.0,0
1581351682.696,12.207,22.949,30.273000000000003,25.391,0.0,0
1581351682.7,22.461,15.137,30.762,28.32,0.0,0
1581351682.717,25.879,18.555,22.949,26.855,0.0,0
1581351682.721,21.484,33.203,21.484,20.996,0.0,0
1581351682.725,13.184,30.273000000000003,19.531,17.578,0.0,0
1581351682.729,13.672,22.461,25.391,20.508000000000006,0.0,0
1581351682.7329998,25.391,24.902,31.738000000000003,31.738000000000003,0.0,0
1581351682.7370002,27.344,20.02,32.715,33.691,0.0,0
1581351682.7410002,17.09,17.578,33.203,24.414,0.0,0
1581351682.744,15.137,22.949,31.738000000000003,25.391,0.0,0
1581351682.748,27.344,20.996,33.203,32.715,0.0,0
1581351682.752,30.273000000000003,18.066,39.551,31.25,0.0,0
1581351682.756,14.16,20.508000000000006,30.273000000000003,21.973000000000006,0.0,0
1581351682.76,6.836,24.414,18.066,20.508000000000006,0.0,0
1581351682.7629998,20.996,24.902,26.367,27.344,0.0,0
1581351682.7670002,33.691,22.461,32.227,28.32,0.0,0
1581351682.771,27.832,29.785,33.691,26.367,0.0,0
1581351682.775,16.113,30.273000000000003,29.297,24.414,0.0,0
1581351682.779,17.09,16.602,18.555,20.996,0.0,0
1581351682.783,24.902,16.602,25.391,20.02,0.0,0
1581351682.7870002,25.879,24.902,31.25,20.996,0.0,0
1581351682.79,20.996,20.996,36.621,23.926,0.0,0
1581351682.794,20.02,13.184,38.086,20.02,0.0,0
1581351682.798,26.855,13.184,34.668,19.043,0.0,0
1581351682.802,31.25,22.949,33.203,24.902,0.0,0
1581351682.806,24.414,24.902,25.879,24.902,0.0,0
1581351682.8070002,19.043,21.484,21.973000000000006,19.043,0.0,0
1581351682.811,20.508000000000006,29.297,20.508000000000006,17.578,0.0,0
1581351682.815,20.996,40.527,32.227,19.531,0.0,0
1581351682.819,13.184,33.691,38.086,14.648,0.0,0
1581351682.823,-0.488,14.648,27.344,4.395,0.0,0
1581351682.827,8.301,15.625,21.973000000000006,4.883,0.0,0
1581351682.831,23.926,21.973000000000006,25.879,12.207,0.0,0
1581351682.834,17.09,15.625,29.785,6.836,0.0,0
1581351682.8379998,8.301,14.648,28.32,-0.488,0.0,0
1581351682.842,8.789,16.113,26.855,0.977,0.0,0
1581351682.846,19.531,9.277,26.855,4.883,0.0,0
1581351682.85,26.367,16.602,25.879,10.254,0.0,0
1581351682.8520002,16.602,29.785,24.902,11.23,0.0,0
1581351682.856,15.625,29.785,26.855,13.184,0.0,0
1581351682.86,29.785,30.273000000000003,23.926,25.879,0.0,0
1581351682.8639998,41.504,23.926,23.926,28.809,0.0,0
1581351682.8679998,33.203,11.719,26.855,26.855,0.0,0
1581351682.8720002,25.391,22.949,21.973000000000006,32.227,0.0,0
1581351682.8760002,31.25,24.902,20.02,38.086,0.0,0
1581351682.879,33.691,18.555,23.926,35.645,0.0,0
1581351682.883,24.902,24.902,28.32,29.785,0.0,0
1581351682.887,17.09,27.344,30.273000000000003,26.367,0.0,0
1581351682.891,19.043,27.832,28.809,24.414,0.0,0
1581351682.895,30.273000000000003,22.949,25.391,25.391,0.0,0
1581351682.897,29.297,26.855,22.461,29.297,0.0,0
1581351682.901,15.625,31.25,30.273000000000003,28.32,0.0,0
1581351682.905,14.16,28.32,34.18,20.996,0.0,0
1581351682.909,28.809,31.738000000000003,31.25,17.578,0.0,0
1581351682.913,32.715,29.785,23.926,17.578,0.0,0
1581351682.917,12.695,19.043,9.277,13.672,0.0,0
1581351682.921,8.789,24.414,11.719,12.695,0.0,0
1581351682.924,14.16,34.18,22.461,12.695,0.0,0
1581351682.928,20.996,29.785,31.25,12.207,0.0,0
1581351682.9320002,20.508000000000006,24.414,32.715,16.113,0.0,0
1581351682.936,14.16,16.113,31.25,18.066,0.0,0
1581351682.94,23.438,17.09,28.809,19.531,0.0,0
1581351682.9420002,41.504,30.273000000000003,24.414,28.32,0.0,0
1581351682.946,27.344,36.133,20.996,25.391,0.0,0
1581351682.95,1.465,23.926,14.16,16.602,0.0,0
1581351682.954,16.602,25.879,14.648,23.438,0.0,0
1581351682.958,32.227,22.949,19.531,27.832,0.0,0
1581351682.962,22.461,15.625,23.926,23.926,0.0,0
1581351682.966,18.066,32.227,28.809,22.949,0.0,0
1581351682.969,22.461,37.109,28.32,20.508000000000006,0.0,0
1581351682.9729998,27.832,39.062,23.438,20.996,0.0,0
1581351682.9770002,31.25,36.621,17.578,25.391,0.0,0
1581351682.981,23.926,27.344,18.555,21.973000000000006,0.0,0
1581351682.985,16.113,27.344,25.879,19.531,0.0,0
1581351682.9870002,22.461,19.043,30.762,21.973000000000006,0.0,0
1581351682.9910002,25.391,17.09,29.785,19.531,0.0,0
1581351682.995,16.113,25.879,27.832,18.555,0.0,0
1581351682.9989998,11.23,26.855,36.133,12.207,0.0,0
1581351683.0029998,20.508000000000006,33.203,39.062,13.672,0.0,0
1581351683.0070002,21.973000000000006,27.832,22.461,17.09,0.0,0
1581351683.0110002,14.648,21.973000000000006,12.207,6.836,0.0,0
1581351683.014,10.254,25.879,20.02,6.348,0.0,0
1581351683.018,19.531,23.926,29.785,12.695,0.0,0
1581351683.022,26.855,20.996,31.738000000000003,11.719,0.0,0
1581351683.026,22.461,16.602,26.367,11.719,0.0,0
1581351683.03,19.043,4.395,24.902,6.348,0.0,0
1581351683.032,11.23,6.836,20.996,5.859,0.0,0
1581351683.036,18.555,25.879,16.113,15.625,0.0,0
1581351683.04,21.484,34.18,18.066,21.484,0.0,0
1581351683.044,10.742,29.785,14.648,15.625,0.0,0
1581351683.048,4.395,33.203,18.555,7.324,0.0,0
1581351683.052,13.184,31.25,27.344,16.113,0.0,0
1581351683.056,16.113,22.949,29.297,20.02,0.0,0
1581351683.059,1.953,28.809,33.203,16.113,0.0,0
1581351683.063,-1.465,29.785,28.32,18.066,0.0,0
1581351683.0670002,12.695,13.672,26.367,23.438,0.0,0
1581351683.071,30.762,12.207,31.738000000000003,29.785,0.0,0
1581351683.075,26.855,26.855,29.785,21.484,0.0,0
1581351683.092,15.625,28.32,27.832,18.555,0.0,0
1581351683.096,17.09,29.785,22.461,24.414,0.0,0
1581351683.1,28.32,23.926,18.555,29.297,0.0,0
1581351683.104,29.297,26.855,25.879,30.762,0.0,0
1581351683.1079998,13.184,30.762,20.02,19.531,0.0,0
1581351683.1120002,6.348,19.043,16.113,10.742,0.0,0
1581351683.1160002,19.043,24.902,32.715,16.113,0.0,0
1581351683.119,24.902,22.461,35.156,17.578,0.0,0
1581351683.123,14.648,17.09,28.809,19.531,0.0,0
1581351683.127,9.766,25.391,27.832,18.066,0.0,0
1581351683.131,19.043,28.32,25.879,18.066,0.0,0
1581351683.135,19.531,20.996,26.367,18.555,0.0,0
1581351683.137,16.113,20.02,26.855,15.137,0.0,0
1581351683.141,12.207,19.531,21.484,19.043,0.0,0
1581351683.145,11.23,14.648,17.578,13.184,0.0,0
1581351683.149,21.484,20.508000000000006,24.902,11.23,0.0,0
1581351683.153,24.414,22.461,22.461,16.602,0.0,0
1581351683.157,8.301,18.066,13.672,8.301,0.0,0
1581351683.161,4.883,24.902,23.926,7.324,0.0,0
1581351683.164,19.043,29.297,36.133,10.254,0.0,0
1581351683.168,12.695,19.531,32.715,9.766,0.0,0
1581351683.1720002,4.395,21.973000000000006,28.809,12.695,0.0,0
1581351683.176,12.695,35.156,33.203,17.578,0.0,0
1581351683.18,19.043,31.25,27.832,20.508000000000006,0.0,0
1581351683.1820002,22.461,22.461,22.949,17.578,0.0,0
1581351683.186,18.066,25.879,22.461,16.113,0.0,0
1581351683.19,17.578,31.25,27.344,24.902,0.0,0
1581351683.194,24.414,29.785,26.367,28.809,0.0,0
1581351683.198,21.484,22.949,23.926,21.973000000000006,0.0,0
1581351683.202,12.695,15.137,30.762,13.672,0.0,0
1581351683.206,6.348,12.207,31.25,12.207,0.0,0
1581351683.209,8.301,15.137,28.32,11.719,0.0,0
1581351683.2129998,13.672,28.32,32.715,7.324,0.0,0
1581351683.217,11.719,32.715,36.621,5.859,0.0,0
1581351683.221,-0.488,31.738000000000003,31.738000000000003,6.348,0.0,0
1581351683.225,-0.977,29.297,32.227,8.301,0.0,0
1581351683.2270002,11.719,22.461,34.18,14.16,0.0,0
1581351683.231,13.184,22.949,33.691,14.16,0.0,0
1581351683.235,-0.488,26.855,34.18,11.23,0.0,0
1581351683.2389998,-5.859,23.438,28.809,8.301,0.0,0
1581351683.2429998,4.883,15.625,20.02,10.742,0.0,0
1581351683.2470002,11.719,25.391,29.297,19.531,0.0,0
1581351683.2510002,1.953,32.227,34.668,15.137,0.0,0
1581351683.254,-5.859,27.344,24.902,8.301,0.0,0
1581351683.258,5.371,28.809,24.902,2.441,0.0,0
1581351683.262,13.672,30.273000000000003,27.344,7.812,0.0,0
1581351683.266,8.301,28.32,30.273000000000003,16.602,0.0,0
1581351683.27,1.465,27.832,34.18,10.254,0.0,0
1581351683.271,4.395,25.879,36.133,11.719,0.0,0
1581351683.275,17.09,15.137,35.156,17.578,0.0,0
1581351683.279,19.043,10.742,25.391,13.672,0.0,0
1581351683.283,7.812,25.391,12.695,9.766,0.0,0
1581351683.2870002,6.836,31.25,14.16,2.441,0.0,0
1581351683.291,20.02,30.762,27.832,3.418,0.0,0
1581351683.295,26.855,29.785,37.109,11.23,0.0,0
1581351683.298,20.02,8.789,31.738000000000003,7.324,0.0,0
1581351683.302,12.695,0.488,14.648,5.859,0.0,0
1581351683.306,21.973000000000006,15.137,12.207,9.766,0.0,0
1581351683.31,29.785,25.879,26.367,12.207,0.0,0
1581351683.314,23.926,27.832,30.273000000000003,9.766,0.0,0
1581351683.316,16.602,22.949,29.785,7.324,0.0,0
1581351683.32,22.461,24.902,34.668,11.719,0.0,0
1581351683.324,31.738000000000003,20.02,33.691,12.695,0.0,0
1581351683.3279998,25.391,16.113,30.762,11.719,0.0,0
1581351683.332,12.695,20.02,35.645,7.812,0.0,0
1581351683.336,13.184,15.625,30.762,9.277,0.0,0
1581351683.34,25.391,19.531,24.902,17.09,0.0,0
1581351683.343,26.855,23.926,35.156,19.043,0.0,0
1581351683.347,19.043,20.996,35.156,15.137,0.0,0
1581351683.351,21.484,11.719,30.273000000000003,14.648,0.0,0
1581351683.355,35.645,15.625,28.32,21.484,0.0,0
1581351683.359,44.434,32.227,22.461,26.855,0.0,0
1581351683.361,30.273000000000003,40.527,19.531,22.461,0.0,0
1581351683.365,20.996,37.598,20.02,17.578,0.0,0
1581351683.369,29.785,30.273000000000003,26.855,20.02,0.0,0
1581351683.373,35.645,25.879,30.273000000000003,23.438,0.0,0
1581351683.377,28.32,25.879,33.691,19.043,0.0,0
1581351683.381,14.648,19.043,33.691,9.277,0.0,0
1581351683.385,11.719,17.09,27.832,5.371,0.0,0
1581351683.3879998,21.973000000000006,13.672,31.738000000000003,7.812,0.0,0
1581351683.3920002,21.973000000000006,5.371,31.25,16.113,0.0,0
1581351683.396,11.23,4.883,21.484,12.695,0.0,0
1581351683.4,18.066,11.719,27.832,12.207,0.0,0
1581351683.404,35.645,27.344,31.738000000000003,22.949,0.0,0
1581351683.406,36.621,37.598,31.25,24.902,0.0,0
1581351683.41,27.832,20.996,27.344,23.926,0.0,0
1581351683.414,31.25,13.672,24.414,26.855,0.0,0
1581351683.418,40.527,9.766,26.367,21.973000000000006,0.0,0
1581351683.4220002,39.551,15.137,27.832,23.926,0.0,0
1581351683.426,24.414,34.18,36.133,23.438,0.0,0
1581351683.43,18.066,22.949,43.457,17.09,0.0,0
1581351683.4329998,26.367,16.602,39.062,20.02,0.0,0
1581351683.437,28.32,22.461,26.367,16.113,0.0,0
1581351683.441,20.02,14.16,31.738000000000003,12.695,0.0,0
1581351683.445,8.789,13.672,35.645,8.789,0.0,0
1581351683.449,13.184,23.926,25.879,3.906,0.0,0
1581351683.466,24.902,28.32,25.879,10.254,0.0,0
1581351683.47,25.879,31.25,34.668,19.531,0.0,1
1581351683.474,20.02,23.438,34.668,23.438,0.0,0
1581351683.478,20.996,18.555,31.738000000000003,25.391,0.0,0
1581351683.482,29.785,18.555,30.762,26.855,0.0,0
1581351683.486,29.297,17.09,30.273000000000003,25.391,0.0,0
1581351683.49,20.996,16.602,32.227,21.973000000000006,0.0,0
1581351683.4929998,17.09,17.09,30.273000000000003,21.973000000000006,0.0,0
1581351683.4970002,19.043,19.531,29.785,19.531,0.0,0
1581351683.5010002,20.02,20.508000000000006,28.32,17.578,0.0,0
1581351683.505,15.625,22.949,30.762,16.602,0.0,0
1581351683.5089998,6.348,23.926,23.438,13.184,0.0,0
1581351683.5110002,9.277,28.32,24.414,15.137,0.0,0
1581351683.515,20.02,24.902,34.668,14.648,0.0,0
1581351683.519,19.043,18.555,33.691,11.23,0.0,0
1581351683.5229998,11.23,13.184,22.949,12.695,0.0,0
1581351683.5270002,14.648,-0.488,19.531,17.578,0.0,0
1581351683.531,32.227,2.93,25.391,25.879,0.0,0
1581351683.535,32.715,21.973000000000006,24.902,27.344,0.0,0
1581351683.538,21.484,34.18,28.809,23.926,0.0,0
1581351683.542,22.949,35.645,25.391,26.855,0.0,0
1581351683.546,35.156,38.574,18.066,24.414,0.0,0
1581351683.55,37.109,40.527,21.973000000000006,20.508000000000006,0.0,0
1581351683.554,27.344,32.715,29.785,19.531,0.0,0
1581351683.556,23.926,24.414,30.762,23.438,0.0,0
1581351683.56,28.809,20.996,30.273000000000003,20.996,0.0,0
1581351683.564,29.785,20.02,27.344,15.625,0.0,0
1581351683.5679998,20.02,18.555,17.578,12.207,0.0,0
1581351683.572,16.602,24.902,16.113,14.648,0.0,0
1581351683.576,22.461,20.996,23.438,18.066,0.0,0
1581351683.58,21.973000000000006,21.484,20.996,12.207,0.0,0
1581351683.583,16.602,27.832,15.137,10.254,0.0,0
1581351683.587,6.836,23.926,20.02,2.441,0.0,0
1581351683.591,7.324,25.391,31.25,5.859,0.0,0
1581351683.595,22.461,21.484,37.109,23.438,0.0,0
1581351683.599,26.855,21.484,36.133,29.297,0.0,0
1581351683.601,20.02,17.09,32.227,29.785,0.0,0
1581351683.605,16.113,14.648,28.809,26.367,0.0,0
1581351683.609,25.391,26.855,30.762,23.438,0.0,0
1581351683.613,34.18,10.742,25.879,24.414,0.0,0
1581351683.617,27.344,-8.789,24.414,25.391,0.0,0
1581351683.621,27.344,17.578,35.645,26.367,0.0,0
1581351683.625,38.574,38.086,31.738000000000003,28.32,0.0,0
1581351683.6279998,39.551,32.227,20.996,29.297,0.0,0
1581351683.6320002,36.621,29.785,22.461,26.367,0.0,0
1581351683.6360002,34.18,29.785,30.762,29.785,0.0,0
1581351683.64,38.086,31.738000000000003,37.109,39.062,0.0,0
1581351683.644,40.527,31.738000000000003,34.18,34.18,0.0,0
1581351683.647,29.297,25.879,21.484,21.484,0.0,0
1581351683.651,20.508000000000006,14.648,19.531,22.949,0.0,0
1581351683.655,24.902,6.836,25.391,27.344,0.0,0
1581351683.659,37.598,21.484,22.949,21.973000000000006,0.0,0
1581351683.663,42.969,29.785,20.508000000000006,18.555,0.0,0
1581351683.667,37.109,30.273000000000003,25.879,18.066,0.0,0
1581351683.671,35.156,33.203,33.691,19.531,0.0,0
1581351683.674,45.898,24.902,34.668,19.531,0.0,0
1581351683.678,49.316,14.648,31.738000000000003,21.484,0.0,0
1581351683.6820002,38.574,12.207,24.902,25.391,0.0,0
1581351683.686,28.809,25.879,22.461,20.508000000000006,0.0,0
1581351683.69,28.32,27.344,27.832,21.484,0.0,0
1581351683.6920002,32.715,19.531,27.832,25.391,0.0,0
1581351683.696,23.926,19.043,30.762,27.832,0.0,0
1581351683.7,12.695,28.32,38.086,27.832,0.0,0
1581351683.704,13.184,28.809,31.25,20.02,0.0,0
1581351683.708,17.09,30.273000000000003,23.438,20.02,0.0,0
1581351683.712,20.996,39.062,24.902,22.949,0.0,0
1581351683.716,22.461,26.855,24.414,26.367,0.0,0
1581351683.719,19.043,18.066,21.973000000000006,24.414,0.0,0
1581351683.7229998,24.902,19.043,29.297,23.438,0.0,0
1581351683.7270002,30.762,24.414,32.227,28.32,0.0,0
1581351683.731,22.949,21.973000000000006,32.227,29.785,0.0,0
1581351683.735,19.043,17.09,25.879,30.762,0.0,0
1581351683.7370002,27.344,24.414,20.02,31.25,0.0,0
1581351683.7410002,34.668,19.043,25.879,31.738000000000003,0.0,0
1581351683.745,23.926,6.348,26.855,28.32,0.0,0
1581351683.7489998,14.648,15.137,34.668,20.02,0.0,0
1581351683.7529998,27.832,28.809,44.434,25.391,0.0,0
1581351683.7570002,37.598,38.574,40.039,27.832,0.0,0
1581351683.7610002,25.391,33.203,30.273000000000003,15.625,0.0,0
1581351683.764,17.09,27.832,32.227,16.602,0.0,0
1581351683.768,20.996,27.344,30.762,23.926,0.0,0
1581351683.772,23.926,19.531,19.531,23.926,0.0,0
1581351683.776,22.949,20.02,20.996,21.484,0.0,0
1581351683.78,18.555,15.137,26.855,19.043,0.0,0
1581351683.782,21.484,7.812,25.879,24.902,0.0,0
1581351683.786,33.203,5.859,21.484,26.855,0.0,0
1581351683.79,28.32,15.137,23.438,22.949,0.0,0
1581351683.794,14.16,32.715,27.344,15.625,0.0,0
1581351683.798,11.23,27.344,30.762,13.672,0.0,0
1581351683.802,19.043,21.484,39.551,22.949,0.0,0
1581351683.806,24.414,37.598,41.01600000000001,20.996,0.0,0
1581351683.809,18.555,30.273000000000003,33.691,19.043,0.0,0
1581351683.813,8.789,11.23,25.391,17.578,0.0,0
1581351683.8170002,6.836,21.973000000000006,21.973000000000006,14.16,0.0,0
1581351683.821,14.648,28.809,21.973000000000006,18.066,0.0,0
1581351683.825,19.531,18.555,23.926,15.137,0.0,0
1581351683.842,17.09,10.254,25.879,11.719,0.0,0
1581351683.846,19.531,8.789,23.926,13.672,0.0,0
1581351683.85,30.762,13.672,20.02,16.113,0.0,0
1581351683.854,33.203,24.902,22.949,18.066,0.0,0
1581351683.8579998,26.367,38.086,35.645,20.996,0.0,0
1581351683.8620002,21.973000000000006,34.18,35.645,18.066,0.0,0
1581351683.8660002,26.367,24.414,27.832,13.184,0.0,0
1581351683.869,33.203,30.762,24.902,18.555,0.0,0
1581351683.873,28.32,30.762,26.855,22.461,0.0,0
1581351683.877,22.949,23.926,28.809,23.926,0.0,0
1581351683.881,27.832,19.531,24.902,31.738000000000003,0.0,0
1581351683.885,31.738000000000003,9.766,29.297,30.273000000000003,0.0,0
1581351683.887,25.879,11.23,28.32,24.902,0.0,0
1581351683.891,20.508000000000006,13.672,24.414,29.297,0.0,0
1581351683.895,27.832,9.277,34.668,30.762,0.0,0
1581351683.899,35.156,10.742,31.25,29.785,0.0,0
1581351683.903,26.367,23.926,24.414,21.484,0.0,0
1581351683.907,14.648,27.832,24.414,19.531,0.0,0
1581351683.911,18.555,28.32,16.113,21.973000000000006,0.0,0
1581351683.914,29.297,27.344,14.16,16.602,0.0,0
1581351683.918,29.297,28.809,27.832,18.066,0.0,0
1581351683.9220002,15.625,24.902,34.18,10.742,0.0,0
1581351683.926,12.207,20.508000000000006,32.715,10.742,0.0,0
1581351683.93,17.09,21.973000000000006,33.203,14.16,0.0,0
1581351683.9320002,20.996,17.578,26.367,10.742,0.0,0
1581351683.936,17.09,21.973000000000006,23.438,13.184,0.0,0
1581351683.94,10.254,25.391,27.832,13.184,0.0,0
1581351683.944,16.113,21.973000000000006,30.762,13.672,0.0,0
1581351683.948,29.297,23.926,32.227,19.531,0.0,0
1581351683.952,29.785,27.832,30.762,18.555,0.0,0
1581351683.956,24.414,27.344,30.273000000000003,20.02,0.0,0
1581351683.959,27.832,19.043,20.508000000000006,26.367,0.0,0
1581351683.9629998,35.645,21.973000000000006,19.043,27.344,0.0,0
1581351683.967,33.691,36.133,31.25,26.855,0.0,0
1581351683.971,22.461,27.344,40.527,29.785,0.0,0
1581351683.975,17.09,8.301,30.273000000000003,30.762,0.0,0
1581351683.9770002,26.855,17.578,22.461,33.691,0.0,0
1581351683.981,28.32,28.32,35.645,29.785,0.0,0
1581351683.985,20.02,24.414,40.527,27.832,0.0,0
1581351683.9889998,20.508000000000006,31.738000000000003,32.715,26.855,0.0,0
1581351683.9929998,24.414,33.691,24.902,23.438,0.0,0
1581351683.9970002,20.02,31.25,22.949,19.043,0.0,0
1581351684.0010002,17.09,33.691,24.414,20.996,0.0,0
1581351684.004,12.207,33.203,30.762,16.602,0.0,0
1581351684.008,11.23,28.32,32.227,8.301,0.0,0
1581351684.012,21.484,26.855,32.227,15.625,0.0,0
1581351684.016,23.926,23.438,30.273000000000003,13.672,0.0,0
1581351684.02,19.531,22.461,27.344,6.836,0.0,0
1581351684.022,17.09,27.344,27.344,10.742,0.0,0
1581351684.026,30.762,27.832,30.273000000000003,18.066,0.0,0
1581351684.03,28.809,21.484,29.297,7.812,0.0,0
1581351684.034,8.789,22.949,25.879,-9.766,0.0,0
1581351684.038,9.766,20.996,27.344,-2.93,0.0,0
1581351684.042,21.484,19.531,31.738000000000003,6.836,0.0,0
1581351684.046,13.184,24.902,32.227,-5.371,0.0,0
1581351684.049,-11.719,26.855,30.273000000000003,-19.531,0.0,0
1581351684.053,-21.973000000000006,24.414,29.785,-20.508000000000006,0.0,0
1581351684.0570002,-15.625,20.996,34.18,-24.902,0.0,0
1581351684.061,-22.949,21.973000000000006,35.156,-31.25,0.0,0
1581351684.065,-47.363,24.414,33.203,-42.48,0.0,0
1581351684.0670002,-61.035,31.25,37.598,-58.105,0.0,0
1581351684.071,-70.801,20.508000000000006,33.691,-72.75399999999998,0.0,0
1581351684.075,-74.707,1.465,31.738000000000003,-80.078,0.0,0
1581351684.079,-87.891,10.254,36.621,-88.867,0.0,0
1581351684.083,-102.051,32.227,28.809,-101.562,0.0,0
1581351684.087,-94.238,39.062,30.762,-95.215,0.0,0
1581351684.091,-89.844,36.621,47.852,-90.82,0.0,0
1581351684.094,-93.75,40.039,54.688,-102.051,0.0,0
1581351684.0979998,-91.309,39.551,51.758,-99.121,0.0,0
1581351684.1020002,-83.008,34.668,45.898,-84.961,0.0,0
1581351684.106,-71.289,32.715,43.457,-83.984,0.0,0
1581351684.11,-67.383,23.926,40.527,-80.078,0.0,0
1581351684.1120002,-73.242,15.137,34.668,-73.73,0.0,0
1581351684.1160002,-71.289,16.602,31.738000000000003,-64.941,0.0,0
1581351684.12,-53.71100000000001,30.762,38.086,-52.246,0.0,0
1581351684.1239998,-38.574,39.551,37.109,-41.01600000000001,0.0,0
1581351684.1279998,-50.78100000000001,18.066,27.344,-48.34,0.0,0
1581351684.1320002,-51.27,5.371,24.902,-44.434,0.0,0
1581351684.1360002,-27.344,9.277,27.832,-21.973000000000006,0.0,0
1581351684.139,-3.906,26.855,29.297,-8.301,0.0,0
1581351684.143,0.488,47.852,27.832,4.395,0.0,0
1581351684.147,-6.836,42.48,22.949,2.441,0.0,0
1581351684.151,3.906,34.668,27.832,14.16,0.0,0
1581351684.155,23.926,28.809,31.738000000000003,22.949,0.0,0
1581351684.157,28.32,22.949,26.367,26.367,0.0,0
1581351684.161,21.484,18.066,24.414,32.715,0.0,0
1581351684.165,26.367,18.066,24.414,32.715,0.0,0
1581351684.169,45.898,12.207,26.855,42.48,0.0,0
1581351684.173,58.105,20.996,28.809,49.805,0.0,0
1581351684.177,47.852,29.297,22.949,44.434,0.0,0
1581351684.181,44.434,25.879,23.926,47.852,0.0,0
1581351684.184,57.617,34.668,29.297,60.059,0.0,0
1581351684.188,63.477,26.855,29.785,63.965,0.0,0
1581351684.1920002,56.64100000000001,5.371,26.367,61.523,0.0,0
1581351684.196,50.78100000000001,3.418,18.066,61.523,0.0,0
1581351684.2,51.758,16.113,20.02,59.082,0.0,0
1581351684.217,62.012,23.438,24.414,62.988,0.0,0
1581351684.221,64.453,14.648,26.367,70.801,0.0,0
1581351684.225,51.27,19.043,24.414,63.477,0.0,0
1581351684.229,49.316,25.879,16.113,61.035,0.0,0
1581351684.2329998,59.57,21.484,17.578,65.43,0.0,0
1581351684.2370002,65.43,17.578,28.32,67.383,0.0,0
1581351684.2410002,56.64100000000001,13.672,26.855,66.895,0.0,0
1581351684.244,50.293,8.301,19.531,64.941,0.0,0
1581351684.248,66.406,8.301,19.043,69.824,0.0,0
1581351684.252,71.777,7.812,21.484,64.941,0.0,0
1581351684.256,61.035,4.883,25.879,55.664,0.0,0
1581351684.26,58.105,-3.906,25.391,60.059,0.0,0
1581351684.262,63.965,-5.371,23.926,63.477,0.0,0
1581351684.266,68.359,26.367,23.438,63.477,0.0,0
1581351684.27,62.988,43.945,22.461,55.176,0.0,0
1581351684.274,57.129,40.039,16.113,47.852,0.0,0
1581351684.278,62.012,28.32,10.254,51.758,0.0,0
1581351684.282,73.242,22.461,13.672,52.246,0.0,0
1581351684.286,64.941,14.648,20.996,49.316,0.0,0
1581351684.289,49.805,9.277,21.484,45.41,0.0,0
1581351684.293,54.199,20.508000000000006,22.949,46.875,0.0,0
1581351684.2970002,65.918,25.391,27.344,50.78100000000001,0.0,0
1581351684.301,63.477,9.277,20.02,45.898,0.0,0
1581351684.305,51.27,-4.883,17.578,45.898,0.0,0
1581351684.3070002,48.828,9.766,23.926,46.875,0.0,0
1581351684.311,54.688,20.996,28.809,44.434,0.0,0
1581351684.315,60.059,20.508000000000006,25.879,47.363,0.0,0
1581351684.319,55.664,20.02,22.949,49.805,0.0,0
1581351684.323,44.922,23.926,20.996,40.527,0.0,0
1581351684.327,47.852,22.949,21.484,38.574,0.0,0
1581351684.331,50.78100000000001,12.695,22.949,37.109,0.0,0
1581351684.334,41.992,13.184,21.973000000000006,38.086,0.0,0
1581351684.3379998,36.133,17.09,21.484,37.109,0.0,0
1581351684.342,41.504,0.0,25.879,35.156,0.0,0
1581351684.346,46.387,2.441,35.645,41.01600000000001,0.0,0
1581351684.35,41.504,22.461,37.598,37.598,0.0,0
1581351684.3520002,39.062,38.086,34.668,36.133,0.0,0
1581351684.356,40.039,36.621,32.227,35.645,0.0,0
1581351684.36,50.293,28.32,32.227,39.062,0.0,0
1581351684.3639998,53.71100000000001,26.855,28.32,41.992,0.0,0
1581351684.3679998,43.457,19.043,24.902,34.18,0.0,0
1581351684.3720002,42.969,18.555,30.273000000000003,30.273000000000003,0.0,0
1581351684.3760002,45.898,13.184,32.715,30.762,0.0,0
1581351684.379,41.992,6.836,28.809,26.855,0.0,0
1581351684.383,34.668,7.812,22.461,19.531,0.0,0
1581351684.387,21.484,14.16,26.855,16.602,0.0,0
1581351684.391,19.043,25.879,35.156,17.578,0.0,0
1581351684.395,31.25,18.066,37.598,19.531,0.0,0
1581351684.397,32.715,22.461,36.133,25.391,0.0,0
1581351684.401,25.391,43.457,32.227,25.879,0.0,0
1581351684.405,31.738000000000003,37.598,30.762,25.879,0.0,0
1581351684.409,44.922,30.273000000000003,29.297,37.598,0.0,0
1581351684.413,39.062,18.066,25.391,34.668,0.0,0
1581351684.417,20.996,5.371,19.531,26.367,0.0,0
1581351684.421,17.578,25.391,25.879,27.344,0.0,0
1581351684.424,27.344,27.344,33.203,18.066,0.0,0
1581351684.428,30.273000000000003,18.555,32.227,16.113,0.0,0
1581351684.4320002,22.461,29.297,33.691,19.043,0.0,0
1581351684.436,12.695,27.832,30.762,13.672,0.0,0
1581351684.44,18.555,22.949,26.855,15.625,0.0,0
1581351684.441,23.926,23.438,26.855,13.672,0.0,0
1581351684.445,12.207,19.043,27.832,12.695,0.0,0
1581351684.449,4.395,21.973000000000006,27.344,9.766,0.0,0
1581351684.4529998,14.16,32.715,31.25,13.184,0.0,0
1581351684.457,21.484,34.18,27.832,14.16,0.0,0
1581351684.461,16.113,20.508000000000006,20.508000000000006,13.184,0.0,0
1581351684.465,11.719,16.602,31.25,22.461,0.0,0
1581351684.468,15.137,31.25,41.992,21.484,0.0,0
1581351684.472,27.832,28.809,41.01600000000001,23.438,0.0,0
1581351684.476,33.203,24.414,38.086,26.367,0.0,0
1581351684.48,24.902,31.25,36.621,23.438,0.0,0
1581351684.484,20.02,27.344,30.762,28.32,0.0,0
1581351684.486,25.879,15.625,26.367,28.32,0.0,0
1581351684.49,29.297,23.438,37.598,28.809,0.0,0
1581351684.494,19.043,37.598,42.48,21.973000000000006,0.0,0
1581351684.498,10.742,28.809,30.762,17.09,0.0,0
1581351684.502,19.531,15.137,33.691,23.926,0.0,0
1581351684.506,22.461,22.461,35.645,18.555,0.0,0
1581351684.51,13.184,24.902,31.738000000000003,14.648,0.0,0
1581351684.5129998,9.277,20.508000000000006,30.273000000000003,14.648,0.0,0
1581351684.5170002,10.254,28.32,26.855,8.301,0.0,0
1581351684.521,17.578,21.484,38.574,13.184,0.0,0
1581351684.525,21.484,15.137,41.992,14.648,0.0,0
1581351684.529,19.043,29.297,34.18,15.625,0.0,0
1581351684.531,19.531,34.668,32.715,16.602,0.0,0
1581351684.535,27.832,38.574,31.738000000000003,22.461,0.0,0
1581351684.539,35.156,26.855,32.227,28.809,0.0,0
1581351684.543,25.391,18.555,30.273000000000003,21.973000000000006,0.0,0
1581351684.5470002,17.578,26.367,25.879,15.137,0.0,0
1581351684.551,30.273000000000003,14.648,31.738000000000003,16.113,0.0,0
1581351684.555,37.109,12.207,33.203,18.066,0.0,0
1581351684.5579998,27.344,17.09,22.461,22.461,0.0,0
1581351684.562,17.578,15.625,20.996,17.578,0.0,0
1581351684.566,28.809,15.137,27.344,17.09,0.0,0
1581351684.57,37.109,17.578,25.391,22.461,0.0,0
1581351684.574,20.508000000000006,24.902,20.996,14.648,0.0,0
1581351684.591,13.672,25.391,29.297,13.672,0.0,0
1581351684.595,23.438,23.438,36.621,19.531,0.0,2
1581351684.599,31.738000000000003,21.973000000000006,29.297,25.391,0.0,0
1581351684.603,29.297,10.742,29.297,21.484,0.0,0
1581351684.607,25.391,15.625,36.621,19.043,0.0,0
1581351684.611,26.855,26.855,36.621,21.484,0.0,0
1581351684.615,37.109,34.18,34.18,25.391,0.0,0
1581351684.6179998,40.527,27.344,29.297,32.715,0.0,0
1581351684.6220002,31.738000000000003,16.113,26.855,28.809,0.0,0
1581351684.6260002,32.715,25.391,31.25,23.926,0.0,0
1581351684.63,44.434,29.297,26.855,29.785,0.0,0
1581351684.6339998,51.27,25.391,27.832,34.668,0.0,0
1581351684.6360002,41.504,27.344,37.598,31.25,0.0,0
1581351684.64,26.855,19.531,32.227,22.949,0.0,0
1581351684.644,30.762,16.602,25.391,21.484,0.0,0
1581351684.6479998,41.01600000000001,15.625,30.273000000000003,24.902,0.0,0
1581351684.6520002,35.156,7.812,32.227,22.461,0.0,0
1581351684.656,20.996,18.066,30.762,17.09,0.0,0
1581351684.66,17.578,34.18,30.762,11.719,0.0,0
1581351684.663,28.809,36.621,33.203,16.602,0.0,0
1581351684.667,29.785,30.762,35.156,20.02,0.0,0
1581351684.671,14.16,20.996,29.785,8.789,0.0,0
1581351684.675,16.602,27.832,30.762,13.184,0.0,0
1581351684.679,29.297,38.086,34.18,20.02,0.0,0
1581351684.681,31.25,17.09,24.902,17.09,0.0,0
1581351684.685,26.367,13.184,23.926,15.137,0.0,0
1581351684.689,23.926,22.461,28.809,11.719,0.0,0
1581351684.6929998,40.039,24.414,27.832,17.578,0.0,0
1581351684.697,47.363,25.391,30.762,18.555,0.0,0
1581351684.701,36.133,26.367,28.809,13.672,0.0,0
1581351684.705,34.18,43.457,33.203,20.02,0.0,0
1581351684.708,41.992,33.691,46.875,28.32,0.0,0
1581351684.712,45.898,3.418,50.78100000000001,24.414,0.0,0
1581351684.716,35.156,13.184,46.387,17.578,0.0,0
1581351684.72,23.926,27.832,41.992,26.367,0.0,0
1581351684.724,21.484,29.785,41.01600000000001,33.691,0.0,0
1581351684.726,28.809,40.039,40.039,36.621,0.0,0
1581351684.73,29.297,41.992,36.133,35.645,0.0,0
1581351684.734,14.648,30.273000000000003,38.086,29.297,0.0,0
1581351684.738,16.113,25.391,41.01600000000001,30.273000000000003,0.0,0
1581351684.742,28.32,28.32,40.527,35.645,0.0,0
1581351684.746,34.668,27.344,36.621,36.133,0.0,0
1581351684.75,31.738000000000003,24.902,40.039,36.621,0.0,0
1581351684.7529998,25.391,23.438,37.598,34.668,0.0,0
1581351684.7570002,35.156,25.391,35.645,35.645,0.0,0
1581351684.7610002,41.992,22.461,33.691,37.598,0.0,0
1581351684.765,29.785,27.832,30.762,28.809,0.0,0
1581351684.769,22.461,32.715,38.086,21.484,0.0,0
1581351684.772,29.785,28.32,37.598,23.926,0.0,0
1581351684.776,40.039,28.32,35.156,25.879,0.0,0
1581351684.78,37.109,20.996,33.203,27.832,0.0,0
1581351684.784,20.996,8.789,27.832,25.879,0.0,0
1581351684.788,17.578,20.996,27.832,22.461,0.0,0
1581351684.792,29.785,29.297,33.691,25.391,0.0,0
1581351684.796,29.297,12.695,38.086,27.344,0.0,0
1581351684.799,18.555,14.16,40.039,25.879,0.0,0
1581351684.803,17.578,28.32,38.086,26.367,0.0,0
1581351684.8070002,24.414,19.531,29.297,26.855,0.0,0
1581351684.811,28.809,17.09,28.32,25.391,0.0,0
1581351684.815,22.949,25.879,37.598,26.367,0.0,0
1581351684.8170002,15.625,20.996,33.203,20.02,0.0,0
1581351684.821,16.602,10.742,27.344,19.043,0.0,0
1581351684.825,19.531,9.277,24.902,18.066,0.0,0
1581351684.829,18.555,18.555,33.691,18.066,0.0,0
1581351684.833,9.277,24.414,35.156,15.625,0.0,0
1581351684.837,15.625,16.113,36.621,16.602,0.0,0
1581351684.841,33.203,13.672,41.01600000000001,26.367,0.0,0
1581351684.844,30.762,21.484,42.969,24.902,0.0,0
1581351684.8479998,21.484,24.902,44.434,16.113,0.0,0
1581351684.8520002,22.949,15.137,35.645,15.137,0.0,0
1581351684.856,28.809,4.395,30.273000000000003,19.043,0.0,0
1581351684.86,27.832,14.648,36.133,15.137,0.0,0
1581351684.8620002,19.531,24.902,33.691,11.719,0.0,0
1581351684.8660002,15.625,21.484,21.973000000000006,11.719,0.0,0
1581351684.87,20.996,16.602,26.367,15.137,0.0,0
1581351684.8739998,30.762,24.902,36.621,19.043,0.0,0
1581351684.8779998,24.902,23.926,37.598,17.578,0.0,0
1581351684.8820002,14.648,13.184,32.715,18.555,0.0,0
1581351684.8860002,20.02,20.508000000000006,28.809,18.066,0.0,0
1581351684.889,26.855,22.461,30.273000000000003,19.531,0.0,0
1581351684.893,19.043,15.625,32.227,23.438,0.0,0
1581351684.897,9.766,13.184,24.902,23.438,0.0,0
1581351684.901,15.625,14.648,25.879,26.855,0.0,0
1581351684.905,23.438,25.391,30.273000000000003,27.832,0.0,0
1581351684.907,23.926,33.203,27.344,27.832,0.0,0
1581351684.911,19.043,26.367,21.484,22.949,0.0,0
1581351684.915,19.531,23.926,21.973000000000006,20.996,0.0,0
1581351684.919,28.809,23.926,21.484,23.926,0.0,0
1581351684.923,30.273000000000003,15.625,18.066,23.438,0.0,0
1581351684.927,21.484,14.16,21.484,22.461,0.0,0
1581351684.931,21.973000000000006,26.855,24.902,20.996,0.0,0
1581351684.934,33.203,35.156,24.414,22.461,0.0,0
1581351684.938,43.457,27.344,25.391,29.297,0.0,0
1581351684.9420002,29.785,23.438,27.344,25.391,0.0,0
1581351684.946,14.648,20.996,30.762,20.02,0.0,0
1581351684.95,19.531,18.066,30.273000000000003,21.484,0.0,0
1581351684.967,20.996,19.043,26.855,22.949,0.0,0
1581351684.971,22.949,19.043,28.809,23.438,0.0,0
1581351684.975,21.484,20.508000000000006,32.227,20.996,0.0,0
1581351684.979,21.973000000000006,22.949,33.203,28.32,0.0,0
1581351684.9829998,31.25,15.137,34.18,35.645,0.0,0
1581351684.9870002,26.367,9.277,34.18,27.832,0.0,0
1581351684.9910002,16.602,16.113,29.297,21.973000000000006,0.0,0
1581351684.994,21.973000000000006,20.02,22.949,27.344,0.0,0
1581351684.998,33.203,18.555,19.043,35.156,0.0,0
1581351685.002,34.668,23.438,20.996,29.297,0.0,0
1581351685.006,24.414,28.32,27.344,22.461,0.0,0
1581351685.01,16.113,19.043,27.344,26.367,0.0,0
1581351685.012,26.855,9.277,26.367,32.227,0.0,0
1581351685.016,41.01600000000001,14.648,25.879,32.715,0.0,0
1581351685.02,30.762,22.949,28.32,25.879,0.0,0
1581351685.024,17.09,26.367,32.227,17.09,0.0,0
1581351685.028,19.531,27.344,27.832,11.719,0.0,0
1581351685.032,29.785,29.785,23.926,19.531,0.0,0
1581351685.036,29.785,24.902,22.949,23.926,0.0,0
1581351685.039,25.879,19.531,24.902,20.508000000000006,0.0,0
1581351685.043,27.344,24.902,29.785,22.949,0.0,0
1581351685.0470002,31.25,22.461,23.438,18.066,0.0,0
1581351685.051,34.18,15.137,18.555,18.066,0.0,0
1581351685.055,29.297,19.531,25.391,21.484,0.0,0
1581351685.0570002,18.555,19.531,28.32,12.207,0.0,0
1581351685.061,29.297,11.719,29.297,19.043,0.0,0
1581351685.065,36.621,7.812,28.32,19.531,0.0,0
1581351685.069,22.461,18.066,26.855,6.836,0.0,0
1581351685.073,21.484,17.09,25.879,15.137,0.0,0
1581351685.077,33.203,13.184,30.273000000000003,26.367,0.0,0
1581351685.081,34.18,28.32,37.109,26.367,0.0,0
1581351685.084,20.996,31.25,29.297,21.484,0.0,0
1581351685.0879998,17.09,28.809,27.832,18.555,0.0,0
1581351685.092,16.602,33.203,28.809,21.973000000000006,0.0,0
1581351685.096,20.02,25.879,25.391,24.414,0.0,0
1581351685.1,26.855,19.043,30.273000000000003,22.461,0.0,0
1581351685.1020002,15.137,21.484,31.738000000000003,22.949,0.0,0
1581351685.106,12.207,23.438,28.32,20.996,0.0,0
1581351685.11,25.391,19.531,30.273000000000003,20.508000000000006,0.0,0
1581351685.1139998,24.414,12.695,25.879,14.648,0.0,0
1581351685.1179998,10.254,12.695,20.508000000000006,4.395,0.0,0
1581351685.1220002,12.695,15.137,27.832,2.93,0.0,0
1581351685.1260002,27.832,11.23,33.691,11.719,0.0,0
1581351685.129,37.598,16.602,31.25,18.066,0.0,0
1581351685.133,34.18,25.879,31.738000000000003,17.09,0.0,0
1581351685.137,28.32,30.273000000000003,32.227,21.973000000000006,0.0,0
1581351685.141,28.809,35.645,22.949,21.973000000000006,0.0,0
1581351685.145,30.273000000000003,23.438,20.996,20.996,0.0,0
1581351685.147,26.367,19.531,33.203,24.414,0.0,0
1581351685.151,18.066,31.25,32.227,18.066,0.0,0
1581351685.155,18.066,27.832,18.066,18.555,0.0,0
1581351685.159,26.367,28.809,24.414,22.461,0.0,0
1581351685.163,21.973000000000006,24.414,33.203,18.555,0.0,0
1581351685.167,15.137,16.602,30.762,13.184,0.0,0
1581351685.171,13.672,20.996,27.344,14.648,0.0,0
1581351685.174,23.438,14.16,27.832,15.625,0.0,0
1581351685.178,31.25,13.184,29.297,4.883,0.0,0
1581351685.1820002,20.02,15.625,30.273000000000003,5.859,0.0,0
1581351685.186,14.16,16.602,28.809,12.207,0.0,0
1581351685.19,19.531,21.973000000000006,26.367,18.066,0.0,0
1581351685.1920002,18.555,30.273000000000003,32.715,16.602,0.0,0
1581351685.196,10.254,32.227,35.645,11.23,0.0,0
1581351685.2,6.348,36.133,41.992,14.16,0.0,0
1581351685.204,13.672,32.227,44.922,12.207,0.0,0
1581351685.208,13.672,17.09,32.715,-0.977,0.0,0
1581351685.212,11.23,6.348,26.855,0.488,0.0,0
1581351685.216,8.301,9.277,31.25,1.465,0.0,0
1581351685.219,10.742,19.531,29.297,-3.906,0.0,0
1581351685.2229998,25.879,18.066,19.043,0.977,0.0,0
1581351685.2270002,27.344,22.461,18.066,5.859,0.0,0
1581351685.231,12.695,30.762,25.391,7.812,0.0,0
1581351685.235,13.184,19.531,27.832,7.324,0.0,0
1581351685.2370002,34.18,15.625,29.297,15.625,0.0,0
1581351685.2410002,35.645,28.809,28.809,19.531,0.0,0
1581351685.245,14.648,33.691,23.438,12.695,0.0,0
1581351685.2489998,11.719,35.156,29.297,10.742,0.0,0
1581351685.2529998,23.438,35.645,40.527,10.742,0.0,0
1581351685.2570002,26.367,23.926,37.109,9.766,0.0,0
1581351685.2610002,27.344,22.461,34.668,12.207,0.0,0
1581351685.264,22.461,24.902,33.203,9.277,0.0,0
1581351685.268,11.23,17.578,21.484,1.953,0.0,0
1581351685.272,21.484,22.461,25.391,4.883,0.0,0
1581351685.276,29.297,19.531,25.879,9.277,0.0,0
1581351685.28,22.461,22.949,29.297,16.602,0.0,0
1581351685.282,23.438,28.32,41.01600000000001,21.484,0.0,0
1581351685.286,26.855,21.484,35.156,13.184,0.0,0
1581351685.29,23.438,22.949,28.32,4.883,0.0,0
1581351685.294,16.113,27.344,32.715,2.93,0.0,0
1581351685.298,11.23,29.297,34.668,3.906,0.0,0
1581351685.302,19.043,29.785,31.25,4.395,0.0,0
1581351685.306,22.949,29.785,29.785,1.465,0.0,0
1581351685.309,17.09,31.25,32.227,3.418,0.0,0
1581351685.313,13.672,27.344,34.668,15.137,0.0,0
1581351685.3170002,17.578,24.902,33.203,18.555,0.0,0
1581351685.321,21.484,21.484,27.832,14.16,0.0,0
1581351685.325,17.578,27.344,23.438,14.648,0.0,0
1581351685.342,17.09,44.434,35.645,14.16,0.0,0
1581351685.346,18.066,33.691,42.48,15.625,0.0,0
1581351685.35,14.648,21.973000000000006,27.344,13.184,0.0,0
1581351685.354,8.789,28.32,24.902,7.324,0.0,0
1581351685.3579998,-2.441,13.184,36.621,7.324,0.0,0
1581351685.3620002,-3.418,15.137,34.18,0.977,0.0,0
1581351685.3660002,9.766,36.621,22.949,0.0,0.0,0
1581351685.369,12.695,22.461,23.926,10.742,0.0,0
1581351685.373,6.836,3.906,29.785,13.672,0.0,0
1581351685.377,0.977,20.508000000000006,32.715,6.836,0.0,0
1581351685.381,12.207,41.992,38.574,7.324,0.0,0
1581351685.385,23.926,41.992,40.527,15.625,0.0,0
1581351685.387,12.695,34.668,36.621,12.207,0.0,0
1581351685.391,4.395,25.879,37.598,12.207,0.0,0
1581351685.395,8.301,15.625,27.344,14.648,0.0,0
1581351685.399,11.23,21.973000000000006,18.066,9.277,0.0,0
1581351685.403,19.531,31.738000000000003,34.18,21.484,0.0,0
1581351685.407,13.184,26.367,31.25,20.02,0.0,0
1581351685.411,8.789,27.344,22.949,9.277,0.0,0
1581351685.414,18.555,28.32,25.391,8.301,0.0,0
1581351685.418,19.531,20.996,25.879,9.766,0.0,0
1581351685.4220002,13.184,27.832,30.762,9.766,0.0,0
1581351685.426,10.742,26.855,33.691,14.16,0.0,0
1581351685.43,21.973000000000006,16.602,32.227,13.184,0.0,0
1581351685.4320002,20.996,24.414,23.926,0.977,0.0,0
1581351685.436,9.766,15.137,24.414,-3.906,0.0,0
1581351685.44,11.719,11.719,26.367,-1.953,0.0,0
1581351685.444,18.066,33.203,24.902,3.906,0.0,0
1581351685.448,20.02,36.133,32.227,8.789,0.0,0
1581351685.452,19.043,29.297,27.832,14.16,0.0,0
1581351685.456,15.625,22.461,21.973000000000006,18.066,0.0,0
1581351685.459,21.484,27.344,28.809,25.879,0.0,0
1581351685.4629998,30.762,34.668,33.691,29.785,0.0,0
1581351685.467,29.785,22.949,30.762,26.367,0.0,0
1581351685.471,26.367,28.32,29.297,24.902,0.0,0
1581351685.475,24.902,40.527,38.086,23.926,0.0,0
1581351685.476,31.25,33.203,36.133,24.414,0.0,0
1581351685.48,26.855,22.949,31.25,20.996,0.0,0
1581351685.484,12.207,24.902,26.855,12.695,0.0,0
1581351685.488,7.324,34.18,21.484,5.859,0.0,0
1581351685.492,13.184,26.367,22.949,0.488,0.0,0
1581351685.496,19.531,14.16,27.344,-12.207,0.0,0
1581351685.5,9.766,17.578,29.785,-20.02,0.0,0
1581351685.5029998,8.789,17.09,27.344,-15.137,0.0,0
1581351685.5070002,22.949,16.602,28.809,-15.137,0.0,0
1581351685.5110002,29.785,42.48,25.391,-11.23,0.0,0
1581351685.515,19.043,52.246,22.461,-13.672,0.0,0
1581351685.519,8.301,35.645,32.715,-23.926,0.0,0
1581351685.521,15.137,31.25,33.691,-14.648,0.0,0
1581351685.525,24.902,32.715,29.297,-0.977,0.0,0
1581351685.529,24.414,34.18,32.715,6.348,0.0,0
1581351685.533,22.949,37.109,35.645,9.277,0.0,0
1581351685.5370002,20.996,25.879,31.25,2.441,0.0,0
1581351685.541,25.879,12.695,26.855,0.0,0.0,0
1581351685.545,31.738000000000003,11.23,22.461,7.324,0.0,0
1581351685.548,24.902,17.09,22.949,7.812,0.0,0
1581351685.552,27.344,29.297,25.879,4.883,0.0,0
1581351685.556,37.109,28.32,30.273000000000003,12.695,0.0,0
1581351685.56,35.645,21.484,26.855,14.16,0.0,0
1581351685.564,25.879,24.414,20.996,17.09,0.0,0
1581351685.566,19.043,27.344,25.879,18.066,0.0,0
1581351685.57,23.926,29.297,27.832,17.09,0.0,0
1581351685.574,25.391,27.832,28.809,18.555,0.0,0
1581351685.5779998,21.484,26.855,35.156,18.555,0.0,0
1581351685.582,17.578,23.438,32.715,19.531,0.0,0
1581351685.586,22.461,18.066,33.691,22.949,0.0,0
1581351685.59,33.203,10.254,34.668,27.832,0.0,0
1581351685.593,28.809,13.184,28.32,19.531,0.0,0
1581351685.597,19.531,16.113,26.367,15.625,0.0,0
1581351685.601,21.484,17.09,21.484,21.484,0.0,0
1581351685.605,26.855,14.648,18.066,21.484,0.0,0
1581351685.609,24.902,14.16,25.879,16.602,0.0,0
1581351685.611,19.531,21.484,30.273000000000003,14.648,0.0,0
