timestamps,TP9,AF7,AF8,TP10,Right AUX,Marker0
1582565695.924,16.113,41.01600000000001,33.203,8.789,0.0,0
1582565695.928,11.23,35.645,30.762,0.488,0.0,0
1582565695.9320002,4.883,29.297,31.25,-6.348,0.0,0
1582565695.936,9.277,21.484,31.25,3.418,0.0,0
1582565695.94,10.254,31.738000000000003,28.809,10.742,0.0,0
1582565695.944,10.742,43.457,25.879,15.137,0.0,0
1582565695.948,20.996,35.645,23.926,11.719,0.0,0
1582565695.951,13.184,25.391,19.531,5.859,0.0,0
1582565695.955,5.859,21.484,22.949,10.254,0.0,0
1582565695.959,18.066,19.043,33.203,10.254,0.0,0
1582565695.9629998,22.949,21.973000000000006,34.668,13.184,0.0,0
1582565695.967,19.531,37.109,43.457,10.254,0.0,0
1582565695.968,22.461,47.852,38.574,7.812,0.0,0
1582565695.972,15.137,45.41,25.391,6.348,0.0,0
1582565695.976,7.324,40.039,23.926,3.906,0.0,0
1582565695.98,6.348,35.156,35.645,0.977,0.0,0
1582565695.984,4.395,33.203,50.78100000000001,-1.465,0.0,0
1582565695.988,10.742,28.32,45.41,13.672,0.0,0
1582565695.992,13.672,15.625,33.203,18.555,0.0,0
1582565695.995,20.02,22.461,25.391,8.789,0.0,0
1582565695.9989998,16.602,43.457,34.18,5.859,0.0,0
1582565696.0029998,4.395,51.27,34.668,10.254,0.0,0
1582565696.0070002,8.301,52.246,32.227,14.16,0.0,0
1582565696.0110002,15.137,35.645,35.156,7.812,0.0,0
1582565696.0129998,24.414,16.113,24.902,-0.488,0.0,0
1582565696.0170002,15.137,18.066,25.391,-5.371,0.0,0
1582565696.021,-4.883,31.25,21.973000000000006,-2.441,0.0,0
1582565696.025,5.859,36.621,14.648,8.301,0.0,0
1582565696.029,4.883,36.621,23.438,-10.254,0.0,0
1582565696.033,9.766,32.715,23.438,-3.906,0.0,0
1582565696.0370002,9.766,32.715,28.809,9.277,0.0,0
1582565696.04,3.906,29.297,35.156,1.465,0.0,0
1582565696.044,9.766,20.508000000000006,40.039,7.812,0.0,0
1582565696.048,17.09,30.273000000000003,34.18,7.324,0.0,0
1582565696.052,20.508000000000006,26.367,23.438,6.348,0.0,0
1582565696.056,20.996,21.973000000000006,21.484,17.578,0.0,0
1582565696.073,18.066,38.086,15.625,9.277,0.0,0
1582565696.077,6.836,41.01600000000001,10.254,-6.348,0.0,0
1582565696.081,-7.324,30.762,21.973000000000006,-14.648,0.0,0
1582565696.085,-12.207,31.738000000000003,29.785,-16.113,0.0,0
1582565696.089,-2.93,32.227,35.645,-9.277,0.0,0
1582565696.093,6.348,33.691,34.668,-1.953,0.0,0
1582565696.097,8.789,41.01600000000001,32.715,7.324,0.0,0
1582565696.1,4.883,23.438,28.809,10.742,0.0,0
1582565696.104,9.766,23.926,19.531,8.789,0.0,0
1582565696.1079998,20.508000000000006,33.203,17.09,6.348,0.0,0
1582565696.1120002,11.719,25.391,10.254,8.789,0.0,0
1582565696.1160002,1.465,36.133,11.719,13.672,0.0,0
1582565696.1179998,4.883,48.34,34.668,10.742,0.0,0
1582565696.1220002,3.418,45.898,34.668,-8.789,0.0,0
1582565696.1260002,4.883,32.715,20.02,-0.488,0.0,0
1582565696.13,9.766,20.996,26.855,16.602,0.0,0
1582565696.1339998,16.113,39.551,27.344,9.277,0.0,0
1582565696.1379998,16.602,49.805,30.273000000000003,4.883,0.0,0
1582565696.1420002,10.254,35.156,36.133,0.488,0.0,0
1582565696.145,13.672,13.184,36.133,7.812,0.0,0
1582565696.149,20.02,20.996,37.598,13.184,0.0,0
1582565696.153,23.926,39.551,32.227,11.23,0.0,0
1582565696.157,14.16,35.156,18.066,-1.953,0.0,0
1582565696.161,3.906,31.25,9.277,-7.812,0.0,0
1582565696.164,0.0,45.898,20.02,-7.324,0.0,0
1582565696.168,-1.465,51.27,34.668,-12.207,0.0,0
1582565696.1720002,7.812,31.738000000000003,33.691,-3.906,0.0,0
1582565696.176,12.695,36.133,28.809,2.93,0.0,0
1582565696.18,8.301,36.621,27.832,5.859,0.0,0
1582565696.184,7.812,28.809,19.043,5.371,0.0,0
1582565696.188,14.648,34.18,17.578,-0.977,0.0,0
1582565696.191,14.16,24.414,25.391,-0.977,0.0,0
1582565696.195,15.137,33.203,28.32,6.836,0.0,0
1582565696.199,20.996,54.688,33.203,13.672,0.0,0
1582565696.2029998,23.926,48.34,32.227,10.742,0.0,0
1582565696.207,17.578,36.133,27.344,-4.883,0.0,0
1582565696.209,13.672,32.715,30.273000000000003,-3.418,0.0,0
1582565696.2129998,19.043,28.809,31.25,13.184,0.0,0
1582565696.217,17.578,31.25,31.25,11.23,0.0,0
1582565696.221,20.508000000000006,42.48,40.527,7.812,0.0,0
1582565696.225,22.949,41.504,38.086,5.859,0.0,0
1582565696.229,12.207,29.297,35.645,2.93,0.0,0
1582565696.2329998,11.719,33.203,34.18,5.859,0.0,0
1582565696.236,10.742,38.574,20.996,1.953,0.0,0
1582565696.24,11.719,28.32,19.531,4.395,0.0,0
1582565696.244,11.23,35.156,26.855,5.859,0.0,0
1582565696.248,7.812,43.945,36.621,1.953,0.0,0
1582565696.252,17.578,34.668,45.41,1.465,0.0,0
1582565696.2529998,9.766,33.691,52.246,-7.324,0.0,0
1582565696.2570002,-0.977,39.551,44.922,-7.324,0.0,0
1582565696.2610002,20.996,18.066,38.086,16.113,0.0,0
1582565696.265,36.621,11.23,38.086,20.996,0.0,0
1582565696.269,27.832,37.598,29.297,12.695,0.0,0
1582565696.2729998,27.832,48.828,20.508000000000006,12.207,0.0,0
1582565696.2770002,18.066,42.48,22.461,10.254,0.0,0
1582565696.28,2.93,32.227,21.973000000000006,-4.883,0.0,0
1582565696.284,10.254,39.062,38.086,-7.324,0.0,0
1582565696.288,16.113,46.387,43.945,7.324,0.0,0
1582565696.292,13.184,45.898,40.527,7.812,0.0,0
1582565696.296,7.324,34.668,41.504,0.0,0.0,0
1582565696.299,11.23,28.809,4.883,-0.977,0.0,0
1582565696.303,32.227,26.367,-1.465,7.812,0.0,0
1582565696.3070002,29.785,33.691,27.832,15.137,0.0,0
1582565696.311,16.113,44.434,39.062,18.555,0.0,0
1582565696.315,22.949,54.199,41.504,12.695,0.0,0
1582565696.319,27.832,57.129,29.297,7.812,0.0,0
1582565696.323,15.137,40.039,23.926,9.766,0.0,0
1582565696.326,4.883,33.691,23.926,3.906,0.0,0
1582565696.33,16.602,38.086,26.367,6.836,0.0,0
1582565696.334,22.949,30.273000000000003,40.527,3.418,0.0,0
1582565696.3379998,19.043,27.344,40.527,1.953,0.0,0
1582565696.342,10.254,43.945,33.203,9.766,0.0,0
1582565696.343,9.766,47.363,40.527,3.418,0.0,0
1582565696.347,20.996,40.039,48.828,0.488,0.0,0
1582565696.351,8.789,42.969,42.969,-6.348,0.0,0
1582565696.355,-0.977,44.922,37.598,-4.883,0.0,0
1582565696.359,7.324,36.133,34.668,0.977,0.0,0
1582565696.363,17.578,35.156,29.297,1.953,0.0,0
1582565696.367,15.137,32.715,21.973000000000006,2.441,0.0,0
1582565696.37,6.348,21.484,29.297,-1.465,0.0,0
1582565696.3739998,9.766,1.953,34.18,11.719,0.0,0
1582565696.3779998,17.578,-4.883,18.066,19.531,0.0,0
1582565696.3820002,14.16,27.832,25.391,1.953,0.0,0
1582565696.3860002,8.301,47.852,31.25,3.418,0.0,0
1582565696.3879998,1.465,41.992,26.367,5.371,0.0,0
1582565696.3920002,-5.371,38.086,20.996,-8.789,0.0,0
1582565696.396,5.859,41.01600000000001,25.391,-9.277,0.0,0
1582565696.4,6.836,35.645,37.598,-10.742,0.0,0
1582565696.404,0.488,22.949,38.574,-8.301,0.0,0
1582565696.408,5.371,18.066,31.25,-3.906,0.0,0
1582565696.4120002,4.395,23.438,18.066,-5.859,0.0,0
1582565696.415,-5.371,32.227,21.484,-13.672,0.0,0
1582565696.419,-3.418,30.762,32.715,-15.625,0.0,0
1582565696.423,14.648,42.969,26.367,0.977,0.0,0
1582565696.427,25.879,50.293,19.531,7.324,0.0,0
1582565696.431,22.949,46.875,20.02,1.953,0.0,0
1582565696.448,13.184,40.039,23.438,6.348,0.0,0
1582565696.452,7.812,32.227,29.297,7.324,0.0,0
1582565696.456,12.207,29.785,35.156,-0.977,0.0,0
1582565696.46,15.625,30.762,35.156,-1.465,0.0,0
1582565696.464,16.602,38.574,29.785,3.418,0.0,0
1582565696.468,14.648,36.621,17.09,5.371,0.0,0
1582565696.472,22.461,34.18,10.254,-0.488,0.0,0
1582565696.475,40.039,36.133,26.367,-8.789,0.0,0
1582565696.479,52.246,41.504,25.391,-6.348,0.0,0
1582565696.4829998,50.78100000000001,41.01600000000001,22.949,2.441,0.0,0
1582565696.4870002,44.922,41.01600000000001,30.762,-1.953,0.0,0
1582565696.4910002,41.504,52.734,30.273000000000003,-4.395,0.0,0
1582565696.4929998,26.367,51.27,32.227,-3.418,0.0,0
1582565696.4970002,14.16,42.969,28.32,4.395,0.0,0
1582565696.5010002,12.695,37.109,25.879,9.277,0.0,0
1582565696.505,11.23,23.926,35.156,6.348,0.0,0
1582565696.5089998,11.719,17.578,36.133,4.395,0.0,0
1582565696.5129998,16.602,22.461,32.715,5.859,0.0,0
1582565696.5170002,13.672,27.832,32.715,15.137,0.0,0
1582565696.52,5.371,47.852,27.832,8.789,0.0,0
1582565696.524,5.859,60.547,29.785,4.883,0.0,0
1582565696.528,11.719,48.828,27.832,12.695,0.0,0
1582565696.532,11.719,28.809,23.438,15.137,0.0,0
1582565696.536,1.953,22.949,31.25,10.742,0.0,0
1582565696.538,-5.371,11.719,29.297,1.953,0.0,0
1582565696.542,1.465,2.93,22.461,9.766,0.0,0
1582565696.546,5.859,20.996,11.23,13.184,0.0,0
1582565696.55,6.836,41.504,20.02,1.953,0.0,0
1582565696.554,11.719,51.27,35.645,-1.465,0.0,0
1582565696.5579998,16.602,52.734,34.18,4.395,0.0,0
1582565696.562,19.531,37.109,31.738000000000003,14.16,0.0,0
1582565696.565,14.648,23.926,32.227,9.766,0.0,0
1582565696.569,8.301,30.273000000000003,23.438,0.488,0.0,0
1582565696.573,-0.488,35.156,8.301,-1.465,0.0,0
1582565696.577,7.812,27.832,13.184,1.465,0.0,0
1582565696.581,9.277,27.832,31.738000000000003,8.789,0.0,0
1582565696.583,2.93,24.902,39.062,1.953,0.0,0
1582565696.587,15.137,25.879,32.715,-1.465,0.0,0
1582565696.591,19.043,40.039,29.297,16.113,0.0,0
1582565696.595,12.695,37.598,22.949,17.578,0.0,0
1582565696.599,7.812,26.855,24.414,7.324,0.0,0
1582565696.603,13.184,26.855,40.039,3.906,0.0,0
1582565696.607,19.531,28.32,39.551,8.789,0.0,0
1582565696.61,11.23,31.738000000000003,31.738000000000003,17.09,0.0,0
1582565696.6139998,16.113,41.504,36.621,19.043,0.0,0
1582565696.6179998,26.855,49.316,41.504,17.578,0.0,0
1582565696.6220002,25.879,41.992,29.785,17.578,0.0,0
1582565696.6260002,21.484,33.691,16.602,20.996,0.0,0
1582565696.6279998,19.531,32.227,23.438,24.902,0.0,0
1582565696.6320002,20.996,15.137,32.715,14.648,0.0,0
1582565696.6360002,14.16,13.672,36.133,0.977,0.0,0
1582565696.64,12.695,33.203,26.855,4.883,0.0,0
1582565696.644,8.789,38.574,27.344,-1.465,0.0,0
1582565696.6479998,9.766,39.062,39.551,-7.812,0.0,0
1582565696.6520002,20.996,45.898,31.738000000000003,1.953,0.0,0
1582565696.655,16.602,39.551,27.832,6.348,0.0,0
1582565696.659,21.973000000000006,36.133,24.902,14.648,0.0,0
1582565696.663,25.879,32.715,15.137,16.113,0.0,0
1582565696.667,21.484,15.625,20.508000000000006,2.441,0.0,0
1582565696.671,23.438,15.137,31.25,-4.395,0.0,0
1582565696.673,15.137,34.18,17.09,6.348,0.0,0
1582565696.677,9.766,42.969,7.812,5.371,0.0,0
1582565696.681,21.484,49.316,24.902,-4.395,0.0,0
1582565696.685,18.066,48.828,34.18,0.0,0.0,0
1582565696.689,7.324,37.109,26.855,5.859,0.0,0
1582565696.6929998,24.414,42.969,16.602,16.113,0.0,0
1582565696.697,38.574,28.32,18.555,15.625,0.0,0
1582565696.7,39.062,12.207,27.344,14.648,0.0,0
1582565696.704,39.062,34.668,39.062,17.578,0.0,0
1582565696.708,19.043,41.504,32.227,12.695,0.0,0
1582565696.712,10.254,46.387,16.113,5.859,0.0,0
1582565696.716,10.254,41.504,22.461,-10.254,0.0,0
1582565696.718,-4.883,34.668,20.02,-18.555,0.0,0
1582565696.722,-0.488,34.18,17.578,-6.348,0.0,0
1582565696.726,7.812,20.508000000000006,25.879,-9.277,0.0,0
1582565696.73,18.555,37.109,29.297,-6.836,0.0,0
1582565696.734,21.484,46.875,26.855,8.301,0.0,0
1582565696.738,15.625,42.969,24.414,17.578,0.0,0
1582565696.742,11.719,42.48,31.25,17.09,0.0,0
1582565696.745,17.09,26.855,20.02,17.09,0.0,0
1582565696.7489998,33.691,14.648,12.207,15.625,0.0,0
1582565696.7529998,10.254,21.973000000000006,26.367,-7.812,0.0,0
1582565696.7570002,-9.766,33.691,31.25,-5.859,0.0,0
1582565696.7610002,-0.977,36.621,26.367,-3.418,0.0,0
1582565696.7629998,3.906,48.828,26.367,-5.371,0.0,0
1582565696.7670002,9.277,55.176,16.602,13.184,0.0,0
1582565696.771,16.113,44.922,19.531,16.602,0.0,0
1582565696.775,20.508000000000006,36.621,27.832,13.184,0.0,0
1582565696.779,21.973000000000006,31.738000000000003,20.02,9.277,0.0,0
1582565696.783,13.184,27.832,28.809,3.906,0.0,0
1582565696.7870002,15.137,27.832,42.48,20.508000000000006,0.0,0
1582565696.79,16.113,20.508000000000006,28.32,20.508000000000006,0.0,0
1582565696.794,8.301,30.762,20.02,-4.395,0.0,0
1582565696.798,12.207,49.316,33.203,-4.395,0.0,0
1582565696.802,14.16,50.78100000000001,40.039,12.207,0.0,0
1582565696.806,6.348,40.527,39.551,19.531,0.0,0
1582565696.823,7.812,22.461,30.762,8.789,0.0,0
1582565696.827,16.602,26.855,19.043,-4.883,0.0,0
1582565696.831,13.672,38.086,22.949,9.277,0.0,0
1582565696.835,0.488,36.621,37.109,9.766,0.0,0
1582565696.839,7.324,47.363,30.273000000000003,3.418,0.0,0
1582565696.843,14.648,51.27,28.32,2.93,0.0,0
1582565696.847,4.883,38.086,46.875,1.953,0.0,0
1582565696.85,4.883,34.668,48.828,6.836,0.0,0
1582565696.854,9.766,45.898,41.01600000000001,12.695,0.0,0
1582565696.8579998,17.578,35.645,33.691,10.742,0.0,0
1582565696.8620002,18.066,20.996,27.832,8.301,0.0,0
1582565696.8660002,15.625,35.645,42.969,19.531,0.0,0
1582565696.8679998,11.23,42.969,47.363,13.672,0.0,0
1582565696.8720002,9.277,36.133,36.133,2.93,0.0,0
1582565696.8760002,5.859,32.227,38.086,1.953,0.0,0
1582565696.88,13.184,34.18,38.574,2.441,0.0,0
1582565696.8839998,19.531,41.504,29.297,7.324,0.0,0
1582565696.8879998,10.742,34.668,29.297,-5.859,0.0,0
1582565696.8920002,9.277,22.949,42.969,-10.742,0.0,0
1582565696.895,14.16,28.32,41.504,7.324,0.0,0
1582565696.899,11.23,26.855,31.25,13.672,0.0,0
1582565696.903,11.719,30.273000000000003,37.109,7.812,0.0,0
1582565696.907,22.949,48.828,39.551,12.207,0.0,0
1582565696.911,20.508000000000006,52.246,33.203,9.766,0.0,0
1582565696.913,3.906,41.01600000000001,26.367,0.977,0.0,0
1582565696.917,1.953,29.785,31.738000000000003,0.488,0.0,0
1582565696.921,6.836,31.738000000000003,30.273000000000003,-3.418,0.0,0
1582565696.925,5.371,25.391,11.23,-1.465,0.0,0
1582565696.929,4.883,20.508000000000006,26.855,7.812,0.0,0
1582565696.9329998,7.812,30.273000000000003,45.898,15.137,0.0,0
1582565696.937,9.766,28.32,31.25,5.859,0.0,0
1582565696.94,7.324,29.785,27.832,1.465,0.0,0
1582565696.944,15.137,45.898,22.461,10.254,0.0,0
1582565696.948,8.789,43.945,36.621,-1.953,0.0,0
1582565696.952,6.836,29.297,41.992,-3.906,0.0,0
1582565696.956,17.09,22.461,23.438,2.93,0.0,0
1582565696.958,11.719,21.973000000000006,24.902,2.93,0.0,0
1582565696.962,14.16,18.555,23.926,11.23,0.0,0
1582565696.966,21.973000000000006,41.504,20.02,4.395,0.0,0
1582565696.97,28.32,47.852,16.602,-1.953,0.0,0
1582565696.974,13.184,32.227,29.785,8.789,0.0,0
1582565696.978,2.441,32.227,38.086,16.113,0.0,0
1582565696.982,3.906,31.738000000000003,22.949,5.859,0.0,0
1582565696.985,0.488,37.598,31.738000000000003,-6.348,0.0,0
1582565696.9889998,8.789,44.434,42.48,-6.836,0.0,0
1582565696.9929998,10.742,44.434,37.598,2.441,0.0,0
1582565696.9970002,11.23,34.668,30.273000000000003,3.418,0.0,0
1582565697.0010002,21.973000000000006,33.691,32.715,5.859,0.0,0
1582565697.0029998,22.949,36.133,37.109,12.695,0.0,0
1582565697.0070002,13.184,28.809,32.227,7.324,0.0,0
1582565697.0110002,5.859,26.855,28.809,4.883,0.0,0
1582565697.015,4.883,33.203,30.273000000000003,4.883,0.0,0
1582565697.019,4.883,43.457,27.344,9.277,0.0,0
1582565697.0229998,10.254,38.574,22.949,4.883,0.0,0
1582565697.0270002,12.207,18.555,28.809,0.0,0.0,0
1582565697.03,11.719,27.344,28.809,0.488,0.0,0
1582565697.034,10.742,51.27,33.691,-7.812,0.0,0
1582565697.038,11.719,40.527,47.363,-2.441,0.0,0
1582565697.042,15.625,33.691,36.621,7.324,0.0,0
1582565697.046,10.742,39.062,38.574,4.395,0.0,0
1582565697.049,10.254,28.32,38.086,-5.371,0.0,0
1582565697.053,11.719,31.25,19.043,-0.488,0.0,0
1582565697.0570002,8.789,42.48,15.625,12.207,0.0,0
1582565697.061,1.465,47.852,22.461,3.418,0.0,0
1582565697.065,3.906,37.109,21.484,-0.488,0.0,0
1582565697.069,8.301,27.344,21.973000000000006,1.465,0.0,0
1582565697.073,12.207,29.785,42.969,4.395,0.0,0
1582565697.076,20.02,27.344,51.27,13.184,0.0,0
1582565697.08,20.508000000000006,33.203,35.156,15.137,0.0,0
1582565697.084,24.414,30.273000000000003,20.508000000000006,9.277,0.0,0
1582565697.0879998,16.602,27.344,19.531,2.441,0.0,0
1582565697.092,5.371,39.062,35.645,7.812,0.0,0
1582565697.093,12.207,41.992,35.645,16.113,0.0,0
1582565697.097,22.949,38.574,30.273000000000003,3.906,0.0,0
1582565697.101,26.855,45.41,38.086,0.0,0.0,0
1582565697.105,8.301,37.598,31.25,-0.977,0.0,0
1582565697.109,3.418,28.809,28.809,-5.371,0.0,0
1582565697.113,18.555,36.621,41.504,-4.883,0.0,0
1582565697.117,7.324,39.551,38.086,-7.324,0.0,0
1582565697.12,-12.207,34.668,28.809,-1.953,0.0,0
1582565697.1239998,-9.277,32.227,35.645,-2.93,0.0,0
1582565697.1279998,2.93,30.273000000000003,34.668,-2.93,0.0,0
1582565697.1320002,15.625,41.01600000000001,23.438,4.883,0.0,0
1582565697.1360002,6.836,25.879,27.832,6.348,0.0,0
1582565697.1379998,1.465,12.695,38.086,8.301,0.0,0
1582565697.1420002,9.766,42.969,31.25,4.883,0.0,0
1582565697.146,6.348,56.64100000000001,32.715,-8.301,0.0,0
1582565697.15,1.465,50.78100000000001,40.039,-6.348,0.0,0
1582565697.154,6.836,38.574,36.133,1.953,0.0,0
1582565697.158,20.996,30.762,20.996,14.648,0.0,0
1582565697.1620002,20.996,41.504,17.09,7.812,0.0,0
1582565697.165,12.207,34.668,27.344,4.395,0.0,0
1582565697.169,13.184,29.785,34.18,20.508000000000006,0.0,0
1582565697.173,8.301,47.363,31.25,16.113,0.0,0
1582565697.177,7.324,52.246,21.973000000000006,11.719,0.0,0
1582565697.181,14.16,47.363,26.367,17.578,0.0,0
1582565697.198,10.742,44.434,30.762,5.859,0.0,0
1582565697.202,14.648,32.227,22.949,4.883,0.0,0
1582565697.206,24.902,23.926,28.32,18.066,0.0,0
1582565697.21,23.438,39.551,33.691,18.066,0.0,0
1582565697.214,12.207,45.41,25.879,18.555,0.0,0
1582565697.218,4.395,36.621,31.25,18.066,0.0,0
1582565697.222,2.441,46.387,36.133,6.836,0.0,0
1582565697.225,6.348,38.574,34.668,10.742,0.0,0
1582565697.229,14.648,16.113,32.227,18.555,0.0,0
1582565697.2329998,15.137,29.297,20.996,20.508000000000006,0.0,0
1582565697.2370002,17.09,40.527,16.602,7.324,0.0,0
1582565697.2410002,17.09,41.01600000000001,23.438,-8.789,0.0,0
1582565697.2429998,21.973000000000006,37.598,29.297,-8.301,0.0,0
1582565697.2470002,36.133,36.133,24.902,0.488,0.0,0
1582565697.2510002,51.758,46.387,20.02,10.742,0.0,0
1582565697.255,45.41,46.875,11.719,4.395,0.0,0
1582565697.2589998,20.996,32.227,9.766,-5.859,0.0,0
1582565697.2629998,15.625,29.297,24.414,9.277,0.0,0
1582565697.2670002,7.812,41.01600000000001,26.855,11.719,0.0,0
1582565697.27,4.883,33.691,21.973000000000006,1.465,0.0,0
1582565697.274,8.301,14.16,16.602,0.488,0.0,0
1582565697.278,13.672,20.996,10.254,10.254,0.0,0
1582565697.282,22.461,39.551,23.438,16.113,0.0,0
1582565697.286,14.648,37.109,26.855,8.301,0.0,0
1582565697.288,6.836,34.18,14.16,3.418,0.0,0
1582565697.292,11.23,37.598,20.02,10.254,0.0,0
1582565697.296,13.184,41.01600000000001,38.574,11.719,0.0,0
1582565697.3,9.277,43.457,33.691,5.371,0.0,0
1582565697.304,10.254,36.621,25.879,2.441,0.0,0
1582565697.3079998,14.16,33.691,20.996,-0.488,0.0,0
1582565697.312,17.09,39.551,12.207,-1.465,0.0,0
1582565697.315,9.766,36.621,27.832,-2.93,0.0,0
1582565697.319,-4.395,29.297,35.156,-0.977,0.0,0
1582565697.323,-3.418,25.879,21.484,-1.465,0.0,0
1582565697.327,-2.93,34.668,21.973000000000006,0.0,0.0,0
1582565697.331,5.371,33.203,26.855,13.672,0.0,0
1582565697.334,13.184,28.32,20.996,10.254,0.0,0
1582565697.3379998,11.719,34.18,20.508000000000006,0.977,0.0,0
1582565697.342,10.742,35.156,28.809,3.418,0.0,0
1582565697.346,3.906,30.762,32.227,-0.488,0.0,0
1582565697.35,11.23,28.32,19.531,3.906,0.0,0
1582565697.354,15.137,32.715,6.348,7.324,0.0,0
1582565697.3579998,9.766,37.598,16.113,13.184,0.0,0
1582565697.361,14.648,49.805,23.926,17.578,0.0,0
1582565697.365,12.695,42.969,18.555,5.859,0.0,0
1582565697.369,4.883,22.949,26.367,-6.836,0.0,0
1582565697.373,7.324,24.902,30.762,-4.883,0.0,0
1582565697.377,15.137,24.414,28.809,5.859,0.0,0
1582565697.3779998,18.066,16.602,24.414,12.207,0.0,0
1582565697.3820002,17.09,39.551,20.996,11.719,0.0,0
1582565697.3860002,12.207,44.922,12.207,1.465,0.0,0
1582565697.39,11.23,41.504,-7.812,2.441,0.0,0
1582565697.394,10.742,36.621,4.395,11.719,0.0,0
1582565697.3979998,6.836,27.344,26.855,0.0,0.0,0
1582565697.4020002,4.883,28.32,17.578,-17.09,0.0,0
1582565697.405,9.766,27.344,1.953,-8.301,0.0,0
1582565697.409,6.348,20.508000000000006,7.324,-1.953,0.0,0
1582565697.413,0.488,19.531,19.531,-9.277,0.0,0
1582565697.417,16.602,43.457,21.973000000000006,-9.277,0.0,0
1582565697.421,10.742,55.176,11.719,-8.789,0.0,0
1582565697.423,0.0,46.387,1.953,-4.883,0.0,0
1582565697.427,7.812,41.504,6.836,4.395,0.0,0
1582565697.431,13.184,37.598,19.043,-4.883,0.0,0
1582565697.435,9.766,30.762,20.508000000000006,-13.184,0.0,0
1582565697.439,2.93,28.809,12.695,-2.93,0.0,0
1582565697.4429998,3.418,26.367,4.883,-4.883,0.0,0
1582565697.447,8.789,29.785,0.0,-7.812,0.0,0
1582565697.45,6.348,30.762,-5.859,-11.23,0.0,0
1582565697.454,7.324,38.086,-0.488,-4.883,0.0,0
1582565697.458,16.113,49.316,10.254,5.859,0.0,0
1582565697.462,14.648,34.18,9.277,-4.883,0.0,0
1582565697.466,17.578,28.32,4.883,-5.371,0.0,0
1582565697.468,17.578,33.203,10.254,2.441,0.0,0
1582565697.472,4.395,22.949,9.277,-0.488,0.0,0
1582565697.476,4.395,22.461,-3.906,-10.254,0.0,0
1582565697.48,13.184,37.598,-6.836,-8.301,0.0,0
1582565697.484,22.461,48.34,6.348,2.441,0.0,0
1582565697.488,11.23,36.133,11.719,10.254,0.0,0
1582565697.492,8.789,26.367,8.789,17.09,0.0,0
1582565697.495,12.207,33.691,4.883,12.695,0.0,0
1582565697.4989998,8.789,48.828,9.766,2.93,0.0,0
1582565697.5029998,13.672,56.152,32.227,6.836,0.0,0
1582565697.5070002,17.09,40.527,38.574,18.555,0.0,0
1582565697.5110002,18.555,27.832,29.297,15.137,0.0,0
1582565697.5129998,22.461,28.809,36.621,15.137,0.0,0
1582565697.5170002,20.02,35.645,51.758,20.02,0.0,0
1582565697.521,7.812,46.387,77.148,19.043,0.0,0
1582565697.525,10.254,43.945,94.238,17.09,0.0,0
1582565697.529,22.949,34.18,90.332,12.207,0.0,0
1582565697.533,26.855,26.855,83.008,5.859,0.0,0
1582565697.5370002,16.602,38.574,75.195,12.695,0.0,0
1582565697.54,7.812,51.758,60.059,17.578,0.0,0
1582565697.544,0.977,44.434,48.34,11.719,0.0,0
1582565697.548,4.395,41.992,59.082,13.184,0.0,0
1582565697.552,18.066,33.203,67.383,17.578,0.0,0
1582565697.556,19.043,35.156,66.895,15.625,0.0,0
1582565697.573,16.113,45.898,72.75399999999998,6.836,0.0,0
1582565697.577,19.531,48.34,70.312,6.836,0.0,0
1582565697.581,10.254,30.273000000000003,62.012,6.836,0.0,0
1582565697.585,2.441,21.484,50.293,8.789,0.0,0
1582565697.589,9.766,41.01600000000001,46.875,11.719,0.0,0
1582565697.593,17.578,47.852,39.551,6.348,0.0,0
1582565697.597,9.766,43.457,33.691,2.93,0.0,0
1582565697.6,5.859,44.922,18.555,4.883,0.0,0
1582565697.604,12.695,48.828,20.508000000000006,5.859,0.0,0
1582565697.6079998,11.719,35.156,39.551,1.465,0.0,0
1582565697.6120002,14.648,22.949,47.363,4.395,0.0,0
1582565697.6160002,17.578,31.738000000000003,49.805,9.766,0.0,0
1582565697.6179998,12.695,32.715,41.992,8.789,0.0,0
1582565697.6220002,3.906,29.785,35.645,3.418,0.0,0
1582565697.6260002,7.812,46.875,36.133,-1.465,0.0,0
1582565697.63,23.438,51.27,41.992,8.789,0.0,0
1582565697.6339998,29.785,40.039,39.551,18.555,0.0,0
1582565697.6379998,27.344,39.551,32.227,12.695,0.0,0
1582565697.6420002,20.508000000000006,34.18,29.297,8.789,0.0,0
1582565697.645,10.254,34.668,31.25,6.836,0.0,0
1582565697.649,22.949,41.504,35.645,10.742,0.0,0
1582565697.653,30.273000000000003,39.551,33.691,6.836,0.0,0
1582565697.657,16.602,39.062,28.32,4.395,0.0,0
1582565697.661,16.113,45.898,27.832,10.254,0.0,0
1582565697.663,20.02,41.992,36.621,22.949,0.0,0
1582565697.667,24.902,26.855,37.109,22.949,0.0,0
1582565697.671,26.855,28.809,20.02,13.672,0.0,0
1582565697.675,18.555,53.71100000000001,9.766,10.254,0.0,0
1582565697.679,14.16,58.105,1.953,14.16,0.0,0
1582565697.6829998,18.066,33.203,0.977,12.695,0.0,0
1582565697.687,17.578,16.602,18.066,-0.488,0.0,0
1582565697.69,8.301,27.344,31.738000000000003,-5.371,0.0,0
1582565697.694,7.812,32.715,29.785,2.93,0.0,0
1582565697.698,12.207,36.621,29.297,13.672,0.0,0
1582565697.702,13.184,46.875,21.484,7.812,0.0,0
1582565697.706,16.113,48.828,14.648,-0.488,0.0,0
1582565697.708,16.113,40.527,19.043,6.348,0.0,0
1582565697.712,18.555,35.156,21.973000000000006,15.137,0.0,0
1582565697.716,19.043,34.18,19.531,12.207,0.0,0
1582565697.72,17.09,35.645,11.719,4.883,0.0,0
1582565697.724,16.113,36.133,13.184,10.742,0.0,0
1582565697.728,13.672,35.645,14.16,20.02,0.0,0
1582565697.732,10.254,25.879,10.254,12.207,0.0,0
1582565697.735,6.836,25.391,22.949,-3.906,0.0,0
1582565697.7389998,8.789,29.297,24.414,1.953,0.0,0
1582565697.7429998,13.672,20.508000000000006,16.602,15.137,0.0,0
1582565697.7470002,14.648,34.668,15.625,23.438,0.0,0
1582565697.7510002,19.531,43.945,8.301,22.949,0.0,0
1582565697.7529998,25.391,32.715,14.16,12.695,0.0,0
1582565697.7570002,19.043,36.133,22.949,16.113,0.0,0
1582565697.7610002,5.371,45.41,17.578,15.137,0.0,0
1582565697.765,4.883,41.504,16.602,4.883,0.0,0
1582565697.769,3.906,31.738000000000003,15.625,-2.441,0.0,0
1582565697.7729998,7.324,26.367,22.949,11.719,0.0,0
1582565697.7770002,3.418,21.484,30.273000000000003,20.02,0.0,0
1582565697.78,-1.953,29.785,22.949,6.348,0.0,0
1582565697.784,-0.977,32.715,11.23,1.953,0.0,0
1582565697.788,4.395,36.621,7.324,7.324,0.0,0
1582565697.792,9.766,43.945,9.277,7.812,0.0,0
1582565697.796,13.184,33.203,9.277,13.672,0.0,0
1582565697.798,23.438,22.949,9.766,4.883,0.0,0
1582565697.802,21.484,23.926,14.16,-13.184,0.0,0
1582565697.806,12.207,36.621,25.391,0.488,0.0,0
1582565697.81,24.414,39.062,25.391,11.23,0.0,0
1582565697.814,20.02,29.785,14.16,-1.465,0.0,0
1582565697.8179998,-2.441,39.062,4.883,-13.184,0.0,0
1582565697.822,5.371,55.176,7.812,0.488,0.0,0
1582565697.825,21.484,53.71100000000001,12.207,16.602,0.0,0
1582565697.829,27.832,44.434,21.484,9.766,0.0,0
1582565697.833,20.508000000000006,36.133,28.809,0.0,0.0,0
1582565697.837,15.625,31.25,26.855,1.953,0.0,0
1582565697.841,16.113,20.996,28.32,10.742,0.0,0
1582565697.844,20.02,24.414,28.32,11.23,0.0,0
1582565697.8479998,23.438,43.945,30.273000000000003,6.836,0.0,0
1582565697.8520002,20.02,43.457,19.043,10.254,0.0,0
1582565697.856,14.16,32.715,2.441,13.184,0.0,0
1582565697.86,10.254,33.691,9.277,2.441,0.0,0
1582565697.8639998,8.301,37.598,20.02,-1.953,0.0,0
1582565697.8679998,1.465,48.828,18.066,-3.906,0.0,0
1582565697.871,6.348,48.828,19.043,4.395,0.0,0
1582565697.875,14.648,28.809,23.438,15.625,0.0,0
1582565697.879,19.531,20.508000000000006,28.809,15.137,0.0,0
1582565697.883,19.043,15.137,30.762,12.207,0.0,0
1582565697.887,7.324,18.066,4.883,13.184,0.0,0
1582565697.889,3.418,42.969,-11.23,9.766,0.0,0
1582565697.893,8.789,53.71100000000001,17.578,7.324,0.0,0
1582565697.897,18.555,50.293,38.086,9.766,0.0,0
1582565697.901,16.113,39.062,32.227,9.277,0.0,0
1582565697.905,7.812,26.367,20.996,15.625,0.0,0
1582565697.909,7.812,26.367,19.531,21.973000000000006,0.0,0
1582565697.913,10.742,35.645,16.113,9.766,0.0,0
1582565697.916,8.789,38.086,11.23,3.418,0.0,0
1582565697.92,1.465,38.574,7.812,2.93,0.0,0
1582565697.924,10.742,37.109,4.883,7.324,0.0,0
1582565697.928,13.672,30.273000000000003,7.812,11.719,0.0,0
1582565697.9320002,11.23,23.926,21.973000000000006,5.859,0.0,0
1582565697.949,17.578,29.785,29.297,8.301,0.0,0
1582565697.9529998,14.648,41.504,24.414,13.184,0.0,0
1582565697.957,9.277,49.805,17.578,1.465,0.0,0
1582565697.961,13.672,37.109,4.883,-8.789,0.0,0
1582565697.965,11.23,16.602,2.93,-3.418,0.0,0
1582565697.969,8.301,27.832,5.859,0.488,0.0,0
1582565697.9729998,26.367,54.199,3.906,-4.395,0.0,0
1582565697.976,41.992,52.734,13.672,-8.301,0.0,0
1582565697.98,34.668,41.01600000000001,15.137,-3.418,0.0,0
1582565697.984,23.926,46.875,3.418,3.906,0.0,0
1582565697.988,22.949,37.598,0.977,8.301,0.0,0
1582565697.992,23.438,14.16,4.395,9.277,0.0,0
1582565697.995,24.902,30.273000000000003,8.789,11.719,0.0,0
1582565697.9989998,6.836,39.062,20.02,7.324,0.0,0
1582565698.0029998,1.465,25.879,25.391,5.859,0.0,0
1582565698.0070002,3.906,35.645,18.555,0.977,0.0,0
1582565698.0110002,-3.906,44.922,11.719,-6.348,0.0,0
1582565698.015,0.488,42.969,12.207,4.395,0.0,0
1582565698.019,1.953,33.203,4.395,14.16,0.0,0
1582565698.022,-2.441,15.625,0.977,0.488,0.0,0
1582565698.026,3.906,19.043,9.766,-6.836,0.0,0
1582565698.03,16.113,42.969,19.531,2.441,0.0,0
1582565698.034,15.625,55.176,24.414,5.859,0.0,0
1582565698.038,8.789,57.129,32.715,5.371,0.0,0
1582565698.039,11.719,50.293,40.039,4.395,0.0,0
1582565698.043,4.883,45.898,36.621,5.371,0.0,0
1582565698.0470002,-20.02,48.34,24.414,-3.906,0.0,0
1582565698.051,-15.137,43.457,13.184,-18.555,0.0,0
1582565698.055,-17.578,42.969,17.09,-34.18,0.0,0
1582565698.059,-48.34,35.156,31.738000000000003,-54.199,0.0,0
1582565698.063,-61.523,28.809,46.875,-66.895,0.0,0
1582565698.066,-91.797,15.137,45.898,-96.191,0.0,0
1582565698.07,-113.281,-0.488,47.363,-124.512,0.0,0
1582565698.074,-122.559,11.719,61.035,-144.531,0.0,0
1582565698.0779998,-150.391,26.367,62.5,-161.621,0.0,0
1582565698.082,-168.945,28.32,58.105,-177.24599999999995,0.0,0
1582565698.084,-188.965,20.996,62.988,-204.102,0.0,0
1582565698.0879998,-205.566,4.395,62.012,-229.004,0.0,0
1582565698.092,-212.402,5.859,63.965,-234.863,0.0,0
1582565698.096,-226.562,31.25,71.289,-242.676,0.0,0
1582565698.1,-222.168,42.969,83.984,-248.047,0.0,0
1582565698.104,-214.844,34.668,86.426,-249.512,0.0,0
1582565698.1079998,-225.098,29.297,79.59,-249.512,0.0,0
1582565698.111,-224.121,36.133,78.613,-234.863,0.0,0
1582565698.115,-215.332,27.832,74.707,-226.562,0.0,0
1582565698.119,-216.30900000000003,16.113,74.219,-236.328,0.0,0
1582565698.123,-210.449,24.414,71.777,-240.723,0.0,0
1582565698.127,-198.242,34.18,64.453,-224.121,0.0,0
1582565698.129,-192.383,35.156,56.64100000000001,-208.008,0.0,0
1582565698.133,-181.641,34.18,45.898,-210.938,0.0,0
1582565698.137,-166.016,28.32,43.457,-204.102,0.0,0
1582565698.141,-172.852,22.461,44.922,-189.453,0.0,0
1582565698.145,-187.5,32.715,36.621,-191.406,0.0,0
1582565698.149,-176.27,38.574,43.945,-188.965,0.0,0
1582565698.153,-160.645,43.945,62.012,-187.012,0.0,0
1582565698.156,-150.391,67.87100000000001,52.734,-181.641,0.0,0
1582565698.16,-137.695,66.895,47.363,-162.59799999999996,0.0,0
1582565698.164,-128.418,60.059,48.34,-155.762,0.0,0
1582565698.168,-111.816,59.57,41.504,-143.066,0.0,0
1582565698.1720002,-97.656,44.922,43.457,-123.047,0.0,0
1582565698.174,-95.215,29.785,32.227,-103.027,0.0,0
1582565698.178,-77.148,32.715,18.066,-85.449,0.0,0
1582565698.1820002,-54.199,44.922,13.184,-72.266,0.0,0
1582565698.186,-35.645,44.434,6.836,-52.246,0.0,0
1582565698.19,-17.578,40.039,10.254,-32.715,0.0,0
1582565698.194,-6.836,27.832,14.648,-17.09,0.0,0
1582565698.198,2.441,24.902,10.742,-17.578,0.0,0
1582565698.201,12.207,32.715,8.789,-12.207,0.0,0
1582565698.205,27.344,35.156,12.207,15.625,0.0,0
1582565698.209,41.01600000000001,38.086,8.301,36.133,0.0,0
1582565698.2129998,42.969,33.203,-6.836,40.527,0.0,0
1582565698.217,57.129,29.785,-9.277,39.551,0.0,0
1582565698.219,72.266,29.785,-7.324,57.617,0.0,0
1582565698.2229998,76.172,29.785,-11.719,76.172,0.0,0
1582565698.2270002,83.49600000000002,32.715,-18.066,75.195,0.0,0
1582565698.231,91.797,38.574,-16.113,75.684,0.0,0
1582565698.235,83.984,27.832,-16.602,78.125,0.0,0
1582565698.2389998,81.055,16.113,-26.367,85.449,0.0,0
1582565698.2429998,86.426,24.414,-20.02,96.191,0.0,0
1582565698.246,90.82,24.902,-6.836,84.473,0.0,0
1582565698.25,100.586,10.742,-3.906,86.914,0.0,0
1582565698.254,99.121,13.184,-8.789,92.285,0.0,0
1582565698.258,97.168,31.25,-18.555,92.773,0.0,0
1582565698.262,109.863,33.203,-20.02,104.98,0.0,0
1582565698.264,111.816,28.809,-17.09,104.492,0.0,0
1582565698.268,102.051,29.297,-16.113,106.934,0.0,0
1582565698.272,109.375,27.344,-13.184,113.77,0.0,0
1582565698.276,117.188,24.902,-11.719,110.352,0.0,0
1582565698.28,107.422,27.832,-6.836,101.074,0.0,0
1582565698.284,109.863,33.691,-5.859,103.516,0.0,0
1582565698.288,116.211,24.414,-13.672,108.887,0.0,0
1582565698.291,111.328,31.25,-15.625,108.887,0.0,0
1582565698.295,110.352,34.668,-17.578,110.84,0.0,0
1582565698.299,112.305,26.367,-8.301,104.492,0.0,0
1582565698.303,100.586,26.367,11.719,100.586,0.0,0
1582565698.3070002,98.145,20.02,10.742,104.98,0.0,0
1582565698.324,115.723,22.461,-2.441,104.98,0.0,0
1582565698.3279998,117.676,32.227,-11.719,102.051,0.0,0
1582565698.332,99.121,19.043,-13.672,100.098,0.0,0
1582565698.336,97.656,8.301,-11.719,107.422,0.0,0
1582565698.34,106.934,14.648,-11.23,114.258,0.0,0
1582565698.344,110.84,23.438,-18.555,107.91,0.0,0
1582565698.3479998,106.934,41.504,-20.996,106.445,0.0,0
1582565698.351,93.75,36.621,-11.23,112.305,0.0,0
1582565698.355,92.285,24.414,-2.441,101.562,0.0,0
1582565698.359,102.051,24.414,-1.465,93.75,0.0,0
1582565698.363,104.004,19.531,-9.766,98.633,0.0,0
1582565698.367,90.82,27.832,-16.602,98.633,0.0,0
1582565698.37,84.961,32.227,-17.09,90.332,0.0,0
1582565698.3739998,86.426,33.691,-16.113,77.148,0.0,0
1582565698.3779998,83.984,27.832,-6.836,73.73,0.0,0
1582565698.3820002,77.148,26.367,3.906,80.078,0.0,0
1582565698.3860002,83.008,35.645,8.789,86.426,0.0,0
1582565698.39,82.031,34.668,10.742,85.449,0.0,0
1582565698.394,73.73,28.809,2.93,74.219,0.0,0
1582565698.397,76.66,31.738000000000003,0.977,74.707,0.0,0
1582565698.401,68.848,29.297,2.441,74.707,0.0,0
1582565698.405,64.453,34.18,4.883,67.383,0.0,0
1582565698.409,67.383,50.293,12.207,65.43,0.0,0
1582565698.413,63.477,47.363,12.695,62.5,0.0,0
1582565698.414,57.617,38.086,11.23,64.453,0.0,0
1582565698.418,65.918,34.668,-1.953,67.87100000000001,0.0,0
1582565698.4220002,61.523,25.879,-3.418,53.223,0.0,0
1582565698.426,56.64100000000001,30.762,11.23,55.176,0.0,0
1582565698.43,58.594,41.504,11.23,68.359,0.0,0
1582565698.434,56.152,42.48,9.277,67.383,0.0,0
1582565698.438,66.895,32.227,10.742,56.152,0.0,0
1582565698.441,60.547,19.043,17.578,48.828,0.0,0
1582565698.445,44.434,35.156,24.414,52.246,0.0,0
1582565698.449,45.898,39.551,26.367,51.758,0.0,0
1582565698.4529998,49.316,35.645,24.414,43.457,0.0,0
1582565698.457,48.828,42.969,13.184,34.668,0.0,0
1582565698.459,44.922,39.062,0.0,41.504,0.0,0
1582565698.4629998,42.969,34.668,-1.953,49.316,0.0,0
1582565698.467,42.969,29.785,10.742,52.734,0.0,0
1582565698.471,44.434,26.367,6.836,46.875,0.0,0
1582565698.475,44.922,31.738000000000003,0.0,38.574,0.0,0
1582565698.479,44.922,27.344,7.324,44.434,0.0,0
1582565698.4829998,43.457,27.832,16.602,38.086,0.0,0
1582565698.486,42.969,43.457,16.602,27.344,0.0,0
1582565698.49,45.898,46.875,11.23,32.715,0.0,0
1582565698.494,40.039,47.852,5.859,32.715,0.0,0
1582565698.498,35.156,35.645,5.371,30.762,0.0,0
1582565698.502,41.992,39.062,13.184,36.621,0.0,0
1582565698.504,38.086,44.922,11.719,29.785,0.0,0
1582565698.508,35.156,42.48,13.184,23.438,0.0,0
1582565698.512,42.969,47.363,12.695,28.809,0.0,0
1582565698.516,40.527,23.926,18.066,28.809,0.0,0
1582565698.52,36.621,5.859,24.414,20.996,0.0,0
1582565698.524,39.062,29.297,15.137,21.484,0.0,0
1582565698.528,35.156,36.621,20.508000000000006,36.133,0.0,0
1582565698.531,27.832,34.668,15.625,29.297,0.0,0
1582565698.535,26.855,52.246,3.906,14.648,0.0,0
1582565698.539,26.855,51.758,25.879,16.113,0.0,0
1582565698.543,27.832,35.645,31.738000000000003,20.02,0.0,0
1582565698.5470002,35.645,31.738000000000003,20.02,18.555,0.0,0
1582565698.549,41.01600000000001,24.902,11.719,10.254,0.0,0
1582565698.553,38.574,29.785,11.23,8.789,0.0,0
1582565698.5570002,23.438,32.715,12.695,17.09,0.0,0
1582565698.561,11.23,31.25,8.789,10.254,0.0,0
1582565698.565,20.508000000000006,35.645,11.719,7.324,0.0,0
1582565698.569,26.367,35.156,17.578,8.789,0.0,0
1582565698.573,23.926,46.875,17.09,17.578,0.0,0
1582565698.576,22.949,52.734,12.207,22.949,0.0,0
1582565698.58,21.484,39.551,10.254,11.719,0.0,0
1582565698.584,27.344,30.762,19.043,14.648,0.0,0
1582565698.5879998,26.367,15.625,25.879,17.09,0.0,0
1582565698.592,26.855,2.441,28.809,23.438,0.0,0
1582565698.594,28.809,27.344,24.414,24.414,0.0,0
1582565698.5979998,30.762,50.293,12.695,10.254,0.0,0
1582565698.6020002,27.832,45.898,16.113,8.789,0.0,0
1582565698.606,23.438,39.551,15.137,10.742,0.0,0
1582565698.61,18.555,36.133,10.254,9.277,0.0,0
1582565698.6139998,26.367,37.598,4.883,10.742,0.0,0
1582565698.6179998,33.691,29.297,0.488,13.184,0.0,0
1582565698.621,22.461,24.414,11.719,14.16,0.0,0
1582565698.625,13.184,38.086,18.066,15.625,0.0,0
1582565698.629,3.418,29.297,9.766,12.207,0.0,0
1582565698.633,3.418,31.738000000000003,16.113,3.418,0.0,0
1582565698.637,15.137,49.805,28.32,7.324,0.0,0
1582565698.639,22.461,48.828,22.461,7.812,0.0,0
1582565698.643,19.043,30.273000000000003,10.742,-0.488,0.0,0
1582565698.647,16.602,16.113,8.789,1.953,0.0,0
1582565698.651,17.578,21.973000000000006,10.254,3.906,0.0,0
1582565698.655,17.578,31.25,12.207,8.301,0.0,0
1582565698.659,26.367,43.457,19.043,8.301,0.0,0
1582565698.663,38.086,42.969,20.02,-0.488,0.0,0
1582565698.666,40.039,39.551,11.719,1.953,0.0,0
1582565698.67,39.062,39.551,9.766,10.742,0.0,0
1582565698.674,34.18,28.809,12.695,15.137,0.0,0
1582565698.678,14.648,24.902,23.926,5.859,0.0,0
1582565698.6820002,1.953,34.668,33.203,-1.465,0.0,0
1582565698.699,3.906,36.621,30.762,13.184,0.0,0
1582565698.7029998,10.254,23.438,23.438,22.461,0.0,0
1582565698.707,12.695,30.762,23.438,11.719,0.0,0
1582565698.711,13.672,31.25,23.926,2.93,0.0,0
1582565698.715,8.301,13.184,13.184,10.742,0.0,0
1582565698.719,4.395,18.066,5.371,19.043,0.0,0
1582565698.7229998,6.348,30.273000000000003,7.324,12.207,0.0,0
1582565698.726,-1.953,26.855,20.508000000000006,-0.977,0.0,0
1582565698.73,-4.395,33.203,27.832,4.395,0.0,0
1582565698.734,4.395,42.969,25.391,7.324,0.0,2
1582565698.738,8.789,39.551,23.438,2.93,0.0,0
1582565698.742,13.184,38.574,19.043,-2.441,0.0,0
1582565698.744,7.324,25.879,19.043,3.418,0.0,0
1582565698.748,6.348,5.859,19.531,14.648,0.0,0
1582565698.752,14.648,18.555,18.066,11.719,0.0,0
1582565698.756,21.973000000000006,47.852,24.414,8.789,0.0,0
1582565698.76,25.391,59.57,25.879,9.277,0.0,0
1582565698.764,22.949,58.105,18.066,20.02,0.0,0
1582565698.768,16.602,53.223,19.531,12.207,0.0,0
1582565698.771,20.02,43.457,22.461,0.977,0.0,0
1582565698.775,16.602,33.203,20.508000000000006,9.277,0.0,0
1582565698.779,0.0,25.391,12.695,15.137,0.0,0
1582565698.783,2.441,14.648,10.742,15.625,0.0,0
1582565698.7870002,11.719,18.066,13.672,5.859,0.0,0
1582565698.789,19.531,44.922,17.578,8.301,0.0,0
1582565698.793,19.043,59.082,21.484,22.949,0.0,0
1582565698.7970002,9.766,53.223,34.668,24.902,0.0,0
1582565698.801,2.441,46.875,36.621,12.695,0.0,0
1582565698.805,13.672,31.738000000000003,20.508000000000006,7.812,0.0,0
1582565698.809,25.391,29.297,7.812,12.695,0.0,0
1582565698.813,27.832,38.086,-3.906,16.113,0.0,0
1582565698.816,23.926,30.762,-6.836,15.137,0.0,0
1582565698.82,15.137,25.879,4.883,4.395,0.0,0
1582565698.824,11.23,30.762,21.484,-2.93,0.0,0
1582565698.8279998,12.695,31.738000000000003,35.156,5.371,0.0,0
1582565698.832,12.695,26.855,34.668,11.23,0.0,0
1582565698.834,19.043,21.484,20.02,7.812,0.0,0
1582565698.8379998,27.832,18.555,15.137,4.395,0.0,0
1582565698.842,20.508000000000006,36.133,21.484,7.812,0.0,0
1582565698.846,15.137,41.992,13.672,8.789,0.0,0
1582565698.85,16.602,34.18,3.906,6.836,0.0,0
1582565698.854,15.137,42.48,11.23,-0.488,0.0,0
1582565698.8579998,13.184,49.316,20.02,0.0,0.0,0
1582565698.861,12.695,45.41,18.066,7.812,0.0,0
1582565698.865,17.09,27.832,19.531,6.836,0.0,0
1582565698.869,22.461,18.066,27.832,5.371,0.0,0
1582565698.873,23.926,26.367,24.902,11.719,0.0,0
1582565698.877,23.438,29.297,17.09,15.625,0.0,0
1582565698.879,20.508000000000006,39.551,28.809,18.066,0.0,0
1582565698.883,21.484,52.246,28.32,13.672,0.0,0
1582565698.887,31.738000000000003,46.387,15.625,7.324,0.0,0
1582565698.891,33.691,40.039,15.137,12.207,0.0,0
1582565698.895,22.461,37.598,16.602,12.695,0.0,0
1582565698.899,13.672,27.832,16.602,2.441,0.0,0
1582565698.903,9.766,34.668,26.855,-3.418,0.0,0
1582565698.906,9.766,37.598,24.414,2.441,0.0,0
1582565698.91,11.23,34.668,12.207,8.789,0.0,0
1582565698.914,21.484,20.02,17.09,16.602,0.0,0
1582565698.918,22.949,0.977,15.137,14.16,0.0,0
1582565698.9220002,11.719,2.93,3.906,9.277,0.0,0
1582565698.924,9.277,26.367,-3.418,11.719,0.0,0
1582565698.928,9.766,46.875,13.184,9.766,0.0,0
1582565698.9320002,5.859,48.34,28.809,0.0,0.0,0
1582565698.936,1.953,46.875,25.879,-2.93,0.0,0
1582565698.94,8.789,42.969,21.973000000000006,2.93,0.0,0
1582565698.944,17.09,43.945,15.625,6.836,0.0,0
1582565698.948,13.672,36.133,16.602,-3.418,0.0,0
1582565698.951,6.836,29.297,17.578,-6.348,0.0,0
1582565698.955,8.301,23.438,15.625,7.324,0.0,0
1582565698.959,7.324,31.738000000000003,19.531,11.719,0.0,0
1582565698.9629998,6.348,42.48,20.508000000000006,7.324,0.0,0
1582565698.967,7.812,44.922,26.855,4.395,0.0,0
1582565698.969,8.301,48.34,39.062,10.742,0.0,0
1582565698.9729998,12.695,34.668,30.273000000000003,21.484,0.0,0
1582565698.9770002,9.766,37.598,11.23,13.184,0.0,0
1582565698.981,17.09,39.551,21.973000000000006,9.277,0.0,0
1582565698.985,19.043,27.344,34.18,13.184,0.0,0
1582565698.9889998,18.066,32.227,29.785,21.973000000000006,0.0,0
1582565698.9929998,19.531,41.504,20.996,27.832,0.0,0
1582565698.996,19.531,41.01600000000001,7.812,16.113,0.0,0
1582565699.0,14.16,26.367,15.625,3.418,0.0,0
1582565699.004,3.906,34.18,33.691,3.418,0.0,0
1582565699.008,9.766,53.71100000000001,37.109,13.184,0.0,0
1582565699.012,19.043,43.457,22.949,15.625,0.0,0
1582565699.014,17.578,26.367,9.277,5.859,0.0,0
1582565699.018,12.207,22.949,8.789,2.441,0.0,0
1582565699.022,15.625,36.621,19.043,12.695,0.0,0
1582565699.026,24.414,51.27,27.832,14.16,0.0,0
1582565699.03,16.113,43.457,25.391,3.906,0.0,0
1582565699.034,5.859,29.785,16.113,1.465,0.0,0
1582565699.038,6.348,41.504,10.254,6.836,0.0,0
1582565699.041,11.23,42.48,13.672,8.789,0.0,0
1582565699.045,12.695,30.762,16.602,2.93,0.0,0
1582565699.049,11.719,20.996,20.996,0.0,0.0,0
1582565699.053,20.02,20.996,30.762,14.16,0.0,0
1582565699.0570002,15.625,42.48,35.645,17.09,0.0,0
1582565699.075,1.465,39.551,27.344,-1.465,0.0,0
1582565699.079,5.371,35.156,22.461,-0.488,0.0,0
1582565699.083,1.953,42.48,15.625,7.324,0.0,0
1582565699.087,3.418,31.25,21.484,2.441,0.0,0
1582565699.091,14.16,24.414,28.809,-1.465,0.0,0
1582565699.095,9.766,39.062,19.531,-7.812,0.0,0
1582565699.099,4.883,44.434,26.367,-3.418,0.0,0
1582565699.1020002,9.277,41.01600000000001,29.785,6.348,0.0,0
1582565699.106,11.23,39.062,19.531,4.883,0.0,0
1582565699.11,17.09,43.945,22.949,-1.465,0.0,0
1582565699.1139998,16.113,38.574,30.273000000000003,-1.953,0.0,0
1582565699.1179998,14.16,39.062,23.926,1.953,0.0,0
1582565699.119,17.578,45.898,10.254,3.906,0.0,0
1582565699.123,17.09,41.992,7.324,1.953,0.0,0
1582565699.127,4.883,26.855,17.09,-3.418,0.0,0
1582565699.131,-5.859,20.996,20.508000000000006,-9.766,0.0,0
1582565699.135,0.977,20.02,9.277,-5.371,0.0,0
1582565699.139,0.488,19.043,5.859,-3.906,0.0,0
1582565699.143,-11.719,30.273000000000003,20.02,-16.602,0.0,0
1582565699.146,-17.578,39.551,24.414,-19.531,0.0,0
1582565699.15,-12.695,36.621,26.855,-12.207,0.0,0
1582565699.154,-4.395,37.598,25.391,-8.789,0.0,0
1582565699.158,0.488,42.48,20.02,-6.348,0.0,0
1582565699.1620002,-4.883,31.738000000000003,18.066,-6.836,0.0,0
1582565699.164,-7.324,27.832,14.648,-6.348,0.0,0
1582565699.168,3.906,35.156,19.531,-4.883,0.0,0
1582565699.1720002,8.789,31.738000000000003,24.414,-11.719,0.0,0
1582565699.176,9.766,35.645,28.809,-6.348,0.0,0
1582565699.18,11.23,41.504,24.902,3.418,0.0,0
1582565699.184,12.207,34.668,20.02,4.883,0.0,0
1582565699.188,12.695,31.738000000000003,36.133,0.488,0.0,0
1582565699.191,13.184,27.832,46.875,1.953,0.0,0
1582565699.195,10.254,31.738000000000003,43.945,6.348,0.0,0
1582565699.199,8.301,31.25,34.668,3.418,0.0,0
1582565699.2029998,12.207,31.738000000000003,38.086,1.465,0.0,0
1582565699.207,12.207,43.457,45.898,2.441,0.0,0
1582565699.209,10.742,40.039,39.551,7.324,0.0,0
1582565699.2129998,13.184,32.227,31.738000000000003,5.371,0.0,0
1582565699.217,9.277,32.227,26.367,2.441,0.0,0
1582565699.221,4.883,35.645,27.344,-2.441,0.0,0
1582565699.225,9.766,25.391,30.762,-4.395,0.0,0
1582565699.229,16.113,17.09,29.297,7.812,0.0,0
1582565699.2329998,19.531,31.25,28.32,9.766,0.0,0
1582565699.236,13.184,38.086,28.32,-3.906,0.0,0
1582565699.24,4.395,41.504,20.996,1.465,0.0,0
1582565699.244,6.348,41.992,22.949,9.277,0.0,0
1582565699.248,2.441,22.949,32.227,-2.93,0.0,0
1582565699.252,1.953,16.602,29.297,-5.859,0.0,0
1582565699.254,13.672,42.48,21.484,-0.488,0.0,0
1582565699.258,10.742,41.504,13.184,3.906,0.0,0
1582565699.262,8.789,20.996,10.742,5.371,0.0,0
1582565699.266,6.348,24.902,21.973000000000006,-1.465,0.0,0
1582565699.27,5.859,37.598,39.062,-4.395,0.0,0
1582565699.274,9.766,33.203,33.691,-1.953,0.0,0
1582565699.278,10.742,28.809,14.16,1.953,0.0,0
1582565699.281,14.648,27.344,13.184,-3.418,0.0,0
1582565699.285,15.137,35.156,25.391,-3.418,0.0,0
1582565699.289,16.113,40.527,24.902,8.301,0.0,0
1582565699.293,18.066,32.715,17.09,11.23,0.0,0
1582565699.2970002,18.555,33.691,24.414,4.883,0.0,0
1582565699.299,16.602,30.762,20.996,-2.441,0.0,0
1582565699.303,15.625,22.461,16.602,-0.977,0.0,0
1582565699.3070002,8.789,24.902,13.184,10.742,0.0,0
1582565699.311,8.789,34.18,15.625,5.371,0.0,0
1582565699.315,11.719,27.344,29.785,-7.812,0.0,0
1582565699.319,9.766,31.25,25.391,-4.883,0.0,0
1582565699.323,5.859,48.34,20.508000000000006,1.465,0.0,0
1582565699.326,15.625,36.621,19.531,7.324,0.0,0
1582565699.33,23.926,25.879,20.508000000000006,4.883,0.0,0
1582565699.334,11.23,39.062,30.273000000000003,-12.207,0.0,0
1582565699.3379998,10.254,48.34,24.414,-11.23,0.0,0
1582565699.342,25.879,47.852,14.16,0.977,0.0,0
1582565699.344,38.086,40.527,15.625,0.488,0.0,0
1582565699.3479998,40.527,29.785,12.695,-8.789,0.0,0
1582565699.3520002,35.156,25.879,9.277,-3.418,0.0,0
1582565699.356,25.391,32.227,-1.465,-0.977,0.0,0
1582565699.36,18.066,24.414,-0.488,-4.395,0.0,0
1582565699.3639998,20.996,19.531,7.812,0.977,0.0,0
1582565699.3679998,27.832,25.391,12.695,11.719,0.0,0
1582565699.371,19.043,23.438,18.555,14.16,0.0,0
1582565699.375,9.766,34.668,23.438,10.254,0.0,0
1582565699.379,17.09,44.434,26.367,11.719,0.0,0
1582565699.383,20.02,48.34,20.508000000000006,9.766,0.0,0
1582565699.387,9.766,48.34,13.184,5.859,0.0,0
1582565699.389,8.301,43.945,13.184,8.789,0.0,0
1582565699.393,12.695,37.598,20.02,11.23,0.0,0
1582565699.397,14.16,23.926,21.484,5.371,0.0,0
1582565699.401,16.113,26.367,20.02,5.859,0.0,0
1582565699.405,18.555,36.133,20.508000000000006,15.137,0.0,0
1582565699.409,19.531,33.691,15.137,11.719,0.0,0
1582565699.413,12.207,28.809,10.742,0.488,0.0,0
1582565699.416,0.488,25.391,11.23,-4.395,0.0,0
1582565699.42,-2.441,28.809,9.766,-1.465,0.0,0
1582565699.424,-1.465,30.273000000000003,10.254,1.465,0.0,0
1582565699.428,0.0,34.18,12.207,-4.395,0.0,0
1582565699.4320002,2.441,36.621,0.977,-2.93,0.0,0
1582565699.449,5.859,31.738000000000003,-1.465,9.277,0.0,0
1582565699.4529998,10.742,31.25,13.184,15.137,0.0,0
1582565699.457,5.371,29.785,14.648,3.418,0.0,0
1582565699.461,-4.395,25.391,16.113,-7.324,0.0,0
1582565699.465,-1.465,24.902,30.273000000000003,0.488,0.0,0
1582565699.469,1.465,27.344,28.32,8.301,0.0,0
1582565699.4729998,3.418,22.949,12.695,-8.789,0.0,0
1582565699.476,7.324,28.32,8.789,-9.277,0.0,0
1582565699.48,5.859,28.809,4.395,3.418,0.0,0
1582565699.484,8.789,22.461,10.742,3.418,0.0,0
1582565699.488,7.812,22.949,18.066,-0.488,0.0,0
1582565699.492,9.277,26.855,15.625,-10.254,0.0,0
1582565699.494,11.23,33.203,12.695,-5.371,0.0,0
1582565699.498,3.906,33.691,7.324,2.93,0.0,0
1582565699.502,8.789,37.109,10.742,4.395,0.0,0
1582565699.506,10.742,33.203,16.602,1.465,0.0,0
1582565699.51,11.23,20.508000000000006,19.531,-11.23,0.0,0
1582565699.514,16.602,14.16,22.949,-7.812,0.0,0
1582565699.518,12.207,22.949,9.766,2.93,0.0,0
1582565699.521,16.113,37.109,-4.395,-0.488,0.0,0
1582565699.525,25.879,39.062,3.418,-1.953,0.0,0
1582565699.529,19.531,28.809,10.742,1.465,0.0,0
1582565699.533,7.812,20.996,12.695,1.953,0.0,0
1582565699.5370002,11.23,24.414,17.578,3.418,0.0,0
1582565699.539,14.648,36.133,24.902,0.488,0.0,0
1582565699.543,10.742,41.504,24.414,-3.906,0.0,0
1582565699.5470002,3.418,31.25,18.066,-5.371,0.0,0
1582565699.551,3.418,27.832,17.09,-2.93,0.0,0
1582565699.555,13.184,34.18,11.23,4.883,0.0,0
1582565699.559,11.719,29.297,5.859,-3.418,0.0,0
1582565699.563,17.09,23.438,16.602,-3.418,0.0,0
1582565699.566,24.414,29.785,15.625,-1.953,0.0,0
1582565699.57,22.461,32.227,5.859,-8.301,0.0,0
1582565699.574,17.09,26.367,14.648,-0.977,0.0,0
1582565699.5779998,10.254,30.273000000000003,18.555,7.324,0.0,0
1582565699.582,0.0,29.785,10.742,4.395,0.0,0
1582565699.584,-2.441,23.438,1.953,3.906,0.0,0
1582565699.5879998,3.906,20.02,-3.906,2.441,0.0,0
1582565699.592,9.766,35.645,4.883,3.418,0.0,0
1582565699.596,14.648,41.992,15.137,7.812,0.0,0
1582565699.6,19.043,25.391,19.531,6.348,0.0,0
1582565699.604,7.324,24.902,7.812,-10.254,0.0,0
1582565699.6079998,0.0,36.621,3.906,-8.789,0.0,0
1582565699.611,-3.906,45.41,6.348,-1.953,0.0,0
1582565699.615,3.906,43.457,5.859,-4.883,0.0,0
1582565699.619,20.02,29.297,10.742,-0.977,0.0,0
1582565699.623,11.23,13.184,16.602,2.441,0.0,0
1582565699.627,0.488,14.16,14.648,2.93,0.0,0
1582565699.629,6.348,29.297,11.23,5.371,0.0,0
1582565699.633,2.441,34.18,15.625,2.93,0.0,0
1582565699.637,0.0,28.32,19.043,1.953,0.0,0
1582565699.641,2.93,28.32,11.23,5.859,0.0,0
1582565699.645,-2.441,27.344,10.742,-4.395,0.0,0
1582565699.649,-1.953,31.25,11.23,-3.906,0.0,0
1582565699.653,8.789,38.086,1.953,7.812,0.0,0
1582565699.656,11.719,41.01600000000001,6.836,8.789,0.0,0
1582565699.66,-4.395,28.809,20.02,0.488,0.0,0
1582565699.664,-2.441,21.484,23.438,-15.137,0.0,0
1582565699.668,12.207,26.855,24.902,-15.137,0.0,0
1582565699.6720002,0.488,18.555,32.227,-6.836,0.0,0
1582565699.674,-6.348,18.555,24.414,0.0,0.0,0
1582565699.678,-0.977,24.902,12.695,1.953,0.0,0
1582565699.6820002,6.836,31.738000000000003,13.184,-4.883,0.0,0
1582565699.686,4.883,38.086,16.113,-3.906,0.0,0
1582565699.69,-2.93,38.086,17.578,6.348,0.0,0
1582565699.694,11.23,42.48,13.184,17.09,0.0,0
1582565699.698,19.043,34.668,12.695,9.277,0.0,0
1582565699.701,3.418,18.555,24.902,-13.184,0.0,0
1582565699.705,-1.465,23.438,31.738000000000003,-8.301,0.0,0
1582565699.709,2.441,31.25,26.367,4.395,0.0,0
1582565699.7129998,-0.488,25.391,21.973000000000006,0.488,0.0,0
1582565699.717,5.859,27.832,20.996,0.488,0.0,0
1582565699.719,7.324,23.926,22.949,-2.441,0.0,0
1582565699.7229998,1.953,28.809,21.484,7.324,0.0,0
1582565699.7270002,18.555,40.527,16.602,18.066,0.0,0
1582565699.731,26.367,42.969,18.066,11.23,0.0,0
1582565699.735,19.531,40.039,10.254,8.301,0.0,0
1582565699.7389998,18.066,30.273000000000003,6.348,16.602,0.0,0
1582565699.7429998,14.648,22.461,21.484,18.555,0.0,0
1582565699.746,6.348,35.156,20.996,1.953,0.0,0
1582565699.75,7.324,45.898,21.484,4.395,0.0,0
1582565699.754,17.578,39.551,34.18,13.672,0.0,0
1582565699.758,20.508000000000006,33.691,40.039,13.184,0.0,0
1582565699.762,12.695,29.785,30.273000000000003,17.09,0.0,0
1582565699.764,6.348,25.391,17.578,10.254,0.0,0
1582565699.768,3.906,30.273000000000003,22.949,12.207,0.0,0
1582565699.772,7.324,39.062,27.344,12.207,0.0,0
1582565699.776,6.348,41.01600000000001,9.766,-0.488,0.0,0
1582565699.78,8.789,39.551,8.301,-6.836,0.0,0
1582565699.784,8.789,38.086,26.367,-3.906,0.0,0
1582565699.788,9.766,35.156,30.762,4.395,0.0,0
1582565699.791,11.719,36.133,27.344,3.906,0.0,0
1582565699.795,11.23,32.715,24.902,1.953,0.0,0
1582565699.799,6.348,18.066,27.832,1.465,0.0,0
1582565699.803,7.324,16.602,28.32,8.789,0.0,0
1582565699.8070002,19.531,31.738000000000003,34.18,20.508000000000006,0.0,0
1582565699.824,16.602,35.645,41.01600000000001,17.09,0.0,0
1582565699.8279998,11.719,35.156,20.02,5.371,0.0,0
1582565699.832,11.23,37.598,6.836,9.277,0.0,0
1582565699.836,12.695,42.48,17.578,15.137,0.0,0
1582565699.84,16.602,40.039,26.367,8.301,0.0,0
1582565699.844,18.066,38.086,29.785,0.488,0.0,0
1582565699.8479998,20.996,32.715,28.32,7.812,0.0,0
1582565699.851,13.184,15.137,31.738000000000003,22.461,0.0,0
1582565699.855,11.23,28.809,30.273000000000003,22.949,0.0,0
1582565699.859,22.949,29.297,30.273000000000003,12.207,0.0,0
1582565699.863,22.461,24.902,30.762,6.836,0.0,0
1582565699.867,14.648,51.758,15.625,9.277,0.0,0
1582565699.8679998,11.23,52.734,9.766,0.488,0.0,0
1582565699.8720002,12.695,45.898,12.695,-3.906,0.0,0
1582565699.8760002,15.137,40.527,14.648,0.488,0.0,0
1582565699.88,18.555,27.832,24.414,4.395,0.0,1
1582565699.8839998,17.578,27.344,30.762,9.277,0.0,0
1582565699.8879998,13.184,29.785,24.414,6.836,0.0,0
1582565699.8920002,13.672,32.227,13.184,-0.488,0.0,0
1582565699.895,18.555,31.738000000000003,10.254,3.418,0.0,0
1582565699.899,25.391,25.879,14.648,11.719,0.0,0
1582565699.903,27.344,24.902,19.043,8.301,0.0,0
1582565699.907,24.414,38.086,18.066,-1.953,0.0,0
1582565699.911,17.09,41.992,4.883,2.441,0.0,0
1582565699.914,7.812,41.504,-2.93,6.836,0.0,0
1582565699.918,4.395,41.01600000000001,7.812,-4.395,0.0,0
1582565699.9220002,7.812,29.297,15.625,-4.883,0.0,0
1582565699.926,17.578,26.855,21.484,9.766,0.0,0
1582565699.93,24.902,29.297,16.113,9.277,0.0,0
1582565699.934,24.414,33.203,8.301,6.836,0.0,0
1582565699.938,31.25,46.387,15.625,7.324,0.0,0
1582565699.941,23.438,34.668,22.949,-4.395,0.0,0
1582565699.945,10.742,23.926,24.902,6.836,0.0,0
1582565699.949,22.949,38.086,11.719,26.855,0.0,0
1582565699.9529998,18.066,44.434,-1.953,10.254,0.0,0
1582565699.957,0.0,37.598,6.348,-9.766,0.0,0
1582565699.959,-7.324,29.297,19.531,-2.93,0.0,0
1582565699.9629998,-0.977,33.691,32.715,8.789,0.0,0
1582565699.967,0.488,29.297,45.41,4.883,0.0,0
1582565699.971,2.441,29.297,56.64100000000001,-0.488,0.0,0
1582565699.975,5.371,36.133,59.57,3.906,0.0,0
1582565699.979,7.324,35.645,61.523,13.672,0.0,0
1582565699.9829998,14.16,30.273000000000003,63.965,16.602,0.0,0
1582565699.986,12.207,17.578,59.082,9.766,0.0,0
1582565699.99,11.23,7.812,54.688,13.672,0.0,0
1582565699.994,13.672,16.602,31.738000000000003,16.602,0.0,0
1582565699.998,20.02,29.297,23.438,15.137,0.0,0
1582565700.002,21.973000000000006,34.668,43.945,16.602,0.0,0
1582565700.004,11.719,34.18,59.082,10.254,0.0,0
1582565700.008,6.836,37.598,61.035,8.789,0.0,0
1582565700.012,7.324,45.41,52.246,12.207,0.0,0
1582565700.016,9.766,47.363,43.945,13.184,0.0,0
1582565700.02,12.695,41.01600000000001,46.875,14.16,0.0,0
1582565700.024,11.719,39.551,50.293,12.695,0.0,0
1582565700.028,3.418,35.645,45.898,12.695,0.0,0
1582565700.031,0.977,25.391,34.668,4.395,0.0,0
1582565700.035,4.395,25.879,24.414,-7.324,0.0,0
1582565700.039,15.137,26.855,21.973000000000006,5.859,0.0,0
1582565700.043,22.461,5.859,19.043,13.672,0.0,0
1582565700.0470002,31.738000000000003,3.418,21.973000000000006,8.789,0.0,0
1582565700.049,42.48,15.137,25.879,6.348,0.0,0
1582565700.053,30.273000000000003,38.574,24.414,0.0,0.0,0
1582565700.0570002,18.555,57.617,39.062,6.348,0.0,0
1582565700.061,7.812,45.41,43.945,12.695,0.0,0
1582565700.065,0.0,39.062,35.645,12.695,0.0,0
1582565700.069,2.93,32.227,29.297,6.348,0.0,0
1582565700.073,3.418,23.438,25.391,1.953,0.0,0
1582565700.076,0.0,24.902,29.785,2.93,0.0,0
1582565700.08,1.465,29.785,30.762,-3.906,0.0,0
1582565700.084,2.93,28.809,33.203,-6.348,0.0,0
1582565700.0879998,-4.395,32.227,25.879,-5.859,0.0,0
1582565700.092,3.418,25.391,16.113,5.859,0.0,0
1582565700.094,13.184,13.672,16.113,9.277,0.0,0
1582565700.0979998,7.812,28.809,20.02,-2.93,0.0,0
1582565700.1020002,4.395,47.852,28.809,5.859,0.0,0
1582565700.106,3.418,45.41,34.18,10.742,0.0,0
1582565700.11,-0.977,37.109,24.902,4.395,0.0,0
1582565700.1139998,1.465,36.621,20.996,3.418,0.0,0
1582565700.1179998,3.418,43.457,23.926,5.859,0.0,0
1582565700.121,-2.441,50.293,27.344,8.301,0.0,0
1582565700.125,4.883,49.316,32.715,5.859,0.0,0
1582565700.129,18.066,32.227,20.996,13.184,0.0,0
1582565700.133,20.508000000000006,24.902,17.578,10.742,0.0,0
1582565700.137,15.137,35.645,28.809,3.418,0.0,0
1582565700.139,10.254,40.527,18.555,12.695,0.0,0
1582565700.143,13.672,43.457,24.414,11.719,0.0,0
1582565700.147,9.277,33.691,28.32,0.0,0.0,0
1582565700.151,8.301,27.832,20.508000000000006,0.488,0.0,0
1582565700.155,21.484,31.738000000000003,29.785,15.137,0.0,0
1582565700.159,22.949,39.551,33.691,21.484,0.0,0
1582565700.163,16.113,41.01600000000001,25.391,8.301,0.0,0
1582565700.166,19.043,37.109,20.02,-4.395,0.0,0
1582565700.17,22.461,46.875,21.973000000000006,-0.488,0.0,0
1582565700.174,20.02,46.875,20.02,-1.953,0.0,0
1582565700.178,20.02,39.551,18.066,-8.789,0.0,0
1582565700.1820002,19.531,36.133,22.461,-7.812,0.0,0
1582565700.199,15.137,37.109,11.719,-2.93,0.0,0
1582565700.2029998,16.602,30.762,8.789,6.348,0.0,0
1582565700.207,20.508000000000006,33.203,22.949,5.371,0.0,0
1582565700.211,21.484,41.01600000000001,29.785,3.906,0.0,0
1582565700.215,20.02,35.156,23.926,7.324,0.0,0
1582565700.219,22.461,23.926,11.719,10.742,0.0,0
1582565700.2229998,25.391,30.762,11.719,11.23,0.0,0
1582565700.226,23.438,44.922,13.672,0.977,0.0,0
1582565700.23,20.508000000000006,39.062,25.391,5.371,0.0,0
1582565700.234,19.531,26.855,30.273000000000003,8.789,0.0,0
1582565700.238,11.719,31.738000000000003,22.949,0.0,0.0,0
1582565700.242,11.719,38.086,20.508000000000006,-1.465,0.0,0
1582565700.245,19.043,37.109,13.184,2.441,0.0,0
1582565700.2489998,14.648,38.086,17.09,3.906,0.0,0
1582565700.2529998,16.113,41.01600000000001,27.344,3.906,0.0,0
1582565700.2570002,14.648,29.785,24.902,-3.418,0.0,0
1582565700.2610002,1.953,18.066,20.508000000000006,-11.719,0.0,0
1582565700.265,3.906,29.785,19.043,-1.953,0.0,0
1582565700.269,2.93,40.039,16.113,4.883,0.0,0
1582565700.272,2.93,28.32,13.672,-0.977,0.0,0
1582565700.276,16.602,21.484,0.977,-1.465,0.0,0
1582565700.28,19.043,36.621,-4.883,-0.488,0.0,0
1582565700.284,9.766,38.086,5.859,-4.395,0.0,0
1582565700.288,4.395,37.598,24.902,-6.348,0.0,0
1582565700.289,7.324,39.551,35.156,-4.883,0.0,0
1582565700.293,6.836,41.01600000000001,30.762,1.465,0.0,0
1582565700.2970002,-1.465,35.156,19.043,6.836,0.0,0
1582565700.301,8.301,32.227,16.602,12.207,0.0,0
1582565700.305,22.949,36.133,25.391,15.137,0.0,0
1582565700.309,13.184,31.25,23.438,5.371,0.0,0
1582565700.313,3.906,29.785,15.137,4.395,0.0,0
1582565700.316,5.371,26.367,8.301,11.23,0.0,0
1582565700.32,9.277,33.203,13.184,5.859,0.0,0
1582565700.324,7.324,30.273000000000003,22.949,0.977,0.0,0
1582565700.3279998,7.812,24.902,24.902,6.348,0.0,0
1582565700.332,4.883,37.598,23.926,10.254,0.0,0
1582565700.334,4.395,42.969,27.344,6.348,0.0,0
1582565700.3379998,8.301,36.621,32.227,2.441,0.0,0
1582565700.342,17.09,33.203,39.551,8.789,0.0,0
1582565700.346,16.602,35.645,26.367,11.23,0.0,0
1582565700.35,9.766,42.48,11.23,3.418,0.0,0
1582565700.354,5.859,33.691,19.043,-0.488,0.0,0
1582565700.3579998,4.883,22.461,12.695,-1.465,0.0,0
1582565700.361,-1.953,26.855,4.395,0.488,0.0,0
1582565700.365,-5.371,32.715,12.207,1.465,0.0,0
1582565700.369,8.789,29.785,20.996,-7.812,0.0,0
1582565700.373,8.789,22.949,31.25,-16.602,0.0,0
1582565700.377,0.0,32.227,34.668,-2.441,0.0,0
1582565700.379,2.441,35.645,18.066,5.371,0.0,0
1582565700.383,9.277,34.668,15.625,-5.859,0.0,0
1582565700.387,18.066,39.062,25.391,-2.93,0.0,0
1582565700.391,10.254,31.738000000000003,26.367,3.906,0.0,0
1582565700.395,0.977,24.902,17.09,2.93,0.0,0
1582565700.399,-2.441,26.367,11.23,-3.418,0.0,0
1582565700.403,-2.441,37.598,23.926,-19.531,0.0,0
1582565700.406,-3.906,39.062,26.855,-23.926,0.0,0
1582565700.41,1.465,38.086,16.602,-3.418,0.0,0
1582565700.414,8.789,48.828,21.973000000000006,5.859,0.0,0
1582565700.418,0.0,54.688,19.043,-9.277,0.0,0
1582565700.4220002,0.977,46.875,6.348,-5.371,0.0,0
1582565700.424,6.836,28.32,12.207,4.395,0.0,0
1582565700.428,15.137,32.227,24.902,5.371,0.0,0
1582565700.4320002,19.531,41.01600000000001,25.879,-0.977,0.0,0
1582565700.436,12.207,38.574,18.555,-8.789,0.0,0
1582565700.44,7.812,40.039,19.531,-6.836,0.0,0
1582565700.444,-1.465,35.156,17.09,-2.441,0.0,0
1582565700.448,7.324,17.09,16.113,1.953,0.0,0
1582565700.451,10.254,17.578,13.672,-1.953,0.0,0
1582565700.455,7.812,30.273000000000003,19.043,0.0,0.0,0
1582565700.459,10.742,38.086,23.438,0.0,0.0,0
1582565700.4629998,8.789,46.875,13.184,-0.977,0.0,0
1582565700.467,10.742,33.203,12.695,-3.906,0.0,0
1582565700.47,7.812,27.344,20.996,-4.883,0.0,0
1582565700.474,6.348,42.969,15.625,0.0,0.0,0
1582565700.478,9.766,41.01600000000001,14.16,0.0,0.0,0
1582565700.482,7.324,28.809,24.902,-5.371,0.0,0
1582565700.486,-0.488,18.066,26.367,-4.395,0.0,0
1582565700.49,4.395,20.508000000000006,26.855,13.184,0.0,0
1582565700.494,15.625,27.832,30.762,15.137,0.0,0
1582565700.4970002,19.531,24.902,25.391,6.836,0.0,0
1582565700.5010002,14.16,23.926,28.809,6.836,0.0,0
1582565700.505,7.324,35.156,29.297,11.23,0.0,0
1582565700.5089998,20.508000000000006,46.875,13.672,19.531,0.0,0
1582565700.5129998,19.531,44.434,8.789,13.184,0.0,0
1582565700.514,1.953,30.762,22.949,-2.441,0.0,0
1582565700.518,4.395,28.809,32.715,0.0,0.0,0
1582565700.522,3.906,33.203,23.926,6.348,0.0,0
1582565700.526,6.348,30.762,19.043,5.859,0.0,0
1582565700.53,7.324,31.738000000000003,4.395,7.812,0.0,0
1582565700.534,0.0,22.949,-0.488,2.93,0.0,0
1582565700.538,3.418,21.484,11.719,-0.977,0.0,0
1582565700.541,6.348,35.156,14.648,0.488,0.0,0
1582565700.545,12.695,40.039,17.09,-4.883,0.0,0
1582565700.549,19.043,41.992,12.207,-7.812,0.0,0
1582565700.553,11.23,42.48,12.207,-3.906,0.0,0
1582565700.5570002,6.348,39.062,14.648,-1.465,0.0,0
1582565700.574,19.531,26.855,16.602,4.395,0.0,0
1582565700.5779998,16.602,24.902,28.809,0.488,0.0,0
1582565700.582,6.348,35.645,29.297,0.977,0.0,0
1582565700.586,16.602,35.645,24.902,9.277,0.0,0
1582565700.59,25.879,33.691,18.066,12.695,0.0,0
1582565700.594,26.367,27.832,6.348,12.207,0.0,0
1582565700.5979998,18.066,26.367,13.672,6.348,0.0,0
1582565700.601,9.766,37.598,32.227,1.953,0.0,0
1582565700.605,11.719,41.992,35.156,0.0,0.0,0
1582565700.609,10.742,43.945,26.367,-6.348,0.0,0
1582565700.613,6.836,42.48,24.902,-9.277,0.0,0
1582565700.617,12.207,37.109,14.648,3.418,0.0,0
1582565700.62,16.602,34.668,11.23,10.254,0.0,0
1582565700.6239998,26.367,32.715,30.273000000000003,-0.977,0.0,0
1582565700.6279998,23.438,27.344,37.109,-5.371,0.0,0
1582565700.6320002,12.207,29.785,34.18,-3.418,0.0,0
1582565700.6360002,8.301,21.973000000000006,23.438,0.0,0.0,0
1582565700.64,3.418,14.16,14.16,0.977,0.0,0
1582565700.644,2.93,28.32,10.742,-8.789,0.0,0
1582565700.647,-3.418,32.715,13.672,-6.836,0.0,0
1582565700.651,-4.883,31.738000000000003,24.902,-4.883,0.0,0
1582565700.655,-2.93,32.715,26.367,-13.672,0.0,0
1582565700.659,-3.418,21.973000000000006,28.32,-16.602,0.0,0
1582565700.663,-4.883,30.762,23.438,-11.719,0.0,0
1582565700.664,-0.977,48.828,-1.465,-2.441,0.0,0
1582565700.668,6.348,47.852,7.812,-0.488,0.0,0
1582565700.6720002,7.324,26.367,24.902,-8.789,0.0,0
1582565700.676,8.301,13.184,13.184,-10.742,0.0,0
1582565700.68,4.395,28.809,9.277,-0.977,0.0,0
1582565700.684,0.0,44.922,19.043,12.695,0.0,0
1582565700.688,1.953,52.246,20.02,3.418,0.0,0
1582565700.691,-0.488,50.293,20.508000000000006,-6.836,0.0,0
1582565700.695,2.441,42.48,31.738000000000003,6.836,0.0,0
1582565700.699,12.207,42.48,33.691,7.812,0.0,0
1582565700.7029998,17.09,44.922,28.809,-0.488,0.0,0
1582565700.707,6.836,34.18,29.785,0.977,0.0,0
1582565700.709,2.441,29.785,23.438,8.789,0.0,0
1582565700.7129998,9.766,36.621,10.254,11.23,0.0,0
1582565700.717,15.137,39.551,6.836,2.441,0.0,0
1582565700.721,8.301,36.133,16.602,-4.883,0.0,0
1582565700.725,1.465,33.203,31.25,-9.766,0.0,0
1582565700.729,5.371,29.785,25.391,-0.977,0.0,0
1582565700.7329998,10.254,28.32,10.254,-0.488,0.0,0
1582565700.736,13.184,36.133,15.625,-12.695,0.0,0
1582565700.74,21.973000000000006,43.945,30.273000000000003,-8.789,0.0,0
1582565700.744,24.414,43.457,35.156,-2.441,0.0,0
1582565700.748,25.879,36.621,30.762,-7.812,0.0,0
1582565700.752,27.832,29.785,20.02,-12.207,0.0,0
1582565700.754,21.484,37.598,11.23,-2.441,0.0,0
1582565700.758,10.742,40.527,18.555,6.348,0.0,0
1582565700.762,-2.441,37.109,27.832,5.371,0.0,0
1582565700.766,8.301,50.78100000000001,22.949,4.395,0.0,0
1582565700.77,29.297,49.316,26.367,9.766,0.0,0
1582565700.774,16.602,19.531,23.438,10.742,0.0,0
1582565700.778,-2.93,18.555,14.16,0.977,0.0,0
1582565700.781,5.371,41.504,6.836,2.441,0.0,0
1582565700.785,14.648,45.898,4.883,6.836,0.0,0
1582565700.789,4.883,35.645,25.391,1.465,0.0,0
1582565700.793,3.906,36.621,23.926,6.836,0.0,0
1582565700.7970002,4.395,48.34,8.301,9.277,0.0,0
1582565700.799,8.789,44.434,19.531,4.395,0.0,0
1582565700.803,13.184,34.668,28.32,1.465,0.0,0
1582565700.8070002,11.719,30.762,24.414,7.812,0.0,0
1582565700.811,11.23,19.043,23.438,16.113,0.0,0
1582565700.815,10.254,23.926,23.438,15.625,0.0,0
1582565700.819,12.695,43.945,20.02,12.207,0.0,0
1582565700.823,7.324,41.504,21.973000000000006,10.254,0.0,0
1582565700.826,0.0,37.109,24.414,10.254,0.0,0
1582565700.83,5.371,38.086,20.508000000000006,8.301,0.0,0
1582565700.834,5.371,36.621,12.695,0.488,0.0,0
1582565700.8379998,1.465,33.691,15.137,2.93,0.0,0
1582565700.842,5.371,27.344,16.602,9.766,0.0,0
1582565700.843,5.371,21.484,26.855,1.465,0.0,0
1582565700.847,5.859,28.32,37.598,-10.742,0.0,0
1582565700.851,13.184,36.621,33.203,5.859,0.0,0
1582565700.855,8.789,38.086,20.02,19.531,0.0,0
1582565700.859,-1.953,40.527,7.812,3.418,0.0,0
1582565700.863,-1.465,33.691,14.648,-3.418,0.0,0
1582565700.867,12.695,29.785,24.414,2.441,0.0,0
1582565700.87,15.625,39.551,25.391,1.953,0.0,0
1582565700.8739998,13.184,32.227,20.02,2.441,0.0,0
1582565700.8779998,11.23,18.555,20.996,-1.953,0.0,0
1582565700.8820002,12.207,27.832,24.902,1.465,0.0,0
1582565700.8860002,13.184,43.945,26.367,10.742,0.0,0
1582565700.889,9.277,47.852,26.367,16.602,0.0,0
1582565700.893,14.16,42.48,20.508000000000006,11.719,0.0,0
1582565700.897,22.461,36.133,20.02,11.23,0.0,0
1582565700.901,16.602,24.902,20.508000000000006,15.137,0.0,0
1582565700.905,8.789,21.484,15.137,6.348,0.0,0
1582565700.909,13.672,31.25,9.277,3.906,0.0,0
1582565700.913,13.672,25.391,2.93,1.953,0.0,0
1582565700.916,14.16,15.625,15.625,-1.953,0.0,0
1582565700.92,15.137,24.414,34.18,-1.465,0.0,0
1582565700.924,17.578,37.598,32.227,1.465,0.0,0
1582565700.928,17.09,47.363,20.508000000000006,-3.906,0.0,0
1582565700.9320002,18.066,50.293,20.996,-2.441,0.0,2
1582565700.949,23.438,43.945,22.949,8.301,0.0,0
1582565700.9529998,19.043,39.062,23.926,9.766,0.0,0
1582565700.957,20.996,41.01600000000001,20.02,11.23,0.0,0
1582565700.961,21.973000000000006,30.762,6.836,8.789,0.0,0
1582565700.965,19.531,20.508000000000006,7.812,9.766,0.0,0
1582565700.969,18.066,10.254,0.0,6.348,0.0,0
1582565700.9729998,21.484,14.16,-7.324,-1.465,0.0,0
1582565700.976,23.438,42.48,14.648,-6.836,0.0,0
1582565700.98,17.09,60.059,29.785,-4.395,0.0,0
1582565700.984,9.766,51.27,27.344,2.441,0.0,0
1582565700.988,16.113,45.41,20.02,-0.488,0.0,0
1582565700.992,33.203,39.062,11.719,-1.465,0.0,0
1582565700.994,28.809,31.25,12.695,-4.395,0.0,0
1582565700.998,13.184,33.203,18.555,1.953,0.0,0
1582565701.002,5.859,32.227,18.066,4.883,0.0,0
1582565701.006,7.812,22.461,20.996,-1.465,0.0,0
1582565701.01,11.23,21.973000000000006,24.414,2.441,0.0,0
1582565701.014,9.277,39.551,8.301,5.859,0.0,0
1582565701.018,10.742,43.457,10.742,12.695,0.0,0
1582565701.021,8.789,30.762,29.785,11.23,0.0,0
1582565701.025,14.648,37.598,35.156,17.09,0.0,0
1582565701.029,24.414,43.945,30.762,26.367,0.0,0
1582565701.033,16.602,29.297,16.602,20.996,0.0,0
1582565701.0370002,12.695,16.113,14.16,10.742,0.0,0
1582565701.039,19.043,3.418,30.762,5.371,0.0,0
1582565701.043,13.184,13.672,36.621,4.395,0.0,0
1582565701.0470002,4.395,31.25,31.25,7.324,0.0,0
1582565701.051,5.859,31.738000000000003,20.508000000000006,8.789,0.0,0
1582565701.055,12.695,34.18,14.16,14.648,0.0,0
1582565701.059,14.648,47.852,21.484,16.113,0.0,0
1582565701.063,15.137,41.504,21.484,13.184,0.0,0
1582565701.066,10.742,26.367,18.555,6.348,0.0,0
1582565701.07,18.066,33.691,26.367,4.883,0.0,0
1582565701.074,22.461,33.691,32.715,6.836,0.0,0
1582565701.0779998,3.418,26.855,29.297,0.488,0.0,0
1582565701.082,0.0,34.18,20.02,1.465,0.0,0
1582565701.084,6.836,40.039,11.23,-4.883,0.0,0
1582565701.0879998,7.324,33.691,7.812,-4.883,0.0,0
1582565701.092,7.324,35.156,12.207,5.859,0.0,0
1582565701.096,11.23,40.039,20.996,8.789,0.0,0
1582565701.1,16.113,43.457,16.602,4.883,0.0,0
1582565701.104,7.812,41.01600000000001,17.578,-3.418,0.0,0
1582565701.1079998,3.906,28.809,31.25,-1.953,0.0,0
1582565701.111,14.648,13.672,30.762,5.859,0.0,0
1582565701.115,25.391,3.906,23.438,11.23,0.0,0
1582565701.119,22.461,19.043,13.672,11.23,0.0,0
1582565701.123,17.578,41.992,15.137,12.207,0.0,0
1582565701.127,12.207,43.457,6.836,12.695,0.0,0
1582565701.129,9.766,51.27,0.0,17.09,0.0,0
1582565701.133,6.348,56.152,17.09,5.371,0.0,0
1582565701.137,0.977,46.387,31.738000000000003,-1.465,0.0,0
1582565701.141,10.742,34.668,33.691,8.789,0.0,0
1582565701.145,17.09,33.691,24.414,8.789,0.0,0
1582565701.149,21.484,40.039,23.438,2.93,0.0,0
1582565701.153,16.602,28.32,27.344,-2.93,0.0,0
1582565701.156,14.16,17.578,21.973000000000006,7.324,0.0,0
1582565701.16,20.02,24.902,10.742,16.602,0.0,0
1582565701.164,14.16,28.32,9.766,12.695,0.0,0
1582565701.168,3.906,38.574,16.113,0.488,0.0,0
1582565701.1720002,1.465,53.71100000000001,21.484,0.0,0.0,0
1582565701.174,20.996,60.059,19.531,20.508000000000006,0.0,0
1582565701.178,22.949,47.363,17.578,11.719,0.0,0
1582565701.1820002,17.09,32.227,11.719,-7.812,0.0,0
1582565701.186,22.949,33.691,18.066,5.859,0.0,0
1582565701.19,19.531,42.48,23.926,16.602,0.0,0
1582565701.194,26.367,44.922,18.066,14.16,0.0,0
1582565701.198,31.738000000000003,28.809,7.324,6.836,0.0,0
1582565701.201,26.855,32.715,3.418,6.348,0.0,0
1582565701.205,23.926,34.668,20.508000000000006,15.625,0.0,0
1582565701.209,24.902,42.48,20.02,18.555,0.0,0
1582565701.2129998,38.574,66.406,4.883,21.484,0.0,0
1582565701.217,39.551,60.547,9.766,19.043,0.0,0
1582565701.219,16.602,41.992,23.926,13.672,0.0,0
1582565701.2229998,-0.488,25.879,32.227,9.766,0.0,0
1582565701.2270002,0.977,22.949,32.227,12.207,0.0,0
1582565701.231,9.766,29.297,26.855,19.531,0.0,0
1582565701.235,8.789,28.809,17.578,11.23,0.0,0
1582565701.2389998,2.441,27.832,12.695,4.883,0.0,0
1582565701.2429998,13.672,31.25,20.508000000000006,7.812,0.0,0
1582565701.246,17.09,17.578,13.672,6.348,0.0,0
1582565701.25,14.16,7.324,-0.488,5.371,0.0,0
1582565701.254,17.09,16.602,8.789,12.695,0.0,0
1582565701.258,20.508000000000006,41.992,24.414,19.531,0.0,0
1582565701.262,20.996,54.199,32.715,7.812,0.0,0
1582565701.265,9.766,46.387,31.738000000000003,-3.906,0.0,0
1582565701.269,6.348,44.434,21.484,0.488,0.0,0
1582565701.2729998,13.184,44.922,17.09,12.207,0.0,0
1582565701.2770002,20.996,48.34,18.555,11.719,0.0,0
1582565701.281,19.043,46.387,18.066,-1.465,0.0,0
1582565701.285,14.648,43.457,9.766,-1.953,0.0,0
1582565701.289,8.301,27.832,8.301,-1.953,0.0,0
1582565701.292,8.301,13.672,10.254,-5.371,0.0,0
1582565701.296,14.648,15.625,13.184,-3.418,0.0,0
1582565701.3,12.695,20.508000000000006,20.02,-0.488,0.0,0
1582565701.304,17.09,41.01600000000001,25.879,8.789,0.0,0
1582565701.3079998,22.461,56.152,24.902,12.695,0.0,0
1582565701.324,20.508000000000006,47.363,23.926,2.93,0.0,0
1582565701.3279998,21.973000000000006,42.48,26.367,3.906,0.0,0
1582565701.332,14.16,40.527,16.602,1.953,0.0,0
1582565701.336,1.953,31.25,4.395,-6.348,0.0,0
1582565701.34,15.625,22.949,11.23,2.93,0.0,0
1582565701.344,20.996,19.531,14.648,-2.441,0.0,0
1582565701.3479998,17.09,21.484,10.742,3.418,0.0,0
1582565701.351,21.484,32.227,22.949,12.207,0.0,0
1582565701.355,22.461,51.27,32.715,5.859,0.0,0
1582565701.359,21.973000000000006,49.805,27.344,4.395,0.0,0
1582565701.363,15.625,42.969,30.762,5.371,0.0,0
1582565701.367,11.719,48.828,38.086,10.742,0.0,0
1582565701.369,14.16,46.387,25.391,1.953,0.0,0
1582565701.373,9.277,48.34,10.742,-7.812,0.0,0
1582565701.377,3.418,36.621,10.742,-10.742,0.0,0
1582565701.381,5.859,20.508000000000006,9.277,-6.348,0.0,0
1582565701.385,10.742,8.789,6.836,-0.977,0.0,0
1582565701.389,17.09,21.973000000000006,22.461,1.953,0.0,0
1582565701.393,16.602,50.78100000000001,14.648,1.953,0.0,0
1582565701.396,7.812,47.852,-2.93,-0.488,0.0,0
1582565701.4,9.766,28.32,15.625,6.348,0.0,0
1582565701.404,12.207,31.25,27.344,-4.883,0.0,0
1582565701.408,8.301,41.01600000000001,20.508000000000006,-13.184,0.0,0
1582565701.4120002,-4.395,31.738000000000003,23.926,-3.418,0.0,0
1582565701.415,-7.324,29.785,18.555,-6.836,0.0,0
1582565701.419,2.93,32.715,3.418,-7.812,0.0,0
1582565701.423,9.277,29.785,12.207,-13.672,0.0,0
1582565701.427,10.742,22.949,21.973000000000006,-11.23,0.0,0
1582565701.431,7.324,16.113,16.113,7.324,0.0,0
1582565701.435,3.906,28.809,20.02,5.371,0.0,0
1582565701.439,1.465,48.828,23.926,-6.836,0.0,0
1582565701.4420002,1.465,54.199,20.508000000000006,-6.836,0.0,0
1582565701.446,8.789,41.01600000000001,18.555,-2.93,0.0,0
1582565701.45,6.836,19.043,18.066,-5.859,0.0,0
1582565701.454,8.301,19.531,26.367,-6.836,0.0,0
1582565701.458,19.531,25.391,23.926,-7.324,0.0,0
1582565701.459,27.832,31.25,17.578,-8.301,0.0,0
1582565701.4629998,37.598,43.945,17.578,3.418,0.0,0
1582565701.467,34.18,36.621,10.742,6.348,0.0,0
1582565701.471,21.484,30.762,18.066,1.953,0.0,0
1582565701.475,15.137,29.785,27.344,7.812,0.0,0
1582565701.479,0.0,18.555,16.602,8.789,0.0,0
1582565701.4829998,-15.137,27.832,19.043,-0.488,0.0,0
1582565701.486,-6.836,37.109,22.461,-8.789,0.0,0
1582565701.49,4.395,21.973000000000006,19.043,-7.324,0.0,0
1582565701.494,3.906,23.438,18.066,1.465,0.0,0
1582565701.498,3.906,32.227,16.113,-1.953,0.0,0
1582565701.502,-1.465,30.273000000000003,18.555,-8.301,0.0,0
1582565701.505,-11.23,36.133,23.926,-10.254,0.0,0
1582565701.5089998,-4.883,42.969,16.113,-6.836,0.0,0
1582565701.5129998,-5.371,33.203,8.789,0.488,0.0,0
1582565701.5170002,-17.578,20.508000000000006,12.695,-8.789,0.0,0
1582565701.521,-18.555,29.297,13.672,-18.066,0.0,0
1582565701.525,-11.719,31.25,16.113,-11.719,0.0,0
1582565701.529,-14.648,15.625,13.672,-19.043,0.0,0
1582565701.532,-12.207,12.207,20.508000000000006,-18.555,0.0,0
1582565701.536,-1.953,27.832,27.344,-13.184,0.0,0
1582565701.54,-3.418,30.762,22.461,-12.695,0.0,0
1582565701.544,-2.93,28.32,24.414,-5.371,0.0,0
1582565701.548,1.465,44.434,22.949,-4.395,0.0,0
1582565701.55,-0.977,44.922,12.695,-12.207,0.0,0
1582565701.554,-8.789,30.273000000000003,7.324,-18.066,0.0,0
1582565701.5579998,-11.23,12.207,13.184,-7.324,0.0,0
1582565701.562,-6.836,13.184,15.137,-4.883,0.0,0
1582565701.566,-1.953,30.273000000000003,15.137,-14.16,0.0,0
1582565701.57,1.953,34.18,19.531,-14.16,0.0,0
1582565701.574,1.953,30.273000000000003,25.879,-6.836,0.0,0
1582565701.577,6.836,29.785,23.438,-2.93,0.0,0
1582565701.581,17.09,35.645,17.09,-3.906,0.0,0
1582565701.585,15.625,37.109,23.926,-4.883,0.0,0
1582565701.589,2.441,34.668,31.25,-12.695,0.0,0
1582565701.593,-3.418,23.438,25.391,-12.207,0.0,0
1582565701.594,5.859,12.207,22.461,-4.395,0.0,0
1582565701.5979998,7.812,25.879,16.113,-7.812,0.0,0
1582565701.6020002,6.348,26.367,2.441,-6.836,0.0,0
1582565701.606,7.812,5.859,12.207,-2.93,0.0,0
1582565701.61,7.812,23.926,24.902,-3.906,0.0,0
1582565701.6139998,19.531,45.898,17.578,-5.859,0.0,0
1582565701.6179998,16.113,44.434,24.414,-7.324,0.0,0
1582565701.621,2.441,35.156,34.668,-0.977,0.0,0
1582565701.625,4.395,30.762,28.809,-3.418,0.0,0
1582565701.629,17.09,37.109,26.855,-10.254,0.0,0
1582565701.633,24.414,36.133,32.715,-7.812,0.0,0
1582565701.637,18.555,30.273000000000003,31.25,0.0,0.0,0
1582565701.64,10.254,26.367,20.02,2.441,0.0,0
1582565701.644,10.254,9.766,9.766,4.883,0.0,0
1582565701.6479998,13.672,12.207,10.742,0.0,0.0,0
1582565701.6520002,19.043,43.945,21.484,3.906,0.0,0
1582565701.656,22.461,62.5,29.297,12.207,0.0,0
1582565701.66,26.367,58.105,25.391,3.906,0.0,0
1582565701.664,26.855,40.527,26.855,-5.859,0.0,0
1582565701.667,21.484,31.738000000000003,32.227,0.488,0.0,0
1582565701.671,26.367,32.715,36.621,13.672,0.0,0
1582565701.675,27.832,31.738000000000003,33.691,9.277,0.0,0
1582565701.679,10.254,27.344,30.273000000000003,-3.906,0.0,0
1582565701.6829998,4.883,28.32,27.832,-7.812,0.0,0
1582565701.699,7.812,29.297,21.973000000000006,2.441,0.0,0
1582565701.7029998,18.066,33.203,11.719,17.578,0.0,0
1582565701.707,23.438,36.621,-3.906,16.602,0.0,0
1582565701.711,17.09,26.855,0.977,9.277,0.0,0
1582565701.715,19.531,35.645,19.531,12.695,0.0,0
1582565701.719,23.438,40.039,27.344,22.949,0.0,0
1582565701.7229998,23.926,32.715,22.949,13.184,0.0,0
1582565701.726,23.438,33.203,28.32,3.418,0.0,0
1582565701.73,18.555,31.738000000000003,32.715,13.184,0.0,0
1582565701.734,2.441,26.855,27.832,8.789,0.0,0
1582565701.738,0.977,37.598,28.809,10.742,0.0,0
1582565701.742,5.371,46.387,23.926,5.859,0.0,0
1582565701.744,1.953,40.039,18.066,-5.371,0.0,0
1582565701.748,2.441,34.668,17.09,8.789,0.0,0
1582565701.752,18.066,16.113,19.531,6.348,0.0,0
1582565701.756,21.973000000000006,20.02,15.625,-1.465,0.0,0
1582565701.76,12.695,48.34,10.742,10.742,0.0,0
1582565701.764,6.348,49.805,17.578,17.578,0.0,0
1582565701.768,6.836,41.504,25.879,14.648,0.0,0
1582565701.771,7.812,27.832,25.879,1.465,0.0,0
1582565701.775,8.301,21.484,27.344,-3.418,0.0,0
1582565701.779,11.23,35.645,26.855,-0.488,0.0,0
1582565701.783,20.02,37.598,26.367,4.395,0.0,0
1582565701.7870002,21.484,36.621,22.949,7.324,0.0,0
1582565701.789,11.23,44.434,23.926,-3.418,0.0,0
1582565701.793,7.812,45.41,23.926,-5.371,0.0,0
1582565701.7970002,8.789,31.738000000000003,18.066,7.324,0.0,0
1582565701.801,14.648,25.879,13.184,11.719,0.0,0
1582565701.805,17.578,51.758,15.137,4.883,0.0,0
1582565701.809,22.461,51.758,31.738000000000003,7.812,0.0,0
1582565701.813,22.461,35.156,35.156,18.066,0.0,0
1582565701.816,12.207,42.969,28.809,12.207,0.0,0
1582565701.82,15.137,42.969,23.926,6.348,0.0,0
1582565701.824,13.184,41.01600000000001,30.273000000000003,0.977,0.0,0
1582565701.8279998,3.418,36.133,38.574,-2.441,0.0,0
1582565701.832,14.648,27.344,29.297,6.348,0.0,0
1582565701.834,12.695,31.25,27.832,0.977,0.0,0
1582565701.8379998,4.395,34.18,31.25,-1.953,0.0,0
1582565701.842,7.324,37.598,22.461,9.277,0.0,0
1582565701.846,11.23,39.062,14.16,10.254,0.0,0
1582565701.85,18.555,39.062,20.02,9.277,0.0,0
1582565701.854,14.648,34.18,25.879,8.789,0.0,0
1582565701.8579998,12.695,36.133,29.297,7.324,0.0,0
1582565701.861,9.766,46.387,36.133,17.09,0.0,0
1582565701.865,8.301,54.199,37.598,9.766,0.0,0
1582565701.869,20.996,43.945,33.691,2.93,0.0,0
1582565701.873,21.484,23.438,32.227,4.883,0.0,0
1582565701.877,11.719,33.203,32.715,8.301,0.0,0
1582565701.879,14.648,41.992,31.738000000000003,11.23,0.0,0
1582565701.883,14.16,36.133,30.762,1.953,0.0,0
1582565701.887,15.137,34.668,27.832,0.977,0.0,0
1582565701.891,19.531,35.645,36.621,13.184,0.0,0
1582565701.895,7.324,45.898,34.18,14.16,0.0,0
1582565701.899,5.859,52.246,36.133,8.789,0.0,0
1582565701.903,14.16,41.504,44.922,5.859,0.0,0
1582565701.906,7.812,39.062,38.574,6.836,0.0,0
1582565701.91,7.324,46.875,30.762,18.066,0.0,0
1582565701.914,7.812,26.367,28.809,14.16,0.0,0
1582565701.918,0.488,18.555,27.344,-0.488,0.0,0
1582565701.9220002,2.93,26.855,27.832,7.324,0.0,0
1582565701.924,11.23,25.391,33.203,18.066,0.0,0
1582565701.928,15.137,44.922,34.18,14.648,0.0,0
1582565701.9320002,9.277,53.223,32.227,3.906,0.0,0
1582565701.936,3.906,44.434,33.203,-3.418,0.0,0
1582565701.94,9.277,41.01600000000001,30.273000000000003,-2.441,0.0,0
1582565701.944,8.301,37.109,28.32,2.441,0.0,0
1582565701.948,7.324,35.645,30.762,0.488,0.0,0
1582565701.951,14.648,40.039,24.902,0.488,0.0,0
1582565701.955,22.949,39.551,22.949,11.719,0.0,0
1582565701.959,15.137,36.133,30.762,10.254,0.0,0
1582565701.9629998,3.906,33.691,32.227,0.977,0.0,0
1582565701.967,5.859,27.344,28.809,0.488,0.0,0
1582565701.969,4.395,33.203,25.391,0.0,0.0,0
1582565701.9729998,-0.977,45.898,23.926,0.488,0.0,0
1582565701.9770002,-0.488,53.71100000000001,21.484,-1.953,0.0,0
1582565701.981,8.789,53.71100000000001,15.625,-4.883,0.0,0
1582565701.985,10.254,30.762,14.648,2.441,0.0,0
1582565701.9889998,-4.395,20.508000000000006,10.742,7.324,0.0,0
1582565701.9929998,-7.324,17.09,13.184,1.465,0.0,0
1582565701.996,3.418,10.742,29.297,-6.836,0.0,0
1582565702.0,12.695,27.832,30.273000000000003,-4.395,0.0,0
1582565702.004,5.859,47.363,26.367,4.395,0.0,0
1582565702.008,-4.883,45.898,33.691,-0.488,0.0,0
1582565702.012,1.465,39.551,28.32,-5.371,0.0,0
1582565702.014,0.977,37.598,18.555,-5.371,0.0,0
1582565702.018,-3.906,27.344,23.926,2.441,0.0,0
1582565702.022,-3.418,15.625,24.414,-0.977,0.0,0
1582565702.026,4.395,31.738000000000003,18.555,-10.254,0.0,0
1582565702.03,9.766,45.898,6.836,-7.324,0.0,0
1582565702.034,2.93,33.203,0.488,-5.371,0.0,0
1582565702.038,2.441,41.504,10.742,-2.441,0.0,0
1582565702.041,4.883,42.969,16.602,-5.859,0.0,0
1582565702.045,7.324,37.109,22.461,-15.137,0.0,0
1582565702.049,11.719,44.434,31.738000000000003,-15.137,0.0,0
1582565702.053,14.16,36.133,35.645,-3.906,0.0,0
1582565702.0570002,21.484,23.926,27.344,-0.488,0.0,2
1582565702.074,13.672,34.18,17.09,-12.695,0.0,0
1582565702.0779998,1.465,48.34,27.832,-19.531,0.0,0
1582565702.082,-0.977,43.945,33.203,-14.16,0.0,0
1582565702.086,-5.371,26.855,25.879,-11.719,0.0,0
1582565702.09,5.859,28.32,19.531,-4.395,0.0,0
1582565702.094,9.766,33.203,12.207,-5.371,0.0,0
1582565702.0979998,0.977,38.086,15.137,-15.137,0.0,0
1582565702.101,-16.602,45.898,27.344,-12.207,0.0,0
1582565702.105,-18.555,41.992,30.762,-9.766,0.0,0
1582565702.109,-2.93,29.785,29.297,-7.324,0.0,0
1582565702.113,0.488,29.785,32.227,0.0,0.0,0
1582565702.117,1.953,40.039,37.109,3.418,0.0,0
1582565702.119,5.859,34.18,36.133,-0.977,0.0,0
1582565702.123,2.93,33.203,34.18,-3.906,0.0,0
1582565702.127,0.0,48.828,34.18,-6.348,0.0,0
1582565702.131,-4.395,57.129,32.715,-8.789,0.0,0
1582565702.135,-11.719,52.246,24.414,-10.254,0.0,0
1582565702.139,-14.16,48.828,20.508000000000006,-19.043,0.0,0
1582565702.143,-11.719,30.273000000000003,25.391,-24.902,0.0,0
1582565702.146,-20.02,20.02,22.461,-26.855,0.0,0
1582565702.15,-19.043,37.109,6.348,-28.32,0.0,0
1582565702.154,-24.902,53.223,6.348,-40.527,0.0,0
1582565702.158,-47.363,42.969,33.691,-61.035,0.0,0
1582565702.1620002,-52.734,38.574,41.992,-62.012,0.0,0
1582565702.164,-53.223,57.129,37.598,-62.5,0.0,0
1582565702.168,-60.547,61.035,42.969,-66.895,0.0,0
1582565702.1720002,-61.523,55.176,48.828,-63.965,0.0,0
1582565702.176,-44.922,52.246,41.992,-54.199,0.0,0
1582565702.18,-34.18,47.363,24.902,-47.363,0.0,0
1582565702.184,-24.414,36.133,28.809,-39.551,0.0,0
1582565702.188,-7.812,29.297,33.691,-35.156,0.0,0
1582565702.191,1.953,26.855,26.855,-29.785,0.0,0
1582565702.195,8.301,20.996,32.715,-15.625,0.0,0
1582565702.199,21.973000000000006,14.648,38.086,-8.301,0.0,0
1582565702.2029998,17.09,25.879,34.668,-18.066,0.0,0
1582565702.207,-4.883,40.527,37.598,-18.066,0.0,0
1582565702.209,-10.742,41.01600000000001,38.086,-1.953,0.0,0
1582565702.2129998,-7.324,44.434,29.785,5.371,0.0,0
1582565702.217,9.277,49.805,26.367,12.207,0.0,0
1582565702.221,20.996,42.48,24.902,17.09,0.0,0
1582565702.225,13.184,27.832,9.766,17.09,0.0,0
1582565702.229,9.766,20.02,7.812,12.207,0.0,0
1582565702.2329998,14.648,20.996,15.625,11.23,0.0,0
1582565702.236,10.254,20.508000000000006,16.113,10.254,0.0,0
1582565702.24,2.93,20.508000000000006,15.137,3.906,0.0,0
1582565702.244,2.93,24.902,23.926,7.812,0.0,0
1582565702.248,17.09,33.203,41.01600000000001,18.555,0.0,0
1582565702.252,27.832,46.875,41.992,18.555,0.0,0
1582565702.254,13.672,50.78100000000001,27.832,2.93,0.0,0
1582565702.258,0.0,38.574,16.602,2.93,0.0,0
1582565702.262,-1.465,24.414,10.742,2.93,0.0,0
1582565702.266,6.836,20.996,7.324,-7.324,0.0,0
1582565702.27,12.695,20.508000000000006,3.418,3.906,0.0,0
1582565702.274,9.766,31.738000000000003,0.0,7.324,0.0,0
1582565702.278,5.859,46.387,15.137,8.789,0.0,0
1582565702.281,9.766,46.875,29.785,16.113,0.0,0
1582565702.285,15.625,47.363,15.137,12.695,0.0,0
1582565702.289,29.297,41.992,27.832,30.273000000000003,0.0,0
1582565702.293,24.902,19.043,44.922,31.738000000000003,0.0,0
1582565702.2970002,19.531,21.484,40.527,19.043,0.0,0
1582565702.299,23.926,42.48,39.062,19.531,0.0,0
1582565702.303,15.137,51.758,35.156,16.602,0.0,0
1582565702.3070002,18.066,43.457,22.461,23.438,0.0,0
1582565702.311,23.926,33.691,18.555,23.926,0.0,0
1582565702.315,28.32,36.133,24.902,20.02,0.0,0
1582565702.319,28.32,40.039,19.531,18.555,0.0,0
1582565702.323,34.668,35.156,31.25,35.645,0.0,0
1582565702.326,37.598,37.598,44.922,47.363,0.0,0
1582565702.33,27.832,48.828,42.48,18.555,0.0,0
1582565702.334,24.414,43.457,38.574,2.93,0.0,0
1582565702.3379998,25.879,27.832,22.949,14.648,0.0,0
1582565702.342,18.555,34.668,17.09,11.23,0.0,0
1582565702.344,13.672,44.434,20.508000000000006,-5.371,0.0,0
1582565702.3479998,28.32,42.969,20.508000000000006,-3.906,0.0,0
1582565702.3520002,32.227,46.875,21.484,6.836,0.0,0
1582565702.356,20.996,47.363,20.508000000000006,11.719,0.0,0
1582565702.36,13.672,41.504,14.648,5.859,0.0,0
1582565702.3639998,16.602,34.668,21.484,0.977,0.0,0
1582565702.3679998,20.996,36.133,31.25,5.371,0.0,0
1582565702.371,23.438,36.133,29.297,6.836,0.0,0
1582565702.375,23.438,36.621,31.25,10.254,0.0,0
1582565702.379,19.043,40.039,35.156,6.836,0.0,0
1582565702.383,25.879,25.391,32.715,10.254,0.0,0
1582565702.387,31.25,30.273000000000003,28.809,16.602,0.0,0
1582565702.389,24.414,58.105,27.344,14.16,0.0,0
1582565702.393,30.273000000000003,53.223,18.066,14.648,0.0,0
1582565702.397,36.133,43.945,7.324,13.672,0.0,0
1582565702.401,31.25,38.574,17.09,21.484,0.0,0
1582565702.405,30.273000000000003,40.527,30.273000000000003,22.949,0.0,0
1582565702.409,27.832,47.852,34.18,16.113,0.0,0
1582565702.413,21.973000000000006,38.574,33.203,16.113,0.0,0
1582565702.416,21.973000000000006,37.109,32.715,14.648,0.0,0
1582565702.42,21.484,53.223,27.832,15.137,0.0,0
1582565702.424,25.391,55.176,28.809,23.926,0.0,0
1582565702.428,19.531,46.875,37.109,10.742,0.0,0
1582565702.4320002,24.902,41.01600000000001,39.062,7.812,0.0,0
1582565702.449,29.785,37.598,37.598,20.996,0.0,0
1582565702.4529998,12.695,41.01600000000001,38.086,16.113,0.0,0
1582565702.457,16.602,45.898,32.715,12.207,0.0,0
1582565702.461,21.973000000000006,40.527,31.738000000000003,8.301,0.0,0
1582565702.465,13.672,37.109,35.645,2.441,0.0,0
1582565702.469,5.371,39.551,32.227,1.953,0.0,0
1582565702.4729998,-1.465,33.203,29.785,-6.348,0.0,0
1582565702.476,-10.742,30.762,32.227,-17.578,0.0,0
1582565702.48,-10.254,32.227,31.738000000000003,-21.973000000000006,0.0,0
1582565702.484,-8.301,32.227,31.25,-16.602,0.0,0
1582565702.488,-16.602,40.039,22.949,-20.508000000000006,0.0,0
1582565702.492,-21.484,41.992,18.555,-27.832,0.0,0
1582565702.495,-32.715,35.156,32.715,-30.273000000000003,0.0,0
1582565702.4989998,-35.645,27.832,38.574,-34.18,0.0,0
1582565702.5029998,-40.039,28.809,44.434,-36.133,0.0,0
1582565702.5070002,-48.34,39.551,50.78100000000001,-49.316,0.0,0
1582565702.5110002,-35.645,44.922,57.617,-55.176,0.0,0
1582565702.515,-43.457,53.71100000000001,60.059,-47.852,0.0,0
1582565702.519,-48.828,54.199,52.734,-44.434,0.0,0
1582565702.522,-26.855,42.969,44.922,-43.457,0.0,0
1582565702.526,-21.484,39.551,37.109,-38.086,0.0,0
1582565702.53,-27.344,42.969,30.273000000000003,-29.785,0.0,0
1582565702.534,-19.531,51.758,29.297,-23.926,0.0,0
1582565702.538,-8.789,48.828,28.809,-21.973000000000006,0.0,0
1582565702.539,-5.371,26.367,30.273000000000003,-22.949,0.0,0
1582565702.543,-10.254,22.949,39.062,-14.648,0.0,0
1582565702.5470002,-4.395,39.551,41.504,-4.883,0.0,0
1582565702.551,8.789,39.062,29.297,-5.859,0.0,0
1582565702.555,10.742,32.227,22.461,-7.324,0.0,0
1582565702.559,11.719,41.504,25.879,-1.953,0.0,0
1582565702.563,9.766,43.945,24.902,6.836,0.0,0
1582565702.566,12.695,32.227,25.879,8.301,0.0,0
1582565702.57,17.578,30.762,20.996,4.395,0.0,0
1582565702.574,17.578,37.109,10.254,3.906,0.0,0
1582565702.5779998,19.043,33.203,10.742,16.113,0.0,0
1582565702.582,17.09,25.879,19.531,22.461,0.0,0
1582565702.584,21.484,27.832,20.02,11.23,0.0,0
1582565702.5879998,22.461,29.785,26.367,5.371,0.0,0
1582565702.592,16.602,41.01600000000001,33.203,13.184,0.0,0
1582565702.596,23.926,55.176,26.367,20.508000000000006,0.0,0
1582565702.6,25.391,49.316,19.531,18.555,0.0,0
1582565702.604,24.902,31.25,21.484,16.113,0.0,0
1582565702.6079998,35.156,29.785,26.367,17.09,0.0,0
1582565702.611,21.484,29.297,22.949,16.113,0.0,0
1582565702.615,8.789,28.809,13.672,17.09,0.0,0
1582565702.619,11.23,38.086,15.137,14.16,0.0,0
1582565702.623,4.395,39.551,28.32,9.766,0.0,0
1582565702.627,4.883,39.551,30.762,10.742,0.0,0
1582565702.629,21.973000000000006,42.969,27.344,14.16,0.0,0
1582565702.633,35.645,34.18,22.949,17.578,0.0,0
1582565702.637,39.062,25.879,19.531,18.555,0.0,0
1582565702.641,32.715,34.18,20.996,25.391,0.0,0
1582565702.645,20.02,43.457,16.602,23.438,0.0,0
1582565702.649,15.137,45.41,5.859,5.371,0.0,0
1582565702.653,20.996,35.645,7.324,2.441,0.0,0
1582565702.656,23.438,37.598,23.926,14.648,0.0,0
1582565702.66,16.113,43.945,27.344,11.719,0.0,0
1582565702.664,18.066,45.898,25.879,9.277,0.0,0
1582565702.668,18.555,34.18,21.973000000000006,6.836,0.0,0
1582565702.6720002,22.461,19.043,12.695,11.719,0.0,0
1582565702.674,26.855,18.066,2.93,20.996,0.0,0
1582565702.678,20.996,16.602,13.184,18.066,0.0,0
1582565702.6820002,18.066,19.531,27.832,7.324,0.0,0
1582565702.686,20.996,34.668,27.832,1.953,0.0,0
1582565702.69,20.996,44.922,19.043,12.695,0.0,0
1582565702.694,15.137,38.574,10.742,15.137,0.0,0
1582565702.698,16.602,27.832,12.695,9.277,0.0,0
1582565702.701,12.695,32.227,19.043,3.418,0.0,0
1582565702.705,13.672,24.414,29.785,11.719,0.0,0
1582565702.709,20.508000000000006,3.418,27.344,17.578,0.0,0
1582565702.7129998,15.625,12.207,22.461,10.742,0.0,0
1582565702.717,15.137,36.621,24.902,6.836,0.0,0
1582565702.72,14.648,45.41,22.461,10.742,0.0,0
1582565702.724,14.648,40.527,22.461,16.113,0.0,0
1582565702.728,16.113,32.715,19.043,7.812,0.0,0
1582565702.732,14.648,31.738000000000003,13.184,-0.977,0.0,0
1582565702.736,18.066,32.227,16.602,9.277,0.0,0
1582565702.74,17.09,26.855,21.484,10.742,0.0,0
1582565702.744,11.23,25.391,19.043,7.324,0.0,0
1582565702.7470002,10.254,24.414,17.09,0.0,0.0,0
1582565702.7510002,9.766,25.391,20.996,-5.859,0.0,0
1582565702.755,14.16,27.344,24.414,13.672,0.0,0
1582565702.7589998,19.043,34.18,20.02,17.578,0.0,0
1582565702.7629998,25.391,40.039,8.789,15.137,0.0,0
1582565702.779,27.344,38.574,15.625,15.625,0.0,0
1582565702.783,28.809,30.762,24.414,11.719,0.0,0
1582565702.7870002,21.484,20.996,25.391,17.09,0.0,0
1582565702.791,11.23,24.414,22.949,9.277,0.0,0
1582565702.795,14.16,30.762,22.949,2.93,0.0,0
1582565702.799,19.043,43.945,19.531,12.695,0.0,0
1582565702.803,21.973000000000006,42.48,13.184,14.648,0.0,0
1582565702.806,25.391,24.414,23.438,8.301,0.0,0
1582565702.81,25.879,27.344,37.598,9.277,0.0,0
1582565702.814,20.996,41.01600000000001,31.738000000000003,12.207,0.0,0
1582565702.8179998,17.578,48.34,23.438,13.672,0.0,0
1582565702.822,24.902,44.434,28.32,15.625,0.0,0
1582565702.824,22.949,41.504,32.715,9.277,0.0,0
1582565702.8279998,14.16,35.156,38.574,9.766,0.0,0
1582565702.832,19.043,25.391,35.156,17.578,0.0,0
1582565702.836,20.996,32.227,26.367,16.602,0.0,0
1582565702.84,26.855,42.48,28.809,14.16,0.0,0
1582565702.844,28.32,39.551,37.109,10.742,0.0,0
1582565702.8479998,16.113,32.227,37.598,10.742,0.0,0
1582565702.851,10.742,31.738000000000003,39.551,20.02,0.0,0
1582565702.855,20.02,21.973000000000006,42.48,25.879,0.0,0
1582565702.859,35.645,23.926,30.762,27.344,0.0,0
1582565702.863,32.227,46.387,18.066,23.926,0.0,0
1582565702.867,13.672,37.598,20.996,12.695,0.0,0
1582565702.869,13.184,24.414,28.809,8.301,0.0,0
1582565702.873,16.113,36.621,39.062,7.812,0.0,0
1582565702.877,14.648,45.41,40.527,12.207,0.0,0
1582565702.881,19.043,39.062,39.551,17.09,0.0,0
1582565702.885,16.113,39.062,30.762,15.137,0.0,0
1582565702.889,6.348,48.828,21.484,9.766,0.0,0
1582565702.893,4.883,38.086,26.855,7.324,0.0,0
1582565702.896,14.16,32.227,31.25,19.531,0.0,0
1582565702.9,21.973000000000006,41.504,28.32,26.367,0.0,0
1582565702.904,24.902,36.621,20.02,9.277,0.0,0
1582565702.908,20.996,27.344,10.742,1.465,0.0,0
1582565702.9120002,16.602,24.414,11.719,9.277,0.0,0
1582565702.914,18.066,36.621,24.902,11.23,0.0,0
1582565702.918,25.391,47.363,26.855,9.766,0.0,0
1582565702.9220002,24.902,44.434,24.902,4.395,0.0,0
1582565702.926,26.855,33.203,32.227,6.348,0.0,0
1582565702.93,39.551,33.691,41.01600000000001,17.578,0.0,0
1582565702.934,36.133,47.852,38.574,6.348,0.0,0
1582565702.938,30.273000000000003,52.734,32.715,-8.789,0.0,0
1582565702.941,28.32,43.457,26.367,-1.953,0.0,0
1582565702.945,24.414,32.715,29.785,8.301,0.0,0
1582565702.949,24.414,38.086,34.18,12.207,0.0,0
1582565702.9529998,22.461,45.898,29.297,12.207,0.0,0
1582565702.957,25.391,43.945,27.832,11.719,0.0,0
1582565702.959,25.391,36.621,27.832,7.324,0.0,0
1582565702.9629998,18.066,32.227,30.762,10.742,0.0,0
1582565702.967,6.836,34.18,32.227,15.137,0.0,0
1582565702.971,4.883,32.715,33.691,16.113,0.0,0
1582565702.975,16.113,41.01600000000001,38.086,22.949,0.0,0
1582565702.979,20.02,44.434,20.508000000000006,16.602,0.0,0
1582565702.9829998,13.184,31.25,13.672,5.371,0.0,0
1582565702.986,1.953,35.645,23.438,0.977,0.0,0
1582565702.99,6.348,52.246,19.531,4.395,0.0,0
1582565702.994,14.16,46.875,34.668,15.625,0.0,0
1582565702.998,8.301,29.785,44.434,14.648,0.0,0
1582565703.002,4.395,33.203,39.062,9.277,0.0,0
1582565703.004,2.441,43.945,36.621,4.395,0.0,0
1582565703.008,-7.324,37.109,33.691,2.93,0.0,0
1582565703.012,-8.789,33.203,40.527,8.301,0.0,0
1582565703.016,8.301,31.25,39.062,4.395,0.0,0
1582565703.02,20.02,34.18,31.738000000000003,-1.953,0.0,0
1582565703.024,14.16,32.715,25.391,7.812,0.0,0
1582565703.028,2.93,25.391,21.484,15.625,0.0,0
1582565703.031,3.418,30.273000000000003,26.855,2.93,0.0,0
1582565703.035,11.719,35.156,29.785,-5.371,0.0,0
1582565703.039,14.648,34.18,31.738000000000003,2.441,0.0,0
1582565703.043,15.625,43.945,19.043,11.719,0.0,0
1582565703.0470002,10.742,46.387,13.184,8.789,0.0,0
1582565703.049,6.348,43.457,26.855,1.465,0.0,0
1582565703.053,9.277,41.504,36.621,3.906,0.0,0
1582565703.0570002,4.883,35.645,29.785,9.277,0.0,0
1582565703.061,5.371,29.297,25.391,2.93,0.0,0
1582565703.065,15.625,25.391,30.273000000000003,-3.418,0.0,0
1582565703.069,18.555,36.133,29.297,2.93,0.0,0
1582565703.073,13.672,27.344,27.344,8.301,0.0,0
1582565703.076,11.719,14.648,22.949,6.836,0.0,0
1582565703.08,16.113,35.156,18.555,-3.418,0.0,0
1582565703.084,13.184,55.664,18.555,-1.465,0.0,0
1582565703.0879998,3.906,56.64100000000001,20.02,0.0,0.0,0
1582565703.092,6.348,47.852,20.996,1.465,0.0,0
1582565703.094,17.578,41.504,21.484,7.324,0.0,0
1582565703.0979998,24.902,39.062,22.949,7.812,0.0,0
1582565703.1020002,20.02,33.691,22.949,12.695,0.0,0
1582565703.106,14.648,25.879,26.367,11.719,0.0,0
1582565703.11,20.996,12.207,29.785,11.719,0.0,0
1582565703.1139998,26.367,10.254,25.879,4.883,0.0,0
1582565703.1179998,23.926,20.508000000000006,21.484,5.371,0.0,0
1582565703.121,24.902,27.344,8.789,15.625,0.0,0
1582565703.125,18.555,41.992,11.719,3.418,0.0,0
1582565703.129,11.23,51.27,28.809,-11.719,0.0,0
1582565703.133,20.508000000000006,52.734,27.344,-1.953,0.0,0
1582565703.137,32.715,54.688,22.461,15.137,0.0,0
1582565703.139,25.391,46.387,28.32,13.672,0.0,0
1582565703.143,12.207,30.273000000000003,24.414,0.977,0.0,0
1582565703.147,18.066,27.344,23.926,-0.488,0.0,0
1582565703.151,31.25,32.715,36.621,14.16,0.0,0
1582565703.155,27.832,35.645,39.551,17.09,0.0,0
1582565703.159,25.391,35.645,25.391,14.16,0.0,0
1582565703.163,29.297,35.156,12.207,17.09,0.0,0
1582565703.166,23.926,38.086,16.113,9.277,0.0,0
1582565703.17,17.09,36.133,29.297,3.418,0.0,0
1582565703.174,10.742,37.598,31.25,5.371,0.0,0
1582565703.178,15.137,39.062,32.227,0.0,0.0,0
1582565703.1820002,16.602,41.992,30.273000000000003,0.0,0.0,2
1582565703.199,11.23,44.922,30.273000000000003,9.277,0.0,0
1582565703.2029998,11.23,46.387,36.621,11.719,0.0,0
1582565703.207,11.719,50.78100000000001,41.504,8.789,0.0,0
1582565703.211,16.113,49.805,40.039,7.812,0.0,0
1582565703.215,15.625,49.316,38.086,10.254,0.0,0
1582565703.219,8.789,34.668,44.922,14.16,0.0,0
1582565703.2229998,6.836,20.508000000000006,46.387,12.207,0.0,0
1582565703.226,7.812,17.09,45.41,-1.465,0.0,0
1582565703.23,11.719,31.25,37.598,4.883,0.0,0
1582565703.234,15.625,48.828,34.668,17.578,0.0,0
1582565703.238,10.254,45.41,35.645,10.742,0.0,0
1582565703.242,12.695,42.48,34.18,5.371,0.0,0
1582565703.2429998,11.719,45.898,38.086,6.836,0.0,0
1582565703.2470002,9.277,34.668,34.18,15.137,0.0,0
1582565703.2510002,16.602,33.691,31.25,16.113,0.0,0
1582565703.255,14.648,43.457,44.922,8.789,0.0,0
1582565703.2589998,9.766,36.133,51.27,5.859,0.0,0
1582565703.2629998,13.184,16.113,47.363,11.23,0.0,0
1582565703.2670002,19.043,10.254,40.527,16.113,0.0,0
1582565703.27,22.461,28.32,29.785,22.949,0.0,0
1582565703.274,18.555,47.852,23.926,15.137,0.0,0
1582565703.278,21.973000000000006,61.523,16.113,15.137,0.0,0
1582565703.282,22.461,48.828,25.391,20.02,0.0,0
1582565703.286,7.324,36.621,32.715,7.324,0.0,0
1582565703.289,0.0,44.434,26.855,-2.93,0.0,0
1582565703.293,8.301,39.551,35.645,11.719,0.0,0
1582565703.2970002,10.742,28.32,32.715,21.484,0.0,0
1582565703.301,6.836,28.809,26.855,12.207,0.0,0
1582565703.305,9.766,42.969,30.273000000000003,9.277,0.0,0
1582565703.309,9.766,41.01600000000001,40.527,7.812,0.0,0
1582565703.313,12.695,14.648,41.504,10.742,0.0,0
1582565703.316,19.043,17.578,29.785,13.184,0.0,0
1582565703.32,19.043,36.133,21.484,8.789,0.0,0
1582565703.324,19.531,36.621,18.066,6.348,0.0,0
1582565703.3279998,15.137,41.01600000000001,23.926,5.371,0.0,0
1582565703.332,11.719,45.41,27.344,13.184,0.0,0
1582565703.334,16.602,41.01600000000001,26.367,13.672,0.0,0
1582565703.3379998,7.812,34.668,29.785,2.441,0.0,0
1582565703.342,2.441,46.875,30.762,4.883,0.0,0
1582565703.346,10.254,50.78100000000001,28.809,11.719,0.0,0
1582565703.35,26.367,38.574,30.273000000000003,17.09,0.0,0
1582565703.354,33.203,28.32,29.785,15.625,0.0,0
1582565703.3579998,27.344,15.625,26.855,16.602,0.0,0
1582565703.361,29.785,22.461,28.32,21.484,0.0,0
1582565703.365,13.672,29.297,18.555,1.465,0.0,0
1582565703.369,5.859,20.996,9.766,-12.207,0.0,0
1582565703.373,16.602,22.949,16.602,0.488,0.0,0
1582565703.377,6.348,35.156,27.832,4.395,0.0,0
1582565703.379,-1.953,42.969,35.645,-6.836,0.0,0
1582565703.383,2.441,52.246,32.715,-17.09,0.0,0
1582565703.387,3.906,59.082,25.391,-12.695,0.0,0
1582565703.391,9.277,59.57,27.344,-3.418,0.0,0
1582565703.395,10.254,48.828,37.598,3.418,0.0,0
1582565703.399,11.719,32.715,33.203,5.371,0.0,0
1582565703.403,7.324,27.344,15.625,-1.953,0.0,0
1582565703.406,-2.441,31.25,9.766,-5.371,0.0,0
1582565703.41,0.0,30.762,19.531,5.859,0.0,0
1582565703.414,11.23,18.555,25.391,8.301,0.0,0
1582565703.418,15.137,14.648,30.762,7.812,0.0,0
1582565703.4220002,19.531,33.203,37.598,17.578,0.0,0
1582565703.424,24.414,44.922,37.109,19.043,0.0,0
1582565703.428,22.949,51.27,36.133,20.02,0.0,0
1582565703.4320002,30.273000000000003,51.27,32.715,16.602,0.0,0
1582565703.436,34.18,51.27,26.855,8.789,0.0,0
1582565703.44,30.762,50.78100000000001,19.531,14.648,0.0,0
1582565703.444,27.832,41.01600000000001,14.16,9.766,0.0,0
1582565703.448,22.461,36.133,25.391,1.465,0.0,0
1582565703.451,15.625,29.297,35.156,7.812,0.0,0
1582565703.455,12.695,28.32,26.855,11.23,0.0,0
1582565703.459,14.648,38.086,25.879,7.324,0.0,0
1582565703.4629998,16.602,34.18,20.996,-1.953,0.0,0
1582565703.467,24.414,36.621,20.996,4.883,0.0,0
1582565703.469,23.438,41.01600000000001,34.18,10.254,0.0,0
1582565703.4729998,14.16,43.945,39.551,14.16,0.0,0
1582565703.4770002,15.625,43.457,41.01600000000001,17.578,0.0,0
1582565703.481,12.695,31.738000000000003,29.785,1.953,0.0,0
1582565703.485,3.906,39.551,19.531,-4.395,0.0,0
1582565703.4889998,-3.418,53.71100000000001,24.902,-5.859,0.0,0
1582565703.4929998,-4.883,44.434,32.227,-1.953,0.0,0
1582565703.496,-0.488,38.574,30.273000000000003,-9.277,0.0,0
1582565703.5,5.371,38.086,18.066,-12.695,0.0,0
1582565703.504,14.648,22.949,13.184,7.812,0.0,0
1582565703.508,15.137,15.625,23.438,15.137,0.0,0
1582565703.512,15.625,29.785,28.809,8.789,0.0,0
1582565703.514,16.113,26.367,34.668,3.418,0.0,0
1582565703.518,6.348,24.414,24.902,-2.441,0.0,0
1582565703.522,-2.93,27.832,19.531,4.395,0.0,0
1582565703.526,-0.977,29.785,31.25,6.836,0.0,0
1582565703.53,2.441,40.039,31.25,-2.441,0.0,0
1582565703.534,2.93,47.363,28.809,-6.348,0.0,0
1582565703.538,7.812,35.645,30.762,5.859,0.0,0
1582565703.541,15.137,28.32,32.715,16.602,0.0,0
1582565703.545,14.648,34.668,26.855,0.488,0.0,0
1582565703.549,15.137,37.109,23.438,0.977,0.0,0
1582565703.553,13.672,35.645,32.715,9.766,0.0,0
1582565703.5570002,7.324,26.855,34.668,4.395,0.0,0
1582565703.574,17.578,27.832,21.973000000000006,8.301,0.0,0
1582565703.5779998,22.949,22.461,20.996,11.23,0.0,0
1582565703.582,21.973000000000006,19.043,20.996,12.695,0.0,0
1582565703.586,9.766,27.344,12.695,13.184,0.0,0
1582565703.59,5.371,29.785,9.277,6.348,0.0,0
1582565703.594,10.742,35.156,7.324,5.371,0.0,0
1582565703.5979998,6.348,35.645,16.113,9.277,0.0,0
1582565703.601,5.859,26.367,25.391,9.766,0.0,0
1582565703.605,3.906,17.09,21.973000000000006,6.836,0.0,0
1582565703.609,-4.395,37.598,27.832,-8.301,0.0,0
1582565703.613,-6.836,53.71100000000001,34.668,-1.953,0.0,0
1582565703.617,1.953,43.945,29.297,8.789,0.0,0
1582565703.619,13.672,41.01600000000001,23.438,1.465,0.0,0
1582565703.623,18.555,38.574,20.02,-5.371,0.0,0
1582565703.627,15.137,31.738000000000003,18.066,-13.184,0.0,0
1582565703.631,6.348,24.902,16.113,-8.301,0.0,0
1582565703.635,9.766,27.344,16.113,5.371,0.0,0
1582565703.639,6.348,40.039,14.648,0.488,0.0,0
1582565703.643,4.395,44.922,17.09,-6.348,0.0,0
1582565703.646,10.742,37.598,34.668,5.859,0.0,0
1582565703.65,8.301,21.973000000000006,33.691,11.23,0.0,0
1582565703.654,13.184,11.719,24.902,4.395,0.0,0
1582565703.658,12.695,26.367,26.855,-7.812,0.0,0
1582565703.6620002,10.254,43.945,28.32,-15.137,0.0,0
1582565703.664,22.461,47.363,26.367,-1.953,0.0,0
1582565703.668,32.227,40.527,25.391,4.883,0.0,0
1582565703.6720002,37.109,39.551,17.09,-7.324,0.0,0
1582565703.676,43.457,46.875,16.602,-12.207,0.0,0
1582565703.68,34.18,41.504,20.996,-3.418,0.0,0
1582565703.684,33.203,32.715,12.207,9.766,0.0,0
1582565703.688,30.762,22.949,16.602,15.137,0.0,0
1582565703.691,12.207,22.461,30.762,9.277,0.0,0
1582565703.695,9.766,41.504,33.691,11.719,0.0,0
1582565703.699,16.602,46.387,27.344,16.602,0.0,0
1582565703.7029998,17.578,41.504,23.926,14.16,0.0,0
1582565703.707,18.066,34.668,23.926,10.742,0.0,0
1582565703.709,14.648,36.133,27.344,15.625,0.0,0
1582565703.7129998,9.277,34.18,28.809,22.949,0.0,0
1582565703.717,12.207,18.066,32.715,7.324,0.0,0
1582565703.721,4.395,25.391,31.25,4.395,0.0,0
1582565703.725,-13.184,43.457,27.344,4.883,0.0,0
1582565703.729,-10.254,53.223,26.855,-3.418,0.0,0
1582565703.7329998,-1.953,52.734,28.32,-6.836,0.0,0
1582565703.736,3.906,35.156,20.996,-11.23,0.0,0
1582565703.74,16.602,28.809,21.484,6.348,0.0,0
1582565703.744,15.137,35.156,36.133,18.066,0.0,0
1582565703.748,-2.93,37.598,38.574,8.301,0.0,0
1582565703.752,-1.953,33.691,35.645,6.348,0.0,0
1582565703.755,-0.488,28.809,32.715,-3.418,0.0,0
1582565703.7589998,-5.859,41.504,32.227,-9.277,0.0,0
1582565703.7629998,-3.906,46.387,37.598,-8.301,0.0,0
1582565703.7670002,-10.742,38.574,36.621,-20.996,0.0,0
1582565703.771,-18.066,33.203,34.668,-21.973000000000006,0.0,0
1582565703.775,-8.789,44.434,34.18,-15.625,0.0,0
1582565703.779,-12.695,41.992,34.668,-18.066,0.0,0
1582565703.782,-24.902,34.18,35.645,-23.926,0.0,0
1582565703.786,-26.855,44.922,36.621,-31.738000000000003,0.0,0
1582565703.79,-27.344,43.457,41.504,-26.367,0.0,0
1582565703.794,-24.414,40.527,35.645,-22.461,0.0,0
1582565703.798,-30.762,37.109,32.715,-39.062,0.0,0
1582565703.799,-44.922,27.344,29.785,-58.105,0.0,0
1582565703.803,-46.387,23.438,26.367,-57.617,0.0,0
1582565703.8070002,-44.922,35.645,41.992,-43.457,0.0,0
1582565703.811,-49.316,45.41,59.57,-55.176,0.0,0
1582565703.815,-50.293,44.922,65.918,-75.195,0.0,0
1582565703.819,-48.828,40.527,64.941,-75.195,0.0,0
1582565703.823,-42.969,37.109,53.71100000000001,-55.176,0.0,0
1582565703.826,-28.32,40.527,36.621,-33.691,0.0,0
1582565703.83,-20.508000000000006,34.18,39.551,-39.062,0.0,0
1582565703.834,-18.066,17.578,45.898,-45.898,0.0,0
1582565703.8379998,-12.695,18.555,45.898,-30.273000000000003,0.0,0
1582565703.842,-20.996,32.227,45.41,-23.438,0.0,0
1582565703.844,-22.949,42.969,41.992,-31.738000000000003,0.0,0
1582565703.8479998,-4.395,46.387,39.551,-25.391,0.0,0
1582565703.8520002,5.859,41.992,43.945,-9.277,0.0,0
1582565703.856,1.465,36.621,42.969,-6.348,0.0,0
1582565703.86,0.488,38.086,34.18,-8.789,0.0,0
1582565703.8639998,13.672,31.25,33.203,-3.418,0.0,0
1582565703.8679998,21.973000000000006,22.461,32.715,6.348,0.0,0
1582565703.871,20.508000000000006,17.578,35.645,13.184,0.0,0
1582565703.875,24.414,20.508000000000006,40.039,14.648,0.0,0
1582565703.879,22.949,32.227,37.109,11.23,0.0,0
1582565703.883,25.391,33.203,27.832,10.254,0.0,0
1582565703.887,41.504,39.551,33.691,20.508000000000006,0.0,0
1582565703.889,38.086,44.434,28.809,25.879,0.0,0
1582565703.893,27.832,43.457,9.766,19.531,0.0,0
1582565703.897,23.926,37.598,18.555,16.602,0.0,0
1582565703.901,19.531,28.809,30.273000000000003,17.09,0.0,0
1582565703.905,25.391,36.133,30.762,19.531,0.0,0
1582565703.909,23.926,44.434,22.949,13.184,0.0,0
1582565703.913,24.902,45.898,23.926,14.16,0.0,0
1582565703.916,30.762,33.203,24.902,18.066,0.0,0
1582565703.92,31.738000000000003,28.809,20.508000000000006,24.902,0.0,0
1582565703.924,38.574,39.551,24.902,30.273000000000003,0.0,0
1582565703.928,39.551,44.434,24.902,18.066,0.0,0
1582565703.9320002,30.273000000000003,31.25,23.438,15.137,0.0,0
1582565703.95,25.879,27.344,20.508000000000006,27.344,0.0,0
1582565703.954,27.832,41.504,24.414,25.391,0.0,0
1582565703.958,35.645,46.387,32.227,24.414,0.0,0
1582565703.962,29.785,46.875,30.762,25.391,0.0,0
1582565703.966,22.461,46.387,35.645,22.461,0.0,0
1582565703.97,34.668,43.945,39.551,27.344,0.0,0
1582565703.974,40.527,26.855,34.18,30.762,0.0,0
1582565703.9770002,35.156,24.902,37.109,26.855,0.0,0
1582565703.981,28.32,38.574,30.762,25.391,0.0,0
1582565703.985,21.484,40.039,31.738000000000003,29.785,0.0,0
1582565703.9889998,25.879,33.691,45.41,24.902,0.0,0
1582565703.9929998,22.949,42.969,39.062,14.648,0.0,0
1582565703.994,11.23,56.64100000000001,30.273000000000003,7.324,0.0,0
1582565703.998,3.418,49.316,33.203,3.906,0.0,0
1582565704.002,-2.93,33.203,40.039,-0.977,0.0,0
1582565704.006,1.953,23.438,38.574,-7.324,0.0,0
1582565704.01,5.371,25.879,41.01600000000001,-1.953,0.0,0
1582565704.014,5.859,15.625,48.828,6.348,0.0,0
1582565704.018,2.93,7.812,40.039,-2.93,0.0,0
1582565704.021,-1.953,30.273000000000003,31.25,-14.16,0.0,0
1582565704.025,-0.977,63.965,42.969,-14.16,0.0,0
1582565704.029,5.371,69.336,39.551,-3.418,0.0,0
1582565704.033,2.93,48.34,27.344,-1.465,0.0,0
1582565704.0370002,-7.324,37.109,41.992,-19.531,0.0,0
1582565704.039,-6.836,41.01600000000001,51.758,-20.508000000000006,0.0,0
1582565704.043,-4.883,36.621,48.34,-16.113,0.0,0
1582565704.0470002,4.883,30.273000000000003,32.715,-3.906,0.0,0
1582565704.051,16.602,27.344,21.484,2.441,0.0,0
1582565704.055,27.832,11.719,27.832,1.953,0.0,0
1582565704.059,23.438,23.926,29.785,3.418,0.0,0
1582565704.063,6.836,56.152,30.762,4.395,0.0,0
1582565704.066,17.09,55.664,32.715,21.973000000000006,0.0,0
1582565704.07,25.879,48.34,33.691,14.16,0.0,0
1582565704.074,28.32,50.293,27.344,10.254,0.0,0
1582565704.0779998,30.273000000000003,40.527,21.484,26.855,0.0,0
1582565704.082,26.855,24.414,25.879,28.809,0.0,0
1582565704.084,30.762,30.273000000000003,34.18,30.273000000000003,0.0,0
1582565704.0879998,35.645,46.387,36.621,28.809,0.0,0
1582565704.092,40.039,50.293,37.109,32.715,0.0,0
1582565704.096,27.344,41.504,30.762,27.832,0.0,0
1582565704.1,21.484,44.922,20.02,20.508000000000006,0.0,0
1582565704.104,35.156,47.363,26.367,29.297,0.0,0
1582565704.1079998,33.691,41.504,36.133,28.32,0.0,0
1582565704.111,33.203,46.387,41.504,29.297,0.0,0
1582565704.115,37.109,49.805,38.574,26.367,0.0,0
1582565704.119,38.086,41.01600000000001,29.785,19.531,0.0,0
1582565704.123,38.086,38.574,38.574,25.391,0.0,0
1582565704.127,41.01600000000001,41.992,41.992,30.273000000000003,0.0,0
1582565704.129,44.434,31.738000000000003,32.715,28.32,0.0,0
1582565704.133,30.273000000000003,27.832,32.227,14.648,0.0,0
1582565704.137,15.137,43.945,35.156,9.277,0.0,0
1582565704.141,18.066,39.062,29.785,20.996,0.0,0
1582565704.145,24.902,39.551,22.461,19.531,0.0,0
1582565704.149,30.762,56.152,20.508000000000006,18.066,0.0,0
1582565704.153,31.25,48.34,25.391,16.113,0.0,0
1582565704.156,31.738000000000003,51.27,21.484,21.973000000000006,0.0,0
1582565704.16,36.621,55.664,19.531,28.809,0.0,0
1582565704.164,33.691,45.898,28.809,24.414,0.0,0
1582565704.168,33.203,36.133,34.668,18.066,0.0,0
1582565704.1720002,22.461,33.691,37.109,12.695,0.0,0
1582565704.174,21.484,32.227,28.809,20.996,0.0,0
1582565704.178,30.762,33.691,27.832,29.785,0.0,0
1582565704.1820002,23.926,32.715,26.855,15.625,0.0,0
1582565704.186,29.297,33.691,17.09,16.602,0.0,0
1582565704.19,37.109,44.922,27.832,27.344,0.0,0
1582565704.194,34.18,47.363,38.574,28.32,0.0,0
1582565704.198,34.18,49.316,34.668,23.926,0.0,0
1582565704.201,36.133,48.828,32.715,16.113,0.0,0
1582565704.205,20.996,41.992,38.574,12.695,0.0,0
1582565704.209,7.324,33.203,28.809,15.137,0.0,0
1582565704.2129998,18.555,43.945,17.09,16.602,0.0,0
1582565704.217,25.391,40.039,28.32,12.695,0.0,0
1582565704.219,23.438,17.578,38.574,17.578,0.0,0
1582565704.2229998,18.066,27.832,38.574,19.043,0.0,0
1582565704.2270002,22.949,45.898,21.484,19.531,0.0,0
1582565704.231,28.809,43.457,13.184,18.066,0.0,0
1582565704.235,29.297,53.223,27.344,14.16,0.0,0
1582565704.2389998,34.18,53.223,32.227,21.973000000000006,0.0,0
1582565704.2429998,26.367,41.504,26.367,15.625,0.0,0
1582565704.246,20.996,40.527,25.391,7.812,0.0,0
1582565704.25,26.855,40.039,38.574,15.137,0.0,0
1582565704.254,24.414,30.762,43.945,23.438,0.0,0
1582565704.258,21.484,9.766,34.668,21.973000000000006,0.0,0
1582565704.262,23.438,11.23,31.25,13.672,0.0,0
1582565704.264,30.273000000000003,40.039,35.645,17.578,0.0,0
1582565704.268,34.668,52.246,30.273000000000003,27.344,0.0,0
1582565704.272,32.715,43.457,20.508000000000006,24.902,0.0,0
1582565704.276,28.32,39.551,25.879,20.02,0.0,0
1582565704.28,31.738000000000003,47.363,26.367,15.625,0.0,0
1582565704.284,28.809,47.363,24.414,20.508000000000006,0.0,2
1582565704.288,23.438,40.039,29.297,33.691,0.0,0
1582565704.291,28.32,24.414,38.574,23.438,0.0,0
1582565704.295,33.203,13.184,37.598,9.277,0.0,0
1582565704.299,31.25,36.133,30.273000000000003,15.625,0.0,0
1582565704.303,27.344,46.875,33.691,27.832,0.0,0
1582565704.3070002,15.137,39.551,35.156,17.578,0.0,0
1582565704.309,13.184,49.805,35.156,11.719,0.0,0
1582565704.313,15.137,50.78100000000001,26.855,10.742,0.0,0
1582565704.3170002,7.812,42.969,17.09,9.277,0.0,0
1582565704.321,7.324,47.363,20.508000000000006,12.207,0.0,0
1582565704.325,14.648,38.574,26.855,8.789,0.0,0
1582565704.329,14.648,20.508000000000006,31.25,11.719,0.0,0
1582565704.333,8.789,31.25,31.25,8.301,0.0,0
1582565704.336,6.348,46.875,35.156,5.859,0.0,0
1582565704.34,13.184,53.223,34.18,4.395,0.0,0
1582565704.344,22.461,50.293,30.762,2.93,0.0,0
1582565704.3479998,15.625,47.852,33.203,9.766,0.0,0
1582565704.3520002,8.789,51.27,32.227,14.648,0.0,0
1582565704.3679998,11.719,47.363,30.273000000000003,14.16,0.0,0
1582565704.3720002,14.648,26.367,21.484,8.789,0.0,0
1582565704.3760002,17.578,24.414,13.184,12.207,0.0,0
1582565704.38,14.648,40.039,26.855,18.066,0.0,0
1582565704.3839998,14.648,41.504,33.691,22.461,0.0,0
1582565704.3879998,20.508000000000006,45.41,30.762,23.438,0.0,0
1582565704.3920002,31.738000000000003,40.039,41.992,32.227,0.0,0
1582565704.395,25.879,40.527,48.34,28.32,0.0,0
1582565704.399,16.113,47.363,41.01600000000001,21.484,0.0,0
1582565704.403,22.461,44.434,33.691,18.066,0.0,0
1582565704.407,22.949,42.48,34.18,7.324,0.0,0
1582565704.411,25.391,41.992,31.25,2.441,0.0,0
1582565704.414,40.039,48.34,22.461,7.812,0.0,0
1582565704.418,55.176,47.363,28.809,13.184,0.0,0
1582565704.4220002,52.734,43.945,42.48,4.395,0.0,0
1582565704.426,45.41,35.645,26.367,11.23,0.0,0
1582565704.43,44.922,40.527,17.578,28.32,0.0,0
1582565704.434,33.203,50.293,31.738000000000003,24.414,0.0,0
1582565704.438,24.902,52.734,37.109,15.625,0.0,0
1582565704.441,19.043,53.223,42.969,12.207,0.0,0
1582565704.445,17.09,46.875,34.668,14.16,0.0,0
1582565704.449,20.996,40.039,27.832,21.484,0.0,0
1582565704.4529998,15.625,29.785,29.785,16.602,0.0,0
1582565704.457,10.742,17.09,23.438,8.789,0.0,0
1582565704.459,10.254,20.02,14.16,13.184,0.0,0
1582565704.4629998,8.789,21.973000000000006,18.066,19.043,0.0,0
1582565704.467,11.719,28.809,35.645,17.09,0.0,0
1582565704.471,9.766,43.945,32.227,9.766,0.0,0
1582565704.475,6.348,40.039,27.832,13.184,0.0,0
1582565704.479,1.465,44.922,32.227,14.648,0.0,0
1582565704.4829998,2.93,58.105,30.273000000000003,6.348,0.0,0
1582565704.486,7.812,50.293,25.391,-0.488,0.0,0
1582565704.49,6.348,39.062,26.855,5.371,0.0,0
1582565704.494,5.371,34.668,37.109,9.766,0.0,0
1582565704.498,3.906,19.531,40.527,8.301,0.0,0
1582565704.502,11.719,17.09,27.344,9.277,0.0,0
1582565704.504,16.602,32.715,15.625,5.859,0.0,0
1582565704.508,13.672,41.504,13.672,4.395,0.0,0
1582565704.512,9.766,51.758,30.273000000000003,9.277,0.0,0
1582565704.516,10.254,51.27,40.039,2.93,0.0,0
1582565704.52,11.719,50.293,33.691,-2.93,0.0,0
1582565704.524,6.836,47.363,33.203,7.324,0.0,0
1582565704.528,5.371,37.109,41.504,15.625,0.0,0
1582565704.531,15.137,38.086,46.875,20.02,0.0,0
1582565704.535,22.949,41.992,35.645,12.695,0.0,0
1582565704.539,14.648,28.809,29.785,6.348,0.0,0
1582565704.543,8.301,35.156,30.273000000000003,13.672,0.0,0
1582565704.5470002,20.508000000000006,41.504,32.227,24.414,0.0,0
1582565704.549,26.367,17.578,33.691,19.043,0.0,0
1582565704.553,19.043,19.043,23.926,13.184,0.0,0
1582565704.5570002,22.461,42.48,22.461,24.414,0.0,0
1582565704.561,28.809,55.176,29.297,22.461,0.0,0
1582565704.565,20.02,54.688,32.715,13.184,0.0,0
1582565704.569,19.043,46.387,38.086,17.578,0.0,0
1582565704.573,25.391,34.668,40.039,28.32,0.0,0
1582565704.576,26.367,26.367,32.715,34.18,0.0,0
1582565704.58,32.715,32.715,27.344,23.438,0.0,0
1582565704.584,35.156,35.645,23.438,13.672,0.0,0
1582565704.5879998,35.645,38.086,20.996,18.555,0.0,0
1582565704.592,33.691,44.922,25.391,20.996,0.0,0
1582565704.594,29.297,48.34,37.598,17.578,0.0,0
1582565704.5979998,18.555,47.852,46.387,0.0,0.0,0
1582565704.6020002,15.625,48.34,34.18,0.488,0.0,0
1582565704.606,19.043,53.223,25.879,5.371,0.0,0
1582565704.61,21.973000000000006,45.898,33.691,8.301,0.0,0
1582565704.6139998,28.32,40.527,40.039,16.113,0.0,0
1582565704.6179998,28.32,40.527,31.25,15.137,0.0,0
1582565704.621,27.344,38.574,27.344,10.742,0.0,0
1582565704.625,30.762,42.48,28.32,9.766,0.0,0
1582565704.629,41.992,48.828,29.785,12.695,0.0,0
1582565704.633,36.621,32.715,28.809,14.16,0.0,0
1582565704.637,16.602,21.973000000000006,24.414,14.648,0.0,0
1582565704.639,15.625,41.992,39.551,12.695,0.0,0
1582565704.643,23.438,47.363,48.34,10.254,0.0,0
1582565704.647,20.508000000000006,39.062,25.391,8.789,0.0,0
1582565704.651,17.578,27.832,25.391,23.438,0.0,0
1582565704.655,17.09,30.762,42.48,24.902,0.0,0
1582565704.659,16.113,45.898,45.41,11.719,0.0,0
1582565704.663,12.207,42.48,43.945,0.977,0.0,0
1582565704.666,12.695,37.598,41.992,7.812,0.0,0
1582565704.67,28.809,40.527,34.668,29.785,0.0,0
1582565704.674,29.297,28.809,26.367,27.344,0.0,0
1582565704.678,19.043,23.438,34.18,10.254,0.0,0
1582565704.6820002,20.02,19.531,43.945,16.113,0.0,0
1582565704.684,27.344,20.02,45.41,34.18,0.0,0
1582565704.688,32.227,25.879,38.574,35.156,0.0,0
1582565704.6920002,25.391,40.527,35.645,20.996,0.0,0
1582565704.696,20.508000000000006,67.383,36.133,20.508000000000006,0.0,0
1582565704.7,12.207,67.87100000000001,33.203,25.879,0.0,0
1582565704.704,7.324,48.34,33.203,18.066,0.0,0
1582565704.708,16.602,45.898,34.18,13.184,0.0,0
1582565704.711,24.414,41.01600000000001,41.504,19.531,0.0,0
1582565704.715,26.367,34.668,42.48,31.25,0.0,0
1582565704.719,22.949,33.203,35.645,32.227,0.0,0
1582565704.7229998,24.902,35.156,36.133,15.137,0.0,0
1582565704.7270002,31.738000000000003,27.344,39.062,9.277,0.0,0
1582565704.744,32.227,33.691,42.48,18.555,0.0,0
1582565704.748,23.926,54.688,36.621,21.484,0.0,0
1582565704.752,11.23,58.594,26.855,10.254,0.0,0
1582565704.756,14.648,59.57,29.785,5.859,0.0,0
1582565704.76,25.391,56.152,41.01600000000001,11.23,0.0,0
1582565704.764,24.902,46.875,35.156,9.766,0.0,0
1582565704.768,32.715,45.41,31.25,16.602,0.0,0
1582565704.771,29.785,30.273000000000003,45.41,22.461,0.0,0
1582565704.775,17.578,17.09,45.41,13.672,0.0,0
1582565704.779,24.902,28.809,41.992,16.602,0.0,0
1582565704.783,22.461,36.133,46.387,20.02,0.0,0
1582565704.7870002,10.742,49.316,34.668,3.906,0.0,0
1582565704.789,7.324,56.152,27.832,-5.371,0.0,0
1582565704.793,13.672,51.27,38.574,3.906,0.0,0
1582565704.7970002,20.508000000000006,47.363,39.062,19.043,0.0,0
1582565704.801,25.391,48.34,40.039,22.949,0.0,0
1582565704.805,24.902,38.086,39.551,10.254,0.0,0
1582565704.809,20.996,16.602,35.645,13.184,0.0,0
1582565704.813,21.484,18.555,37.598,31.738000000000003,0.0,0
1582565704.816,21.484,46.387,40.039,24.902,0.0,0
1582565704.82,18.066,60.547,43.457,5.859,0.0,0
1582565704.824,4.395,56.152,40.527,-4.395,0.0,0
1582565704.8279998,7.324,52.734,39.551,2.441,0.0,0
1582565704.832,13.184,50.293,43.945,8.301,0.0,0
1582565704.834,16.602,44.922,38.574,4.883,0.0,0
1582565704.8379998,26.367,33.203,38.574,13.672,0.0,0
1582565704.842,26.855,27.344,50.78100000000001,29.297,0.0,0
1582565704.846,11.719,29.297,50.78100000000001,17.09,0.0,0
1582565704.85,5.859,32.227,37.109,2.93,0.0,0
1582565704.854,9.766,31.738000000000003,41.01600000000001,2.93,0.0,0
1582565704.8579998,1.465,37.109,53.223,-0.977,0.0,0
1582565704.861,3.418,35.156,58.105,6.836,0.0,0
1582565704.865,6.836,26.855,56.64100000000001,4.395,0.0,0
1582565704.869,7.812,31.738000000000003,46.387,-5.371,0.0,0
1582565704.873,16.113,41.992,35.645,3.906,0.0,0
1582565704.877,16.113,49.805,36.133,9.766,0.0,0
1582565704.88,11.23,46.387,33.691,12.695,0.0,0
1582565704.8839998,18.555,23.438,35.645,4.883,0.0,0
1582565704.8879998,24.902,22.461,37.109,3.418,0.0,0
1582565704.8920002,8.301,45.898,33.691,13.672,0.0,0
1582565704.896,-3.418,54.199,37.598,2.441,0.0,0
1582565704.9,-5.859,50.78100000000001,35.156,-17.09,0.0,0
1582565704.904,0.488,48.828,42.48,-7.324,0.0,0
1582565704.907,6.348,43.945,46.387,7.324,0.0,0
1582565704.911,5.371,31.738000000000003,35.645,7.324,0.0,0
1582565704.915,8.789,17.09,29.297,3.906,0.0,0
1582565704.919,9.277,19.531,28.809,-8.789,0.0,0
1582565704.923,11.719,42.969,33.691,-4.883,0.0,0
1582565704.924,8.301,55.176,35.156,4.883,0.0,0
1582565704.928,6.836,55.176,35.645,7.324,0.0,0
1582565704.9320002,12.695,57.129,34.18,7.324,0.0,0
1582565704.936,10.254,38.574,31.25,3.906,0.0,0
1582565704.94,5.859,31.25,33.691,5.859,0.0,0
1582565704.944,10.254,44.434,40.527,13.184,0.0,0
1582565704.948,14.648,41.504,39.062,10.742,0.0,0
1582565704.951,16.113,39.551,29.297,2.93,0.0,0
1582565704.955,9.766,37.598,32.227,10.254,0.0,0
1582565704.959,8.301,30.762,40.039,16.602,0.0,0
1582565704.9629998,15.137,26.855,41.01600000000001,10.254,0.0,0
1582565704.967,12.695,35.156,32.227,-0.488,0.0,0
1582565704.969,12.695,44.434,23.438,7.812,0.0,0
1582565704.9729998,12.207,25.879,28.32,21.973000000000006,0.0,0
1582565704.9770002,13.184,19.043,26.855,14.16,0.0,0
1582565704.981,20.508000000000006,32.715,21.484,3.906,0.0,0
1582565704.985,11.23,37.598,24.902,-6.836,0.0,0
1582565704.9889998,3.906,48.828,31.738000000000003,-0.488,0.0,0
1582565704.9929998,6.348,56.64100000000001,36.621,5.371,0.0,0
1582565704.996,4.395,50.78100000000001,36.621,-12.207,0.0,0
1582565705.0,15.625,43.945,39.551,-9.766,0.0,0
1582565705.004,20.508000000000006,24.902,37.598,9.766,0.0,0
1582565705.008,12.695,28.809,30.762,12.207,0.0,0
1582565705.012,16.602,46.387,39.551,5.859,0.0,0
1582565705.014,12.207,50.293,42.48,-5.859,0.0,0
1582565705.018,4.883,46.387,30.762,0.977,0.0,0
1582565705.022,9.766,40.039,19.531,14.16,0.0,0
1582565705.026,16.113,44.922,22.461,14.16,0.0,0
1582565705.03,17.578,46.387,40.527,7.812,0.0,0
1582565705.034,13.184,42.969,50.78100000000001,8.301,0.0,0
1582565705.038,16.602,40.039,49.805,13.184,0.0,0
1582565705.041,16.113,41.504,36.621,4.883,0.0,0
1582565705.045,18.555,31.25,29.785,7.812,0.0,0
1582565705.049,17.578,31.738000000000003,40.039,15.625,0.0,0
1582565705.053,6.348,43.945,45.898,14.16,0.0,0
1582565705.0570002,8.789,40.527,36.621,10.742,0.0,0
1582565705.059,20.02,33.691,33.203,12.695,0.0,0
1582565705.063,20.508000000000006,34.18,32.227,13.672,0.0,0
1582565705.0670002,16.602,39.551,37.109,19.531,0.0,0
1582565705.071,18.555,50.293,45.41,28.32,0.0,0
1582565705.075,25.879,57.129,37.109,22.949,0.0,0
1582565705.079,24.902,41.504,26.855,13.184,0.0,0
1582565705.083,13.672,35.156,33.691,15.137,0.0,0
1582565705.086,14.648,49.805,55.176,19.531,0.0,0
1582565705.09,26.367,54.688,63.965,15.137,0.0,0
1582565705.094,24.414,41.504,51.758,8.789,0.0,0
1582565705.0979998,16.602,43.457,42.969,14.16,0.0,0
1582565705.1020002,11.719,51.27,48.828,14.16,0.0,0
