timestamps,TP9,AF7,AF8,TP10,Marker0
1581971189.807,92.773,45.410,68.848,42.480,0
1581971189.811,81.055,37.109,47.852,41.992,0
1581971189.815,91.797,44.922,38.086,34.180,0
1581971189.819,77.637,35.156,53.711,16.602,0
1581971189.823,55.176,33.691,66.895,22.461,0
1581971189.827,66.895,27.344,51.758,17.090,0
1581971189.831,60.547,20.020,40.527,2.441,0
1581971189.834,76.172,22.949,48.828,19.043,0
1581971189.838,67.871,24.902,47.852,11.230,0
1581971189.842,43.457,29.785,52.246,25.879,0
1581971189.846,74.707,41.016,62.012,56.152,0
1581971189.850,94.727,45.898,54.688,61.035,0
1581971189.852,85.938,42.969,62.500,39.551,0
1581971189.856,62.988,43.945,73.242,16.602,0
1581971189.860,51.270,31.738,51.758,8.789,0
1581971189.864,61.523,30.762,51.270,11.230,0
1581971189.868,70.801,36.621,65.918,23.438,0
1581971189.872,60.059,29.297,50.293,1.953,0
1581971189.876,80.078,34.668,29.785,-7.812,0
1581971189.879,112.305,37.598,41.504,17.090,0
1581971189.883,69.336,34.180,70.801,11.719,0
1581971189.887,41.504,28.320,77.148,13.672,0
1581971189.891,64.453,22.949,70.801,25.879,0
1581971189.895,62.012,20.020,58.105,10.254,0
1581971189.897,52.246,26.367,56.152,7.812,0
1581971189.901,45.898,27.344,48.828,14.160,0
1581971189.905,46.875,42.969,41.992,20.996,0
1581971189.909,58.594,62.500,50.293,29.785,0
1581971189.913,51.758,45.898,55.664,16.113,0
1581971189.917,35.645,14.160,49.316,-19.531,0
1581971189.921,50.781,24.414,41.016,-2.930,0
1581971189.924,53.711,36.621,42.969,17.578,0
1581971189.928,36.621,11.230,47.852,4.883,0
1581971189.932,36.621,21.484,52.246,19.043,0
1581971189.936,59.082,28.809,46.875,35.156,0
1581971189.940,69.336,27.832,61.523,32.227,0
1581971189.942,48.828,35.645,56.641,11.230,0
1581971189.946,37.109,24.902,26.855,-7.812,0
1581971189.950,53.711,28.809,22.949,-0.977,0
1581971189.954,70.312,40.039,27.344,9.766,0
1581971189.958,88.379,64.453,56.641,38.574,0
1581971189.962,83.008,56.152,66.895,39.062,0
1581971189.966,61.523,11.719,42.480,-5.371,0
1581971189.969,48.340,12.695,41.016,-13.672,0
1581971189.973,41.016,17.090,31.250,2.930,0
1581971189.977,55.176,16.602,22.949,1.465,0
1581971189.981,60.059,27.832,46.387,-3.418,0
1581971189.985,62.988,35.156,57.617,12.695,0
1581971189.987,70.312,32.227,33.203,0.977,0
1581971189.991,60.547,27.344,21.484,-0.977,0
1581971189.995,71.289,41.992,66.895,17.578,0
1581971189.999,83.984,46.875,91.309,22.949,0
1581971190.003,76.172,29.785,55.176,14.648,0
1581971190.007,49.805,20.508,26.855,4.395,0
1581971190.011,47.852,21.973,32.715,14.648,0
1581971190.014,58.105,32.715,31.250,14.648,0
1581971190.018,50.293,32.715,30.762,-18.066,0
1581971190.022,29.297,30.762,43.945,-30.273,0
1581971190.026,44.922,37.598,41.504,-11.230,0
1581971190.030,65.430,39.551,23.438,7.324,0
1581971190.047,79.590,34.668,14.648,12.695,0
1581971190.051,84.961,40.039,10.742,12.207,0
1581971190.055,104.980,33.691,11.719,0.977,0
1581971190.059,96.191,11.719,19.043,7.324,0
1581971190.063,55.664,17.578,11.230,10.742,0
1581971190.067,51.758,40.039,-2.441,-8.301,0
1581971190.071,51.270,40.527,-3.906,-14.160,0
1581971190.074,53.711,11.230,0.488,-2.930,0
1581971190.078,44.922,16.113,-6.348,-34.180,0
1581971190.082,5.859,28.809,-21.973,-70.801,0
1581971190.086,-37.109,19.531,-21.973,-84.961,0
1581971190.090,-42.969,23.926,0.000,-63.477,0
1581971190.092,-69.824,20.020,7.324,-49.805,0
1581971190.096,-94.238,16.602,-3.418,-83.008,0
1581971190.100,-78.613,27.832,-5.859,-84.961,0
1581971190.104,-66.406,34.668,8.301,-74.707,0
1581971190.108,-35.156,44.434,20.508,-59.082,0
1581971190.112,-19.043,53.223,26.855,-40.527,0
1581971190.116,-3.906,43.945,21.973,-39.551,0
1581971190.119,10.254,32.227,9.766,-40.527,0
1581971190.123,-9.766,20.020,-8.789,-63.477,0
1581971190.127,-5.371,23.926,-1.465,-77.637,0
1581971190.131,25.391,40.039,21.973,-47.363,0
1581971190.135,30.273,30.762,14.648,-28.809,0
1581971190.137,-6.348,33.691,-2.930,-52.246,0
1581971190.141,-14.648,39.551,11.719,-47.852,0
1581971190.145,25.879,37.109,50.781,-33.691,0
1581971190.149,48.828,32.715,63.965,-26.367,0
1581971190.153,44.922,37.598,62.500,-0.488,0
1581971190.157,51.270,48.828,67.871,2.930,0
1581971190.161,60.059,49.316,68.359,0.488,0
1581971190.164,76.172,49.316,66.895,11.230,0
1581971190.168,85.449,57.617,61.523,14.648,0
1581971190.172,60.547,36.133,42.480,17.090,0
1581971190.176,51.758,14.160,39.551,-0.977,0
1581971190.180,64.941,42.480,46.875,-12.207,0
1581971190.182,72.266,48.828,47.363,-4.395,0
1581971190.186,72.754,31.738,48.828,5.371,0
1581971190.190,68.848,35.156,52.734,20.508,0
1581971190.194,61.523,50.781,45.898,17.578,0
1581971190.198,68.848,57.129,42.969,35.156,0
1581971190.202,71.289,48.340,68.359,50.781,0
1581971190.206,56.152,37.598,68.848,21.973,0
1581971190.209,55.664,31.250,37.109,3.906,0
1581971190.213,67.383,25.879,25.391,3.906,0
1581971190.217,60.059,35.156,32.715,23.438,0
1581971190.221,52.734,45.898,49.805,55.176,0
1581971190.225,52.246,41.992,52.734,51.758,0
1581971190.227,49.805,41.504,57.129,49.805,0
1581971190.231,51.758,48.340,62.988,52.734,0
1581971190.235,76.172,59.082,61.523,60.547,0
1581971190.239,101.562,52.246,62.500,59.570,0
1581971190.243,106.445,36.133,57.129,40.039,0
1581971190.247,94.727,41.504,56.152,37.598,0
1581971190.251,84.473,46.875,60.059,35.156,0
1581971190.254,71.289,40.039,58.105,33.203,0
1581971190.258,68.359,36.133,60.547,23.438,0
1581971190.262,83.008,40.039,60.059,19.043,0
1581971190.266,75.195,37.598,55.664,30.273,0
1581971190.270,79.102,30.762,57.617,37.598,0
1581971190.272,92.773,33.691,61.523,26.367,0
1581971190.276,81.055,37.109,61.035,18.555,0
1581971190.280,78.613,39.062,61.523,33.691,0
1581971190.284,99.121,48.340,68.359,33.691,0
1581971190.288,87.891,46.875,68.848,20.020,0
1581971190.292,87.402,38.574,54.199,8.789,0
1581971190.296,87.891,49.805,53.711,7.324,0
1581971190.299,49.316,53.711,62.012,-9.766,0
1581971190.303,29.785,40.527,63.965,-23.926,0
1581971190.307,33.203,46.387,75.195,-25.879,0
1581971190.311,16.602,50.293,87.402,-23.438,0
1581971190.315,-15.137,38.574,83.496,-50.781,0
1581971190.317,-41.016,25.391,66.895,-89.355,0
1581971190.321,-71.289,17.090,68.848,-109.375,0
1581971190.325,-108.887,25.391,78.125,-119.629,0
1581971190.329,-176.270,30.273,87.402,-133.789,0
1581971190.333,-230.957,27.832,92.285,-154.785,0
1581971190.337,-217.285,32.715,86.914,-167.480,0
1581971190.341,-204.590,34.668,84.961,-182.129,0
1581971190.344,-248.535,16.602,86.426,-195.312,0
1581971190.348,-259.766,9.277,77.148,-200.195,0
1581971190.352,-272.949,27.344,67.383,-209.961,0
1581971190.356,-266.113,33.203,82.031,-223.145,0
1581971190.360,-237.305,30.273,96.191,-216.797,0
1581971190.362,-261.230,34.668,90.332,-217.285,0
1581971190.366,-256.348,42.480,76.172,-215.820,0
1581971190.370,-217.773,40.527,61.523,-200.195,0
1581971190.374,-205.566,27.344,65.430,-206.543,0
1581971190.378,-171.387,27.344,61.035,-206.055,0
1581971190.382,-136.719,35.645,43.945,-171.875,0
1581971190.386,-118.652,64.941,50.293,-141.602,0
1581971190.389,-87.891,68.848,60.547,-134.766,0
1581971190.393,-67.383,32.715,66.406,-122.559,0
1581971190.397,-39.062,22.461,62.988,-109.375,0
1581971190.401,-7.812,43.457,70.801,-81.055,0
1581971190.405,4.883,49.316,77.148,-68.848,0
1581971190.422,-7.324,26.367,43.945,-84.473,0
1581971190.426,-11.230,24.414,27.344,-65.430,0
1581971190.430,17.090,44.434,46.387,-23.926,0
1581971190.434,75.195,47.852,53.711,-5.859,0
1581971190.438,109.863,42.969,52.734,15.625,0
1581971190.442,89.355,39.551,57.129,51.270,0
1581971190.446,99.121,32.227,51.270,64.453,0
1581971190.449,151.367,35.156,41.504,66.895,0
1581971190.453,164.062,41.504,48.340,79.590,0
1581971190.457,163.086,37.109,58.594,79.590,0
1581971190.461,158.691,18.066,61.523,72.266,0
1581971190.465,165.039,12.207,58.105,79.102,0
1581971190.467,176.270,23.438,48.340,96.680,0
1581971190.471,173.340,16.113,38.574,91.797,0
1581971190.475,180.664,10.742,38.574,83.984,0
1581971190.479,189.941,27.344,42.480,97.168,0
1581971190.483,191.895,40.039,50.781,95.703,0
1581971190.487,187.500,34.668,45.898,106.934,0
1581971190.491,179.688,32.227,34.180,133.789,0
1581971190.494,179.688,31.738,41.992,115.234,0
1581971190.498,176.758,25.879,62.988,87.891,0
1581971190.502,186.523,29.297,67.871,88.867,0
1581971190.506,184.570,34.668,57.617,100.586,0
1581971190.510,171.387,27.344,47.852,86.914,0
1581971190.513,182.129,24.414,52.246,73.242,0
1581971190.517,192.383,21.484,61.035,83.984,0
1581971190.521,144.531,14.648,53.223,79.102,0
1581971190.525,110.840,26.367,49.316,85.938,0
1581971190.529,138.672,33.691,58.105,99.121,0
1581971190.533,133.789,28.320,62.988,108.887,0
1581971190.537,71.289,13.184,48.340,100.586,0
1581971190.540,0.000,18.066,42.969,54.688,0
1581971190.544,-37.109,35.645,47.852,39.551,0
1581971190.548,-60.547,33.691,52.246,38.574,0
1581971190.552,-72.754,34.180,64.941,46.875,0
1581971190.556,-44.434,35.645,67.871,77.637,0
1581971190.558,-23.926,21.484,51.270,79.590,0
1581971190.562,7.324,20.996,44.434,62.500,0
1581971190.566,25.879,32.715,53.223,58.594,0
1581971190.570,8.301,35.156,60.059,52.734,0
1581971190.574,32.227,38.086,58.105,49.316,0
1581971190.578,13.184,34.180,56.641,62.988,0
1581971190.582,-23.438,31.738,59.570,65.430,0
1581971190.585,-5.859,33.203,60.547,57.617,0
1581971190.589,6.836,39.062,63.965,56.152,0
1581971190.593,20.508,45.410,62.988,54.199,0
1581971190.597,51.758,41.992,58.105,59.570,0
1581971190.601,74.219,45.410,61.523,67.383,0
1581971190.603,74.707,51.270,62.988,85.938,0
1581971190.607,85.449,45.410,59.570,90.332,0
1581971190.611,96.680,37.109,55.664,90.820,0
1581971190.615,91.797,35.645,37.598,70.312,0
1581971190.619,83.984,44.922,33.691,47.363,0
1581971190.623,78.125,47.852,47.852,58.594,0
1581971190.627,104.492,38.574,45.898,54.688,0
1581971190.630,125.000,37.598,54.688,50.293,0
1581971190.634,124.023,39.551,63.965,64.453,0
1581971190.638,129.395,29.785,59.570,56.152,0
1581971190.642,143.555,29.297,51.758,48.340,0
1581971190.646,115.723,29.297,51.270,28.809,0
1581971190.648,91.309,26.367,52.734,23.438,0
1581971190.652,127.930,37.598,55.664,63.477,0
1581971190.656,134.277,40.527,59.570,61.035,0
1581971190.660,109.375,28.809,49.316,25.879,0
1581971190.664,115.234,33.203,52.246,19.043,0
1581971190.668,115.234,42.969,56.641,29.297,0
1581971190.672,97.168,23.438,44.922,24.902,0
1581971190.675,98.145,13.184,46.387,21.973,0
1581971190.679,115.234,30.762,55.664,32.227,0
1581971190.683,110.352,34.668,54.199,41.016,0
1581971190.687,82.031,34.180,45.898,37.598,0
1581971190.691,86.426,41.504,41.992,30.273,0
1581971190.693,119.629,42.969,47.363,35.645,0
1581971190.697,69.824,33.203,45.898,25.391,0
1581971190.701,25.879,27.832,52.734,14.160,0
1581971190.705,38.086,26.855,65.918,22.949,0
1581971190.709,23.438,30.273,63.965,24.902,0
1581971190.713,9.277,35.645,62.500,22.949,0
1581971190.717,-1.465,37.109,62.500,20.996,0
1581971190.720,-11.230,34.180,60.059,14.648,0
1581971190.724,-7.812,45.410,49.316,30.762,0
1581971190.728,-19.531,45.898,47.363,27.344,0
1581971190.732,-49.316,28.809,56.152,6.348,0
1581971190.736,-64.941,24.414,59.570,-0.488,0
1581971190.738,-35.156,17.090,61.523,15.137,0
1581971190.742,-17.090,17.090,70.801,30.762,0
1581971190.746,-53.223,40.039,70.312,21.484,0
1581971190.750,-59.082,57.617,59.082,19.043,0
1581971190.754,-62.988,52.246,45.410,19.531,0
1581971190.758,-81.543,48.828,51.270,17.578,0
1581971190.762,-106.934,35.645,67.871,-5.859,0
1581971190.765,-124.512,17.090,65.430,-17.090,0
1581971190.769,-133.789,29.297,58.105,-27.832,0
1581971190.773,-164.062,41.016,59.082,-50.293,0
1581971190.777,-190.918,41.504,57.129,-45.898,0
1581971190.781,-212.891,40.039,54.199,-59.082,0
1581971190.798,-204.102,42.969,61.035,-59.570,0
1581971190.802,-207.520,32.715,59.082,-50.781,0
1581971190.806,-224.121,26.855,55.664,-44.434,0
1581971190.810,-225.098,41.992,65.430,-43.945,0
1581971190.814,-235.352,40.527,62.500,-50.781,0
1581971190.818,-230.957,40.039,54.688,-56.641,0
1581971190.822,-198.242,49.316,51.758,-53.223,0
1581971190.825,-178.711,51.270,44.922,-31.250,0
1581971190.829,-154.297,44.434,44.922,-11.230,0
1581971190.833,-134.277,34.180,48.340,-12.207,0
1581971190.837,-144.043,26.855,42.969,-44.434,0
1581971190.841,-142.578,26.855,41.992,-45.898,0
1581971190.843,-110.352,30.273,41.504,-20.996,0
1581971190.847,-68.848,38.086,33.203,-2.930,0
1581971190.851,-52.734,45.410,34.180,15.137,0
1581971190.855,-51.758,41.504,50.781,22.949,0
1581971190.859,-39.551,37.598,59.082,30.762,0
1581971190.863,-38.574,40.527,52.246,30.273,0
1581971190.867,-33.203,49.805,36.621,15.137,0
1581971190.870,-30.273,48.340,41.504,10.254,0
1581971190.874,-30.273,46.387,63.965,22.461,0
1581971190.878,-6.836,52.246,73.730,35.156,0
1581971190.882,-3.418,37.598,60.059,28.809,0
1581971190.886,5.371,41.504,52.734,41.992,0
1581971190.887,15.137,58.105,58.594,50.781,0
1581971190.891,10.254,53.223,59.082,36.621,0
1581971190.895,10.254,40.527,41.992,11.230,0
1581971190.899,11.230,37.109,32.715,9.766,0
1581971190.903,33.691,45.898,54.199,37.109,0
1581971190.907,67.383,54.688,68.359,34.668,0
1581971190.911,49.316,34.668,61.523,21.973,0
1581971190.914,41.992,35.645,49.316,22.949,0
1581971190.918,58.594,57.617,58.105,20.020,0
1581971190.922,60.059,51.758,70.312,32.715,0
1581971190.926,79.102,44.434,63.965,39.551,0
1581971190.930,112.793,51.758,69.336,37.109,0
1581971190.932,120.605,25.879,67.871,42.969,0
1581971190.936,99.609,23.438,48.340,38.086,0
1581971190.940,89.844,59.570,53.711,35.156,0
1581971190.944,97.168,62.012,62.988,42.969,0
1581971190.948,102.051,54.688,63.477,41.016,0
1581971190.952,113.770,42.969,62.500,42.480,0
1581971190.956,134.766,48.828,71.777,55.176,0
1581971190.959,134.277,46.875,71.289,42.480,0
1581971190.963,125.488,27.832,59.082,24.414,0
1581971190.967,115.234,32.715,51.270,18.066,0
1581971190.971,126.465,44.922,49.805,27.832,0
1581971190.975,144.043,49.805,67.871,31.250,0
1581971190.977,149.902,43.457,66.895,26.855,0
1581971190.981,148.438,43.457,60.547,36.621,0
1581971190.985,150.879,44.434,67.871,41.992,0
1581971190.989,161.133,37.109,77.637,36.621,0
1581971190.993,153.809,42.969,85.938,42.480,0
1581971190.997,134.766,46.875,76.660,47.363,0
1581971191.001,116.211,34.180,63.477,32.227,0
1581971191.004,127.441,33.691,62.988,31.738,0
1581971191.008,140.137,37.109,58.594,27.344,0
1581971191.012,149.902,36.621,60.059,16.602,0
1581971191.016,162.598,30.273,72.266,21.973,0
1581971191.020,151.855,19.531,65.918,16.602,0
1581971191.022,158.203,26.855,57.617,11.719,0
1581971191.026,141.113,32.715,59.570,20.996,0
1581971191.030,135.254,33.691,69.824,19.043,0
1581971191.034,145.508,35.156,73.242,20.020,0
1581971191.038,119.629,36.621,62.988,17.578,0
1581971191.042,121.582,22.461,55.176,14.160,0
1581971191.046,121.094,26.367,60.059,20.508,0
1581971191.049,117.676,36.133,64.453,7.812,0
1581971191.053,90.332,24.414,49.316,-7.812,0
1581971191.057,65.430,26.367,41.016,-2.930,0
1581971191.061,66.406,28.809,52.246,-5.371,0
1581971191.065,71.777,29.297,67.871,6.836,0
1581971191.068,60.547,34.668,66.895,22.949,0
1581971191.072,51.758,28.320,63.965,11.719,0
1581971191.076,46.875,27.832,67.383,19.531,0
1581971191.080,10.742,30.762,61.035,13.184,0
1581971191.084,0.977,29.785,47.852,-5.859,0
1581971191.088,14.160,28.809,51.270,24.902,0
1581971191.092,-13.672,25.879,68.848,1.953,0
1581971191.095,-39.551,32.715,64.941,-20.996,0
1581971191.099,-40.039,33.691,73.242,7.324,0
1581971191.103,-30.273,30.762,78.613,14.160,0
1581971191.107,7.812,49.316,74.707,20.020,27270
1581971191.111,29.785,39.551,70.312,19.043,0
1581971191.112,26.855,19.531,63.477,3.418,0
1581971191.116,40.527,39.551,64.453,-15.625,0
1581971191.120,47.363,41.504,55.176,-16.113,0
1581971191.124,58.105,34.180,47.852,-12.207,0
1581971191.128,82.031,42.480,56.152,0.000,0
1581971191.132,114.746,42.969,74.219,18.555,0
1581971191.136,128.906,26.367,73.242,5.859,0
1581971191.139,111.328,25.391,61.523,-6.836,0
1581971191.143,63.965,42.969,54.199,-5.859,0
1581971191.147,58.594,49.805,51.270,-7.812,0
1581971191.151,104.004,50.781,60.547,1.465,0
1581971191.155,133.301,44.922,61.523,31.250,0
1581971191.172,140.137,55.176,55.664,44.922,0
1581971191.176,138.184,59.082,59.570,31.738,0
1581971191.180,133.301,37.598,59.082,19.043,0
1581971191.184,140.625,35.645,60.059,15.137,0
1581971191.188,145.020,43.457,65.430,14.648,0
1581971191.192,132.812,37.109,62.500,5.859,0
1581971191.196,126.465,39.551,61.035,6.836,0
1581971191.199,125.488,45.410,59.570,9.277,0
1581971191.203,133.789,38.086,53.223,9.766,0
1581971191.207,132.812,40.039,61.035,15.625,0
1581971191.211,128.418,40.039,62.500,23.438,0
1581971191.215,136.719,37.109,57.129,28.320,0
1581971191.217,134.766,37.109,61.035,20.020,0
1581971191.221,114.746,33.691,61.035,17.578,0
1581971191.225,104.492,31.738,53.223,20.996,0
1581971191.229,109.375,27.832,54.199,37.109,0
1581971191.233,121.094,28.320,66.406,34.180,0
1581971191.237,122.559,33.691,70.312,14.160,0
1581971191.241,111.816,27.832,65.918,5.371,0
1581971191.244,112.793,37.109,67.871,0.977,0
1581971191.248,140.625,56.152,79.102,14.648,0
1581971191.252,136.719,41.504,61.035,14.648,0
1581971191.256,95.703,18.066,47.852,12.695,0
1581971191.260,87.402,23.926,59.082,10.742,0
1581971191.262,112.305,30.762,73.242,2.441,0
1581971191.266,111.816,18.555,64.453,7.324,0
1581971191.270,115.723,15.625,34.668,5.859,0
1581971191.274,119.629,36.621,42.480,-0.977,0
1581971191.278,106.445,38.086,55.176,7.324,0
1581971191.282,116.211,36.133,61.523,16.602,0
1581971191.286,122.559,44.434,67.383,9.766,0
1581971191.289,110.840,37.598,62.500,2.441,0
1581971191.293,105.957,38.574,67.871,8.301,0
1581971191.297,124.023,48.340,73.242,28.320,0
1581971191.301,120.605,40.039,60.547,28.320,0
1581971191.305,120.117,29.297,50.781,13.672,0
1581971191.307,119.141,32.715,55.176,-1.465,0
1581971191.311,101.074,39.062,70.312,2.930,0
1581971191.315,123.047,45.410,68.359,18.066,0
1581971191.319,108.398,37.598,49.316,3.906,0
1581971191.323,96.191,38.086,54.688,1.465,0
1581971191.327,125.000,45.898,68.359,12.207,0
1581971191.331,142.090,41.992,71.289,21.973,0
1581971191.334,136.230,43.945,78.125,56.152,0
1581971191.338,104.980,38.574,66.406,23.438,0
1581971191.342,79.590,25.879,42.969,-39.062,0
1581971191.346,82.031,23.438,39.062,-22.461,0
1581971191.350,82.520,22.949,48.828,-6.348,0
1581971191.352,82.520,20.508,60.059,-11.230,0
1581971191.356,101.562,23.438,48.828,-15.625,0
1581971191.360,101.074,35.156,49.316,-12.695,0
1581971191.364,95.703,32.227,62.012,-8.301,0
1581971191.368,86.914,31.250,48.340,-1.465,0
1581971191.372,83.496,32.227,28.320,0.488,0
1581971191.376,109.375,28.320,31.738,-20.508,0
1581971191.379,107.422,32.227,50.781,-4.395,0
1581971191.383,94.238,28.809,52.734,4.395,0
1581971191.387,101.074,27.344,43.945,-7.324,0
1581971191.391,110.352,36.621,52.246,10.254,0
1581971191.395,127.441,36.133,55.664,17.090,0
1581971191.398,122.070,29.785,46.875,26.855,0
1581971191.402,104.980,27.832,44.922,40.527,0
1581971191.406,103.027,28.320,46.387,21.973,0
1581971191.410,111.328,32.227,45.410,11.719,0
1581971191.414,117.676,24.414,53.223,18.066,0
1581971191.418,95.215,20.996,54.688,37.109,0
1581971191.422,95.215,38.574,49.805,34.668,0
1581971191.425,113.770,45.410,43.945,25.879,0
1581971191.429,103.516,34.668,38.574,21.973,0
1581971191.433,98.633,30.762,41.016,27.832,0
1581971191.437,104.980,35.645,46.875,44.434,0
1581971191.441,95.215,28.320,54.688,34.668,0
1581971191.443,81.543,25.391,53.223,21.973,0
1581971191.447,102.051,40.039,56.152,39.062,0
1581971191.451,110.840,25.391,66.895,56.152,0
1581971191.455,99.121,9.277,58.105,56.641,0
1581971191.459,104.980,22.461,48.340,41.504,0
1581971191.463,98.145,33.203,44.922,47.363,0
1581971191.467,74.707,45.410,42.480,57.617,0
1581971191.470,78.125,41.016,31.250,45.410,0
1581971191.474,96.680,36.133,31.738,50.293,0
1581971191.478,104.492,41.992,49.805,49.316,0
1581971191.482,103.516,40.039,55.664,58.594,0
1581971191.486,96.191,24.902,57.129,71.777,0
1581971191.488,85.449,10.742,46.387,50.293,0
1581971191.492,84.473,27.832,54.199,38.086,0
1581971191.496,73.730,37.598,57.129,56.152,0
1581971191.500,77.637,42.480,56.152,74.219,0
1581971191.504,101.074,44.434,51.758,62.500,0
1581971191.508,92.285,29.785,37.109,45.898,0
1581971191.512,81.055,21.484,49.316,57.617,0
1581971191.515,88.867,31.738,51.270,69.336,0
1581971191.519,90.332,43.945,32.715,60.547,0
1581971191.523,82.031,37.109,36.621,48.828,0
1581971191.527,64.453,29.297,43.457,36.133,0
1581971191.531,58.105,24.902,37.598,23.438,0
1581971191.548,51.758,17.578,40.527,31.738,0
1581971191.552,58.105,26.367,47.363,39.062,0
1581971191.556,76.172,41.992,42.969,30.762,0
1581971191.560,62.012,33.203,46.875,28.320,0
1581971191.564,53.223,23.438,59.082,49.316,0
1581971191.568,72.754,26.855,63.477,62.012,0
1581971191.572,74.707,30.273,60.059,39.062,0
1581971191.575,53.711,31.738,54.199,20.020,0
1581971191.579,39.551,32.227,49.316,28.320,0
1581971191.583,60.547,34.180,55.176,46.387,0
1581971191.587,84.473,34.180,47.852,35.645,0
1581971191.591,51.758,33.691,35.645,25.391,0
1581971191.593,31.250,35.645,56.152,42.480,0
1581971191.597,48.340,36.621,69.824,41.016,0
1581971191.601,64.941,31.250,52.734,25.879,0
1581971191.605,58.105,32.227,55.176,31.250,0
1581971191.609,39.062,32.227,67.383,38.086,0
1581971191.613,50.781,31.738,52.734,29.297,0
1581971191.617,72.266,32.227,46.875,15.137,0
1581971191.620,79.590,31.250,55.176,10.254,0
1581971191.624,82.031,26.367,51.758,17.090,0
1581971191.628,66.895,27.344,44.922,10.742,0
1581971191.632,57.617,37.598,46.875,19.531,0
1581971191.636,76.660,41.992,50.781,23.926,0
1581971191.638,78.125,33.691,50.293,13.184,0
1581971191.642,79.590,39.062,50.781,20.508,0
1581971191.646,95.215,25.391,47.852,20.508,0
1581971191.650,106.934,1.953,46.387,21.484,0
1581971191.654,83.496,23.438,47.363,21.484,0
1581971191.658,56.641,39.062,40.039,8.301,0
1581971191.662,63.965,38.086,38.574,-11.719,0
1581971191.665,71.289,40.039,46.875,-6.836,0
1581971191.669,82.031,40.527,52.734,7.812,0
1581971191.673,76.660,45.898,55.664,12.207,0
1581971191.677,74.707,52.246,58.594,23.438,0
1581971191.681,112.305,51.270,52.246,40.039,0
1581971191.683,99.121,38.086,43.457,5.859,0
1581971191.687,58.594,16.113,45.898,-16.602,0
1581971191.691,59.570,17.090,64.941,2.441,0
1581971191.695,61.035,21.973,59.570,-8.301,0
1581971191.699,62.988,26.855,44.922,-23.926,0
1581971191.703,67.383,31.250,56.641,-7.812,0
1581971191.707,61.035,28.809,60.547,3.418,0
1581971191.710,76.172,31.738,59.082,4.395,0
1581971191.714,106.445,37.598,71.289,18.555,0
1581971191.718,93.262,36.133,52.734,9.277,0
1581971191.722,59.082,31.738,29.297,-6.348,0
1581971191.726,71.289,31.250,52.246,2.930,0
1581971191.728,89.844,41.504,77.148,9.277,0
1581971191.732,90.820,50.293,68.848,4.395,0
1581971191.736,75.195,47.363,63.477,-1.953,0
1581971191.740,63.477,34.668,59.570,-3.418,0
1581971191.744,75.684,34.180,43.945,-19.531,0
1581971191.748,64.453,35.645,38.086,-31.738,0
1581971191.752,41.992,29.785,47.363,-26.855,0
1581971191.755,53.711,39.551,58.105,-11.230,0
1581971191.759,74.707,39.551,59.570,-2.930,0
1581971191.763,70.801,34.180,49.805,-20.996,0
1581971191.767,60.547,40.039,45.898,-26.855,0
1581971191.771,48.828,37.109,48.828,-27.344,0
1581971191.773,45.898,40.039,54.688,-31.738,0
1581971191.777,34.180,44.434,59.082,-28.809,0
1581971191.781,14.648,40.039,57.129,-51.758,0
1581971191.785,13.672,41.992,58.594,-82.520,0
1581971191.789,-7.812,47.852,62.500,-90.820,0
1581971191.793,-28.809,55.176,70.801,-93.750,0
1581971191.797,-40.039,53.223,70.312,-121.582,0
1581971191.800,-70.801,56.641,75.684,-137.695,0
1581971191.804,-88.867,54.688,77.637,-151.367,0
1581971191.808,-115.723,38.574,68.359,-186.523,0
1581971191.812,-135.254,41.016,69.336,-189.453,0
1581971191.816,-137.207,48.828,61.523,-190.918,0
1581971191.818,-143.555,52.734,51.270,-193.359,0
1581971191.822,-143.066,48.828,43.945,-203.613,0
1581971191.826,-135.254,38.574,44.434,-221.680,0
1581971191.830,-141.602,35.645,64.453,-200.684,0
1581971191.834,-152.344,49.805,68.359,-188.477,0
1581971191.838,-133.301,49.316,63.477,-174.805,0
1581971191.842,-104.492,35.156,80.078,-155.273,0
1581971191.845,-94.238,45.410,88.379,-149.414,0
1581971191.849,-87.891,51.270,85.938,-138.184,0
1581971191.853,-73.730,49.805,69.824,-116.699,0
1581971191.857,-54.688,47.363,58.594,-96.191,0
1581971191.861,-29.297,37.598,68.359,-71.777,0
1581971191.863,-5.371,34.180,61.523,-55.664,0
1581971191.867,24.902,31.250,50.293,-40.039,0
1581971191.871,52.734,29.297,51.270,-23.438,0
1581971191.875,31.250,29.297,37.598,-12.207,0
1581971191.879,27.832,22.949,34.180,-8.301,0
1581971191.883,62.500,10.742,46.875,16.602,0
1581971191.887,74.219,7.324,41.992,35.645,0
1581971191.890,87.891,20.508,32.715,30.762,0
1581971191.894,107.422,29.297,39.062,49.805,0
1581971191.898,110.840,28.320,43.457,43.945,0
1581971191.902,107.910,27.832,45.410,43.457,0
1581971191.906,122.559,28.809,54.688,69.336,0
1581971191.923,117.188,15.625,55.176,61.035,0
1581971191.927,109.375,17.090,56.641,73.730,0
1581971191.931,127.930,30.762,42.969,64.453,0
1581971191.935,135.742,20.996,20.996,43.457,0
1581971191.939,135.254,14.648,14.160,52.734,0
1581971191.943,121.094,24.414,34.180,66.895,0
1581971191.947,123.047,34.668,51.270,80.566,0
1581971191.950,136.719,34.180,46.387,66.406,0
1581971191.954,122.559,25.391,39.062,45.410,0
1581971191.958,120.605,14.160,32.227,50.781,0
1581971191.962,145.996,16.602,41.016,86.914,0
1581971191.966,131.836,25.879,45.410,85.938,0
1581971191.967,113.281,26.367,40.527,47.852,0
1581971191.971,133.301,36.621,47.363,57.129,0
1581971191.975,128.906,20.508,41.504,67.383,0
1581971191.979,110.352,11.230,28.320,52.734,0
1581971191.983,130.371,18.066,32.227,48.828,0
1581971191.987,134.766,15.625,30.273,60.059,0
1581971191.991,124.023,20.020,24.414,62.988,0
1581971191.994,117.676,23.438,37.109,62.012,0
1581971191.998,114.258,21.973,53.223,62.012,0
1581971192.002,116.211,35.156,61.035,56.641,0
1581971192.006,111.816,44.922,50.293,54.688,0
1581971192.010,112.793,41.504,47.363,44.922,0
1581971192.012,126.465,33.691,56.152,59.082,0
1581971192.016,131.836,23.926,27.832,56.152,0
1581971192.020,118.652,29.297,10.254,32.227,0
1581971192.024,113.770,37.109,36.133,46.387,0
1581971192.028,121.582,32.715,56.152,50.293,0
1581971192.032,118.652,14.648,58.594,37.598,0
1581971192.036,100.098,8.301,55.664,35.156,0
1581971192.039,94.727,20.996,56.641,46.875,0
1581971192.043,101.074,39.062,55.664,50.781,0
1581971192.047,105.957,44.922,51.270,37.109,0
1581971192.051,120.117,38.086,49.316,33.203,0
1581971192.055,119.629,28.320,44.434,37.109,0
1581971192.057,120.605,33.691,50.293,39.062,0
1581971192.061,143.555,41.992,59.082,48.828,0
1581971192.065,138.184,26.367,45.898,50.293,0
1581971192.069,103.516,31.250,36.621,26.367,0
1581971192.073,99.609,38.086,36.621,15.625,0
1581971192.077,130.371,31.250,42.480,22.949,0
1581971192.081,139.160,43.457,54.199,32.715,0
1581971192.084,110.352,43.457,59.082,36.133,0
1581971192.088,95.215,29.297,52.246,22.949,0
1581971192.092,110.840,27.832,38.086,11.719,0
1581971192.096,122.559,34.180,40.527,11.230,0
1581971192.100,123.047,41.504,55.176,29.297,0
1581971192.102,125.977,34.180,51.758,35.156,0
1581971192.106,125.000,25.879,47.363,19.043,0
1581971192.110,123.047,18.555,53.223,31.250,0
1581971192.114,119.629,20.020,49.316,34.668,0
1581971192.118,112.793,20.996,22.949,26.367,0
1581971192.122,106.445,22.949,26.855,36.621,0
1581971192.126,114.258,35.156,55.176,24.902,0
1581971192.129,123.047,40.039,51.758,4.395,0
1581971192.133,107.422,42.480,48.340,-2.930,0
1581971192.137,93.750,37.598,47.852,-9.277,0
1581971192.141,107.422,33.691,47.852,-3.906,0
1581971192.145,105.469,38.086,40.039,4.395,0
1581971192.147,98.145,41.016,37.109,12.695,0
1581971192.151,95.215,30.762,44.922,16.113,0
1581971192.155,103.516,28.809,54.688,27.832,0
1581971192.159,112.793,28.809,54.688,19.043,0
1581971192.163,118.652,17.090,44.922,0.977,0
1581971192.167,97.656,24.902,42.480,6.836,0
1581971192.171,78.125,35.156,32.227,-7.324,0
1581971192.174,93.750,22.949,29.785,-25.879,27230
1581971192.178,95.703,24.414,51.758,-5.859,0
1581971192.182,101.074,34.180,44.922,11.719,0
1581971192.186,102.539,27.832,23.438,4.883,0
1581971192.190,110.352,23.926,37.598,10.254,0
1581971192.192,105.469,26.855,51.270,8.789,0
1581971192.196,101.562,29.785,46.875,8.301,0
1581971192.200,116.211,24.414,45.410,10.742,0
1581971192.204,118.164,18.555,48.340,2.441,0
1581971192.208,103.027,19.531,39.062,0.000,0
1581971192.212,94.727,34.180,33.691,1.465,0
1581971192.216,108.398,44.922,44.434,7.812,0
1581971192.219,106.934,36.133,48.828,-3.418,0
1581971192.223,91.309,29.785,45.898,-7.324,0
1581971192.227,95.703,28.809,42.969,-3.906,0
1581971192.231,90.332,29.297,47.363,3.906,0
1581971192.235,104.004,39.062,63.965,25.391,0
1581971192.237,139.160,35.645,58.105,26.367,0
1581971192.241,97.656,15.625,39.062,7.812,0
1581971192.245,98.633,23.926,44.434,19.043,0
1581971192.249,117.676,24.414,46.387,20.020,0
1581971192.253,92.773,18.066,37.109,0.000,0
1581971192.257,97.656,34.180,35.156,-2.441,0
1581971192.261,68.848,28.809,35.156,-16.113,0
1581971192.264,70.312,18.066,34.180,-24.902,0
1581971192.268,99.609,22.461,39.062,-13.184,0
1581971192.272,106.934,34.668,43.945,7.324,0
1581971192.276,101.074,35.156,43.457,1.465,0
1581971192.280,78.125,30.762,40.527,-10.254,0
1581971192.297,90.332,31.738,42.969,11.230,0
1581971192.301,116.211,33.203,47.363,19.531,0
1581971192.305,124.512,39.551,49.316,19.043,0
1581971192.309,105.469,42.480,49.316,13.672,0
1581971192.313,81.543,32.715,37.109,-0.488,0
1581971192.317,83.984,27.832,33.691,4.395,0
1581971192.321,107.422,36.621,37.109,-4.395,0
1581971192.324,110.840,38.574,42.480,4.883,0
1581971192.328,86.914,31.738,41.504,12.207,0
1581971192.332,84.961,28.809,36.621,3.906,0
1581971192.336,102.051,26.855,36.133,4.883,0
1581971192.340,100.586,34.668,41.016,25.879,0
1581971192.342,102.539,44.434,51.270,37.598,0
1581971192.346,97.656,34.668,50.293,4.395,0
1581971192.350,90.332,30.762,43.457,-0.488,0
1581971192.354,80.078,35.156,40.039,0.488,0
1581971192.358,99.121,41.504,49.805,3.418,0
1581971192.362,110.840,42.969,45.410,15.625,0
1581971192.366,85.938,45.410,33.691,13.184,0
1581971192.369,83.496,41.016,32.227,5.859,0
1581971192.373,80.078,32.715,34.668,-5.859,0
1581971192.377,83.496,37.598,44.922,4.883,0
1581971192.381,105.469,41.016,52.734,14.160,0
1581971192.385,112.793,35.645,49.316,7.812,0
1581971192.388,94.238,22.949,30.273,-5.859,0
1581971192.392,95.215,27.344,25.391,4.883,0
1581971192.396,123.047,46.875,48.828,18.066,0
1581971192.400,114.258,48.828,62.012,18.555,0
1581971192.404,89.844,34.180,52.734,3.418,0
1581971192.408,73.730,27.832,42.480,-22.949,0
1581971192.412,57.617,27.344,41.016,-20.508,0
1581971192.415,64.941,20.020,39.062,-19.531,0
1581971192.419,74.219,35.645,49.316,-7.324,0
1581971192.423,78.613,46.387,55.176,-6.348,0
1581971192.427,77.637,32.227,41.016,-5.371,0
1581971192.431,82.520,32.715,31.250,0.977,0
1581971192.433,84.473,40.039,30.273,-14.648,0
1581971192.437,91.797,40.039,45.898,-4.883,0
1581971192.441,80.078,34.668,49.316,3.906,0
1581971192.445,72.266,33.691,40.527,0.000,0
1581971192.449,89.355,34.180,42.480,-6.348,0
1581971192.453,107.910,39.062,46.387,-1.953,0
1581971192.457,101.562,45.410,35.156,19.531,0
1581971192.460,100.586,43.945,32.715,16.602,0
1581971192.464,111.328,40.527,49.805,4.395,0
1581971192.468,92.773,41.992,54.199,5.859,0
1581971192.472,79.102,40.527,59.570,3.418,0
1581971192.476,89.355,27.344,55.664,11.719,0
1581971192.478,84.473,21.484,41.992,8.301,0
1581971192.482,90.332,36.621,51.270,0.488,0
1581971192.486,108.887,52.246,61.035,8.301,0
1581971192.490,86.426,40.039,49.805,2.441,0
1581971192.494,75.684,30.762,44.922,0.977,0
1581971192.498,101.074,32.715,42.969,20.996,0
1581971192.502,91.309,37.598,31.250,14.648,0
1581971192.505,82.031,39.551,41.504,15.137,0
1581971192.509,98.145,42.969,52.246,-2.441,0
1581971192.513,78.125,43.945,46.387,-25.391,0
1581971192.517,70.801,37.598,53.711,1.465,0
1581971192.521,84.473,45.410,62.988,18.555,0
1581971192.523,85.449,48.828,48.828,-1.953,0
1581971192.527,83.496,30.762,32.227,-16.113,0
1581971192.531,73.730,33.203,24.414,-3.906,0
1581971192.535,65.918,45.410,30.273,13.672,0
1581971192.539,72.266,42.969,50.781,9.766,0
1581971192.543,74.219,33.203,57.129,4.883,0
1581971192.547,65.430,28.320,49.805,-5.371,0
1581971192.550,65.918,33.691,54.199,-17.090,0
1581971192.554,59.082,35.645,52.246,-5.371,0
1581971192.558,58.105,24.414,47.852,3.906,0
1581971192.562,73.730,31.250,53.711,19.043,0
1581971192.566,73.730,38.574,47.363,24.902,0
1581971192.568,61.523,25.391,39.551,-3.906,0
1581971192.572,66.406,29.785,46.875,-3.906,0
1581971192.576,68.359,34.668,46.875,11.719,0
1581971192.580,53.223,32.715,29.297,12.207,0
1581971192.584,57.617,34.180,20.508,2.441,0
1581971192.588,75.684,37.598,32.227,-9.766,0
1581971192.592,82.520,45.410,46.387,-3.906,0
1581971192.595,82.031,49.805,51.270,7.324,0
1581971192.599,57.129,42.480,43.945,10.254,0
1581971192.603,42.480,38.574,42.480,-2.441,0
1581971192.607,65.918,38.574,41.016,13.184,0
1581971192.611,67.871,25.391,28.809,9.277,0
1581971192.628,57.617,25.391,36.133,-0.488,0
1581971192.632,86.914,37.598,47.363,27.832,0
1581971192.636,85.938,35.645,34.180,10.254,0
1581971192.640,72.754,32.227,33.691,2.930,0
1581971192.644,71.289,37.598,42.969,24.902,0
1581971192.648,72.754,39.551,52.246,20.508,0
1581971192.652,75.684,37.109,55.176,17.578,0
1581971192.655,75.195,31.250,44.922,9.766,0
1581971192.659,73.242,37.598,44.434,11.719,0
1581971192.663,71.777,42.969,54.688,27.344,0
1581971192.667,73.730,30.762,54.199,15.137,0
1581971192.671,95.703,32.715,50.293,9.766,0
1581971192.673,82.031,33.691,47.363,21.973,0
1581971192.677,49.316,29.297,51.270,31.250,0
1581971192.681,61.523,40.039,59.570,24.414,0
1581971192.685,75.195,42.480,56.641,21.484,0
1581971192.689,79.590,30.273,52.734,19.531,0
1581971192.693,68.848,25.391,42.480,7.812,0
1581971192.697,43.945,14.160,33.203,11.230,0
1581971192.700,57.129,10.254,42.969,17.090,0
1581971192.704,78.613,38.086,51.270,13.184,0
1581971192.708,91.797,53.223,56.641,29.785,0
1581971192.712,68.848,42.480,43.945,31.738,0
1581971192.716,68.359,42.480,34.668,11.230,0
1581971192.718,92.773,45.898,43.945,11.230,0
1581971192.722,72.266,41.504,48.828,18.066,0
1581971192.726,48.828,37.598,47.363,12.695,0
1581971192.730,82.031,36.621,57.129,19.531,0
1581971192.734,114.746,45.410,73.730,34.180,0
1581971192.738,84.961,34.180,61.035,11.719,0
1581971192.742,67.383,13.672,40.527,-0.488,0
1581971192.745,84.961,22.461,45.410,9.766,0
1581971192.749,89.844,34.180,46.875,12.695,0
1581971192.753,83.984,38.574,48.340,20.508,0
1581971192.757,58.594,40.039,41.504,29.785,0
1581971192.761,48.340,40.527,37.109,24.902,0
1581971192.763,70.312,44.922,54.688,21.484,0
1581971192.767,70.801,37.109,58.594,6.836,0
1581971192.771,62.500,32.715,48.828,-6.836,0
1581971192.775,71.777,42.480,51.270,0.000,0
1581971192.779,86.426,41.992,62.988,14.160,0
1581971192.783,82.031,21.484,57.129,26.367,0
1581971192.787,72.266,11.230,44.434,19.043,0
1581971192.790,57.617,24.902,39.551,0.977,0
1581971192.794,45.898,34.668,45.898,8.301,0
1581971192.798,61.035,42.480,59.570,15.137,0
1581971192.802,75.684,36.621,58.105,10.742,0
1581971192.806,75.195,30.762,47.852,0.488,0
1581971192.808,56.152,42.480,39.551,-8.301,0
1581971192.812,56.641,41.016,40.039,-6.348,0
1581971192.816,69.824,34.668,48.828,-5.859,0
1581971192.820,51.758,30.273,47.852,0.488,0
1581971192.824,40.039,38.086,45.898,-3.418,0
1581971192.828,54.688,44.922,48.340,-2.930,0
1581971192.832,66.406,42.969,51.758,2.930,0
1581971192.835,67.871,45.898,54.199,6.348,0
1581971192.839,62.500,43.945,50.293,9.766,0
1581971192.843,57.129,32.715,45.898,-2.930,0
1581971192.847,57.617,21.484,42.480,-10.742,0
1581971192.851,58.594,28.809,47.363,-2.930,0
1581971192.853,43.945,33.203,53.711,-7.324,0
1581971192.857,49.805,25.879,60.547,-8.301,0
1581971192.861,70.312,31.738,62.500,15.625,0
1581971192.865,60.059,36.133,53.711,20.996,0
1581971192.869,58.105,21.973,48.340,11.719,0
1581971192.873,61.035,24.902,44.922,-1.465,0
1581971192.877,78.125,33.203,47.852,2.930,0
1581971192.880,79.590,26.367,48.340,6.348,0
1581971192.884,46.387,31.250,44.434,-9.277,0
1581971192.888,36.621,37.598,52.734,1.465,0
1581971192.892,65.430,36.133,61.523,10.254,0
1581971192.896,81.543,34.180,53.711,9.766,0
1581971192.898,66.406,36.621,43.457,16.602,0
1581971192.902,69.824,33.203,42.480,7.324,0
1581971192.906,79.102,45.898,48.828,-13.184,0
1581971192.910,73.242,56.641,48.828,-13.672,0
1581971192.914,77.637,49.316,58.594,1.465,0
1581971192.918,77.637,43.457,66.895,21.973,0
1581971192.922,75.195,33.203,58.105,6.836,0
1581971192.925,66.895,37.109,51.758,0.977,0
1581971192.929,62.500,42.480,56.152,17.090,0
1581971192.933,71.289,37.598,52.734,27.832,0
1581971192.937,61.035,30.273,34.668,15.625,0
1581971192.941,72.754,26.367,28.320,-16.113,0
1581971192.943,85.449,23.438,30.762,-4.883,0
1581971192.947,62.500,39.551,51.758,11.230,0
1581971192.951,52.734,46.387,62.012,8.301,0
1581971192.955,60.059,38.574,56.152,-0.977,0
1581971192.959,66.895,40.527,56.641,-14.160,0
1581971192.963,68.359,48.340,52.246,7.812,0
1581971192.967,79.590,58.594,56.152,21.973,0
1581971192.970,78.613,51.758,53.223,-4.883,0
1581971192.974,64.941,31.738,36.133,-31.250,0
1581971192.978,65.918,29.297,29.297,-17.090,0
1581971192.982,73.242,38.574,43.457,3.418,0
1581971192.986,72.754,41.016,55.176,8.301,0
1581971192.988,80.078,32.715,42.480,12.207,0
1581971192.992,79.590,28.809,34.668,8.301,0
1581971192.996,64.941,43.457,49.316,3.906,0
1581971193.000,66.406,42.969,50.293,-2.441,0
1581971193.004,52.246,34.180,36.621,-19.531,0
1581971193.008,60.059,35.156,38.574,-18.066,0
1581971193.012,51.758,36.133,35.156,-27.832,0
1581971193.015,45.410,33.203,38.574,-16.113,0
1581971193.019,73.730,38.574,46.387,17.090,0
1581971193.023,86.426,52.246,56.152,8.301,0
1581971193.027,59.570,30.762,50.293,-21.484,0
1581971193.031,35.156,20.508,41.504,-30.762,0
1581971193.048,41.504,43.457,55.176,-4.395,0
1581971193.052,51.758,44.434,59.082,0.488,0
1581971193.056,53.223,29.297,43.457,-13.184,0
1581971193.060,57.129,31.738,47.852,7.324,0
1581971193.064,63.965,47.363,62.500,21.973,0
1581971193.068,59.570,40.039,48.828,0.488,0
1581971193.072,61.035,26.367,31.738,-21.484,0
1581971193.075,49.805,33.691,28.809,-28.320,0
1581971193.079,48.340,40.527,35.645,-18.555,0
1581971193.083,59.082,38.574,52.246,-13.672,0
1581971193.087,51.270,45.410,64.453,-11.230,0
1581971193.091,49.316,46.875,63.965,-16.602,0
1581971193.093,30.273,48.828,61.523,-29.297,0
1581971193.097,32.227,42.480,61.523,-37.109,0
1581971193.101,40.039,37.598,62.012,-48.828,0
1581971193.105,23.438,43.457,61.523,-51.270,0
1581971193.109,1.465,38.574,62.500,-58.105,0
1581971193.113,-17.090,46.875,68.359,-74.707,0
1581971193.117,-15.137,50.293,77.637,-91.797,0
1581971193.120,-32.227,39.551,74.707,-109.863,0
1581971193.124,-63.477,49.805,74.707,-121.582,0
1581971193.128,-72.266,59.570,83.984,-139.160,0
1581971193.132,-75.684,46.387,79.102,-156.738,0
1581971193.136,-103.516,48.828,58.105,-167.969,0
1581971193.137,-112.305,56.641,48.340,-170.898,0
1581971193.141,-113.281,48.340,56.641,-156.738,0
1581971193.145,-139.160,37.109,81.055,-189.453,0
1581971193.149,-154.785,29.785,106.445,-228.516,0
1581971193.153,-137.207,38.086,94.238,-201.172,0
1581971193.157,-125.488,43.945,74.707,-169.434,0
1581971193.161,-132.812,40.527,88.379,-182.617,0
1581971193.164,-112.305,47.852,81.055,-207.520,0
1581971193.168,-119.629,37.598,58.594,-196.777,0
1581971193.172,-113.770,25.391,53.223,-173.828,0
1581971193.176,-85.938,34.668,66.895,-144.043,0
1581971193.180,-45.410,40.039,72.754,-110.352,0
1581971193.182,-9.766,42.480,59.570,-87.402,0
1581971193.186,6.348,44.434,61.035,-61.035,0
1581971193.190,10.742,38.086,59.570,-44.922,0
1581971193.194,14.648,34.180,53.711,-31.738,0
1581971193.198,57.617,34.180,53.711,-15.137,0
1581971193.202,67.383,27.344,45.410,-1.465,0
1581971193.206,53.223,22.461,38.086,20.020,0
1581971193.209,70.801,19.531,35.645,22.461,0
1581971193.213,79.102,18.066,30.273,20.508,0
1581971193.217,96.191,22.949,29.297,44.922,0
1581971193.221,101.074,23.438,41.992,59.082,0
1581971193.225,99.121,12.695,48.340,43.457,0
1581971193.227,113.770,16.602,43.945,48.340,0
1581971193.231,125.977,31.250,38.574,65.918,0
1581971193.235,133.301,23.926,39.062,64.453,0
1581971193.239,125.000,16.113,38.086,64.453,0
1581971193.243,128.418,21.484,29.785,74.707,0
1581971193.247,145.996,29.297,39.551,89.844,0
1581971193.251,122.070,26.367,34.668,85.449,0
1581971193.254,110.352,18.555,18.555,72.266,0
1581971193.258,112.793,20.020,23.926,68.359,0
1581971193.262,123.535,25.391,31.738,76.172,0
1581971193.266,138.184,27.344,37.598,88.379,0
1581971193.270,138.184,18.066,34.668,83.008,0
1581971193.272,144.531,17.578,38.574,89.844,0
1581971193.276,125.000,29.297,41.016,95.215,0
1581971193.280,115.723,34.180,34.668,82.031,0
1581971193.284,125.977,27.832,35.156,77.148,0
1581971193.288,114.258,28.320,29.297,72.266,0
1581971193.292,119.141,36.133,26.367,66.406,0
1581971193.296,123.535,31.250,34.668,64.941,0
1581971193.299,111.328,24.414,40.039,79.590,0
1581971193.303,120.117,28.320,45.898,93.262,0
1581971193.307,128.418,27.344,51.758,83.008,0
1581971193.311,129.395,29.297,52.246,77.148,0
1581971193.315,126.465,31.738,50.293,82.520,0
1581971193.317,116.699,21.484,35.645,71.289,0
1581971193.321,103.516,20.996,30.273,59.570,0
1581971193.325,95.703,30.762,39.551,56.152,0
1581971193.329,68.359,30.273,47.363,48.828,0
1581971193.333,63.477,29.297,48.828,49.805,0
1581971193.337,79.590,29.785,45.410,62.500,0
1581971193.341,99.121,25.879,51.270,65.918,0
1581971193.344,116.699,31.250,53.711,67.871,17010
1581971193.348,105.957,31.738,39.062,75.195,0
1581971193.352,97.656,29.785,42.969,78.125,0
1581971193.356,92.773,36.621,52.734,59.570,0
1581971193.360,83.984,35.645,45.898,54.199,0
1581971193.362,82.520,36.621,46.875,59.082,0
1581971193.366,83.496,39.551,43.945,45.898,0
1581971193.370,76.660,33.691,40.039,43.457,0
1581971193.374,84.473,28.809,46.875,44.434,0
1581971193.378,103.027,34.668,55.176,50.781,0
1581971193.382,80.078,33.203,53.223,66.895,0
1581971193.386,79.102,24.414,46.875,65.918,0
1581971193.389,85.449,30.273,58.594,33.203,0
1581971193.393,88.379,39.551,64.453,36.621,0
1581971193.397,79.102,32.227,41.016,46.875,0
1581971193.401,60.547,33.203,25.391,28.320,0
1581971193.405,72.266,41.504,41.504,28.320,0
1581971193.422,71.289,43.945,49.805,32.227,0
1581971193.426,69.824,29.785,40.527,33.691,0
1581971193.430,90.332,25.879,42.969,45.898,0
1581971193.434,90.332,26.367,39.551,41.504,0
1581971193.438,73.730,28.320,36.133,28.809,0
1581971193.442,66.895,34.180,43.457,32.715,0
1581971193.446,67.383,35.645,36.621,41.504,0
1581971193.449,85.938,48.340,48.340,38.086,0
1581971193.453,89.355,42.969,58.105,25.879,0
1581971193.457,73.242,27.832,55.176,27.832,0
1581971193.461,64.941,30.273,49.805,24.414,0
1581971193.465,61.035,34.180,46.875,22.461,0
1581971193.467,60.547,29.297,48.340,16.602,0
1581971193.471,63.965,31.738,52.246,24.902,0
1581971193.475,68.848,33.203,45.898,43.457,0
1581971193.479,70.801,24.414,37.109,29.297,0
1581971193.483,84.473,31.738,47.852,13.672,0
1581971193.487,74.219,34.668,59.570,12.207,0
1581971193.491,62.012,34.180,57.129,22.949,0
1581971193.494,61.523,36.133,38.086,21.484,0
1581971193.498,62.012,36.621,39.062,11.719,0
1581971193.502,67.871,34.180,46.387,8.789,0
1581971193.506,57.617,26.367,41.504,20.020,0
1581971193.510,61.523,26.855,46.875,38.086,0
1581971193.512,74.219,28.320,56.152,26.855,0
1581971193.516,87.891,37.109,51.758,25.879,0
1581971193.520,85.938,41.504,45.410,23.926,0
1581971193.524,59.082,27.832,48.340,36.133,0
1581971193.528,51.758,21.973,50.293,35.156,0
1581971193.532,62.500,32.227,47.363,3.418,0
1581971193.536,68.848,40.527,41.992,24.414,0
1581971193.539,74.707,34.668,41.016,35.156,0
1581971193.543,63.477,28.320,49.805,20.508,0
1581971193.547,56.641,32.715,41.992,18.555,0
1581971193.551,66.895,27.344,27.344,11.719,0
1581971193.555,55.664,14.648,38.574,7.812,0
1581971193.558,48.340,20.020,39.551,6.348,0
1581971193.562,64.453,34.180,42.969,13.672,0
1581971193.566,64.453,46.875,62.500,23.926,0
1581971193.570,50.293,43.945,55.664,8.789,0
1581971193.574,55.664,33.203,54.199,7.324,0
1581971193.578,75.195,25.879,63.477,25.391,0
1581971193.582,65.430,24.414,53.223,28.809,0
1581971193.585,49.805,23.438,41.016,16.113,0
1581971193.589,69.336,31.738,48.828,14.648,0
1581971193.593,83.496,34.668,63.477,33.203,0
1581971193.597,69.824,25.879,52.246,18.066,0
1581971193.601,71.289,31.250,43.457,8.301,0
1581971193.603,65.918,37.598,47.852,8.789,0
1581971193.607,34.668,28.320,48.828,6.836,0
1581971193.611,35.645,25.391,42.969,15.137,0
1581971193.615,51.758,32.227,43.457,12.695,0
1581971193.619,61.035,36.133,55.664,20.996,0
1581971193.623,62.500,25.391,51.270,17.090,0
1581971193.627,51.758,20.020,41.016,7.812,0
1581971193.630,64.941,27.832,42.480,4.883,0
1581971193.634,60.547,32.715,38.086,2.441,0
1581971193.638,54.688,33.691,40.039,17.090,0
1581971193.642,55.664,27.344,53.223,20.508,0
1581971193.646,61.035,14.648,48.340,6.836,0
1581971193.648,70.801,19.043,37.598,4.395,0
1581971193.652,57.129,36.621,41.504,16.602,0
1581971193.656,40.527,38.086,54.688,20.996,0
1581971193.660,70.801,28.809,60.059,24.902,0
1581971193.664,75.684,22.461,53.223,27.344,0
1581971193.668,28.809,22.461,48.340,18.555,0
1581971193.672,27.344,22.949,41.504,17.090,0
1581971193.675,62.988,39.062,40.527,23.438,0
1581971193.679,61.035,40.039,46.875,20.020,0
1581971193.683,49.805,29.297,50.781,8.789,0
1581971193.687,53.711,35.645,50.781,3.418,0
1581971193.691,45.410,36.621,45.410,4.395,0
1581971193.693,50.781,28.809,40.039,-4.883,0
1581971193.697,54.688,23.926,46.387,3.418,0
1581971193.701,32.715,23.438,48.340,9.277,0
1581971193.705,39.062,26.367,38.574,8.301,0
1581971193.709,79.590,29.297,40.527,10.254,0
1581971193.713,69.336,40.527,44.922,-6.836,0
1581971193.717,36.621,45.898,50.293,-4.883,0
1581971193.720,37.598,34.180,55.176,2.441,0
1581971193.724,51.270,31.738,56.641,3.906,0
1581971193.728,49.316,38.086,55.664,9.766,0
1581971193.732,55.176,37.109,54.199,22.949,0
1581971193.736,61.523,33.203,54.688,26.367,0
1581971193.738,47.363,30.762,44.922,3.906,0
1581971193.742,50.781,29.785,36.133,-2.441,0
1581971193.746,53.223,27.832,45.410,8.301,0
1581971193.750,40.527,26.855,51.270,-1.465,0
1581971193.754,44.434,25.391,48.828,-8.789,0
1581971193.758,55.664,23.438,52.734,-3.906,0
1581971193.762,63.965,32.227,64.941,6.348,0
1581971193.765,53.711,31.738,58.594,0.000,0
1581971193.769,41.992,20.996,56.152,12.695,0
1581971193.773,72.266,26.855,50.293,29.785,0
1581971193.777,69.824,41.992,48.828,25.879,0
1581971193.781,49.805,41.992,70.801,29.785,0
1581971193.798,53.223,37.598,65.430,18.066,0
1581971193.802,54.688,30.762,54.688,5.371,0
1581971193.806,56.641,20.508,53.711,6.836,0
1581971193.810,46.875,20.996,54.688,7.812,0
1581971193.814,47.363,25.391,63.965,5.859,0
1581971193.818,67.871,31.250,65.918,16.602,0
1581971193.822,72.266,39.062,63.965,25.391,0
1581971193.825,64.453,36.133,59.570,19.043,0
1581971193.829,50.293,23.926,54.199,13.184,0
1581971193.833,57.129,26.855,59.082,16.113,0
1581971193.837,73.242,29.785,61.035,12.207,0
1581971193.841,39.551,21.484,50.293,-13.184,0
1581971193.843,24.414,22.461,53.223,-2.441,0
1581971193.847,48.340,33.203,61.035,15.137,0
1581971193.851,51.758,30.762,55.176,-13.184,0
1581971193.855,49.805,25.879,54.199,-17.578,0
1581971193.859,45.898,29.297,54.688,-2.441,0
1581971193.863,46.875,33.203,56.152,12.695,0
1581971193.867,78.125,41.016,50.293,29.297,0
1581971193.870,65.918,38.086,45.410,26.367,0
1581971193.874,35.156,23.926,56.641,2.930,0
1581971193.878,37.109,22.949,63.965,4.395,0
1581971193.882,63.477,23.438,62.012,11.230,0
1581971193.886,65.430,19.043,54.688,13.184,0
1581971193.888,54.199,22.949,59.082,13.672,0
1581971193.892,54.199,24.902,57.129,3.906,0
1581971193.896,49.805,29.297,54.199,1.953,0
1581971193.900,53.223,34.180,53.223,0.488,0
1581971193.904,54.199,40.527,51.758,15.137,0
1581971193.908,37.109,40.527,55.664,20.996,0
1581971193.912,25.879,21.973,59.082,-10.742,0
1581971193.915,34.180,16.113,53.711,-22.949,0
1581971193.919,41.992,28.320,44.922,-14.160,0
1581971193.923,47.852,35.645,59.570,18.555,0
1581971193.927,43.945,26.367,62.012,20.996,0
1581971193.931,56.641,13.672,46.875,-4.883,0
1581971193.933,51.758,12.695,52.246,-5.859,0
1581971193.937,25.879,21.484,54.688,0.000,0
1581971193.941,36.621,28.320,48.340,2.930,0
1581971193.945,50.293,29.297,58.105,4.883,0
1581971193.949,64.941,23.438,64.453,13.184,0
1581971193.953,54.688,26.855,55.664,3.906,0
1581971193.957,32.715,35.156,52.246,-4.883,0
1581971193.960,45.410,23.438,52.734,3.906,0
1581971193.964,57.617,24.414,55.664,15.625,0
1581971193.968,49.805,33.203,56.641,15.625,0
1581971193.972,37.109,30.273,47.852,8.301,0
1581971193.976,44.434,35.645,50.781,8.789,0
1581971193.978,59.570,32.227,52.246,-2.930,0
1581971193.982,66.895,32.715,50.781,-0.488,0
1581971193.986,45.410,36.621,46.387,13.184,0
1581971193.990,24.414,23.926,54.199,-3.906,0
1581971193.994,51.270,11.719,60.059,-11.230,0
1581971193.998,69.336,17.578,53.223,-4.883,0
1581971194.002,54.199,31.738,49.316,20.508,0
1581971194.005,46.387,31.250,47.852,31.738,0
1581971194.009,52.734,34.180,54.688,22.461,0
1581971194.013,63.477,38.574,61.035,16.113,0
1581971194.017,40.039,35.156,67.383,10.254,0
1581971194.021,31.738,29.297,57.617,20.020,0
1581971194.023,36.621,23.926,47.852,2.441,0
1581971194.027,32.227,19.531,52.246,-21.973,0
1581971194.031,38.574,22.461,58.594,-8.301,0
1581971194.035,30.273,30.273,62.012,-0.488,0
1581971194.039,33.691,33.691,52.246,-4.395,0
1581971194.043,47.852,33.203,49.805,3.906,0
1581971194.047,40.527,29.785,54.688,2.441,0
1581971194.050,55.664,24.414,55.176,-10.742,0
1581971194.054,50.781,22.461,52.734,-2.930,0
1581971194.058,31.738,25.879,50.781,3.906,0
1581971194.062,53.711,34.668,60.059,20.996,0
1581971194.066,49.805,36.621,57.129,17.090,0
1581971194.068,33.203,28.320,42.969,4.395,0
1581971194.072,41.992,28.809,45.898,13.672,0
1581971194.076,53.711,25.879,47.852,7.324,0
1581971194.080,53.223,18.066,46.875,-9.766,0
1581971194.084,44.434,23.926,49.805,-9.277,0
1581971194.088,35.645,27.832,49.805,4.883,0
1581971194.092,33.691,30.762,57.617,3.418,0
1581971194.095,28.320,31.738,60.059,-3.418,0
1581971194.099,28.320,22.949,49.316,3.906,0
1581971194.103,30.273,18.066,49.316,7.324,0
1581971194.107,35.645,18.066,52.734,6.348,0
1581971194.111,44.922,24.902,54.688,7.324,0
1581971194.113,52.246,26.367,67.383,17.090,0
1581971194.117,62.988,18.555,64.941,15.625,0
1581971194.121,79.102,23.926,56.152,5.859,0
1581971194.125,62.012,32.227,56.152,11.230,0
1581971194.129,31.738,36.133,45.410,1.953,0
1581971194.133,31.250,42.480,40.527,-7.812,0
1581971194.137,54.199,47.852,58.594,7.324,0
1581971194.140,58.594,42.969,68.359,3.418,0
1581971194.144,39.551,31.738,50.293,-7.324,0
1581971194.148,33.203,24.902,41.992,0.000,0
1581971194.152,25.879,23.438,56.152,-5.371,0
1581971194.156,36.133,33.691,62.012,-16.113,0
1581971194.173,38.086,35.156,56.152,-3.418,0
1581971194.177,41.992,24.902,44.922,14.648,0
1581971194.181,57.617,24.414,50.293,16.602,0
1581971194.185,51.758,23.438,53.711,4.883,0
1581971194.189,41.504,24.414,52.246,-3.418,0
1581971194.193,45.898,33.691,65.430,3.418,0
1581971194.197,51.758,30.762,66.406,10.742,0
1581971194.200,45.410,24.902,63.965,4.883,0
1581971194.204,36.133,26.855,56.641,12.207,0
1581971194.208,45.898,29.785,51.270,15.137,0
1581971194.212,58.105,36.621,63.965,5.859,0
1581971194.216,47.852,37.109,60.547,5.371,0
1581971194.218,31.250,30.273,41.992,-2.441,0
1581971194.222,34.180,24.902,35.156,2.441,0
1581971194.226,46.875,24.902,50.293,21.973,0
1581971194.230,71.777,21.973,62.988,14.648,0
1581971194.234,69.336,18.555,59.082,-11.230,0
1581971194.238,42.480,23.926,54.199,-1.465,0
1581971194.242,42.969,28.809,48.340,10.742,0
1581971194.245,48.340,31.738,46.387,-1.465,0
1581971194.249,58.105,34.668,53.223,-15.137,0
1581971194.253,54.688,36.133,51.758,0.488,0
1581971194.257,45.898,32.227,44.922,9.277,0
1581971194.261,58.594,35.156,54.688,9.766,0
1581971194.265,40.039,33.203,58.105,20.020,0
1581971194.269,28.809,29.297,54.688,11.230,0
1581971194.273,51.758,35.156,59.082,7.324,0
1581971194.277,49.805,27.344,53.223,24.902,0
1581971194.281,30.762,20.020,39.062,3.906,0
1581971194.285,42.969,22.461,40.039,-22.949,0
1581971194.289,54.688,26.855,52.246,-6.348,0
1581971194.292,51.758,33.203,53.223,3.906,0
1581971194.296,57.617,41.992,48.828,9.766,0
1581971194.300,63.477,35.645,52.246,23.926,0
1581971194.304,54.199,30.762,67.383,21.484,0
1581971194.308,49.805,29.297,62.012,6.348,0
1581971194.308,56.641,17.578,49.316,-1.953,0
1581971194.312,47.852,22.949,47.852,3.418,0
1581971194.316,46.387,33.691,55.664,9.766,0
1581971194.320,57.617,36.621,62.988,11.719,0
1581971194.324,42.969,34.180,58.594,13.672,0
1581971194.328,42.480,34.180,57.617,6.348,0
1581971194.332,44.922,28.809,58.105,-0.488,0
1581971194.335,35.645,27.832,57.129,10.742,0
1581971194.339,51.270,39.062,52.246,4.395,0
1581971194.343,70.312,37.598,51.758,8.301,0
1581971194.347,67.383,33.203,55.176,22.461,0
1581971194.351,49.316,33.691,56.641,27.344,0
1581971194.353,29.785,25.879,53.223,21.484,0
1581971194.357,37.598,23.926,52.246,2.441,0
1581971194.361,82.520,26.367,60.059,14.160,0
1581971194.365,91.309,23.438,55.664,28.320,0
1581971194.369,44.434,13.672,50.293,26.367,0
1581971194.373,24.902,17.578,54.688,-1.953,0
1581971194.377,40.527,28.809,54.199,-12.695,0
1581971194.380,59.082,42.969,49.316,12.207,0
1581971194.384,46.875,43.945,55.664,18.555,0
1581971194.388,20.996,26.367,55.176,6.348,0
1581971194.392,35.156,23.438,51.758,-6.836,0
1581971194.396,67.871,32.227,55.176,5.859,0
1581971194.397,61.035,38.086,55.664,17.578,0
1581971194.401,42.480,35.156,50.781,10.742,0
1581971194.405,45.410,36.133,53.711,22.461,0
1581971194.409,65.430,34.668,59.082,19.043,0
1581971194.413,63.477,22.949,55.176,0.488,0
1581971194.417,54.688,24.414,60.059,10.742,0
1581971194.421,54.199,33.691,64.453,19.043,0
1581971194.424,53.711,44.922,63.477,16.113,0
1581971194.428,49.805,42.969,58.105,24.902,0
1581971194.432,31.250,38.086,51.270,18.555,0
1581971194.436,39.062,39.551,57.129,20.996,0
1581971194.440,54.688,34.668,57.129,20.508,0
1581971194.442,58.594,27.832,50.781,11.230,0
1581971194.446,41.992,25.879,57.129,17.090,0
1581971194.450,37.109,34.180,63.477,32.715,0
1581971194.454,58.594,41.504,61.035,35.645,0
1581971194.458,73.242,29.785,49.805,27.832,0
1581971194.462,59.570,22.949,43.457,21.484,0
1581971194.466,41.504,25.391,46.387,2.441,0
1581971194.469,56.152,29.785,41.016,7.812,0
1581971194.473,56.152,33.203,34.180,4.395,0
1581971194.477,44.434,28.320,37.109,-6.836,0
1581971194.481,35.156,24.414,37.109,11.719,0
1581971194.485,18.066,23.926,40.039,-0.488,0
1581971194.487,37.109,31.250,47.363,-11.230,0
1581971194.491,55.664,38.574,54.688,0.977,0
1581971194.495,46.875,40.527,61.523,11.230,0
1581971194.499,48.340,37.109,55.664,9.766,0
1581971194.503,52.734,32.715,53.223,8.301,0
1581971194.507,44.434,31.250,61.035,15.137,0
1581971194.511,36.133,28.320,60.059,11.719,0
1581971194.514,39.062,29.297,55.664,19.531,0
1581971194.518,54.199,31.250,54.688,17.578,0
1581971194.522,53.711,25.391,56.152,10.742,0
1581971194.526,37.598,26.855,54.199,15.625,0
1581971194.530,30.273,38.086,50.293,10.742,0
1581971194.547,41.504,43.457,53.711,14.648,17705
1581971194.551,84.473,46.875,56.641,26.855,0
1581971194.555,65.918,38.086,52.734,18.066,0
1581971194.559,12.695,21.973,53.711,3.906,0
1581971194.563,25.879,16.602,51.270,6.348,0
1581971194.567,39.062,15.625,43.945,0.000,0
1581971194.571,27.344,16.602,43.457,-5.859,0
1581971194.574,19.531,15.137,47.852,7.812,0
1581971194.578,26.855,20.996,49.805,14.648,0
1581971194.582,41.992,27.344,44.434,4.883,0
1581971194.586,50.781,21.973,47.852,4.395,0
1581971194.590,56.641,19.043,55.664,15.625,0
1581971194.592,59.082,25.391,49.316,33.691,0
1581971194.596,30.762,34.668,49.805,20.996,0
1581971194.600,25.391,23.926,48.340,6.348,0
1581971194.604,37.598,22.949,50.293,8.789,0
1581971194.608,35.156,37.109,57.129,14.160,0
1581971194.612,41.016,32.227,53.711,11.719,0
1581971194.616,68.848,27.344,51.758,7.324,0
1581971194.619,59.082,26.367,58.594,13.672,0
1581971194.623,22.949,21.484,58.105,11.719,0
1581971194.627,42.480,31.250,59.570,24.414,0
1581971194.631,59.570,39.062,62.988,27.832,0
1581971194.635,54.688,29.297,46.875,-1.465,0
1581971194.637,53.711,18.555,38.086,-4.883,0
1581971194.641,26.855,18.066,37.109,-2.930,0
1581971194.645,34.668,29.297,37.109,1.465,0
1581971194.649,54.199,22.949,47.852,9.277,0
1581971194.653,43.457,20.996,53.711,11.719,0
1581971194.657,44.922,31.250,48.340,16.602,0
1581971194.661,46.387,31.738,47.852,1.465,0
1581971194.664,51.758,31.250,45.898,-5.859,0
1581971194.668,50.293,30.762,47.363,12.207,0
1581971194.672,53.223,37.109,50.781,13.672,0
1581971194.676,46.875,41.504,48.828,1.953,0
1581971194.680,50.293,29.785,44.922,6.836,0
1581971194.682,58.105,23.926,46.875,19.531,0
1581971194.686,36.621,27.832,54.688,31.250,0
1581971194.690,41.504,25.879,53.711,18.555,0
1581971194.694,52.734,25.391,42.480,6.348,0
1581971194.698,43.457,28.809,45.410,8.301,0
1581971194.702,36.621,35.645,44.922,20.020,0
1581971194.706,43.457,45.410,27.344,30.762,0
1581971194.709,49.316,41.016,21.484,10.254,0
1581971194.713,61.523,34.180,21.484,8.789,0
1581971194.717,54.688,32.227,14.648,9.766,0
1581971194.721,38.086,27.344,16.113,-7.812,0
1581971194.725,38.086,22.461,25.391,-4.395,0
1581971194.727,42.480,20.508,21.973,7.324,0
1581971194.731,52.734,24.414,20.020,2.930,0
1581971194.735,31.250,30.273,20.020,14.160,0
1581971194.739,27.832,36.133,19.531,26.855,0
1581971194.743,60.547,39.062,23.926,9.277,0
1581971194.747,48.340,33.203,27.832,-1.465,0
1581971194.751,26.367,32.715,26.855,3.418,0
1581971194.754,35.156,37.109,31.250,3.418,0
1581971194.758,38.086,41.504,31.250,-8.301,0
1581971194.762,56.152,35.645,24.902,8.789,0
1581971194.766,55.664,41.992,38.574,24.902,0
1581971194.770,51.270,49.805,58.594,8.301,0
1581971194.773,51.270,37.109,41.016,2.930,0
1581971194.777,51.758,37.109,12.207,-12.207,0
1581971194.781,50.293,44.434,6.836,-13.672,0
1581971194.785,40.039,44.922,22.949,0.000,0
1581971194.789,47.363,37.109,32.715,5.859,0
1581971194.793,46.875,32.227,34.180,14.648,0
1581971194.797,26.855,30.273,38.574,13.672,0
1581971194.800,19.531,29.297,30.762,3.906,0
1581971194.804,50.781,35.156,26.367,15.625,0
1581971194.808,70.312,39.062,34.180,29.297,0
1581971194.812,44.434,41.016,40.527,21.484,0
1581971194.816,29.785,37.598,48.828,10.254,0
1581971194.818,26.855,32.227,52.246,6.348,0
1581971194.822,51.758,30.762,54.688,13.672,0
1581971194.826,60.547,35.156,60.059,14.160,0
1581971194.830,46.387,43.945,52.734,20.020,0
1581971194.834,46.875,31.738,36.621,15.625,0
1581971194.838,54.688,30.762,34.180,7.812,0
1581971194.842,82.520,46.875,39.062,11.230,0
1581971194.845,82.031,50.781,44.434,20.508,0
1581971194.849,28.320,37.598,39.062,14.648,0
1581971194.853,21.973,36.133,39.551,10.254,0
1581971194.857,40.039,37.598,41.016,11.719,0
1581971194.861,48.340,30.762,42.480,17.578,0
1581971194.863,44.922,26.855,43.945,22.461,0
1581971194.867,33.203,27.344,34.180,10.742,0
1581971194.871,46.875,28.809,35.645,5.859,0
1581971194.875,54.199,23.926,47.852,15.625,0
1581971194.879,41.504,27.344,51.270,23.926,0
1581971194.883,33.203,38.086,42.480,6.836,0
1581971194.887,40.039,40.039,35.156,0.488,0
1581971194.890,42.480,42.969,35.645,3.906,0
1581971194.894,34.180,43.457,41.992,11.230,0
1581971194.898,35.645,40.039,46.387,20.996,0
1581971194.902,45.410,39.551,42.480,15.137,0
1581971194.906,58.594,44.922,36.621,17.578,0
1581971194.923,52.734,42.480,38.574,11.719,0
1581971194.927,41.016,36.621,39.062,5.371,0
1581971194.931,48.340,33.203,31.250,13.184,0
1581971194.935,48.828,32.715,37.598,7.812,0
1581971194.939,50.293,40.039,47.363,14.160,0
1581971194.943,51.758,44.434,48.828,26.367,0
1581971194.947,55.664,43.457,52.246,35.645,0
1581971194.950,42.480,31.250,44.434,28.320,0
1581971194.954,32.715,27.832,36.133,7.324,0
1581971194.958,40.039,41.504,48.828,17.578,0
1581971194.962,49.805,42.969,47.363,13.672,0
1581971194.966,50.781,40.527,42.969,-9.277,0
1581971194.967,22.949,39.551,41.016,-10.254,0
1581971194.971,20.996,36.133,39.062,0.488,0
1581971194.975,22.949,37.598,41.016,3.906,0
1581971194.979,31.250,38.574,42.969,0.000,0
1581971194.983,39.551,35.645,45.410,3.418,0
1581971194.987,57.129,35.156,49.316,10.254,0
1581971194.991,56.641,24.414,57.617,17.578,0
1581971194.994,30.762,20.996,47.852,18.555,0
1581971194.998,43.457,39.551,46.387,17.578,0
1581971195.002,50.293,44.922,55.176,15.137,0
1581971195.006,33.203,36.621,48.828,-7.812,0
1581971195.010,31.250,35.156,40.039,-2.441,0
1581971195.013,29.297,30.273,39.551,6.348,0
1581971195.017,34.668,25.879,47.363,-1.953,0
1581971195.021,48.340,33.203,46.875,7.812,0
1581971195.025,48.340,40.527,43.457,15.137,0
1581971195.029,50.293,36.621,47.363,17.578,0
1581971195.033,49.805,35.156,48.828,12.695,0
1581971195.037,41.992,32.227,48.340,-1.953,0
1581971195.040,33.203,23.438,50.293,-1.953,0
1581971195.044,40.039,26.367,50.781,0.000,0
1581971195.048,58.594,37.109,53.223,6.836,0
1581971195.052,54.688,38.086,57.617,18.066,0
1581971195.056,37.598,32.227,49.805,22.949,0
1581971195.058,35.645,25.391,47.363,21.973,0
1581971195.062,56.641,24.414,47.852,12.207,0
1581971195.066,72.754,31.250,46.875,16.602,0
1581971195.070,37.598,28.320,45.410,20.996,0
1581971195.074,18.066,25.391,43.945,11.719,0
1581971195.078,45.410,30.762,44.922,1.465,0
1581971195.082,55.176,32.227,45.410,13.184,0
1581971195.085,55.664,36.133,50.781,24.414,0
1581971195.089,49.805,38.574,49.316,10.742,0
1581971195.093,22.461,30.762,46.875,-1.465,0
1581971195.097,35.645,43.945,49.805,1.953,0
1581971195.101,51.270,54.688,50.781,10.742,0
1581971195.103,39.551,41.992,44.922,22.461,0
1581971195.107,41.016,30.273,36.621,18.555,0
1581971195.111,44.434,26.855,32.715,0.000,0
1581971195.115,43.945,19.531,34.668,16.113,0
1581971195.119,42.969,25.391,47.852,35.156,0
1581971195.123,61.523,46.387,56.152,36.621,0
1581971195.127,67.871,41.016,52.246,10.742,0
1581971195.130,41.504,26.367,48.340,-10.742,0
1581971195.134,31.738,29.785,48.340,0.488,0
1581971195.138,36.133,36.133,43.945,10.742,0
1581971195.142,30.273,34.180,39.551,2.930,0
1581971195.146,32.227,28.809,35.156,-3.906,0
1581971195.148,30.273,34.668,41.992,-0.977,0
1581971195.152,24.902,38.086,54.199,7.324,0
1581971195.156,35.645,39.551,56.641,9.766,0
1581971195.160,38.574,37.598,55.176,2.441,0
1581971195.164,39.551,41.992,57.617,3.906,0
1581971195.168,46.387,46.387,62.012,14.648,0
1581971195.172,33.691,34.668,63.477,9.277,0
1581971195.175,29.297,31.250,56.152,-10.742,0
1581971195.179,21.973,43.457,49.316,-23.438,0
1581971195.183,-6.836,41.504,52.734,-26.367,0
1581971195.187,-23.926,36.621,60.547,-22.461,0
1581971195.191,-17.090,50.293,70.312,-44.434,0
1581971195.193,-20.508,59.570,76.660,-58.594,0
1581971195.197,-36.133,56.152,71.289,-75.684,0
1581971195.201,-63.477,55.176,68.359,-101.074,0
1581971195.205,-104.492,59.082,67.383,-132.324,0
1581971195.209,-111.328,51.270,57.617,-168.945,0
1581971195.213,-112.305,50.293,59.082,-162.109,0
1581971195.217,-126.953,49.316,68.359,-167.480,0
1581971195.220,-140.137,43.945,59.570,-186.523,0
1581971195.224,-145.996,46.387,51.758,-194.336,0
1581971195.228,-158.203,44.922,65.430,-200.195,0
1581971195.232,-184.570,44.922,63.477,-204.590,0
1581971195.236,-182.617,58.594,55.664,-219.727,0
1581971195.238,-146.484,62.012,56.641,-206.543,0
1581971195.242,-145.996,47.363,54.688,-177.734,0
1581971195.246,-152.832,39.551,51.270,-188.477,0
1581971195.250,-132.812,46.387,52.734,-183.594,0
1581971195.254,-103.027,49.316,50.781,-149.902,0
1581971195.258,-81.055,40.039,48.340,-116.699,0
1581971195.262,-65.918,34.668,47.852,-92.773,0
1581971195.265,-35.645,29.297,46.387,-89.355,0
1581971195.269,-9.277,23.438,45.898,-83.008,0
1581971195.273,1.953,35.156,42.969,-60.059,0
1581971195.277,-4.395,40.527,43.457,-39.551,0
1581971195.281,-2.930,30.273,35.645,-21.973,0
1581971195.298,24.414,26.855,22.461,-11.719,0
1581971195.302,54.199,32.227,30.762,3.906,0
1581971195.306,69.336,29.297,40.039,25.391,0
1581971195.310,77.148,36.621,42.480,47.852,0
1581971195.314,95.215,39.551,45.410,64.453,0
1581971195.318,95.703,17.090,28.320,47.852,0
1581971195.322,75.195,14.648,13.672,42.969,0
1581971195.325,70.801,18.066,10.254,70.801,0
1581971195.329,82.520,16.602,16.113,60.059,0
1581971195.333,112.305,24.902,26.855,47.363,0
1581971195.337,120.605,13.184,24.414,65.430,0
1581971195.341,119.141,12.207,25.879,76.660,0
1581971195.343,128.906,27.832,27.832,96.191,0
1581971195.347,132.324,19.043,22.461,98.145,0
1581971195.351,130.859,21.484,28.809,96.680,0
1581971195.355,129.395,35.156,29.297,107.422,0
1581971195.359,125.000,32.227,14.160,109.863,0
1581971195.363,118.652,25.391,18.555,97.168,0
1581971195.367,138.184,25.391,46.387,106.445,0
1581971195.370,141.602,25.391,46.387,115.723,0
1581971195.374,109.375,16.602,23.438,83.008,0
1581971195.378,103.516,16.602,28.320,75.684,0
1581971195.382,105.957,20.508,31.738,75.195,0
1581971195.386,114.258,16.602,27.832,65.430,0
1581971195.388,115.723,18.066,35.156,78.125,0
1581971195.392,103.516,18.555,37.109,87.891,0
1581971195.396,107.910,13.184,41.504,89.844,0
1581971195.400,115.723,20.020,41.992,88.867,0
1581971195.404,112.793,26.855,39.551,88.867,0
1581971195.408,103.516,21.973,41.992,88.379,0
1581971195.412,95.703,15.625,43.945,86.426,0
1581971195.415,99.609,19.531,40.527,79.590,0
1581971195.419,94.238,22.949,38.086,79.590,0
1581971195.423,83.008,17.578,45.410,80.078,0
1581971195.427,84.473,19.043,50.293,62.012,0
1581971195.431,86.914,28.320,53.223,61.035,0
1581971195.433,84.961,27.344,55.176,73.730,0
1581971195.437,78.613,30.273,55.176,77.148,0
1581971195.441,77.637,35.156,55.176,65.918,0
1581971195.445,83.496,41.504,57.129,57.129,0
1581971195.449,73.242,36.133,52.734,55.176,0
1581971195.453,51.758,14.160,38.574,39.062,0
1581971195.457,44.922,14.160,29.297,32.227,0
1581971195.460,53.711,29.785,29.785,37.598,0
1581971195.464,68.359,38.086,33.203,23.438,0
1581971195.468,51.270,21.973,29.785,20.508,0
1581971195.472,51.270,13.184,36.621,32.715,0
1581971195.476,67.383,19.531,44.434,28.809,0
1581971195.477,48.828,24.414,51.270,31.738,0
1581971195.481,32.227,22.461,54.199,46.387,0
1581971195.485,30.762,20.996,53.711,41.016,0
1581971195.489,33.691,26.855,49.805,31.738,0
1581971195.493,54.199,34.180,44.434,42.969,0
1581971195.497,57.129,32.227,48.828,31.250,0
1581971195.501,34.668,26.855,51.758,14.160,0
1581971195.504,35.645,27.344,57.617,19.043,0
1581971195.508,62.500,31.738,52.246,25.879,0
1581971195.512,74.219,34.180,38.086,14.160,0
1581971195.516,59.570,34.180,46.875,20.508,0
1581971195.520,41.992,30.273,58.105,32.227,0
1581971195.522,50.293,19.043,54.688,11.719,0
1581971195.526,66.895,20.020,50.781,5.859,0
1581971195.530,34.180,15.137,47.852,19.043,0
1581971195.534,19.043,8.789,42.480,19.531,0
1581971195.538,40.039,23.438,44.434,25.879,0
1581971195.542,44.922,27.832,42.969,31.738,0
1581971195.546,40.039,28.320,35.156,25.879,0
1581971195.549,50.293,38.574,41.016,26.367,0
1581971195.553,57.129,40.039,48.340,25.879,0
1581971195.557,48.340,34.180,43.457,13.672,0
1581971195.561,62.012,37.598,49.316,17.578,0
1581971195.565,70.312,34.180,46.387,29.297,0
1581971195.567,45.898,28.809,35.156,13.184,0
1581971195.571,46.387,41.016,43.945,18.066,0
1581971195.575,63.477,43.457,47.363,30.273,0
1581971195.579,63.965,28.809,36.621,19.043,0
1581971195.583,48.340,22.949,29.297,19.531,0
1581971195.587,49.805,27.344,36.621,34.180,0
1581971195.591,43.945,16.602,42.480,24.902,0
1581971195.594,32.227,16.602,41.504,7.324,0
1581971195.598,34.180,36.133,32.227,3.906,0
1581971195.602,37.109,29.785,27.832,23.926,0
1581971195.606,56.641,14.160,41.504,25.879,0
1581971195.610,77.148,38.086,66.895,32.227,0
1581971195.612,59.570,41.992,63.477,34.668,0
1581971195.616,52.246,25.879,35.156,38.086,0
1581971195.620,53.223,23.926,36.621,16.113,0
1581971195.624,34.668,20.508,43.945,-23.438,0
1581971195.628,20.020,23.438,33.691,-6.348,0
1581971195.632,35.156,29.297,31.738,11.719,0
1581971195.636,55.176,32.227,45.898,7.812,0
1581971195.639,43.945,24.902,39.551,-14.160,0
1581971195.643,56.152,24.414,35.645,-3.418,0
1581971195.647,64.453,40.527,43.945,26.367,0
1581971195.651,42.480,40.039,34.180,12.695,0
1581971195.655,51.270,34.668,31.250,5.859,0
1581971195.672,50.781,37.598,34.668,7.812,0
1581971195.676,40.527,38.574,33.691,14.160,0
1581971195.680,61.035,50.781,41.504,31.738,28211
1581971195.684,77.148,42.480,41.992,11.230,0
1581971195.688,58.594,14.160,38.574,-11.719,0
1581971195.692,29.785,21.973,46.875,-9.766,0
1581971195.696,37.109,32.227,51.270,17.578,0
1581971195.699,57.129,27.832,41.016,19.043,0
1581971195.703,52.246,33.203,37.598,2.930,0
1581971195.707,31.738,35.645,44.434,8.789,0
1581971195.711,34.668,37.598,45.898,12.695,0
1581971195.715,43.457,36.133,42.480,-1.953,0
1581971195.717,39.551,30.762,41.992,-4.395,0
1581971195.721,49.316,34.180,43.945,10.742,0
1581971195.725,58.105,26.855,49.316,12.695,0
1581971195.729,44.434,13.672,51.758,16.602,0
1581971195.733,72.266,29.297,50.293,25.391,0
1581971195.737,91.309,51.270,54.688,39.551,0
1581971195.741,56.152,46.875,48.340,25.391,0
1581971195.744,61.523,31.738,38.086,3.906,0
1581971195.748,37.598,34.180,36.133,0.000,0
1581971195.752,13.672,41.504,44.434,3.906,0
1581971195.756,28.320,37.598,47.852,7.812,0
1581971195.760,35.156,30.762,43.457,11.230,0
1581971195.762,53.223,31.738,43.945,22.461,0
1581971195.766,67.871,30.762,38.086,13.672,0
1581971195.770,54.688,37.109,39.551,13.184,0
1581971195.774,52.246,35.156,46.387,18.555,0
1581971195.778,67.871,30.273,51.270,10.742,0
1581971195.782,67.383,30.273,53.223,17.578,0
1581971195.786,42.969,19.043,32.715,26.855,0
1581971195.789,27.832,27.344,35.156,29.785,0
1581971195.793,35.156,31.250,52.734,17.090,0
1581971195.797,49.316,23.438,42.480,-0.488,0
1581971195.801,52.246,29.785,37.109,-1.465,0
1581971195.805,47.852,28.320,42.480,1.953,0
1581971195.807,36.133,25.879,40.039,18.066,0
1581971195.811,38.086,39.062,30.762,17.090,0
1581971195.815,57.617,51.270,30.273,5.371,0
1581971195.819,65.918,43.457,41.504,11.719,0
1581971195.823,50.781,32.227,49.805,9.766,0
1581971195.827,39.062,35.645,53.711,11.230,0
1581971195.831,53.711,49.316,53.223,17.578,0
1581971195.834,47.852,45.410,53.711,23.926,0
1581971195.838,44.434,41.016,59.570,31.250,0
1581971195.842,64.941,39.551,57.617,20.508,0
1581971195.846,56.641,19.531,42.969,2.930,0
1581971195.850,27.832,17.090,30.273,-19.043,0
1581971195.852,27.832,35.156,38.574,-14.648,0
1581971195.856,42.480,44.922,46.387,-6.348,0
1581971195.860,54.688,39.551,35.645,7.324,0
1581971195.864,68.848,38.086,37.598,30.273,0
1581971195.868,63.965,43.457,42.969,22.949,0
1581971195.872,37.598,35.156,37.598,3.418,0
1581971195.876,25.879,33.691,44.434,-11.230,0
1581971195.879,39.062,32.227,42.969,-6.348,0
1581971195.883,43.457,29.297,41.992,6.836,0
1581971195.887,58.105,30.762,50.781,9.277,0
1581971195.891,49.316,26.855,42.969,18.066,0
1581971195.895,35.645,29.297,52.734,17.090,0
1581971195.898,35.156,36.133,69.824,3.418,0
1581971195.902,27.832,32.227,61.035,2.441,0
1581971195.906,39.062,34.180,54.688,8.789,0
1581971195.910,50.293,38.574,55.664,15.137,0
1581971195.914,53.223,41.504,55.176,37.598,0
1581971195.918,39.062,43.945,57.129,29.297,0
1581971195.922,13.184,37.598,43.457,-7.324,0
1581971195.925,28.809,27.832,30.762,-20.508,0
1581971195.929,34.180,16.113,39.062,-13.672,0
1581971195.933,4.883,13.672,40.527,-7.812,0
1581971195.937,16.113,21.484,47.852,-7.812,0
1581971195.941,19.043,27.832,45.410,-4.883,0
1581971195.943,15.137,27.832,38.086,-8.789,0
1581971195.947,20.508,37.109,43.945,3.418,0
1581971195.951,49.805,38.086,51.270,14.160,0
1581971195.955,53.711,26.367,48.828,-6.348,0
1581971195.959,26.367,34.180,46.387,-6.836,0
1581971195.963,35.156,34.668,41.992,11.719,0
1581971195.967,31.738,31.250,34.668,6.836,0
1581971195.970,29.785,38.574,42.969,-6.836,0
1581971195.974,51.270,36.133,45.898,-5.371,0
1581971195.978,71.777,34.668,56.152,19.531,0
1581971195.982,67.383,33.691,66.895,46.875,0
1581971195.986,46.387,28.809,53.711,25.879,0
1581971195.988,52.734,24.414,41.992,7.324,0
1581971195.992,65.918,23.926,47.852,6.348,0
1581971195.996,32.227,22.461,44.922,3.418,0
1581971196.000,21.484,28.809,44.434,-0.977,0
1581971196.004,47.852,36.133,44.922,6.348,0
1581971196.008,65.430,34.668,45.898,15.625,0
1581971196.012,43.945,28.320,52.734,11.719,0
1581971196.015,20.508,16.113,52.246,5.371,0
1581971196.019,49.805,17.090,50.781,10.742,0
1581971196.023,62.500,16.602,50.781,21.973,0
1581971196.027,54.199,18.066,50.781,19.043,0
1581971196.031,62.012,32.227,60.547,18.555,0
1581971196.048,44.922,36.133,61.523,19.043,0
1581971196.052,40.527,41.016,55.664,11.230,0
1581971196.056,63.477,46.387,63.965,23.438,0
1581971196.060,49.316,36.133,52.246,6.836,0
1581971196.064,41.992,26.855,41.016,-0.977,0
1581971196.068,48.828,29.785,49.805,20.020,0
1581971196.072,48.828,33.203,46.387,7.324,0
1581971196.075,50.293,28.320,32.227,-6.836,0
1581971196.079,45.898,25.879,38.086,0.000,0
1581971196.083,46.387,27.344,50.293,9.277,0
1581971196.087,52.734,32.227,52.246,18.066,0
1581971196.091,63.965,29.785,46.387,19.043,0
1581971196.093,67.871,22.949,45.410,18.066,0
1581971196.097,53.223,23.438,49.805,9.277,0
1581971196.101,48.340,27.344,49.316,3.418,0
1581971196.105,28.809,31.250,45.898,7.812,0
1581971196.109,18.555,39.062,42.480,14.160,0
1581971196.113,40.039,47.363,45.898,16.602,0
1581971196.117,62.988,42.969,55.176,11.719,0
1581971196.120,53.223,39.062,56.152,10.254,0
1581971196.124,45.410,42.480,54.199,6.836,0
1581971196.128,53.223,40.039,52.246,0.000,0
1581971196.132,51.270,28.320,46.387,6.348,0
1581971196.136,56.152,25.391,55.176,6.348,0
1581971196.138,77.637,43.457,69.824,22.461,0
1581971196.142,79.590,51.270,56.152,25.391,0
1581971196.146,41.504,34.668,43.945,0.488,0
1581971196.150,55.176,26.367,48.340,3.906,0
1581971196.154,49.805,24.414,42.480,8.789,0
1581971196.158,15.625,26.855,44.434,3.418,0
1581971196.162,34.180,31.738,50.781,12.695,0
1581971196.165,42.480,28.320,45.898,2.441,0
1581971196.169,42.480,34.668,56.641,-5.859,0
1581971196.173,40.527,39.551,78.613,20.996,0
1581971196.177,35.156,33.203,95.215,17.090,0
1581971196.181,45.410,34.668,97.168,5.371,0
1581971196.183,66.406,41.992,96.680,17.578,0
1581971196.187,84.473,40.527,87.402,21.973,0
1581971196.191,56.152,33.203,74.219,14.160,0
1581971196.195,24.414,29.297,81.055,5.371,0
1581971196.199,52.734,32.227,90.332,6.836,0
1581971196.203,56.641,37.598,90.332,20.996,0
1581971196.207,28.809,36.621,88.867,22.949,0
1581971196.210,63.477,34.180,86.914,12.695,0
1581971196.214,74.707,40.039,83.984,13.672,0
1581971196.218,58.105,49.805,90.820,21.484,0
1581971196.222,47.363,42.480,81.055,0.488,0
1581971196.226,32.227,34.668,67.871,-9.766,0
1581971196.228,56.641,41.992,65.918,11.719,0
1581971196.232,58.105,43.457,62.012,23.438,0
1581971196.236,46.387,34.668,62.012,20.020,0
1581971196.240,69.336,28.809,69.824,11.230,0
1581971196.244,68.359,30.273,72.754,5.371,0
1581971196.248,40.527,31.738,70.801,15.625,0
1581971196.252,39.062,31.738,72.266,18.066,0
1581971196.255,49.805,34.668,78.613,12.695,0
1581971196.259,45.410,36.621,66.895,13.184,0
1581971196.263,42.480,38.086,47.852,8.301,0
1581971196.267,44.434,39.062,54.688,6.348,0
1581971196.271,49.805,39.551,73.242,13.184,0
1581971196.273,77.148,33.691,72.754,13.184,0
1581971196.277,79.590,34.180,73.730,15.625,0
1581971196.281,49.316,34.668,67.383,16.113,0
1581971196.285,58.105,34.180,60.059,8.301,0
1581971196.289,60.059,37.598,54.199,6.348,0
1581971196.293,36.133,34.180,41.992,-8.789,0
1581971196.297,36.133,27.344,42.969,-6.348,0
1581971196.300,41.016,19.531,45.898,-2.441,0
1581971196.304,42.480,28.320,55.176,1.465,0
1581971196.308,46.875,40.039,71.777,12.207,0
1581971196.312,52.734,34.180,67.383,6.348,0
1581971196.316,47.363,26.855,60.059,3.906,0
1581971196.318,33.203,29.785,52.246,7.812,0
1581971196.322,47.363,36.621,50.781,19.043,0
1581971196.326,75.195,35.645,60.059,20.996,0
1581971196.330,60.547,40.039,47.852,21.973,0
1581971196.334,66.895,44.434,45.898,15.137,0
1581971196.338,65.430,42.480,61.035,2.441,0
1581971196.342,40.039,37.598,60.547,-13.184,0
1581971196.345,26.367,27.832,52.734,-16.602,0
1581971196.349,31.738,31.250,58.105,6.348,0
1581971196.353,43.945,26.855,73.242,8.789,0
1581971196.357,34.180,16.113,64.453,-1.465,0
1581971196.361,28.320,25.391,45.898,0.488,0
1581971196.363,32.715,29.785,46.875,-3.906,0
1581971196.367,42.969,26.855,54.688,3.418,0
1581971196.371,55.664,34.180,45.410,11.230,0
1581971196.375,39.551,41.992,46.875,-1.465,0
1581971196.379,45.410,44.434,56.152,-6.836,0
1581971196.383,58.594,39.551,53.711,11.230,0
1581971196.387,35.645,31.738,54.199,25.391,0
1581971196.390,29.297,36.621,52.246,0.977,0
1581971196.394,31.250,43.945,47.852,3.418,0
1581971196.398,33.203,41.016,51.758,17.090,0
1581971196.402,39.551,38.574,49.805,12.207,0
1581971196.406,42.480,38.086,44.434,0.977,0
1581971196.423,44.434,38.574,48.340,-0.977,0
1581971196.427,50.293,30.273,51.758,3.418,0
1581971196.431,41.992,21.484,45.898,-11.719,0
1581971196.435,44.434,29.297,51.758,-0.977,0
1581971196.439,66.895,46.875,64.941,21.973,0
1581971196.443,62.012,43.457,53.223,4.883,0
1581971196.447,32.227,27.344,39.551,-17.090,0
1581971196.450,22.949,25.879,44.434,14.648,0
1581971196.454,37.109,29.297,51.270,21.484,0
1581971196.458,50.293,23.926,50.781,-1.465,0
1581971196.462,43.457,34.180,43.457,9.766,0
1581971196.466,25.879,41.504,41.504,10.742,0
1581971196.468,38.086,39.062,49.316,-1.465,0
1581971196.472,63.477,35.645,48.340,-2.930,0
1581971196.476,59.570,35.645,52.246,2.930,0
1581971196.480,42.969,36.621,54.199,1.465,0
1581971196.484,39.551,41.992,48.340,-1.465,0
1581971196.488,32.715,47.852,49.805,-3.418,0
1581971196.492,32.227,48.828,55.664,2.441,0
1581971196.495,41.016,48.340,59.082,19.531,0
1581971196.499,43.457,46.875,52.246,5.371,0
1581971196.503,29.297,39.062,38.086,3.906,0
1581971196.507,21.973,29.297,31.738,15.137,0
1581971196.511,33.691,33.691,47.852,3.418,0
1581971196.513,59.570,38.086,56.641,-6.836,0
1581971196.517,59.570,36.133,49.316,-11.230,0
1581971196.521,25.391,38.574,49.316,-13.184,0
1581971196.525,22.461,33.691,53.711,-5.859,0
1581971196.529,43.945,31.738,53.711,3.906,0
1581971196.533,51.758,34.180,45.410,15.137,0
1581971196.537,67.383,38.574,45.898,17.578,0
1581971196.540,58.105,37.109,43.945,19.531,0
1581971196.544,41.504,33.203,41.504,18.066,0
1581971196.548,62.012,35.645,43.945,4.883,0
1581971196.552,61.035,45.410,50.781,9.277,0
1581971196.556,42.480,40.039,56.641,23.438,0
1581971196.557,39.551,43.457,54.199,45.410,0
1581971196.561,43.945,42.480,51.758,41.504,0
1581971196.565,36.621,34.180,50.781,11.719,0
1581971196.569,49.805,43.457,53.711,12.695,0
1581971196.573,51.270,49.316,51.270,10.254,0
1581971196.577,34.180,30.762,41.016,-19.043,0
1581971196.581,45.410,27.832,43.945,-25.391,0
1581971196.584,53.711,43.945,52.734,-5.859,0
1581971196.588,32.715,37.109,48.828,-3.418,0
1581971196.592,17.578,24.902,38.086,-3.906,0
1581971196.596,37.109,30.762,40.527,17.578,0
1581971196.600,44.922,40.527,49.805,20.020,0
1581971196.602,36.621,36.621,54.199,25.391,0
1581971196.606,34.668,38.086,56.152,19.043,0
1581971196.610,50.293,45.898,50.781,3.418,0
1581971196.614,69.336,54.688,57.129,18.066,0
1581971196.618,34.180,48.340,57.617,6.348,0
1581971196.622,33.691,37.109,51.758,-15.625,0
1581971196.626,59.082,36.621,52.734,-4.883,0
1581971196.629,41.504,40.039,56.152,1.465,0
1581971196.633,28.320,32.227,50.781,1.465,0
1581971196.637,34.180,25.391,49.805,18.066,0
1581971196.641,61.035,35.156,59.570,24.902,0
1581971196.645,72.754,45.898,63.965,18.555,0
1581971196.647,44.434,40.039,54.688,15.137,0
1581971196.651,27.832,34.180,48.828,17.090,0
1581971196.655,28.809,34.668,37.598,8.301,0
1581971196.659,28.809,32.227,29.297,-7.812,0
1581971196.663,29.297,31.250,38.086,-3.906,0
1581971196.667,31.738,35.645,38.086,17.090,0
1581971196.671,30.273,38.086,37.598,9.277,0
1581971196.674,48.340,25.879,49.316,-3.418,0
1581971196.678,49.316,21.484,52.246,-2.441,0
1581971196.682,44.434,32.715,52.734,6.348,0
1581971196.686,59.570,42.969,55.176,12.695,0
1581971196.690,61.523,45.410,55.176,12.207,0
1581971196.692,59.570,44.434,57.617,7.324,17090
1581971196.696,55.176,47.363,55.664,27.832,0
1581971196.700,42.480,44.922,50.781,36.621,0
1581971196.704,22.949,38.086,44.922,4.883,0
1581971196.708,25.391,34.668,46.387,-0.488,0
1581971196.712,38.086,36.621,52.246,13.184,0
1581971196.716,37.598,43.457,63.477,25.391,0
1581971196.719,52.734,36.621,59.082,25.391,0
1581971196.723,72.754,27.344,42.480,12.695,0
1581971196.727,45.898,33.691,40.039,10.254,0
1581971196.731,24.414,38.574,48.828,13.672,0
1581971196.735,21.973,30.762,44.922,-9.766,0
1581971196.737,39.062,37.598,40.527,0.977,0
1581971196.741,55.176,50.293,51.758,11.719,0
1581971196.745,33.203,37.598,40.039,-16.602,0
1581971196.749,12.695,22.949,26.855,-25.391,0
1581971196.753,20.996,16.113,31.250,-17.578,0
1581971196.757,44.922,20.020,38.574,1.465,0
1581971196.761,52.246,35.156,51.758,9.766,0
1581971196.764,38.086,37.109,53.711,15.625,0
1581971196.768,37.598,26.855,45.898,12.695,0
1581971196.772,51.758,29.785,44.434,8.789,0
1581971196.776,40.527,34.180,44.434,6.348,0
1581971196.780,31.250,33.691,48.340,-4.395,0
1581971196.797,49.805,30.762,50.293,-3.418,0
1581971196.801,52.734,29.785,46.875,4.883,0
1581971196.805,51.270,24.414,39.551,11.230,0
1581971196.809,42.480,23.438,45.898,22.461,0
1581971196.813,28.320,34.180,59.570,20.996,0
1581971196.817,37.109,38.086,48.828,9.766,0
1581971196.821,43.457,34.668,43.945,8.789,0
1581971196.824,51.270,39.551,52.734,11.230,0
1581971196.828,44.922,38.086,51.758,8.789,0
1581971196.832,39.062,31.738,42.480,4.395,0
1581971196.836,54.688,30.273,42.480,0.000,0
1581971196.840,53.711,39.062,52.246,5.859,0
1581971196.842,53.711,42.969,51.270,25.391,0
1581971196.846,65.918,28.809,43.457,18.066,0
1581971196.850,60.547,18.555,46.387,-4.395,0
1581971196.854,34.668,22.461,53.711,14.160,0
1581971196.858,33.691,36.133,59.082,11.719,0
1581971196.862,46.387,46.387,61.523,-3.906,0
1581971196.866,40.527,32.715,53.223,4.883,0
1581971196.869,44.434,17.578,48.828,2.441,0
1581971196.873,38.574,27.344,53.711,18.555,0
1581971196.877,42.480,43.945,56.641,19.531,0
1581971196.881,56.641,43.457,58.594,5.859,0
1581971196.885,52.734,31.250,45.898,10.742,0
1581971196.887,46.387,33.203,40.039,6.348,0
1581971196.891,36.133,41.992,52.246,9.766,0
1581971196.895,43.945,36.621,57.129,22.461,0
1581971196.899,62.988,24.414,58.594,15.625,0
1581971196.903,42.969,20.020,57.129,0.000,0
1581971196.907,13.184,26.367,46.387,-6.348,0
1581971196.911,28.809,37.598,46.387,4.395,0
1581971196.914,42.480,39.551,48.828,9.277,0
1581971196.918,52.246,43.457,48.828,4.883,0
1581971196.922,54.688,34.180,51.270,9.766,0
1581971196.926,51.270,26.855,44.922,13.184,0
1581971196.930,33.691,29.785,49.316,1.465,0
1581971196.933,20.020,27.344,50.293,0.000,0
1581971196.937,31.250,35.156,54.688,14.160,0
1581971196.941,41.016,40.039,59.082,22.461,0
1581971196.945,43.945,30.273,52.734,19.531,0
1581971196.949,53.223,19.531,62.500,6.348,0
1581971196.953,59.570,23.438,63.965,8.301,0
1581971196.957,41.504,40.039,57.129,15.625,0
1581971196.960,42.480,43.945,55.664,13.672,0
1581971196.964,43.457,30.273,49.316,5.371,0
1581971196.968,28.320,29.785,44.434,2.441,0
1581971196.972,22.461,37.109,48.828,10.742,0
1581971196.976,36.133,37.109,56.152,0.488,0
1581971196.978,48.340,29.785,57.617,-7.812,0
1581971196.982,37.109,25.391,54.688,5.859,0
1581971196.986,37.109,30.762,49.316,26.855,0
1581971196.990,38.574,34.668,51.758,22.461,0
1581971196.994,51.758,28.809,56.641,0.488,0
1581971196.998,54.688,31.250,43.945,1.953,0
1581971197.002,32.715,26.367,37.598,8.301,0
1581971197.005,31.250,18.555,46.387,14.160,0
1581971197.009,39.551,26.855,55.176,12.695,0
1581971197.013,32.715,38.574,50.293,-0.488,0
1581971197.017,36.621,51.758,51.270,11.719,0
1581971197.021,44.434,52.246,66.406,28.809,0
1581971197.023,52.734,43.457,66.895,24.414,0
1581971197.027,52.734,31.738,45.898,14.648,0
1581971197.031,34.668,25.391,46.387,12.207,0
1581971197.035,33.691,29.785,60.547,11.719,0
1581971197.039,26.855,24.414,55.176,15.625,0
1581971197.043,33.691,22.461,48.340,11.230,0
1581971197.047,49.805,34.668,52.734,17.090,0
1581971197.050,20.996,33.691,54.199,27.832,0
1581971197.054,8.789,22.949,46.387,-1.465,0
1581971197.058,40.039,23.926,46.387,-11.719,0
1581971197.062,42.969,36.133,51.270,6.836,0
1581971197.066,30.762,41.992,56.152,16.602,0
1581971197.068,41.992,32.227,58.105,20.996,0
1581971197.072,38.574,24.414,53.223,6.836,0
1581971197.076,31.738,22.461,50.293,-3.906,0
1581971197.080,27.832,24.414,38.086,4.395,0
1581971197.084,31.738,28.320,35.645,13.672,0
1581971197.088,37.109,26.855,47.852,14.648,0
1581971197.092,32.715,29.297,52.246,9.277,0
1581971197.095,22.949,33.691,50.781,-1.465,0
1581971197.099,16.113,29.785,46.387,-0.977,0
1581971197.103,19.043,30.762,40.527,-3.418,0
1581971197.107,25.879,33.691,39.551,-3.906,0
1581971197.111,35.645,27.344,42.480,4.883,0
1581971197.113,27.344,24.414,44.434,5.859,0
1581971197.117,41.992,26.855,47.852,12.695,0
1581971197.121,46.387,29.785,46.387,8.301,0
1581971197.125,40.039,36.133,38.574,0.977,0
1581971197.129,42.480,41.016,37.598,-2.930,0
1581971197.133,23.926,32.227,44.434,-11.230,0
1581971197.137,20.020,18.066,51.758,-7.812,0
1581971197.140,30.273,22.949,46.387,-4.395,0
1581971197.144,30.273,32.227,42.480,-5.859,0
1581971197.148,23.926,32.715,42.480,-0.488,0
1581971197.152,36.621,30.273,42.969,-3.418,0
1581971197.156,48.828,22.461,44.922,-18.555,0
1581971197.173,39.551,25.879,52.734,-5.859,0
1581971197.177,41.992,40.039,60.547,12.207,0
1581971197.181,50.293,32.227,53.711,7.812,0
1581971197.185,39.062,20.020,45.410,3.418,0
1581971197.189,22.461,23.926,46.875,-9.277,0
1581971197.193,20.508,26.855,53.711,0.977,0
1581971197.197,22.461,29.297,56.152,10.742,0
1581971197.200,28.809,30.273,49.316,-9.277,0
1581971197.204,47.852,29.785,45.898,-7.812,0
1581971197.208,49.805,39.551,51.758,0.000,0
1581971197.212,33.691,38.086,51.758,-11.719,0
1581971197.216,30.273,18.555,46.875,-13.672,0
1581971197.218,41.992,28.809,50.781,-7.324,0
1581971197.222,32.715,40.527,53.223,-12.207,0
1581971197.226,41.992,36.621,57.617,-4.395,0
1581971197.230,49.316,30.762,64.453,18.555,0
1581971197.234,39.551,29.297,63.477,19.043,0
1581971197.238,46.875,32.227,52.734,7.324,0
1581971197.242,33.691,21.973,43.945,15.625,0
1581971197.245,20.020,16.113,48.828,8.789,0
1581971197.249,55.664,27.832,54.199,9.277,0
1581971197.253,61.035,36.133,51.270,9.766,0
1581971197.257,18.066,33.203,45.410,-6.348,0
1581971197.261,16.602,27.832,46.875,-11.719,0
1581971197.263,29.297,26.367,49.805,-6.348,0
1581971197.267,35.156,21.973,47.363,-11.230,0
1581971197.271,30.273,20.996,40.527,-11.719,0
1581971197.275,28.809,33.203,45.898,4.883,0
1581971197.279,41.504,39.551,50.293,5.371,0
1581971197.283,36.133,35.645,46.387,0.977,0
1581971197.287,35.645,30.762,49.805,9.766,0
1581971197.290,30.762,28.320,50.781,20.508,0
1581971197.294,30.273,34.180,54.688,12.207,0
1581971197.298,52.734,37.598,56.152,1.953,0
1581971197.302,36.133,29.297,54.199,9.766,0
1581971197.306,19.531,32.227,55.664,9.766,0
1581971197.308,27.832,35.156,53.711,15.137,0
1581971197.312,39.551,34.180,54.688,14.648,0
1581971197.316,49.316,31.250,50.781,-0.488,0
1581971197.320,38.086,28.320,52.246,5.859,0
1581971197.324,24.902,31.738,59.570,3.418,0
1581971197.328,40.039,35.156,56.641,-6.348,0
1581971197.332,37.598,32.227,49.805,-5.371,0
1581971197.335,24.414,28.320,46.875,0.488,0
1581971197.339,33.203,35.645,50.781,-0.488,0
1581971197.343,58.105,32.715,49.316,12.207,0
1581971197.347,56.641,25.879,46.875,20.020,0
1581971197.351,30.762,26.367,44.922,-6.348,0
1581971197.353,18.555,30.273,49.316,1.465,0
1581971197.357,41.992,40.527,64.941,14.160,0
1581971197.361,49.316,40.039,62.500,7.812,0
1581971197.365,26.855,29.297,51.758,0.000,0
1581971197.369,31.738,20.996,53.223,11.719,0
1581971197.373,47.852,28.809,62.988,22.461,0
1581971197.377,44.434,35.156,63.965,11.719,0
1581971197.380,38.086,27.344,55.664,2.441,0
1581971197.384,33.203,28.320,54.688,0.488,0
1581971197.388,50.781,29.785,53.711,1.465,0
1581971197.392,77.148,27.832,55.664,7.324,0
1581971197.396,50.781,28.809,57.617,15.137,0
1581971197.398,12.695,29.785,46.387,14.160,0
1581971197.402,6.836,25.879,39.551,6.836,0
1581971197.406,22.461,21.973,41.504,-14.160,0
1581971197.410,27.832,22.461,45.898,-1.465,0
1581971197.414,23.926,24.902,45.410,14.648,0
1581971197.418,27.344,24.414,46.387,-9.277,0
1581971197.422,34.668,25.879,45.410,-5.371,0
1581971197.425,38.574,35.156,48.340,11.230,0
1581971197.429,51.758,34.668,53.223,-4.395,0
1581971197.433,46.875,33.203,50.781,-3.418,0
1581971197.437,25.391,36.621,47.852,16.113,0
1581971197.441,39.062,37.109,45.898,6.836,0
1581971197.443,51.270,39.551,49.805,6.348,0
1581971197.447,46.875,40.527,49.805,-1.465,0
1581971197.451,43.945,37.109,43.945,-12.207,0
1581971197.455,41.992,36.621,56.641,7.324,0
1581971197.459,45.898,31.738,58.594,21.973,0
1581971197.463,40.039,18.066,47.852,17.578,0
1581971197.467,21.973,13.184,36.621,21.973,0
1581971197.470,38.086,19.043,32.715,24.902,0
1581971197.474,45.898,25.879,44.922,7.324,0
1581971197.478,32.715,26.855,50.781,0.977,0
1581971197.482,25.391,28.809,47.852,14.160,0
1581971197.486,31.738,29.297,51.270,15.137,0
1581971197.488,52.246,22.949,53.711,10.254,0
1581971197.492,42.969,29.785,42.480,-3.418,0
1581971197.496,18.555,33.203,40.039,3.906,0
1581971197.500,27.344,23.926,41.504,9.766,0
1581971197.504,33.691,27.344,38.086,3.418,0
1581971197.508,28.320,37.598,44.922,8.789,0
1581971197.512,30.273,44.922,52.246,3.418,0
1581971197.515,34.180,39.551,53.711,6.836,0
1581971197.519,36.621,30.273,50.293,9.766,0
1581971197.523,44.922,35.645,44.434,15.137,0
1581971197.527,32.715,26.855,42.969,20.020,0
1581971197.531,37.598,29.297,43.945,13.184,0
1581971197.548,60.059,36.621,46.387,8.789,0
1581971197.552,43.457,23.926,45.410,10.742,0
1581971197.556,31.738,27.344,40.039,12.207,0
1581971197.560,24.902,36.621,40.527,2.930,0
1581971197.564,20.508,40.039,46.875,7.812,0
1581971197.568,20.020,37.598,47.852,3.906,0
1581971197.572,22.461,28.320,43.945,2.930,0
1581971197.575,33.691,31.250,46.387,7.812,0
1581971197.579,32.715,40.039,54.199,13.672,0
1581971197.583,28.809,28.320,53.711,4.395,0
1581971197.587,30.762,23.926,43.945,-19.043,0
1581971197.591,27.832,32.227,38.574,-0.977,0
1581971197.592,13.672,33.203,38.086,8.301,0
1581971197.596,3.418,35.645,38.086,1.953,0
1581971197.600,18.555,36.621,41.016,8.301,0
1581971197.604,39.551,29.785,42.480,5.371,0
1581971197.608,34.668,22.461,42.480,5.859,0
1581971197.612,20.508,23.438,45.410,5.371,0
1581971197.616,25.879,27.832,43.945,9.277,0
1581971197.619,22.949,33.203,39.062,16.113,0
1581971197.623,18.066,32.715,36.621,16.602,0
1581971197.627,25.391,29.297,40.527,11.719,0
1581971197.631,43.457,20.508,45.898,18.066,0
1581971197.635,49.316,26.367,44.922,22.461,0
1581971197.637,28.809,39.551,47.363,13.672,0
1581971197.641,26.367,34.668,50.781,18.555,0
1581971197.645,43.945,30.762,44.922,24.414,0
1581971197.649,35.156,31.738,37.598,15.137,0
1581971197.653,26.855,33.691,40.039,2.930,0
1581971197.657,30.273,38.574,44.434,10.742,0
1581971197.661,39.551,33.691,41.016,11.230,0
1581971197.664,45.410,23.926,30.762,2.930,0
1581971197.668,36.133,25.879,32.715,-0.977,0
1581971197.672,27.832,25.391,41.504,-0.977,0
1581971197.676,31.250,27.344,30.273,6.836,0
1581971197.680,42.969,47.363,34.668,16.602,0
1581971197.682,48.340,52.246,47.852,29.297,0
1581971197.686,40.039,35.156,39.062,6.836,0
1581971197.690,27.832,25.879,34.180,-11.719,0
1581971197.694,18.066,26.367,43.945,-2.441,0
1581971197.698,14.160,30.762,52.246,-2.930,0
1581971197.702,25.879,30.273,49.316,15.625,0
1581971197.706,33.691,23.926,47.363,39.551,0
1581971197.709,16.113,26.855,45.410,18.555,0
1581971197.713,19.043,31.738,42.480,-7.812,0
1581971197.717,29.297,25.879,40.039,-10.742,0
1581971197.721,31.250,26.855,38.574,5.371,0
1581971197.725,28.320,34.180,41.992,17.578,0
1581971197.727,27.832,33.203,44.434,11.230,0
1581971197.731,34.668,32.715,46.387,-4.883,0
1581971197.735,34.180,30.762,47.852,17.578,0
1581971197.739,41.016,27.344,52.734,26.367,0
1581971197.743,47.363,33.691,60.059,8.301,0
1581971197.747,62.012,34.668,55.664,16.113,0
1581971197.751,48.828,28.809,50.293,12.695,0
1581971197.754,19.043,27.344,52.734,3.906,0
1581971197.758,41.016,28.320,60.547,7.812,0
1581971197.762,47.363,33.691,61.035,5.371,0
1581971197.766,26.367,38.086,46.387,9.277,28475
1581971197.770,21.973,35.645,40.039,13.672,0
1581971197.772,39.062,37.598,42.969,10.254,0
1581971197.776,45.898,37.109,43.945,23.438,0
1581971197.780,31.738,32.715,49.805,15.625,0
1581971197.784,25.391,28.809,52.734,8.789,0
1581971197.788,21.484,20.020,50.293,15.137,0
1581971197.792,21.973,23.926,53.223,11.230,0
1581971197.796,31.738,32.715,59.082,15.137,0
1581971197.799,44.922,30.762,60.547,24.902,0
1581971197.803,42.969,31.250,55.664,16.602,0
1581971197.807,42.480,39.062,52.734,11.230,0
1581971197.811,33.203,37.109,54.199,7.812,0
1581971197.815,12.207,29.297,41.016,5.859,0
1581971197.817,38.574,37.109,30.273,2.930,0
1581971197.821,49.316,38.086,36.621,3.418,0
1581971197.825,36.621,34.668,53.223,-4.883,0
1581971197.829,41.016,29.785,58.105,-14.160,0
1581971197.833,26.367,25.391,45.410,-14.648,0
1581971197.837,43.945,26.855,40.527,-1.465,0
1581971197.841,41.504,27.832,47.852,16.113,0
1581971197.844,8.301,33.203,49.805,13.672,0
1581971197.848,29.785,28.809,44.922,9.766,0
1581971197.852,35.156,19.043,48.828,12.695,0
1581971197.856,19.043,22.949,53.223,17.090,0
1581971197.860,15.625,23.926,41.992,13.672,0
1581971197.862,26.855,34.180,45.898,4.883,0
1581971197.866,29.297,43.457,68.848,15.137,0
1581971197.870,22.949,32.227,66.406,13.672,0
1581971197.874,34.668,37.109,64.941,10.742,0
1581971197.878,44.434,40.527,66.895,24.414,0
1581971197.882,24.414,26.855,61.523,22.949,0
1581971197.886,8.301,23.926,64.453,-6.836,0
1581971197.889,21.973,26.855,53.711,-25.391,0
1581971197.893,31.738,26.855,44.434,-15.137,0
1581971197.897,38.086,27.344,52.734,-2.930,0
1581971197.901,26.367,26.855,58.105,3.906,0
1581971197.905,21.484,28.320,56.641,1.465,0
1581971197.922,29.785,31.250,65.430,5.859,0
1581971197.926,25.391,37.109,75.684,24.902,0
1581971197.930,24.902,33.203,67.383,22.949,0
1581971197.934,28.809,21.973,60.059,-5.371,0
1581971197.938,27.832,25.879,60.547,2.441,0
1581971197.942,27.344,30.762,62.500,8.789,0
1581971197.946,41.992,34.668,62.500,5.859,0
1581971197.949,58.105,34.180,59.570,24.902,0
1581971197.953,52.734,30.273,58.105,21.484,0
1581971197.957,44.434,27.832,59.570,9.766,0
1581971197.961,31.738,27.344,62.500,21.484,0
1581971197.965,20.020,24.414,63.965,23.926,0
1581971197.968,21.484,22.949,64.941,20.996,0
1581971197.972,19.043,30.762,59.570,9.766,0
1581971197.976,22.949,33.691,52.246,0.488,0
1581971197.980,20.996,31.738,52.734,13.184,0
1581971197.984,15.137,27.344,56.152,-2.930,0
1581971197.988,36.133,31.738,56.152,-4.395,0
1581971197.992,40.527,33.691,53.223,13.672,0
1581971197.995,29.297,31.250,50.781,10.742,0
1581971197.999,46.875,40.527,58.105,20.020,0
1581971198.003,49.316,39.062,58.594,4.883,0
1581971198.007,39.062,37.109,54.688,3.906,0
1581971198.011,51.270,32.227,44.922,24.902,0
1581971198.013,60.059,15.625,43.945,24.902,0
1581971198.017,50.781,16.113,52.246,19.043,0
1581971198.021,34.668,25.391,41.504,-4.395,0
1581971198.025,15.625,27.344,40.039,-10.254,0
1581971198.029,16.113,32.227,45.898,8.301,0
1581971198.033,26.855,37.598,41.992,16.602,0
1581971198.037,34.180,37.598,42.480,23.438,0
1581971198.040,42.969,36.621,48.340,13.184,0
1581971198.044,51.758,31.738,46.387,10.742,0
1581971198.048,36.133,31.250,46.387,8.301,0
1581971198.052,26.855,35.156,49.316,-6.348,0
1581971198.056,22.949,38.574,48.828,-4.395,0
1581971198.058,41.504,30.762,51.758,4.395,0
1581971198.062,55.176,18.555,51.270,5.859,0
1581971198.066,34.668,29.785,54.199,4.395,0
1581971198.070,39.062,41.992,56.641,12.695,0
1581971198.074,31.738,44.922,50.781,23.926,0
1581971198.078,37.109,43.945,50.293,10.742,0
1581971198.082,47.852,36.621,49.805,0.488,0
1581971198.085,31.250,32.715,50.781,11.719,0
1581971198.089,32.715,34.180,47.852,9.766,0
1581971198.093,47.363,36.133,43.945,32.715,0
1581971198.097,53.223,31.738,47.852,32.715,0
1581971198.101,55.176,37.598,55.664,2.441,0
1581971198.103,53.711,41.992,60.059,8.789,0
1581971198.107,45.898,29.297,57.129,18.555,0
1581971198.111,51.758,34.180,55.176,15.137,0
1581971198.115,44.434,36.621,53.711,12.695,0
1581971198.119,26.367,32.227,54.688,16.602,0
1581971198.123,38.574,38.574,51.758,21.484,0
1581971198.127,44.922,34.668,50.293,29.297,0
1581971198.130,53.223,34.180,56.641,24.902,0
1581971198.134,45.898,40.527,49.805,-1.953,0
1581971198.138,27.344,38.086,40.039,7.324,0
1581971198.142,44.922,37.598,48.340,39.062,0
1581971198.146,65.430,39.062,58.594,24.414,0
1581971198.148,48.828,34.668,56.641,13.184,0
1581971198.152,50.293,30.762,49.805,17.578,0
1581971198.156,52.734,28.809,45.898,11.719,0
1581971198.160,29.297,28.320,42.480,4.883,0
1581971198.164,31.738,29.297,41.016,0.977,0
1581971198.168,33.691,26.855,41.992,7.324,0
1581971198.172,31.738,26.855,35.645,5.371,0
1581971198.175,51.758,35.645,41.504,26.855,0
1581971198.179,50.781,29.785,37.598,23.438,0
1581971198.183,47.363,24.414,25.391,-9.766,0
1581971198.187,43.457,41.992,44.434,-2.930,0
1581971198.191,34.668,32.227,61.523,-4.883,0
1581971198.193,27.832,15.137,54.199,-11.719,0
1581971198.197,12.695,23.926,46.875,-3.418,0
1581971198.201,11.230,30.273,44.434,-9.277,0
1581971198.205,40.527,33.691,47.852,-1.953,0
1581971198.209,29.785,32.227,41.992,7.812,0
1581971198.213,7.324,26.367,41.016,1.953,0
1581971198.217,25.879,30.273,52.734,-1.953,0
1581971198.220,27.344,23.926,46.875,-2.441,0
1581971198.224,23.926,17.090,39.062,-3.906,0
1581971198.228,24.902,30.273,47.363,-5.371,0
1581971198.232,21.484,35.156,47.363,-1.953,0
1581971198.236,29.297,31.250,41.504,1.953,0
1581971198.238,24.414,24.902,39.062,18.555,0
1581971198.242,21.484,21.973,35.156,10.742,0
1581971198.246,39.551,22.461,38.086,-5.859,0
1581971198.250,44.434,26.367,39.551,-11.230,0
1581971198.254,14.160,36.133,48.828,-11.230,0
1581971198.258,0.488,37.598,54.199,-12.207,0
1581971198.262,15.137,32.715,46.875,-13.184,0
1581971198.265,10.742,23.926,50.293,-20.020,0
1581971198.269,16.113,22.949,47.852,-19.531,0
1581971198.273,41.992,35.645,43.457,4.883,0
1581971198.277,41.504,37.109,44.434,3.418,0
1581971198.281,25.391,28.320,42.480,-6.348,0
1581971198.298,30.273,25.391,39.062,8.301,0
1581971198.302,44.922,25.879,40.527,4.395,0
1581971198.306,31.250,27.832,47.363,-8.301,0
1581971198.310,18.555,24.414,51.270,-6.836,0
1581971198.314,13.184,24.902,54.199,3.418,0
1581971198.318,9.766,26.855,53.711,2.930,0
1581971198.322,23.926,20.996,42.969,9.766,0
1581971198.325,37.109,17.578,36.133,24.902,0
1581971198.329,39.062,26.855,43.945,22.949,0
1581971198.333,41.992,30.762,50.781,5.859,0
1581971198.337,58.105,43.945,58.105,12.207,0
1581971198.341,60.059,51.270,50.293,22.461,0
1581971198.343,36.621,36.133,32.715,-2.930,0
1581971198.347,4.883,23.926,28.320,-10.742,0
1581971198.351,12.207,21.484,23.926,10.742,0
1581971198.355,24.902,32.715,27.344,22.949,0
1581971198.359,27.832,36.621,37.598,12.207,0
1581971198.363,43.457,29.785,41.016,6.348,0
1581971198.367,49.316,30.762,43.457,8.789,0
1581971198.370,41.992,33.203,45.410,15.137,0
1581971198.374,32.227,26.367,51.758,17.090,0
1581971198.378,8.301,22.949,53.223,-1.465,0
1581971198.382,13.184,23.438,51.270,4.883,0
1581971198.386,29.297,20.996,52.246,12.695,0
1581971198.388,19.043,16.602,52.734,20.996,0
1581971198.392,23.438,18.066,53.223,19.043,0
1581971198.396,28.809,20.508,52.734,-7.324,0
1581971198.400,17.090,22.949,45.898,-1.953,0
1581971198.404,21.973,22.949,42.480,-3.418,0
1581971198.408,32.715,19.531,42.969,4.395,0
1581971198.412,20.508,20.996,36.133,10.254,0
1581971198.415,27.344,20.996,37.598,13.672,0
1581971198.419,41.016,22.461,45.898,10.254,0
1581971198.423,39.062,30.762,49.316,2.930,0
1581971198.427,31.250,29.785,43.457,13.672,0
1581971198.431,38.574,29.785,46.387,15.625,0
1581971198.433,58.594,36.133,46.387,16.602,0
1581971198.437,40.527,29.297,39.551,7.812,0
1581971198.441,25.879,14.160,38.086,16.113,0
1581971198.445,44.434,28.809,47.852,29.785,0
1581971198.449,62.500,35.645,53.223,25.391,0
1581971198.453,45.898,25.391,46.875,11.719,0
1581971198.457,26.855,26.855,38.086,-6.836,0
1581971198.460,21.973,27.832,35.645,2.930,0
1581971198.464,24.902,29.785,49.805,19.531,0
1581971198.468,32.227,31.738,53.223,18.555,0
1581971198.472,25.879,30.762,48.828,35.645,0
1581971198.476,34.180,32.227,53.711,28.320,0
1581971198.478,34.180,22.461,55.176,5.859,0
1581971198.482,29.785,17.578,47.852,-1.953,0
1581971198.486,33.203,27.832,52.246,11.230,0
1581971198.490,33.203,24.414,56.641,25.391,0
1581971198.494,42.969,17.090,42.969,13.184,0
1581971198.498,37.598,25.391,41.504,7.812,0
1581971198.502,28.320,37.109,44.434,13.184,0
1581971198.505,29.785,38.086,44.434,16.113,0
1581971198.509,36.133,39.062,51.270,18.066,0
1581971198.513,54.199,32.227,54.688,22.949,0
1581971198.517,52.246,25.879,58.594,27.832,0
1581971198.521,42.480,28.809,62.500,23.438,0
1581971198.523,37.109,29.785,55.176,22.461,0
1581971198.527,29.785,31.738,55.176,21.484,0
1581971198.531,35.156,31.738,58.105,16.602,0
1581971198.535,41.016,30.762,52.246,26.855,0
1581971198.539,36.621,24.414,49.805,16.113,0
1581971198.543,38.574,27.832,45.898,5.859,0
1581971198.547,62.012,35.645,40.527,11.719,0
1581971198.550,48.828,28.809,43.945,4.395,0
1581971198.554,33.203,30.273,54.688,2.930,0
1581971198.558,43.945,39.062,51.758,15.625,0
1581971198.562,36.621,46.875,52.246,12.695,0
1581971198.566,48.340,39.062,57.617,16.113,0
1581971198.568,45.410,23.438,55.664,16.602,0
1581971198.572,33.691,32.715,47.852,0.488,0
1581971198.576,36.133,39.062,41.504,5.371,0
1581971198.580,32.227,28.320,48.340,-0.977,0
1581971198.584,39.062,28.320,44.434,-3.906,0
1581971198.588,46.875,33.691,38.086,-5.859,0
1581971198.592,59.570,34.180,45.410,-6.836,0
1581971198.595,52.246,34.180,53.223,7.812,0
1581971198.599,25.879,28.320,56.152,29.297,0
1581971198.603,33.203,27.832,50.781,29.785,0
1581971198.607,42.480,30.762,41.992,8.301,0
1581971198.611,35.156,36.621,44.434,-7.324,0
1581971198.613,21.973,33.691,46.387,-5.859,0
1581971198.617,32.715,30.273,44.922,5.859,0
1581971198.621,46.875,36.621,43.945,8.789,0
1581971198.625,54.199,35.645,48.828,-4.395,0
1581971198.629,51.758,34.668,54.199,-3.418,0
1581971198.633,41.992,38.574,49.805,23.438,0
1581971198.637,39.062,38.086,44.922,20.996,0
1581971198.640,44.922,34.180,40.527,-5.859,0
1581971198.644,65.918,37.598,45.898,9.277,0
1581971198.648,51.270,36.621,53.711,27.832,0
1581971198.652,25.391,24.902,47.852,10.254,0
1581971198.656,53.711,19.043,49.805,11.230,0
1581971198.673,66.406,25.391,54.199,25.879,0
1581971198.677,29.785,36.621,45.410,16.113,0
1581971198.681,20.996,36.621,46.387,11.230,0
1581971198.685,53.223,34.668,58.594,16.602,0
1581971198.689,51.758,37.109,61.035,19.043,0
1581971198.693,30.762,33.203,57.617,3.906,0
1581971198.697,37.109,26.855,61.035,-5.371,0
1581971198.700,36.621,21.484,64.941,12.207,0
1581971198.704,34.668,23.926,63.965,22.461,0
1581971198.708,43.457,32.715,60.547,14.160,0
1581971198.712,30.273,35.645,54.199,14.648,0
1581971198.716,20.020,36.133,50.293,12.695,0
1581971198.718,28.809,37.109,45.410,-6.348,0
1581971198.722,22.461,28.320,46.387,-5.371,0
1581971198.726,14.648,23.438,43.945,6.836,0
1581971198.730,32.227,26.367,41.016,-2.930,0
1581971198.734,39.062,27.344,49.805,-10.254,0
1581971198.738,39.062,30.762,52.246,0.488,0
1581971198.742,41.992,34.668,57.617,28.320,0
1581971198.745,28.320,32.227,60.059,30.762,0
1581971198.749,31.250,28.809,54.199,-0.977,0
1581971198.753,60.547,32.227,48.828,-6.348,0
1581971198.757,39.551,29.297,43.457,15.625,0
1581971198.761,15.137,26.367,41.992,9.277,0
1581971198.762,41.992,32.715,35.156,-0.977,0
1581971198.766,44.922,41.016,36.621,10.254,0
1581971198.770,32.227,43.457,47.363,10.254,0
1581971198.774,30.273,35.645,51.758,6.348,0
1581971198.778,37.598,32.227,54.688,8.789,0
1581971198.782,29.297,38.574,51.758,16.602,0
1581971198.786,26.855,37.598,49.805,18.066,0
1581971198.789,20.508,25.391,49.805,18.555,0
1581971198.793,23.438,31.738,52.734,28.320,0
1581971198.797,49.805,42.969,57.129,4.883,0
1581971198.801,37.109,35.645,51.758,-7.812,0
1581971198.805,24.414,33.203,47.852,11.719,0
1581971198.807,37.598,34.180,49.316,12.207,0
1581971198.811,25.879,30.762,48.340,-6.348,0
1581971198.815,17.090,24.902,50.781,0.000,0
1581971198.819,12.207,23.926,57.129,5.371,0
1581971198.823,6.836,31.738,48.828,2.930,0
1581971198.827,20.020,37.598,46.875,14.648,0
1581971198.831,38.086,38.574,54.199,28.809,0
1581971198.834,36.133,34.180,52.246,28.809,0
1581971198.838,22.949,37.109,43.945,25.879,0
1581971198.842,24.414,38.086,41.504,5.371,0
1581971198.846,30.762,27.344,39.062,-11.719,0
1581971198.850,17.578,34.668,37.109,2.930,0
1581971198.852,3.906,37.109,48.340,11.230,0
1581971198.856,8.301,20.020,53.223,-4.883,0
1581971198.860,7.812,18.066,47.363,-6.348,0
1581971198.864,6.836,21.484,39.551,6.348,0
1581971198.868,0.977,21.484,39.062,6.348,0
1581971198.872,-1.953,34.180,48.828,2.441,0
1581971198.876,18.066,35.645,48.340,5.859,0
1581971198.879,29.297,29.297,41.016,5.371,0
1581971198.883,26.367,32.715,38.574,-15.137,0
1581971198.887,16.602,33.691,45.898,-12.207,0
1581971198.891,8.301,33.203,56.152,0.488,0
1581971198.895,4.883,29.297,44.922,-1.953,0
1581971198.897,5.859,24.902,40.527,5.371,0
1581971198.901,2.441,22.949,40.039,-4.395,0
1581971198.905,12.207,29.785,43.945,-4.883,0
1581971198.909,31.250,45.898,58.594,14.160,0
1581971198.913,18.066,40.039,55.664,13.184,0
1581971198.917,0.977,28.320,50.293,5.371,0
1581971198.921,-2.930,29.785,46.875,-4.883,0
1581971198.924,24.902,34.668,49.316,1.953,0
1581971198.928,33.203,33.691,52.246,16.602,0
1581971198.932,7.812,36.621,47.363,12.207,0
1581971198.936,8.789,33.203,54.199,16.113,0
1581971198.940,21.973,25.879,49.805,11.230,0
1581971198.942,25.391,25.879,46.875,6.836,0
1581971198.946,13.184,23.926,54.199,30.273,0
1581971198.950,14.160,29.785,52.734,39.062,17224
1581971198.954,24.414,36.133,57.617,20.996,0
1581971198.958,20.020,35.645,68.848,20.020,0
1581971198.962,6.348,38.574,68.848,21.973,0
1581971198.966,15.625,43.945,65.430,16.602,0
1581971198.969,24.902,38.086,65.918,4.883,0
1581971198.973,17.090,35.645,62.988,-8.789,0
1581971198.977,12.207,39.551,55.664,-2.441,0
1581971198.981,8.301,33.203,44.922,8.789,0
1581971198.985,17.578,29.297,44.922,8.301,0
1581971199.002,30.762,28.320,52.734,20.996,0
1581971199.006,29.297,26.367,50.781,25.879,0
1581971199.010,35.156,32.715,42.969,24.902,0
1581971199.014,45.898,35.156,43.945,16.602,0
1581971199.018,37.109,33.691,48.828,2.441,0
1581971199.022,37.109,46.875,53.223,9.766,0
1581971199.026,32.227,52.246,54.199,20.508,0
1581971199.029,14.160,36.133,48.340,11.230,0
1581971199.033,8.789,24.414,47.363,-1.953,0
1581971199.037,15.137,28.320,51.270,3.418,0
1581971199.041,12.695,25.879,41.504,15.625,0
1581971199.045,21.973,31.738,37.109,20.508,0
1581971199.032,32.227,43.945,46.875,17.090,0
1581971199.036,19.043,36.621,56.152,8.789,0
1581971199.040,18.555,30.762,56.152,11.719,0
1581971199.044,14.648,31.250,46.387,16.602,0
1581971199.048,1.465,33.203,46.875,1.953,0
1581971199.052,33.203,26.855,50.293,1.953,0
1581971199.056,26.855,18.555,46.875,-2.441,0
1581971199.059,-14.648,25.879,50.781,-8.789,0
1581971199.063,0.977,25.391,57.617,3.418,0
1581971199.067,20.508,25.879,56.152,12.695,0
1581971199.071,28.809,23.438,45.410,7.324,0
1581971199.075,35.156,22.461,31.738,-7.324,0
1581971199.092,19.043,34.180,27.832,-8.789,0
1581971199.096,26.367,37.109,31.250,2.930,0
1581971199.100,41.504,36.133,34.668,8.789,0
1581971199.104,20.020,36.621,41.992,3.418,0
1581971199.108,22.949,34.180,41.992,17.578,0
1581971199.112,31.738,27.832,45.410,20.020,0
1581971199.116,25.879,35.645,55.664,10.254,0
1581971199.119,32.715,46.387,51.270,17.090,0
1581971199.123,32.227,43.945,40.527,15.625,0
1581971199.127,16.602,37.109,39.062,3.418,0
1581971199.131,31.738,37.109,43.945,0.488,0
1581971199.135,45.410,36.133,48.828,4.395,0
1581971199.137,22.949,29.785,42.969,3.418,0
1581971199.141,8.301,29.785,41.504,-3.906,0
1581971199.145,13.672,27.832,40.527,7.812,0
1581971199.149,30.762,29.297,36.621,7.812,0
1581971199.153,38.086,39.551,45.898,10.254,0
1581971199.157,26.855,41.992,48.340,27.344,0
1581971199.161,27.832,30.762,31.250,19.531,0
1581971199.164,34.668,30.273,29.785,12.695,0
1581971199.168,32.227,39.551,35.645,8.301,0
1581971199.172,23.926,39.551,39.551,3.906,0
1581971199.176,22.949,32.227,42.969,0.000,0
1581971199.180,38.086,34.668,44.922,12.207,0
1581971199.183,31.738,42.480,51.758,17.090,0
1581971199.187,15.137,39.551,49.316,8.789,0
1581971199.191,27.344,30.762,46.387,11.230,0
1581971199.195,38.086,25.879,50.293,16.602,0
1581971199.199,25.879,29.297,49.316,2.441,0
1581971199.203,23.438,38.086,50.781,2.441,0
1581971199.207,36.621,35.645,49.316,16.113,0
1581971199.210,39.551,32.227,48.828,26.367,0
1581971199.214,27.832,31.738,52.246,24.414,0
1581971199.218,37.109,35.156,47.363,0.488,0
1581971199.222,50.781,41.016,49.316,-2.441,0
1581971199.226,31.250,34.668,48.340,8.789,0
1581971199.228,29.785,30.273,49.805,9.766,0
1581971199.232,51.758,30.273,56.641,17.090,0
1581971199.236,49.805,32.227,48.828,24.414,0
1581971199.240,41.016,35.645,41.016,22.461,0
1581971199.244,60.547,38.086,45.898,36.133,0
1581971199.248,73.242,33.691,48.828,35.645,0
1581971199.252,58.105,31.250,48.828,15.625,0
1581971199.255,58.594,35.156,52.246,-0.488,0
1581971199.259,59.570,37.109,52.246,-1.465,0
1581971199.263,62.012,35.645,46.875,13.184,0
1581971199.267,74.219,34.668,47.363,16.602,0
1581971199.271,73.730,33.691,49.316,24.902,0
1581971199.273,54.688,29.297,48.340,27.344,0
1581971199.277,47.363,29.297,45.410,13.184,0
1581971199.281,53.223,37.109,43.945,14.160,0
1581971199.285,41.504,34.668,44.922,16.602,0
1581971199.289,35.645,24.902,46.875,19.531,0
1581971199.293,44.922,24.902,49.316,21.973,0
1581971199.297,45.898,28.320,48.340,28.809,0
1581971199.300,41.016,28.809,45.410,27.832,0
1581971199.304,50.293,25.879,46.875,20.020,0
1581971199.308,54.688,26.855,48.828,26.367,0
1581971199.312,50.781,24.902,39.551,14.160,0
1581971199.316,53.223,16.602,37.598,-5.859,0
1581971199.318,42.480,21.484,42.480,-3.906,0
1581971199.322,30.273,28.809,48.340,7.812,0
1581971199.326,41.016,30.273,56.152,10.254,0
1581971199.330,47.852,27.832,50.293,15.625,0
1581971199.334,49.805,24.414,47.363,23.926,0
1581971199.338,27.344,27.832,44.922,22.949,0
1581971199.342,20.508,31.250,42.480,21.484,0
1581971199.345,39.551,33.691,48.340,15.137,0
1581971199.349,30.762,30.273,47.852,9.766,0
1581971199.353,24.414,30.762,38.574,22.949,0
1581971199.357,36.133,39.551,35.156,25.879,0
1581971199.361,29.297,36.133,43.945,15.137,0
1581971199.363,5.371,27.832,50.293,2.441,0
1581971199.367,21.484,31.738,46.875,-3.906,0
1581971199.371,26.367,37.109,45.410,-0.488,0
1581971199.375,17.090,36.621,43.945,-0.977,0
1581971199.379,17.578,36.133,44.922,6.836,0
1581971199.383,9.277,37.109,51.758,20.020,0
1581971199.387,26.367,34.180,55.176,9.277,0
1581971199.390,31.738,38.086,52.734,-0.488,0
1581971199.394,21.484,41.504,51.270,8.301,0
1581971199.398,19.043,32.227,44.434,1.953,0
1581971199.402,12.207,30.762,37.598,-0.488,0
1581971199.406,7.324,35.645,35.156,-0.977,0
1581971199.423,15.137,37.598,34.180,0.000,0
1581971199.427,16.113,40.527,40.039,10.742,0
1581971199.431,5.859,36.133,33.691,13.672,0
1581971199.435,27.832,35.156,31.250,1.953,0
1581971199.439,36.621,44.434,37.598,-1.953,0
1581971199.443,13.184,43.457,38.086,11.230,0
1581971199.447,0.000,36.621,32.715,9.277,0
1581971199.450,6.348,37.109,35.645,4.883,0
1581971199.454,16.602,35.156,49.805,18.066,0
1581971199.458,13.184,30.273,48.340,9.277,0
1581971199.462,4.883,39.551,39.062,-0.977,0
1581971199.466,-7.324,38.574,38.086,-5.859,0
1581971199.468,9.766,39.551,41.504,-15.625,0
1581971199.472,10.254,46.875,44.434,5.371,0
1581971199.476,-0.977,38.086,42.969,3.418,0
1581971199.480,5.859,31.250,34.180,-4.395,0
1581971199.484,2.441,32.227,36.133,-5.859,0
1581971199.488,4.395,31.738,41.016,-7.812,0
1581971199.492,15.625,33.691,46.875,1.465,0
1581971199.495,23.438,36.133,50.781,2.930,0
1581971199.499,21.484,34.180,44.434,11.230,0
1581971199.503,20.508,27.344,42.969,-1.953,0
1581971199.507,33.203,28.320,42.480,-12.207,0
1581971199.511,31.738,37.109,45.410,7.324,0
1581971199.513,26.367,41.016,45.898,8.301,0
1581971199.517,41.016,36.133,34.668,2.930,0
1581971199.521,22.461,27.344,35.156,5.371,0
1581971199.525,5.371,31.738,47.852,6.836,0
1581971199.529,25.391,36.621,45.898,20.508,0
1581971199.533,47.852,30.273,40.039,14.160,0
1581971199.537,51.758,29.785,45.898,-3.418,0
1581971199.540,32.715,30.762,46.875,-1.465,0
1581971199.544,30.762,27.832,45.898,0.977,0
1581971199.548,55.176,28.809,43.457,2.441,0
1581971199.552,60.547,31.738,45.410,1.465,0
1581971199.556,57.129,29.297,49.316,17.578,0
1581971199.558,56.152,24.414,47.852,35.645,0
1581971199.562,67.383,32.227,52.734,40.039,0
1581971199.566,82.031,36.133,50.781,27.344,0
1581971199.570,79.590,26.367,36.133,17.090,0
1581971199.574,64.453,24.414,24.902,16.602,0
1581971199.578,56.152,27.832,39.551,19.531,0
1581971199.582,54.688,23.438,49.316,14.648,0
1581971199.585,34.668,24.902,40.527,-6.836,0
1581971199.589,32.227,28.320,35.645,0.000,0
1581971199.593,50.781,28.809,28.809,3.906,0
1581971199.597,45.898,21.484,30.273,-6.348,0
1581971199.601,41.504,17.578,39.062,8.301,0
1581971199.603,51.758,31.738,42.969,16.113,0
1581971199.607,43.457,35.645,45.898,15.625,0
1581971199.611,39.062,26.367,45.898,16.602,0
1581971199.615,41.016,19.043,48.828,27.344,0
1581971199.619,34.668,15.137,52.246,18.555,0
1581971199.623,51.270,19.531,55.176,16.113,0
1581971199.627,71.777,32.715,60.059,19.531,0
1581971199.630,57.617,31.738,60.059,4.395,0
1581971199.634,19.043,20.996,45.410,-2.930,0
1581971199.638,10.254,16.602,33.691,8.301,0
1581971199.642,34.668,30.273,40.039,3.418,0
1581971199.646,49.316,36.133,44.922,-21.484,0
1581971199.648,37.109,33.203,47.363,-0.977,0
1581971199.652,25.391,31.250,49.805,7.812,0
1581971199.656,26.855,24.902,53.223,-0.488,0
1581971199.660,30.762,20.996,55.664,5.859,0
1581971199.664,25.879,14.648,46.875,-2.930,0
1581971199.668,27.832,16.602,46.387,5.371,0
1581971199.672,38.086,26.367,44.434,16.113,0
1581971199.675,42.969,35.645,42.480,7.812,0
1581971199.679,47.852,33.691,46.875,0.488,0
1581971199.683,53.223,27.344,49.805,-6.348,0
1581971199.687,35.645,29.297,52.246,0.000,0
1581971199.691,32.715,31.250,52.246,14.160,0
1581971199.693,44.922,30.273,48.340,13.672,0
1581971199.697,33.203,19.531,39.551,2.930,0
1581971199.701,27.832,22.949,41.504,-2.441,0
1581971199.705,34.180,38.086,52.734,6.836,0
1581971199.709,36.133,38.086,56.641,14.160,0
1581971199.713,33.691,37.598,55.176,7.324,0
1581971199.717,41.992,32.715,54.199,5.859,0
1581971199.720,38.574,30.273,52.246,8.301,0
1581971199.724,33.203,33.691,49.316,16.113,0
1581971199.728,36.133,33.691,41.016,19.043,0
1581971199.732,31.738,35.645,38.574,11.719,0
1581971199.736,39.062,38.086,46.875,20.508,0
1581971199.738,47.852,36.621,45.898,16.113,0
1581971199.742,45.898,39.062,50.293,0.000,0
1581971199.746,41.992,40.039,56.152,17.090,0
1581971199.750,29.297,31.250,47.852,11.719,0
1581971199.754,26.855,29.297,42.480,-5.859,0
1581971199.758,36.621,37.109,48.340,11.230,0
1581971199.762,31.738,33.203,48.340,23.438,0
1581971199.765,33.691,25.391,42.480,12.695,0
1581971199.769,32.227,25.879,44.922,8.789,0
1581971199.773,30.762,27.832,49.316,15.137,0
1581971199.777,44.922,26.367,49.805,2.441,0
1581971199.781,26.367,31.250,47.852,-1.953,0
1581971199.798,16.113,40.527,40.039,19.043,0
1581971199.802,32.715,42.969,41.504,16.602,0
1581971199.806,51.270,37.109,40.527,4.395,0
1581971199.810,50.781,34.180,40.039,16.602,0
1581971199.814,36.621,40.527,51.270,21.484,0
1581971199.818,27.344,43.945,61.523,8.789,0
1581971199.822,28.320,44.922,58.105,4.395,0
1581971199.825,30.762,40.527,44.922,7.324,0
1581971199.829,27.344,33.203,44.922,17.090,0
1581971199.833,36.133,31.738,51.270,24.902,0
1581971199.837,46.387,32.715,48.340,17.090,0
1581971199.841,38.574,34.180,42.969,16.602,0
1581971199.843,30.273,35.645,35.645,20.508,0
1581971199.847,36.621,35.156,37.598,17.090,0
1581971199.851,32.227,38.574,47.852,15.137,0
1581971199.855,23.926,40.039,49.805,13.184,0
1581971199.859,25.391,32.227,51.270,10.254,0
1581971199.863,26.367,30.762,44.434,-1.465,0
1581971199.867,24.902,37.109,40.527,-20.508,0
1581971199.870,25.879,36.133,41.992,-12.207,0
1581971199.874,15.137,35.645,41.016,2.441,0
1581971199.878,15.625,33.203,42.480,7.812,0
1581971199.882,22.461,32.227,41.016,3.906,0
1581971199.886,34.180,33.203,40.527,-4.395,0
1581971199.888,45.898,36.621,46.387,11.230,0
1581971199.892,27.832,42.480,50.781,24.902,0
1581971199.896,17.578,34.180,48.828,25.391,0
1581971199.900,32.227,28.320,44.922,22.461,0
1581971199.904,26.855,29.785,40.527,7.324,0
1581971199.908,20.996,35.645,38.574,-0.977,0
1581971199.912,13.184,36.133,38.574,8.789,0
1581971199.915,11.230,31.250,45.410,7.812,0
1581971199.919,21.484,34.180,49.805,-13.184,0
1581971199.923,28.320,32.227,48.340,-0.977,0
1581971199.927,29.785,25.879,46.387,4.395,0
1581971199.931,14.160,24.902,47.363,-13.184,0
1581971199.933,5.371,30.273,48.340,-4.395,0
1581971199.937,5.371,30.273,47.852,16.113,0
1581971199.941,19.043,24.902,50.293,25.879,0
1581971199.945,40.527,19.043,48.340,25.391,0
1581971199.949,35.645,20.996,42.480,14.160,0
1581971199.953,22.461,29.297,41.992,8.301,0
1581971199.957,21.484,35.645,46.387,23.438,0
1581971199.960,19.043,26.855,42.969,15.625,0
1581971199.964,21.973,20.508,42.969,2.441,0
1581971199.968,20.020,25.879,50.293,5.371,0
1581971199.972,19.531,22.949,47.363,1.953,0
1581971199.976,33.203,27.344,45.410,3.906,0
1581971199.977,19.531,36.133,45.898,-14.648,0
1581971199.981,7.324,31.738,43.945,-26.855,0
1581971199.985,12.207,28.809,46.387,-5.859,0
1581971199.989,16.602,31.250,50.293,-1.953,0
1581971199.993,16.602,25.879,55.664,0.977,0
1581971199.997,12.207,22.461,57.617,4.883,0
1581971200.001,13.672,25.879,56.641,4.395,0
1581971200.004,8.301,25.879,57.617,10.254,0
1581971200.008,4.883,34.668,51.270,6.348,0
1581971200.012,8.789,41.016,42.969,10.254,0
1581971200.016,10.254,39.551,40.527,20.996,0
1581971200.020,20.020,34.668,36.621,11.230,0
1581971200.022,22.949,29.785,34.668,18.555,0
1581971200.026,26.367,32.715,41.504,14.160,0
1581971200.030,17.090,29.785,38.086,-7.324,0
1581971200.034,22.461,20.996,33.691,3.418,0
1581971200.038,19.043,22.461,39.551,8.301,0
1581971200.042,16.602,30.273,44.434,6.348,0
1581971200.046,23.438,33.203,46.875,3.906,0
1581971200.049,19.043,35.156,45.410,16.602,0
1581971200.053,26.855,37.109,41.504,12.207,0
1581971200.057,15.137,31.738,36.133,-4.395,0
1581971200.061,4.395,26.855,39.551,18.555,0
1581971200.065,-0.488,26.367,43.457,16.602,0
1581971200.067,15.625,28.320,44.434,-5.859,0
1581971200.071,30.762,26.855,44.922,1.953,0
1581971200.075,13.184,23.926,43.945,0.977,0
1581971200.079,8.301,26.855,37.598,-0.488,0
1581971200.083,17.090,23.438,31.738,-10.254,0
1581971200.087,21.484,19.043,34.668,-22.461,0
1581971200.091,20.996,25.879,37.109,-8.789,0
1581971200.094,21.973,31.738,41.992,1.465,0
1581971200.098,26.367,30.273,45.898,13.184,0
1581971200.102,20.020,29.785,41.016,18.066,0
1581971200.106,19.531,32.715,35.156,-1.953,0
1581971200.110,34.668,32.715,38.086,-10.742,0
1581971200.112,37.598,27.832,47.363,1.953,0
1581971200.116,29.297,22.949,44.434,15.137,0
1581971200.120,15.137,21.484,41.504,14.648,0
1581971200.124,20.020,30.273,42.969,10.742,0
1581971200.128,23.926,31.250,45.898,10.254,0
1581971200.132,9.766,26.855,49.316,26.367,0
1581971200.136,8.301,29.785,42.480,20.508,0
1581971200.139,7.812,34.180,33.691,-19.043,0
1581971200.143,4.883,37.109,40.527,-8.789,0
1581971200.147,3.418,32.227,51.758,5.859,28210
1581971200.151,9.766,31.738,51.758,-4.395,0
1581971200.155,9.277,27.832,46.387,-5.859,0
1581971200.157,10.742,20.996,42.480,3.418,0
1581971200.161,20.996,25.391,41.504,0.488,0
1581971200.165,7.324,34.668,51.270,7.812,0
1581971200.169,-2.930,27.832,53.711,14.160,0
1581971200.173,-7.812,22.949,46.387,-5.371,0
1581971200.177,-0.488,27.344,53.223,-10.254,0
1581971200.181,11.719,27.832,53.711,-4.883,0
1581971200.184,10.742,23.438,46.875,0.977,0
1581971200.188,22.461,25.391,39.062,0.977,0
1581971200.192,9.766,31.250,39.062,0.000,0
