timestamps,TP9,AF7,AF8,TP10,Marker0
1581606595.892,509.277,56.152,12.207,-31.250,0
1581606595.896,-859.375,44.434,8.789,-36.621,0
1581606595.900,-1000.000,30.273,10.742,-38.574,0
1581606595.904,-919.922,33.203,11.719,-7.812,0
1581606595.908,-986.328,41.504,11.719,-11.230,0
1581606595.912,-972.168,34.180,17.578,-42.480,0
1581606595.916,-972.656,35.645,17.578,-33.691,0
1581606595.919,-975.098,41.992,14.160,-21.973,0
1581606595.923,-907.227,46.387,7.324,-30.273,0
1581606595.927,-1000.000,39.551,-0.977,-19.043,0
1581606595.931,-235.840,28.809,5.859,-19.531,0
1581606595.935,-946.777,33.691,18.066,-29.297,0
1581606595.937,990.723,36.621,21.484,-26.855,0
1581606595.941,968.262,45.410,20.020,-31.250,0
1581606595.945,-992.676,51.758,22.461,-23.926,0
1581606595.949,999.512,49.316,27.344,-21.973,0
1581606595.953,999.512,51.758,18.555,-16.602,0
1581606595.957,999.512,41.992,18.066,-1.953,0
1581606595.961,999.512,31.250,25.391,-10.742,0
1581606595.964,999.512,32.227,19.531,-22.461,0
1581606595.968,999.512,25.391,14.648,-27.832,0
1581606595.972,999.512,25.391,13.672,-27.344,0
1581606595.976,999.512,36.133,20.508,-20.020,0
1581606595.980,999.512,41.016,26.367,-11.230,0
1581606595.982,999.512,40.527,24.902,-7.324,0
1581606595.986,999.512,29.297,25.391,-5.371,0
1581606595.990,999.512,21.484,29.297,-12.207,0
1581606595.994,999.512,27.344,31.250,-7.812,0
1581606595.998,-999.023,34.180,22.461,5.371,0
1581606596.002,996.094,26.855,20.508,-3.906,0
1581606596.006,979.004,25.879,25.879,-17.090,0
1581606596.009,-985.840,43.945,27.832,-12.695,0
1581606596.013,662.598,46.875,27.832,-7.324,0
1581606596.017,-332.031,39.551,22.461,-15.137,0
1581606596.021,-987.793,36.621,20.020,-27.344,0
1581606596.025,-814.453,33.203,23.438,-13.672,0
1581606596.027,-849.121,37.598,19.043,-1.465,0
1581606596.031,-1000.000,28.809,23.926,0.488,0
1581606596.035,-963.379,14.648,36.133,-5.859,0
1581606596.039,-973.633,18.555,31.250,-27.344,0
1581606596.043,-972.168,14.648,20.996,-41.016,0
1581606596.047,-972.168,10.254,17.090,-34.668,0
1581606596.051,-974.121,19.043,16.602,-27.832,0
1581606596.054,-968.262,24.414,15.625,-17.090,0
1581606596.058,-918.945,9.766,23.926,-20.020,0
1581606596.062,-1000.000,1.953,23.438,-48.828,0
1581606596.066,-138.184,14.160,14.648,-32.227,0
1581606596.070,-933.105,28.809,19.531,-20.020,0
1581606596.087,980.957,33.691,28.809,-20.508,0
1581606596.091,974.609,37.109,27.344,-18.066,0
1581606596.095,-994.141,26.367,28.809,-11.230,0
1581606596.099,-993.164,18.066,30.273,3.906,0
1581606596.103,967.285,23.438,26.367,4.883,0
1581606596.107,-999.023,28.320,30.762,4.395,0
1581606596.111,997.559,29.785,31.738,-13.672,0
1581606596.114,-254.883,22.461,22.949,-25.879,0
1581606596.118,-1000.000,13.184,30.273,-21.973,0
1581606596.122,-916.016,12.695,27.832,-25.391,0
1581606596.126,-972.168,12.695,18.066,-3.418,0
1581606596.130,-973.145,0.977,27.832,1.953,0
1581606596.132,-972.168,-9.766,31.738,-12.695,0
1581606596.136,-972.168,-9.766,29.785,-8.789,0
1581606596.140,-972.168,-16.602,20.020,-4.883,0
1581606596.144,-972.168,-19.043,8.789,-13.184,0
1581606596.148,-972.168,-11.719,14.160,-25.879,0
1581606596.152,-972.168,5.371,24.414,-41.016,0
1581606596.156,-972.168,22.949,28.320,-36.133,0
1581606596.159,-972.168,19.043,24.902,-15.625,0
1581606596.163,-972.168,14.648,21.484,-18.555,0
1581606596.167,-972.168,23.438,18.555,-34.668,0
1581606596.171,-972.168,26.367,15.625,-29.297,0
1581606596.175,-972.168,18.066,20.508,-26.367,0
1581606596.177,-972.168,2.441,9.766,-34.668,0
1581606596.181,-972.168,-3.906,1.953,-35.156,0
1581606596.185,-972.168,16.113,23.926,-37.598,0
1581606596.189,-972.168,39.062,30.762,-23.926,0
1581606596.193,-972.168,32.715,23.926,-16.113,0
1581606596.197,-972.168,12.207,20.020,-16.602,0
1581606596.201,-972.168,0.488,14.160,-30.273,0
1581606596.204,-972.168,3.906,18.066,-41.016,0
1581606596.208,-972.168,-2.441,23.438,-43.945,0
1581606596.212,-972.168,-5.371,25.879,-45.410,0
1581606596.216,-972.168,9.766,32.227,-26.367,0
1581606596.220,-972.168,14.160,34.668,-21.484,0
1581606596.222,-979.492,14.648,26.367,-40.039,0
1581606596.226,-903.320,17.578,21.484,-33.203,0
1581606596.230,-1000.000,17.578,18.066,-44.922,0
1581606596.234,-328.613,0.977,17.090,-47.363,0
1581606596.238,-991.699,0.000,19.531,-27.832,0
1581606596.242,952.148,16.113,20.508,-37.109,0
1581606596.246,-912.109,18.555,24.902,-35.645,0
1581606596.249,160.156,11.230,22.949,-27.832,0
1581606596.253,-1000.000,-5.371,13.184,-33.691,0
1581606596.257,-954.102,-11.719,13.672,-41.016,0
1581606596.261,-952.637,-7.812,18.555,-49.316,0
1581606596.265,310.547,2.930,14.160,-67.383,0
1581606596.268,-875.488,21.484,20.020,-53.223,0
1581606596.272,937.500,13.184,32.715,-41.016,0
1581606596.276,-997.559,1.465,23.926,-52.246,0
1581606596.280,999.512,11.230,15.137,-69.824,0
1581606596.284,999.512,20.020,12.695,-58.105,0
1581606596.288,999.512,20.020,13.672,-63.965,0
1581606596.292,999.512,2.441,20.996,-82.520,0
1581606596.295,-993.652,-6.836,21.484,-81.543,0
1581606596.299,969.727,7.812,24.902,-89.355,0
1581606596.303,997.559,24.414,19.043,-94.238,0
1581606596.307,997.070,22.461,20.020,-79.590,0
1581606596.311,-219.238,8.301,25.391,-71.289,0
1581606596.313,-1000.000,-8.301,12.207,-74.219,0
1581606596.317,-889.160,-13.184,10.742,-73.242,0
1581606596.321,-1000.000,-16.602,19.531,-63.477,0
1581606596.325,-640.625,-15.137,12.695,-65.430,0
1581606596.329,444.336,-3.418,12.207,-81.543,0
1581606596.333,-958.984,2.441,27.832,-66.895,0
1581606596.337,969.727,12.207,32.715,-40.039,0
1581606596.340,731.445,20.996,33.203,-61.035,0
1581606596.344,856.934,19.043,38.086,-51.270,0
1581606596.348,-779.785,8.789,31.738,-37.109,0
1581606596.352,83.984,16.113,21.484,-62.500,0
1581606596.356,-68.848,9.277,22.949,-74.707,0
1581606596.358,-877.441,2.930,16.113,-75.684,0
1581606596.362,987.305,7.324,6.836,-61.523,0
1581606596.366,978.516,2.930,4.883,-49.805,0
1581606596.370,-997.559,-0.488,7.324,-46.875,0
1581606596.374,999.512,-4.395,11.719,-50.781,0
1581606596.378,999.512,-16.602,14.160,-49.316,0
1581606596.382,999.512,-9.277,4.883,-42.480,0
1581606596.385,999.512,-0.977,3.418,-46.387,0
1581606596.389,-995.117,-6.348,10.742,-48.340,0
1581606596.393,969.727,3.906,14.160,-44.434,0
1581606596.397,-994.629,9.766,28.809,-47.363,0
1581606596.401,-968.262,15.137,36.621,-21.484,0
1581606596.403,-133.789,9.277,32.227,6.348,0
1581606596.407,-195.801,-3.906,28.809,-9.766,0
1581606596.411,924.316,4.883,30.762,-4.883,0
1581606596.415,-992.676,12.695,29.785,-2.930,0
1581606596.419,976.562,7.324,28.809,-14.160,0
1581606596.423,-998.047,8.789,26.367,-6.836,0
1581606596.427,999.512,9.277,22.461,1.465,0
1581606596.430,999.512,7.812,22.461,-14.648,0
1581606596.434,999.512,2.930,22.461,-15.137,0
1581606596.438,999.512,-0.977,17.090,-17.578,0
1581606596.442,999.512,2.930,9.766,-25.391,0
1581606596.446,999.512,10.254,18.066,-18.555,0
1581606596.448,999.512,13.672,23.438,-17.090,0
1581606596.452,999.512,12.207,19.043,-19.531,0
1581606596.456,999.512,10.254,20.996,-14.648,0
1581606596.460,-999.512,10.254,19.531,-5.371,0
1581606596.464,992.188,15.137,11.719,-5.859,0
1581606596.468,995.117,17.578,10.742,-15.137,0
1581606596.472,955.566,10.742,19.531,-30.273,0
1581606596.475,613.281,3.418,28.320,-22.949,0
1581606596.479,-97.168,2.441,28.809,-17.578,0
1581606596.483,264.648,-0.488,29.785,-20.508,0
1581606596.487,-938.965,5.859,27.344,-24.414,0
1581606596.491,991.211,3.906,25.391,-39.062,0
1581606596.508,975.586,-4.883,30.273,-13.184,0
1581606596.512,963.379,3.418,27.832,-23.438,0
1581606596.516,-935.547,12.695,21.484,-51.758,0
1581606596.520,156.738,11.230,20.508,-31.738,0
1581606596.524,-991.699,0.977,20.020,-21.484,0
1581606596.528,-965.332,-8.301,22.461,-29.297,0
1581606596.532,-945.312,-8.789,20.996,-41.992,0
1581606596.535,-979.492,-0.977,23.926,-52.734,0
1581606596.539,-972.168,-5.371,26.855,-35.645,0
1581606596.543,-972.168,-4.883,21.484,-28.809,0
1581606596.547,-972.168,2.441,22.949,-30.273,0
1581606596.551,-972.168,4.883,35.645,-35.156,0
1581606596.553,-972.168,7.324,36.621,-30.762,0
1581606596.557,-972.168,0.977,25.391,-29.297,0
1581606596.561,-972.168,-8.789,29.297,-30.762,0
1581606596.565,-972.168,-3.906,34.180,-38.086,0
1581606596.569,-972.168,-1.465,19.043,-34.180,0
1581606596.573,-972.168,-15.137,19.531,-16.602,0
1581606596.577,-972.168,-18.555,33.691,-21.973,0
1581606596.580,-972.168,-4.395,34.668,-22.949,0
1581606596.584,-972.168,-6.348,28.320,-32.715,0
1581606596.588,-972.168,-10.254,25.879,-39.062,0
1581606596.592,-972.168,-5.859,26.855,-33.203,0
1581606596.596,-972.168,-7.812,27.832,-24.902,0
1581606596.598,-972.168,-8.789,25.391,-31.738,0
1581606596.602,-972.168,-8.789,25.391,-41.016,0
1581606596.606,-972.168,-7.812,21.484,-27.344,0
1581606596.610,-972.656,0.488,15.137,-17.578,0
1581606596.614,-961.914,3.906,15.137,-34.180,0
1581606596.618,-1000.000,-4.395,15.137,-22.949,0
1581606596.622,-814.453,-6.348,26.855,-9.277,0
1581606596.625,-770.996,-8.301,31.250,-28.320,0
1581606596.629,-992.188,-9.277,26.855,-28.320,0
1581606596.633,-978.027,-8.301,20.020,-35.156,0
1581606596.637,-938.965,-11.719,20.020,-33.203,0
1581606596.641,-975.586,-9.766,16.113,-22.461,0
1581606596.643,-935.547,-9.766,19.531,-21.484,0
1581606596.647,240.723,-9.766,27.344,-18.555,0
1581606596.651,-913.086,-9.277,22.949,-18.555,0
1581606596.655,957.031,-11.719,17.090,-26.855,0
1581606596.659,993.164,1.465,13.184,-24.414,0
1581606596.663,-998.047,6.836,12.207,-40.039,0
1581606596.667,999.512,-6.836,3.418,-51.758,0
1581606596.670,999.512,-12.695,9.766,-34.668,0
1581606596.674,999.512,-3.418,20.996,-41.504,0
1581606596.678,999.512,2.930,20.996,-40.039,0
1581606596.682,999.512,-2.930,22.461,-16.113,0
1581606596.686,999.512,-7.812,23.926,-19.531,0
1581606596.688,999.512,-6.836,13.672,-33.691,0
1581606596.692,999.512,-14.648,13.672,-30.273,0
1581606596.696,999.512,-18.066,23.438,-36.621,0
1581606596.700,999.512,-10.742,19.531,-28.809,0
1581606596.704,999.512,-6.348,23.926,-20.020,0
1581606596.708,999.512,-6.348,24.414,-33.691,0
1581606596.712,999.512,5.371,18.066,-30.273,0
1581606596.715,999.512,18.066,25.879,-38.574,0
1581606596.719,999.512,15.625,29.785,-40.039,0
1581606596.723,999.512,13.184,25.391,-31.738,0
1581606596.727,999.512,16.113,26.367,-22.949,0
1581606596.731,999.512,15.137,22.461,-17.090,0
1581606596.733,999.512,13.184,16.113,-27.344,0
1581606596.737,999.512,10.742,12.207,-19.043,0
1581606596.741,999.512,1.465,13.672,-40.527,0
1581606596.745,999.512,-1.465,18.555,-52.734,0
1581606596.749,999.512,-0.977,13.672,-23.926,0
1581606596.753,999.512,-5.371,16.602,-18.066,0
1581606596.757,999.512,8.301,16.113,-34.668,0
1581606596.760,999.512,16.113,0.000,-49.805,0
1581606596.764,999.512,8.301,-1.953,-48.828,0
1581606596.768,999.512,4.395,10.742,-42.480,0
1581606596.772,999.512,1.953,9.277,-32.227,0
1581606596.776,999.512,1.953,5.859,-38.086,0
1581606596.778,999.512,-0.977,15.137,-59.570,0
1581606596.782,999.512,2.930,19.531,-49.316,0
1581606596.786,999.512,15.625,26.367,-38.574,0
1581606596.790,999.512,16.602,27.832,-29.297,0
1581606596.794,999.512,7.812,22.461,-13.184,0
1581606596.798,999.512,0.977,25.879,-16.602,0
1581606596.802,999.512,1.953,23.438,-26.855,0
1581606596.805,999.512,5.859,20.996,-34.180,0
1581606596.809,-999.512,13.184,24.902,-20.020,0
1581606596.813,990.234,19.043,27.344,-23.438,0
1581606596.817,-995.605,18.066,31.250,-28.809,0
1581606596.821,934.082,8.301,28.809,-1.465,0
1581606596.823,644.043,-3.906,26.367,-20.996,0
1581606596.827,78.613,-7.812,27.344,-40.039,0
1581606596.831,330.566,-4.883,21.973,-43.457,0
1581606596.835,-957.520,-2.441,17.090,-62.500,0
1581606596.839,996.582,-12.207,17.090,-32.715,0
1581606596.843,982.422,-17.578,14.648,-22.461,0
1581606596.847,-996.582,-7.324,12.207,-50.781,0
1581606596.850,999.512,6.836,13.672,-51.270,0
1581606596.854,999.512,13.184,13.184,-46.875,0
1581606596.858,999.512,4.395,15.625,-42.969,0
1581606596.862,999.512,-1.465,20.020,-46.875,0
1581606596.866,999.512,-8.301,21.484,-52.734,0
1581606596.882,-999.023,-11.230,21.973,-55.176,0
1581606596.886,997.559,-14.160,26.367,-55.664,0
1581606596.890,957.031,-19.531,26.367,-46.875,0
1581606596.894,-935.547,-12.207,17.578,-39.551,0
1581606596.898,412.109,-7.324,17.090,-26.367,0
1581606596.902,-796.387,-9.766,19.531,-23.438,0
1581606596.906,-1000.000,-17.090,17.090,-19.043,0
1581606596.909,-936.035,-12.207,11.719,-20.996,0
1581606596.913,-978.027,-1.953,15.625,-30.762,0
1581606596.917,-972.656,-2.930,25.879,-41.992,0
1581606596.921,-972.168,-3.418,22.949,-42.969,0
1581606596.925,-972.168,-4.883,21.484,-32.227,0
1581606596.927,-972.168,-14.648,24.902,-31.250,0
1581606596.931,-972.168,-23.438,21.973,-32.715,0
1581606596.935,-972.168,-20.508,20.996,-38.086,0
1581606596.939,-972.168,-4.395,15.137,-39.551,0
1581606596.943,-972.168,0.488,16.113,-37.109,0
1581606596.947,-972.168,-9.766,19.043,-34.668,0
1581606596.951,-973.633,-14.160,22.461,-38.086,0
1581606596.954,-972.168,-15.137,26.855,-39.062,0
1581606596.958,-929.688,-8.789,21.484,-33.203,0
1581606596.962,-1000.000,-5.859,23.438,-35.156,0
1581606596.966,-442.871,-8.301,30.273,-50.781,0
1581606596.970,774.414,-3.906,26.855,-58.594,0
1581606596.972,-964.355,-1.953,19.531,-52.246,0
1581606596.976,960.938,-0.977,17.090,-48.340,0
1581606596.980,-995.117,-3.418,15.625,-49.316,0
1581606596.984,999.512,-10.742,12.695,-42.969,0
1581606596.988,999.512,-9.766,12.695,-42.969,0
1581606596.992,999.512,-8.301,17.578,-44.922,0
1581606596.996,999.512,-5.371,18.555,-36.133,0
1581606596.999,999.512,1.465,18.555,-39.551,0
1581606597.003,999.512,3.906,15.625,-44.434,0
1581606597.007,999.512,-2.930,13.672,-50.293,0
1581606597.011,999.512,-7.324,12.207,-40.039,0
1581606597.015,999.512,-5.859,6.348,-22.949,0
1581606597.017,999.512,-10.254,8.301,-24.902,0
1581606597.021,999.512,-6.836,14.648,-35.156,0
1581606597.025,999.512,-2.930,13.184,-34.180,0
1581606597.029,999.512,0.488,4.883,-49.805,0
1581606597.033,999.512,7.812,-1.953,-62.012,0
1581606597.037,999.512,3.418,7.324,-45.410,0
1581606597.041,999.512,0.977,20.996,-42.480,0
1581606597.044,999.512,11.230,26.855,-39.062,0
1581606597.048,-992.676,10.254,29.785,-50.781,0
1581606597.052,931.641,4.395,23.926,-56.641,0
1581606597.056,-873.535,6.836,15.137,-45.410,0
1581606597.060,407.227,0.488,17.578,-44.434,0
1581606597.062,-943.848,-14.160,18.555,-50.293,0
1581606597.066,-990.723,-15.137,15.625,-41.504,0
1581606597.070,-930.176,-9.766,19.531,-33.691,0
1581606597.074,-983.398,-6.836,18.555,-37.598,0
1581606597.078,-972.168,-11.230,17.578,-57.617,0
1581606597.082,-972.168,-9.766,16.602,-65.918,0
1581606597.086,-972.168,-4.395,12.207,-55.664,0
1581606597.089,-972.168,-1.465,14.160,-62.012,0
1581606597.093,-972.168,-2.441,11.719,-56.152,0
1581606597.097,-972.168,-9.277,8.789,-48.340,17100
1581606597.101,-972.168,-8.789,8.789,-50.293,0
1581606597.105,-972.168,-8.301,9.766,-37.109,0
1581606597.107,-972.168,-9.277,13.184,-40.527,0
1581606597.111,-979.004,-9.277,20.020,-49.805,0
1581606597.115,-939.453,-9.277,15.625,-60.059,0
1581606597.119,-986.328,-14.648,4.883,-64.453,0
1581606597.123,-888.184,-20.508,13.672,-58.105,0
1581606597.127,309.082,-14.648,28.320,-53.223,0
1581606597.131,-917.480,2.930,31.250,-51.758,0
1581606597.134,956.055,11.719,29.785,-59.570,0
1581606597.138,995.605,1.465,27.832,-54.199,0
1581606597.142,991.699,-3.418,20.996,-56.152,0
1581606597.146,-993.652,0.488,19.043,-48.340,0
1581606597.150,870.117,1.953,22.949,-32.715,0
1581606597.152,452.637,-14.160,21.973,-47.363,0
1581606597.156,-92.773,-22.461,19.531,-58.594,0
1581606597.160,-122.559,-15.137,19.531,-52.734,0
1581606597.164,-485.352,-14.160,9.277,-41.992,0
1581606597.168,-1000.000,-11.230,-3.418,-59.570,0
1581606597.172,-964.355,-5.371,1.953,-91.797,0
1581606597.176,-902.344,-4.883,19.531,-86.426,0
1581606597.179,-1000.000,-2.930,30.762,-69.824,0
1581606597.183,-352.539,-0.977,29.785,-63.965,0
1581606597.187,952.148,0.977,26.855,-60.547,0
1581606597.191,-984.863,1.953,19.531,-49.316,0
1581606597.195,960.938,0.488,16.113,-64.941,0
1581606597.197,-991.699,-5.371,13.672,-71.289,0
1581606597.201,-994.629,-11.719,13.672,-51.270,0
1581606597.205,955.566,-7.812,15.137,-51.758,0
1581606597.209,-945.801,-5.371,13.672,-55.176,0
1581606597.213,708.008,-10.254,20.996,-62.012,0
1581606597.217,-527.832,-11.719,23.926,-53.223,0
1581606597.221,-1000.000,-12.695,23.438,-56.641,0
1581606597.224,-931.641,-16.602,19.531,-72.754,0
1581606597.228,-972.168,-16.602,13.672,-72.754,0
1581606597.232,-973.633,-13.184,11.719,-68.359,0
1581606597.236,-972.168,-15.625,9.277,-56.152,0
1581606597.240,-972.168,-15.625,14.160,-57.617,0
1581606597.257,-976.074,-14.160,21.484,-46.875,0
1581606597.261,-929.688,-20.508,18.555,-42.969,0
1581606597.265,-1000.000,-20.020,13.184,-59.570,0
1581606597.269,-549.316,-12.207,15.137,-62.012,0
1581606597.273,-189.941,-9.277,10.254,-70.801,0
1581606597.277,-893.555,-18.066,0.488,-96.191,0
1581606597.281,-950.195,-20.508,6.836,-80.566,0
1581606597.284,-925.781,-7.324,15.137,-70.312,0
1581606597.288,-1000.000,0.977,13.184,-86.914,0
1581606597.292,284.668,4.883,2.930,-90.332,0
1581606597.296,507.324,2.930,-2.441,-75.684,0
1581606597.300,-967.773,-8.301,-2.441,-66.406,0
1581606597.302,214.355,-8.789,-4.883,-70.801,0
1581606597.306,-856.445,-2.930,-3.906,-72.754,0
1581606597.310,940.918,-3.906,-2.441,-60.547,0
1581606597.314,994.629,1.953,-3.906,-50.293,0
1581606597.318,-998.535,-5.859,-6.836,-78.613,0
1581606597.322,999.512,-20.508,-2.930,-86.914,0
1581606597.326,999.512,-18.066,-1.465,-78.125,0
1581606597.329,999.512,-11.719,-1.465,-91.797,0
1581606597.333,999.512,-3.906,5.371,-100.586,0
1581606597.337,999.512,3.418,3.418,-94.238,0
1581606597.341,999.512,-2.930,2.441,-71.289,0
1581606597.345,999.512,-6.836,10.254,-77.148,0
1581606597.348,999.512,3.906,8.301,-78.613,0
1581606597.352,999.512,3.418,3.418,-65.430,0
1581606597.356,999.512,-1.953,-1.953,-95.703,0
1581606597.360,999.512,-2.441,-5.859,-101.074,0
1581606597.364,999.512,-8.789,6.348,-88.379,0
1581606597.368,999.512,-9.766,16.602,-95.215,0
1581606597.372,999.512,-6.348,14.648,-83.496,0
1581606597.375,999.023,-4.883,16.602,-66.895,0
1581606597.379,999.512,1.465,17.090,-63.965,0
1581606597.383,999.023,2.930,11.230,-74.707,0
1581606597.387,995.117,2.441,11.719,-81.543,0
1581606597.391,998.535,2.441,16.602,-80.078,0
1581606597.393,-1000.000,5.371,14.648,-62.012,0
1581606597.397,-993.164,10.254,10.254,-62.500,0
1581606597.401,965.820,12.695,8.789,-63.477,0
1581606597.405,-992.676,8.789,8.301,-47.852,0
1581606597.409,968.262,-0.977,4.395,-53.223,0
1581606597.413,-276.367,-1.465,6.348,-54.688,0
1581606597.417,-1000.000,1.953,10.742,-47.363,0
1581606597.420,-916.016,3.418,14.160,-51.758,0
1581606597.424,-973.145,4.883,18.555,-70.312,0
1581606597.428,-914.551,5.371,13.184,-76.660,0
1581606597.432,-1000.000,0.977,9.277,-68.848,0
1581606597.436,-325.195,-5.371,8.789,-61.523,0
1581606597.438,913.086,-3.418,1.465,-64.453,0
1581606597.442,-899.414,1.953,-1.465,-65.430,0
1581606597.446,658.691,6.836,8.789,-75.684,0
1581606597.450,-362.305,9.766,19.043,-69.336,0
1581606597.454,317.871,8.301,14.648,-71.777,0
1581606597.458,-883.789,1.953,3.906,-87.402,0
1581606597.462,907.715,-3.906,2.441,-90.332,0
1581606597.465,967.773,4.395,3.906,-82.520,0
1581606597.469,-989.258,9.766,2.441,-76.660,0
1581606597.473,995.605,1.953,1.465,-87.891,0
1581606597.477,-999.512,-0.977,3.418,-93.262,0
1581606597.481,999.512,8.789,7.324,-97.656,0
1581606597.483,999.512,9.766,5.371,-81.055,0
1581606597.487,999.512,8.301,11.230,-71.777,0
1581606597.491,999.512,11.719,16.113,-83.008,0
1581606597.495,999.512,18.066,16.113,-73.242,0
1581606597.499,999.512,21.973,12.695,-75.195,0
1581606597.503,999.512,23.438,2.441,-78.613,0
1581606597.507,999.512,23.926,-7.812,-61.035,0
1581606597.510,999.512,19.531,-4.883,-62.500,0
1581606597.514,-997.559,8.789,10.742,-68.359,0
1581606597.518,977.051,8.789,14.648,-76.172,0
1581606597.522,-963.379,14.648,7.324,-85.449,0
1581606597.526,860.840,1.465,5.371,-66.895,0
1581606597.528,412.109,-3.906,8.301,-74.707,0
1581606597.532,469.727,8.789,7.812,-74.219,0
1581606597.536,606.934,22.949,8.301,-82.520,0
1581606597.540,611.816,27.832,8.301,-95.703,0
1581606597.544,869.629,22.461,2.441,-75.195,0
1581606597.548,915.039,17.578,-0.977,-82.031,0
1581606597.552,407.715,13.672,1.953,-89.844,0
1581606597.555,-402.344,9.766,0.000,-89.355,0
1581606597.559,-972.656,1.953,-0.977,-96.680,0
1581606597.563,-963.867,-2.930,1.465,-102.539,0
1581606597.567,-959.961,0.977,3.418,-82.031,0
1581606597.571,-976.074,0.000,6.348,-80.566,0
1581606597.573,-972.168,-0.977,7.324,-79.102,0
1581606597.577,-972.168,4.395,15.137,-78.613,0
1581606597.581,-972.168,9.766,15.137,-77.148,0
1581606597.585,-973.633,14.160,3.418,-76.660,0
1581606597.589,-964.355,7.812,8.789,-79.590,0
1581606597.593,-983.398,3.906,20.996,-92.285,0
1581606597.597,-929.199,6.348,13.672,-98.145,0
1581606597.600,-695.801,2.930,10.254,-84.473,0
1581606597.604,-670.410,-1.953,14.648,-73.242,0
1581606597.608,-878.906,-10.742,7.324,-70.312,0
1581606597.612,-885.254,-10.254,3.418,-81.055,0
1581606597.616,115.723,9.277,9.277,-84.961,0
1581606597.633,992.676,20.020,18.555,-83.496,0
1581606597.637,984.375,20.020,28.320,-73.730,0
1581606597.641,977.539,19.043,26.367,-72.266,0
1581606597.645,963.379,12.207,21.973,-64.453,0
1581606597.649,-910.156,11.719,21.973,-67.871,0
1581606597.653,277.832,8.301,22.461,-68.848,0
1581606597.657,-675.293,-0.488,17.578,-62.988,0
1581606597.660,-71.289,-4.395,14.648,-74.219,0
1581606597.664,96.680,5.859,16.602,-70.312,0
1581606597.668,-580.566,4.395,18.066,-63.477,0
1581606597.672,-946.289,1.953,12.695,-82.520,0
1581606597.676,-967.773,7.812,10.254,-86.426,0
1581606597.678,-962.891,9.277,16.602,-64.453,0
1581606597.682,-975.098,7.324,12.695,-77.637,0
1581606597.686,-972.168,2.441,9.766,-85.449,0
1581606597.690,-972.168,7.812,19.043,-79.590,0
1581606597.694,-972.168,11.719,20.508,-77.637,0
1581606597.698,-971.680,2.441,20.020,-65.430,0
1581606597.702,-971.191,2.930,19.043,-63.965,0
1581606597.705,-961.914,8.789,17.578,-59.082,0
1581606597.709,-978.027,2.441,15.625,-70.312,0
1581606597.713,-636.719,8.301,8.301,-78.125,0
1581606597.717,-595.215,18.066,11.230,-66.406,0
1581606597.721,-987.305,17.090,22.461,-79.102,0
1581606597.723,-1000.000,15.625,26.855,-96.191,0
1581606597.727,-172.852,23.438,25.879,-77.637,0
1581606597.731,-62.500,35.156,28.809,-70.312,0
1581606597.735,-176.758,34.668,29.297,-68.848,0
1581606597.739,193.848,27.344,26.367,-64.453,0
1581606597.743,-456.543,20.508,33.691,-63.477,0
1581606597.747,-156.250,4.883,42.480,-62.500,0
1581606597.750,295.898,7.812,37.109,-79.102,0
1581606597.754,729.004,22.461,27.832,-78.613,0
1581606597.758,-967.773,22.949,31.250,-67.871,0
1581606597.762,968.262,33.691,40.039,-55.176,0
1581606597.766,-959.473,37.598,35.645,-55.664,0
1581606597.768,789.062,32.227,22.461,-63.477,0
1581606597.772,743.652,39.062,21.484,-61.035,0
1581606597.776,-974.609,42.969,28.809,-73.730,0
1581606597.780,997.559,34.668,24.902,-71.777,0
1581606597.784,994.141,29.297,17.578,-62.500,0
1581606597.788,-999.512,33.691,20.020,-76.660,0
1581606597.792,999.512,22.461,22.461,-91.797,0
1581606597.795,999.512,16.113,23.926,-93.750,0
1581606597.799,999.512,26.855,27.344,-91.309,0
1581606597.803,999.512,27.832,27.344,-87.891,0
1581606597.807,999.512,19.043,30.273,-64.941,0
1581606597.811,999.512,23.926,35.645,-62.500,0
1581606597.813,999.512,30.762,36.133,-57.129,0
1581606597.817,999.512,31.738,32.227,-40.039,0
1581606597.821,999.512,22.949,30.762,-53.711,0
1581606597.825,999.512,16.602,30.273,-77.148,0
1581606597.829,999.512,21.484,24.902,-76.172,0
1581606597.833,999.512,23.926,20.996,-60.547,0
1581606597.837,999.512,26.367,22.461,-43.457,0
1581606597.840,999.512,21.484,30.273,-66.406,0
1581606597.844,999.512,17.090,31.250,-83.496,0
1581606597.848,999.512,15.137,31.250,-54.199,0
1581606597.852,999.512,16.602,29.785,-57.129,0
1581606597.856,999.512,20.508,26.367,-80.566,0
1581606597.858,-999.512,24.902,16.113,-81.543,0
1581606597.862,996.094,21.973,16.113,-62.500,0
1581606597.866,956.543,17.090,31.738,-49.805,0
1581606597.870,-916.016,20.508,27.832,-68.848,0
1581606597.874,421.875,24.902,22.949,-69.336,0
1581606597.878,-732.910,21.973,33.203,-54.688,0
1581606597.882,-388.672,7.324,34.668,-45.898,0
1581606597.885,61.523,8.301,26.855,-66.895,0
1581606597.889,290.527,10.742,26.855,-76.660,0
1581606597.893,968.750,4.883,30.762,-65.430,0
1581606597.897,990.234,16.602,29.297,-65.918,0
1581606597.901,-991.211,14.648,21.973,-56.152,0
1581606597.903,711.426,11.230,21.484,-45.898,0
1581606597.907,-183.594,16.113,32.715,-48.828,0
1581606597.911,-771.484,3.906,29.785,-69.336,0
1581606597.915,-959.473,7.324,18.066,-82.520,0
1581606597.919,-683.105,21.484,20.020,-73.242,0
1581606597.923,-13.184,22.949,21.484,-55.664,0
1581606597.927,654.785,23.438,18.555,-57.617,0
1581606597.930,-148.438,21.973,17.090,-82.520,0
1581606597.934,-1000.000,18.066,18.555,-76.172,0
1581606597.938,-939.453,14.160,16.113,-53.711,0
1581606597.942,-959.961,0.488,21.973,-56.641,0
1581606597.946,-975.586,-5.371,32.715,-66.895,0
1581606597.947,-972.168,8.301,36.133,-62.500,0
1581606597.951,-972.168,14.648,36.621,-72.266,0
1581606597.955,-972.168,16.113,33.203,-74.707,0
1581606597.959,-972.168,21.973,29.785,-71.289,0
1581606597.963,-972.168,20.508,24.414,-60.059,0
1581606597.967,-973.633,16.113,18.066,-41.992,0
1581606597.971,-972.168,17.090,19.043,-74.707,0
1581606597.974,-914.062,15.137,23.438,-85.938,0
1581606597.978,-1000.000,9.277,26.855,-57.617,0
1581606597.982,-222.168,4.883,26.367,-40.527,0
1581606597.986,-968.262,10.742,24.414,-46.387,0
1581606597.990,993.652,20.508,27.344,-56.641,0
1581606598.007,968.750,19.531,26.367,-60.059,0
1581606598.011,-992.676,20.508,26.367,-44.434,0
1581606598.015,999.512,35.156,25.391,-59.082,0
1581606598.019,999.512,38.574,27.832,-71.777,0
1581606598.023,999.512,33.203,27.344,-66.406,0
1581606598.027,999.512,27.832,25.391,-76.172,0
1581606598.031,999.512,22.461,30.273,-81.543,0
1581606598.034,999.512,27.344,27.344,-74.707,0
1581606598.038,999.512,35.156,20.996,-69.824,0
1581606598.042,999.512,39.062,28.320,-75.684,0
1581606598.046,999.512,30.762,37.598,-70.312,0
1581606598.050,999.512,20.996,33.691,-65.430,0
1581606598.052,999.512,26.367,27.344,-69.824,0
1581606598.056,999.512,31.738,29.297,-58.594,0
1581606598.060,999.512,33.203,35.156,-47.852,0
1581606598.064,999.512,37.109,34.668,-60.059,0
1581606598.068,999.512,36.621,32.715,-59.082,0
1581606598.072,999.512,31.738,36.133,-47.852,0
1581606598.076,999.512,22.461,34.180,-55.176,0
1581606598.079,999.512,23.438,30.762,-73.730,0
1581606598.083,999.512,29.297,25.879,-65.430,0
1581606598.087,999.512,26.855,19.043,-63.477,0
1581606598.091,999.512,24.414,30.762,-59.082,0
1581606598.095,999.512,24.902,45.898,-55.176,0
1581606598.097,999.512,33.691,47.363,-43.945,0
1581606598.101,999.512,33.203,36.133,-39.551,0
1581606598.105,999.512,21.484,30.273,-64.941,0
1581606598.109,999.512,21.973,27.832,-78.125,0
1581606598.113,999.512,28.809,27.344,-65.430,0
1581606598.117,999.512,36.133,33.691,-33.691,0
1581606598.121,999.512,43.457,31.738,-48.340,0
1581606598.124,999.512,43.945,31.250,-68.848,0
1581606598.128,999.512,36.133,37.109,-71.289,0
1581606598.132,999.512,22.461,37.598,-57.617,28190
1581606598.136,999.512,22.461,37.598,-40.039,0
1581606598.140,999.512,30.273,38.574,-57.129,0
1581606598.142,999.512,29.297,37.109,-75.684,0
1581606598.146,999.512,22.949,28.320,-58.105,0
1581606598.150,999.512,19.043,24.902,-47.363,0
1581606598.154,999.512,23.926,29.297,-58.105,0
1581606598.158,-998.047,31.738,24.414,-56.641,0
1581606598.162,986.328,33.691,26.367,-54.688,0
1581606598.166,-989.258,21.973,28.809,-62.988,0
1581606598.169,984.863,13.672,20.020,-63.477,0
1581606598.173,557.129,19.043,20.508,-61.035,0
1581606598.177,594.238,26.367,26.367,-72.266,0
1581606598.181,-61.035,27.832,32.227,-65.430,0
1581606598.185,-1000.000,19.043,34.668,-72.266,0
1581606598.187,-911.133,10.254,31.738,-77.148,0
1581606598.191,-1000.000,8.301,33.691,-71.289,0
1581606598.195,-673.828,13.184,24.414,-62.500,0
1581606598.199,320.801,13.184,21.973,-62.012,0
1581606598.203,-213.867,13.184,25.879,-77.148,0
1581606598.207,-1000.000,13.184,27.832,-56.152,0
1581606598.211,-952.637,13.184,36.133,-44.922,0
1581606598.214,-958.496,16.602,35.645,-53.223,0
1581606598.218,-976.562,16.113,33.203,-42.480,0
1581606598.222,-972.168,12.695,36.621,-46.875,0
1581606598.226,-972.168,3.906,36.621,-50.293,0
1581606598.230,-972.168,-4.395,32.227,-49.316,0
1581606598.232,-972.168,5.371,31.738,-60.547,0
1581606598.236,-972.168,15.625,38.086,-57.617,0
1581606598.240,-972.168,16.602,41.016,-58.105,0
1581606598.244,-972.168,12.207,37.598,-49.805,0
1581606598.248,-972.168,13.184,31.738,-46.875,0
1581606598.252,-972.168,18.555,27.832,-45.410,0
1581606598.256,-972.168,20.996,30.762,-38.086,0
1581606598.259,-972.656,20.020,32.715,-63.477,0
1581606598.263,-972.168,14.160,25.391,-70.312,0
1581606598.267,-972.168,25.391,25.879,-60.547,0
1581606598.271,-972.168,27.832,38.574,-45.898,0
1581606598.275,-972.168,13.672,44.434,-46.387,0
1581606598.277,-972.168,15.137,34.180,-69.336,0
1581606598.281,-972.168,6.836,28.320,-67.871,0
1581606598.285,-972.168,3.906,36.621,-61.035,0
1581606598.289,-972.168,11.719,41.992,-55.664,0
1581606598.293,-972.168,12.695,42.480,-39.551,0
1581606598.297,-972.168,20.508,43.945,-39.062,0
1581606598.301,-972.168,16.113,43.457,-66.895,0
1581606598.304,-972.168,12.695,41.992,-76.660,0
1581606598.308,-972.168,15.625,38.086,-58.594,0
1581606598.312,-972.168,10.254,34.668,-45.410,0
1581606598.316,-972.168,11.719,37.109,-46.875,0
1581606598.320,-972.168,17.090,36.133,-47.852,0
1581606598.323,-972.168,13.672,38.574,-31.250,0
1581606598.327,-972.168,9.766,38.574,-35.156,0
1581606598.331,-972.168,13.672,38.574,-44.434,0
1581606598.335,-972.168,19.043,41.992,-48.828,0
1581606598.339,-972.168,18.066,39.062,-54.688,0
1581606598.343,-972.168,16.602,36.133,-33.691,0
1581606598.347,-972.168,13.672,30.762,-47.363,0
1581606598.350,-972.168,11.719,27.344,-63.965,0
1581606598.354,-972.168,8.301,27.832,-39.062,0
1581606598.358,-972.168,4.395,34.668,-24.414,0
1581606598.362,-972.168,3.906,28.809,-36.621,0
1581606598.366,-972.168,-2.930,17.578,-48.828,0
1581606598.383,-972.168,-0.488,22.949,-57.129,0
1581606598.387,-972.168,12.207,25.879,-60.547,0
1581606598.391,-972.168,18.066,25.391,-51.270,0
1581606598.395,-972.656,17.578,22.949,-49.805,0
1581606598.399,-956.543,12.695,26.367,-41.504,0
1581606598.403,-1000.000,15.625,31.250,-30.273,0
1581606598.407,-761.230,20.508,29.297,-43.457,0
1581606598.410,-670.410,16.602,17.578,-51.270,0
1581606598.414,-976.562,8.789,16.602,-37.109,0
1581606598.418,-1000.000,8.789,24.902,-39.551,0
1581606598.422,-843.750,18.555,30.762,-48.340,0
1581606598.426,-639.648,19.043,35.645,-55.176,0
1581606598.428,-885.254,15.625,32.715,-64.941,0
1581606598.432,-945.312,17.090,30.762,-56.152,0
1581606598.436,-728.516,17.578,31.250,-52.734,0
1581606598.440,-528.809,15.137,32.715,-47.852,0
1581606598.444,-711.426,5.859,24.414,-43.457,0
1581606598.448,-995.605,3.906,23.926,-40.039,0
1581606598.452,-966.797,7.812,31.250,-45.898,0
1581606598.455,-960.449,9.766,29.785,-71.289,0
1581606598.459,-990.234,12.695,31.250,-60.059,0
1581606598.463,-912.598,20.996,27.832,-48.828,0
1581606598.467,-867.188,24.414,23.926,-40.039,0
1581606598.471,-972.656,17.578,29.297,-35.645,0
1581606598.473,-978.516,16.602,33.203,-50.293,0
1581606598.477,-946.777,18.555,30.273,-57.129,0
1581606598.481,-978.027,18.066,29.297,-42.480,0
1581606598.485,-831.543,20.020,34.668,-38.574,0
1581606598.489,148.926,21.973,38.086,-52.246,0
1581606598.493,989.258,24.902,37.109,-53.223,0
1581606598.497,989.746,25.391,37.109,-50.781,0
1581606598.500,980.957,13.672,33.691,-49.316,0
1581606598.504,-995.605,13.672,27.344,-66.895,0
1581606598.508,999.512,23.438,29.785,-57.617,0
1581606598.512,999.512,23.926,29.297,-40.039,0
1581606598.516,999.512,24.902,24.902,-39.062,0
1581606598.518,999.512,23.438,21.973,-49.805,0
1581606598.522,999.512,18.555,17.578,-60.059,0
1581606598.526,-998.047,20.996,23.926,-37.109,0
1581606598.530,987.305,22.949,25.879,-39.062,0
1581606598.534,945.801,9.766,21.484,-51.270,0
1581606598.538,-835.938,10.742,18.555,-56.152,0
1581606598.542,-36.133,23.438,20.996,-59.570,0
1581606598.545,-880.371,11.719,19.531,-53.223,0
1581606598.549,621.582,19.043,14.648,-63.965,0
1581606598.553,-899.414,32.227,19.043,-62.988,0
1581606598.557,938.965,28.320,22.949,-49.316,0
1581606598.561,-992.676,32.227,22.949,-54.199,0
1581606598.563,999.512,31.738,20.996,-42.969,0
1581606598.567,999.512,34.180,20.508,-36.621,0
1581606598.571,999.512,36.621,29.297,-42.969,0
1581606598.575,999.512,34.668,34.180,-30.273,0
1581606598.579,999.512,33.691,29.785,-51.758,0
1581606598.583,999.512,33.203,30.762,-59.082,0
1581606598.587,999.512,28.809,31.738,-37.598,0
1581606598.590,999.512,25.391,33.691,-41.016,0
1581606598.594,999.512,21.973,32.715,-57.129,0
1581606598.598,999.512,20.020,33.203,-39.062,0
1581606598.602,999.512,24.414,31.250,-15.137,0
1581606598.606,999.512,21.484,25.391,-37.109,0
1581606598.608,999.512,14.160,26.367,-62.012,0
1581606598.612,999.512,15.625,22.949,-59.082,0
1581606598.616,999.512,18.555,21.973,-46.875,0
1581606598.620,999.512,20.996,25.391,-39.551,0
1581606598.624,999.512,24.414,21.973,-43.457,0
1581606598.628,999.512,26.855,21.484,-45.898,0
1581606598.632,999.512,26.367,18.066,-45.410,0
1581606598.635,999.512,22.461,14.160,-57.617,0
1581606598.639,999.512,23.438,20.996,-56.641,0
1581606598.643,999.512,18.066,30.273,-51.270,0
1581606598.647,999.512,14.648,24.902,-62.988,0
1581606598.651,999.512,24.414,14.160,-51.758,0
1581606598.653,999.512,33.203,13.672,-43.945,0
1581606598.657,999.512,33.691,22.949,-47.363,0
1581606598.661,999.512,24.902,29.785,-39.551,0
1581606598.665,999.512,22.461,29.297,-64.453,0
1581606598.669,-996.094,29.297,29.785,-60.547,0
1581606598.673,979.492,37.598,33.691,-46.387,0
1581606598.677,979.492,26.855,36.621,-56.641,0
1581606598.680,-967.773,21.973,34.180,-46.875,0
1581606598.684,-83.984,22.949,33.691,-55.176,0
1581606598.688,-1000.000,13.672,29.785,-63.477,0
1581606598.692,-931.641,17.090,23.438,-38.574,0
1581606598.696,-919.922,21.484,18.066,-37.598,0
1581606598.698,-388.184,17.090,12.207,-54.199,0
1581606598.702,484.375,12.207,21.484,-70.312,0
1581606598.706,961.914,11.719,27.832,-67.383,0
1581606598.710,-972.168,15.625,30.762,-60.059,0
1581606598.714,653.809,21.973,34.180,-59.570,0
1581606598.718,603.027,24.414,28.809,-68.359,0
1581606598.722,-974.609,26.367,28.320,-63.477,0
1581606598.725,-997.559,30.762,28.809,-46.387,0
1581606598.729,987.793,29.297,27.344,-45.898,0
1581606598.733,-998.535,22.949,29.785,-39.062,0
1581606598.737,999.512,28.320,35.156,-37.598,0
1581606598.741,999.512,30.762,37.598,-54.199,0
1581606598.758,999.512,26.367,31.738,-56.641,0
1581606598.762,999.512,28.320,25.879,-41.992,0
1581606598.766,999.512,19.043,26.367,-24.414,0
1581606598.770,999.512,14.160,33.691,-30.762,0
1581606598.774,999.512,25.879,41.504,-27.832,0
1581606598.778,999.512,32.715,41.504,-33.203,0
1581606598.782,999.512,37.598,33.691,-53.711,0
1581606598.785,999.512,39.062,30.273,-58.594,0
1581606598.789,999.512,40.039,31.250,-68.359,0
1581606598.793,999.512,38.086,27.832,-52.246,0
1581606598.797,999.512,33.691,27.832,-53.711,0
1581606598.801,999.512,28.320,29.297,-64.453,0
1581606598.803,999.512,24.902,26.855,-47.363,0
1581606598.807,-990.234,23.438,32.227,-45.898,0
1581606598.811,942.871,20.020,31.250,-40.527,0
1581606598.815,-923.828,15.625,19.531,-32.715,0
1581606598.819,692.383,9.766,21.973,-41.992,0
1581606598.823,-664.551,7.812,23.438,-31.738,0
1581606598.827,-1000.000,9.766,29.297,-34.180,0
1581606598.830,-917.969,9.766,37.109,-45.898,0
1581606598.834,-981.445,11.719,33.691,-20.996,0
1581606598.838,-972.168,12.695,34.180,-41.016,0
1581606598.842,-972.168,10.254,28.809,-63.965,0
1581606598.846,-972.168,16.602,23.926,-42.969,0
1581606598.848,-972.168,20.996,27.344,-43.457,0
1581606598.852,-972.168,13.184,23.926,-58.105,0
1581606598.856,-972.168,14.160,20.020,-57.617,0
1581606598.860,-972.168,12.695,18.555,-48.340,0
1581606598.864,-972.168,-0.977,20.020,-66.406,0
1581606598.868,-972.168,9.277,24.902,-71.289,0
1581606598.872,-972.168,22.949,26.367,-57.617,0
1581606598.875,-972.168,26.367,23.438,-62.988,0
1581606598.879,-972.168,21.484,20.996,-49.316,0
1581606598.883,-972.168,11.719,25.879,-54.199,0
1581606598.887,-976.562,4.883,25.879,-56.152,0
1581606598.891,-953.613,-3.418,22.461,-43.945,0
1581606598.893,-965.820,-0.488,28.320,-50.293,0
1581606598.897,-916.504,6.348,25.879,-44.922,0
1581606598.901,19.531,14.648,23.926,-53.711,0
1581606598.905,966.309,23.438,24.902,-66.895,0
1581606598.909,994.629,27.344,28.320,-47.852,0
1581606598.913,977.539,32.227,32.227,-42.969,0
1581606598.917,-995.117,33.203,27.344,-62.988,0
1581606598.920,999.512,24.414,21.484,-48.340,0
1581606598.924,999.512,22.461,20.508,-37.109,0
1581606598.928,999.512,20.020,26.367,-36.621,0
1581606598.932,999.512,13.184,28.809,-26.367,0
1581606598.936,999.512,12.207,23.438,-24.902,0
1581606598.937,999.512,18.555,20.996,-46.875,0
1581606598.941,999.512,23.438,16.602,-55.664,0
1581606598.945,999.512,24.414,24.902,-46.875,0
1581606598.949,999.512,24.414,34.180,-61.035,0
1581606598.953,999.512,27.344,31.250,-58.105,0
1581606598.957,999.512,27.832,33.691,-53.223,0
1581606598.961,999.512,28.809,38.086,-48.340,0
1581606598.964,999.512,27.344,32.227,-48.828,0
1581606598.968,999.512,23.438,26.855,-40.039,0
1581606598.972,999.512,28.320,28.320,-43.457,0
1581606598.976,999.512,31.250,26.855,-61.523,0
1581606598.980,999.512,31.738,31.250,-33.691,0
1581606598.982,999.512,27.832,32.715,-19.531,0
1581606598.986,999.512,18.066,28.809,-32.715,0
1581606598.990,999.512,15.137,28.809,-41.016,0
1581606598.994,-1000.000,18.066,24.902,-40.039,0
1581606598.998,999.023,20.996,24.902,-30.273,0
1581606599.002,961.426,17.578,28.320,-34.668,0
1581606599.006,-933.594,15.625,25.391,-46.875,0
1581606599.009,533.691,19.043,20.996,-43.945,0
1581606599.013,-514.160,20.996,22.949,-50.293,0
1581606599.017,-588.867,24.414,27.344,-40.527,0
1581606599.021,492.188,27.832,26.855,-34.180,0
1581606599.025,-929.199,24.902,20.020,-40.039,0
1581606599.042,958.008,16.602,20.508,-40.039,0
1581606599.046,997.559,14.648,24.902,-46.387,0
1581606599.050,-999.023,20.996,20.996,-58.105,0
1581606599.054,999.023,25.879,15.137,-66.406,0
1581606599.058,996.094,27.344,13.184,-60.059,0
1581606599.062,-989.258,31.738,19.531,-46.875,0
1581606599.066,939.941,29.785,29.785,-41.992,0
1581606599.069,927.734,23.438,26.855,-70.801,0
1581606599.073,973.145,25.391,21.973,-72.754,0
1581606599.077,-950.195,30.762,19.531,-49.805,0
1581606599.081,685.059,26.855,14.648,-41.504,0
1581606599.085,-271.484,15.137,23.438,-37.109,0
1581606599.072,-266.113,17.090,29.785,-44.922,0
1581606599.076,311.035,19.043,30.762,-53.223,0
1581606599.080,-31.738,18.555,29.297,-56.641,0
1581606599.084,-294.922,22.949,24.902,-64.941,0
1581606599.088,-569.824,23.438,27.344,-40.039,0
1581606599.092,-1000.000,15.137,22.461,-18.555,0
1581606599.096,-552.734,11.230,22.461,-33.203,0
1581606599.099,531.738,13.672,29.297,-51.270,0
1581606599.103,578.125,18.066,26.855,-41.016,0
1581606599.107,147.461,18.066,28.809,-28.320,0
1581606599.111,259.766,10.742,28.809,-54.688,0
1581606599.115,231.445,14.648,20.996,-53.223,0
1581606599.132,-120.117,19.043,22.461,-28.809,0
1581606599.136,-736.328,15.625,22.461,-29.785,0
1581606599.140,-867.188,23.438,21.973,-30.273,0
1581606599.144,-802.246,24.902,20.996,-38.574,0
1581606599.148,-993.164,19.531,19.531,-40.527,0
1581606599.152,-969.727,18.555,24.414,-32.715,17224
1581606599.156,-970.215,17.090,22.461,-50.293,0
1581606599.159,-972.656,12.695,21.484,-52.734,0
1581606599.163,-972.168,9.766,21.973,-40.527,0
1581606599.167,-972.168,9.766,15.625,-47.852,0
1581606599.171,-972.168,8.301,13.672,-63.965,0
1581606599.175,-972.168,14.160,14.160,-61.035,0
1581606599.177,-972.168,15.137,15.137,-33.203,0
1581606599.181,-972.168,6.348,23.438,-21.973,0
1581606599.185,-972.168,6.836,21.484,-47.363,0
1581606599.189,-972.168,15.625,16.602,-47.852,0
1581606599.193,-972.168,22.461,21.484,-30.762,0
1581606599.197,-972.168,21.973,24.414,-28.320,0
1581606599.201,-972.168,14.648,26.367,-12.207,0
1581606599.204,-972.168,9.277,20.996,-34.180,0
1581606599.208,-972.168,13.184,13.184,-49.316,0
1581606599.212,-972.168,13.672,18.555,-46.875,0
1581606599.216,-972.168,13.184,26.855,-55.176,0
1581606599.220,-974.121,13.184,32.715,-36.133,0
1581606599.222,-959.961,5.859,33.203,-34.180,0
1581606599.226,-1000.000,-1.465,33.203,-29.297,0
1581606599.230,-843.262,0.977,33.203,-29.297,0
1581606599.234,-806.152,6.836,28.809,-41.016,0
1581606599.238,-849.609,6.836,20.020,-30.762,0
1581606599.242,-436.035,12.207,21.484,-31.738,0
1581606599.246,-567.871,4.883,24.414,-40.039,0
1581606599.249,-492.676,-0.977,22.461,-61.523,0
1581606599.253,138.672,5.859,25.391,-55.664,0
1581606599.257,797.363,12.207,24.902,-62.500,0
1581606599.261,-976.074,22.461,23.438,-51.758,0
1581606599.265,977.051,22.461,27.832,-34.180,0
1581606599.267,-998.535,11.230,27.832,-40.039,0
1581606599.271,999.512,22.461,24.902,-14.160,0
1581606599.275,999.512,38.574,25.391,-17.090,0
1581606599.279,999.512,28.809,29.785,-32.715,0
1581606599.283,999.512,25.391,30.273,-41.504,0
1581606599.287,999.512,30.273,22.461,-53.223,0
1581606599.291,999.512,25.391,20.020,-57.129,0
1581606599.294,999.512,20.996,20.020,-56.152,0
1581606599.298,999.512,19.043,19.043,-45.410,0
1581606599.302,-992.676,19.531,20.996,-46.875,0
1581606599.306,953.613,10.254,17.090,-44.434,0
1581606599.310,-951.660,9.766,11.230,-38.574,0
1581606599.312,785.645,29.785,20.996,-46.875,0
1581606599.316,-490.234,32.227,26.855,-52.246,0
1581606599.320,-1000.000,24.414,23.926,-56.641,0
1581606599.324,-773.438,20.508,29.297,-40.527,0
1581606599.328,-828.125,17.090,29.297,-37.598,0
1581606599.332,-722.168,11.230,21.973,-46.387,0
1581606599.336,509.277,4.395,24.902,-33.203,0
1581606599.339,-924.316,16.602,28.809,-36.621,0
1581606599.343,945.312,26.855,30.762,-31.250,0
1581606599.347,-993.164,28.320,22.461,-25.391,0
1581606599.351,-997.070,25.879,22.949,-32.227,0
1581606599.355,731.445,12.207,33.203,-30.273,0
1581606599.358,818.359,1.465,29.297,-39.062,0
1581606599.362,-961.914,9.766,23.926,-54.688,0
1581606599.366,930.176,14.648,20.508,-67.383,0
1581606599.370,964.355,15.625,18.555,-44.434,0
1581606599.374,-997.070,26.855,20.508,-40.527,0
1581606599.378,971.191,31.738,20.508,-39.062,0
1581606599.382,964.844,30.273,19.531,-11.230,0
1581606599.385,192.383,29.785,25.391,-31.738,0
1581606599.389,-880.859,16.602,27.344,-49.316,0
1581606599.393,-990.723,6.348,25.879,-27.832,0
1581606599.397,-939.453,10.742,28.809,-33.691,0
1581606599.401,-979.980,9.277,32.227,-45.898,0
1581606599.403,-972.168,9.277,32.715,-37.598,0
1581606599.407,-972.168,20.020,30.762,-37.598,0
1581606599.411,-972.168,22.461,30.762,-49.316,0
1581606599.415,-972.168,17.578,25.391,-46.875,0
1581606599.419,-972.168,23.926,25.879,-37.598,0
1581606599.423,-972.168,30.273,26.367,-39.551,0
1581606599.427,-972.168,17.578,21.973,-49.316,0
1581606599.430,-972.168,8.301,27.832,-38.574,0
1581606599.434,-972.168,12.207,24.902,-29.297,0
1581606599.438,-972.168,8.301,21.484,-52.734,0
1581606599.442,-972.656,5.859,24.902,-70.801,0
1581606599.446,-976.074,14.160,21.484,-53.223,0
1581606599.448,-915.527,16.113,20.508,-34.180,0
1581606599.452,-1000.000,15.625,25.879,-40.527,0
1581606599.456,-409.180,17.090,24.902,-45.410,0
1581606599.460,884.766,14.160,22.949,-60.059,0
1581606599.464,-973.633,5.371,24.902,-52.246,0
1581606599.468,958.984,-4.395,25.879,-27.832,0
1581606599.472,-992.676,-0.488,24.414,-29.297,0
1581606599.475,999.512,15.625,21.973,-32.227,0
1581606599.479,999.512,22.461,26.367,-31.250,0
1581606599.483,999.512,20.508,30.762,-49.805,0
1581606599.487,999.512,19.043,35.645,-41.992,0
1581606599.491,999.512,18.555,37.598,-17.090,0
1581606599.508,999.512,11.230,31.738,-35.645,0
1581606599.512,999.512,10.742,32.227,-59.570,0
1581606599.516,999.512,21.973,28.320,-45.898,0
1581606599.520,999.512,23.926,25.879,-22.949,0
1581606599.524,999.512,18.555,28.320,-27.344,0
1581606599.528,999.512,21.973,24.414,-56.641,0
1581606599.532,999.512,23.926,20.508,-46.875,0
1581606599.535,999.512,16.113,23.926,-39.062,0
1581606599.539,999.512,13.184,23.926,-44.922,0
1581606599.543,999.512,23.926,20.996,-48.828,0
1581606599.547,999.512,28.320,23.438,-66.406,0
1581606599.551,999.512,23.438,27.344,-61.523,0
1581606599.553,999.512,20.020,22.949,-36.133,0
1581606599.557,999.512,9.277,18.555,-44.922,0
1581606599.561,999.512,8.789,22.461,-61.035,0
1581606599.565,999.512,11.230,20.996,-61.523,0
1581606599.569,999.512,3.418,22.461,-48.340,0
1581606599.573,999.512,0.488,27.344,-47.852,0
1581606599.577,999.512,7.812,28.809,-57.129,0
1581606599.580,999.512,12.695,17.090,-60.059,0
1581606599.584,999.512,13.184,13.672,-44.922,0
1581606599.588,999.512,17.578,29.785,-37.598,0
1581606599.592,999.512,23.438,36.133,-56.641,0
1581606599.596,999.512,27.832,31.250,-62.988,0
1581606599.598,999.512,26.855,24.414,-56.641,0
1581606599.602,999.512,23.438,20.020,-55.664,0
1581606599.606,999.512,24.902,17.578,-45.410,0
1581606599.610,999.512,20.996,17.578,-46.387,0
1581606599.614,999.512,18.555,21.484,-55.664,0
1581606599.618,999.512,24.414,19.531,-39.551,0
1581606599.622,-995.605,26.367,20.508,-44.434,0
1581606599.625,935.059,19.043,20.508,-56.641,0
1581606599.629,-874.512,8.789,15.625,-68.848,0
1581606599.633,357.422,8.301,18.066,-83.496,0
1581606599.637,-958.984,18.555,23.438,-64.453,0
1581606599.641,-982.422,16.602,22.949,-61.523,0
1581606599.643,-934.570,2.930,19.531,-71.777,0
1581606599.647,-981.934,0.977,19.043,-75.195,0
1581606599.651,-972.168,4.395,17.090,-52.734,0
1581606599.655,-972.168,4.395,22.949,-45.410,0
1581606599.659,-972.168,2.441,30.762,-60.547,0
1581606599.663,-973.145,-1.953,26.855,-41.992,0
1581606599.667,-968.262,-5.859,24.414,-36.133,0
1581606599.670,-960.938,-6.348,25.879,-46.875,0
1581606599.674,-999.512,2.441,26.367,-50.781,0
1581606599.678,-541.504,12.207,24.902,-49.805,0
1581606599.682,-497.559,9.766,28.320,-47.852,0
1581606599.686,-1000.000,7.324,25.391,-42.969,0
1581606599.688,-972.656,13.672,23.926,-53.223,0
1581606599.692,-959.961,9.277,28.320,-59.082,0
1581606599.696,-974.609,8.789,25.391,-53.711,0
1581606599.700,-972.168,24.902,18.555,-47.363,0
1581606599.704,-972.168,28.809,20.996,-41.504,0
1581606599.708,-972.168,20.020,24.414,-34.180,0
1581606599.712,-972.168,13.672,28.320,-25.391,0
1581606599.715,-972.168,14.648,26.367,-35.156,0
1581606599.719,-972.168,20.020,20.508,-45.410,0
1581606599.723,-975.586,20.508,25.879,-37.109,0
1581606599.727,-944.336,18.066,31.250,-56.152,0
1581606599.731,-1000.000,17.090,28.320,-67.383,0
1581606599.733,-823.730,7.812,29.785,-61.035,0
1581606599.737,-100.098,1.953,30.273,-59.082,0
1581606599.741,-493.652,13.672,25.879,-37.598,0
1581606599.745,-1000.000,14.648,22.949,-29.297,0
1581606599.749,-919.922,13.184,20.020,-57.129,0
1581606599.753,-990.723,14.160,21.484,-64.453,0
1581606599.757,69.336,1.953,19.531,-40.527,0
1581606599.760,-925.293,-4.883,14.160,-58.105,0
1581606599.764,969.238,9.766,10.742,-62.012,0
1581606599.768,984.863,22.461,9.766,-46.387,0
1581606599.772,-993.652,25.391,9.766,-49.316,0
1581606599.776,948.730,26.367,7.324,-44.922,0
1581606599.778,-915.039,22.461,15.137,-50.781,0
1581606599.782,478.516,15.625,22.461,-62.012,0
1581606599.786,-778.809,8.301,16.113,-82.520,0
1581606599.790,-1000.000,1.465,8.789,-80.078,0
1581606599.794,-933.105,0.488,8.301,-60.059,0
1581606599.798,-978.516,4.883,9.277,-66.406,0
1581606599.802,-972.656,12.695,18.066,-72.754,0
1581606599.805,-972.168,12.207,22.949,-70.801,0
1581606599.809,-972.168,4.883,18.555,-65.430,0
1581606599.813,-972.168,-0.977,13.184,-62.988,0
1581606599.817,-972.168,2.930,16.113,-72.754,0
1581606599.821,-972.168,13.184,17.090,-69.336,0
1581606599.823,-972.656,15.625,10.254,-59.570,0
1581606599.827,-972.168,8.301,10.254,-65.430,0
1581606599.831,-972.168,8.301,12.207,-61.523,0
1581606599.835,-972.168,16.113,12.695,-48.340,0
1581606599.839,-972.168,12.695,16.113,-57.129,0
1581606599.843,-972.168,13.672,13.184,-72.754,0
1581606599.847,-972.168,11.230,10.254,-78.125,0
1581606599.850,-972.168,3.906,11.719,-67.383,0
1581606599.854,-972.168,11.719,9.277,-53.711,0
1581606599.858,-972.168,20.508,13.184,-44.922,0
1581606599.862,-972.168,22.949,14.648,-38.086,0
1581606599.866,-972.168,23.926,9.766,-37.109,0
1581606599.883,-972.168,21.973,7.324,-45.410,0
1581606599.887,-972.168,6.836,6.836,-59.082,0
1581606599.891,-972.168,-1.465,7.812,-80.078,0
1581606599.895,-972.168,1.465,5.371,-86.914,0
1581606599.899,-972.168,0.488,5.859,-67.383,0
1581606599.903,-972.168,2.930,10.742,-46.875,0
1581606599.907,-972.168,6.348,6.836,-69.336,0
1581606599.910,-972.168,4.883,3.906,-83.008,0
1581606599.914,-972.168,7.324,7.812,-68.848,0
1581606599.918,-972.168,9.277,11.230,-73.730,0
1581606599.922,-972.168,3.418,6.348,-90.820,0
1581606599.926,-972.168,-0.488,-0.488,-92.773,0
1581606599.928,-972.168,1.465,-0.977,-87.402,0
1581606599.932,-972.168,1.465,2.930,-91.309,0
1581606599.936,-972.168,2.441,10.742,-98.633,0
1581606599.940,-972.168,-5.371,11.719,-98.633,0
1581606599.944,-972.168,-7.812,9.766,-78.125,0
1581606599.948,-972.168,-6.348,9.277,-74.219,0
1581606599.952,-972.168,-3.906,9.277,-82.520,0
1581606599.955,-972.168,3.906,13.184,-86.914,0
1581606599.959,-972.168,5.859,9.277,-83.496,0
1581606599.963,-972.168,6.836,7.812,-104.492,0
1581606599.967,-972.168,4.883,9.766,-99.121,0
1581606599.971,-972.168,-0.977,8.789,-83.496,0
1581606599.973,-972.168,-4.395,8.789,-85.449,0
1581606599.977,-972.168,-5.859,2.930,-88.379,0
1581606599.981,-972.168,-3.418,-1.465,-90.332,0
1581606599.985,-972.168,-0.977,-0.977,-80.566,0
1581606599.989,-972.168,0.488,-3.906,-79.102,0
1581606599.993,-972.168,2.441,0.977,-62.012,0
1581606599.997,-972.168,2.930,5.371,-70.801,0
1581606600.000,-972.168,-0.488,1.465,-86.914,0
1581606600.004,-972.168,-1.465,0.000,-82.520,0
1581606600.008,-972.168,-1.465,-7.324,-95.215,0
1581606600.012,-972.168,-3.418,-12.207,-109.863,0
1581606600.016,-972.168,-7.812,-8.789,-95.703,0
1581606600.018,-972.168,-12.207,-6.836,-98.145,0
1581606600.022,-972.168,-17.578,-11.230,-95.703,0
1581606600.026,-972.168,-18.555,-11.719,-92.773,0
1581606600.030,-972.168,-8.301,-8.301,-109.863,0
1581606600.034,-972.168,-0.977,-5.371,-91.797,0
1581606600.038,-972.168,0.977,-3.418,-85.449,0
1581606600.042,-972.168,-1.953,-2.441,-88.379,0
1581606600.045,-972.168,-6.836,0.488,-71.289,0
1581606600.049,-972.168,0.000,4.883,-75.684,0
1581606600.053,-972.168,10.254,4.883,-85.449,0
1581606600.057,-972.168,9.277,6.836,-68.359,0
1581606600.061,-972.168,12.695,10.254,-73.242,0
1581606600.063,-972.656,12.207,2.930,-99.609,0
1581606600.067,-970.215,14.160,-2.441,-100.098,0
1581606600.071,-968.750,7.324,8.301,-64.941,0
1581606600.075,-941.895,-10.742,4.883,-77.637,0
1581606600.079,-788.574,-3.418,-7.324,-102.051,0
1581606600.083,-468.750,26.855,-0.977,-85.449,0
1581606600.087,-152.344,40.527,6.836,-68.848,0
1581606600.090,-544.434,22.461,9.277,-62.988,0
1581606600.094,-1000.000,7.324,2.930,-94.727,0
1581606600.098,-958.008,0.488,4.883,-95.215,0
1581606600.102,-972.656,-2.930,8.301,-71.777,0
1581606600.106,-921.875,-4.395,7.324,-72.754,0
1581606600.108,-1000.000,11.719,14.160,-62.988,0
1581606600.112,-616.699,11.230,8.789,-52.246,0
1581606600.116,699.707,-5.371,1.465,-72.266,0
1581606600.120,-937.988,7.812,-6.836,-74.707,0
1581606600.124,949.707,21.973,-20.020,-63.477,0
1581606600.128,-993.164,38.086,-10.742,-72.266,0
1581606600.132,999.512,50.293,0.977,-74.707,0
1581606600.135,999.512,42.969,0.977,-82.520,0
1581606600.139,999.512,34.668,-1.465,-65.430,0
1581606600.143,999.512,33.203,9.277,-45.410,0
1581606600.147,999.512,30.762,19.043,-53.223,0
1581606600.151,999.512,23.926,17.090,-57.129,0
1581606600.152,999.512,20.020,8.301,-65.430,0
1581606600.156,999.512,21.973,4.395,-62.500,0
1581606600.160,999.512,20.996,2.441,-51.758,0
1581606600.164,999.512,16.602,4.883,-58.105,0
1581606600.168,999.512,13.672,11.719,-46.875,0
1581606600.172,999.512,17.090,10.254,-57.129,0
1581606600.176,999.512,18.066,5.859,-67.383,0
1581606600.179,999.512,17.090,7.324,-38.086,0
1581606600.183,999.512,22.461,6.836,-41.992,0
1581606600.187,-998.047,26.855,6.836,-66.895,0
1581606600.191,977.539,23.926,8.301,-68.848,0
1581606600.195,-997.070,20.996,8.301,-63.477,0
1581606600.197,-928.711,20.020,12.695,-58.105,0
1581606600.201,158.691,9.277,13.184,-50.781,0
1581606600.205,380.371,7.324,9.766,-44.922,0
1581606600.209,-861.816,20.508,10.742,-44.922,0
1581606600.213,954.102,31.250,5.859,-64.941,0
1581606600.217,-997.559,38.086,3.418,-68.359,0
1581606600.221,999.512,32.715,6.348,-62.988,0
1581606600.224,999.512,22.461,5.371,-63.477,0
1581606600.228,999.512,28.320,2.930,-48.340,0
1581606600.232,999.512,33.203,-0.488,-65.430,0
1581606600.236,999.512,32.227,-0.488,-91.797,0
1581606600.240,999.512,30.762,4.395,-84.961,0
1581606600.257,999.512,27.832,9.766,-64.941,0
1581606600.261,999.512,29.785,15.625,-45.898,0
1581606600.265,999.512,27.344,15.137,-47.852,0
1581606600.269,999.512,25.879,1.953,-50.293,0
1581606600.273,999.512,24.414,1.465,-43.457,0
1581606600.277,999.512,21.484,7.812,-49.805,0
1581606600.281,999.512,24.902,0.977,-64.453,0
1581606600.284,999.512,31.250,-0.488,-69.336,0
1581606600.288,997.070,29.785,0.000,-72.266,0
1581606600.292,-997.070,30.273,2.930,-71.777,0
1581606600.296,994.141,29.297,5.371,-76.172,0
1581606600.300,883.301,17.090,7.324,-69.824,0
1581606600.302,-925.781,16.113,7.812,-72.754,0
1581606600.306,76.660,20.020,8.789,-81.055,0
1581606600.310,-1000.000,13.672,14.160,-77.148,0
1581606600.314,-872.070,7.812,9.766,-84.473,0
1581606600.318,-1000.000,-2.441,7.324,-80.566,0
1581606600.322,-396.484,-1.465,6.348,-73.730,0
1581606600.326,942.871,6.348,1.953,-77.148,0
1581606600.329,-979.004,24.414,0.977,-68.359,0
1581606600.333,957.520,38.574,1.465,-81.055,17491
1581606600.337,-990.723,36.133,4.395,-96.680,0
1581606600.341,999.512,27.344,8.789,-77.637,0
1581606600.345,999.512,27.832,10.742,-76.660,0
1581606600.347,999.512,32.227,10.742,-86.914,0
1581606600.351,999.512,25.879,8.789,-85.938,0
1581606600.355,999.512,19.531,-6.348,-77.148,0
1581606600.359,999.512,22.461,-11.719,-76.172,0
1581606600.363,999.512,27.344,-1.465,-75.684,0
1581606600.367,999.512,29.785,5.371,-70.312,0
1581606600.371,999.512,26.367,9.766,-67.871,0
1581606600.374,999.512,26.367,8.301,-60.059,0
1581606600.378,999.512,30.762,4.883,-81.055,0
1581606600.382,999.512,28.320,6.348,-69.824,0
1581606600.386,999.512,32.715,8.301,-63.477,0
1581606600.390,999.512,39.551,7.324,-79.590,0
1581606600.392,-990.723,37.109,11.230,-76.660,0
1581606600.396,950.195,31.738,10.742,-77.148,0
1581606600.400,-951.172,33.691,9.277,-68.848,0
1581606600.404,817.871,37.598,11.230,-68.359,0
1581606600.408,-503.418,32.715,2.930,-73.730,0
1581606600.412,-1000.000,23.926,4.883,-65.430,0
1581606600.416,-677.246,24.414,9.766,-63.477,0
1581606600.419,-647.949,23.926,13.672,-81.543,0
1581606600.423,-987.305,14.160,14.648,-83.008,0
1581606600.427,-983.887,7.324,11.230,-77.637,0
1581606600.431,-927.246,16.113,11.719,-70.312,0
1581606600.435,-997.559,17.090,10.742,-57.617,0
1581606600.437,-842.773,13.672,15.625,-59.570,0
1581606600.441,367.188,23.438,10.254,-55.664,0
1581606600.445,-921.875,31.250,9.766,-53.223,0
1581606600.449,957.031,35.156,13.672,-74.707,0
1581606600.453,978.516,31.250,8.301,-91.797,0
1581606600.457,-961.426,26.855,14.648,-74.707,0
1581606600.461,858.887,33.691,22.461,-55.176,0
1581606600.464,540.527,33.203,18.066,-62.500,0
1581606600.468,827.637,23.438,13.672,-71.777,0
1581606600.472,-963.867,20.508,12.207,-75.195,0
1581606600.476,983.398,30.273,5.859,-83.496,0
1581606600.480,-1000.000,32.227,6.348,-71.289,0
1581606600.482,999.512,25.391,5.859,-81.055,0
1581606600.486,999.512,30.273,2.930,-96.191,0
1581606600.490,999.512,27.344,4.883,-80.566,0
1581606600.494,999.512,22.949,7.812,-68.359,0
1581606600.498,999.512,23.926,12.207,-70.801,0
1581606600.502,999.512,21.484,12.207,-67.871,0
1581606600.506,999.512,20.996,14.648,-62.988,0
1581606600.509,999.512,22.949,16.113,-74.219,0
1581606600.513,999.512,28.809,12.207,-72.266,0
1581606600.517,999.512,28.809,9.766,-64.941,0
1581606600.521,999.512,22.949,8.301,-62.500,0
1581606600.525,999.512,25.391,13.672,-58.594,0
1581606600.528,999.512,29.785,22.949,-42.969,0
1581606600.532,999.512,26.367,21.484,-34.180,0
1581606600.536,999.512,29.297,16.602,-38.574,0
1581606600.540,999.512,41.992,19.043,-59.570,0
1581606600.544,999.512,44.922,17.578,-56.152,0
1581606600.548,999.512,38.086,12.207,-50.781,0
1581606600.552,999.512,35.156,10.254,-57.617,0
1581606600.555,999.512,36.133,8.301,-54.199,0
1581606600.559,999.512,30.762,14.160,-47.363,0
1581606600.563,999.512,28.809,17.090,-57.617,0
1581606600.567,999.512,32.715,16.113,-60.547,0
1581606600.571,999.512,33.203,21.484,-48.340,0
1581606600.573,999.512,31.250,18.555,-34.668,0
1581606600.577,-995.117,28.809,17.090,-50.781,0
1581606600.581,971.191,27.832,14.648,-67.871,0
1581606600.585,-988.281,30.762,18.066,-62.012,0
1581606600.589,932.129,29.297,27.344,-57.129,0
1581606600.593,-75.684,30.273,22.461,-53.223,0
1581606600.597,-628.418,27.832,19.043,-66.406,0
1581606600.600,78.125,21.484,19.043,-75.195,0
1581606600.604,816.406,28.320,12.695,-66.406,0
1581606600.608,-961.914,37.598,17.090,-58.594,0
1581606600.612,859.863,46.875,25.879,-44.922,0
1581606600.616,-288.574,48.828,21.484,-46.875,0
1581606600.633,-1000.000,39.551,15.625,-62.500,0
1581606600.637,-934.082,31.250,22.949,-59.082,0
1581606600.641,-967.285,24.902,30.273,-64.453,0
1581606600.645,-975.586,20.996,19.043,-72.754,0
1581606600.649,-972.168,18.555,14.648,-68.359,0
1581606600.653,-972.168,20.996,19.043,-64.941,0
1581606600.657,-972.168,22.461,20.996,-61.523,0
1581606600.660,-972.168,20.508,19.043,-58.105,0
1581606600.664,-972.168,20.996,11.719,-62.012,0
1581606600.668,-972.168,19.043,11.719,-61.523,0
1581606600.672,-972.168,21.973,10.742,-57.129,0
1581606600.676,-972.656,26.855,12.695,-63.965,0
1581606600.678,-974.609,28.809,17.090,-60.547,0
1581606600.682,-937.500,28.809,18.066,-44.434,0
1581606600.686,-1000.000,28.320,18.555,-48.828,0
1581606600.690,-596.191,31.250,19.531,-52.246,0
1581606600.694,1.465,32.715,23.438,-60.059,0
1581606600.698,-254.883,23.926,22.461,-63.477,0
1581606600.702,-46.875,18.066,21.973,-60.059,0
1581606600.705,-349.609,18.555,18.066,-60.059,0
1581606600.709,-1000.000,20.996,14.160,-59.570,0
1581606600.713,-962.891,29.297,18.555,-65.430,0
1581606600.717,-959.473,39.062,21.973,-58.594,0
1581606600.721,-975.586,40.039,21.484,-47.852,0
1581606600.723,-972.168,41.016,24.414,-45.898,0
1581606600.727,-972.168,38.086,24.414,-70.312,0
1581606600.731,-972.168,32.227,19.043,-76.172,0
1581606600.735,-972.168,27.832,20.020,-53.711,0
1581606600.739,-972.168,18.555,24.414,-55.664,0
1581606600.743,-972.168,29.785,24.414,-51.758,0
1581606600.747,-972.168,40.039,20.508,-37.109,0
1581606600.750,-972.168,34.180,19.043,-37.109,0
1581606600.754,-972.168,22.461,25.879,-66.406,0
1581606600.758,-972.168,9.766,27.344,-76.660,0
1581606600.762,-972.168,13.184,26.367,-67.383,0
1581606600.766,-972.168,33.691,23.438,-69.824,0
1581606600.768,-972.168,41.016,17.578,-64.453,0
1581606600.772,-972.168,30.762,19.043,-54.688,0
1581606600.776,-972.168,30.273,17.090,-58.105,0
1581606600.780,-972.168,32.227,18.555,-51.270,0
1581606600.784,-972.168,31.250,27.832,-32.715,0
1581606600.788,-972.168,30.273,28.320,-27.832,0
1581606600.792,-972.168,23.438,20.508,-47.363,0
1581606600.795,-972.168,23.438,19.043,-57.129,0
1581606600.799,-972.168,23.926,23.438,-68.359,0
1581606600.803,-972.168,22.949,24.414,-70.312,0
1581606600.807,-972.168,27.832,23.926,-58.594,0
1581606600.811,-972.168,33.691,26.367,-46.387,0
1581606600.813,-972.168,24.414,27.344,-35.645,0
1581606600.817,-972.168,12.207,25.879,-66.406,0
1581606600.821,-972.168,18.555,17.578,-77.148,0
1581606600.825,-972.168,23.926,13.184,-56.152,0
1581606600.829,-972.168,22.461,22.461,-42.969,0
1581606600.833,-972.168,19.531,31.738,-46.875,0
1581606600.837,-977.051,23.438,27.344,-41.504,0
1581606600.840,-936.035,34.180,22.949,-40.039,0
1581606600.844,-1000.000,32.227,22.949,-49.805,0
1581606600.848,-733.887,28.809,21.484,-59.570,0
1581606600.852,427.246,38.574,24.414,-76.172,0
1581606600.856,-955.078,40.527,22.461,-55.176,0
1581606600.873,967.285,29.297,20.996,-41.992,0
1581606600.877,993.652,18.555,26.367,-42.480,0
1581606600.881,-997.559,24.414,23.438,-43.457,0
1581606600.885,-999.512,41.504,15.137,-51.270,0
1581606600.889,995.117,46.875,20.020,-53.711,0
1581606600.893,998.535,32.227,28.809,-39.551,0
1581606600.897,985.840,28.809,32.715,-27.832,0
1581606600.900,767.578,40.039,31.250,-52.734,0
1581606600.904,562.988,43.457,21.973,-68.359,0
1581606600.908,-135.742,43.945,20.020,-58.594,0
1581606600.912,-961.426,36.133,18.066,-46.875,0
1581606600.916,-972.656,31.738,13.672,-50.293,0
1581606600.903,-951.172,32.227,17.578,-60.059,0
1581606600.907,-978.027,27.344,21.973,-47.363,0
1581606600.911,-972.168,27.344,21.973,-38.574,0
1581606600.915,-972.168,28.320,23.438,-44.434,0
1581606600.919,-972.168,31.738,21.973,-47.363,0
1581606600.923,-972.168,32.227,16.113,-52.246,0
1581606600.927,-972.168,32.715,19.043,-57.129,0
1581606600.930,-972.168,34.180,19.043,-52.246,0
1581606600.934,-972.168,22.949,14.160,-42.969,0
1581606600.938,-972.168,24.902,10.254,-38.574,0
1581606600.942,-972.168,36.133,16.113,-46.875,0
1581606600.946,-972.168,34.668,20.508,-67.383,0
1581606600.948,-972.168,27.832,15.625,-62.012,0
1581606600.952,-972.168,25.391,19.043,-58.105,0
1581606600.956,-972.168,25.879,27.832,-52.246,0
1581606600.960,-972.168,27.344,31.250,-31.738,0
1581606600.964,-972.168,25.391,27.344,-31.250,0
1581606600.968,-972.168,25.879,24.414,-34.668,0
1581606600.972,-972.168,32.715,25.391,-36.133,0
1581606600.975,-972.168,30.273,29.785,-51.758,0
1581606600.979,-972.168,25.879,31.250,-46.875,0
1581606600.983,-972.168,20.996,24.414,-44.434,0
1581606600.987,-972.168,19.531,20.020,-57.617,0
1581606600.991,-972.168,15.625,22.461,-56.641,0
1581606601.008,-972.168,8.789,20.996,-62.500,0
1581606601.012,-972.168,16.602,18.066,-63.965,0
1581606601.016,-972.168,22.949,18.555,-53.711,0
1581606601.020,-972.168,27.832,12.695,-51.758,0
1581606601.024,-972.168,37.598,9.277,-56.641,0
1581606601.028,-972.168,43.457,18.066,-51.758,0
1581606601.032,-972.168,37.109,26.367,-50.293,0
1581606601.035,-972.168,22.949,27.344,-58.594,0
1581606601.039,-972.168,24.414,24.902,-70.312,0
1581606601.043,-971.680,27.832,22.461,-77.637,0
1581606601.047,-972.656,16.113,29.297,-73.730,0
1581606601.051,-972.656,12.695,28.320,-62.500,0
1581606601.053,-964.844,27.344,21.484,-52.246,0
1581606601.057,-968.750,33.203,23.926,-49.805,0
1581606601.061,-973.633,29.785,21.973,-48.828,0
1581606601.065,-972.168,33.691,17.578,-46.875,0
1581606601.069,-956.543,36.133,20.020,-54.199,0
1581606601.073,-998.535,28.320,20.020,-59.082,0
1581606601.077,-833.496,21.484,16.113,-55.664,0
1581606601.080,-378.906,16.602,17.090,-49.805,0
1581606601.084,-577.148,-2.441,26.855,-28.320,0
1581606601.088,-1000.000,-8.789,25.391,-48.340,0
1581606601.092,-891.602,7.324,11.719,-84.961,0
1581606601.096,-899.902,24.902,10.254,-65.918,0
1581606601.098,-987.793,35.645,17.090,-50.293,0
1581606601.102,-968.750,37.598,13.672,-46.387,0
1581606601.106,-972.168,32.227,17.090,-51.758,0
1581606601.110,-971.680,28.320,26.367,-48.340,0
1581606601.114,-974.121,30.273,19.043,-52.246,0
1581606601.118,-965.820,33.203,17.090,-52.734,0
1581606601.122,-956.055,23.926,12.207,-40.527,0
1581606601.125,-979.004,13.672,10.254,-48.828,0
1581606601.129,-944.336,24.414,19.043,-79.590,0
1581606601.133,-692.871,34.180,28.320,-77.148,0
1581606601.137,-708.984,30.762,28.320,-53.223,0
1581606601.141,-970.703,25.879,20.508,-63.965,0
1581606601.143,-974.121,22.949,14.648,-66.895,0
1581606601.147,-956.055,25.391,13.672,-52.246,0
1581606601.151,-990.723,21.484,16.113,-45.898,0
1581606601.155,-788.086,20.508,20.508,-33.203,0
1581606601.159,-531.250,24.414,20.508,-47.363,0
1581606601.163,-477.051,17.090,20.020,-60.547,0
1581606601.167,-661.621,9.277,13.672,-44.922,0
1581606601.170,-809.082,15.625,13.184,-42.480,0
1581606601.174,-860.352,15.625,18.555,-43.945,0
1581606601.178,-983.887,5.371,12.207,-42.480,0
1581606601.182,-963.867,9.277,16.113,-45.410,0
1581606601.186,-983.398,19.531,23.438,-32.227,0
1581606601.188,-854.492,30.273,25.879,-33.203,0
1581606601.192,-782.227,35.156,27.344,-49.316,0
1581606601.196,-370.117,33.203,25.879,-38.574,0
1581606601.200,524.414,32.227,23.438,-44.922,0
1581606601.204,660.156,29.297,16.113,-52.734,0
1581606601.208,84.473,24.902,13.672,-46.875,0
1581606601.212,-305.176,20.996,22.461,-36.621,0
1581606601.215,-188.477,24.902,26.367,-33.203,0
1581606601.219,-140.625,29.785,14.648,-41.504,0
1581606601.223,-291.992,31.250,5.371,-38.574,0
1581606601.227,70.312,33.203,9.277,-54.199,0
1581606601.231,256.348,31.250,20.020,-68.359,0
1581606601.232,538.086,28.320,21.973,-53.711,0
1581606601.236,977.539,33.203,21.973,-63.477,0
1581606601.240,-998.047,37.109,24.902,-61.523,0
1581606601.244,988.281,32.227,20.996,-49.805,0
1581606601.248,-998.047,29.297,21.973,-53.223,0
1581606601.252,999.512,23.438,24.414,-49.316,0
1581606601.256,999.512,26.367,25.879,-49.316,0
1581606601.259,999.512,35.156,20.996,-59.082,0
1581606601.263,999.512,27.832,16.113,-53.711,0
1581606601.267,999.512,29.785,22.949,-53.711,0
1581606601.271,999.512,41.992,28.809,-47.852,0
1581606601.275,999.512,41.016,29.297,-32.227,0
1581606601.277,999.512,35.645,26.855,-31.738,0
1581606601.281,999.512,31.738,26.367,-43.945,0
1581606601.285,-999.512,25.879,26.855,-44.434,0
1581606601.289,977.539,29.785,24.414,-27.832,0
1581606601.293,-958.496,34.668,25.879,-23.438,0
1581606601.297,781.250,39.551,31.738,-31.738,0
1581606601.301,308.594,41.992,33.203,-31.738,0
1581606601.304,329.102,42.969,26.367,-43.457,0
1581606601.308,290.527,41.016,22.461,-41.016,0
1581606601.312,-130.859,38.086,23.438,-37.598,0
1581606601.316,-357.910,36.133,21.484,-42.480,0
1581606601.320,-157.227,32.715,21.484,-39.551,0
1581606601.322,424.316,34.180,22.949,-41.504,0
1581606601.326,970.215,32.715,21.484,-48.828,0
1581606601.330,999.023,32.715,17.578,-52.246,0
1581606601.334,985.352,40.039,14.160,-66.895,0
1581606601.338,-997.070,41.016,17.090,-74.219,0
1581606601.342,999.512,42.969,14.160,-68.848,0
1581606601.346,999.512,42.969,11.230,-68.848,0
1581606601.349,999.512,33.203,15.625,-63.965,0
1581606601.353,999.512,30.273,29.785,-49.316,0
1581606601.357,999.512,41.016,36.133,-49.805,0
1581606601.361,999.512,42.480,32.227,-56.641,0
1581606601.365,999.512,39.551,29.785,-62.500,0
1581606601.382,999.512,44.922,24.414,-50.781,0
1581606601.386,999.512,43.457,21.484,-28.320,0
1581606601.390,999.512,36.621,20.996,-39.551,0
1581606601.394,-999.023,32.715,21.484,-49.316,0
1581606601.398,982.422,27.344,13.184,-36.133,0
1581606601.402,-986.328,31.738,17.090,-36.133,0
1581606601.406,849.609,33.203,25.879,-39.062,0
1581606601.409,248.535,26.367,26.367,-31.250,17187
1581606601.413,-351.562,24.902,26.855,-41.016,0
1581606601.417,-480.957,27.832,24.902,-34.180,0
1581606601.421,-387.695,35.156,22.949,-36.621,0
1581606601.425,-628.418,35.645,30.273,-36.621,0
1581606601.427,-932.617,23.438,34.668,-35.156,0
1581606601.431,-923.340,24.902,27.832,-46.875,0
1581606601.435,-891.113,37.109,26.855,-42.480,0
1581606601.439,-875.488,40.039,29.297,-38.574,0
1581606601.443,-937.500,36.621,32.227,-38.574,0
1581606601.447,-966.309,30.273,35.156,-54.199,0
1581606601.451,-876.953,24.902,30.762,-49.805,0
1581606601.454,-942.383,21.484,26.367,-40.527,0
1581606601.458,-982.910,25.391,26.367,-57.617,0
1581606601.462,-966.797,38.086,27.344,-64.941,0
1581606601.466,-973.633,37.598,25.391,-65.918,0
1581606601.470,-973.145,33.691,23.926,-48.828,0
1581606601.472,-958.496,25.391,20.020,-53.711,0
1581606601.476,-995.605,14.648,19.043,-72.266,0
1581606601.480,-863.281,19.043,24.902,-40.527,0
1581606601.484,-515.625,21.973,26.367,-34.668,0
1581606601.488,-683.594,22.949,25.879,-45.410,0
1581606601.492,-914.062,28.809,29.297,-35.645,0
1581606601.496,-788.574,28.320,22.949,-25.879,0
1581606601.499,-769.531,22.949,18.066,-23.438,0
1581606601.503,-677.734,29.785,24.414,-43.457,0
1581606601.507,242.676,37.598,20.996,-56.152,0
1581606601.511,-960.938,43.457,21.484,-54.199,0
1581606601.515,979.492,38.574,22.461,-47.852,0
1581606601.517,985.840,33.203,18.066,-45.410,0
1581606601.521,-996.582,29.297,16.113,-64.453,0
1581606601.525,999.512,29.297,15.137,-53.223,0
1581606601.529,999.512,32.715,18.555,-50.781,0
1581606601.533,999.512,25.879,18.555,-54.199,0
1581606601.537,999.512,22.461,20.508,-25.879,0
1581606601.541,999.512,30.762,25.879,-40.527,0
1581606601.544,999.512,39.551,24.902,-54.199,0
1581606601.548,999.512,38.086,20.508,-47.363,0
1581606601.552,999.512,28.809,21.973,-44.922,0
1581606601.556,999.512,34.668,22.949,-40.527,0
1581606601.560,999.512,42.969,26.367,-41.016,0
1581606601.562,999.512,40.527,32.227,-34.668,0
1581606601.566,999.512,36.621,28.809,-32.227,0
1581606601.570,999.512,27.832,21.973,-41.504,0
1581606601.574,999.512,23.438,22.949,-42.969,0
1581606601.578,999.512,26.367,23.438,-34.668,0
1581606601.582,999.512,25.879,24.902,-35.156,0
1581606601.586,999.512,25.879,18.555,-41.504,0
1581606601.589,999.512,22.949,17.090,-67.871,0
1581606601.593,999.512,23.438,16.602,-68.848,0
1581606601.597,999.512,27.344,2.441,-49.805,0
1581606601.601,999.512,27.832,5.371,-54.199,0
1581606601.605,999.512,33.691,16.602,-46.387,0
1581606601.608,999.512,39.062,16.113,-62.988,0
1581606601.612,999.512,27.344,20.508,-51.270,0
1581606601.616,999.512,17.578,23.438,-41.504,0
1581606601.620,999.512,27.832,26.367,-50.293,0
1581606601.624,999.512,38.574,26.367,-45.410,0
1581606601.628,999.512,38.574,21.973,-29.785,0
1581606601.632,999.512,30.273,18.066,-19.531,0
1581606601.635,999.512,22.949,14.648,-32.227,0
1581606601.639,999.512,28.320,11.719,-34.180,0
1581606601.643,999.512,35.156,16.113,-34.180,0
1581606601.647,999.512,28.320,28.320,-37.109,0
1581606601.651,999.512,23.438,29.785,-28.320,0
1581606601.653,999.512,24.902,25.879,-33.203,0
1581606601.657,999.512,19.531,28.320,-47.363,0
1581606601.661,999.512,21.484,29.297,-57.617,0
1581606601.665,999.512,28.809,26.855,-43.945,0
1581606601.669,999.512,30.273,22.461,-33.203,0
1581606601.673,999.512,27.832,22.949,-30.762,0
1581606601.677,999.512,29.785,28.809,-32.715,0
1581606601.680,999.512,35.645,28.320,-41.992,0
1581606601.684,999.512,30.273,30.762,-34.180,0
1581606601.688,999.023,32.227,33.203,-33.203,0
1581606601.692,999.512,34.180,25.879,-42.480,0
1581606601.696,993.652,27.344,21.484,-43.457,0
1581606601.698,-999.023,18.555,26.855,-31.738,0
1581606601.702,885.742,17.578,30.762,-26.855,0
1581606601.706,799.316,27.344,34.180,-37.598,0
1581606601.710,958.496,34.668,33.691,-21.973,0
1581606601.714,-988.770,30.762,34.180,-20.996,0
1581606601.718,992.676,26.367,33.691,-30.762,0
1581606601.722,-999.023,31.250,28.320,-43.945,0
1581606601.725,995.117,28.320,30.762,-51.270,0
1581606601.729,-999.023,26.855,30.273,-37.109,0
1581606601.733,959.473,30.762,28.320,-30.273,0
1581606601.737,810.059,28.809,36.133,-40.039,0
1581606601.741,480.469,29.785,38.086,-48.828,0
1581606601.758,239.746,32.715,30.762,-40.039,0
1581606601.762,376.465,28.809,27.832,-40.039,0
1581606601.766,244.629,27.344,28.809,-43.457,0
1581606601.770,-146.484,28.809,30.273,-40.039,0
1581606601.774,189.941,28.320,35.156,-24.902,0
1581606601.778,707.031,29.785,35.156,-36.133,0
1581606601.782,799.805,30.762,27.832,-68.359,0
1581606601.785,945.801,29.785,23.438,-55.176,0
1581606601.789,994.141,28.320,19.043,-42.480,0
1581606601.793,-996.094,30.273,15.137,-50.781,0
1581606601.797,729.492,25.391,17.578,-47.363,0
1581606601.801,69.336,20.996,18.066,-50.293,0
1581606601.803,-368.652,22.461,12.207,-44.434,0
1581606601.807,-465.332,20.508,7.812,-28.809,0
1581606601.811,-431.641,22.461,13.184,-29.297,0
1581606601.815,-367.676,30.273,20.508,-44.434,0
1581606601.819,285.645,29.297,17.090,-61.035,0
1581606601.823,989.746,23.438,8.301,-70.312,0
1581606601.827,995.117,16.113,6.348,-53.711,0
1581606601.830,982.910,20.996,13.184,-41.992,0
1581606601.834,-996.582,33.691,16.113,-43.457,0
1581606601.838,999.512,30.762,17.090,-46.875,0
1581606601.842,999.512,26.855,17.090,-54.199,0
1581606601.846,-997.559,27.832,22.949,-41.504,0
1581606601.848,982.422,26.367,28.320,-34.180,0
1581606601.852,-992.676,23.926,26.855,-45.898,0
1581606601.856,904.297,27.832,25.391,-41.992,0
1581606601.860,267.090,27.344,25.879,-43.945,0
1581606601.864,-407.715,21.973,20.508,-40.527,0
1581606601.868,-778.809,14.648,24.414,-24.414,0
1581606601.872,-964.844,7.812,26.855,-31.250,0
1581606601.875,-969.238,18.066,24.902,-46.875,0
1581606601.879,-968.750,27.344,25.391,-64.453,0
1581606601.883,-973.633,19.531,18.555,-73.242,0
1581606601.887,-972.656,10.742,20.020,-50.781,0
1581606601.891,-974.121,7.324,23.926,-40.039,0
1581606601.893,-953.613,4.883,21.484,-50.781,0
1581606601.897,-991.699,5.859,23.926,-50.781,0
1581606601.901,-806.152,8.301,24.902,-49.316,0
1581606601.905,-205.078,11.719,26.367,-48.340,0
1581606601.909,311.523,19.043,20.508,-45.410,0
1581606601.913,482.910,25.879,15.137,-43.945,0
1581606601.917,520.996,27.344,17.578,-52.734,0
1581606601.920,818.359,27.832,16.113,-54.688,0
1581606601.924,966.797,30.273,14.160,-47.363,0
1581606601.928,954.102,34.668,12.207,-43.945,0
1581606601.932,966.309,25.391,13.672,-58.105,0
1581606601.936,552.734,13.184,14.648,-73.242,0
1581606601.938,267.090,14.648,14.648,-67.383,0
1581606601.942,619.141,15.625,20.020,-55.176,0
1581606601.946,966.797,15.625,12.695,-41.504,0
1581606601.950,997.559,16.602,9.766,-31.250,0
1581606601.954,992.188,16.602,17.578,-35.645,0
1581606601.958,990.234,13.672,20.508,-56.641,0
1581606601.962,-989.258,18.066,26.855,-39.551,0
1581606601.965,895.020,13.672,26.855,-41.016,0
1581606601.969,571.777,4.395,26.855,-65.430,0
1581606601.973,530.273,14.648,23.926,-37.109,0
1581606601.977,572.754,10.254,20.508,-30.762,0
1581606601.981,226.074,4.883,19.531,-62.988,0
1581606601.983,-33.203,16.113,11.230,-56.152,0
1581606601.987,272.461,20.020,12.207,-48.340,0
1581606601.991,572.754,20.508,30.762,-52.734,0
1581606601.995,634.766,22.949,37.109,-45.898,0
1581606601.999,601.074,14.648,36.133,-35.645,0
1581606602.003,573.242,-2.930,35.645,-21.484,0
1581606602.007,317.383,6.836,31.738,-21.973,0
1581606602.010,-142.090,23.438,36.133,-36.621,0
1581606602.014,-342.773,18.555,35.156,-39.551,0
1581606602.018,-502.930,16.602,29.785,-53.223,0
1581606602.022,-778.320,22.461,25.391,-48.828,0
1581606602.026,-951.172,20.020,20.508,-39.551,0
1581606602.028,-973.145,20.020,22.949,-41.992,0
1581606602.032,-967.285,16.602,29.785,-35.645,0
1581606602.036,-973.633,11.230,32.227,-33.203,0
1581606602.040,-972.168,9.766,23.438,-48.340,0
1581606602.044,-972.168,1.465,21.484,-54.199,0
1581606602.048,-972.168,-0.977,26.855,-54.688,0
1581606602.052,-972.168,6.348,30.762,-53.711,0
1581606602.055,-972.168,7.324,25.879,-57.129,0
1581606602.059,-972.656,4.395,20.508,-57.617,0
1581606602.063,-972.168,7.812,22.949,-42.969,0
1581606602.067,-972.168,5.371,21.484,-36.621,0
1581606602.071,-972.168,4.883,20.508,-59.082,0
1581606602.073,-972.168,10.254,19.043,-60.059,0
1581606602.077,-972.168,8.301,16.113,-48.828,0
1581606602.081,-972.168,5.859,20.020,-39.551,0
1581606602.085,-972.168,15.137,19.043,-27.344,0
1581606602.089,-973.633,17.578,17.090,-45.898,0
1581606602.093,-969.238,16.602,19.531,-33.691,0
1581606602.097,-954.102,11.719,20.996,-29.297,0
1581606602.100,-1000.000,6.836,21.484,-60.547,0
1581606602.104,-598.145,6.348,21.973,-65.430,0
1581606602.108,-1.465,15.137,23.438,-41.016,0
1581606602.112,311.035,24.902,26.855,-37.109,0
1581606602.116,696.777,14.648,27.832,-47.363,0
1581606602.133,964.355,15.137,26.855,-52.734,0
1581606602.137,-997.070,27.832,27.832,-51.270,0
1581606602.141,991.211,29.785,27.344,-47.363,0
1581606602.145,-998.535,28.320,27.832,-42.969,0
1581606602.149,999.512,29.785,32.715,-33.691,0
1581606602.153,999.512,24.414,32.715,-33.203,0
1581606602.157,999.512,20.508,31.738,-27.344,0
1581606602.160,999.512,20.996,35.645,-35.156,0
1581606602.164,999.512,18.555,37.598,-34.180,0
1581606602.168,999.512,20.020,31.738,-38.086,0
1581606602.172,999.512,20.508,28.809,-56.152,0
1581606602.176,999.512,14.160,21.484,-55.664,0
1581606602.178,999.512,15.137,15.137,-60.059,0
1581606602.182,-998.535,22.949,18.066,-46.387,0
1581606602.186,983.887,27.832,25.391,-41.992,0
1581606602.190,-993.164,26.855,28.809,-44.434,0
1581606602.194,924.805,17.090,19.531,-54.199,0
1581606602.198,336.426,8.301,12.207,-71.777,0
1581606602.202,-52.246,5.859,9.766,-74.707,0
1581606602.205,270.020,9.277,14.160,-74.219,0
1581606602.209,776.367,18.555,13.184,-73.242,0
1581606602.213,944.824,22.461,9.277,-64.453,0
1581606602.217,905.273,12.207,18.555,-59.082,0
1581606602.221,-968.262,8.301,23.438,-56.152,0
1581606602.223,835.449,20.508,23.926,-60.547,0
1581606602.227,680.664,14.160,19.043,-77.637,0
1581606602.231,72.754,10.254,12.695,-61.523,0
1581606602.235,-934.082,14.648,20.020,-35.156,0
1581606602.239,-988.770,11.719,26.367,-26.367,0
1581606602.243,-879.395,10.254,25.391,-22.461,0
1581606602.247,-399.414,17.578,34.668,-21.973,0
1581606602.250,246.582,24.902,38.086,-26.367,0
1581606602.254,590.332,20.508,32.227,-34.668,0
1581606602.258,751.953,19.531,33.691,-46.387,0
1581606602.262,944.824,32.715,33.691,-41.016,0
1581606602.266,-990.723,41.504,31.250,-17.578,0
1581606602.268,992.188,37.109,35.156,-13.672,0
1581606602.272,-1000.000,26.367,33.203,-40.527,0
1581606602.276,-999.512,20.508,28.809,-53.711,0
1581606602.280,993.164,17.090,28.320,-58.105,0
1581606602.284,993.652,16.602,25.391,-54.688,0
1581606602.288,-999.512,19.531,27.832,-44.922,0
1581606602.292,999.023,24.414,29.785,-45.410,0
1581606602.295,-1000.000,24.902,31.250,-43.945,0
1581606602.299,995.605,17.090,31.250,-66.406,0
1581606602.303,995.117,11.230,29.785,-66.406,0
1581606602.307,-999.023,9.766,29.785,-41.504,0
1581606602.311,753.906,12.207,25.391,-47.852,0
1581606602.313,581.055,12.695,20.996,-78.125,0
1581606602.317,625.977,12.695,22.461,-84.473,0
1581606602.321,629.883,15.625,31.738,-47.852,0
1581606602.325,874.512,19.531,39.551,-33.691,0
1581606602.329,-983.887,20.996,32.715,-45.410,0
1581606602.333,989.746,18.066,31.738,-34.180,0
1581606602.337,999.023,21.484,34.180,-25.879,0
1581606602.340,999.512,25.391,29.785,-41.992,0
1581606602.344,999.512,25.391,28.809,-43.945,0
1581606602.348,999.512,19.531,27.344,-44.922,0
1581606602.352,999.512,15.137,26.855,-58.594,0
1581606602.356,993.164,22.949,31.738,-52.246,0
1581606602.358,-989.258,31.738,30.273,-42.969,0
1581606602.362,922.363,31.250,22.949,-55.664,0
1581606602.366,753.418,20.020,28.320,-49.316,0
1581606602.370,723.145,18.066,29.297,-46.875,0
1581606602.374,801.758,27.832,19.531,-43.945,0
1581606602.378,805.664,25.391,22.461,-33.691,0
1581606602.382,807.129,26.367,34.180,-38.086,0
1581606602.385,919.922,41.016,35.645,-43.457,0
1581606602.389,-983.887,47.852,29.297,-37.109,0
1581606602.393,951.172,41.992,28.809,-26.855,0
1581606602.397,938.965,30.762,35.156,-30.273,0
1581606602.401,-995.605,26.367,36.133,-27.832,0
1581606602.403,999.512,35.645,34.180,-34.180,0
1581606602.407,997.559,34.668,34.180,-42.969,0
1581606602.411,999.512,23.926,35.645,-48.828,0
1581606602.415,999.512,13.184,26.367,-43.457,0
1581606602.419,999.512,2.930,27.832,-32.715,0
1581606602.423,999.512,17.578,36.621,-16.113,0
1581606602.427,999.512,33.691,25.391,-25.879,0
1581606602.430,999.512,35.645,25.879,-51.270,0
1581606602.434,-1000.000,30.273,33.691,-41.992,0
1581606602.438,996.094,24.902,25.879,-35.645,0
1581606602.442,-994.141,19.531,15.137,-43.457,0
1581606602.446,982.910,20.508,25.391,-41.504,0
1581606602.447,935.547,16.602,33.691,-41.504,0
1581606602.451,977.539,6.836,35.156,-43.945,0
1581606602.455,-996.094,1.465,32.227,-52.734,0
1581606602.459,987.793,0.977,28.809,-53.223,0
1581606602.463,-994.629,10.254,32.227,-40.039,0
1581606602.467,916.992,16.113,36.133,-35.156,0
1581606602.471,521.484,21.973,39.062,-46.387,0
1581606602.474,273.926,34.180,36.133,-58.594,0
1581606602.478,224.121,34.180,30.273,-49.316,0
1581606602.482,-41.504,26.855,20.020,-41.016,0
1581606602.486,-130.371,21.484,21.973,-39.551,0
1581606602.490,62.012,20.996,28.809,-36.133,0
1581606602.507,392.090,22.949,29.297,-32.715,0
1581606602.511,731.445,20.996,27.344,-30.273,0
1581606602.515,924.805,19.531,20.996,-32.227,0
1581606602.519,979.980,23.438,21.484,-51.270,0
1581606602.523,-990.723,25.879,25.391,-55.664,0
1581606602.527,372.070,24.414,27.344,-49.316,0
1581606602.531,-341.309,20.508,25.879,-46.387,0
1581606602.534,-13.184,16.602,25.391,-39.551,0
1581606602.538,281.250,23.926,18.066,-39.062,0
1581606602.542,337.402,25.879,17.090,-39.062,0
1581606602.546,260.742,19.531,28.809,-41.016,0
1581606602.550,-64.453,24.414,36.133,-41.504,0
1581606602.552,-610.840,31.738,33.203,-37.109,0
1581606602.556,-984.863,17.090,23.438,-28.320,0
1581606602.560,-962.402,7.812,22.949,-31.738,0
1581606602.564,-963.379,11.719,28.320,-48.340,0
1581606602.568,-972.656,12.695,31.250,-49.805,0
1581606602.572,-933.105,5.859,30.762,-47.363,0
1581606602.576,-789.062,7.812,29.785,-38.574,0
1581606602.579,-647.461,15.625,24.902,-30.762,0
1581606602.583,-655.273,8.789,23.926,-50.293,0
1581606602.587,-701.172,8.301,23.926,-68.359,28475
1581606602.591,-809.570,12.207,20.020,-47.852,0
1581606602.595,-933.594,10.742,27.344,-38.086,0
1581606602.597,-969.238,16.602,31.250,-26.855,0
1581606602.601,-971.680,19.531,19.043,-37.109,0
1581606602.605,-971.191,12.695,16.113,-54.199,0
1581606602.609,-972.656,6.348,31.250,-31.738,0
1581606602.613,-975.098,2.930,39.062,-38.574,0
1581606602.617,-948.242,3.906,39.551,-52.246,0
1581606602.621,-1000.000,9.277,41.504,-43.457,0
1581606602.624,-825.684,11.230,43.945,-29.297,0
1581606602.628,-90.820,11.230,39.551,-31.250,0
1581606602.632,-98.633,9.277,37.109,-42.969,0
1581606602.636,-514.648,18.555,37.109,-39.551,0
1581606602.640,-118.652,26.855,28.809,-45.410,0
1581606602.642,259.277,31.250,26.367,-51.270,0
1581606602.646,284.668,32.227,32.715,-38.574,0
1581606602.650,-60.547,26.367,31.738,-20.508,0
1581606602.654,-592.285,17.090,26.367,-21.484,0
1581606602.658,-666.016,13.184,26.855,-31.738,0
1581606602.662,-424.316,22.949,33.203,-40.527,0
1581606602.666,-232.910,26.367,36.133,-50.781,0
1581606602.669,-149.414,25.391,33.203,-52.734,0
1581606602.673,-123.535,27.832,33.203,-46.387,0
1581606602.677,-28.320,22.461,31.250,-41.992,0
1581606602.681,-39.062,15.137,32.227,-41.016,0
1581606602.685,16.113,19.531,31.738,-49.805,0
1581606602.687,208.496,24.902,27.832,-53.223,0
1581606602.691,296.387,20.020,27.344,-43.945,0
1581606602.695,488.770,13.672,31.250,-32.715,0
1581606602.699,765.137,21.973,37.109,-38.574,0
1581606602.703,796.387,22.461,39.062,-43.457,0
1581606602.707,690.430,16.602,25.879,-45.898,0
1581606602.711,887.695,18.555,17.578,-53.223,0
1581606602.714,-981.445,20.508,23.438,-42.969,0
1581606602.718,990.723,18.066,21.484,-56.152,0
1581606602.722,999.023,18.555,20.020,-55.176,0
1581606602.726,999.512,20.020,25.391,-32.227,0
1581606602.730,999.512,14.648,19.531,-35.645,0
1581606602.732,999.512,13.184,19.531,-44.434,0
1581606602.736,999.512,17.090,22.949,-48.340,0
1581606602.740,999.512,20.508,20.020,-56.641,0
1581606602.744,999.512,26.855,26.855,-47.363,0
1581606602.748,999.512,31.738,32.227,-44.434,0
1581606602.752,999.512,31.250,29.297,-42.480,0
1581606602.756,999.512,31.250,28.809,-32.227,0
1581606602.759,999.512,25.391,30.273,-45.410,0
1581606602.763,999.512,20.508,28.320,-49.805,0
1581606602.767,999.512,20.508,29.297,-30.273,0
1581606602.771,999.512,27.344,33.691,-22.949,0
1581606602.775,999.512,32.715,38.574,-31.250,0
1581606602.778,999.512,30.762,36.621,-24.902,0
1581606602.782,999.512,23.438,34.180,-22.949,0
1581606602.786,999.512,16.113,28.809,-32.715,0
1581606602.790,999.512,19.043,19.043,-29.785,0
1581606602.794,999.512,19.531,24.414,-24.414,0
1581606602.798,999.512,19.043,30.273,-30.273,0
1581606602.802,999.512,19.531,28.809,-50.781,0
1581606602.805,999.512,18.555,27.344,-57.617,0
1581606602.809,995.117,20.508,28.809,-28.809,0
1581606602.813,-994.629,21.484,31.250,-16.602,0
1581606602.817,946.777,23.438,27.344,-26.855,0
1581606602.821,831.055,21.484,22.461,-24.902,0
1581606602.823,718.262,25.879,20.508,-16.113,0
1581606602.827,824.219,29.785,21.484,-24.902,0
1581606602.831,-986.816,28.809,20.508,-42.969,0
1581606602.835,909.180,29.297,26.367,-48.340,0
1581606602.839,791.504,23.926,31.250,-48.340,0
1581606602.843,827.637,18.066,32.715,-47.363,0
1581606602.847,624.023,20.508,29.785,-56.152,0
1581606602.850,229.004,18.066,29.785,-51.270,0
1581606602.854,-108.887,15.137,32.227,-46.387,0
1581606602.858,-196.777,18.066,29.785,-55.664,0
1581606602.862,-439.453,12.695,20.508,-61.523,0
1581606602.866,-948.242,8.789,8.789,-60.547,0
1581606602.883,-981.445,9.277,15.625,-44.922,0
1581606602.887,-956.543,13.672,22.949,-56.152,0
1581606602.891,-976.074,9.277,21.973,-67.383,0
1581606602.895,-972.656,0.488,28.320,-57.129,0
1581606602.899,-972.168,10.254,30.273,-39.062,0
1581606602.903,-972.168,21.484,29.297,-27.832,0
1581606602.907,-972.168,9.277,30.762,-33.691,0
1581606602.910,-972.168,2.930,27.344,-28.320,0
1581606602.914,-972.168,13.672,27.344,-28.809,0
1581606602.918,-972.168,16.113,24.902,-41.016,0
1581606602.922,-972.168,19.043,20.020,-48.828,0
1581606602.926,-972.168,14.648,16.602,-45.898,0
1581606602.928,-972.168,9.277,13.184,-42.969,0
1581606602.932,-972.168,12.207,17.090,-37.598,0
1581606602.936,-972.168,14.160,19.531,-32.715,0
1581606602.940,-972.168,14.160,20.508,-37.109,0
1581606602.944,-972.168,4.883,20.508,-61.523,0
1581606602.948,-972.168,-0.977,22.461,-62.500,0
1581606602.952,-972.168,3.418,23.438,-53.223,0
1581606602.955,-972.168,2.930,21.484,-75.684,0
1581606602.959,-972.168,6.836,20.996,-64.941,0
1581606602.963,-972.168,6.836,19.531,-48.340,0
1581606602.967,-972.168,1.953,20.020,-54.688,0
1581606602.971,-972.656,6.836,17.090,-44.434,0
1581606602.973,-972.168,6.836,15.625,-50.781,0
1581606602.977,-972.168,5.859,14.648,-50.293,0
1581606602.981,-972.168,4.883,10.742,-43.457,0
1581606602.985,-972.168,-2.930,11.719,-45.898,0
1581606602.989,-972.168,-12.695,14.160,-58.594,0
1581606602.993,-972.168,-12.695,12.695,-61.523,0
1581606602.997,-972.168,-2.441,8.789,-42.969,0
1581606603.000,-972.168,6.836,6.836,-52.246,0
1581606603.004,-972.168,10.742,9.766,-64.941,0
1581606603.008,-972.168,12.207,12.207,-63.477,0
1581606603.012,-972.168,17.090,14.160,-53.223,0
1581606603.016,-972.168,16.113,11.719,-38.574,0
1581606603.018,-972.168,9.766,11.230,-35.156,0
1581606603.022,-972.168,-1.953,11.230,-45.898,0
1581606603.026,-972.168,-7.324,9.766,-52.246,0
1581606603.030,-972.168,4.395,11.719,-50.293,0
1581606603.034,-972.168,9.277,11.230,-42.969,0
1581606603.038,-972.168,0.488,11.719,-40.039,0
1581606603.042,-972.168,1.465,12.207,-52.734,0
1581606603.045,-972.168,10.742,10.742,-50.293,0
1581606603.049,-972.656,13.184,12.695,-51.758,0
1581606603.053,-972.168,5.859,11.719,-42.480,0
1581606603.057,-965.332,8.301,9.766,-37.598,0
1581606603.061,-978.027,17.090,14.160,-58.594,0
1581606603.063,-875.488,16.602,12.695,-42.969,0
1581606603.067,-576.660,9.766,10.254,-39.062,0
1581606603.071,-288.086,6.836,14.648,-45.898,0
1581606603.075,-190.430,17.578,20.996,-35.645,0
1581606603.079,-315.918,20.508,20.996,-35.156,0
1581606603.083,-782.227,4.395,19.531,-27.832,0
1581606603.087,-1000.000,-3.906,20.996,-38.086,0
1581606603.090,-952.637,3.418,29.297,-54.199,0
1581606603.094,-973.633,10.254,30.762,-62.012,0
1581606603.098,-972.656,10.254,26.367,-46.875,0
1581606603.102,-972.168,10.742,25.391,-39.551,0
1581606603.106,-972.168,11.230,23.438,-52.246,0
1581606603.108,-972.168,4.395,22.949,-40.527,0
1581606603.112,-973.145,11.230,21.484,-37.109,0
1581606603.116,-968.750,18.066,21.484,-47.852,0
1581606603.120,-976.074,18.555,22.949,-47.363,0
1581606603.124,-967.773,20.020,19.043,-40.039,0
1581606603.128,-890.137,15.625,18.066,-32.227,0
1581606603.132,-930.176,4.395,17.090,-36.621,0
1581606603.135,-983.887,-1.465,15.137,-55.664,0
1581606603.139,-967.773,-3.418,18.066,-62.500,0
1581606603.143,-972.656,-5.371,14.648,-46.875,0
1581606603.147,-972.168,1.465,15.625,-47.852,0
1581606603.151,-972.168,7.324,18.066,-42.480,0
1581606603.153,-973.633,8.301,15.625,-28.809,0
1581606603.157,-967.285,5.371,18.066,-41.992,0
1581606603.161,-971.680,5.859,20.020,-50.781,0
1581606603.165,-967.285,7.324,17.578,-44.922,0
1581606603.169,-749.512,4.883,11.230,-51.758,0
1581606603.173,-582.031,6.348,12.695,-55.176,0
1581606603.177,-639.648,12.695,10.254,-57.129,0
1581606603.180,-593.750,21.484,13.672,-52.246,0
1581606603.184,-434.570,23.438,22.461,-53.223,0
1581606603.188,-284.180,27.344,22.949,-68.359,0
1581606603.192,-189.453,21.484,26.855,-64.941,0
1581606603.196,-15.137,13.184,27.832,-49.316,0
1581606603.198,161.621,20.020,16.113,-48.340,0
1581606603.202,232.422,30.273,18.066,-46.875,0
1581606603.206,256.348,24.902,27.344,-36.621,0
1581606603.210,206.543,14.648,23.438,-35.156,0
1581606603.214,43.945,14.648,19.043,-42.969,0
1581606603.218,-145.996,13.672,19.043,-48.340,0
1581606603.222,-217.773,10.742,21.973,-50.781,0
1581606603.225,-269.531,12.207,24.414,-42.480,0
1581606603.229,-530.273,8.301,20.508,-58.105,0
1581606603.233,-811.523,-1.465,18.555,-79.102,0
1581606603.237,-948.730,3.906,20.508,-54.199,0
1581606603.241,-973.145,9.277,20.508,-43.945,0
1581606603.258,-968.262,4.883,26.855,-45.898,0
1581606603.262,-973.145,4.883,29.297,-46.875,0
1581606603.266,-972.168,9.766,31.738,-49.316,0
1581606603.270,-972.168,19.531,31.250,-48.828,0
1581606603.274,-972.168,17.090,28.320,-42.480,0
1581606603.278,-972.168,13.672,26.855,-42.969,0
1581606603.282,-972.168,14.648,27.344,-61.035,0
1581606603.285,-967.773,18.555,25.879,-63.965,0
1581606603.289,-984.375,16.602,20.996,-60.547,0
1581606603.293,-895.508,14.648,19.531,-53.223,0
1581606603.297,-799.805,13.184,19.531,-34.668,0
1581606603.301,-798.828,10.742,19.531,-27.832,0
1581606603.303,-649.414,19.531,20.020,-31.250,0
1581606603.307,-510.254,21.973,21.484,-31.250,0
1581606603.311,-451.660,18.066,19.043,-27.344,0
1581606603.315,-517.090,20.996,22.461,-37.598,0
1581606603.319,-834.961,18.555,25.391,-37.598,0
1581606603.323,-984.863,11.719,24.414,-37.598,0
1581606603.327,-963.379,13.184,18.066,-46.875,0
1581606603.330,-971.191,12.695,12.207,-38.574,0
1581606603.334,-973.145,15.137,13.672,-30.273,0
1581606603.338,-972.168,21.484,20.996,-34.668,0
1581606603.342,-972.168,22.461,30.273,-35.645,0
1581606603.346,-972.168,23.926,28.320,-39.062,0
1581606603.348,-972.168,20.996,21.973,-33.203,0
1581606603.352,-972.656,11.230,28.809,-37.109,0
1581606603.356,-972.168,9.766,28.809,-53.711,0
1581606603.360,-972.168,9.766,20.508,-46.875,0
1581606603.364,-972.168,5.859,26.367,-39.062,0
1581606603.368,-972.168,9.277,26.367,-44.922,0
1581606603.372,-972.168,11.719,19.531,-55.664,0
1581606603.375,-972.168,12.207,24.902,-59.570,0
1581606603.379,-972.168,14.648,27.344,-50.293,0
1581606603.383,-972.168,12.695,24.902,-59.082,0
1581606603.387,-972.168,5.371,23.926,-60.059,0
1581606603.391,-972.168,3.418,21.973,-36.133,0
1581606603.393,-972.168,7.812,20.996,-39.551,0
1581606603.397,-972.168,9.277,19.531,-55.664,0
1581606603.401,-972.168,8.301,14.648,-47.363,0
1581606603.405,-974.121,10.254,16.113,-31.738,0
1581606603.409,-963.867,9.766,21.973,-43.457,0
1581606603.413,-975.098,14.160,15.625,-55.664,0
1581606603.417,-937.012,17.090,12.207,-49.805,0
1581606603.420,-614.258,16.113,14.648,-49.805,0
1581606603.424,-269.531,15.137,16.602,-59.082,0
1581606603.428,-67.871,12.695,18.555,-55.176,0
1581606603.432,69.336,15.137,19.043,-58.105,0
1581606603.436,-42.480,19.043,15.137,-46.875,0
1581606603.437,-221.191,20.508,14.160,-42.969,0
1581606603.441,-285.645,19.531,18.066,-41.992,0
1581606603.445,-250.488,18.555,20.996,-30.762,0
1581606603.449,-257.812,18.066,21.973,-46.387,0
1581606603.453,-340.820,17.578,25.391,-51.758,0
1581606603.457,-361.816,15.137,23.926,-43.945,0
1581606603.461,-263.672,12.207,25.879,-49.805,0
1581606603.464,-82.031,16.113,25.391,-43.945,0
1581606603.468,22.949,24.902,26.855,-41.504,0
1581606603.472,145.508,31.250,27.832,-34.668,0
1581606603.476,300.781,29.297,21.973,-33.203,0
1581606603.480,314.941,27.832,24.902,-44.922,0
1581606603.482,356.445,25.879,26.367,-41.016,0
1581606603.486,491.211,23.438,22.949,-53.223,0
1581606603.490,390.137,23.438,22.461,-43.945,0
1581606603.494,211.914,20.508,17.090,-37.109,0
1581606603.498,161.133,21.484,19.043,-45.410,0
1581606603.502,148.926,26.367,23.926,-53.223,0
1581606603.506,312.500,21.973,24.414,-50.293,0
1581606603.509,544.434,24.414,24.902,-55.664,0
1581606603.513,544.434,24.414,20.996,-65.918,0
1581606603.517,614.258,22.949,17.090,-57.617,0
1581606603.521,717.773,23.926,21.973,-55.176,0
1581606603.525,544.434,21.484,24.414,-51.270,0
1581606603.527,336.914,17.578,23.438,-39.062,0
1581606603.531,312.988,11.719,23.926,-34.180,0
1581606603.535,388.672,13.184,20.996,-36.133,0
1581606603.539,370.605,16.602,22.461,-46.875,0
1581606603.543,365.723,16.113,24.414,-41.016,0
1581606603.547,404.297,17.578,20.508,-19.043,0
1581606603.551,345.703,22.949,20.996,-40.527,0
1581606603.554,324.707,23.926,23.438,-56.152,0
1581606603.558,465.332,19.531,21.484,-50.293,0
1581606603.562,570.801,12.695,21.973,-45.410,0
1581606603.566,577.148,5.859,23.438,-39.551,0
1581606603.570,561.523,7.324,24.902,-40.039,0
1581606603.572,528.809,16.113,23.438,-45.898,0
1581606603.576,505.859,24.902,22.461,-47.363,0
1581606603.580,429.199,20.996,27.344,-39.551,0
1581606603.584,284.180,21.484,29.297,-38.086,0
1581606603.588,137.207,26.855,23.926,-36.621,0
1581606603.592,102.051,23.438,16.602,-44.922,0
1581606603.596,221.680,23.926,13.672,-58.594,0
1581606603.599,376.953,23.926,9.766,-62.012,0
1581606603.603,673.828,22.461,15.137,-43.457,0
1581606603.607,937.500,21.484,23.926,-22.949,0
1581606603.611,839.844,14.160,22.461,-43.945,28178
1581606603.615,545.898,10.742,20.996,-63.477,0
1581606603.632,303.711,11.719,20.020,-54.688,0
1581606603.636,-117.676,16.602,26.367,-41.992,0
1581606603.640,-580.566,21.973,31.250,-34.668,0
1581606603.644,-688.477,18.066,29.297,-41.016,0
1581606603.648,-561.035,11.719,28.809,-51.270,0
1581606603.652,-241.699,18.066,28.320,-32.715,0
1581606603.656,121.582,22.949,29.785,-29.785,0
1581606603.659,300.781,20.996,27.344,-44.434,0
1581606603.663,279.297,29.297,22.461,-41.504,0
1581606603.667,348.633,26.367,24.414,-45.410,0
1581606603.671,519.531,20.020,21.973,-38.574,0
1581606603.675,674.805,17.090,22.461,-32.227,0
1581606603.677,913.574,20.508,31.250,-36.621,0
1581606603.681,-992.676,25.391,35.156,-36.621,0
1581606603.685,992.676,22.949,33.203,-42.969,0
1581606603.689,999.023,22.461,24.902,-29.785,0
1581606603.693,985.840,26.367,20.508,-29.297,0
1581606603.697,-969.238,35.645,24.414,-37.109,0
1581606603.701,818.359,31.250,31.250,-40.527,0
1581606603.704,562.500,23.438,26.855,-47.852,0
1581606603.708,625.000,21.484,24.902,-43.945,0
1581606603.712,621.582,20.020,24.414,-44.434,0
1581606603.716,662.598,16.602,17.578,-56.152,0
1581606603.720,666.504,12.207,17.578,-59.082,0
1581606603.722,603.516,13.184,16.602,-60.059,0
1581606603.726,496.582,15.137,13.672,-60.547,0
1581606603.730,332.520,9.277,11.719,-60.059,0
1581606603.734,279.785,11.719,9.277,-49.316,0
1581606603.738,187.012,19.043,14.160,-48.340,0
1581606603.742,187.012,27.344,15.625,-55.176,0
1581606603.746,326.660,28.320,16.602,-47.363,0
1581606603.749,441.895,20.020,20.020,-53.223,0
1581606603.753,609.375,18.555,21.973,-58.594,0
1581606603.757,415.039,21.973,24.902,-56.152,0
1581606603.761,101.074,26.367,24.902,-52.734,0
1581606603.765,-44.434,29.785,23.438,-49.805,0
1581606603.767,-220.215,21.484,26.367,-54.199,0
1581606603.771,-169.434,8.301,24.902,-49.316,0
1581606603.775,4.395,3.906,19.531,-50.293,0
1581606603.779,180.664,11.719,17.090,-52.734,0
1581606603.783,451.172,22.461,18.066,-43.945,0
1581606603.787,575.684,24.902,20.996,-45.898,0
1581606603.791,349.121,21.484,25.391,-38.574,0
1581606603.794,40.527,16.602,23.926,-35.645,0
1581606603.798,60.059,17.090,21.973,-34.668,0
1581606603.802,-40.527,17.578,18.066,-23.926,0
1581606603.806,-267.090,16.113,17.090,-34.180,0
1581606603.810,-658.203,14.648,24.414,-50.293,0
1581606603.813,-982.422,4.883,24.414,-45.410,0
1581606603.817,-964.355,-0.977,20.996,-41.992,0
1581606603.821,-967.285,2.441,21.484,-35.645,0
1581606603.825,-973.633,7.812,15.137,-44.922,0
1581606603.829,-972.168,6.836,7.812,-57.617,0
1581606603.833,-972.168,2.930,12.695,-45.410,0
1581606603.837,-972.168,5.371,15.625,-43.457,0
1581606603.840,-972.168,7.324,6.348,-62.500,0
1581606603.844,-973.145,7.324,5.859,-71.289,0
1581606603.848,-967.285,8.789,10.742,-62.988,0
1581606603.852,-973.145,11.719,10.254,-62.500,0
1581606603.856,-961.914,17.578,9.766,-48.340,0
1581606603.858,-765.625,20.508,8.789,-27.832,0
1581606603.862,-610.352,21.973,14.648,-30.273,0
1581606603.866,-546.387,20.020,23.926,-43.457,0
1581606603.870,-442.383,13.672,21.973,-52.246,0
1581606603.874,-525.879,16.113,19.531,-45.898,0
1581606603.878,-563.477,17.578,21.484,-30.762,0
1581606603.882,-424.316,13.672,20.996,-27.344,0
1581606603.885,-519.531,8.301,18.555,-40.039,0
1581606603.889,-743.652,12.695,20.020,-41.504,0
1581606603.893,-801.758,20.020,22.949,-25.879,0
1581606603.897,-766.113,20.020,25.391,-21.973,0
1581606603.901,-732.910,17.090,24.902,-45.898,0
1581606603.903,-592.285,13.184,15.625,-58.594,0
1581606603.907,-407.715,12.207,13.184,-54.688,0
1581606603.911,-287.598,13.672,10.742,-56.641,0
1581606603.915,-216.309,11.230,10.254,-40.527,0
1581606603.919,-168.457,13.672,13.184,-36.133,0
1581606603.923,-53.223,18.555,13.672,-37.598,0
1581606603.927,-51.270,25.391,15.625,-32.715,0
1581606603.930,-202.148,23.438,18.066,-51.758,0
1581606603.934,-198.242,17.090,22.461,-48.340,0
1581606603.938,-127.441,13.672,24.902,-33.203,0
1581606603.942,-459.961,11.719,23.438,-54.199,0
1581606603.946,-759.766,15.625,19.043,-61.035,0
1581606603.948,-805.176,17.090,16.602,-37.109,0
1581606603.952,-793.945,13.672,13.672,-18.555,0
1581606603.956,-719.238,14.648,13.184,-26.855,0
1581606603.960,-719.727,13.184,18.066,-47.363,0
1581606603.964,-731.445,9.766,17.578,-51.758,0
1581606603.968,-863.770,12.695,13.672,-39.551,0
1581606603.972,-999.023,16.113,9.277,-43.945,0
1581606603.975,-902.832,17.090,13.184,-52.246,0
1581606603.979,-812.012,20.508,22.949,-36.621,0
1581606603.983,-913.574,19.531,27.832,-39.551,0
1581606603.987,-996.094,9.277,28.320,-49.805,0
1581606603.991,-914.551,5.371,20.508,-39.062,0
1581606604.008,-760.742,7.324,3.906,-33.691,0
1581606604.012,-866.699,11.719,13.672,-35.645,0
1581606604.016,-979.004,16.602,23.926,-30.762,0
1581606604.020,-740.723,15.625,21.484,-25.391,0
1581606604.024,-337.402,20.508,21.973,-29.297,0
1581606604.028,-59.570,29.785,17.578,-15.625,0
1581606604.032,91.797,36.133,25.879,-24.414,0
1581606604.035,-246.094,36.621,28.320,-56.641,0
1581606604.039,-867.676,25.391,20.020,-35.156,0
1581606604.043,-985.840,19.043,21.973,-31.738,0
1581606604.047,-954.590,18.555,25.879,-47.852,0
1581606604.051,-974.609,23.926,31.250,-37.598,0
1581606604.053,-972.656,24.902,31.250,-49.805,0
1581606604.057,-972.168,17.090,22.949,-62.500,0
1581606604.061,-972.168,15.137,21.973,-38.574,0
1581606604.065,-972.168,13.184,24.414,-35.156,0
1581606604.069,-975.586,8.301,8.301,-33.691,0
1581606604.073,-961.914,14.648,-4.883,-26.855,0
1581606604.077,-950.684,16.602,16.602,-38.086,0
1581606604.080,-969.238,11.230,33.203,-41.992,0
1581606604.084,-230.957,18.555,34.180,-41.992,0
1581606604.088,852.051,27.832,31.738,-47.363,0
1581606604.092,-978.516,31.738,30.762,-37.109,0
1581606604.096,967.285,24.902,31.250,-19.531,0
1581606604.098,-994.629,15.625,30.762,-29.785,0
1581606604.102,999.512,9.277,29.297,-9.277,0
1581606604.106,999.512,8.301,31.738,-2.930,0
1581606604.110,999.512,13.184,32.715,-9.277,0
1581606604.114,999.512,15.625,32.227,1.465,0
1581606604.118,999.512,17.090,29.785,0.977,0
1581606604.122,999.512,12.695,25.879,-15.137,0
1581606604.125,999.512,6.348,21.973,-16.113,0
1581606604.129,999.512,6.836,26.855,-18.066,0
1581606604.133,999.512,11.230,29.297,-16.113,0
1581606604.137,999.512,16.113,26.855,-3.418,0
1581606604.141,999.512,20.996,29.785,6.348,0
1581606604.143,999.512,24.902,28.809,3.418,0
1581606604.147,999.512,16.602,20.020,-12.695,0
1581606604.151,-994.629,11.719,20.996,-1.465,0
1581606604.155,972.168,15.137,30.273,7.812,0
1581606604.159,997.559,11.719,29.297,-13.672,0
1581606604.163,976.562,10.742,27.832,-18.555,0
1581606604.167,-188.477,9.766,23.438,-8.789,0
1581606604.170,-1000.000,9.277,28.320,-3.906,0
1581606604.174,-930.664,8.789,30.273,-19.043,0
1581606604.178,-964.844,7.324,15.625,-25.391,0
1581606604.182,-975.098,5.371,16.113,-22.461,0
1581606604.186,-972.656,1.953,24.414,-27.832,0
1581606604.188,-972.168,7.812,20.508,-14.648,0
1581606604.192,-972.168,13.184,20.020,-13.672,0
1581606604.196,-972.168,13.672,23.438,-2.930,0
1581606604.200,-972.168,10.742,20.020,-10.254,0
1581606604.204,-972.168,13.184,16.113,-18.555,0
1581606604.208,-972.168,15.625,18.066,-21.484,0
1581606604.212,-972.168,10.254,17.578,-21.973,0
1581606604.215,-972.168,4.883,19.043,-33.203,0
1581606604.219,-972.168,5.371,21.484,-41.504,0
1581606604.223,-972.168,8.301,17.090,-30.273,0
1581606604.227,-972.168,8.301,19.531,-20.020,0
1581606604.231,-972.168,4.883,24.414,-20.996,0
1581606604.233,-972.168,6.348,23.438,-29.297,0
1581606604.237,-972.168,7.812,19.531,-25.879,0
1581606604.241,-972.168,2.441,15.137,-32.227,0
1581606604.245,-972.168,1.953,10.254,-41.992,0
1581606604.249,-975.098,0.977,18.066,-42.480,0
1581606604.253,-957.520,2.930,23.438,-42.480,0
1581606604.257,-970.215,1.465,16.602,-53.223,0
1581606604.260,-895.508,-4.395,9.766,-64.453,0
1581606604.264,-244.141,3.906,7.324,-43.457,0
1581606604.268,684.570,8.301,18.066,-36.621,0
1581606604.272,-981.934,7.812,21.973,-43.457,0
1581606604.276,977.051,6.836,18.555,-35.645,0
1581606604.280,997.559,6.348,13.672,-37.598,0
1581606604.284,-999.512,7.812,9.277,-41.504,0
1581606604.288,999.512,2.930,11.719,-35.645,0
1581606604.292,999.512,-5.859,14.160,-45.410,0
1581606604.296,999.512,-2.441,10.254,-59.570,0
1581606604.300,999.512,0.000,8.789,-49.316,0
1581606604.304,999.512,5.859,13.184,-55.176,0
1581606604.307,999.512,12.695,9.766,-47.852,0
1581606604.311,999.512,11.719,16.113,-32.715,0
1581606604.315,999.512,14.160,27.344,-31.738,0
1581606604.319,999.512,14.160,27.832,-31.250,0
1581606604.323,999.512,16.602,24.414,-45.410,0
1581606604.323,999.512,28.320,20.020,-47.363,0
1581606604.327,999.512,29.297,17.090,-38.574,0
1581606604.331,999.512,21.973,20.508,-48.828,0
1581606604.335,999.512,20.996,15.137,-63.477,0
1581606604.339,999.512,15.137,14.160,-56.152,0
1581606604.343,999.512,10.254,17.090,-41.504,0
1581606604.347,999.512,11.719,13.184,-50.293,0
1581606604.350,999.512,17.578,10.254,-61.035,0
1581606604.354,999.512,23.926,12.207,-40.527,0
1581606604.358,999.512,23.438,17.578,-20.508,0
1581606604.362,-1000.000,20.020,17.578,-45.898,0
1581606604.366,994.141,13.672,13.184,-64.941,0
1581606604.383,-995.605,13.184,11.230,-54.199,0
1581606604.387,938.965,17.578,12.207,-44.922,0
1581606604.391,766.113,9.277,9.277,-39.551,0
1581606604.395,471.680,6.836,8.789,-50.781,0
1581606604.399,174.805,11.230,3.418,-45.898,0
1581606604.403,13.672,13.672,5.371,-32.715,0
1581606604.407,-112.793,15.625,18.555,-34.180,0
1581606604.410,-462.402,9.277,23.926,-18.066,0
1581606604.414,-913.086,2.441,21.973,-18.555,0
1581606604.418,-801.758,3.418,16.602,-41.504,0
1581606604.422,-337.402,4.395,15.137,-47.363,0
1581606604.426,-92.285,7.324,16.113,-34.180,0
1581606604.428,153.809,12.207,17.090,-33.691,0
1581606604.432,358.887,14.648,16.113,-44.434,0
1581606604.436,198.730,16.113,17.578,-41.504,0
1581606604.440,-69.336,17.090,19.043,-45.410,0
1581606604.444,64.453,21.484,17.090,-53.223,0
1581606604.448,349.609,24.902,14.160,-38.574,0
1581606604.452,387.207,19.531,12.207,-40.039,0
1581606604.455,137.695,15.137,10.742,-50.781,0
1581606604.459,43.945,17.090,11.719,-54.688,0
1581606604.463,231.934,16.602,8.301,-77.148,0
1581606604.467,-153.809,10.254,3.906,-81.543,0
1581606604.471,-683.594,3.906,3.418,-65.918,0
1581606604.472,-890.137,3.906,7.812,-46.387,0
1581606604.476,-996.094,3.418,9.766,-54.199,0
1581606604.480,-749.023,1.465,5.371,-61.035,0
1581606604.484,-430.664,6.348,1.953,-50.781,0
1581606604.488,-312.500,8.301,5.859,-48.340,0
1581606604.492,98.145,5.371,5.859,-58.105,0
1581606604.496,582.520,-0.488,2.441,-64.453,0
1581606604.499,816.406,1.465,2.930,-50.781,0
1581606604.503,941.895,10.254,3.906,-64.941,0
1581606604.507,999.512,15.625,3.906,-62.500,0
1581606604.511,995.117,19.043,2.441,-54.688,0
1581606604.515,-997.070,20.508,1.465,-63.965,0
1581606604.517,973.633,16.113,1.953,-72.266,0
1581606604.521,907.715,12.207,0.000,-81.055,0
1581606604.525,832.520,14.648,-1.465,-73.242,0
1581606604.529,717.285,19.043,-0.488,-55.664,0
1581606604.533,665.039,19.531,-1.465,-53.223,0
1581606604.537,596.191,11.230,3.418,-60.547,0
1581606604.541,548.828,9.277,4.883,-49.316,0
1581606604.544,619.141,9.277,2.441,-52.246,0
1581606604.548,761.719,6.836,2.441,-79.102,0
1581606604.552,889.160,13.184,4.883,-53.223,0
1581606604.556,953.125,15.625,8.301,-34.180,0
1581606604.560,867.188,15.137,4.395,-49.805,0
1581606604.562,762.207,15.625,7.812,-48.828,0
1581606604.566,886.230,14.648,7.324,-51.270,0
1581606604.570,982.910,19.531,16.113,-48.828,0
1581606604.574,877.441,32.227,17.090,-43.945,0
1581606604.578,741.699,34.180,5.859,-39.551,0
1581606604.582,725.098,22.461,12.207,-37.598,0
1581606604.586,707.031,14.648,20.996,-23.926,0
1581606604.589,517.090,17.090,21.973,-29.297,0
1581606604.593,105.469,19.531,19.531,-51.270,0
1581606604.597,-220.703,23.926,20.508,-28.320,0
1581606604.601,-414.062,28.809,22.949,-20.020,0
1581606604.605,-750.488,24.414,17.578,-41.992,0
1581606604.607,-978.516,14.160,9.766,-38.086,0
1581606604.611,-966.309,9.277,4.395,-30.273,0
1581606604.615,-968.750,8.789,9.277,-23.926,0
1581606604.619,-973.145,6.836,9.766,-29.297,0
1581606604.623,-972.168,9.277,8.789,-50.781,0
1581606604.627,-974.121,9.277,16.602,-46.387,0
1581606604.631,-962.402,10.254,14.160,-37.598,0
1581606604.634,-979.004,12.695,11.230,-54.688,0
1581606604.638,-918.945,8.789,9.277,-65.430,0
1581606604.642,-565.430,8.301,6.348,-58.594,0
1581606604.646,-211.914,10.254,10.742,-52.734,0
1581606604.650,101.562,14.160,12.207,-46.387,0
1581606604.652,354.004,14.160,10.254,-46.875,0
1581606604.656,431.152,12.695,10.742,-50.781,0
1581606604.660,327.148,12.695,10.254,-62.012,0
1581606604.664,118.164,11.719,8.789,-57.129,17041
1581606604.668,169.434,15.137,3.418,-42.969,0
1581606604.672,341.309,20.996,7.812,-35.645,0
1581606604.676,354.980,26.855,16.113,-31.250,0
1581606604.679,158.691,27.832,16.602,-36.621,0
1581606604.683,-193.359,26.855,17.090,-47.363,0
1581606604.687,-359.375,23.926,21.484,-33.203,0
1581606604.691,-524.902,23.438,19.531,-26.855,0
1581606604.695,-646.484,20.020,15.625,-37.109,0
1581606604.697,-313.965,21.484,16.602,-41.504,0
1581606604.701,259.766,24.902,15.625,-38.086,0
1581606604.705,704.102,22.949,12.207,-37.109,0
1581606604.709,973.145,23.926,9.766,-43.457,0
1581606604.713,999.512,26.855,7.812,-48.340,0
1581606604.717,992.188,26.367,8.789,-47.852,0
1581606604.721,996.094,27.344,11.230,-55.664,0
1581606604.724,-993.652,22.949,2.930,-65.430,0
1581606604.728,942.871,12.207,1.465,-64.453,0
1581606604.732,759.766,12.207,8.301,-55.176,0
1581606604.736,687.012,16.602,11.230,-41.504,0
1581606604.740,864.746,20.508,11.230,-40.527,0
1581606604.757,911.133,22.461,4.883,-36.133,0
1581606604.761,695.801,22.461,5.371,-40.527,0
1581606604.765,197.266,26.855,7.812,-52.246,0
1581606604.769,-205.566,24.902,11.230,-62.500,0
1581606604.773,-198.730,18.555,7.812,-63.965,0
1581606604.777,-287.109,19.043,5.371,-55.176,0
1581606604.781,-510.742,19.043,12.695,-69.824,0
1581606604.784,-663.574,15.137,17.578,-72.266,0
1581606604.788,-790.527,19.531,18.066,-45.898,0
1581606604.792,-809.570,17.578,19.531,-53.223,0
1581606604.796,-592.285,16.602,16.113,-56.152,0
1581606604.800,-407.715,19.043,11.230,-46.387,0
1581606604.802,-252.441,20.508,18.066,-26.855,0
1581606604.806,-282.227,22.949,25.879,-19.043,0
1581606604.810,-379.883,23.926,29.297,-32.715,0
1581606604.814,-316.406,20.508,28.320,-23.926,0
1581606604.818,-124.023,17.578,26.367,-11.719,0
1581606604.822,-216.797,23.438,18.066,-22.461,0
1581606604.826,-556.641,26.367,13.184,-33.691,0
1581606604.829,-662.109,19.043,15.137,-32.715,0
1581606604.833,-784.180,15.625,18.066,-32.715,0
1581606604.837,-914.062,20.996,13.672,-41.992,0
1581606604.841,-971.191,17.090,3.906,-36.133,0
1581606604.845,-970.703,16.602,6.348,-28.809,0
1581606604.847,-971.191,25.391,6.836,-41.016,0
1581606604.851,-972.656,22.461,8.789,-39.062,0
1581606604.855,-972.168,17.090,9.766,-31.250,0
1581606604.859,-972.168,16.113,5.859,-36.133,0
1581606604.863,-972.168,17.578,11.719,-45.898,0
1581606604.867,-972.168,25.879,18.555,-29.297,0
1581606604.871,-972.168,24.902,15.625,-42.480,0
1581606604.874,-972.168,19.043,13.184,-48.828,0
1581606604.878,-972.168,18.555,17.578,-35.645,0
1581606604.882,-972.168,15.625,20.996,-55.664,0
1581606604.886,-972.168,13.672,18.066,-37.598,0
1581606604.890,-972.168,18.066,17.090,-26.367,0
1581606604.893,-972.168,21.484,12.695,-48.340,0
1581606604.897,-972.168,20.996,6.836,-57.129,0
1581606604.901,-972.168,17.090,11.230,-49.805,0
1581606604.905,-972.168,16.113,17.090,-31.738,0
1581606604.909,-972.168,10.742,11.719,-21.484,0
1581606604.913,-972.168,3.418,10.742,-28.809,0
1581606604.917,-972.168,8.301,14.648,-23.438,0
1581606604.920,-972.168,12.207,7.324,-30.273,0
1581606604.924,-972.168,18.555,6.348,-45.898,0
1581606604.928,-972.168,19.531,9.766,-33.691,0
1581606604.932,-972.168,15.625,16.113,-21.973,0
1581606604.936,-972.168,18.555,20.508,-25.879,0
1581606604.938,-973.633,18.555,13.672,-34.668,0
1581606604.942,-962.891,12.207,10.254,-41.504,0
1581606604.946,-980.957,6.348,13.672,-38.086,0
1581606604.950,-924.316,11.719,10.742,-25.391,0
1581606604.954,-643.555,6.836,12.695,-29.297,0
1581606604.958,-495.117,2.441,14.648,-42.969,0
1581606604.962,-763.184,16.113,9.766,-42.480,0
1581606604.965,-800.293,19.531,7.812,-46.387,0
1581606604.969,-518.555,13.184,9.277,-53.711,0
1581606604.973,-715.820,11.230,11.230,-50.781,0
1581606604.977,-987.305,17.090,8.789,-42.480,0
1581606604.981,-969.238,21.973,6.348,-44.922,0
1581606604.983,-965.820,12.207,15.625,-40.039,0
1581606604.987,-974.121,2.441,17.090,-41.504,0
1581606604.991,-972.168,4.395,18.066,-42.969,0
1581606604.995,-972.168,12.695,19.043,-47.363,0
1581606604.999,-972.168,15.625,17.578,-38.086,0
1581606605.003,-972.168,13.184,20.020,-25.391,0
1581606605.007,-972.168,16.602,18.555,-37.109,0
1581606605.010,-972.168,16.602,19.531,-34.668,0
1581606605.014,-972.168,15.625,17.090,-26.367,0
1581606605.018,-972.168,9.766,11.719,-39.062,0
1581606605.022,-974.121,1.465,13.184,-43.945,0
1581606605.026,-965.332,2.930,19.531,-40.527,0
1581606605.028,-968.750,7.324,19.531,-47.363,0
1581606605.032,-954.102,5.371,17.578,-51.270,0
1581606605.036,-641.113,3.906,17.578,-50.781,0
1581606605.040,-148.926,14.648,12.207,-45.898,0
1581606605.044,-515.137,21.973,9.277,-36.621,0
1581606605.048,-1000.000,15.625,6.836,-37.598,0
1581606605.052,-956.055,12.695,8.789,-44.434,0
1581606605.055,-964.844,13.184,14.160,-51.270,0
1581606605.059,-974.121,8.789,15.625,-51.270,0
1581606605.063,-972.168,8.301,15.625,-52.246,0
1581606605.067,-972.168,15.625,13.184,-57.129,0
1581606605.071,-972.168,17.090,13.184,-61.035,0
1581606605.072,-972.168,13.184,12.207,-55.664,0
1581606605.076,-972.168,9.277,12.695,-42.480,0
1581606605.080,-972.168,10.742,13.672,-42.969,0
1581606605.084,-972.168,15.625,18.066,-36.621,0
1581606605.088,-974.121,17.578,22.461,-23.438,0
1581606605.092,-969.727,23.438,20.996,-25.879,0
1581606605.096,-929.199,26.367,19.531,-43.457,0
1581606605.099,-1000.000,21.973,19.531,-54.199,0
1581606605.103,-350.586,23.438,22.949,-38.574,0
1581606605.107,842.773,27.344,22.461,-27.832,0
1581606605.111,-982.910,27.832,20.996,-30.273,0
1581606605.115,967.285,29.297,21.484,-36.621,0
1581606605.132,-996.094,26.855,15.625,-36.133,0
1581606605.136,999.512,23.926,16.602,-30.762,0
1581606605.140,999.512,25.391,17.578,-35.156,0
1581606605.144,999.512,20.020,4.395,-47.363,0
1581606605.148,999.512,27.344,7.324,-41.504,0
1581606605.152,999.512,40.527,22.461,-32.715,0
1581606605.156,999.512,38.086,22.461,-42.969,0
1581606605.159,999.512,30.273,13.184,-43.457,0
1581606605.163,999.512,24.902,10.742,-43.945,0
1581606605.167,999.512,22.949,13.672,-50.293,0
1581606605.171,999.512,21.484,14.160,-47.363,0
1581606605.175,999.512,21.973,12.695,-47.852,0
1581606605.193,-998.535,24.414,18.066,-47.852,0
1581606605.197,984.375,20.996,19.043,-55.176,0
1581606605.201,-992.676,21.484,9.766,-46.875,0
1581606605.205,885.254,22.949,5.859,-47.852,0
1581606605.209,346.680,20.020,10.254,-59.082,0
1581606605.213,-466.797,18.555,13.184,-52.246,0
1581606605.217,-1000.000,17.578,11.230,-39.551,0
1581606605.220,-677.246,20.020,15.625,-40.527,0
1581606605.224,7.812,27.832,15.137,-43.457,0
1581606605.228,572.754,29.785,11.719,-48.828,0
1581606605.232,570.312,25.391,15.137,-43.457,0
1581606605.236,184.082,26.367,14.160,-55.664,0
1581606605.223,408.691,29.297,10.742,-65.918,0
1581606605.227,374.023,24.414,4.395,-62.012,0
1581606605.231,-96.680,16.602,2.930,-61.035,0
1581606605.235,-398.926,14.648,3.906,-56.641,0
1581606605.239,-468.750,18.555,1.953,-52.734,0
1581606605.243,-674.316,13.672,4.395,-45.898,0
1581606605.247,-950.195,7.324,8.789,-37.109,0
1581606605.250,-973.633,12.207,14.160,-62.988,0
1581606605.254,-965.820,12.207,10.254,-69.824,0
1581606605.258,-973.633,6.348,1.953,-71.289,0
1581606605.262,-972.168,11.230,2.441,-67.871,0
1581606605.266,-972.168,12.207,8.301,-45.898,0
1581606605.268,-972.168,6.348,8.301,-59.082,0
1581606605.272,-972.168,3.906,4.395,-62.500,0
1581606605.276,-972.168,4.883,4.883,-60.059,0
1581606605.280,-972.168,3.418,8.301,-66.406,0
1581606605.284,-972.168,2.441,6.348,-62.988,0
1581606605.288,-972.168,2.930,2.441,-49.316,0
1581606605.292,-972.168,4.395,4.883,-39.551,0
1581606605.295,-972.168,9.277,5.859,-37.598,0
1581606605.299,-972.168,12.695,2.441,-62.988,0
1581606605.303,-972.168,9.277,0.977,-52.246,0
1581606605.307,-972.168,0.488,5.371,-27.344,0
1581606605.311,-972.168,2.441,8.789,-55.176,0
1581606605.313,-972.168,6.348,14.160,-57.617,0
1581606605.317,-972.168,7.324,13.672,-42.480,0
1581606605.321,-972.168,10.742,9.766,-49.805,0
1581606605.325,-972.168,2.441,16.113,-54.688,0
1581606605.329,-972.168,2.930,9.766,-44.922,0
1581606605.333,-972.168,6.348,6.348,-56.152,0
1581606605.337,-972.168,0.000,8.789,-70.312,0
1581606605.340,-972.168,4.883,2.930,-56.641,0
1581606605.344,-972.168,7.812,2.441,-49.316,0
1581606605.348,-972.168,3.906,6.348,-54.199,0
1581606605.352,-972.168,3.906,10.254,-61.523,0
1581606605.356,-972.168,-1.465,10.742,-62.988,0
1581606605.358,-972.168,-2.441,7.812,-57.617,0
1581606605.362,-972.168,-1.465,5.371,-60.547,0
1581606605.366,-972.168,-0.977,0.000,-68.359,0
1581606605.370,-972.168,-1.953,0.977,-68.359,0
1581606605.374,-972.168,-4.395,1.465,-63.477,0
1581606605.378,-972.656,-4.395,2.930,-56.641,0
1581606605.382,-972.168,-9.766,4.883,-62.012,0
1581606605.385,-972.168,-7.324,2.441,-70.312,0
1581606605.389,-972.656,-6.348,2.441,-78.613,0
1581606605.393,-964.844,-10.742,1.465,-68.359,0
1581606605.397,-983.887,1.465,1.465,-65.430,0
1581606605.401,-875.977,7.324,1.953,-70.312,0
1581606605.403,-644.531,5.859,-5.859,-62.012,0
1581606605.407,-457.031,7.324,-9.277,-63.477,0
1581606605.411,-470.215,4.883,0.488,-63.965,0
1581606605.415,-458.496,1.953,-2.441,-85.449,0
1581606605.419,114.746,0.977,-9.766,-93.262,0
1581606605.423,756.348,1.953,-5.371,-74.707,0
1581606605.427,685.547,0.488,-9.277,-79.590,0
1581606605.430,64.453,0.488,-15.625,-93.750,0
1581606605.434,-575.684,0.977,-11.230,-88.379,0
1581606605.438,-933.594,-6.348,-10.254,-77.148,0
1581606605.442,-988.281,-7.812,-13.672,-78.613,0
1581606605.446,-916.504,-5.859,-12.695,-94.238,0
1581606605.448,-817.871,-10.742,-16.602,-100.586,0
1581606605.452,-977.051,-15.625,-15.625,-92.285,0
1581606605.456,-898.926,-18.555,-11.719,-98.633,0
1581606605.460,-521.973,-11.230,-10.742,-105.469,0
1581606605.464,-378.906,-9.277,-10.742,-97.168,0
1581606605.468,-501.465,-16.113,-10.254,-92.285,0
1581606605.472,-299.316,-10.254,-8.301,-104.492,0
1581606605.475,305.664,-7.324,-14.648,-114.258,0
1581606605.479,755.371,-11.719,-24.414,-77.148,0
1581606605.483,861.328,-10.742,-20.020,-79.102,0
1581606605.487,313.477,-13.672,-16.113,-88.379,0
1581606605.491,-471.680,-13.184,-19.531,-83.008,0
1581606605.492,-899.902,-12.695,-19.531,-87.891,0
1581606605.496,-971.191,-13.184,-14.160,-99.121,0
1581606605.500,-961.914,-11.719,-11.230,-96.680,0
1581606605.504,-974.609,-12.207,-9.277,-78.613,0
1581606605.508,-973.145,-10.254,-10.254,-79.590,0
1581606605.512,-943.848,-6.836,-16.113,-98.145,0
1581606605.516,-1000.000,-2.441,-15.137,-103.027,0
1581606605.519,-664.062,0.000,-10.742,-102.539,0
1581606605.523,215.820,0.977,-10.254,-84.961,0
1581606605.527,625.488,-2.930,-8.301,-92.285,0
1581606605.531,-219.238,-6.348,-16.602,-117.676,0
1581606605.535,-1000.000,-8.301,-22.461,-113.770,0
1581606605.552,-945.312,-8.301,-20.508,-110.840,0
1581606605.556,-949.219,-10.254,-19.531,-118.652,0
1581606605.560,-953.613,-9.277,-17.090,-113.281,0
1581606605.564,-562.500,-7.324,-17.578,-123.047,0
1581606605.568,-290.039,-5.371,-15.137,-127.930,0
1581606605.572,-715.820,-6.836,-12.695,-114.746,0
1581606605.576,-999.023,-12.695,-14.160,-111.328,0
1581606605.579,-959.473,-10.254,-16.602,-104.004,0
1581606605.583,-968.262,-11.230,-18.066,-103.516,0
1581606605.587,-973.633,-15.625,-19.531,-108.398,0
1581606605.591,-972.168,-19.531,-18.555,-111.816,0
1581606605.595,-972.168,-18.066,-14.160,-104.980,0
1581606605.597,-972.168,-8.789,-13.184,-98.633,0
1581606605.601,-972.168,-9.277,-13.184,-101.562,0
1581606605.605,-972.168,-10.742,-10.254,-89.844,0
1581606605.609,-972.168,-8.789,-16.602,-100.586,0
1581606605.613,-972.168,-11.719,-17.578,-118.652,0
1581606605.617,-972.168,-12.695,-10.742,-103.027,0
1581606605.621,-972.168,-10.254,-10.254,-95.215,0
1581606605.624,-972.168,-7.812,-11.719,-112.305,0
1581606605.628,-972.168,-8.301,-11.230,-114.746,0
1581606605.632,-972.168,-10.254,-14.160,-105.469,0
1581606605.636,-972.168,-13.672,-22.461,-115.234,0
1581606605.640,-972.168,-9.766,-20.508,-128.418,0
1581606605.642,-972.168,-6.836,-17.090,-123.047,0
1581606605.646,-972.168,-10.254,-18.066,-125.488,0
1581606605.650,-972.168,-8.301,-18.555,-120.605,0
1581606605.654,-972.168,-1.953,-15.625,-117.188,0
1581606605.658,-972.168,-3.418,-13.184,-123.535,0
1581606605.662,-973.633,-1.953,-17.578,-111.328,0
1581606605.666,-966.309,0.000,-15.137,-106.934,0
1581606605.669,-961.426,-1.465,-14.160,-102.539,0
1581606605.673,-955.078,-0.488,-20.508,-103.027,0
1581606605.677,-545.410,0.488,-21.973,-116.699,27502
1581606605.681,27.344,-2.441,-21.484,-102.051,0
1581606605.685,-26.367,1.953,-10.742,-87.402,0
1581606605.687,-565.430,3.418,-6.836,-101.562,0
1581606605.691,-1000.000,-0.977,-13.672,-108.887,0
1581606605.695,-697.754,-4.883,-13.184,-100.586,0
1581606605.699,-644.043,-15.137,-14.160,-100.586,0
1581606605.703,-873.047,-18.066,-14.160,-109.375,0
1581606605.707,-476.562,-9.766,-17.090,-114.746,0
1581606605.711,-110.352,-4.395,-20.996,-109.863,0
1581606605.714,364.258,1.465,-19.531,-95.703,0
1581606605.718,707.031,1.953,-19.043,-107.910,0
1581606605.722,962.891,3.906,-18.555,-110.840,0
1581606605.726,-999.512,5.859,-12.695,-110.352,0
1581606605.730,956.055,4.883,-11.719,-113.770,0
1581606605.732,-951.172,5.371,-18.066,-108.887,0
1581606605.736,320.312,1.953,-23.926,-111.328,0
1581606605.740,-815.918,-0.488,-29.297,-113.281,0
1581606605.744,-979.492,-3.906,-36.621,-119.629,0
1581606605.748,-532.715,-7.812,-41.504,-126.953,0
1581606605.752,142.578,-5.859,-47.852,-123.047,0
1581606605.756,454.102,-3.418,-51.758,-103.027,0
1581606605.759,-33.691,5.859,-48.340,-97.168,0
1581606605.763,-651.855,8.789,-46.387,-119.141,0
1581606605.767,-695.312,6.348,-52.734,-120.117,0
1581606605.771,-528.320,-2.441,-58.105,-108.887,0
1581606605.775,-498.047,-14.648,-53.223,-105.957,0
1581606605.777,-760.254,-10.742,-46.387,-90.332,0
