timestamps,TP9,AF7,AF8,TP10,Right AUX,Marker0
1582221894.564,14.648,23.438,20.02,13.672,0.0,0
1582221894.5679998,3.906,25.879,19.531,14.16,0.0,0
1582221894.572,-0.977,32.715,16.602,11.23,0.0,0
1582221894.576,10.254,37.109,19.043,5.859,0.0,0
1582221894.58,15.137,35.156,19.531,14.648,0.0,0
1582221894.584,10.254,29.297,15.137,12.207,0.0,0
1582221894.5879998,11.23,27.344,18.066,4.883,0.0,0
1582221894.591,16.602,34.668,21.484,12.207,0.0,0
1582221894.595,19.531,26.367,20.508000000000006,17.09,0.0,0
1582221894.599,18.066,19.531,22.461,16.113,0.0,0
1582221894.603,23.438,29.297,28.809,18.555,0.0,0
1582221894.607,25.391,35.156,29.297,18.555,0.0,0
1582221894.609,9.766,39.062,27.344,16.113,0.0,0
1582221894.613,0.977,33.203,28.809,13.184,0.0,0
1582221894.617,7.812,29.785,26.855,8.301,0.0,0
1582221894.621,16.602,32.715,27.344,7.324,0.0,0
1582221894.625,11.23,29.297,28.809,10.742,0.0,0
1582221894.629,4.883,29.297,28.809,9.277,0.0,0
1582221894.633,10.254,30.762,26.367,6.836,0.0,0
1582221894.6360002,14.648,23.438,25.391,11.23,0.0,0
1582221894.64,13.184,20.996,27.344,11.23,0.0,0
1582221894.644,5.371,38.086,27.344,10.742,0.0,0
1582221894.6479998,-1.953,42.969,26.367,9.766,0.0,0
1582221894.6520002,4.395,37.109,27.344,7.324,0.0,0
1582221894.654,10.742,35.156,28.32,16.113,0.0,0
1582221894.658,10.742,31.738000000000003,29.785,17.578,0.0,0
1582221894.6620002,11.23,37.598,28.32,16.113,0.0,0
1582221894.666,11.23,34.18,26.855,15.137,0.0,0
1582221894.67,13.672,33.203,26.855,12.207,0.0,0
1582221894.674,21.973000000000006,34.18,26.367,17.09,0.0,0
1582221894.678,20.02,29.297,25.879,20.508000000000006,0.0,0
1582221894.681,20.02,28.32,25.391,22.949,0.0,0
1582221894.685,20.996,31.738000000000003,25.879,15.625,0.0,0
1582221894.689,19.043,39.062,25.879,17.578,0.0,0
1582221894.6929998,16.602,39.062,25.879,25.879,0.0,0
1582221894.697,14.648,29.297,22.949,24.414,0.0,0
1582221894.699,20.508000000000006,29.785,18.555,18.555,0.0,0
1582221894.7029998,22.461,41.504,18.555,9.766,0.0,0
1582221894.707,28.32,47.852,20.02,12.207,0.0,0
1582221894.711,32.715,41.992,20.996,15.137,0.0,0
1582221894.715,32.715,36.133,19.043,13.184,0.0,0
1582221894.719,34.668,33.691,20.02,21.484,0.0,0
1582221894.7229998,21.484,35.645,21.484,19.531,0.0,0
1582221894.726,7.324,33.203,20.02,18.066,0.0,0
1582221894.73,15.625,31.738000000000003,22.949,20.996,0.0,0
1582221894.734,20.02,39.062,21.484,19.531,0.0,0
1582221894.738,15.137,38.574,18.555,19.531,0.0,0
1582221894.742,14.648,30.273000000000003,22.949,28.32,0.0,0
1582221894.744,15.137,26.855,25.391,27.344,0.0,0
1582221894.748,18.066,29.785,22.461,19.043,0.0,0
1582221894.752,16.602,31.738000000000003,20.508000000000006,29.785,0.0,0
1582221894.756,12.207,31.738000000000003,22.461,41.992,0.0,0
1582221894.76,10.742,30.762,27.344,41.992,0.0,0
1582221894.764,15.625,33.203,28.32,31.738000000000003,0.0,0
1582221894.768,12.695,24.414,27.344,52.734,0.0,0
1582221894.771,12.695,21.484,30.762,36.621,0.0,0
1582221894.775,7.324,32.227,34.668,1.465,0.0,0
1582221894.779,0.977,28.32,33.691,26.367,0.0,0
1582221894.783,21.484,26.855,29.785,52.734,0.0,0
1582221894.7870002,32.227,29.785,28.809,36.621,0.0,0
1582221894.789,21.973000000000006,31.25,27.344,-5.371,0.0,0
1582221894.793,17.09,34.668,24.414,25.391,0.0,0
1582221894.7970002,22.949,24.414,24.414,52.734,0.0,0
1582221894.801,18.555,26.367,27.832,8.789,0.0,0
1582221894.805,9.766,38.574,29.297,12.207,0.0,0
1582221894.809,18.555,33.203,25.879,28.809,0.0,0
1582221894.813,23.438,26.367,23.926,20.996,0.0,0
1582221894.816,18.555,33.203,24.902,22.949,0.0,0
1582221894.82,21.484,43.945,25.879,28.32,0.0,0
1582221894.824,32.227,35.156,26.855,35.156,0.0,0
1582221894.8279998,39.551,25.391,25.391,32.715,0.0,0
1582221894.832,30.762,32.715,26.367,26.367,0.0,0
1582221894.834,27.832,34.18,29.297,30.273000000000003,0.0,0
1582221894.8379998,29.297,28.809,26.367,29.785,0.0,0
1582221894.842,24.902,25.879,26.367,33.203,0.0,0
1582221894.846,24.414,25.391,28.32,45.41,0.0,0
1582221894.85,17.578,26.367,27.832,38.574,0.0,0
1582221894.854,9.766,28.809,27.344,19.531,0.0,0
1582221894.8579998,14.16,33.691,25.879,21.973000000000006,0.0,0
1582221894.861,20.508000000000006,33.203,25.879,29.785,0.0,0
1582221894.865,19.043,27.832,27.344,31.738000000000003,0.0,0
1582221894.869,21.484,33.203,25.391,29.785,0.0,0
1582221894.873,25.879,38.086,27.832,23.926,0.0,0
1582221894.877,20.996,39.551,27.344,26.367,0.0,0
1582221894.894,20.508000000000006,34.668,27.344,27.832,0.0,0
1582221894.8979998,19.531,29.297,31.738000000000003,25.391,0.0,0
1582221894.9020002,18.066,28.809,31.738000000000003,28.809,0.0,0
1582221894.906,26.367,27.832,30.762,25.391,0.0,0
1582221894.91,22.461,21.484,31.25,20.996,0.0,0
1582221894.914,17.578,27.344,26.855,20.02,0.0,0
1582221894.918,16.113,38.086,23.438,14.648,0.0,0
1582221894.921,15.625,26.855,23.926,15.137,0.0,0
1582221894.925,23.438,12.695,24.902,19.043,0.0,0
1582221894.929,17.09,28.809,21.484,15.625,0.0,0
1582221894.9329998,6.836,42.48,19.531,14.16,0.0,0
1582221894.937,15.625,41.01600000000001,22.949,18.066,0.0,0
1582221894.939,27.344,33.203,25.391,25.391,0.0,0
1582221894.9429998,24.902,32.227,24.414,23.926,0.0,0
1582221894.947,14.648,35.645,25.391,23.926,0.0,0
1582221894.951,25.391,29.297,27.832,30.762,0.0,0
1582221894.955,28.32,24.414,26.367,18.555,0.0,0
1582221894.959,19.043,27.344,25.391,8.789,0.0,0
1582221894.9629998,14.648,30.762,20.996,11.23,0.0,0
1582221894.966,14.16,27.832,18.066,9.766,0.0,0
1582221894.97,10.742,29.297,18.555,6.348,0.0,0
1582221894.974,12.695,35.156,18.555,0.488,0.0,0
1582221894.978,6.836,39.062,18.555,4.883,0.0,0
1582221894.982,0.488,37.109,20.508000000000006,8.789,0.0,0
1582221894.984,6.836,19.043,22.461,6.836,0.0,0
1582221894.988,17.09,20.508000000000006,22.461,12.207,0.0,0
1582221894.992,16.602,35.156,21.973000000000006,15.625,0.0,0
1582221894.996,3.906,33.203,20.996,20.508000000000006,0.0,0
1582221895.0,8.301,29.297,21.484,20.508000000000006,0.0,0
1582221895.004,14.648,27.832,20.508000000000006,18.555,0.0,0
1582221895.008,9.277,29.297,20.508000000000006,18.555,0.0,0
1582221895.0110002,7.324,24.414,20.996,22.949,0.0,0
1582221895.015,15.625,32.715,20.02,30.762,0.0,0
1582221895.019,12.207,36.621,18.066,23.926,0.0,0
1582221895.0229998,11.719,31.738000000000003,18.066,17.09,0.0,0
1582221895.0270002,13.672,28.32,20.508000000000006,20.02,0.0,0
1582221895.029,0.488,24.902,20.508000000000006,22.461,0.0,0
1582221895.033,2.93,6.836,22.461,31.738000000000003,0.0,0
1582221895.0370002,17.578,11.23,23.926,26.367,0.0,0
1582221895.041,11.23,32.715,22.949,11.719,0.0,0
1582221895.045,4.883,23.926,21.484,13.672,0.0,0
1582221895.049,15.137,29.785,19.043,11.23,0.0,0
1582221895.053,23.926,35.645,17.09,16.113,0.0,0
1582221895.056,19.531,34.18,17.09,20.02,0.0,0
1582221895.06,15.137,29.297,19.531,17.578,0.0,0
1582221895.064,12.207,25.391,19.531,18.066,0.0,0
1582221895.0679998,13.672,34.18,19.043,17.09,0.0,0
1582221895.072,18.555,36.133,18.555,24.414,0.0,0
1582221895.074,22.949,33.691,14.16,34.18,0.0,0
1582221895.0779998,23.926,34.668,12.695,26.855,0.0,0
1582221895.082,20.996,32.715,14.16,18.555,0.0,0
1582221895.086,25.879,26.855,14.648,18.555,0.0,0
1582221895.09,26.855,26.855,15.137,20.996,0.0,0
1582221895.094,24.902,30.762,14.648,19.043,0.0,0
1582221895.0979998,28.809,35.645,16.602,18.555,0.0,0
1582221895.101,15.625,28.32,20.508000000000006,12.207,0.0,0
1582221895.105,17.09,21.973000000000006,25.879,5.859,0.0,0
1582221895.109,25.879,29.297,30.762,21.484,0.0,0
1582221895.113,20.996,31.738000000000003,29.297,27.344,0.0,0
1582221895.117,20.996,29.297,25.879,14.16,0.0,0
1582221895.119,19.043,25.879,27.832,5.859,0.0,0
1582221895.123,20.996,33.203,26.855,12.695,0.0,0
1582221895.127,20.996,31.738000000000003,26.855,15.625,0.0,0
1582221895.131,21.484,26.855,27.832,8.301,0.0,0
1582221895.135,17.578,31.25,26.367,13.184,0.0,0
1582221895.139,15.625,24.902,29.297,26.367,0.0,0
1582221895.143,20.996,28.809,30.273000000000003,28.809,0.0,0
1582221895.146,18.066,35.645,24.902,12.207,0.0,0
1582221895.15,20.996,27.344,24.414,11.719,0.0,0
1582221895.154,24.414,25.391,25.391,20.02,0.0,0
1582221895.158,17.09,26.855,22.461,17.578,0.0,0
1582221895.1620002,22.949,35.645,21.973000000000006,16.113,0.0,0
1582221895.164,25.879,27.832,25.391,13.672,0.0,0
1582221895.168,22.949,19.043,25.879,22.949,0.0,0
1582221895.1720002,26.855,39.551,23.926,29.297,0.0,0
1582221895.176,21.973000000000006,39.551,25.391,21.484,0.0,0
1582221895.18,25.879,28.809,27.832,20.996,0.0,0
1582221895.184,30.273000000000003,32.715,29.297,26.367,0.0,0
1582221895.188,18.066,32.227,29.785,16.113,0.0,0
1582221895.191,12.207,32.715,25.391,8.789,0.0,0
1582221895.195,14.16,33.691,24.902,3.906,0.0,0
1582221895.199,9.766,27.344,27.832,5.859,0.0,0
1582221895.2029998,7.812,28.32,29.785,15.625,0.0,0
1582221895.207,10.742,32.227,28.809,15.137,0.0,0
1582221895.209,20.996,30.762,28.32,13.184,0.0,0
1582221895.2129998,20.508000000000006,27.832,28.809,14.648,0.0,0
1582221895.217,3.906,24.414,28.809,18.066,0.0,0
1582221895.221,5.371,21.973000000000006,28.809,20.996,0.0,0
1582221895.225,23.438,26.367,27.832,24.902,0.0,0
1582221895.229,27.344,26.855,26.855,26.855,0.0,0
1582221895.2329998,26.367,26.367,23.438,25.391,0.0,0
1582221895.236,21.484,39.062,19.531,22.461,0.0,0
1582221895.24,17.09,38.086,19.531,20.996,0.0,0
1582221895.244,21.484,35.156,20.996,22.461,0.0,0
1582221895.248,21.973000000000006,37.109,20.996,25.391,0.0,0
1582221895.252,14.16,29.297,20.996,22.949,0.0,0
1582221895.269,10.254,15.625,27.344,20.996,0.0,0
1582221895.2729998,8.789,20.508000000000006,28.32,11.719,0.0,0
1582221895.2770002,3.906,22.461,22.949,5.859,0.0,0
1582221895.281,2.93,20.02,20.508000000000006,7.812,0.0,0
1582221895.285,11.23,23.926,20.996,18.066,0.0,0
1582221895.289,13.672,38.086,19.043,16.113,0.0,0
1582221895.293,10.742,42.48,19.531,6.348,0.0,0
1582221895.296,12.695,35.156,19.043,11.23,0.0,0
1582221895.3,10.742,32.715,18.066,21.973000000000006,0.0,0
1582221895.304,23.438,29.297,20.508000000000006,24.902,0.0,0
1582221895.3079998,27.832,30.762,20.508000000000006,20.996,0.0,0
1582221895.312,23.926,33.691,20.02,20.02,0.0,0
1582221895.314,22.461,41.01600000000001,21.973000000000006,22.949,0.0,0
1582221895.3179998,12.207,38.574,21.973000000000006,17.578,0.0,0
1582221895.322,9.277,33.203,22.949,11.23,0.0,0
1582221895.326,16.113,29.785,25.879,13.184,0.0,0
1582221895.33,18.555,28.32,26.855,8.301,0.0,0
1582221895.334,6.836,27.344,24.414,6.836,0.0,0
1582221895.3379998,8.301,23.438,24.414,10.742,0.0,0
1582221895.341,11.719,23.926,26.367,9.766,0.0,0
1582221895.345,5.371,27.832,27.344,10.742,0.0,0
1582221895.349,7.324,32.715,26.855,8.789,0.0,0
1582221895.353,-2.441,23.438,25.391,5.371,0.0,0
1582221895.357,3.418,23.926,27.344,10.742,0.0,0
1582221895.36,14.16,35.156,30.273000000000003,16.602,0.0,0
1582221895.3639998,0.0,38.574,29.297,6.836,0.0,0
1582221895.3679998,0.0,33.691,26.855,6.836,0.0,0
1582221895.3720002,12.695,31.738000000000003,28.32,16.113,0.0,0
1582221895.3760002,13.184,29.785,26.855,9.766,0.0,0
1582221895.38,11.23,33.203,21.484,2.441,0.0,0
1582221895.3839998,11.719,38.086,18.555,6.348,0.0,0
1582221895.387,13.184,35.156,19.043,2.93,0.0,0
1582221895.391,7.812,35.156,19.531,-0.488,0.0,0
1582221895.395,-2.93,36.621,20.02,-3.906,0.0,0
1582221895.399,-4.883,27.344,21.484,-7.324,0.0,0
1582221895.403,3.906,14.16,20.508000000000006,-7.324,0.0,0
1582221895.405,9.277,22.949,22.461,-4.883,0.0,0
1582221895.409,6.348,39.062,26.367,-1.465,0.0,0
1582221895.413,0.977,41.504,23.438,-6.348,0.0,0
1582221895.417,-3.418,36.621,18.555,-9.277,0.0,0
1582221895.421,-1.953,37.598,15.625,-4.883,0.0,0
1582221895.425,0.977,37.109,16.113,-2.441,0.0,0
1582221895.429,-3.906,29.785,16.602,1.465,0.0,0
1582221895.4320002,-11.719,29.785,16.113,6.836,0.0,0
1582221895.436,-1.465,32.715,18.555,12.207,0.0,0
1582221895.44,2.93,32.227,18.555,15.137,0.0,0
1582221895.444,-6.348,21.973000000000006,18.066,16.113,0.0,0
1582221895.448,3.906,10.742,19.531,20.508000000000006,0.0,0
1582221895.45,8.301,30.273000000000003,22.461,17.578,0.0,0
1582221895.454,-0.977,36.133,21.973000000000006,10.742,0.0,0
1582221895.458,4.883,26.367,18.555,9.766,0.0,0
1582221895.462,4.883,28.809,17.578,6.836,0.0,0
1582221895.466,-2.441,32.715,16.602,4.395,0.0,0
1582221895.47,8.789,35.156,18.555,3.906,0.0,0
1582221895.474,7.324,34.18,16.602,1.465,0.0,0
1582221895.4770002,1.953,33.691,16.602,1.953,0.0,0
1582221895.481,8.301,40.039,20.02,0.0,0.0,0
1582221895.485,10.254,34.18,16.113,-0.488,0.0,0
1582221895.4889998,14.16,27.344,14.648,12.695,0.0,0
1582221895.4929998,6.348,28.32,12.695,14.648,0.0,0
1582221895.495,7.324,27.832,9.766,12.695,0.0,0
1582221895.4989998,23.926,28.32,11.719,19.531,0.0,0
1582221895.5029998,20.996,26.855,10.254,19.043,0.0,0
1582221895.5070002,13.184,25.879,9.277,19.043,0.0,0
1582221895.5110002,13.672,25.879,10.254,14.16,0.0,0
1582221895.515,16.113,27.344,10.742,10.254,0.0,0
1582221895.519,15.137,29.297,14.648,7.324,0.0,0
1582221895.522,12.207,32.227,16.602,2.93,0.0,0
1582221895.526,12.207,31.25,17.578,6.348,0.0,0
1582221895.53,8.789,27.832,20.02,12.207,0.0,0
1582221895.534,13.184,28.32,19.043,19.531,0.0,0
1582221895.538,18.066,34.18,18.555,19.531,0.0,0
1582221895.54,13.184,40.527,18.555,15.625,0.0,0
1582221895.544,14.16,29.297,20.508000000000006,12.207,0.0,0
1582221895.548,15.625,24.414,22.461,13.184,0.0,0
1582221895.552,6.836,29.297,19.043,16.602,0.0,0
1582221895.556,3.906,14.16,18.555,15.625,0.0,0
1582221895.56,4.883,23.926,18.066,23.926,0.0,0
1582221895.564,11.23,34.18,18.066,27.832,0.0,0
1582221895.5670002,16.113,20.508000000000006,18.555,27.344,0.0,0
1582221895.571,4.395,26.855,17.578,32.227,0.0,0
1582221895.575,2.93,38.574,18.555,29.785,0.0,0
1582221895.579,15.137,36.621,18.555,22.949,0.0,0
1582221895.583,16.602,33.203,18.066,19.043,0.0,0
1582221895.585,15.137,37.109,20.02,18.066,0.0,0
1582221895.589,21.973000000000006,38.574,20.996,17.09,0.0,0
1582221895.593,30.762,26.367,18.555,15.137,0.0,0
1582221895.597,44.922,31.738000000000003,20.508000000000006,22.461,0.0,0
1582221895.601,48.34,43.457,23.926,27.832,0.0,0
1582221895.605,37.109,34.18,25.391,25.879,0.0,0
1582221895.609,31.738000000000003,26.367,28.809,22.461,0.0,0
1582221895.6120002,32.227,35.156,28.32,23.926,0.0,0
1582221895.6160002,27.832,39.551,26.855,31.25,0.0,0
1582221895.62,19.531,31.738000000000003,28.809,33.203,0.0,0
1582221895.6239998,18.555,30.273000000000003,28.809,34.18,0.0,0
1582221895.6279998,20.508000000000006,33.691,28.809,35.645,0.0,0
1582221895.645,16.113,32.227,30.762,31.25,0.0,0
1582221895.649,8.301,34.18,33.203,30.273000000000003,0.0,0
1582221895.653,11.719,26.855,33.691,36.621,0.0,0
1582221895.657,17.09,21.484,34.668,37.109,0.0,0
1582221895.661,15.137,27.344,36.133,41.01600000000001,0.0,0
1582221895.665,5.859,27.344,37.109,33.203,0.0,0
1582221895.669,-3.418,29.785,34.18,21.484,0.0,0
1582221895.6720002,-0.488,33.203,29.297,25.391,0.0,0
1582221895.676,0.0,33.203,27.344,20.508000000000006,0.0,0
1582221895.68,7.812,39.062,28.32,19.043,0.0,0
1582221895.684,18.066,36.133,32.227,25.879,0.0,0
1582221895.688,23.438,30.762,29.785,27.344,0.0,0
1582221895.69,22.461,39.062,27.344,22.461,0.0,0
1582221895.694,11.23,40.039,29.297,19.043,0.0,0
1582221895.698,2.93,32.715,32.715,20.02,0.0,0
1582221895.702,7.324,29.297,35.645,22.461,0.0,0
1582221895.706,16.602,29.297,31.25,21.973000000000006,0.0,0
1582221895.71,13.672,32.715,27.832,20.02,0.0,0
1582221895.714,10.254,32.227,27.832,29.785,0.0,0
1582221895.717,11.23,34.18,27.344,32.715,0.0,0
1582221895.721,22.949,32.715,27.832,24.414,0.0,0
1582221895.725,29.785,24.902,27.344,20.02,0.0,0
1582221895.729,18.555,20.996,30.273000000000003,18.066,0.0,0
1582221895.7329998,10.742,34.18,26.367,16.602,0.0,0
1582221895.735,15.625,25.391,23.438,17.578,0.0,0
1582221895.7389998,20.508000000000006,18.066,27.344,19.043,0.0,0
1582221895.7429998,16.602,40.039,25.879,20.02,0.0,0
1582221895.7470002,15.625,37.109,28.809,22.461,0.0,0
1582221895.7510002,12.207,32.227,33.203,22.461,0.0,0
1582221895.755,18.555,29.785,29.297,18.555,0.0,0
1582221895.7589998,19.043,23.438,27.832,18.555,0.0,0
1582221895.762,10.742,33.203,26.855,25.391,0.0,0
1582221895.766,12.695,38.574,23.926,28.32,0.0,0
1582221895.77,12.695,40.527,23.926,20.996,0.0,0
1582221895.774,20.02,39.551,25.879,19.531,0.0,0
1582221895.778,22.949,32.227,22.461,31.25,0.0,0
1582221895.78,13.184,25.879,20.508000000000006,35.645,0.0,0
1582221895.784,22.461,15.625,20.996,30.273000000000003,0.0,0
1582221895.788,37.598,18.555,20.996,33.203,0.0,0
1582221895.792,30.762,30.762,20.508000000000006,31.738000000000003,0.0,0
1582221895.796,16.602,41.504,20.02,30.762,0.0,0
1582221895.8,19.531,41.504,20.996,25.879,0.0,0
1582221895.804,28.809,40.039,21.973000000000006,18.555,0.0,0
1582221895.8070002,26.367,41.504,23.438,20.996,0.0,0
1582221895.811,20.02,37.109,23.438,21.484,0.0,0
1582221895.815,23.926,26.367,25.879,22.949,0.0,0
1582221895.819,21.484,12.207,29.297,17.09,0.0,0
1582221895.823,17.09,31.738000000000003,27.832,13.184,0.0,0
1582221895.825,11.23,46.875,23.926,10.742,0.0,0
1582221895.829,11.719,34.668,22.949,7.812,0.0,0
1582221895.833,20.508000000000006,28.809,25.391,8.789,0.0,0
1582221895.837,26.367,36.133,23.926,16.113,0.0,0
1582221895.841,23.926,43.457,23.438,20.02,0.0,0
1582221895.845,18.066,32.715,28.32,14.16,0.0,0
1582221895.849,20.02,29.297,30.273000000000003,19.531,0.0,0
1582221895.8520002,22.949,30.762,23.926,26.855,0.0,0
1582221895.856,20.02,27.832,22.949,28.32,0.0,0
1582221895.86,16.113,30.273000000000003,23.438,37.109,0.0,0
1582221895.8639998,15.625,24.414,22.461,32.715,0.0,0
1582221895.8679998,24.902,29.297,23.926,26.855,0.0,0
1582221895.87,34.18,39.062,25.879,30.762,0.0,0
1582221895.8739998,30.762,31.738000000000003,27.344,30.273000000000003,0.0,0
1582221895.8779998,20.996,28.809,26.855,25.391,0.0,0
1582221895.8820002,21.973000000000006,41.992,26.367,23.926,0.0,0
1582221895.8860002,22.461,41.01600000000001,24.414,18.066,0.0,0
1582221895.89,8.789,39.551,21.484,16.113,0.0,0
1582221895.894,9.277,35.645,23.438,20.508000000000006,0.0,0
1582221895.897,18.555,7.812,20.508000000000006,16.602,0.0,0
1582221895.901,20.508000000000006,18.066,19.531,12.695,0.0,0
1582221895.905,13.672,46.387,17.09,10.254,0.0,0
1582221895.909,4.395,42.48,18.555,9.277,0.0,0
1582221895.913,15.625,41.504,24.902,13.184,0.0,0
1582221895.915,21.973000000000006,38.086,23.438,17.09,0.0,0
1582221895.919,11.23,24.902,25.391,16.113,0.0,0
1582221895.923,13.184,22.461,25.391,21.973000000000006,0.0,0
1582221895.927,15.137,27.832,20.02,21.973000000000006,0.0,0
1582221895.931,12.207,31.738000000000003,21.973000000000006,15.137,0.0,0
1582221895.935,14.648,32.715,19.043,21.973000000000006,0.0,0
1582221895.939,11.23,25.391,14.648,22.461,0.0,0
1582221895.9420002,6.836,17.09,15.625,22.949,0.0,0
1582221895.946,8.789,14.16,18.066,23.438,0.0,0
1582221895.95,19.043,27.832,17.578,20.996,0.0,0
1582221895.954,21.973000000000006,40.527,16.602,28.32,0.0,0
1582221895.958,20.02,33.203,20.508000000000006,32.227,0.0,0
1582221895.96,25.879,31.25,20.02,25.391,0.0,0
1582221895.964,24.414,34.18,19.531,21.484,0.0,0
1582221895.968,18.066,28.809,21.484,22.461,0.0,0
1582221895.972,18.066,23.438,23.438,24.902,0.0,0
1582221895.976,20.02,28.809,23.438,24.902,0.0,0
1582221895.98,19.043,40.039,20.508000000000006,16.602,0.0,0
1582221895.984,21.973000000000006,35.156,21.973000000000006,19.043,0.0,0
1582221895.9870002,24.414,39.062,25.879,21.484,0.0,0
1582221895.9910002,15.625,28.809,26.855,14.648,0.0,0
1582221895.995,10.742,19.043,25.391,12.207,0.0,0
1582221895.9989998,9.766,42.969,26.855,5.371,0.0,0
1582221896.0029998,8.789,42.48,26.367,10.254,0.0,0
1582221896.02,10.742,34.668,22.949,19.043,0.0,0
1582221896.024,8.301,23.926,23.926,7.812,0.0,0
1582221896.028,11.23,19.043,22.949,2.441,0.0,0
1582221896.032,7.324,32.227,24.414,2.441,0.0,0
1582221896.036,1.953,41.504,21.973000000000006,2.441,0.0,0
1582221896.04,4.883,38.086,19.043,11.719,0.0,0
1582221896.044,14.648,22.461,22.949,20.02,0.0,0
1582221896.0470002,16.602,27.832,24.414,22.461,0.0,0
1582221896.051,14.648,40.039,21.484,26.855,0.0,0
1582221896.055,18.555,39.551,20.508000000000006,35.645,0.0,0
1582221896.059,23.438,29.785,20.508000000000006,31.738000000000003,0.0,0
1582221896.063,25.879,19.531,21.973000000000006,27.344,0.0,0
1582221896.065,26.367,26.855,21.484,35.645,0.0,0
1582221896.069,25.879,22.461,15.137,27.832,0.0,0
1582221896.073,18.066,14.648,17.578,14.16,0.0,0
1582221896.077,13.184,27.832,24.414,17.578,0.0,0
1582221896.081,17.578,35.156,22.949,24.414,0.0,0
1582221896.085,18.555,30.273000000000003,20.02,27.344,0.0,0
1582221896.089,10.742,41.992,18.555,21.484,0.0,0
1582221896.092,6.836,37.109,19.531,12.695,0.0,0
1582221896.096,10.742,22.949,23.438,17.578,0.0,0
1582221896.1,10.742,22.949,27.344,24.902,0.0,0
1582221896.104,15.625,29.297,27.832,26.367,0.0,0
1582221896.1079998,10.254,34.668,28.809,15.625,0.0,0
1582221896.11,5.371,22.461,26.855,9.766,0.0,0
1582221896.1139998,12.207,20.508000000000006,20.996,18.066,0.0,0
1582221896.1179998,8.789,38.574,20.996,24.414,0.0,0
1582221896.1220002,15.137,29.297,21.973000000000006,21.973000000000006,0.0,0
1582221896.1260002,12.695,9.277,23.438,15.137,0.0,0
1582221896.13,7.812,27.344,23.438,20.02,0.0,0
1582221896.1339998,10.742,42.969,21.484,20.02,0.0,0
1582221896.137,17.09,30.273000000000003,20.508000000000006,16.113,0.0,0
1582221896.141,19.531,30.762,21.973000000000006,16.113,0.0,0
1582221896.145,12.695,40.527,24.414,10.742,0.0,0
1582221896.149,7.812,32.715,24.902,14.16,0.0,0
1582221896.153,8.789,29.785,25.879,17.09,0.0,0
1582221896.155,17.09,37.598,26.367,16.113,0.0,0
1582221896.159,27.344,38.086,23.926,25.391,0.0,0
1582221896.163,24.414,33.203,23.926,31.25,0.0,0
1582221896.167,22.949,20.02,23.926,32.227,0.0,0
1582221896.171,34.668,19.043,25.879,32.227,0.0,0
1582221896.175,30.273000000000003,27.344,28.809,27.344,0.0,0
1582221896.179,9.766,30.762,28.809,19.043,0.0,0
1582221896.1820002,2.441,36.133,30.762,16.113,0.0,0
1582221896.186,10.742,38.086,30.273000000000003,12.207,0.0,0
1582221896.19,10.742,39.551,26.855,4.883,0.0,0
1582221896.194,-1.953,32.715,25.391,4.883,0.0,0
1582221896.198,-3.906,29.785,28.809,8.301,0.0,0
1582221896.199,2.441,29.297,28.809,8.789,0.0,0
1582221896.2029998,17.09,29.785,24.414,18.066,0.0,0
1582221896.207,13.672,20.508000000000006,27.344,25.391,0.0,0
1582221896.211,8.301,15.137,25.391,25.879,0.0,0
1582221896.215,18.555,27.832,25.879,27.344,0.0,0
1582221896.219,24.414,44.434,28.32,19.531,0.0,0
1582221896.2229998,20.996,47.363,29.297,20.996,0.0,0
1582221896.226,19.531,34.668,27.832,27.344,0.0,0
1582221896.23,20.508000000000006,29.297,24.414,19.043,0.0,0
1582221896.234,25.879,35.156,24.414,20.02,0.0,0
1582221896.238,28.809,30.762,25.391,21.973000000000006,0.0,0
1582221896.242,23.438,33.203,25.391,20.996,0.0,0
1582221896.244,26.855,28.809,28.32,33.203,0.0,0
1582221896.248,27.832,33.203,33.203,26.855,0.0,0
1582221896.252,22.949,34.668,28.32,16.602,0.0,0
1582221896.256,20.996,17.578,23.926,27.832,0.0,0
1582221896.26,15.625,30.273000000000003,27.344,28.32,0.0,0
1582221896.264,23.438,42.48,23.438,27.832,0.0,0
1582221896.268,28.32,44.922,20.996,28.32,0.0,0
1582221896.271,18.066,44.434,25.391,13.672,0.0,0
1582221896.275,11.719,32.715,31.25,5.859,0.0,0
1582221896.279,8.301,28.32,31.25,13.184,0.0,0
1582221896.283,9.277,29.297,28.32,15.625,0.0,0
1582221896.2870002,6.836,35.156,26.855,11.719,0.0,0
1582221896.289,7.812,33.203,30.762,15.625,0.0,0
1582221896.293,18.555,25.391,32.227,18.555,0.0,0
1582221896.2970002,10.254,25.879,30.762,8.789,0.0,0
1582221896.301,12.695,32.227,29.785,12.695,0.0,0
1582221896.305,27.832,27.832,27.832,24.902,0.0,0
1582221896.309,22.461,31.738000000000003,25.879,28.809,0.0,0
1582221896.313,26.855,37.109,25.879,24.902,0.0,0
1582221896.316,32.227,35.156,27.344,17.09,0.0,0
1582221896.32,28.809,27.832,26.855,23.926,0.0,0
1582221896.324,20.996,31.738000000000003,26.367,26.367,0.0,0
1582221896.3279998,20.508000000000006,42.48,27.344,25.391,0.0,0
1582221896.332,26.367,41.504,26.855,22.461,0.0,0
1582221896.334,22.461,37.109,26.367,20.508000000000006,0.0,0
1582221896.3379998,16.113,31.738000000000003,26.855,22.949,0.0,0
1582221896.342,14.648,35.156,24.902,18.555,0.0,0
1582221896.346,7.324,33.691,26.855,12.207,0.0,0
1582221896.35,5.371,33.203,29.297,10.742,0.0,0
1582221896.354,1.465,40.039,28.809,7.324,0.0,0
1582221896.3579998,-3.418,35.156,31.738000000000003,-1.953,0.0,0
1582221896.361,-7.324,29.785,31.25,-9.277,0.0,0
1582221896.365,-15.137,42.48,29.297,-8.301,0.0,0
1582221896.369,-18.066,49.316,33.691,-4.883,0.0,0
1582221896.373,-31.25,46.387,33.203,-14.648,0.0,0
1582221896.377,-40.527,45.898,40.527,-23.438,0.0,1
1582221896.394,-41.01600000000001,42.48,54.199,-22.949,0.0,0
1582221896.3979998,-42.48,45.41,52.246,-23.926,0.0,0
1582221896.4020002,-40.039,63.965,52.246,-23.926,0.0,0
1582221896.406,-36.133,64.941,59.082,-35.156,0.0,0
1582221896.41,-41.504,52.246,62.012,-50.293,0.0,0
1582221896.414,-52.734,56.64100000000001,75.195,-56.152,0.0,0
1582221896.418,-57.617,61.035,77.637,-59.57,0.0,0
1582221896.421,-56.152,64.453,62.012,-70.801,0.0,0
1582221896.425,-61.523,88.37899999999998,66.895,-83.008,0.0,0
1582221896.429,-76.172,87.891,72.266,-96.191,0.0,0
1582221896.4329998,-96.68,88.37899999999998,70.801,-109.375,0.0,0
1582221896.437,-119.141,92.773,70.801,-120.605,0.0,0
1582221896.439,-125.0,95.215,79.102,-121.094,0.0,0
1582221896.4429998,-134.766,93.75,87.891,-129.395,0.0,0
1582221896.447,-156.738,85.93799999999997,81.055,-149.414,0.0,0
1582221896.451,-164.551,81.543,77.148,-150.391,0.0,0
1582221896.455,-164.551,81.055,79.59,-155.273,0.0,0
1582221896.459,-164.551,79.59,83.984,-165.03900000000004,0.0,0
1582221896.4629998,-158.203,78.613,77.637,-154.297,0.0,0
1582221896.466,-148.438,103.516,72.75399999999998,-145.50799999999995,0.0,0
1582221896.47,-141.113,94.238,77.148,-145.02,0.0,0
1582221896.474,-132.32399999999998,76.66,77.637,-134.766,0.0,0
1582221896.478,-124.023,60.547,76.66,-112.793,0.0,0
1582221896.482,-111.816,57.129,79.102,-96.68,0.0,0
1582221896.484,-102.051,75.684,76.66,-91.309,0.0,0
1582221896.488,-90.82,84.961,67.87100000000001,-81.543,0.0,0
1582221896.492,-69.824,72.266,69.336,-64.941,0.0,0
1582221896.496,-57.129,44.922,72.266,-54.688,0.0,0
1582221896.5,-41.992,68.359,63.477,-40.527,0.0,0
1582221896.504,-30.273000000000003,82.031,55.176,-22.949,0.0,0
1582221896.508,-29.785,64.453,52.734,-23.438,0.0,0
1582221896.5110002,-26.367,57.617,48.828,-22.461,0.0,0
1582221896.515,-15.137,49.316,45.41,-10.742,0.0,0
1582221896.519,4.395,36.621,44.434,-7.324,0.0,0
1582221896.5229998,10.742,37.598,40.527,0.977,0.0,0
1582221896.5270002,2.93,37.109,32.715,0.977,0.0,0
1582221896.529,-7.812,35.156,25.879,-1.953,0.0,0
1582221896.533,6.836,34.18,26.855,9.766,0.0,0
1582221896.5370002,21.484,18.555,26.367,21.973000000000006,0.0,0
1582221896.541,17.578,27.344,20.508000000000006,21.484,0.0,0
1582221896.545,20.02,40.527,20.508000000000006,26.367,0.0,0
1582221896.549,23.438,32.715,11.719,28.809,0.0,0
1582221896.553,43.945,36.133,0.977,37.109,0.0,0
1582221896.556,56.152,20.508000000000006,0.488,55.176,0.0,0
1582221896.56,56.64100000000001,19.531,-1.953,65.918,0.0,0
1582221896.564,64.453,38.574,-4.395,74.219,0.0,0
1582221896.5679998,70.801,34.18,-4.883,82.031,0.0,0
1582221896.572,83.49600000000002,24.902,-3.418,80.566,0.0,0
1582221896.575,87.402,21.484,-4.395,86.426,0.0,0
1582221896.579,85.93799999999997,19.043,-6.836,94.238,0.0,0
1582221896.583,94.727,19.531,-7.812,100.098,0.0,0
1582221896.587,94.727,20.996,-8.789,106.445,0.0,0
1582221896.591,102.539,21.973000000000006,-11.23,109.863,0.0,0
1582221896.595,109.375,19.043,-13.672,115.234,0.0,0
1582221896.599,111.816,0.0,-12.207,119.629,0.0,0
1582221896.6020002,113.77,-5.371,-10.254,114.258,0.0,0
1582221896.606,104.492,11.23,-11.23,107.91,0.0,0
1582221896.61,98.145,9.766,-11.719,109.863,0.0,0
1582221896.6139998,102.539,5.371,-13.672,112.793,0.0,0
1582221896.6179998,107.91,11.23,-13.672,107.422,0.0,0
1582221896.62,102.539,4.883,-11.719,98.145,0.0,0
1582221896.6239998,100.098,-1.953,-12.207,105.469,0.0,0
1582221896.6279998,98.633,2.441,-12.695,99.121,0.0,0
1582221896.6320002,96.191,-6.348,-14.16,91.309,0.0,0
1582221896.6360002,102.051,-4.883,-13.184,99.121,0.0,0
1582221896.64,101.562,5.371,-11.23,106.445,0.0,0
1582221896.644,101.074,1.465,-10.742,108.887,0.0,0
1582221896.647,102.051,0.488,-10.254,105.469,0.0,0
1582221896.651,101.562,0.488,-6.836,110.84,0.0,0
1582221896.655,98.633,-1.953,-4.395,113.281,0.0,0
1582221896.659,97.168,3.418,-4.395,105.469,0.0,0
1582221896.663,99.609,11.23,-4.395,102.051,0.0,0
1582221896.665,97.656,11.719,-1.465,92.773,0.0,0
1582221896.669,89.355,4.395,1.465,89.355,0.0,0
1582221896.673,86.914,5.371,-0.488,90.82,0.0,0
1582221896.677,86.914,6.836,-0.488,85.449,0.0,0
1582221896.681,87.891,0.488,3.418,87.891,0.0,0
1582221896.685,83.008,4.395,3.906,87.891,0.0,0
1582221896.689,73.73,20.02,3.418,80.078,0.0,0
1582221896.6920002,75.684,28.32,3.418,78.125,0.0,0
1582221896.696,80.078,20.508000000000006,1.953,78.613,0.0,0
1582221896.7,68.848,15.625,12.207,68.848,0.0,0
1582221896.704,59.57,29.297,18.555,65.43,0.0,0
1582221896.708,54.199,28.32,13.672,56.64100000000001,0.0,0
1582221896.71,54.688,31.738000000000003,21.973000000000006,50.78100000000001,0.0,0
1582221896.714,39.551,46.875,23.438,43.457,0.0,0
1582221896.718,17.09,46.875,30.762,19.043,0.0,0
1582221896.722,3.906,54.688,48.34,4.395,0.0,0
1582221896.726,-27.832,60.059,40.527,-25.391,0.0,0
1582221896.73,-55.176,62.988,42.969,-51.758,0.0,0
1582221896.734,-71.777,76.66,63.477,-66.406,0.0,0
1582221896.7370002,-115.234,85.93799999999997,64.453,-102.539,0.0,0
1582221896.7410002,-146.97299999999996,89.355,62.988,-138.672,0.0,0
1582221896.745,-151.36700000000005,87.891,68.848,-161.621,0.0,0
1582221896.7489998,-159.668,87.402,78.125,-170.41,0.0,0
1582221896.7529998,-170.41,95.703,84.961,-172.852,0.0,0
1582221896.77,-176.75799999999995,98.633,83.008,-175.293,0.0,0
1582221896.774,-166.016,90.82,86.426,-171.387,0.0,0
1582221896.778,-159.668,87.402,89.844,-162.59799999999996,0.0,0
1582221896.782,-171.875,88.867,92.773,-158.203,0.0,0
1582221896.786,-162.109,101.074,94.727,-151.36700000000005,0.0,0
1582221896.79,-131.34799999999998,104.492,88.37899999999998,-140.625,0.0,0
1582221896.794,-123.047,83.49600000000002,84.473,-124.023,0.0,0
1582221896.7970002,-114.258,75.684,87.891,-104.004,0.0,0
1582221896.801,-100.586,72.75399999999998,84.473,-101.074,0.0,0
1582221896.805,-85.93799999999997,60.059,77.637,-92.285,0.0,0
1582221896.809,-67.383,67.87100000000001,73.242,-77.637,0.0,0
1582221896.813,-65.43,62.5,70.312,-67.383,0.0,0
1582221896.815,-49.805,54.199,65.43,-47.363,0.0,0
1582221896.819,-29.785,43.945,61.035,-28.809,0.0,0
1582221896.823,-13.672,35.156,56.152,-18.555,0.0,0
1582221896.827,0.0,34.668,48.828,-5.859,0.0,0
1582221896.831,5.859,41.01600000000001,39.062,13.672,0.0,0
1582221896.835,17.578,19.531,29.785,26.855,0.0,0
1582221896.839,35.156,3.906,25.391,32.227,0.0,0
1582221896.842,47.852,20.996,19.043,41.01600000000001,0.0,0
1582221896.846,54.199,16.113,9.766,51.758,0.0,0
1582221896.85,60.059,11.23,8.789,57.617,0.0,0
1582221896.854,65.918,14.16,6.348,65.43,0.0,0
1582221896.8579998,73.242,10.254,0.977,72.75399999999998,0.0,0
1582221896.86,73.73,8.301,0.977,78.125,0.0,0
1582221896.8639998,80.078,9.277,-1.465,87.891,0.0,0
1582221896.8679998,85.93799999999997,2.441,-4.883,88.37899999999998,0.0,0
1582221896.8720002,89.844,-3.418,-9.277,89.355,0.0,0
1582221896.8760002,98.633,7.812,-10.742,104.004,0.0,0
1582221896.88,97.168,11.719,-9.766,105.957,0.0,0
1582221896.8839998,99.609,-4.395,-13.184,94.238,0.0,0
1582221896.887,109.863,-19.043,-15.625,98.145,0.0,0
1582221896.891,111.816,-3.418,-13.672,103.027,0.0,0
1582221896.895,107.422,19.531,-11.719,102.539,0.0,0
1582221896.899,103.516,20.508000000000006,-17.09,104.492,0.0,0
1582221896.903,98.145,0.977,-23.926,101.074,0.0,0
1582221896.905,102.539,-14.16,-19.531,103.516,0.0,0
1582221896.909,100.586,-4.883,-13.672,104.004,0.0,0
1582221896.913,99.609,4.395,-13.672,106.934,0.0,0
1582221896.917,104.004,3.418,-11.23,107.91,0.0,0
1582221896.921,104.98,-0.977,-11.23,99.121,0.0,0
1582221896.925,102.539,-2.93,-12.695,106.445,0.0,0
1582221896.929,96.68,-2.93,-8.789,117.676,0.0,0
1582221896.9320002,100.098,-7.324,-5.371,105.957,0.0,0
1582221896.936,109.863,-12.695,1.465,96.191,0.0,0
1582221896.94,112.305,-18.066,0.0,100.098,0.0,0
1582221896.944,98.145,-2.93,-6.348,97.656,0.0,0
1582221896.948,90.332,19.531,-3.418,96.68,0.0,0
1582221896.95,92.285,7.324,-0.977,101.562,0.0,0
1582221896.954,91.309,7.812,-3.418,95.703,0.0,0
1582221896.958,80.566,15.137,-6.348,91.797,0.0,0
1582221896.962,79.59,8.789,-4.883,90.82,0.0,0
1582221896.966,84.473,8.789,-2.441,88.867,0.0,0
1582221896.97,79.59,7.812,-1.953,92.285,0.0,0
1582221896.974,80.078,-2.93,0.977,89.355,0.0,0
1582221896.9770002,82.031,-8.789,3.906,83.008,0.0,0
1582221896.981,72.75399999999998,9.766,0.977,77.148,0.0,0
1582221896.985,69.824,19.531,-3.418,77.637,0.0,0
1582221896.9889998,66.895,11.23,1.465,75.684,0.0,0
1582221896.9929998,65.918,6.836,6.836,77.148,0.0,0
1582221896.995,68.359,9.766,6.348,79.59,0.0,0
1582221896.9989998,70.312,20.508000000000006,5.371,68.848,0.0,0
1582221897.0029998,63.477,15.137,5.371,65.918,0.0,0
1582221897.0070002,49.805,10.742,5.371,63.477,0.0,0
1582221897.0110002,49.805,19.043,8.789,59.57,0.0,0
1582221897.015,55.664,2.93,11.23,57.129,0.0,0
1582221897.019,54.688,3.418,10.742,62.012,0.0,0
1582221897.022,57.617,27.344,13.184,65.918,0.0,0
1582221897.026,51.758,23.438,12.695,62.988,0.0,0
1582221897.03,47.852,-1.465,12.695,63.965,0.0,0
1582221897.034,55.176,1.465,13.184,67.383,0.0,0
1582221897.038,49.805,20.508000000000006,12.207,65.918,0.0,0
1582221897.04,55.176,19.043,14.648,62.012,0.0,0
1582221897.044,59.57,15.625,13.672,63.965,0.0,0
1582221897.048,50.293,21.484,12.695,59.57,0.0,0
1582221897.052,47.852,25.391,14.16,59.082,0.0,0
1582221897.056,42.969,15.137,13.184,55.176,0.0,0
1582221897.06,41.992,25.879,13.672,49.805,0.0,0
1582221897.064,52.734,28.809,18.066,52.246,0.0,0
1582221897.0670002,55.176,15.625,20.996,51.758,0.0,0
1582221897.071,43.945,21.973000000000006,20.996,53.223,0.0,0
1582221897.075,41.504,27.344,23.926,53.71100000000001,0.0,0
1582221897.079,43.457,13.184,25.879,49.805,0.0,0
1582221897.083,42.969,9.277,22.461,42.48,0.0,0
1582221897.1,39.551,20.996,21.973000000000006,41.504,0.0,0
1582221897.104,37.598,28.809,20.508000000000006,46.387,0.0,0
1582221897.1079998,35.645,28.809,20.02,37.109,0.0,0
1582221897.1120002,31.25,22.461,21.484,29.785,0.0,0
1582221897.1160002,36.133,31.738000000000003,18.066,36.621,0.0,0
1582221897.12,36.621,43.457,20.508000000000006,33.691,0.0,0
1582221897.1239998,26.855,35.156,19.043,31.25,0.0,0
1582221897.127,30.762,27.832,16.113,38.574,0.0,0
1582221897.131,36.621,22.949,19.043,38.574,0.0,0
1582221897.135,28.32,22.461,17.578,29.297,0.0,0
1582221897.139,32.715,24.902,12.695,30.762,0.0,0
1582221897.143,35.156,21.484,11.23,31.25,0.0,0
1582221897.16,26.855,20.996,11.719,23.438,0.0,0
1582221897.164,22.949,22.949,14.16,22.949,0.0,0
1582221897.168,25.879,18.066,15.137,27.344,0.0,0
1582221897.1720002,28.809,11.23,15.625,26.367,0.0,0
1582221897.176,22.461,32.715,20.02,21.973000000000006,0.0,0
1582221897.18,12.695,49.805,22.461,21.484,0.0,0
1582221897.184,23.926,41.992,21.484,26.855,0.0,0
1582221897.187,36.133,29.785,20.02,29.297,0.0,0
1582221897.191,33.203,30.273000000000003,20.02,26.855,0.0,0
1582221897.195,31.25,37.598,21.484,28.809,0.0,0
1582221897.199,29.297,24.414,22.949,34.668,0.0,0
1582221897.2029998,22.949,21.484,21.973000000000006,28.809,0.0,0
1582221897.19,18.555,33.691,23.926,22.461,0.0,0
1582221897.194,23.438,33.203,27.832,26.855,0.0,0
1582221897.198,22.949,25.391,27.344,35.156,0.0,0
1582221897.202,19.531,21.484,28.32,36.621,0.0,0
1582221897.206,26.855,31.738000000000003,29.297,33.691,0.0,0
1582221897.21,21.484,27.832,30.273000000000003,28.32,0.0,0
1582221897.214,16.602,20.996,29.297,26.855,0.0,0
1582221897.217,9.766,33.203,29.297,28.809,0.0,0
1582221897.221,11.719,38.574,28.809,28.32,0.0,0
1582221897.225,27.344,38.574,25.391,31.738000000000003,0.0,0
1582221897.229,23.438,33.203,23.926,30.273000000000003,0.0,0
1582221897.2329998,24.414,32.227,22.461,35.156,0.0,0
1582221897.235,26.367,30.762,18.066,35.645,0.0,0
1582221897.2389998,23.438,31.25,18.066,20.508000000000006,0.0,0
1582221897.2429998,21.484,23.926,21.484,13.672,0.0,0
1582221897.2470002,21.484,28.809,23.438,13.672,0.0,0
1582221897.2510002,17.09,38.086,27.344,14.648,0.0,0
1582221897.255,4.883,35.645,27.344,10.254,0.0,0
1582221897.2589998,12.207,26.367,26.367,6.348,0.0,0
1582221897.262,28.32,21.484,30.762,17.09,0.0,0
1582221897.266,30.273000000000003,30.762,32.227,22.461,0.0,0
1582221897.27,32.715,36.133,27.344,12.695,0.0,0
1582221897.274,37.598,33.203,25.879,11.23,0.0,0
1582221897.278,32.715,21.973000000000006,32.227,16.113,0.0,0
1582221897.28,27.344,20.02,28.809,21.484,0.0,0
1582221897.284,22.461,34.668,24.414,26.855,0.0,0
1582221897.288,17.09,47.363,27.344,21.973000000000006,0.0,0
1582221897.292,4.883,42.48,26.367,14.16,0.0,0
1582221897.296,-2.441,39.062,24.902,15.625,0.0,0
1582221897.3,2.441,39.551,23.926,17.578,0.0,0
1582221897.304,0.0,31.738000000000003,25.391,15.625,0.0,0
1582221897.3070002,-11.719,29.785,22.949,2.93,0.0,0
1582221897.311,-10.742,23.926,20.996,-1.953,0.0,0
1582221897.315,2.93,19.531,19.531,5.859,0.0,0
1582221897.319,5.371,30.762,17.578,10.742,0.0,0
1582221897.323,7.812,32.227,19.531,12.207,0.0,0
1582221897.476,7.324,36.133,20.02,5.859,0.0,0
1582221897.48,10.254,33.203,17.578,15.625,0.0,0
1582221897.484,12.207,22.949,22.461,29.785,0.0,0
1582221897.488,3.418,30.762,22.461,18.555,0.0,0
1582221897.492,6.836,47.852,17.09,11.719,0.0,0
1582221897.496,12.207,48.828,15.137,15.625,0.0,0
1582221897.5,2.93,39.062,13.672,11.23,0.0,0
1582221897.5029998,1.953,29.297,13.672,11.719,0.0,0
1582221897.5070002,15.625,30.273000000000003,16.113,13.672,0.0,0
1582221897.5110002,15.625,34.18,19.043,5.859,0.0,0
1582221897.515,10.742,28.32,17.578,6.348,0.0,0
1582221897.519,16.602,32.227,18.555,13.184,0.0,0
1582221897.4770002,15.625,36.133,17.09,14.648,0.0,0
1582221897.481,12.207,37.109,20.02,19.043,0.0,0
1582221897.485,14.16,41.992,21.973000000000006,17.578,0.0,0
1582221897.4889998,8.789,32.227,20.02,6.348,0.0,0
1582221897.4929998,3.906,20.508000000000006,20.02,10.742,0.0,0
1582221897.4970002,1.465,38.086,19.531,17.578,0.0,0
1582221897.5010002,-0.488,40.527,19.531,13.672,0.0,0
1582221897.504,5.859,33.691,20.996,11.719,0.0,0
1582221897.508,3.906,34.668,20.508000000000006,10.742,0.0,0
1582221897.512,-1.465,35.156,18.555,18.066,0.0,0
1582221897.516,5.859,31.25,18.066,13.184,0.0,0
1582221897.52,9.277,23.926,17.09,5.859,0.0,0
1582221897.4829998,19.531,32.715,17.09,14.16,0.0,0
1582221897.4870002,14.16,29.297,17.09,10.742,0.0,0
1582221897.4910002,11.719,18.066,22.461,9.766,0.0,0
1582221897.495,17.09,27.832,23.926,14.16,0.0,0
1582221897.4989998,11.719,31.738000000000003,18.555,12.207,0.0,0
1582221897.5029998,10.742,27.832,19.531,15.137,0.0,0
1582221897.5070002,6.348,37.109,20.02,12.695,0.0,0
1582221897.51,1.953,36.133,20.02,15.625,0.0,0
1582221897.514,1.465,29.785,20.508000000000006,20.02,0.0,0
1582221897.518,7.812,28.809,21.973000000000006,25.879,0.0,0
1582221897.522,4.883,24.902,21.973000000000006,34.18,0.0,0
1582221897.526,-9.277,17.09,23.926,26.367,0.0,0
1582221897.485,-4.395,18.066,25.879,21.484,0.0,0
1582221897.4889998,11.23,25.391,24.414,17.09,0.0,0
1582221897.4929998,16.602,37.598,24.902,14.16,0.0,0
1582221897.4970002,17.09,36.133,24.414,20.996,0.0,0
1582221897.5010002,17.09,37.598,28.32,17.09,0.0,0
1582221897.505,23.438,47.852,29.785,8.301,0.0,0
1582221897.5089998,26.855,40.039,25.391,9.277,0.0,0
1582221897.512,27.344,39.551,25.391,13.672,0.0,0
1582221897.516,35.645,41.01600000000001,26.855,22.949,0.0,0
1582221897.52,32.715,37.109,26.855,23.926,0.0,0
1582221897.524,29.297,32.715,27.832,20.02,0.0,0
1582221897.528,34.18,35.645,25.391,24.902,0.0,0
1582221897.519,31.25,35.645,28.809,33.691,0.0,0
1582221897.5229998,25.879,29.785,34.18,31.738000000000003,0.0,0
1582221897.5270002,27.344,33.691,24.414,24.414,0.0,0
1582221897.531,16.602,38.086,19.531,19.531,0.0,2
1582221897.535,10.742,35.156,20.02,28.32,0.0,0
1582221897.539,21.973000000000006,29.785,19.531,37.109,0.0,0
1582221897.543,21.973000000000006,41.504,21.484,31.25,0.0,0
1582221897.546,17.578,37.598,22.949,28.809,0.0,0
1582221897.55,12.695,21.484,24.902,35.156,0.0,0
1582221897.554,18.066,24.902,25.391,32.227,0.0,0
1582221897.5579998,29.297,31.25,25.879,30.762,0.0,0
1582221897.562,28.32,32.227,26.855,34.18,0.0,0
1582221897.564,21.973000000000006,31.738000000000003,28.32,32.715,0.0,0
1582221897.5679998,15.137,38.086,27.832,26.855,0.0,0
1582221897.572,19.531,30.762,30.273000000000003,23.926,0.0,0
1582221897.576,28.809,25.391,30.273000000000003,24.414,0.0,0
1582221897.58,25.879,29.297,30.762,23.926,0.0,0
1582221897.584,25.879,29.785,32.715,24.414,0.0,0
1582221897.5879998,40.039,27.344,31.25,25.391,0.0,0
1582221897.591,48.34,25.391,30.762,25.391,0.0,0
1582221897.595,35.156,35.156,27.832,30.273000000000003,0.0,0
1582221897.599,27.344,42.48,26.367,29.297,0.0,0
1582221897.603,31.25,40.527,26.855,19.043,0.0,0
1582221897.607,34.18,39.551,27.832,17.578,0.0,0
1582221897.609,29.297,42.969,34.18,18.555,0.0,0
1582221897.613,15.625,34.668,34.668,13.672,0.0,0
1582221897.617,22.949,17.578,30.762,17.09,0.0,0
1582221897.621,20.02,29.297,30.762,20.508000000000006,0.0,0
1582221897.625,12.695,34.668,29.785,20.996,0.0,0
1582221897.629,14.648,19.531,32.227,18.066,0.0,0
1582221897.633,20.508000000000006,25.879,29.297,23.926,0.0,0
1582221897.6360002,28.809,41.992,23.438,32.227,0.0,0
1582221897.64,26.855,24.414,23.926,25.391,0.0,0
1582221897.644,23.438,18.066,26.855,25.879,0.0,0
1582221897.6479998,12.207,41.01600000000001,26.367,26.855,0.0,0
1582221897.6520002,23.926,40.039,27.344,24.902,0.0,0
1582221897.654,26.855,35.156,27.344,22.461,0.0,0
1582221897.658,20.508000000000006,33.691,26.855,25.879,0.0,0
1582221897.6620002,30.762,33.203,29.785,39.062,0.0,0
1582221897.666,33.203,32.715,29.297,41.01600000000001,0.0,0
1582221897.67,35.645,30.762,29.785,35.156,0.0,0
1582221897.674,36.621,38.086,26.367,37.598,0.0,0
1582221897.678,25.391,43.457,21.484,39.551,0.0,0
1582221897.681,24.902,32.715,23.926,40.527,0.0,0
1582221897.685,37.109,27.832,26.855,33.691,0.0,0
1582221897.689,29.785,29.297,28.32,26.367,0.0,0
1582221897.6929998,22.949,16.113,31.25,33.203,0.0,0
1582221897.697,26.855,16.113,28.32,32.715,0.0,0
1582221897.699,33.691,41.504,25.391,30.762,0.0,0
1582221897.7029998,34.18,38.086,27.832,31.738000000000003,0.0,0
1582221897.707,28.809,23.926,28.32,22.949,0.0,0
1582221897.711,15.137,35.156,22.461,19.043,0.0,0
1582221897.715,13.672,37.109,17.578,20.996,0.0,0
1582221897.719,26.367,33.691,17.09,20.508000000000006,0.0,0
1582221897.7229998,19.043,30.762,19.531,18.555,0.0,0
1582221897.726,15.625,29.297,21.973000000000006,18.555,0.0,0
1582221897.73,18.555,35.645,21.973000000000006,18.066,0.0,0
1582221897.734,17.578,36.621,20.02,20.02,0.0,0
1582221897.738,16.602,30.273000000000003,22.461,20.508000000000006,0.0,0
1582221897.742,16.602,29.785,27.344,23.926,0.0,0
1582221897.745,22.461,29.785,29.297,23.926,0.0,0
1582221897.7489998,24.902,33.691,26.855,25.879,0.0,0
1582221897.7529998,25.879,32.227,20.508000000000006,33.203,0.0,0
1582221897.7570002,26.855,19.531,23.926,26.367,0.0,0
1582221897.7610002,26.855,24.902,24.414,25.879,0.0,0
1582221897.765,27.344,38.574,20.996,29.297,0.0,0
1582221897.769,20.508000000000006,42.969,20.996,20.02,0.0,0
1582221897.772,17.578,35.645,20.02,17.09,0.0,0
1582221897.776,17.09,30.762,20.508000000000006,20.02,0.0,0
1582221897.78,22.949,42.969,21.973000000000006,20.996,0.0,0
1582221897.784,26.367,39.062,21.973000000000006,17.578,0.0,0
1582221897.788,29.297,32.227,21.484,15.137,0.0,0
1582221897.79,23.926,33.203,24.414,19.043,0.0,0
1582221897.794,16.113,34.668,26.367,18.066,0.0,0
1582221897.798,20.508000000000006,33.691,26.855,12.207,0.0,0
1582221897.802,20.02,23.926,30.762,14.16,0.0,0
1582221897.806,13.184,28.32,30.273000000000003,16.113,0.0,0
1582221897.81,8.789,21.484,28.809,13.672,0.0,0
1582221897.814,16.602,20.02,29.785,12.695,0.0,0
1582221897.8170002,19.043,33.691,26.367,12.695,0.0,0
1582221897.821,18.555,36.133,25.391,15.137,0.0,0
1582221897.825,28.809,22.949,29.785,22.461,0.0,0
1582221897.829,25.391,14.648,33.203,22.949,0.0,0
1582221897.833,20.508000000000006,28.32,28.809,17.578,0.0,0
1582221897.835,17.578,37.598,26.367,18.555,0.0,0
1582221897.839,19.531,35.645,29.297,20.996,0.0,0
1582221897.843,30.273000000000003,34.668,32.715,23.926,0.0,0
1582221897.847,23.926,30.762,33.203,21.973000000000006,0.0,0
1582221897.851,23.438,21.484,30.762,27.344,0.0,0
1582221897.855,31.25,28.809,32.227,35.645,0.0,0
1582221897.859,29.785,29.785,33.203,26.367,0.0,0
1582221897.8620002,24.902,25.879,28.809,24.902,0.0,0
1582221897.8660002,23.926,29.297,27.344,25.879,0.0,0
1582221897.87,18.066,31.25,28.32,24.414,0.0,0
1582221897.8739998,18.555,27.344,26.367,24.414,0.0,0
1582221897.8779998,12.207,25.879,24.902,24.414,0.0,0
1582221897.895,7.812,26.855,26.855,23.438,0.0,0
1582221897.899,17.09,22.949,26.855,22.461,0.0,0
1582221897.903,14.648,31.25,29.297,23.438,0.0,0
1582221897.907,19.043,33.203,32.227,19.531,0.0,0
1582221897.911,17.09,27.832,30.273000000000003,14.16,0.0,0
1582221897.915,6.348,35.645,29.297,14.16,0.0,0
1582221897.919,11.719,33.691,28.809,12.207,0.0,0
1582221897.9220002,17.09,24.414,28.809,15.625,0.0,0
1582221897.926,25.391,30.762,28.32,20.996,0.0,0
1582221897.93,18.555,24.902,25.879,17.578,0.0,0
1582221897.934,18.066,27.832,26.855,18.066,0.0,0
1582221897.938,18.555,33.691,26.855,18.066,0.0,0
1582221897.94,22.949,33.691,25.879,17.578,0.0,0
1582221897.944,27.832,40.039,25.879,18.555,0.0,0
1582221897.948,21.484,40.527,25.879,18.066,0.0,0
1582221897.952,20.508000000000006,34.668,25.879,11.23,0.0,0
1582221897.956,13.672,26.367,26.855,7.812,0.0,0
1582221897.96,12.695,29.297,23.926,13.672,0.0,0
1582221897.964,5.859,39.062,25.879,14.16,0.0,0
1582221897.967,6.348,32.715,32.227,14.16,0.0,0
1582221897.971,10.742,26.855,31.738000000000003,16.602,0.0,0
1582221897.975,4.395,18.555,31.25,15.625,0.0,0
1582221897.979,1.465,12.207,33.691,15.625,0.0,0
1582221897.9829998,6.348,24.414,34.668,18.066,0.0,0
1582221897.985,12.207,33.203,29.785,18.555,0.0,0
1582221897.9889998,12.695,33.203,27.832,11.719,0.0,0
1582221897.9929998,10.742,34.668,31.738000000000003,11.719,0.0,0
1582221897.9970002,13.184,38.086,35.156,20.02,0.0,0
1582221898.0010002,16.113,38.574,35.645,24.414,0.0,0
1582221898.005,25.879,39.551,34.668,28.32,0.0,0
1582221898.0089998,25.391,35.156,35.645,22.461,0.0,0
1582221898.012,11.719,36.133,33.691,18.066,0.0,0
1582221898.016,19.531,24.414,31.25,23.926,0.0,0
1582221898.02,23.926,17.578,31.738000000000003,23.438,0.0,0
1582221898.024,22.949,35.156,33.691,19.043,0.0,0
1582221898.028,18.066,35.645,33.203,14.648,0.0,0
1582221898.03,21.484,23.438,28.32,21.484,0.0,0
1582221898.034,16.602,30.273000000000003,29.785,20.996,0.0,0
1582221898.038,12.207,41.504,31.25,11.719,0.0,0
1582221898.042,6.348,32.227,28.809,6.836,0.0,0
1582221898.046,-7.812,32.227,27.344,-2.93,0.0,0
1582221898.05,-3.418,33.691,28.809,9.277,0.0,0
1582221898.054,8.789,27.344,28.809,24.902,0.0,0
1582221898.0570002,6.348,24.414,23.438,17.09,0.0,0
1582221898.061,5.859,33.203,23.438,15.625,0.0,0
1582221898.065,9.277,34.18,29.297,19.043,0.0,0
1582221898.069,10.254,29.785,29.785,20.02,0.0,0
1582221898.073,14.16,29.785,29.785,19.531,0.0,0
1582221898.075,17.09,23.926,30.762,25.879,0.0,0
1582221898.079,15.625,23.438,28.809,29.785,0.0,0
1582221898.083,9.277,18.066,29.297,22.461,0.0,0
1582221898.087,12.695,16.602,28.809,20.02,0.0,0
1582221898.091,9.277,32.227,30.762,21.973000000000006,0.0,0
1582221898.095,7.812,36.133,27.344,20.02,0.0,0
1582221898.099,12.695,38.574,22.461,19.531,0.0,0
1582221898.1020002,14.16,32.227,25.391,17.09,0.0,0
1582221898.106,19.043,26.855,26.367,15.137,0.0,0
1582221898.11,19.043,31.738000000000003,25.879,11.719,0.0,0
1582221898.1139998,30.762,37.109,27.344,8.789,0.0,0
1582221898.1179998,29.785,37.598,24.414,10.254,0.0,0
1582221898.12,20.508000000000006,36.621,23.926,7.812,0.0,0
1582221898.1239998,22.461,24.414,27.832,11.23,0.0,0
1582221898.1279998,20.02,8.789,26.855,16.602,0.0,0
1582221898.1320002,16.602,24.902,26.367,17.578,0.0,0
1582221898.1360002,10.254,44.922,29.297,11.719,0.0,0
1582221898.14,-0.977,45.41,26.367,11.719,0.0,0
1582221898.144,-1.465,43.457,25.879,16.602,0.0,0
1582221898.147,6.348,37.109,28.32,9.766,0.0,0
1582221898.151,9.277,35.645,28.809,11.719,0.0,0
1582221898.155,11.23,33.203,30.762,16.602,0.0,0
1582221898.159,13.184,28.809,31.738000000000003,13.184,0.0,0
1582221898.163,14.16,29.785,26.367,13.672,0.0,0
1582221898.165,16.113,26.367,25.391,17.09,0.0,0
1582221898.169,14.16,24.902,29.785,26.367,0.0,0
1582221898.173,13.672,16.113,30.273000000000003,25.391,0.0,0
1582221898.177,25.879,30.273000000000003,30.762,26.367,0.0,0
1582221898.181,19.043,43.457,35.645,24.902,0.0,0
1582221898.185,8.301,24.414,32.227,26.855,0.0,0
1582221898.189,9.766,32.715,29.785,28.809,0.0,0
1582221898.1920002,7.812,48.34,32.227,15.625,0.0,0
1582221898.196,12.695,41.992,30.762,12.695,0.0,0
1582221898.2,16.602,32.715,30.273000000000003,14.16,0.0,0
1582221898.204,9.766,32.227,29.785,12.695,0.0,0
1582221898.208,7.324,34.668,29.297,11.23,0.0,0
1582221898.21,20.996,30.762,28.809,10.742,0.0,0
1582221898.214,27.344,28.809,26.367,13.672,0.0,0
1582221898.218,10.742,29.785,25.391,6.836,0.0,0
1582221898.222,4.395,30.273000000000003,25.391,1.953,0.0,0
1582221898.226,19.531,27.344,21.484,5.371,0.0,0
1582221898.23,21.484,13.184,21.973000000000006,3.906,0.0,0
1582221898.234,5.371,29.297,21.973000000000006,3.906,0.0,0
1582221898.2370002,0.488,42.969,18.555,3.906,0.0,0
1582221898.2410002,9.277,39.062,20.02,3.906,0.0,0
1582221898.245,16.113,41.01600000000001,19.043,0.977,0.0,0
1582221898.2489998,18.555,38.574,20.996,0.977,0.0,0
1582221898.2529998,10.742,33.691,22.461,2.93,0.0,0
1582221898.27,17.09,32.227,21.484,5.859,0.0,0
1582221898.274,25.879,33.203,21.484,15.625,0.0,0
1582221898.278,16.602,33.691,19.043,16.602,0.0,0
1582221898.282,11.719,37.598,17.09,7.324,0.0,0
1582221898.286,21.484,42.969,14.648,11.23,0.0,0
1582221898.29,24.414,34.668,20.996,18.555,0.0,0
1582221898.294,26.367,20.02,20.996,21.484,0.0,0
1582221898.2970002,21.973000000000006,19.043,20.02,22.461,0.0,0
1582221898.301,20.508000000000006,35.645,23.926,28.809,0.0,0
1582221898.305,21.973000000000006,44.922,20.508000000000006,31.738000000000003,0.0,0
1582221898.309,12.695,43.457,21.484,21.973000000000006,0.0,0
1582221898.313,11.23,39.551,24.902,20.02,0.0,0
1582221898.315,8.789,25.879,24.902,21.484,0.0,0
1582221898.319,11.719,26.855,22.461,18.555,0.0,0
1582221898.323,16.113,36.621,23.926,21.484,0.0,0
1582221898.327,15.137,27.344,22.949,28.32,0.0,0
1582221898.331,11.719,26.367,20.02,26.855,0.0,0
1582221898.335,5.371,36.621,20.508000000000006,20.508000000000006,0.0,0
1582221898.339,8.301,37.598,18.066,15.625,0.0,0
1582221898.342,16.602,29.785,18.066,17.578,0.0,0
1582221898.346,16.602,11.23,20.996,23.438,0.0,0
1582221898.35,9.277,20.02,20.508000000000006,15.625,0.0,0
1582221898.354,6.836,35.156,18.066,11.23,0.0,0
1582221898.3579998,9.277,36.621,20.02,16.602,0.0,0
1582221898.36,16.113,48.34,20.996,13.672,0.0,0
1582221898.3639998,20.996,36.133,22.949,16.602,0.0,0
1582221898.3679998,20.02,15.625,23.926,23.438,0.0,0
1582221898.3720002,14.648,26.367,22.461,25.391,0.0,0
1582221898.3760002,15.625,29.785,20.996,20.996,0.0,0
1582221898.38,14.16,31.738000000000003,20.996,21.973000000000006,0.0,0
1582221898.3839998,14.16,39.062,22.461,23.438,0.0,0
1582221898.387,23.438,15.625,22.949,25.879,0.0,0
1582221898.391,22.949,10.254,22.949,27.832,0.0,0
1582221898.395,25.391,37.598,22.461,22.949,0.0,0
1582221898.399,19.531,43.457,24.902,20.996,0.0,0
1582221898.403,20.02,35.156,27.344,24.414,0.0,0
1582221898.405,25.391,36.133,24.902,28.32,0.0,0
1582221898.409,21.484,33.691,27.344,27.832,0.0,0
1582221898.413,20.508000000000006,33.691,28.809,20.996,0.0,0
1582221898.417,20.996,37.109,28.809,20.996,0.0,0
1582221898.421,26.855,26.367,30.762,25.391,0.0,0
1582221898.425,18.066,20.996,28.32,27.832,0.0,0
1582221898.429,8.789,21.973000000000006,26.855,23.926,0.0,0
1582221898.4320002,22.949,8.789,28.32,21.973000000000006,0.0,0
1582221898.436,25.879,17.09,26.367,20.508000000000006,0.0,0
1582221898.44,16.113,36.133,22.461,18.066,0.0,0
1582221898.444,12.207,31.25,25.879,16.113,0.0,0
1582221898.448,7.324,34.668,26.855,16.113,0.0,0
1582221898.45,12.695,39.062,21.484,18.066,0.0,0
1582221898.454,15.625,30.762,20.02,9.277,0.0,0
1582221898.458,8.789,38.086,17.09,10.254,0.0,0
1582221898.462,7.812,35.645,15.625,15.625,0.0,0
1582221898.466,3.418,26.367,16.113,19.531,0.0,0
1582221898.47,4.883,26.367,19.043,20.508000000000006,0.0,0
1582221898.474,10.254,26.855,20.02,23.438,0.0,0
1582221898.4770002,15.625,18.555,18.555,28.809,0.0,0
1582221898.481,18.066,13.672,17.578,22.949,0.0,0
1582221898.485,15.137,26.855,13.672,22.461,0.0,0
1582221898.4889998,13.184,43.457,11.719,25.879,0.0,0
1582221898.4929998,12.207,42.969,16.113,24.414,0.0,0
1582221898.495,17.578,44.434,15.625,23.926,0.0,0
1582221898.4989998,20.508000000000006,36.133,12.695,19.531,0.0,0
1582221898.5029998,20.02,20.996,16.602,18.555,0.0,0
1582221898.5070002,20.508000000000006,28.809,17.09,22.461,0.0,0
1582221898.5110002,22.949,36.133,16.113,19.043,0.0,0
1582221898.515,27.832,33.691,16.113,19.043,0.0,0
1582221898.519,31.25,29.297,20.02,22.949,0.0,0
1582221898.522,21.484,14.16,21.484,22.949,0.0,0
1582221898.526,8.789,25.879,19.043,23.438,0.0,0
1582221898.53,17.578,41.504,19.531,25.391,0.0,0
1582221898.534,16.113,30.762,19.531,25.391,0.0,0
1582221898.538,8.789,37.109,21.484,27.832,0.0,0
1582221898.539,11.23,39.551,23.926,33.691,0.0,0
1582221898.543,15.137,34.668,25.879,31.738000000000003,0.0,0
1582221898.5470002,21.484,29.297,29.297,23.926,0.0,0
1582221898.551,18.066,35.156,23.926,21.484,0.0,0
1582221898.555,13.672,37.598,17.09,21.484,0.0,0
1582221898.559,20.996,30.273000000000003,20.996,26.855,0.0,0
1582221898.563,23.926,31.25,20.996,24.414,0.0,0
1582221898.566,21.484,24.902,21.484,19.531,0.0,0
1582221898.57,13.184,18.555,21.484,21.973000000000006,0.0,0
1582221898.574,15.137,35.645,19.531,24.414,0.0,0
1582221898.5779998,22.461,39.551,22.461,24.414,0.0,0
1582221898.582,20.996,39.062,21.973000000000006,19.531,0.0,0
1582221898.584,20.508000000000006,41.01600000000001,21.973000000000006,22.461,0.0,0
1582221898.5879998,16.602,35.156,25.879,25.879,0.0,0
1582221898.592,20.996,41.01600000000001,20.996,27.344,0.0,0
1582221898.596,21.484,39.062,19.043,33.203,0.0,0
1582221898.6,16.602,37.598,21.973000000000006,31.738000000000003,0.0,0
1582221898.604,22.461,36.621,21.973000000000006,25.391,0.0,0
1582221898.6079998,24.414,35.645,21.973000000000006,27.832,0.0,0
1582221898.611,25.879,33.691,21.973000000000006,25.391,0.0,0
1582221898.615,21.973000000000006,26.367,23.926,19.531,0.0,0
1582221898.619,15.625,25.879,22.461,16.113,0.0,0
1582221898.623,16.602,19.043,19.043,6.836,0.0,0
1582221898.627,14.648,21.973000000000006,20.996,6.836,0.0,0
1582221898.644,9.766,41.01600000000001,22.949,7.812,0.0,0
1582221898.6479998,5.371,33.203,23.926,3.418,0.0,0
1582221898.6520002,2.93,33.691,21.973000000000006,2.441,0.0,0
1582221898.656,2.441,42.48,19.531,9.277,0.0,0
1582221898.66,7.324,40.527,24.414,16.113,0.0,0
1582221898.664,10.254,35.156,21.973000000000006,8.301,0.0,0
1582221898.668,10.254,29.785,19.043,6.348,0.0,0
1582221898.671,15.625,23.926,21.484,12.207,0.0,0
1582221898.675,9.766,22.461,22.949,14.16,0.0,0
1582221898.679,9.277,20.996,23.438,21.484,0.0,0
1582221898.6829998,17.09,19.531,24.902,29.297,0.0,0
1582221898.687,18.066,32.227,21.973000000000006,31.738000000000003,0.0,0
1582221898.689,17.578,30.762,22.461,25.879,0.0,0
1582221898.6929998,14.648,32.227,21.973000000000006,24.414,0.0,0
1582221898.697,14.648,40.039,18.066,28.32,0.0,0
1582221898.701,12.695,39.551,19.531,22.461,0.0,0
1582221898.705,8.789,37.109,20.508000000000006,15.137,0.0,1
1582221898.709,11.23,30.273000000000003,21.973000000000006,12.207,0.0,0
1582221898.7129998,6.836,27.832,23.438,6.348,0.0,0
1582221898.716,-3.418,31.738000000000003,22.461,4.883,0.0,0
1582221898.72,-4.395,29.297,22.949,4.395,0.0,0
1582221898.724,-1.465,18.066,22.949,-1.465,0.0,0
1582221898.728,0.488,22.461,23.926,-2.441,0.0,0
1582221898.732,-9.766,33.203,23.438,1.465,0.0,0
1582221898.734,-9.277,32.227,23.926,5.859,0.0,0
1582221898.738,3.418,27.344,23.926,6.836,0.0,0
1582221898.742,3.418,19.531,25.391,9.766,0.0,0
1582221898.746,10.254,27.832,25.879,16.113,0.0,0
1582221898.75,16.602,34.668,25.391,14.16,0.0,0
1582221898.754,17.578,34.18,25.391,16.602,0.0,0
1582221898.758,11.719,38.086,23.438,16.113,0.0,0
1582221898.7610002,8.301,33.691,22.949,23.438,0.0,0
1582221898.765,8.789,23.926,20.996,22.949,0.0,0
1582221898.769,10.742,35.156,19.043,18.066,0.0,0
1582221898.7729998,8.301,31.25,21.484,22.949,0.0,0
1582221898.7770002,5.371,25.391,25.879,17.09,0.0,0
1582221898.779,4.883,42.48,25.391,18.555,0.0,0
1582221898.783,12.207,37.598,26.367,18.066,0.0,0
1582221898.7870002,13.672,28.32,31.25,12.695,0.0,0
1582221898.791,12.207,33.203,30.273000000000003,10.254,0.0,0
1582221898.795,16.113,36.621,31.738000000000003,10.742,0.0,0
1582221898.799,17.578,31.738000000000003,32.715,18.066,0.0,0
1582221898.803,10.742,30.273000000000003,26.855,11.719,0.0,0
1582221898.806,12.695,40.039,26.367,3.906,0.0,0
1582221898.81,16.113,35.156,27.344,7.324,0.0,0
1582221898.814,11.719,31.25,27.832,3.906,0.0,0
1582221898.8179998,17.09,42.969,32.227,6.836,0.0,0
1582221898.822,10.742,41.992,33.691,7.812,0.0,0
1582221898.824,7.324,40.527,31.25,2.441,0.0,0
1582221898.8279998,10.254,38.574,29.785,4.883,0.0,0
1582221898.832,5.859,32.715,33.691,-0.488,0.0,0
1582221898.836,8.789,26.367,31.738000000000003,-6.836,0.0,0
1582221898.84,4.883,23.438,28.32,0.0,0.0,0
1582221898.844,1.953,28.32,28.809,13.672,0.0,0
1582221898.8479998,3.906,36.133,27.832,16.113,0.0,0
1582221898.851,7.812,41.992,23.438,8.789,0.0,0
1582221898.855,8.789,31.738000000000003,21.484,14.16,0.0,0
1582221898.859,5.859,33.691,20.508000000000006,14.16,0.0,0
1582221898.863,13.672,34.18,19.531,11.23,0.0,0
1582221898.867,19.531,29.297,21.484,13.672,0.0,0
1582221898.87,20.996,39.551,23.926,15.625,0.0,0
1582221898.8739998,21.484,44.922,23.926,22.949,0.0,0
1582221898.8779998,20.02,38.086,23.926,21.484,0.0,0
1582221898.8820002,25.391,26.855,24.902,23.926,0.0,0
1582221898.8860002,22.949,24.414,26.367,24.902,0.0,0
1582221898.89,27.832,21.973000000000006,26.855,25.391,0.0,0
1582221898.894,24.902,27.344,24.902,26.855,0.0,0
1582221898.897,21.484,41.01600000000001,24.902,16.113,0.0,0
1582221898.901,27.344,35.156,27.344,14.648,0.0,0
1582221898.905,18.066,29.297,25.391,16.602,0.0,0
1582221898.909,19.043,30.762,26.855,19.531,0.0,0
1582221898.913,19.531,29.297,30.273000000000003,22.949,0.0,0
1582221898.915,15.137,30.762,27.344,17.09,0.0,0
1582221898.919,12.207,33.203,24.414,24.414,0.0,0
1582221898.923,12.207,24.414,24.902,35.156,0.0,0
1582221898.927,12.207,12.695,28.32,24.902,0.0,0
1582221898.931,8.301,27.344,26.367,13.672,0.0,0
1582221898.935,7.324,37.598,22.949,16.602,0.0,0
1582221898.939,3.418,38.574,24.902,16.113,0.0,0
1582221898.9420002,4.395,39.551,23.926,16.602,0.0,0
1582221898.946,6.836,25.879,24.414,17.578,0.0,0
1582221898.95,5.371,29.297,23.926,16.113,0.0,0
1582221898.954,5.371,36.133,22.949,16.602,0.0,0
1582221898.958,3.418,30.273000000000003,22.949,15.137,0.0,0
1582221898.96,-1.465,35.645,20.996,9.766,0.0,0
1582221898.964,7.324,20.508000000000006,23.926,12.695,0.0,0
1582221898.968,4.883,20.508000000000006,26.855,14.16,0.0,0
1582221898.972,4.883,33.691,26.855,13.184,0.0,0
1582221898.976,11.719,35.156,26.367,16.602,0.0,0
1582221898.98,14.16,38.086,25.879,23.438,0.0,0
1582221898.984,14.648,32.227,29.297,17.578,0.0,0
1582221898.9870002,19.043,21.973000000000006,31.738000000000003,12.695,0.0,0
1582221898.9910002,25.391,22.461,31.25,23.438,0.0,0
1582221898.995,26.855,23.926,30.273000000000003,23.926,0.0,0
1582221898.9989998,25.879,23.926,25.391,20.996,0.0,0
1582221899.0029998,16.113,35.645,22.461,19.043,0.0,0
1582221899.02,22.461,35.645,23.438,24.414,0.0,0
1582221899.024,22.949,23.438,27.344,25.391,0.0,0
1582221899.028,13.672,29.297,28.809,26.367,0.0,0
1582221899.032,10.742,36.133,26.855,31.25,0.0,0
1582221899.036,10.742,30.273000000000003,24.902,31.738000000000003,0.0,0
1582221899.04,16.113,34.18,25.879,27.344,0.0,0
1582221899.044,20.996,35.645,28.809,20.02,0.0,0
1582221899.0470002,22.461,38.086,26.367,18.555,0.0,0
1582221899.051,13.184,34.668,24.902,18.066,0.0,0
1582221899.055,9.766,31.738000000000003,26.367,20.508000000000006,0.0,0
1582221899.059,19.043,22.949,28.809,21.973000000000006,0.0,0
1582221899.063,16.113,25.879,30.762,18.555,0.0,0
1582221899.065,16.602,28.32,29.297,21.484,0.0,0
1582221899.069,22.949,31.738000000000003,30.762,25.391,0.0,0
1582221899.073,23.926,35.156,31.25,23.926,0.0,0
1582221899.077,20.508000000000006,23.926,25.879,24.902,0.0,0
1582221899.081,13.672,32.227,25.879,23.926,0.0,0
1582221899.085,19.043,36.133,26.367,26.855,0.0,0
1582221899.089,20.996,28.32,23.926,28.32,0.0,0
1582221899.092,17.578,30.273000000000003,25.879,29.297,0.0,0
1582221899.096,14.16,36.133,24.414,29.297,0.0,0
1582221899.1,12.207,39.551,23.438,19.531,0.0,0
1582221899.104,19.043,36.621,23.438,11.719,0.0,0
1582221899.1079998,17.578,35.645,21.484,10.254,0.0,0
1582221899.11,17.578,27.832,23.926,19.531,0.0,0
1582221899.1139998,10.742,16.113,27.344,22.949,0.0,0
1582221899.1179998,17.09,29.297,30.273000000000003,16.113,0.0,0
1582221899.1220002,27.344,41.504,32.227,20.508000000000006,0.0,0
1582221899.1260002,24.414,33.203,29.785,23.926,0.0,0
1582221899.13,19.043,32.715,25.879,20.02,0.0,0
1582221899.1339998,14.648,32.227,23.438,15.625,0.0,0
1582221899.137,19.043,30.273000000000003,24.414,14.648,0.0,0
1582221899.141,19.531,38.086,23.926,13.184,0.0,0
1582221899.145,17.578,41.504,24.902,17.578,0.0,0
1582221899.149,20.508000000000006,36.621,23.926,24.414,0.0,0
1582221899.153,13.184,33.691,23.926,17.09,0.0,0
1582221899.155,13.184,36.133,26.855,13.672,0.0,0
1582221899.159,20.02,36.621,28.809,17.578,0.0,0
1582221899.163,8.789,31.25,27.344,13.672,0.0,0
1582221899.167,6.348,22.949,26.855,17.578,0.0,0
1582221899.171,11.23,20.02,24.902,19.531,0.0,0
1582221899.175,7.324,23.926,20.996,9.766,0.0,0
1582221899.179,7.812,31.738000000000003,22.461,8.301,0.0,0
1582221899.1820002,15.625,31.738000000000003,22.461,13.672,0.0,0
1582221899.186,17.578,30.273000000000003,23.926,10.742,0.0,0
1582221899.19,14.648,23.438,27.832,12.695,0.0,0
1582221899.194,20.02,32.227,28.32,20.996,0.0,0
1582221899.198,23.926,55.664,31.25,26.367,0.0,0
1582221899.2,25.391,46.875,32.227,21.973000000000006,0.0,0
1582221899.204,20.996,38.086,31.25,23.438,0.0,0
1582221899.208,18.555,39.551,32.227,27.344,0.0,0
1582221899.212,16.113,40.039,28.32,19.043,0.0,0
1582221899.216,16.602,33.691,25.879,11.23,0.0,0
1582221899.22,20.02,24.902,29.785,16.113,0.0,0
1582221899.224,17.09,32.227,28.809,18.555,0.0,0
1582221899.2270002,10.254,42.969,26.367,13.184,0.0,0
1582221899.231,12.207,38.086,25.879,12.695,0.0,0
1582221899.235,22.461,33.203,28.809,19.531,0.0,0
1582221899.2389998,19.043,33.203,30.762,24.414,0.0,0
1582221899.2429998,14.648,26.367,25.879,24.902,0.0,0
1582221899.245,15.625,16.602,22.461,23.438,0.0,0
1582221899.2489998,20.508000000000006,15.625,22.461,13.672,0.0,0
1582221899.2529998,23.438,31.738000000000003,20.996,12.695,0.0,0
1582221899.2570002,16.113,34.668,18.555,22.461,0.0,0
1582221899.2610002,8.789,38.574,18.555,20.02,0.0,0
1582221899.265,16.113,41.504,18.555,9.766,0.0,0
1582221899.269,14.648,33.203,19.531,10.742,0.0,0
1582221899.272,12.695,34.18,22.461,11.23,0.0,0
1582221899.276,13.672,39.551,21.973000000000006,10.254,0.0,0
1582221899.28,17.09,38.086,20.996,17.09,0.0,0
1582221899.284,15.625,33.203,24.414,17.09,0.0,0
1582221899.288,4.395,38.086,25.879,15.137,0.0,0
1582221899.29,-0.977,26.367,20.02,22.949,0.0,0
1582221899.294,-3.418,21.973000000000006,17.09,24.902,0.0,0
1582221899.298,12.207,31.25,20.996,20.508000000000006,0.0,0
1582221899.302,14.648,24.414,26.367,12.695,0.0,0
1582221899.306,6.348,34.18,25.879,13.184,0.0,0
1582221899.31,7.812,25.879,24.414,14.16,0.0,0
1582221899.314,12.207,22.461,25.391,6.348,0.0,0
1582221899.3170002,16.602,43.457,25.391,6.348,0.0,0
1582221899.321,5.859,44.922,24.902,7.324,0.0,0
1582221899.325,1.465,30.762,20.996,3.418,0.0,0
1582221899.329,13.184,24.414,19.043,8.301,0.0,0
1582221899.333,11.719,33.691,20.508000000000006,9.277,0.0,0
1582221899.335,9.766,35.645,20.996,9.277,0.0,0
1582221899.339,8.301,34.668,20.02,17.09,0.0,0
1582221899.343,8.301,23.926,20.02,20.508000000000006,0.0,0
1582221899.347,10.254,15.137,23.438,13.672,0.0,0
1582221899.351,12.695,26.855,22.949,9.277,0.0,0
1582221899.355,16.113,41.01600000000001,17.09,10.742,0.0,0
1582221899.359,16.113,41.01600000000001,15.137,7.812,0.0,0
1582221899.3620002,15.625,38.086,15.137,6.836,0.0,0
1582221899.3660002,8.301,35.156,15.625,9.766,0.0,0
1582221899.37,6.348,29.297,14.648,13.672,0.0,0
1582221899.3739998,16.113,25.879,18.555,19.043,0.0,0
1582221899.3779998,13.184,26.855,22.461,17.09,0.0,0
1582221899.395,13.184,34.668,21.484,15.137,0.0,0
1582221899.399,16.113,36.621,20.508000000000006,18.066,0.0,0
1582221899.403,11.23,32.715,21.484,18.555,0.0,0
1582221899.407,15.625,35.156,22.949,25.391,0.0,0
1582221899.411,22.461,35.156,22.461,21.484,0.0,0
1582221899.415,22.949,32.715,21.973000000000006,15.625,0.0,0
1582221899.419,15.625,27.344,20.02,18.066,0.0,0
1582221899.4220002,22.461,24.414,19.043,19.531,0.0,0
1582221899.426,32.227,33.691,19.531,21.484,0.0,0
1582221899.43,25.391,30.762,23.438,17.578,0.0,0
1582221899.434,16.602,38.086,27.832,13.672,0.0,0
1582221899.438,15.137,32.227,29.785,17.09,0.0,0
1582221899.44,26.855,20.996,29.297,19.043,0.0,0
1582221899.444,24.414,29.297,31.25,15.625,0.0,0
1582221899.448,11.719,32.715,32.227,12.207,0.0,0
1582221899.452,18.066,42.48,30.273000000000003,16.113,0.0,0
1582221899.456,21.484,42.48,28.32,20.508000000000006,0.0,0
1582221899.46,17.09,27.832,28.809,21.484,0.0,0
1582221899.464,19.531,24.414,27.344,27.344,0.0,0
1582221899.467,16.602,25.391,25.879,23.438,0.0,0
1582221899.471,13.672,22.461,26.855,18.555,0.0,0
1582221899.475,10.742,30.273000000000003,26.855,20.02,0.0,0
1582221899.479,9.277,34.668,26.855,21.973000000000006,0.0,0
1582221899.4829998,14.16,14.648,25.879,27.832,0.0,0
1582221899.485,19.531,13.672,25.879,21.973000000000006,0.0,0
1582221899.4889998,22.949,24.414,25.879,16.113,0.0,0
1582221899.4929998,15.625,25.391,23.926,18.066,0.0,0
1582221899.4970002,12.207,38.086,26.855,11.23,0.0,0
1582221899.5010002,15.625,43.945,23.438,13.672,0.0,0
1582221899.505,22.949,40.039,20.508000000000006,14.16,0.0,0
1582221899.5089998,32.715,32.715,26.367,16.113,0.0,0
1582221899.512,19.531,23.438,24.902,24.902,0.0,0
1582221899.516,19.531,24.414,22.461,20.02,0.0,0
1582221899.52,29.785,34.668,24.902,15.137,0.0,0
1582221899.524,23.438,35.645,23.926,16.602,0.0,0
1582221899.528,18.555,17.09,23.438,18.555,0.0,0
1582221899.53,20.996,15.137,25.879,30.762,0.0,0
1582221899.534,20.508000000000006,32.227,28.809,35.645,0.0,0
1582221899.538,21.484,28.809,27.344,26.367,0.0,0
1582221899.542,20.996,24.414,29.297,26.367,0.0,0
1582221899.546,22.949,34.18,30.273000000000003,32.715,0.0,0
1582221899.55,26.367,46.387,27.832,32.715,0.0,0
1582221899.554,21.484,45.41,28.809,24.414,0.0,0
1582221899.5570002,25.391,41.504,28.809,23.926,0.0,0
1582221899.561,23.438,31.25,31.25,20.02,0.0,0
1582221899.565,14.16,26.855,30.273000000000003,18.555,0.0,0
1582221899.569,20.996,27.344,25.391,16.602,0.0,0
1582221899.573,23.438,21.484,26.367,14.16,0.0,0
1582221899.575,17.578,14.16,27.832,13.184,0.0,0
1582221899.579,16.602,33.203,25.391,11.23,0.0,0
1582221899.583,22.461,44.922,23.926,8.301,0.0,0
1582221899.587,17.578,31.738000000000003,21.973000000000006,1.953,0.0,0
1582221899.591,13.184,32.227,20.02,5.859,0.0,0
1582221899.595,6.836,38.086,19.531,9.277,0.0,0
1582221899.599,-0.488,41.01600000000001,17.09,9.277,0.0,0
1582221899.6020002,8.789,37.598,18.555,12.695,0.0,0
1582221899.606,2.441,28.32,22.461,6.348,0.0,0
1582221899.61,1.465,18.555,24.902,9.766,0.0,0
1582221899.6139998,8.789,18.555,20.996,20.508000000000006,0.0,0
1582221899.6179998,2.93,20.02,20.02,20.02,0.0,0
1582221899.619,8.789,18.066,18.555,19.043,0.0,0
1582221899.623,15.137,23.926,16.113,18.066,0.0,0
1582221899.627,17.09,33.203,17.09,17.578,0.0,0
1582221899.631,21.484,29.297,17.578,13.184,0.0,0
1582221899.635,21.973000000000006,36.133,19.043,11.23,0.0,0
1582221899.639,11.23,34.668,18.555,15.137,0.0,0
1582221899.643,2.93,22.949,19.043,18.555,0.0,0
1582221899.646,17.578,25.391,21.484,16.113,0.0,0
1582221899.65,20.508000000000006,18.066,23.438,17.578,0.0,0
1582221899.654,8.789,21.484,24.414,19.531,0.0,0
1582221899.658,7.324,39.062,25.391,13.184,0.0,0
1582221899.6620002,7.324,38.086,25.879,16.113,0.0,0
1582221899.664,3.906,34.668,27.344,10.742,0.0,0
1582221899.668,3.906,25.391,25.879,12.207,0.0,0
1582221899.6720002,3.906,20.02,20.996,20.996,0.0,0
1582221899.676,5.859,27.344,19.531,15.137,0.0,0
1582221899.68,10.742,29.785,19.043,13.672,0.0,0
1582221899.684,4.395,31.738000000000003,17.578,14.16,0.0,0
1582221899.688,5.371,31.738000000000003,17.578,12.207,0.0,0
1582221899.691,13.672,31.25,18.066,12.207,0.0,0
1582221899.695,8.789,37.109,21.484,11.23,0.0,0
1582221899.699,8.789,27.344,24.902,18.066,0.0,0
1582221899.7029998,15.137,27.344,23.926,22.949,0.0,0
1582221899.707,6.348,34.18,21.973000000000006,13.672,0.0,0
1582221899.709,10.742,31.738000000000003,22.461,16.602,0.0,0
1582221899.7129998,13.672,36.621,19.043,22.949,0.0,0
1582221899.717,9.766,26.855,16.602,17.578,0.0,0
1582221899.721,17.09,22.949,20.996,16.113,0.0,0
1582221899.725,18.555,31.25,22.461,15.137,0.0,0
1582221899.729,21.973000000000006,17.09,19.531,18.066,0.0,0
1582221899.7329998,18.555,29.297,23.438,21.484,0.0,0
1582221899.736,16.602,47.363,28.809,26.367,0.0,0
1582221899.74,18.066,44.922,31.25,28.809,0.0,0
1582221899.744,13.184,29.785,32.227,22.461,0.0,0
1582221899.748,8.789,19.043,33.691,21.484,0.0,0
1582221899.752,8.789,30.762,30.273000000000003,30.273000000000003,0.0,0
1582221899.769,14.648,25.879,26.367,31.25,0.0,0
1582221899.7729998,15.625,17.578,26.855,20.996,0.0,0
1582221899.7770002,11.719,32.715,28.32,14.648,0.0,0
1582221899.781,5.371,36.133,26.367,19.531,0.0,0
1582221899.785,8.301,36.133,26.367,24.414,0.0,0
1582221899.789,21.973000000000006,41.992,30.273000000000003,21.973000000000006,0.0,0
1582221899.793,20.996,35.156,28.32,22.461,0.0,0
1582221899.796,18.555,30.273000000000003,27.344,21.484,0.0,0
1582221899.8,21.484,15.137,30.273000000000003,14.16,0.0,0
1582221899.804,16.602,22.949,26.855,16.113,0.0,0
1582221899.8079998,26.855,41.504,23.926,22.949,0.0,1
1582221899.812,27.832,44.922,27.344,23.438,0.0,0
1582221899.814,17.09,44.922,28.809,20.996,0.0,0
1582221899.8179998,24.414,32.715,33.203,31.738000000000003,0.0,0
1582221899.822,33.691,21.484,38.086,35.156,0.0,0
1582221899.826,29.297,33.691,37.598,29.297,0.0,0
1582221899.83,25.391,41.01600000000001,33.691,34.18,0.0,0
1582221899.834,24.902,37.598,31.25,41.992,0.0,0
1582221899.8379998,20.508000000000006,32.715,30.762,31.738000000000003,0.0,0
1582221899.841,23.438,22.949,29.297,27.832,0.0,0
1582221899.845,13.672,21.484,28.32,32.227,0.0,0
1582221899.849,10.742,27.832,28.32,26.855,0.0,0
1582221899.853,22.949,36.621,29.785,24.414,0.0,0
1582221899.857,14.648,27.344,31.25,26.367,0.0,0
1582221899.859,1.953,22.461,30.273000000000003,21.484,0.0,0
1582221899.863,7.812,28.809,29.297,18.555,0.0,0
1582221899.867,14.16,27.832,29.785,20.996,0.0,0
1582221899.871,27.832,39.551,28.32,25.391,0.0,0
1582221899.875,22.949,43.457,32.227,17.09,0.0,0
1582221899.879,15.625,33.691,37.109,12.695,0.0,0
1582221899.883,27.344,23.438,33.203,12.695,0.0,0
1582221899.8860002,34.668,13.184,29.297,13.672,0.0,0
1582221899.89,32.715,36.133,28.809,15.137,0.0,0
1582221899.894,25.879,43.457,30.273000000000003,14.16,0.0,0
1582221899.8979998,35.156,31.25,27.832,23.926,0.0,0
1582221899.9020002,35.645,37.109,30.762,34.668,0.0,0
1582221899.904,20.996,38.574,34.668,36.621,0.0,0
1582221899.908,7.812,26.367,32.715,32.227,0.0,0
1582221899.9120002,4.883,23.926,34.668,27.344,0.0,0
1582221899.916,3.418,35.156,35.645,24.414,0.0,0
1582221899.92,8.789,38.574,34.18,26.367,0.0,0
1582221899.924,14.16,34.18,31.25,27.832,0.0,0
1582221899.928,4.883,22.461,27.344,23.926,0.0,0
1582221899.931,5.371,28.32,28.809,25.391,0.0,0
1582221899.935,10.742,29.785,29.297,23.926,0.0,0
1582221899.939,5.859,23.438,25.391,16.602,0.0,0
1582221899.9429998,10.254,24.414,23.438,15.137,0.0,0
1582221899.947,18.066,26.367,28.32,18.555,0.0,0
1582221899.949,20.508000000000006,40.039,25.879,18.555,0.0,0
1582221899.9529998,19.531,41.01600000000001,22.949,15.625,0.0,0
1582221899.957,12.207,34.18,22.949,16.602,0.0,0
1582221899.961,13.184,34.668,21.484,30.273000000000003,0.0,0
1582221899.965,18.066,34.18,24.902,27.832,0.0,0
1582221899.969,15.137,26.855,22.461,4.883,0.0,0
1582221899.9729998,13.184,9.277,20.996,4.883,0.0,0
1582221899.976,18.555,17.09,22.949,16.602,0.0,0
1582221899.98,18.066,38.086,21.484,11.719,0.0,0
1582221899.984,16.113,37.109,18.066,9.766,0.0,0
1582221899.988,16.113,35.645,15.625,13.672,0.0,0
1582221899.992,9.766,30.273000000000003,14.16,14.648,0.0,0
1582221899.995,14.16,28.32,16.602,14.648,0.0,0
1582221899.9989998,22.461,38.086,15.137,16.113,0.0,0
1582221900.0029998,20.02,37.109,17.578,20.996,0.0,0
1582221900.0070002,20.02,27.832,21.484,23.926,0.0,0
1582221900.0110002,12.695,27.344,22.461,26.855,0.0,0
1582221900.015,5.859,24.902,21.973000000000006,27.344,0.0,0
1582221900.019,14.648,29.785,18.555,35.645,0.0,0
1582221900.022,12.207,39.551,15.625,27.832,0.0,0
1582221900.026,15.137,29.785,15.625,15.137,0.0,0
1582221900.03,17.578,29.297,18.066,18.066,0.0,0
1582221900.034,15.137,29.297,18.066,23.926,0.0,0
1582221900.038,20.996,24.902,18.066,27.832,0.0,0
1582221900.04,27.832,20.996,17.578,21.973000000000006,0.0,0
1582221900.044,21.973000000000006,22.949,20.02,14.16,0.0,0
1582221900.048,15.625,35.156,20.508000000000006,15.625,0.0,0
1582221900.052,20.02,30.273000000000003,19.043,17.578,0.0,0
1582221900.056,20.508000000000006,22.949,21.484,18.555,0.0,0
1582221900.06,25.879,27.832,22.949,27.832,0.0,0
1582221900.064,22.949,33.691,25.391,25.879,0.0,0
1582221900.0670002,5.859,37.598,27.344,23.438,0.0,0
1582221900.071,4.883,42.48,23.438,26.367,0.0,0
1582221900.075,11.23,29.785,26.855,25.391,0.0,0
1582221900.079,23.926,14.648,28.32,23.438,0.0,0
1582221900.083,20.508000000000006,27.832,23.438,23.926,0.0,0
1582221900.085,22.949,31.25,29.297,29.297,0.0,0
1582221900.089,30.762,29.785,31.25,39.062,0.0,0
1582221900.093,25.391,37.109,27.344,36.133,0.0,0
1582221900.097,28.809,37.598,27.832,22.949,0.0,0
1582221900.101,22.461,31.738000000000003,28.809,21.973000000000006,0.0,0
1582221900.105,20.02,37.109,26.367,23.438,0.0,0
1582221900.109,26.855,39.062,27.832,20.508000000000006,0.0,0
1582221900.1120002,25.879,16.113,30.273000000000003,20.508000000000006,0.0,0
1582221900.1160002,22.949,11.719,31.738000000000003,24.902,0.0,0
1582221900.12,21.484,38.086,29.297,28.809,0.0,0
1582221900.1239998,24.414,48.828,25.879,27.344,0.0,0
1582221900.1279998,24.414,41.504,25.391,24.902,0.0,0
1582221900.145,22.949,38.086,22.949,26.855,0.0,0
1582221900.149,19.531,35.156,22.949,17.578,0.0,0
1582221900.153,23.438,23.438,26.367,8.789,0.0,0
1582221900.157,23.438,19.043,26.367,20.02,0.0,0
1582221900.161,17.578,27.832,28.32,20.508000000000006,0.0,0
1582221900.165,18.066,41.01600000000001,27.832,15.625,0.0,0
1582221900.169,23.926,30.762,28.32,19.531,0.0,0
1582221900.1720002,29.297,26.855,30.273000000000003,21.973000000000006,0.0,0
1582221900.176,27.832,46.387,27.832,18.066,0.0,0
1582221900.18,30.273000000000003,31.738000000000003,23.926,19.043,0.0,0
1582221900.184,36.621,26.367,27.832,25.391,0.0,0
1582221900.188,32.715,42.969,30.762,23.926,0.0,0
1582221900.19,21.484,38.086,26.855,11.719,0.0,0
1582221900.194,21.484,27.344,24.902,12.207,0.0,0
1582221900.198,20.02,27.344,26.855,17.578,0.0,0
1582221900.202,15.137,34.18,26.855,15.625,0.0,0
1582221900.206,20.996,39.062,23.438,9.277,0.0,0
1582221900.21,18.066,41.504,20.02,10.742,0.0,0
1582221900.214,21.973000000000006,36.621,18.555,22.949,0.0,0
1582221900.217,19.531,39.062,20.508000000000006,24.902,0.0,0
1582221900.221,22.461,37.109,21.484,25.391,0.0,0
1582221900.225,24.902,24.414,22.461,25.391,0.0,0
1582221900.229,12.207,31.738000000000003,23.438,22.461,0.0,0
1582221900.2329998,16.602,42.48,23.438,25.879,0.0,0
1582221900.235,19.531,25.879,23.438,25.391,0.0,0
1582221900.2389998,18.555,25.879,25.391,19.043,0.0,0
1582221900.2429998,25.391,13.672,24.902,26.855,0.0,0
1582221900.2470002,20.02,12.695,27.344,31.738000000000003,0.0,0
1582221900.2510002,17.578,47.852,29.297,26.367,0.0,0
1582221900.255,19.531,54.688,26.855,21.973000000000006,0.0,0
1582221900.2589998,13.672,43.945,26.367,18.066,0.0,0
1582221900.262,18.066,33.203,26.367,18.066,0.0,0
1582221900.266,21.484,24.902,24.414,21.973000000000006,0.0,0
1582221900.27,18.066,30.762,30.273000000000003,18.555,0.0,0
1582221900.274,21.484,41.504,31.25,13.672,0.0,0
1582221900.278,21.973000000000006,34.668,24.902,19.043,0.0,0
1582221900.28,27.832,17.09,26.855,19.043,0.0,0
1582221900.284,36.621,19.043,32.715,18.555,0.0,0
1582221900.288,31.738000000000003,34.18,37.109,24.902,0.0,0
1582221900.292,21.973000000000006,30.762,33.203,18.555,0.0,0
1582221900.296,22.949,32.227,27.832,17.09,0.0,0
1582221900.3,17.578,38.574,29.785,15.137,0.0,0
1582221900.304,10.742,38.086,27.344,18.066,0.0,0
1582221900.3070002,15.137,32.715,23.926,18.555,0.0,0
1582221900.311,13.672,31.738000000000003,25.391,9.766,0.0,0
1582221900.315,13.184,26.367,26.367,16.602,0.0,0
1582221900.319,19.531,20.996,26.367,18.066,0.0,0
1582221900.323,15.137,28.32,25.391,17.578,0.0,0
1582221900.325,5.859,28.32,24.902,20.508000000000006,0.0,0
1582221900.329,10.254,36.621,21.484,15.137,0.0,0
1582221900.333,27.832,37.598,20.02,14.16,0.0,0
1582221900.337,26.855,31.25,26.855,17.578,0.0,0
1582221900.341,27.344,28.32,27.344,23.438,0.0,0
1582221900.345,22.461,32.227,20.508000000000006,29.785,0.0,0
1582221900.349,17.578,23.926,21.973000000000006,25.391,0.0,0
1582221900.3520002,25.879,29.297,24.414,23.926,0.0,0
1582221900.356,25.879,35.645,23.926,15.625,0.0,0
1582221900.36,12.695,27.344,20.02,17.09,0.0,0
1582221900.3639998,7.812,24.902,19.043,14.16,0.0,0
1582221900.3679998,17.578,25.391,19.531,13.184,0.0,0
1582221900.37,21.973000000000006,31.738000000000003,21.484,18.555,0.0,0
1582221900.3739998,16.602,27.344,21.484,16.113,0.0,0
1582221900.3779998,20.508000000000006,20.508000000000006,19.531,16.113,0.0,0
1582221900.3820002,20.508000000000006,37.109,22.949,20.508000000000006,0.0,0
1582221900.3860002,17.09,51.27,23.438,21.973000000000006,0.0,0
1582221900.39,17.578,43.945,23.438,16.602,0.0,0
1582221900.394,16.602,33.691,23.438,18.066,0.0,0
1582221900.397,23.926,33.203,24.414,20.508000000000006,0.0,0
1582221900.401,19.043,28.32,27.832,14.648,0.0,0
1582221900.405,12.695,17.578,27.832,19.043,0.0,0
1582221900.409,11.23,32.227,29.785,22.949,0.0,0
1582221900.413,3.906,39.062,34.18,19.043,0.0,0
1582221900.415,9.277,20.508000000000006,34.668,22.461,0.0,0
1582221900.419,11.23,22.461,33.203,25.391,0.0,0
1582221900.423,0.977,32.715,32.715,25.391,0.0,0
1582221900.427,4.883,32.227,34.668,20.02,0.0,0
1582221900.431,7.812,33.691,36.621,19.531,0.0,0
1582221900.435,13.672,33.203,34.18,26.855,0.0,0
1582221900.439,15.625,30.273000000000003,34.18,21.973000000000006,0.0,0
1582221900.4420002,11.719,34.668,31.738000000000003,15.137,0.0,0
1582221900.446,20.996,26.855,33.203,23.926,0.0,0
1582221900.45,27.832,3.906,37.109,33.203,0.0,0
1582221900.454,25.391,24.902,30.762,25.391,0.0,0
1582221900.458,31.738000000000003,49.316,28.32,18.066,0.0,0
1582221900.46,23.438,35.156,31.25,16.602,0.0,0
1582221900.464,-0.488,35.156,29.785,15.625,0.0,0
1582221900.468,6.348,43.945,27.344,17.09,0.0,0
1582221900.472,18.555,39.062,27.832,15.625,0.0,0
1582221900.476,18.555,34.18,27.832,22.461,0.0,0
1582221900.48,19.043,32.715,24.414,21.973000000000006,0.0,0
1582221900.484,13.184,22.949,21.973000000000006,12.695,0.0,0
1582221900.4870002,15.625,21.484,23.438,22.949,0.0,0
1582221900.4910002,17.578,24.902,26.367,23.438,0.0,0
1582221900.495,8.789,25.391,27.832,11.23,0.0,0
1582221900.4989998,4.883,31.25,27.832,11.719,0.0,0
1582221900.5029998,7.812,37.598,26.367,18.555,0.0,0
1582221900.52,5.371,32.715,30.273000000000003,18.066,0.0,0
1582221900.524,4.883,28.809,29.297,13.672,0.0,0
1582221900.528,9.277,39.062,25.391,20.02,0.0,0
1582221900.532,0.488,35.156,25.391,19.043,0.0,0
1582221900.536,-5.859,28.32,26.855,15.137,0.0,0
1582221900.54,2.441,38.086,26.855,20.508000000000006,0.0,0
1582221900.544,5.859,31.25,24.902,20.996,0.0,0
1582221900.5470002,6.836,16.602,29.785,28.809,0.0,0
1582221900.551,15.625,21.484,31.738000000000003,34.18,0.0,0
1582221900.555,20.996,32.715,28.32,18.555,0.0,0
1582221900.559,20.996,42.969,24.414,15.625,0.0,0
1582221900.563,19.043,36.133,25.391,15.625,0.0,0
1582221900.565,9.277,32.227,25.391,14.648,0.0,0
1582221900.569,5.371,24.902,22.949,18.555,0.0,0
1582221900.573,17.578,23.438,26.367,16.113,0.0,0
1582221900.577,12.207,34.18,25.879,6.836,0.0,0
1582221900.581,11.719,35.645,20.508000000000006,8.301,0.0,0
1582221900.585,13.672,34.18,19.043,10.742,0.0,0
1582221900.589,4.883,26.367,20.02,14.16,0.0,0
1582221900.592,14.16,28.809,20.02,12.207,0.0,0
1582221900.596,18.555,34.18,20.996,8.789,0.0,0
1582221900.6,13.672,32.227,18.555,4.883,0.0,0
1582221900.604,16.113,39.551,20.02,2.441,0.0,0
1582221900.6079998,22.461,41.992,18.066,11.719,0.0,0
1582221900.61,17.09,32.715,19.043,22.949,0.0,0
1582221900.6139998,9.277,35.156,26.367,29.785,0.0,0
1582221900.6179998,18.555,34.18,21.484,26.367,0.0,0
1582221900.6220002,25.391,29.297,19.531,18.555,0.0,0
1582221900.6260002,17.09,26.855,20.996,11.719,0.0,0
1582221900.63,0.977,11.719,19.043,5.859,0.0,0
1582221900.6339998,-3.418,-2.93,20.996,2.441,0.0,0
1582221900.637,-0.977,5.859,21.973000000000006,1.465,0.0,0
1582221900.641,-2.93,35.645,23.438,3.418,0.0,0
1582221900.645,-1.953,49.316,22.949,3.906,0.0,0
1582221900.649,-4.883,41.992,22.949,3.418,0.0,0
1582221900.653,-6.836,37.598,26.367,10.254,0.0,0
1582221900.655,-2.93,32.227,23.926,13.184,0.0,0
1582221900.659,1.465,22.461,20.508000000000006,10.254,0.0,0
1582221900.663,3.906,14.648,21.484,11.23,0.0,0
1582221900.667,5.371,20.508000000000006,21.973000000000006,11.719,0.0,0
1582221900.671,9.766,18.555,26.367,14.648,0.0,0
1582221900.675,6.836,17.578,25.879,21.973000000000006,0.0,0
1582221900.679,6.348,37.598,21.484,22.461,0.0,0
1582221900.6820002,11.23,35.156,20.996,21.484,0.0,0
1582221900.686,6.348,33.203,21.973000000000006,11.719,0.0,0
1582221900.69,9.277,40.527,23.926,4.395,0.0,0
1582221900.694,16.602,35.645,24.414,14.648,0.0,0
1582221900.698,15.137,34.668,24.902,18.066,0.0,0
1582221900.699,14.648,28.809,25.879,14.648,0.0,0
1582221900.7029998,25.879,22.949,25.879,7.324,0.0,0
1582221900.707,19.531,36.621,25.391,3.418,0.0,0
1582221900.711,7.324,34.18,26.855,4.395,0.0,0
1582221900.715,14.648,29.785,31.738000000000003,7.812,0.0,0
1582221900.719,15.137,44.922,28.809,10.742,0.0,0
1582221900.7229998,6.348,47.852,26.855,8.789,0.0,0
1582221900.726,4.883,41.01600000000001,27.344,5.859,0.0,0
1582221900.73,5.859,34.18,29.297,7.812,0.0,0
1582221900.734,14.648,20.996,31.738000000000003,19.531,0.0,0
1582221900.738,19.531,18.555,30.762,15.137,0.0,0
1582221900.742,14.16,25.879,29.297,6.348,0.0,0
1582221900.744,21.973000000000006,32.227,28.32,11.719,0.0,0
1582221900.748,22.461,39.062,27.344,18.066,0.0,0
1582221900.752,15.625,36.133,27.832,12.207,0.0,0
1582221900.756,8.789,39.062,26.855,7.324,0.0,0
1582221900.76,6.836,41.504,21.484,9.277,0.0,0
1582221900.764,17.09,33.203,22.461,15.137,0.0,0
1582221900.768,17.09,32.715,25.879,20.996,0.0,0
1582221900.771,17.578,24.902,26.367,19.531,0.0,0
1582221900.775,23.438,28.32,26.855,14.16,0.0,0
1582221900.779,28.809,35.156,27.344,9.766,0.0,0
1582221900.783,37.109,26.855,24.414,16.602,0.0,0
1582221900.7870002,33.203,17.09,21.973000000000006,17.578,0.0,0
1582221900.789,22.949,28.32,22.461,17.09,0.0,0
1582221900.793,23.438,44.922,26.367,23.438,0.0,0
1582221900.7970002,22.461,38.574,31.738000000000003,24.414,0.0,0
1582221900.801,16.113,36.621,29.297,36.621,0.0,0
1582221900.805,17.578,24.414,31.25,37.598,0.0,0
1582221900.809,17.578,19.531,34.18,23.438,0.0,0
1582221900.813,6.348,34.18,30.273000000000003,22.949,0.0,0
1582221900.816,-1.953,38.574,25.879,17.578,0.0,0
1582221900.82,-14.16,23.926,26.855,19.043,0.0,0
1582221900.824,-8.789,12.207,24.902,23.926,0.0,0
1582221900.8279998,7.324,12.695,21.973000000000006,22.949,0.0,0
1582221900.832,4.883,13.672,25.391,28.809,0.0,0
1582221900.834,4.883,33.691,29.297,27.832,0.0,0
1582221900.8379998,2.441,41.992,31.25,27.344,0.0,0
1582221900.842,8.789,27.832,27.832,28.32,0.0,0
1582221900.846,12.695,29.297,24.414,22.949,0.0,0
1582221900.85,7.324,33.691,25.879,19.531,0.0,0
1582221900.854,14.16,26.855,21.973000000000006,21.484,0.0,0
1582221900.8579998,16.113,23.926,20.02,20.508000000000006,0.0,0
1582221900.861,8.789,25.391,17.578,9.277,0.0,2
1582221900.865,10.254,21.973000000000006,19.531,14.16,0.0,0
1582221900.869,14.16,23.438,23.438,19.531,0.0,0
1582221900.873,13.184,17.09,22.949,14.16,0.0,0
1582221900.877,18.555,23.926,23.926,14.648,0.0,0
1582221900.894,14.16,44.434,24.414,19.531,0.0,0
1582221900.8979998,12.695,45.898,25.391,23.926,0.0,0
1582221900.9020002,20.508000000000006,39.062,30.762,25.879,0.0,0
1582221900.906,23.438,30.762,33.203,30.762,0.0,0
1582221900.91,16.602,27.344,31.738000000000003,30.762,0.0,0
1582221900.914,14.648,23.438,32.715,25.391,0.0,0
1582221900.918,17.578,24.902,31.25,23.438,0.0,0
1582221900.921,11.719,28.32,29.785,27.832,0.0,0
1582221900.925,0.977,21.484,30.273000000000003,24.414,0.0,0
1582221900.929,3.906,20.508000000000006,33.691,21.973000000000006,0.0,0
1582221900.9329998,5.859,27.344,31.25,21.973000000000006,0.0,0
1582221900.937,12.207,34.18,29.297,25.879,0.0,0
1582221900.939,20.508000000000006,48.34,31.738000000000003,25.879,0.0,0
1582221900.9429998,16.602,46.387,29.297,9.277,0.0,0
1582221900.947,11.23,37.109,26.855,9.277,0.0,0
1582221900.951,7.324,39.062,28.32,18.066,0.0,0
1582221900.955,17.09,40.527,28.809,16.113,0.0,0
1582221900.959,26.855,30.273000000000003,24.902,13.672,0.0,0
1582221900.9629998,27.344,23.926,21.973000000000006,17.09,0.0,0
1582221900.966,30.273000000000003,20.996,25.391,24.902,0.0,0
1582221900.97,32.227,18.555,24.414,18.555,0.0,0
1582221900.974,30.762,39.062,22.949,12.695,0.0,0
1582221900.978,17.578,50.78100000000001,21.973000000000006,23.926,0.0,0
1582221900.982,15.137,41.01600000000001,23.438,24.902,0.0,0
1582221900.984,27.344,34.668,27.832,22.461,0.0,0
1582221900.988,32.227,36.621,28.32,28.32,0.0,0
1582221900.992,26.855,22.949,26.855,29.785,0.0,0
1582221900.996,21.973000000000006,21.484,24.902,28.809,0.0,0
1582221901.0,16.113,25.391,24.902,22.461,0.0,0
1582221901.004,20.508000000000006,34.18,24.414,20.508000000000006,0.0,0
1582221901.008,22.461,42.48,20.996,21.484,0.0,0
1582221901.0110002,9.277,22.949,23.926,13.672,0.0,0
1582221901.015,15.137,24.902,24.414,24.414,0.0,0
1582221901.019,26.855,48.34,20.02,18.555,0.0,0
1582221901.0229998,22.461,44.434,17.578,12.695,0.0,0
1582221901.0270002,23.926,32.715,18.555,22.461,0.0,0
1582221901.029,35.156,30.273000000000003,20.508000000000006,25.879,0.0,0
1582221901.033,34.668,19.531,22.949,33.203,0.0,0
1582221901.0370002,38.574,19.043,25.391,35.645,0.0,0
1582221901.041,42.48,40.527,25.879,32.715,0.0,0
1582221901.045,37.598,43.945,28.32,32.227,0.0,0
1582221901.049,35.156,35.156,29.785,38.574,0.0,0
1582221901.053,42.48,31.738000000000003,26.855,43.945,0.0,0
1582221901.056,43.945,25.391,25.879,39.551,0.0,0
1582221901.06,35.156,31.738000000000003,28.32,29.785,0.0,0
1582221901.064,39.551,33.203,31.738000000000003,33.203,0.0,0
1582221901.0679998,40.527,33.691,31.738000000000003,39.551,0.0,0
1582221901.072,39.062,35.645,30.762,36.133,0.0,0
1582221901.075,39.062,29.297,30.273000000000003,37.598,0.0,0
1582221901.079,30.273000000000003,40.039,29.297,27.832,0.0,0
1582221901.083,30.762,43.457,28.32,23.438,0.0,0
1582221901.087,30.762,40.527,25.879,26.855,0.0,0
1582221901.091,22.949,43.457,21.973000000000006,20.996,0.0,0
1582221901.095,19.043,41.504,20.508000000000006,18.066,0.0,0
1582221901.099,18.066,38.086,20.02,16.113,0.0,0
1582221901.1020002,16.113,28.809,24.414,10.254,0.0,0
1582221901.106,10.742,21.484,28.809,13.184,0.0,0
1582221901.11,14.648,30.273000000000003,26.367,19.531,0.0,0
1582221901.1139998,18.066,21.973000000000006,25.391,24.414,0.0,0
1582221901.1179998,19.043,20.02,26.367,26.367,0.0,0
1582221901.12,25.879,25.391,27.832,29.297,0.0,0
1582221901.1239998,24.414,33.203,26.855,38.574,0.0,0
1582221901.1279998,21.484,43.457,26.367,34.18,0.0,0
1582221901.1320002,24.902,39.551,25.391,26.367,0.0,0
1582221901.1360002,20.996,37.598,26.855,28.809,0.0,0
1582221901.14,20.996,36.133,26.855,35.645,0.0,0
1582221901.144,31.25,27.832,22.949,41.992,0.0,0
1582221901.147,40.039,21.973000000000006,23.438,38.574,0.0,0
1582221901.151,34.18,30.762,23.926,29.297,0.0,0
1582221901.155,29.297,31.738000000000003,22.949,36.133,0.0,0
1582221901.159,33.691,36.133,22.949,44.922,0.0,0
1582221901.163,35.645,48.828,22.461,35.645,0.0,0
1582221901.165,39.062,40.527,21.973000000000006,29.785,0.0,0
1582221901.169,38.574,25.391,22.949,33.691,0.0,0
1582221901.173,35.156,25.391,21.484,29.785,0.0,0
1582221901.177,26.855,31.25,22.949,23.926,0.0,0
1582221901.181,18.066,28.809,22.461,18.066,0.0,0
1582221901.185,18.066,28.32,21.484,15.625,0.0,0
1582221901.189,17.09,37.109,23.438,17.578,0.0,0
1582221901.1920002,11.23,39.062,24.902,16.602,0.0,0
1582221901.196,14.648,31.25,24.902,19.531,0.0,0
1582221901.2,18.066,34.18,26.367,19.531,0.0,0
1582221901.204,18.555,39.551,25.879,19.531,0.0,0
1582221901.208,21.484,34.18,23.926,22.949,0.0,0
1582221901.21,24.414,27.832,25.879,24.414,0.0,0
1582221901.214,29.297,22.461,26.855,25.879,0.0,0
1582221901.218,24.902,18.066,25.391,27.832,0.0,0
1582221901.222,26.855,30.762,25.879,29.297,0.0,0
1582221901.226,31.25,41.504,26.367,23.438,0.0,0
1582221901.23,31.25,41.01600000000001,25.879,25.879,0.0,0
1582221901.234,32.227,42.48,26.367,21.973000000000006,0.0,0
1582221901.2370002,26.855,38.086,26.367,17.09,0.0,0
1582221901.2410002,27.832,24.902,27.344,27.344,0.0,0
1582221901.245,34.668,20.996,27.832,26.855,0.0,0
1582221901.2489998,28.32,25.391,27.344,19.531,0.0,0
1582221901.2529998,19.043,20.996,27.832,19.531,0.0,0
1582221901.27,19.531,32.227,27.832,22.949,0.0,0
1582221901.274,19.531,32.227,32.227,19.531,0.0,0
1582221901.278,21.484,30.762,33.203,21.973000000000006,0.0,0
1582221901.282,15.625,35.156,32.715,19.531,0.0,0
1582221901.286,8.789,36.621,32.227,16.602,0.0,0
1582221901.29,13.672,40.039,27.344,18.066,0.0,0
1582221901.294,16.602,31.738000000000003,27.832,11.719,0.0,0
1582221901.2970002,11.719,31.25,28.809,19.531,0.0,0
1582221901.301,12.695,28.32,30.273000000000003,25.879,0.0,0
1582221901.305,17.09,6.836,31.25,20.996,0.0,0
1582221901.309,16.602,18.066,30.273000000000003,20.996,0.0,0
1582221901.313,15.137,31.738000000000003,27.344,21.484,0.0,0
1582221901.315,19.043,19.531,25.391,24.902,0.0,0
1582221901.319,18.066,23.438,21.973000000000006,26.855,0.0,0
1582221901.323,21.484,40.527,21.484,24.902,0.0,0
1582221901.327,24.902,36.621,24.902,26.367,0.0,0
1582221901.331,16.602,34.668,24.902,28.809,0.0,0
1582221901.335,11.23,35.156,26.855,24.902,0.0,0
1582221901.339,14.16,37.598,22.949,19.531,0.0,0
1582221901.342,18.555,32.715,17.578,17.578,0.0,0
1582221901.346,17.578,19.043,17.09,20.996,0.0,0
1582221901.35,19.531,20.508000000000006,16.602,21.973000000000006,0.0,0
1582221901.354,21.973000000000006,19.043,18.555,20.02,0.0,0
1582221901.3579998,20.508000000000006,28.32,20.02,18.555,0.0,0
1582221901.36,15.625,46.387,20.02,12.207,0.0,0
1582221901.3639998,12.695,34.668,21.484,13.672,0.0,0
1582221901.3679998,19.043,28.809,25.879,20.02,0.0,0
1582221901.3720002,23.926,41.504,23.926,22.461,0.0,0
1582221901.3760002,30.273000000000003,42.969,22.461,23.926,0.0,0
1582221901.38,20.996,34.18,23.438,23.438,0.0,0
1582221901.3839998,7.812,36.133,22.461,20.02,0.0,0
1582221901.387,13.184,34.668,24.902,15.137,0.0,0
1582221901.391,12.207,20.02,27.344,17.578,0.0,0
1582221901.395,7.812,29.297,26.367,20.508000000000006,0.0,0
1582221901.399,12.207,41.01600000000001,24.414,26.367,0.0,0
1582221901.403,17.578,26.367,26.855,28.32,0.0,0
1582221901.406,20.508000000000006,11.719,27.832,26.855,0.0,0
1582221901.41,21.484,23.438,26.855,26.855,0.0,0
1582221901.414,16.602,34.668,28.32,17.09,0.0,0
1582221901.418,19.531,34.18,27.344,16.602,0.0,0
1582221901.4220002,27.344,38.574,25.879,24.902,0.0,0
1582221901.426,13.184,39.551,27.832,20.508000000000006,0.0,0
1582221901.43,9.277,28.32,27.344,19.043,0.0,0
1582221901.4329998,18.066,23.926,25.879,18.066,0.0,0
1582221901.437,17.578,37.598,25.879,11.23,0.0,0
1582221901.441,18.555,30.273000000000003,27.832,15.625,0.0,0
1582221901.445,20.02,24.414,29.297,18.555,0.0,0
1582221901.449,18.555,30.762,31.738000000000003,12.695,0.0,0
1582221901.45,23.438,33.691,31.738000000000003,20.02,0.0,0
1582221901.454,20.996,35.156,28.809,16.602,0.0,0
1582221901.458,16.113,32.715,31.738000000000003,12.207,0.0,0
1582221901.462,17.578,46.387,33.203,12.695,0.0,0
1582221901.466,12.207,45.41,28.809,6.348,0.0,0
1582221901.47,4.883,33.203,28.32,13.672,0.0,0
1582221901.474,11.23,38.086,33.691,20.996,0.0,0
1582221901.4770002,16.113,37.598,36.133,19.043,0.0,0
1582221901.481,16.602,24.414,36.621,14.16,0.0,0
1582221901.485,16.602,24.902,38.574,11.23,0.0,0
1582221901.4889998,9.277,32.715,36.621,14.16,0.0,0
1582221901.4929998,7.812,25.391,38.574,16.113,0.0,0
1582221901.495,12.207,31.738000000000003,36.621,14.648,0.0,0
1582221901.4989998,10.742,35.156,30.762,8.301,0.0,0
1582221901.5029998,10.254,29.785,32.715,8.789,0.0,0
1582221901.5070002,9.766,34.18,34.18,15.625,0.0,0
1582221901.5110002,5.371,37.109,33.691,14.648,0.0,0
1582221901.515,11.23,37.109,35.645,17.09,0.0,0
1582221901.519,12.695,32.715,36.621,23.438,0.0,0
1582221901.522,6.836,37.109,33.691,20.996,0.0,0
1582221901.526,6.348,38.574,33.203,17.09,0.0,0
1582221901.53,8.789,33.203,32.227,15.625,0.0,0
1582221901.534,8.789,23.438,32.227,20.508000000000006,0.0,0
1582221901.538,1.465,20.508000000000006,34.18,17.578,0.0,0
1582221901.54,4.395,24.902,30.273000000000003,11.719,0.0,0
1582221901.544,15.137,27.344,29.785,15.625,0.0,0
1582221901.548,9.766,36.621,32.715,15.625,0.0,0
1582221901.552,12.695,42.48,29.785,20.996,0.0,0
1582221901.556,14.16,37.598,30.273000000000003,18.066,0.0,0
1582221901.56,4.395,34.18,30.273000000000003,9.766,0.0,0
1582221901.564,11.23,33.691,27.344,11.719,0.0,0
1582221901.5670002,15.137,20.02,26.855,9.766,0.0,0
1582221901.571,9.766,22.461,24.414,3.906,0.0,0
1582221901.575,10.742,30.273000000000003,23.926,0.0,0.0,0
1582221901.579,15.137,20.996,23.926,8.301,0.0,0
1582221901.583,12.695,27.344,25.879,13.672,0.0,0
1582221901.585,7.812,38.086,27.832,16.113,0.0,0
1582221901.589,15.137,35.645,26.367,20.996,0.0,0
1582221901.593,23.438,39.062,27.832,19.043,0.0,0
1582221901.597,26.367,38.086,30.273000000000003,20.02,0.0,0
1582221901.601,20.508000000000006,27.832,31.25,20.02,0.0,0
1582221901.605,15.137,28.809,28.809,26.367,0.0,0
1582221901.609,22.949,27.344,28.32,36.133,0.0,0
1582221901.6120002,21.484,27.832,32.715,26.367,0.0,0
1582221901.6160002,4.883,36.621,34.668,20.02,0.0,0
1582221901.62,3.418,28.32,33.691,28.32,0.0,0
1582221901.6239998,4.883,9.766,36.133,31.25,0.0,0
1582221901.6279998,-2.441,19.531,39.551,24.902,0.0,0
1582221901.645,-4.395,37.109,36.133,18.555,0.0,0
1582221901.649,-2.441,41.504,34.18,21.484,0.0,0
1582221901.653,0.977,44.434,34.668,23.438,0.0,0
1582221901.657,1.465,33.691,31.738000000000003,18.066,0.0,0
1582221901.661,3.906,23.438,31.738000000000003,22.461,0.0,0
1582221901.665,3.418,28.32,33.691,23.438,0.0,0
1582221901.669,4.883,18.555,31.25,13.672,0.0,0
1582221901.6720002,12.695,11.23,29.785,10.742,0.0,0
1582221901.676,17.578,26.855,31.25,18.555,0.0,0
1582221901.68,11.719,41.01600000000001,28.809,16.113,0.0,0
1582221901.684,12.695,51.27,22.949,11.719,0.0,0
1582221901.688,16.113,42.969,23.438,15.137,0.0,0
1582221901.69,20.02,36.133,25.391,19.043,0.0,0
1582221901.694,20.996,40.039,22.949,17.578,0.0,0
1582221901.698,12.207,33.203,23.926,14.648,0.0,0
1582221901.702,20.02,27.832,25.391,24.414,0.0,0
1582221901.706,24.414,29.785,25.879,20.02,0.0,0
1582221901.71,15.625,18.066,25.391,10.742,0.0,0
1582221901.714,8.301,13.672,24.902,15.625,0.0,0
1582221901.717,3.418,32.227,28.32,14.16,0.0,0
1582221901.721,1.953,37.598,28.809,15.137,0.0,0
1582221901.725,1.953,33.691,23.926,14.648,0.0,0
1582221901.729,2.93,35.645,22.949,20.996,0.0,0
1582221901.7329998,-1.465,36.621,19.531,24.902,0.0,0
1582221901.735,-1.953,34.18,17.09,20.02,0.0,0
1582221901.7389998,6.836,29.785,23.926,18.555,0.0,0
1582221901.7429998,11.719,31.738000000000003,26.367,18.066,0.0,0
1582221901.7470002,15.137,33.691,22.949,25.391,0.0,0
1582221901.7510002,22.949,15.625,24.902,28.32,0.0,0
1582221901.755,26.855,19.043,26.367,21.484,0.0,0
1582221901.7589998,28.32,35.645,24.414,23.438,0.0,0
1582221901.762,31.738000000000003,39.062,22.461,28.32,0.0,0
1582221901.766,18.555,34.668,20.996,18.555,0.0,0
1582221901.77,16.113,36.621,25.391,13.184,0.0,0
1582221901.774,23.926,40.527,27.344,14.16,0.0,0
1582221901.778,13.672,41.992,24.902,8.301,0.0,0
1582221901.779,14.648,40.527,23.438,6.836,0.0,0
1582221901.783,19.043,25.879,24.902,12.695,0.0,0
1582221901.7870002,10.254,23.926,24.414,11.719,0.0,0
1582221901.791,4.883,32.715,22.461,12.207,0.0,0
1582221901.795,6.836,31.25,26.367,21.973000000000006,0.0,0
1582221901.799,7.812,34.18,25.391,20.02,0.0,0
1582221901.803,6.836,26.367,20.996,13.184,0.0,0
1582221901.806,5.859,25.879,23.438,20.996,0.0,0
1582221901.81,11.23,30.762,24.902,24.414,0.0,0
1582221901.814,10.742,26.855,19.531,22.461,0.0,0
1582221901.8179998,8.789,33.203,20.02,25.879,0.0,0
1582221901.822,16.113,31.738000000000003,25.391,25.879,0.0,0
1582221901.824,20.508000000000006,39.551,24.414,27.832,0.0,0
1582221901.8279998,22.949,39.551,21.484,25.879,0.0,0
1582221901.832,21.973000000000006,35.645,22.461,16.602,0.0,0
1582221901.836,17.578,36.133,22.461,15.137,0.0,0
1582221901.84,12.695,28.32,26.855,19.531,0.0,0
1582221901.844,12.695,27.832,25.391,20.996,0.0,0
1582221901.8479998,16.113,29.785,22.461,16.602,0.0,0
1582221901.851,18.066,25.879,24.902,15.625,0.0,0
1582221901.855,16.602,29.297,25.879,18.066,0.0,0
1582221901.859,11.23,26.367,28.32,15.625,0.0,0
1582221901.863,10.742,24.414,28.32,12.695,0.0,0
1582221901.867,13.672,35.156,25.391,12.695,0.0,0
1582221901.869,12.207,40.039,26.855,11.719,0.0,0
1582221901.873,19.531,36.133,31.25,14.16,0.0,0
1582221901.877,26.367,38.574,29.785,17.09,0.0,0
1582221901.881,20.996,30.273000000000003,27.344,16.602,0.0,0
1582221901.885,17.09,32.227,23.438,12.207,0.0,0
1582221901.889,19.531,37.109,21.973000000000006,14.648,0.0,0
1582221901.893,27.344,21.973000000000006,25.879,20.508000000000006,0.0,0
1582221901.896,27.344,20.02,26.855,20.02,0.0,0
1582221901.9,25.879,20.508000000000006,23.926,23.438,0.0,0
1582221901.904,21.973000000000006,30.273000000000003,25.879,27.832,0.0,0
1582221901.908,18.066,39.551,26.367,24.414,0.0,0
1582221901.9120002,22.949,35.156,23.438,21.484,0.0,0
1582221901.914,23.438,33.203,24.414,20.996,0.0,0
1582221901.918,21.484,34.668,21.484,23.438,0.0,0
1582221901.9220002,21.484,37.109,19.531,20.02,0.0,0
1582221901.926,20.02,37.598,21.973000000000006,20.996,0.0,0
1582221901.93,20.02,29.297,22.949,26.855,0.0,0
1582221901.934,23.926,29.297,22.461,26.855,0.0,0
1582221901.938,15.625,25.879,21.973000000000006,19.043,0.0,0
1582221901.941,11.719,20.508000000000006,20.508000000000006,12.695,0.0,0
1582221901.945,20.996,32.227,20.02,13.184,0.0,0
1582221901.949,16.113,38.086,20.508000000000006,14.16,0.0,0
1582221901.9529998,15.137,32.227,24.902,15.137,0.0,0
1582221901.957,21.973000000000006,32.715,26.855,19.531,0.0,0
1582221901.959,22.461,34.668,23.926,21.973000000000006,0.0,0
1582221901.9629998,20.02,31.738000000000003,22.949,17.09,0.0,0
1582221901.967,16.602,25.391,24.902,15.137,0.0,0
1582221901.971,13.184,22.461,27.832,17.578,0.0,1
1582221901.975,16.602,32.227,28.809,20.996,0.0,0
1582221901.979,29.785,35.156,29.785,26.855,0.0,0
1582221901.9829998,28.809,34.18,29.297,25.879,0.0,0
1582221901.986,21.973000000000006,39.551,29.785,25.879,0.0,0
1582221901.99,27.832,34.668,27.832,33.691,0.0,0
1582221901.994,30.762,22.949,28.809,35.156,0.0,0
1582221901.998,22.461,13.184,31.738000000000003,33.203,0.0,0
1582221902.002,12.207,29.297,32.715,28.32,0.0,0
1582221902.019,16.113,43.457,31.738000000000003,25.879,0.0,0
1582221902.0229998,14.648,42.48,27.832,25.879,0.0,0
1582221902.0270002,10.254,35.156,26.855,23.926,0.0,0
1582221902.031,9.277,22.461,30.273000000000003,19.043,0.0,0
1582221902.035,2.93,35.156,31.25,15.137,0.0,0
1582221902.039,1.953,35.645,31.738000000000003,12.695,0.0,0
1582221902.043,8.301,24.414,30.273000000000003,8.301,0.0,0
1582221902.046,10.742,27.832,29.297,9.277,0.0,0
1582221902.05,11.23,31.25,29.785,9.277,0.0,0
1582221902.054,17.578,17.09,25.391,8.789,0.0,0
1582221902.0579998,22.461,17.578,23.438,19.043,0.0,0
1582221902.062,19.531,40.039,22.949,20.996,0.0,0
1582221902.064,13.184,38.086,24.414,15.625,0.0,0
1582221902.0679998,20.02,34.668,22.461,18.066,0.0,0
1582221902.072,29.785,42.969,21.484,17.578,0.0,0
1582221902.076,27.344,36.133,21.484,23.438,0.0,0
1582221902.08,25.391,29.785,18.066,20.508000000000006,0.0,0
1582221902.084,25.391,36.133,17.578,20.996,0.0,0
1582221902.0879998,25.879,37.598,20.508000000000006,27.832,0.0,0
1582221902.091,31.738000000000003,36.621,22.461,24.902,0.0,0
1582221902.095,25.391,29.785,19.531,27.344,0.0,0
1582221902.099,18.555,21.484,21.973000000000006,28.32,0.0,0
1582221902.103,20.996,25.391,25.391,21.973000000000006,0.0,0
1582221902.107,13.184,41.01600000000001,26.367,20.02,0.0,0
1582221902.109,2.93,40.527,26.367,18.066,0.0,0
1582221902.113,-1.465,40.527,26.367,18.555,0.0,0
1582221902.117,4.883,36.133,30.273000000000003,19.043,0.0,0
1582221902.121,9.277,29.785,34.18,19.531,0.0,0
1582221902.125,10.742,33.691,31.25,13.184,0.0,0
1582221902.129,9.277,37.598,26.367,13.672,0.0,0
1582221902.133,1.465,30.762,26.855,21.484,0.0,0
1582221902.1360002,10.742,27.344,25.391,20.996,0.0,0
1582221902.14,22.461,36.621,24.414,20.996,0.0,0
1582221902.144,20.508000000000006,28.32,29.297,16.602,0.0,0
1582221902.1479998,24.902,25.391,27.344,16.602,0.0,0
1582221902.1520002,32.227,38.574,20.508000000000006,22.461,0.0,0
1582221902.155,33.203,44.434,19.531,22.949,0.0,0
1582221902.159,27.344,39.551,19.043,24.414,0.0,0
1582221902.163,24.902,33.691,18.066,19.531,0.0,0
1582221902.167,36.133,27.832,20.02,16.113,0.0,0
1582221902.171,41.992,21.973000000000006,21.484,23.438,0.0,0
1582221902.175,29.297,27.344,20.508000000000006,26.855,0.0,0
1582221902.179,15.137,41.504,20.508000000000006,22.461,0.0,0
1582221902.1820002,13.672,43.945,20.996,16.113,0.0,0
1582221902.186,11.719,36.133,22.461,12.695,0.0,0
1582221902.19,6.348,29.785,21.973000000000006,11.23,0.0,0
1582221902.194,5.371,15.137,21.973000000000006,13.184,0.0,0
1582221902.198,13.672,14.648,21.484,19.531,0.0,0
1582221902.2,16.113,26.855,23.438,20.02,0.0,0
1582221902.204,15.137,27.344,27.344,21.484,0.0,0
1582221902.208,12.207,26.367,26.855,28.32,0.0,0
1582221902.212,10.742,32.715,25.879,27.832,0.0,0
1582221902.216,17.09,34.18,26.855,25.391,0.0,0
1582221902.22,22.461,25.879,24.902,23.438,0.0,0
1582221902.224,19.531,35.645,21.484,23.926,0.0,0
1582221902.2270002,14.16,43.457,22.461,23.438,0.0,0
1582221902.231,14.648,29.297,22.949,20.02,0.0,0
1582221902.235,22.461,22.461,23.438,22.461,0.0,0
1582221902.2389998,21.484,41.01600000000001,21.484,20.508000000000006,0.0,0
1582221902.2429998,20.508000000000006,36.621,21.973000000000006,18.066,0.0,0
1582221902.245,25.391,32.227,22.949,23.926,0.0,0
1582221902.2489998,23.926,28.32,25.879,20.508000000000006,0.0,0
1582221902.2529998,19.531,21.484,28.32,17.09,0.0,0
1582221902.2570002,14.16,30.762,24.414,15.137,0.0,0
1582221902.2610002,15.625,29.785,23.926,18.555,0.0,0
1582221902.265,12.695,34.18,24.902,20.02,0.0,0
1582221902.269,14.16,43.945,22.461,16.602,0.0,0
1582221902.272,14.648,43.457,22.461,12.695,0.0,0
1582221902.276,7.812,41.01600000000001,23.926,5.859,0.0,0
1582221902.28,9.277,34.18,26.855,12.207,0.0,0
1582221902.284,16.113,31.738000000000003,31.738000000000003,16.602,0.0,0
1582221902.288,12.695,35.645,34.668,14.648,0.0,0
1582221902.29,11.719,26.855,33.691,18.555,0.0,0
1582221902.294,14.16,25.391,31.738000000000003,15.625,0.0,0
1582221902.298,20.02,28.32,37.109,12.207,0.0,0
1582221902.302,21.973000000000006,20.508000000000006,38.574,11.23,0.0,0
1582221902.306,17.09,17.09,33.691,11.719,0.0,0
1582221902.31,16.113,23.438,32.715,15.625,0.0,0
1582221902.314,18.555,29.785,32.227,16.602,0.0,0
1582221902.3170002,14.648,37.109,33.691,17.09,0.0,0
1582221902.321,0.488,39.551,31.738000000000003,13.672,0.0,0
1582221902.325,0.488,41.01600000000001,29.785,16.602,0.0,0
1582221902.329,10.742,29.785,32.715,21.484,0.0,0
1582221902.333,15.137,27.344,34.18,19.531,0.0,0
1582221902.335,12.695,35.156,37.109,20.02,0.0,0
1582221902.339,13.184,26.855,36.621,20.02,0.0,0
1582221902.343,18.555,18.555,32.715,14.648,0.0,0
1582221902.347,20.02,20.508000000000006,35.645,11.719,0.0,0
1582221902.351,19.531,40.039,38.086,16.602,0.0,0
1582221902.355,19.531,53.223,34.668,20.996,0.0,0
1582221902.359,24.902,48.34,31.738000000000003,20.508000000000006,0.0,0
1582221902.3620002,32.715,39.062,31.25,19.043,0.0,0
1582221902.3660002,36.621,36.621,35.645,20.02,0.0,0
1582221902.37,32.715,28.32,38.086,25.879,0.0,0
1582221902.3739998,24.414,29.785,38.574,19.531,0.0,0
1582221902.3779998,29.297,41.992,39.062,12.207,0.0,0
1582221902.395,26.855,35.645,37.598,17.09,0.0,0
1582221902.399,21.973000000000006,40.527,37.598,17.578,0.0,0
1582221902.403,22.461,42.969,36.621,19.531,0.0,0
1582221902.407,21.484,31.738000000000003,36.133,21.973000000000006,0.0,0
1582221902.411,21.484,31.738000000000003,41.992,22.949,0.0,0
1582221902.415,16.113,46.875,41.01600000000001,28.809,0.0,0
1582221902.419,11.23,41.504,36.621,31.25,0.0,0
1582221902.4220002,16.602,29.297,37.598,31.738000000000003,0.0,0
1582221902.426,19.043,28.809,36.621,31.738000000000003,0.0,0
1582221902.43,14.648,30.762,33.203,32.715,0.0,0
1582221902.434,7.324,27.832,35.156,31.738000000000003,0.0,0
1582221902.438,5.859,19.043,37.109,27.832,0.0,0
1582221902.44,10.742,30.273000000000003,33.203,23.926,0.0,0
1582221902.444,6.836,37.109,32.715,19.531,0.0,0
1582221902.448,3.906,23.438,32.715,21.484,0.0,0
1582221902.452,6.836,37.109,28.809,20.508000000000006,0.0,0
1582221902.456,14.648,45.898,30.273000000000003,17.09,0.0,0
1582221902.46,21.973000000000006,44.434,31.738000000000003,24.414,0.0,0
1582221902.464,25.391,48.828,28.32,24.414,0.0,0
1582221902.467,34.18,41.01600000000001,28.809,12.695,0.0,0
1582221902.471,44.434,33.691,31.738000000000003,12.695,0.0,0
1582221902.475,47.852,41.504,31.738000000000003,13.672,0.0,0
1582221902.479,46.387,41.01600000000001,28.809,16.602,0.0,0
1582221902.4829998,44.922,32.715,26.855,22.461,0.0,0
1582221902.485,45.898,21.484,28.809,26.855,0.0,0
1582221902.4889998,41.992,22.461,29.785,30.762,0.0,0
1582221902.4929998,21.484,39.551,30.273000000000003,27.344,0.0,0
1582221902.4970002,15.137,39.551,35.156,34.668,0.0,0
1582221902.5010002,19.043,35.156,36.621,42.48,0.0,0
1582221902.505,12.695,32.227,34.668,36.621,0.0,0
1582221902.5089998,8.301,37.598,35.156,33.203,0.0,0
1582221902.512,9.766,41.01600000000001,37.598,37.109,0.0,0
1582221902.516,15.625,38.086,36.621,38.574,0.0,0
1582221902.52,14.648,34.18,32.715,25.391,0.0,0
1582221902.524,8.301,22.949,32.227,17.09,0.0,0
1582221902.528,3.906,27.344,27.832,19.043,0.0,0
1582221902.53,1.465,24.414,28.809,12.695,0.0,0
1582221902.534,6.836,14.16,32.715,7.324,0.0,0
1582221902.538,14.16,36.621,26.855,16.113,0.0,0
1582221902.542,13.672,42.969,24.414,17.578,0.0,0
1582221902.546,12.695,47.363,23.926,9.277,0.0,0
1582221902.55,22.949,39.062,22.949,13.184,0.0,0
1582221902.554,23.438,35.645,23.926,19.043,0.0,0
1582221902.5570002,20.996,47.852,27.344,20.508000000000006,0.0,0
1582221902.561,26.367,40.527,26.855,20.996,0.0,0
1582221902.565,32.715,29.297,27.832,23.926,0.0,0
1582221902.569,33.691,30.762,28.809,26.367,0.0,0
1582221902.573,24.414,36.621,27.344,20.02,0.0,0
1582221902.575,21.484,25.391,26.855,20.996,0.0,0
1582221902.579,27.344,20.02,26.855,31.25,0.0,0
1582221902.583,33.203,43.457,26.367,27.832,0.0,0
1582221902.587,31.738000000000003,52.246,27.344,18.066,0.0,0
1582221902.591,29.785,44.434,29.785,16.602,0.0,0
1582221902.595,32.715,45.898,27.832,23.926,0.0,0
1582221902.599,32.715,46.387,23.438,25.391,0.0,0
1582221902.6020002,28.32,31.738000000000003,21.484,23.926,0.0,0
1582221902.606,26.367,33.691,25.391,22.461,0.0,0
1582221902.61,18.066,38.574,26.855,18.555,0.0,0
1582221902.6139998,12.695,31.25,23.438,16.113,0.0,0
1582221902.6179998,14.16,23.926,23.438,13.672,0.0,0
1582221902.62,6.836,21.484,26.367,17.578,0.0,0
1582221902.6239998,4.883,30.273000000000003,26.855,21.484,0.0,0
1582221902.6279998,11.23,38.086,22.461,14.648,0.0,0
1582221902.6320002,18.066,29.785,20.996,11.23,0.0,0
1582221902.6360002,15.137,24.414,25.391,14.648,0.0,0
1582221902.64,12.207,32.227,24.902,20.508000000000006,0.0,0
1582221902.644,14.16,41.01600000000001,24.902,21.973000000000006,0.0,0
1582221902.647,19.043,41.504,26.367,17.09,0.0,0
1582221902.651,22.949,25.879,24.902,24.414,0.0,0
1582221902.655,19.531,27.344,25.879,27.832,0.0,0
1582221902.659,20.996,37.109,26.855,30.273000000000003,0.0,0
1582221902.663,26.367,23.438,29.297,25.391,0.0,0
1582221902.665,24.414,21.973000000000006,32.227,14.648,0.0,0
1582221902.669,20.02,28.809,30.273000000000003,19.043,0.0,0
1582221902.673,20.996,20.02,31.738000000000003,20.996,0.0,0
1582221902.677,24.902,13.672,33.203,20.02,0.0,0
1582221902.681,23.926,15.625,29.297,17.578,0.0,0
1582221902.685,15.625,32.227,27.832,16.602,0.0,0
1582221902.689,13.184,50.293,29.785,20.02,0.0,0
1582221902.6920002,20.996,43.945,33.203,23.438,0.0,0
1582221902.696,14.16,32.227,33.691,21.973000000000006,0.0,0
1582221902.7,8.301,22.949,37.109,23.438,0.0,0
1582221902.704,11.719,25.391,39.062,24.414,0.0,0
1582221902.708,16.113,27.344,35.645,27.832,0.0,0
1582221902.71,20.996,28.32,36.133,31.738000000000003,0.0,0
1582221902.714,20.996,24.902,40.039,32.227,0.0,0
1582221902.718,18.555,16.113,37.598,32.715,0.0,0
1582221902.722,13.672,28.32,35.156,26.855,0.0,0
1582221902.726,12.207,36.621,35.156,23.438,0.0,0
1582221902.73,17.09,35.645,34.668,19.531,0.0,0
1582221902.734,13.184,39.062,34.18,18.066,0.0,0
1582221902.7370002,5.859,33.691,36.133,17.578,0.0,0
1582221902.7410002,8.789,17.578,37.598,16.602,0.0,0
1582221902.745,14.648,20.996,32.227,19.043,0.0,0
1582221902.7489998,19.043,31.25,33.691,21.484,0.0,0
1582221902.7529998,13.184,34.668,39.551,19.043,0.0,0
1582221902.77,14.648,31.25,40.039,12.695,0.0,0
1582221902.774,21.484,23.926,40.039,11.23,0.0,0
1582221902.778,20.02,32.227,38.574,16.602,0.0,0
1582221902.782,10.254,41.01600000000001,37.109,14.16,0.0,0
1582221902.786,11.719,33.203,39.551,18.066,0.0,0
1582221902.79,22.461,34.18,39.551,22.461,0.0,0
1582221902.794,21.973000000000006,40.039,38.574,14.16,0.0,0
1582221902.7970002,21.484,29.785,41.01600000000001,14.16,0.0,0
1582221902.801,23.926,23.926,41.504,20.996,0.0,0
1582221902.805,26.367,31.738000000000003,41.504,25.391,0.0,0
1582221902.809,25.879,24.902,39.551,20.996,0.0,0
1582221902.813,19.043,15.625,34.668,18.555,0.0,0
1582221902.815,12.207,28.32,36.133,22.949,0.0,0
1582221902.819,16.113,30.762,37.109,22.461,0.0,0
1582221902.823,18.555,34.668,35.156,14.648,0.0,0
1582221902.827,12.695,48.828,31.25,14.648,0.0,0
1582221902.831,11.719,45.898,29.785,22.949,0.0,0
1582221902.835,16.602,32.227,30.273000000000003,25.879,0.0,0
1582221902.839,19.531,34.668,31.738000000000003,20.508000000000006,0.0,0
1582221902.842,14.648,39.551,32.227,20.508000000000006,0.0,0
1582221902.846,7.324,26.855,31.738000000000003,17.09,0.0,0
1582221902.85,3.906,17.578,27.344,10.742,0.0,0
1582221902.854,3.418,21.973000000000006,26.367,5.371,0.0,0
1582221902.8579998,2.93,31.25,26.855,5.859,0.0,0
1582221902.86,0.977,41.992,23.438,15.625,0.0,0
1582221902.8639998,0.488,38.574,22.949,17.578,0.0,0
1582221902.8679998,7.812,35.156,21.973000000000006,12.695,0.0,0
1582221902.8720002,9.766,29.785,21.484,13.184,0.0,0
1582221902.8760002,10.742,21.484,26.367,17.09,0.0,0
1582221902.88,12.695,29.297,28.32,19.043,0.0,0
1582221902.8839998,9.766,23.438,26.855,13.184,0.0,0
1582221902.887,7.324,21.973000000000006,26.855,6.348,0.0,0
1582221902.891,5.859,36.133,28.32,9.766,0.0,0
1582221902.895,4.883,30.273000000000003,30.273000000000003,12.695,0.0,0
1582221902.899,7.812,20.508000000000006,32.227,13.672,0.0,0
1582221902.903,14.16,29.297,33.203,14.648,0.0,0
1582221902.905,18.066,38.086,35.645,12.207,0.0,0
1582221902.909,13.672,30.762,36.621,12.695,0.0,0
1582221902.913,11.23,35.645,32.715,11.719,0.0,0
1582221902.917,11.23,41.01600000000001,33.691,2.441,0.0,0
1582221902.921,8.789,28.809,33.691,-2.93,0.0,0
1582221902.925,8.301,21.973000000000006,32.715,6.836,0.0,0
1582221902.929,4.395,31.738000000000003,34.668,14.16,0.0,0
1582221902.9320002,3.906,35.156,36.621,16.113,0.0,0
1582221902.936,7.324,19.043,36.621,17.578,0.0,0
1582221902.94,7.812,36.621,36.621,11.23,0.0,0
1582221902.944,11.23,36.133,38.574,16.113,0.0,0
1582221902.948,9.766,27.832,33.203,23.926,0.0,0
1582221902.95,15.137,40.527,33.691,19.531,0.0,0
1582221902.954,15.625,29.785,37.598,19.531,0.0,0
1582221902.958,3.418,34.668,32.715,15.625,0.0,0
1582221902.962,8.789,35.156,33.203,18.555,0.0,0
1582221902.966,20.996,22.461,33.691,26.367,0.0,0
1582221902.97,20.508000000000006,27.344,32.227,23.438,0.0,0
1582221902.974,17.09,31.738000000000003,31.738000000000003,21.973000000000006,0.0,0
1582221902.9770002,21.484,37.109,31.25,20.996,0.0,0
1582221902.981,21.973000000000006,28.32,31.25,19.043,0.0,0
1582221902.985,22.949,23.438,29.785,19.043,0.0,0
1582221902.9889998,28.809,28.809,32.715,18.066,0.0,0
1582221902.9929998,23.926,28.809,30.762,16.113,0.0,0
1582221902.994,17.09,41.992,23.926,10.742,0.0,0
1582221902.998,19.531,47.852,23.438,9.766,0.0,0
1582221903.002,19.531,44.434,24.902,12.695,0.0,0
1582221903.006,15.625,38.086,22.949,13.672,0.0,0
1582221903.01,10.254,28.32,25.879,12.695,0.0,0
1582221903.014,13.672,28.809,28.32,12.207,0.0,0
1582221903.018,14.16,34.668,28.32,14.16,0.0,0
1582221903.021,1.953,38.574,30.762,9.277,0.0,0
1582221903.025,14.648,35.156,30.273000000000003,13.672,0.0,0
1582221903.029,29.785,21.973000000000006,26.367,27.832,0.0,0
1582221903.033,34.18,17.09,24.902,29.297,0.0,0
1582221903.0370002,29.297,29.785,23.926,23.926,0.0,0
1582221903.039,18.555,43.457,23.926,17.578,0.0,0
1582221903.043,20.02,36.621,24.902,20.996,0.0,0
1582221903.0470002,22.461,32.227,27.344,23.926,0.0,0
1582221903.051,21.484,34.668,29.785,21.484,0.0,0
1582221903.055,19.043,30.273000000000003,31.25,22.461,0.0,0
1582221903.059,16.602,26.367,30.762,23.438,0.0,0
1582221903.063,21.484,30.762,32.227,22.461,0.0,0
1582221903.066,23.438,36.621,32.227,19.531,0.0,0
1582221903.07,15.137,33.691,33.203,17.578,0.0,0
1582221903.074,10.742,20.02,33.691,17.578,0.0,0
1582221903.0779998,8.301,14.648,30.273000000000003,19.043,0.0,0
1582221903.082,5.371,30.273000000000003,28.809,16.602,0.0,0
1582221903.084,10.254,30.762,31.738000000000003,18.066,0.0,0
1582221903.0879998,12.207,33.203,33.203,23.926,0.0,0
1582221903.092,8.789,41.01600000000001,28.809,22.949,0.0,0
1582221903.096,11.719,37.109,30.762,18.066,0.0,0
1582221903.1,11.719,32.715,33.203,20.508000000000006,0.0,0
1582221903.104,5.859,29.297,29.297,21.484,0.0,0
1582221903.1079998,8.301,32.227,26.367,10.742,0.0,0
1582221903.111,16.113,36.621,24.902,6.836,0.0,0
1582221903.115,15.137,30.762,23.438,12.695,0.0,0
1582221903.119,17.09,30.762,24.414,17.09,0.0,0
1582221903.123,23.438,39.062,28.809,11.23,0.0,0
1582221903.127,21.484,30.273000000000003,26.367,7.812,0.0,0
1582221903.144,20.996,26.855,22.949,11.23,0.0,0
1582221903.1479998,20.508000000000006,36.621,25.879,17.09,0.0,0
1582221903.1520002,18.555,39.551,24.902,17.578,0.0,0
1582221903.156,20.996,43.945,20.02,12.695,0.0,0
1582221903.16,23.438,33.691,20.996,16.602,0.0,0
1582221903.164,18.066,32.227,20.996,20.508000000000006,0.0,0
1582221903.168,8.789,36.621,19.043,19.043,0.0,0
1582221903.171,13.184,27.344,20.508000000000006,19.531,0.0,2
1582221903.175,25.391,22.461,23.438,20.508000000000006,0.0,0
1582221903.179,20.508000000000006,6.836,25.391,22.949,0.0,0
1582221903.1829998,13.672,19.531,22.949,25.391,0.0,0
1582221903.187,10.254,52.246,17.09,22.461,0.0,0
1582221903.189,8.789,46.387,16.602,21.484,0.0,0
1582221903.1929998,11.23,38.086,20.02,20.996,0.0,0
1582221903.197,4.883,35.156,19.043,19.531,0.0,0
1582221903.201,1.465,30.273000000000003,18.555,20.996,0.0,0
1582221903.205,9.766,33.203,19.043,20.996,0.0,0
1582221903.209,11.719,37.109,20.996,19.531,0.0,0
1582221903.2129998,10.254,30.273000000000003,20.996,22.949,0.0,0
1582221903.216,18.555,21.484,18.555,21.973000000000006,0.0,0
1582221903.22,28.809,29.785,19.043,20.02,0.0,0
1582221903.224,26.367,31.738000000000003,19.531,19.531,0.0,0
1582221903.228,23.438,27.832,20.02,17.09,0.0,0
1582221903.232,35.156,24.902,21.484,20.996,0.0,0
1582221903.234,47.363,30.273000000000003,17.578,24.414,0.0,0
1582221903.238,39.551,51.27,14.648,22.461,0.0,0
1582221903.242,28.809,43.945,17.09,20.508000000000006,0.0,0
1582221903.246,30.273000000000003,34.668,19.043,21.484,0.0,0
1582221903.25,30.273000000000003,36.133,18.555,20.02,0.0,0
1582221903.254,33.691,27.832,16.602,14.16,0.0,0
1582221903.258,27.344,30.762,17.09,9.277,0.0,0
1582221903.2610002,22.461,41.01600000000001,15.625,11.719,0.0,0
1582221903.265,29.297,37.598,14.648,10.254,0.0,0
1582221903.269,28.809,30.273000000000003,19.043,3.906,0.0,0
1582221903.2729998,31.25,41.992,20.508000000000006,11.23,0.0,0
1582221903.2770002,26.367,35.156,19.043,18.066,0.0,0
1582221903.279,16.602,30.762,18.555,14.16,0.0,0
1582221903.283,13.672,38.086,15.137,16.113,0.0,0
1582221903.2870002,9.766,34.18,13.184,14.648,0.0,0
1582221903.291,6.348,34.18,15.137,14.648,0.0,0
1582221903.295,11.719,24.414,17.578,23.926,0.0,0
1582221903.299,7.812,20.508000000000006,21.484,22.949,0.0,0
1582221903.303,8.301,38.086,22.949,27.832,0.0,0
1582221903.306,12.695,42.48,23.438,28.32,0.0,0
1582221903.31,7.324,41.01600000000001,22.949,20.996,0.0,0
1582221903.314,5.371,38.086,22.949,17.578,0.0,0
1582221903.3179998,8.301,35.645,25.879,17.09,0.0,0
1582221903.322,8.789,30.762,27.832,24.902,0.0,0
1582221903.324,8.789,24.902,28.32,26.367,0.0,0
1582221903.3279998,15.625,30.273000000000003,30.273000000000003,24.902,0.0,0
1582221903.332,22.949,25.391,29.297,24.902,0.0,0
1582221903.336,21.484,22.949,27.344,24.902,0.0,0
1582221903.34,24.414,37.109,24.414,23.438,0.0,0
1582221903.344,35.156,41.504,25.391,22.461,0.0,0
1582221903.3479998,39.062,36.133,33.691,18.555,0.0,0
1582221903.351,43.457,39.551,32.715,15.625,0.0,0
1582221903.355,48.34,34.18,29.785,21.484,0.0,0
1582221903.359,46.387,31.738000000000003,32.227,20.996,0.0,0
1582221903.363,48.34,26.367,30.273000000000003,21.484,0.0,0
1582221903.367,45.41,28.32,32.715,26.855,0.0,0
1582221903.37,32.715,38.086,35.645,28.32,0.0,0
1582221903.3739998,23.926,27.344,37.598,30.762,0.0,0
1582221903.3779998,13.672,31.25,35.645,31.738000000000003,0.0,0
1582221903.3820002,13.672,38.574,31.25,23.926,0.0,0
1582221903.3860002,20.996,31.25,34.18,18.555,0.0,0
1582221903.39,13.672,28.32,35.156,16.602,0.0,0
1582221903.394,8.789,30.762,33.691,14.16,0.0,0
1582221903.397,12.695,35.156,31.738000000000003,17.09,0.0,0
1582221903.401,4.883,36.621,28.809,14.16,0.0,0
1582221903.405,-5.371,33.203,26.855,11.719,0.0,0
1582221903.409,0.977,30.273000000000003,26.855,23.926,0.0,0
1582221903.413,3.906,29.785,26.367,23.438,0.0,0
1582221903.415,2.441,25.391,25.879,16.602,0.0,0
1582221903.419,3.906,14.16,27.832,20.508000000000006,0.0,0
1582221903.423,4.883,24.414,28.32,23.926,0.0,0
1582221903.427,20.996,39.062,25.391,28.32,0.0,0
1582221903.431,25.391,35.156,22.949,28.32,0.0,0
1582221903.435,16.602,36.621,24.902,26.855,0.0,0
1582221903.439,18.555,39.551,26.855,22.461,0.0,0
1582221903.4420002,22.461,42.969,27.832,20.02,0.0,0
1582221903.446,24.902,44.434,25.391,21.973000000000006,0.0,0
1582221903.45,16.113,35.156,24.414,18.066,0.0,0
1582221903.454,8.301,34.18,23.438,18.555,0.0,0
1582221903.458,10.742,33.203,23.926,12.695,0.0,0
1582221903.46,18.555,24.902,27.344,6.836,0.0,0
1582221903.464,24.902,23.926,24.902,12.207,0.0,0
1582221903.468,17.578,30.273000000000003,25.391,15.137,0.0,0
1582221903.472,14.16,34.18,26.367,17.578,0.0,0
1582221903.476,18.555,31.25,24.414,12.207,0.0,0
1582221903.48,21.484,29.785,28.32,12.207,0.0,0
1582221903.484,16.113,31.25,31.738000000000003,11.23,0.0,0
