,timestamps,TP9,AF7,AF8,TP10,Right AUX,Marker0
0,1581436124.137,80.566,25.391,49.316,38.086,0.0,0
1,1581436124.141,20.02,18.555,38.086,19.531,0.0,0
2,1581436124.145,-10.742,17.09,17.578,15.625,0.0,0
3,1581436124.149,21.484,16.602,27.344,15.137,0.0,0
4,1581436124.1529999,46.875,15.137,63.477,16.113,0.0,0
5,1581436124.157,10.254000000000001,7.812,58.593999999999994,12.695,0.0,0
6,1581436124.161,-27.344,4.395,19.531,4.395,0.0,0
7,1581436124.164,-2.441,5.859,-0.488,6.348,0.0,0
8,1581436124.168,32.715,6.348,63.965,10.254000000000001,0.0,0
9,1581436124.1720002,22.949,4.395,93.75,23.438000000000002,0.0,0
10,1581436124.176,-17.09,-4.395,32.715,18.555,0.0,0
11,1581436124.18,-10.742,-2.441,21.484,14.16,0.0,0
12,1581436124.181,42.48,6.348,54.199,27.344,0.0,0
13,1581436124.185,47.363,6.836,52.733999999999995,30.761999999999997,0.0,0
14,1581436124.189,0.977,3.418,21.973000000000003,26.855,0.0,0
15,1581436124.1929998,-5.859,4.883,17.578,24.414,0.0,0
16,1581436124.197,42.968999999999994,8.789,40.039,31.738000000000003,0.0,0
17,1581436124.201,65.43,13.184000000000001,52.246,41.504,0.0,0
18,1581436124.205,19.531,10.254000000000001,-4.883,25.391,0.0,0
19,1581436124.208,-11.23,5.371,-20.508000000000003,14.16,0.0,0
20,1581436124.2120001,25.391,14.648,50.781000000000006,23.438000000000002,0.0,0
21,1581436124.216,64.453,18.066,60.547,33.203,0.0,0
22,1581436124.22,36.621,12.207,39.551,32.715,0.0,0
23,1581436124.224,-3.906,9.277000000000001,28.32,23.926,0.0,0
24,1581436124.226,13.184000000000001,14.648,29.785,28.32,0.0,0
25,1581436124.23,52.246,18.555,40.527,33.691,0.0,0
26,1581436124.234,37.598,18.066,37.109,27.831999999999997,0.0,0
27,1581436124.238,-6.836,14.648,26.366999999999997,18.066,0.0,0
28,1581436124.242,0.977,15.625,22.461,22.461,0.0,0
29,1581436124.246,52.733999999999995,20.02,14.16,38.086,0.0,0
30,1581436124.25,58.593999999999994,18.066,-1.953,27.831999999999997,0.0,0
31,1581436124.2529998,11.23,17.578,8.301,11.719000000000001,0.0,0
32,1581436124.2570002,-9.766,15.137,31.25,17.09,0.0,0
33,1581436124.2610002,34.18,18.066,31.25,27.831999999999997,0.0,0
34,1581436124.265,70.312,24.901999999999997,50.781000000000006,36.621,0.0,0
35,1581436124.269,28.32,21.484,62.5,28.809,0.0,0
36,1581436124.2870002,-10.254000000000001,18.555,32.227,18.066,0.0,0
37,1581436124.2910001,21.973000000000003,22.461,12.207,26.366999999999997,0.0,0
38,1581436124.295,61.035,23.926,31.25,30.273000000000003,0.0,0
39,1581436124.299,36.621,28.32,53.711000000000006,23.438000000000002,0.0,0
40,1581436124.303,-9.766,29.785,34.668,13.184000000000001,0.0,0
41,1581436124.3070002,11.23,26.366999999999997,12.695,20.508000000000003,0.0,0
42,1581436124.311,55.176,20.02,30.761999999999997,31.738000000000003,0.0,0
43,1581436124.314,41.992,15.625,57.617,25.391,0.0,0
44,1581436124.3179998,-7.324,20.996,54.688,16.602,0.0,0
45,1581436124.322,-14.16,20.996,3.906,8.789,0.0,0
46,1581436124.326,37.598,23.926,9.766,15.625,0.0,0
47,1581436124.33,52.733999999999995,25.391,74.707,27.344,0.0,0
48,1581436124.332,4.883,19.531,49.805,19.531,0.0,0
49,1581436124.336,-7.324,23.926,21.484,17.09,0.0,0
50,1581436124.34,37.109,30.761999999999997,50.781000000000006,23.926,0.0,0
51,1581436124.3439999,56.641000000000005,29.296999999999997,68.848,27.831999999999997,0.0,0
52,1581436124.3479998,17.09,22.461,41.016000000000005,23.926,0.0,0
53,1581436124.3520002,-15.137,21.973000000000003,-7.812,20.996,0.0,0
54,1581436124.356,13.672,21.484,-6.836,29.296999999999997,0.0,0
55,1581436124.359,55.176,20.508000000000003,38.574,31.25,0.0,0
56,1581436124.363,35.645,22.461,42.48,25.879,0.0,0
57,1581436124.367,-11.719000000000001,19.531,-4.883,16.602,0.0,0
58,1581436124.371,-3.418,25.391,29.785,20.02,0.0,0
59,1581436124.375,47.852,31.25,74.219,29.785,0.0,0
60,1581436124.377,46.875,26.366999999999997,47.852,27.344,0.0,0
61,1581436124.381,-6.836,21.484,17.578,21.973000000000003,0.0,0
62,1581436124.385,-13.184000000000001,21.484,21.973000000000003,18.066,0.0,0
63,1581436124.389,38.574,19.043,38.574,24.414,0.0,0
64,1581436124.393,58.593999999999994,17.578,40.527,29.785,0.0,0
65,1581436124.397,17.09,15.137,2.93,23.438000000000002,0.0,0
66,1581436124.401,-11.719000000000001,19.043,-1.465,18.555,0.0,0
67,1581436124.404,25.391,32.715,49.805,26.366999999999997,0.0,0
68,1581436124.408,63.477,33.203,22.461,31.738000000000003,0.0,0
69,1581436124.4120002,25.879,23.438000000000002,-3.906,18.555,0.0,0
70,1581436124.4160001,-20.996,25.879,36.621,11.23,0.0,0
71,1581436124.42,4.883,28.32,34.18,20.508000000000003,0.0,0
72,1581436124.4220002,55.663999999999994,27.344,36.621,23.926,0.0,0
73,1581436124.426,38.574,27.344,44.922,20.996,0.0,0
74,1581436124.43,-16.602,22.949,31.25,10.254000000000001,0.0,0
75,1581436124.434,-7.812,18.066,-1.953,9.277000000000001,0.0,0
76,1581436124.438,45.898,22.949,9.277000000000001,22.949,0.0,0
77,1581436124.4420002,50.781000000000006,23.926,32.227,25.391,0.0,0
78,1581436124.446,3.906,21.973000000000003,22.461,18.066,0.0,0
79,1581436124.449,-12.207,20.508000000000003,12.207,16.602,0.0,0
80,1581436124.4529998,30.761999999999997,19.531,-8.789,11.719000000000001,0.0,0
81,1581436124.457,61.523,30.761999999999997,42.968999999999994,16.602,0.0,0
82,1581436124.461,20.508000000000003,31.738000000000003,59.57,20.508000000000003,0.0,0
83,1581436124.465,-21.484,20.996,8.789,10.742,0.0,0
84,1581436124.468,15.137,20.02,15.137,15.137,0.0,0
85,1581436124.4720001,58.105,26.366999999999997,55.176,22.949,0.0,0
86,1581436124.476,27.831999999999997,26.855,55.663999999999994,22.949,0.0,0
87,1581436124.48,-13.672,17.578,13.672,18.066,0.0,0
88,1581436124.484,4.395,15.137,6.348,18.555,0.0,0
89,1581436124.488,50.293,21.973000000000003,37.598,26.855,0.0,0
90,1581436124.492,42.48,22.949,29.296999999999997,29.296999999999997,0.0,0
91,1581436124.495,-6.348,18.066,-22.949,17.578,0.0,0
92,1581436124.4989998,-6.836,16.602,-13.184000000000001,10.254000000000001,0.0,0
93,1581436124.5029998,41.016000000000005,28.32,65.43,26.366999999999997,0.0,0
94,1581436124.5070002,57.129,32.227,63.965,32.715,0.0,0
95,1581436124.5110002,7.324,20.508000000000003,26.366999999999997,20.996,0.0,0
96,1581436124.5129998,-20.508000000000003,18.066,21.973000000000003,11.719000000000001,0.0,0
97,1581436124.5170002,30.273000000000003,22.461,40.527,18.066,0.0,0
98,1581436124.5210001,59.57,22.461,53.223,29.296999999999997,0.0,0
99,1581436124.525,17.09,19.531,29.296999999999997,24.901999999999997,0.0,0
100,1581436124.529,-16.602,22.461,7.324,16.113,0.0,0
101,1581436124.533,16.113,24.901999999999997,15.625,23.926,0.0,0
102,1581436124.5370002,60.059,19.531,30.273000000000003,37.109,0.0,0
103,1581436124.54,36.621,20.508000000000003,16.602,31.738000000000003,0.0,0
104,1581436124.544,-18.066,25.391,28.32,9.277000000000001,0.0,0
105,1581436124.5479999,-2.441,25.391,34.18,13.672,0.0,0
106,1581436124.552,56.152,28.809,29.785,31.25,0.0,0
107,1581436124.556,58.105,33.691,42.968999999999994,31.738000000000003,0.0,0
108,1581436124.5579998,9.277000000000001,35.156,41.504,25.879,0.0,0
109,1581436124.562,0.488,30.273000000000003,31.25,23.438000000000002,0.0,0
110,1581436124.566,53.223,29.785,33.691,38.574,0.0,0
111,1581436124.57,74.219,37.598,46.387,47.363,0.0,0
112,1581436124.574,26.855,32.715,26.366999999999997,39.062,0.0,0
113,1581436124.5779998,4.883,20.996,2.441,42.48,0.0,0
114,1581436124.582,52.246,21.484,-13.672,53.223,0.0,0
115,1581436124.585,90.82,31.738000000000003,12.207,46.387,0.0,0
116,1581436124.589,51.758,31.25,48.34,37.109,0.0,0
117,1581436124.593,5.859,28.32,22.461,32.715,0.0,0
118,1581436124.5970001,36.133,32.715,27.831999999999997,36.133,0.0,0
119,1581436124.601,78.613,35.645,54.688,42.48,0.0,0
120,1581436124.603,58.105,31.25,41.992,37.598,0.0,0
121,1581436124.607,18.066,23.438000000000002,2.93,30.273000000000003,0.0,0
122,1581436124.611,30.273000000000003,26.855,4.395,29.296999999999997,0.0,0
123,1581436124.615,79.102,26.855,49.805,37.598,0.0,0
124,1581436124.619,78.125,23.438000000000002,55.176,34.668,0.0,0
125,1581436124.623,32.227,29.296999999999997,0.977,23.926,0.0,0
126,1581436124.627,22.949,31.738000000000003,-32.227,18.066,0.0,0
127,1581436124.63,60.059,28.809,32.227,23.926,0.0,0
128,1581436124.6339998,68.848,27.831999999999997,67.383,37.598,0.0,0
129,1581436124.6379998,22.461,23.926,13.184000000000001,38.574,0.0,0
130,1581436124.6420002,-7.812,23.438000000000002,-3.418,37.598,0.0,0
131,1581436124.6460001,20.508000000000003,24.901999999999997,32.227,42.968999999999994,0.0,0
132,1581436124.6620002,54.199,24.901999999999997,48.34,46.387,0.0,0
133,1581436124.6660001,24.901999999999997,20.02,19.531,36.621,0.0,0
134,1581436124.67,-19.043,21.484,10.254000000000001,24.414,0.0,0
135,1581436124.674,0.977,27.344,22.461,24.414,0.0,0
136,1581436124.678,52.733999999999995,26.366999999999997,26.366999999999997,38.086,0.0,0
137,1581436124.6820002,39.062,23.438000000000002,27.831999999999997,35.156,0.0,0
138,1581436124.686,-9.766,22.949,0.488,21.484,0.0,0
139,1581436124.689,-3.418,24.414,14.648,19.531,0.0,0
140,1581436124.6929998,43.457,19.531,53.711000000000006,27.831999999999997,0.0,0
141,1581436124.697,54.199,14.16,15.625,30.761999999999997,0.0,0
142,1581436124.701,4.883,22.461,3.418,20.996,0.0,0
143,1581436124.705,-15.625,28.809,38.086,22.949,0.0,0
144,1581436124.707,34.668,24.901999999999997,43.457,30.273000000000003,0.0,0
145,1581436124.711,57.129,24.414,34.18,34.668,0.0,0
146,1581436124.715,11.719000000000001,26.366999999999997,28.32,30.761999999999997,0.0,0
147,1581436124.7189999,-14.648,23.438000000000002,20.02,24.901999999999997,0.0,0
148,1581436124.7229998,22.949,18.555,17.578,32.227,0.0,0
149,1581436124.7270002,62.012,21.973000000000003,32.715,37.109,0.0,0
150,1581436124.731,39.551,24.414,20.02,33.691,0.0,0
151,1581436124.734,-2.93,20.508000000000003,2.93,32.227,0.0,0
152,1581436124.738,13.672,20.02,8.301,29.785,0.0,0
153,1581436124.742,58.593999999999994,24.901999999999997,18.066,24.901999999999997,0.0,0
154,1581436124.746,54.688,30.761999999999997,49.805,22.461,0.0,0
155,1581436124.75,0.0,23.438000000000002,38.574,18.555,0.0,0
156,1581436124.752,-7.812,16.602,9.766,18.555,0.0,0
157,1581436124.756,46.387,21.973000000000003,37.598,28.32,0.0,0
158,1581436124.76,56.641000000000005,26.855,63.477,30.273000000000003,0.0,0
159,1581436124.764,6.348,27.344,40.039,19.043,0.0,0
160,1581436124.768,-14.16,24.414,9.277000000000001,12.695,0.0,0
161,1581436124.772,31.25,20.996,10.254000000000001,20.508000000000003,0.0,0
162,1581436124.776,65.918,27.344,24.414,27.344,0.0,0
163,1581436124.779,26.855,26.366999999999997,30.761999999999997,30.273000000000003,0.0,0
164,1581436124.783,-25.391,11.719000000000001,-7.812,8.301,0.0,0
165,1581436124.7870002,1.465,12.695,-11.23,6.348,0.0,0
166,1581436124.7910001,43.457,23.926,80.566,26.366999999999997,0.0,0
167,1581436124.795,19.531,16.113,75.684,15.625,0.0,0
168,1581436124.7970002,-26.366999999999997,8.301,29.785,7.812,0.0,0
169,1581436124.801,-19.531,15.625,41.016000000000005,7.324,0.0,0
170,1581436124.805,27.344,19.531,66.895,12.207,0.0,0
171,1581436124.809,29.296999999999997,14.16,56.152,17.578,0.0,0
172,1581436124.813,-15.625,11.23,20.02,12.695,0.0,0
173,1581436124.8170002,-14.16,9.277000000000001,13.672,14.16,0.0,0
174,1581436124.821,42.48,14.16,40.527,26.366999999999997,0.0,0
175,1581436124.824,62.012,17.09,47.852,38.086,0.0,0
176,1581436124.8279998,20.996,12.695,14.648,29.296999999999997,0.0,0
177,1581436124.832,1.465,23.438000000000002,35.156,22.949,0.0,0
178,1581436124.836,36.621,20.508000000000003,68.848,34.18,0.0,0
179,1581436124.84,63.965,14.648,59.57,34.18,0.0,0
180,1581436124.842,32.715,17.578,39.062,25.879,0.0,0
181,1581436124.846,-9.277000000000001,18.555,30.273000000000003,24.414,0.0,0
182,1581436124.85,17.09,26.366999999999997,44.922,29.296999999999997,0.0,0
183,1581436124.8539999,69.336,27.344,62.5,37.109,0.0,0
184,1581436124.8579998,50.293,20.996,55.176,29.785,0.0,0
185,1581436124.8620002,-1.953,20.02,18.066,19.043,0.0,0
186,1581436124.8660002,9.277000000000001,21.484,15.137,25.391,0.0,0
187,1581436124.869,62.5,18.555,20.508000000000003,29.785,0.0,0
188,1581436124.873,61.523,19.043,25.391,21.973000000000003,0.0,0
189,1581436124.877,6.836,20.508000000000003,60.547,14.16,0.0,0
190,1581436124.881,-8.301,17.09,52.246,13.184000000000001,0.0,0
191,1581436124.885,41.016000000000005,17.09,45.41,23.438000000000002,0.0,0
192,1581436124.887,62.012,20.508000000000003,57.617,31.25,0.0,0
193,1581436124.891,17.09,19.531,55.663999999999994,25.391,0.0,0
194,1581436124.895,-14.16,16.602,29.785,13.672,0.0,0
195,1581436124.899,19.043,18.066,19.043,17.09,0.0,0
196,1581436124.9029999,53.223,21.484,39.551,26.855,0.0,0
197,1581436124.907,27.831999999999997,23.926,25.391,26.366999999999997,0.0,0
198,1581436124.911,-10.742,20.508000000000003,-12.695,19.043,0.0,0
199,1581436124.914,6.836,18.066,-11.23,9.766,0.0,0
200,1581436124.918,49.316,18.066,55.663999999999994,16.602,0.0,0
201,1581436124.9220002,34.668,14.16,74.219,22.949,0.0,0
202,1581436124.926,-13.184000000000001,14.16,18.066,14.648,0.0,0
203,1581436124.93,-11.719000000000001,15.625,12.695,16.113,0.0,0
204,1581436124.9320002,31.738000000000003,19.531,57.617,22.461,0.0,0
205,1581436124.936,44.434,22.949,50.781000000000006,27.831999999999997,0.0,0
206,1581436124.94,-0.488,18.066,7.324,27.344,0.0,0
207,1581436124.944,-19.043,17.09,3.418,20.508000000000003,0.0,0
208,1581436124.948,28.809,22.461,33.691,24.901999999999997,0.0,0
209,1581436124.9520001,56.152,20.02,42.968999999999994,31.738000000000003,0.0,0
210,1581436124.956,20.508000000000003,15.137,-7.324,26.366999999999997,0.0,0
211,1581436124.9589999,-15.137,14.648,-24.901999999999997,13.184000000000001,0.0,0
212,1581436124.9629998,11.719000000000001,24.414,46.875,16.113,0.0,0
213,1581436124.967,49.316,25.879,69.824,27.831999999999997,0.0,0
214,1581436124.971,23.438000000000002,19.043,41.504,20.02,0.0,0
215,1581436124.975,-17.09,16.113,11.719000000000001,11.719000000000001,0.0,0
216,1581436124.9770002,-3.418,21.973000000000003,22.949,15.625,0.0,0
217,1581436124.981,43.457,22.461,51.758,25.391,0.0,0
218,1581436124.985,39.062,11.719000000000001,31.25,29.785,0.0,0
219,1581436124.9889998,-10.254000000000001,19.043,11.719000000000001,14.648,0.0,0
220,1581436124.9929998,-15.137,26.855,22.461,9.277000000000001,0.0,0
221,1581436124.9970002,34.18,20.02,19.043,26.855,0.0,0
222,1581436125.0010002,48.828,18.066,-1.465,22.949,0.0,0
223,1581436125.004,0.488,24.414,18.555,10.254000000000001,0.0,0
224,1581436125.008,-25.879,26.366999999999997,39.551,12.207,0.0,0
225,1581436125.012,20.02,21.484,23.926,19.531,0.0,0
226,1581436125.016,55.176,24.414,31.25,26.366999999999997,0.0,0
227,1581436125.02,23.438000000000002,27.344,38.574,25.391,0.0,0
228,1581436125.0370002,-11.23,25.391,26.366999999999997,23.926,0.0,0
229,1581436125.0410001,16.602,22.949,17.578,25.879,0.0,0
230,1581436125.045,59.082,22.461,37.598,28.32,0.0,0
231,1581436125.049,33.203,19.531,44.434,25.391,0.0,0
232,1581436125.053,-14.16,21.484,13.672,21.973000000000003,0.0,0
233,1581436125.0570002,-2.441,22.949,-13.672,19.531,0.0,0
234,1581436125.061,46.387,24.414,1.465,23.926,0.0,0
235,1581436125.064,43.945,30.273000000000003,35.645,26.366999999999997,0.0,0
236,1581436125.0679998,-5.859,28.809,32.715,20.508000000000003,0.0,0
237,1581436125.072,-12.695,19.043,-15.625,15.137,0.0,0
238,1581436125.076,32.227,22.949,9.277000000000001,18.555,0.0,0
239,1581436125.08,49.316,24.414,57.129,22.461,0.0,0
240,1581436125.082,5.859,14.648,14.648,15.625,0.0,0
241,1581436125.086,-17.578,18.066,10.254000000000001,14.648,0.0,0
242,1581436125.09,24.414,24.414,37.109,22.461,0.0,0
243,1581436125.0939999,53.711000000000006,24.414,52.733999999999995,25.391,0.0,0
244,1581436125.0979998,18.066,21.484,34.668,15.137,0.0,0
245,1581436125.1020002,-20.508000000000003,14.648,-11.23,10.254000000000001,0.0,0
246,1581436125.106,5.371,18.066,0.488,20.02,0.0,0
247,1581436125.109,50.781000000000006,28.809,52.246,29.296999999999997,0.0,0
248,1581436125.113,36.621,24.414,34.18,28.32,0.0,0
249,1581436125.117,-6.348,26.855,-16.113,16.113,0.0,0
250,1581436125.121,2.441,33.691,12.695,15.137,0.0,0
251,1581436125.125,49.316,31.738000000000003,61.035,23.438000000000002,0.0,0
252,1581436125.127,49.316,25.879,52.246,26.366999999999997,0.0,0
253,1581436125.131,0.0,20.996,28.32,18.066,0.0,0
254,1581436125.135,-17.09,22.949,22.949,10.742,0.0,0
255,1581436125.139,31.25,25.879,32.715,20.508000000000003,0.0,0
256,1581436125.143,56.641000000000005,26.366999999999997,57.617,28.32,0.0,0
257,1581436125.147,11.23,22.461,31.25,20.996,0.0,0
258,1581436125.151,-17.09,24.901999999999997,2.441,18.555,0.0,0
259,1581436125.154,17.578,28.809,41.016000000000005,20.508000000000003,0.0,0
260,1581436125.158,58.593999999999994,22.461,35.645,22.461,0.0,0
261,1581436125.1620002,30.761999999999997,25.391,19.531,19.531,0.0,0
262,1581436125.1660001,-20.996,31.738000000000003,54.688,9.277000000000001,0.0,0
263,1581436125.17,0.488,32.227,46.387,11.719000000000001,0.0,0
264,1581436125.1720002,48.34,39.062,54.688,15.137,0.0,0
265,1581436125.176,30.761999999999997,37.598,54.199,3.418,0.0,0
266,1581436125.18,-22.949,31.738000000000003,30.761999999999997,-8.301,0.0,0
267,1581436125.184,-31.25,34.18,28.809,-14.648,0.0,0
268,1581436125.188,5.859,37.598,39.062,-17.578,0.0,0
269,1581436125.1920002,15.137,39.062,39.062,-14.16,0.0,0
270,1581436125.196,-43.457,38.086,26.855,-27.344,0.0,1
271,1581436125.199,-77.148,39.551,4.395,-44.922,0.0,0
272,1581436125.2029998,-48.828,40.527,11.23,-49.805,0.0,0
273,1581436125.207,-45.41,41.992,77.637,-64.453,0.0,0
274,1581436125.211,-89.844,47.852,83.984,-78.125,0.0,0
275,1581436125.215,-127.441,44.434,48.34,-93.75,0.0,0
276,1581436125.217,-113.77,35.645,56.152,-108.398,0.0,0
277,1581436125.221,-82.52,41.992,82.52,-109.375,0.0,0
278,1581436125.225,-116.211,44.922,84.473,-119.141,0.0,0
279,1581436125.2289999,-174.805,44.434,51.758,-143.555,0.0,0
280,1581436125.2329998,-159.668,48.34,45.41,-141.602,0.0,0
281,1581436125.2370002,-116.699,45.41,65.918,-131.836,0.0,0
282,1581436125.2410002,-134.27700000000002,39.062,67.383,-137.695,0.0,0
283,1581436125.244,-181.641,29.296999999999997,24.901999999999997,-147.461,0.0,0
284,1581436125.248,-176.75799999999998,31.25,-3.418,-151.855,0.0,0
285,1581436125.252,-125.488,46.387,61.035,-137.207,0.0,0
286,1581436125.256,-107.42200000000001,41.016000000000005,88.867,-124.512,0.0,0
287,1581436125.26,-150.391,28.809,41.016000000000005,-131.34799999999998,0.0,0
288,1581436125.2610002,-166.99200000000002,31.25,29.296999999999997,-131.836,0.0,0
289,1581436125.265,-110.352,31.738000000000003,59.082,-104.98,0.0,0
290,1581436125.269,-67.383,26.366999999999997,72.266,-83.984,0.0,0
291,1581436125.2729998,-97.656,24.414,39.062,-94.727,0.0,0
292,1581436125.2770002,-118.652,27.344,15.625,-86.914,0.0,0
293,1581436125.2810001,-65.43,24.414,12.207,-53.223,0.0,0
294,1581436125.285,-17.09,16.113,19.531,-37.109,0.0,0
295,1581436125.2879999,-26.366999999999997,13.184000000000001,8.789,-34.668,0.0,0
296,1581436125.292,-49.805,17.09,18.066,-21.973000000000003,0.0,0
297,1581436125.296,-31.25,20.508000000000003,48.34,-10.254000000000001,0.0,0
298,1581436125.3,24.901999999999997,21.973000000000003,54.199,8.301,0.0,0
299,1581436125.304,40.039,19.531,42.48,28.32,0.0,0
300,1581436125.3070002,-4.395,17.09,15.625,21.484,0.0,0
301,1581436125.311,-7.812,19.043,9.277000000000001,26.855,0.0,0
302,1581436125.315,56.641000000000005,19.043,12.695,47.363,0.0,0
303,1581436125.319,83.984,21.973000000000003,27.344,52.246,0.0,0
304,1581436125.323,41.992,20.02,27.344,47.852,0.0,0
305,1581436125.3270001,23.926,17.578,-2.441,52.246,0.0,0
306,1581436125.331,67.87100000000001,15.137,-18.555,63.477,0.0,0
307,1581436125.3339999,104.00399999999999,18.555,4.883,66.406,0.0,0
308,1581436125.3379998,77.148,27.831999999999997,49.316,68.848,0.0,0
309,1581436125.342,40.527,22.949,19.043,67.383,0.0,0
310,1581436125.346,68.848,16.602,7.324,73.242,0.0,0
311,1581436125.35,116.699,17.578,39.062,83.984,0.0,0
312,1581436125.3520002,100.586,19.531,30.761999999999997,85.93799999999999,0.0,0
313,1581436125.356,50.781000000000006,17.578,-1.953,78.613,0.0,0
314,1581436125.36,56.641000000000005,14.16,-16.602,77.637,0.0,0
315,1581436125.3639998,111.32799999999999,17.578,13.184000000000001,93.262,0.0,0
316,1581436125.3679998,118.164,18.066,45.898,97.656,0.0,0
317,1581436125.3720002,67.383,8.789,4.883,91.309,0.0,0
318,1581436125.3760002,51.27,5.859,-36.133,80.566,0.0,0
319,1581436125.379,95.70299999999999,17.09,19.043,83.984,0.0,0
320,1581436125.383,117.676,23.438000000000002,68.359,93.75,0.0,0
321,1581436125.387,73.242,14.648,21.973000000000003,83.008,0.0,0
322,1581436125.391,36.133,8.789,-4.883,72.75399999999999,0.0,0
323,1581436125.395,72.266,13.184000000000001,22.461,75.195,0.0,0
324,1581436125.4120002,113.77,18.555,45.898,82.52,0.0,0
325,1581436125.4160001,89.355,22.949,31.738000000000003,83.008,0.0,0
326,1581436125.42,46.387,19.531,-2.93,75.195,0.0,0
327,1581436125.424,64.941,19.043,15.625,77.148,0.0,0
328,1581436125.428,108.887,17.09,49.316,84.961,0.0,0
329,1581436125.4320002,99.609,14.16,18.555,78.125,0.0,0
330,1581436125.436,52.246,16.113,-11.23,67.383,0.0,0
331,1581436125.439,51.27,10.742,11.23,72.266,0.0,0
332,1581436125.4429998,96.191,14.648,49.805,83.008,0.0,0
333,1581436125.447,103.516,22.949,27.344,74.707,0.0,0
334,1581436125.451,62.988,27.344,5.859,64.453,0.0,0
335,1581436125.455,42.968999999999994,29.296999999999997,31.738000000000003,66.895,0.0,0
336,1581436125.461,79.59,24.414,34.18,64.941,0.0,0
337,1581436125.465,110.352,21.484,40.039,66.895,0.0,0
338,1581436125.4689999,78.613,21.973000000000003,40.527,57.617,0.0,0
339,1581436125.4729998,50.781000000000006,25.391,25.391,46.875,0.0,0
340,1581436125.4770002,83.008,26.855,18.555,55.176,0.0,0
341,1581436125.481,120.117,21.973000000000003,15.625,65.43,0.0,0
342,1581436125.485,90.82,17.09,17.578,64.453,0.0,0
343,1581436125.488,33.203,20.996,19.043,61.035,0.0,0
344,1581436125.492,39.062,22.461,11.23,66.895,0.0,0
345,1581436125.496,75.195,23.926,15.625,74.707,0.0,0
346,1581436125.5,59.57,29.785,48.828,65.43,0.0,0
347,1581436125.504,13.184000000000001,28.809,42.48,56.152,0.0,0
348,1581436125.5029998,14.648,27.344,8.789,52.246,0.0,0
349,1581436125.5070002,57.129,21.973000000000003,21.484,47.852,0.0,0
350,1581436125.5110002,61.523,20.996,50.781000000000006,50.293,0.0,0
351,1581436125.515,15.137,20.996,41.992,39.551,0.0,0
352,1581436125.519,-9.277000000000001,16.602,12.207,31.25,0.0,0
353,1581436125.5229998,31.25,15.137,10.742,32.715,0.0,0
354,1581436125.5270002,62.012,22.461,34.18,30.761999999999997,0.0,0
355,1581436125.53,30.273000000000003,28.809,38.086,29.296999999999997,0.0,0
356,1581436125.534,-2.441,20.02,-10.742,23.438000000000002,0.0,0
357,1581436125.5379999,27.831999999999997,22.949,-6.836,26.366999999999997,0.0,0
358,1581436125.542,68.359,36.621,76.66,33.203,0.0,0
359,1581436125.546,48.34,29.785,47.363,35.645,0.0,0
360,1581436125.5470002,2.93,25.391,1.953,32.715,0.0,0
361,1581436125.551,15.137,31.738000000000003,32.715,33.691,0.0,0
362,1581436125.555,55.176,27.344,62.988,40.039,0.0,0
363,1581436125.559,47.852,19.531,54.199,33.203,0.0,0
364,1581436125.563,8.301,16.602,11.23,24.414,0.0,0
365,1581436125.5670002,-2.93,15.137,-7.812,24.901999999999997,0.0,0
366,1581436125.571,38.574,16.602,19.531,26.855,0.0,0
367,1581436125.574,65.43,20.508000000000003,36.621,31.25,0.0,0
368,1581436125.5779998,25.391,24.414,-8.301,23.438000000000002,0.0,0
369,1581436125.582,-2.93,26.855,2.441,19.531,0.0,0
370,1581436125.586,31.738000000000003,22.949,47.363,36.133,0.0,0
371,1581436125.59,66.406,23.438000000000002,44.922,44.922,0.0,0
372,1581436125.592,34.668,22.461,39.551,41.016000000000005,0.0,0
373,1581436125.596,-4.883,19.043,41.504,34.18,0.0,0
374,1581436125.6,20.508000000000003,16.113,30.761999999999997,34.668,0.0,0
375,1581436125.6039999,68.359,18.555,36.133,44.922,0.0,0
376,1581436125.6079998,63.477,25.391,39.551,52.733999999999995,0.0,0
377,1581436125.6120002,11.719000000000001,23.926,15.625,45.41,0.0,0
378,1581436125.6160002,8.301,17.578,9.277000000000001,32.227,0.0,0
379,1581436125.619,58.593999999999994,13.184000000000001,-1.953,39.062,0.0,0
380,1581436125.623,62.988,14.16,8.789,42.968999999999994,0.0,0
381,1581436125.627,15.625,18.066,55.663999999999994,34.18,0.0,0
382,1581436125.631,0.0,22.461,44.434,33.203,0.0,0
383,1581436125.635,44.434,23.438000000000002,31.738000000000003,34.668,0.0,0
384,1581436125.637,66.895,27.344,60.547,34.668,0.0,0
385,1581436125.641,26.855,32.715,60.059,31.25,0.0,0
386,1581436125.645,0.0,21.484,26.366999999999997,26.855,0.0,0
387,1581436125.649,37.109,21.484,25.391,34.668,0.0,0
388,1581436125.6529999,72.266,37.109,60.547,42.968999999999994,0.0,0
389,1581436125.657,44.922,29.296999999999997,50.293,39.551,0.0,0
390,1581436125.661,3.418,16.113,-7.812,31.738000000000003,0.0,0
391,1581436125.664,16.602,17.578,-18.555,21.484,0.0,0
392,1581436125.668,60.059,25.879,51.27,29.785,0.0,0
393,1581436125.6720002,54.688,29.785,71.289,37.598,0.0,0
394,1581436125.676,2.441,21.484,10.742,23.438000000000002,0.0,0
395,1581436125.68,0.488,22.949,1.953,20.02,0.0,0
396,1581436125.6829998,55.176,31.25,49.805,31.738000000000003,0.0,0
397,1581436125.687,64.453,26.855,59.082,34.18,0.0,0
398,1581436125.691,16.602,19.043,20.508000000000003,25.879,0.0,0
399,1581436125.695,-0.488,17.578,14.648,23.438000000000002,0.0,0
400,1581436125.699,40.039,27.344,33.203,23.438000000000002,0.0,0
401,1581436125.7029998,68.359,28.32,34.18,32.227,0.0,0
402,1581436125.707,34.18,20.02,0.488,30.273000000000003,0.0,0
403,1581436125.71,-4.395,19.043,-20.508000000000003,8.789,0.0,0
404,1581436125.714,21.973000000000003,24.414,31.25,19.043,0.0,0
405,1581436125.718,62.012,26.855,60.059,34.18,0.0,0
406,1581436125.7220001,39.062,26.855,41.992,24.901999999999997,0.0,0
407,1581436125.726,-0.488,26.855,26.366999999999997,18.555,0.0,0
408,1581436125.7270002,15.625,24.414,38.086,24.901999999999997,0.0,0
409,1581436125.731,62.5,25.391,49.805,35.645,0.0,0
410,1581436125.735,62.012,29.785,45.41,37.598,0.0,0
411,1581436125.7389998,9.277000000000001,29.785,30.273000000000003,27.831999999999997,0.0,0
412,1581436125.7429998,1.953,23.926,24.901999999999997,25.391,0.0,0
413,1581436125.7470002,46.875,16.602,4.883,35.645,0.0,0
414,1581436125.7510002,58.105,20.02,-0.977,35.156,0.0,0
415,1581436125.754,18.066,28.32,39.062,26.366999999999997,0.0,0
416,1581436125.758,-7.812,25.391,38.574,22.461,0.0,0
417,1581436125.762,24.901999999999997,18.555,22.461,21.484,0.0,0
418,1581436125.766,54.199,17.09,16.602,20.02,0.0,0
419,1581436125.77,23.438000000000002,21.484,17.09,22.461,0.0,0
420,1581436125.7870002,-13.184000000000001,26.855,20.508000000000003,20.02,0.0,0
421,1581436125.7910001,12.207,26.366999999999997,6.348,21.973000000000003,0.0,0
422,1581436125.795,58.593999999999994,24.414,21.973000000000003,32.715,0.0,0
423,1581436125.799,42.968999999999994,31.738000000000003,45.41,28.809,0.0,0
424,1581436125.803,-4.883,26.855,24.414,20.996,0.0,0
425,1581436125.8070002,-0.977,14.16,-19.531,18.555,0.0,0
426,1581436125.811,44.434,18.066,7.812,22.949,0.0,0
427,1581436125.814,47.363,26.366999999999997,58.593999999999994,25.879,0.0,0
428,1581436125.8179998,-4.395,22.461,23.438000000000002,13.184000000000001,0.0,0
429,1581436125.822,-20.02,15.625,-7.812,11.719000000000001,0.0,0
430,1581436125.826,30.761999999999997,23.438000000000002,25.879,27.831999999999997,0.0,0
431,1581436125.83,53.223,31.738000000000003,52.733999999999995,33.691,0.0,0
432,1581436125.833,10.742,28.32,38.574,25.391,0.0,0
433,1581436125.8370001,-18.555,22.949,3.418,21.484,0.0,0
434,1581436125.841,16.602,19.043,10.742,25.391,0.0,0
435,1581436125.845,54.688,22.461,49.316,30.761999999999997,0.0,0
436,1581436125.849,24.414,27.831999999999997,22.949,22.461,0.0,0
437,1581436125.853,-21.973000000000003,23.438000000000002,-14.648,11.23,0.0,0
438,1581436125.857,7.324,28.809,-0.488,22.949,0.0,0
439,1581436125.86,57.617,34.18,48.34,33.203,0.0,0
440,1581436125.8639998,43.457,22.949,28.32,27.831999999999997,0.0,0
441,1581436125.8679998,-8.301,17.578,-23.438000000000002,17.578,0.0,0
442,1581436125.8720002,-10.254000000000001,20.996,17.09,17.578,0.0,0
443,1581436125.8760002,40.527,22.949,61.523,30.273000000000003,0.0,0
444,1581436125.877,51.27,26.366999999999997,37.109,32.227,0.0,0
445,1581436125.881,0.0,22.461,1.953,23.926,0.0,0
446,1581436125.885,-17.09,20.996,9.766,22.949,0.0,0
447,1581436125.889,31.25,27.344,32.715,34.18,0.0,0
448,1581436125.893,52.246,28.32,28.32,35.156,0.0,0
449,1581436125.897,10.254000000000001,23.438000000000002,1.465,22.461,0.0,0
450,1581436125.901,-24.414,18.066,-4.883,19.043,0.0,0
451,1581436125.904,11.719000000000001,23.926,39.551,28.32,0.0,0
452,1581436125.908,56.152,21.973000000000003,26.366999999999997,26.366999999999997,0.0,0
453,1581436125.9120002,24.414,16.602,-0.488,14.648,0.0,0
454,1581436125.9160001,-19.531,23.926,32.715,16.113,0.0,0
455,1581436125.92,3.906,22.949,28.32,25.879,0.0,0
456,1581436125.9220002,53.711000000000006,26.855,48.34,34.668,0.0,0
457,1581436125.926,47.363,25.879,52.733999999999995,31.738000000000003,0.0,0
458,1581436125.93,-9.766,20.02,31.25,19.043,0.0,0
459,1581436125.934,-17.09,19.043,22.461,17.09,0.0,0
460,1581436125.938,39.062,19.531,32.715,28.32,0.0,0
461,1581436125.9420002,50.293,19.531,37.109,33.203,0.0,0
462,1581436125.946,-2.93,20.02,31.25,23.438000000000002,0.0,0
463,1581436125.949,-20.996,18.555,13.672,20.508000000000003,0.0,0
464,1581436125.9529998,27.831999999999997,19.043,-2.441,28.32,0.0,0
465,1581436125.957,56.152,23.926,53.711000000000006,33.691,0.0,0
466,1581436125.961,12.695,17.09,66.895,25.391,0.0,0
467,1581436125.965,-25.879,10.742,19.043,13.672,0.0,0
468,1581436125.968,3.418,16.113,26.855,18.066,0.0,0
469,1581436125.9720001,50.293,23.926,67.87100000000001,25.879,0.0,0
470,1581436125.976,26.855,21.484,62.5,19.043,0.0,0
471,1581436125.98,-20.02,18.066,20.508000000000003,12.207,0.0,0
472,1581436125.984,-4.883,21.484,26.855,15.137,0.0,0
473,1581436125.988,45.41,21.973000000000003,34.18,25.391,0.0,0
474,1581436125.992,43.945,22.949,25.879,27.344,0.0,0
475,1581436125.995,-8.789,21.484,-9.766,12.207,0.0,0
476,1581436125.9989998,-20.996,18.555,-23.926,6.348,0.0,0
477,1581436126.0029998,31.738000000000003,22.949,51.758,19.043,0.0,0
478,1581436126.0070002,52.733999999999995,20.508000000000003,47.852,26.366999999999997,0.0,0
479,1581436126.0110002,0.977,17.578,11.719000000000001,16.602,0.0,0
480,1581436126.012,-25.879,17.09,18.555,6.836,0.0,0
481,1581436126.016,13.672,19.043,42.968999999999994,14.16,0.0,0
482,1581436126.02,49.316,17.578,51.27,22.461,0.0,0
483,1581436126.024,19.531,17.09,26.855,15.137,0.0,0
484,1581436126.0279999,-19.531,18.555,21.484,10.254000000000001,0.0,0
485,1581436126.032,4.883,16.113,19.531,13.672,0.0,0
486,1581436126.036,48.828,16.113,16.602,20.508000000000003,0.0,0
487,1581436126.039,35.645,15.137,0.0,23.438000000000002,0.0,0
488,1581436126.043,-13.184000000000001,18.555,3.418,14.648,0.0,0
489,1581436126.0470002,0.0,25.879,24.901999999999997,18.066,0.0,0
490,1581436126.051,52.733999999999995,28.809,32.715,31.738000000000003,0.0,0
491,1581436126.055,50.293,24.414,38.086,33.691,0.0,0
492,1581436126.0570002,0.0,21.484,39.551,20.508000000000003,0.0,0
493,1581436126.061,-8.789,17.09,8.789,15.137,0.0,0
494,1581436126.065,40.527,22.461,5.371,22.949,0.0,0
495,1581436126.069,60.059,26.366999999999997,45.41,20.508000000000003,0.0,0
496,1581436126.073,15.137,23.926,43.457,12.207,0.0,0
497,1581436126.0770001,-16.113,21.973000000000003,17.578,7.324,0.0,0
498,1581436126.081,18.555,15.137,-21.973000000000003,10.254000000000001,0.0,0
499,1581436126.0839999,51.758,21.484,-2.93,17.578,0.0,0
500,1581436126.0879998,22.461,31.25,48.34,21.973000000000003,0.0,0
501,1581436126.092,-14.16,28.809,24.414,21.484,0.0,0
502,1581436126.096,14.16,28.32,26.855,20.508000000000003,0.0,0
503,1581436126.1,59.082,26.855,53.223,26.855,0.0,0
504,1581436126.1020002,38.086,28.809,56.641000000000005,22.461,0.0,0
505,1581436126.106,-13.672,21.973000000000003,17.09,9.277000000000001,0.0,0
506,1581436126.11,-9.277000000000001,11.23,-4.395,10.742,0.0,0
507,1581436126.1139998,43.945,18.066,41.504,19.043,0.0,0
508,1581436126.1179998,51.27,26.855,52.733999999999995,20.508000000000003,0.0,0
509,1581436126.1220002,0.0,20.996,0.977,13.672,0.0,0
510,1581436126.1260002,-16.113,20.996,-29.785,6.348,0.0,0
511,1581436126.129,27.344,24.414,20.996,13.184000000000001,0.0,0
512,1581436126.133,51.758,23.926,71.289,19.531,0.0,0
513,1581436126.137,10.742,20.996,28.809,14.16,0.0,0
514,1581436126.141,-18.555,18.555,-2.441,11.719000000000001,0.0,0
515,1581436126.145,16.602,20.508000000000003,29.296999999999997,13.184000000000001,0.0,0
516,1581436126.1620002,52.733999999999995,23.926,57.617,23.438000000000002,0.0,0
517,1581436126.1660001,27.831999999999997,24.901999999999997,34.668,23.438000000000002,0.0,0
518,1581436126.17,-20.996,23.926,5.859,11.23,0.0,0
519,1581436126.174,-5.371,23.926,23.926,15.137,0.0,0
520,1581436126.178,41.992,23.438000000000002,56.152,23.926,0.0,0
521,1581436126.1820002,33.203,23.438000000000002,26.855,19.043,0.0,0
522,1581436126.186,-11.719000000000001,20.02,-14.648,9.277000000000001,0.0,0
523,1581436126.189,-13.184000000000001,17.578,8.789,9.277000000000001,0.0,0
524,1581436126.1929998,31.738000000000003,19.043,57.617,22.461,0.0,0
525,1581436126.197,46.875,20.508000000000003,22.461,20.508000000000003,0.0,0
526,1581436126.201,0.488,22.949,-10.742,8.301,0.0,0
527,1581436126.205,-20.02,25.879,35.156,8.789,0.0,0
528,1581436126.206,23.438000000000002,27.344,46.875,16.602,0.0,0
529,1581436126.21,51.758,26.855,45.41,24.414,0.0,0
530,1581436126.214,11.719000000000001,21.484,44.922,15.625,0.0,0
531,1581436126.218,-25.879,20.02,28.809,7.812,0.0,0
532,1581436126.2220001,6.348,24.414,31.25,20.02,0.0,0
533,1581436126.226,47.852,21.973000000000003,33.691,30.761999999999997,0.0,0
534,1581436126.23,18.555,19.043,26.855,20.02,0.0,0
535,1581436126.2329998,-33.203,21.973000000000003,19.043,3.418,0.0,0
536,1581436126.2370002,-20.02,17.09,15.137,4.395,0.0,0
537,1581436126.2410002,34.18,15.137,6.836,11.719000000000001,0.0,0
538,1581436126.245,34.668,23.926,27.831999999999997,15.137,0.0,0
539,1581436126.2489998,-14.16,23.438000000000002,32.227,8.789,0.0,0
540,1581436126.252,-15.137,20.02,14.16,9.277000000000001,0.0,0
541,1581436126.256,34.18,20.508000000000003,39.551,22.949,0.0,0
542,1581436126.26,52.246,22.949,63.965,27.831999999999997,0.0,0
543,1581436126.264,14.16,26.855,52.733999999999995,19.531,0.0,0
544,1581436126.268,-11.23,20.996,16.113,17.09,0.0,0
545,1581436126.272,23.438000000000002,14.16,13.184000000000001,22.949,0.0,0
546,1581436126.276,56.152,23.438000000000002,34.668,32.227,0.0,0
547,1581436126.279,24.414,31.738000000000003,47.363,21.484,0.0,0
548,1581436126.283,-10.254000000000001,22.949,4.883,8.301,0.0,0
549,1581436126.2870002,19.531,23.926,-2.441,15.137,0.0,0
550,1581436126.2910001,64.453,33.691,73.242,22.949,0.0,0
551,1581436126.295,52.733999999999995,31.738000000000003,67.383,20.996,0.0,0
552,1581436126.2970002,10.254000000000001,26.855,20.996,9.277000000000001,0.0,0
553,1581436126.301,20.02,28.32,8.301,10.742,0.0,0
554,1581436126.305,68.359,33.203,50.293,20.508000000000003,0.0,0
555,1581436126.309,75.195,26.366999999999997,54.688,20.508000000000003,0.0,0
556,1581436126.313,29.785,27.831999999999997,18.066,20.02,0.0,0
557,1581436126.3170002,3.906,31.25,16.602,22.949,0.0,0
558,1581436126.321,39.551,23.438000000000002,30.273000000000003,39.551,0.0,0
559,1581436126.324,54.199,22.949,38.574,49.316,0.0,0
560,1581436126.3279998,12.207,23.438000000000002,3.906,30.273000000000003,0.0,0
561,1581436126.332,-12.695,26.366999999999997,18.066,20.996,0.0,0
562,1581436126.336,18.066,28.809,59.57,31.738000000000003,0.0,0
563,1581436126.34,50.781000000000006,25.879,49.316,36.133,0.0,0
564,1581436126.342,18.066,25.391,36.621,27.831999999999997,0.0,0
565,1581436126.346,-27.831999999999997,23.926,27.831999999999997,13.184000000000001,0.0,0
566,1581436126.35,-3.418,21.484,25.391,18.555,0.0,0
567,1581436126.3539999,50.781000000000006,25.391,40.527,30.761999999999997,0.0,0
568,1581436126.3579998,43.457,17.578,37.109,29.785,0.0,0
569,1581436126.3620002,-11.23,10.254000000000001,6.836,24.414,0.0,2
570,1581436126.3660002,-10.742,20.02,7.812,22.461,0.0,0
571,1581436126.369,41.992,19.043,16.602,24.414,0.0,0
572,1581436126.373,52.246,19.043,28.32,22.461,0.0,0
573,1581436126.377,0.488,26.366999999999997,63.965,16.113,0.0,0
574,1581436126.381,-17.09,28.809,44.434,14.648,0.0,0
575,1581436126.385,31.25,27.344,36.621,27.344,0.0,0
576,1581436126.387,49.316,22.949,56.641000000000005,29.296999999999997,0.0,0
577,1581436126.391,11.23,25.391,55.663999999999994,19.043,0.0,0
578,1581436126.395,-12.207,23.926,24.901999999999997,17.578,0.0,0
579,1581436126.399,19.531,23.438000000000002,20.508000000000003,24.901999999999997,0.0,0
580,1581436126.4029999,58.593999999999994,23.926,53.711000000000006,29.296999999999997,0.0,0
581,1581436126.407,29.785,20.02,39.551,23.438000000000002,0.0,0
582,1581436126.411,-18.066,14.648,-2.441,16.602,0.0,0
583,1581436126.414,0.0,13.672,-20.508000000000003,13.672,0.0,0
584,1581436126.418,51.758,26.855,35.156,20.508000000000003,0.0,0
585,1581436126.4220002,45.898,27.344,62.988,25.879,0.0,0
586,1581436126.426,-8.789,13.184000000000001,12.695,15.625,0.0,0
587,1581436126.43,-9.766,15.625,0.977,11.23,0.0,0
588,1581436126.4320002,40.039,27.344,38.574,22.461,0.0,0
589,1581436126.436,51.27,30.273000000000003,50.293,29.785,0.0,0
590,1581436126.44,10.254000000000001,24.901999999999997,16.113,21.484,0.0,0
591,1581436126.444,-6.836,21.484,11.23,27.344,0.0,0
592,1581436126.448,34.18,21.973000000000003,30.761999999999997,38.086,0.0,0
593,1581436126.4520001,55.176,21.973000000000003,26.855,37.109,0.0,0
594,1581436126.456,18.555,18.066,-6.836,29.785,0.0,0
595,1581436126.4589999,-9.766,16.602,-22.461,16.602,0.0,0
596,1581436126.4629998,20.02,24.901999999999997,42.968999999999994,19.531,0.0,0
597,1581436126.467,61.035,24.414,69.824,31.25,0.0,0
598,1581436126.471,43.945,25.391,45.898,36.621,0.0,0
599,1581436126.475,-0.488,26.366999999999997,26.855,30.761999999999997,0.0,0
600,1581436126.476,12.695,21.973000000000003,31.25,27.831999999999997,0.0,0
601,1581436126.48,63.477,22.461,48.828,37.598,0.0,0
602,1581436126.484,60.547,21.484,37.598,41.504,0.0,0
603,1581436126.488,11.719000000000001,20.996,20.508000000000003,30.273000000000003,0.0,0
604,1581436126.492,8.301,26.366999999999997,20.508000000000003,28.809,0.0,0
605,1581436126.496,63.477,26.366999999999997,17.578,44.434,0.0,0
606,1581436126.5,78.613,24.414,20.02,44.922,0.0,0
607,1581436126.5029998,28.809,24.901999999999997,41.016000000000005,30.761999999999997,0.0,0
608,1581436126.5070002,-1.465,22.461,40.039,21.973000000000003,0.0,0
609,1581436126.5110002,39.551,23.438000000000002,33.691,30.761999999999997,0.0,0
610,1581436126.515,81.055,24.414,45.898,39.062,0.0,0
611,1581436126.519,44.434,25.391,47.363,29.785,0.0,0
612,1581436126.5370002,2.441,24.414,11.23,24.414,0.0,0
613,1581436126.5410001,27.344,18.066,2.441,29.296999999999997,0.0,0
614,1581436126.545,63.965,18.555,41.016000000000005,32.227,0.0,0
615,1581436126.549,54.688,26.855,71.289,30.273000000000003,0.0,0
616,1581436126.553,12.207,27.344,48.828,27.344,0.0,0
617,1581436126.5570002,12.695,20.508000000000003,-4.395,25.391,0.0,0
618,1581436126.561,58.593999999999994,18.555,12.207,29.296999999999997,0.0,0
619,1581436126.564,57.129,24.414,55.176,30.273000000000003,0.0,0
620,1581436126.5679998,4.395,22.949,43.945,21.973000000000003,0.0,0
621,1581436126.572,-6.836,15.625,12.695,17.578,0.0,0
622,1581436126.576,44.922,21.973000000000003,36.621,30.761999999999997,0.0,0
623,1581436126.58,63.477,26.366999999999997,82.52,39.062,0.0,0
624,1581436126.582,18.555,17.09,41.016000000000005,27.831999999999997,0.0,0
625,1581436126.586,-16.113,13.672,3.906,20.996,0.0,0
626,1581436126.59,23.926,20.996,38.574,27.831999999999997,0.0,0
627,1581436126.5939999,60.059,22.461,50.781000000000006,35.645,0.0,0
628,1581436126.5979998,20.996,20.508000000000003,26.366999999999997,23.926,0.0,0
629,1581436126.6020002,-19.531,20.508000000000003,-1.465,14.16,0.0,0
630,1581436126.606,1.465,20.02,-1.465,20.996,0.0,0
631,1581436126.609,50.293,25.391,49.316,26.855,0.0,0
632,1581436126.613,36.621,23.926,48.34,19.531,0.0,0
633,1581436126.617,-16.113,16.602,-15.625,8.301,0.0,0
634,1581436126.621,-12.207,19.043,14.16,10.742,0.0,0
635,1581436126.625,37.598,23.926,66.895,22.949,0.0,0
636,1581436126.627,44.922,21.973000000000003,47.363,22.461,0.0,0
637,1581436126.631,-4.883,17.09,15.137,13.184000000000001,0.0,0
638,1581436126.635,-19.531,19.043,14.16,14.16,0.0,0
639,1581436126.639,31.25,26.366999999999997,44.434,27.344,0.0,0
640,1581436126.643,54.688,25.879,48.828,27.831999999999997,0.0,0
641,1581436126.647,6.348,17.578,16.113,14.648,0.0,0
642,1581436126.651,-26.366999999999997,14.648,-4.395,9.277000000000001,0.0,0
643,1581436126.654,6.348,15.137,9.766,16.113,0.0,0
644,1581436126.658,50.293,14.648,7.324,24.901999999999997,0.0,0
645,1581436126.6620002,31.738000000000003,19.043,3.418,17.578,0.0,0
646,1581436126.6660001,-17.578,26.855,37.109,8.789,0.0,0
647,1581436126.67,-1.465,28.809,25.879,14.16,0.0,0
648,1581436126.6720002,53.711000000000006,27.831999999999997,28.32,26.855,0.0,0
649,1581436126.676,41.016000000000005,28.809,49.316,21.484,0.0,0
650,1581436126.68,-12.695,29.785,36.621,9.277000000000001,0.0,0
651,1581436126.684,-14.648,25.391,11.23,12.207,0.0,0
652,1581436126.688,35.156,23.926,18.555,20.996,0.0,0
653,1581436126.6920002,50.781000000000006,25.391,21.973000000000003,26.366999999999997,0.0,0
654,1581436126.696,1.465,26.855,14.16,14.648,0.0,0
655,1581436126.699,-19.531,30.273000000000003,10.742,9.766,0.0,0
656,1581436126.7029998,19.531,23.438000000000002,-8.301,14.648,0.0,0
657,1581436126.707,49.805,21.484,24.414,21.484,0.0,0
658,1581436126.711,20.02,24.901999999999997,44.922,24.901999999999997,0.0,0
659,1581436126.715,-17.09,23.438000000000002,15.625,14.648,0.0,0
660,1581436126.717,14.16,24.414,18.066,21.484,0.0,0
661,1581436126.721,57.617,27.831999999999997,56.641000000000005,30.761999999999997,0.0,0
662,1581436126.725,33.691,29.296999999999997,54.199,22.461,0.0,0
663,1581436126.7289999,-11.23,24.901999999999997,6.348,12.207,0.0,0
664,1581436126.7329998,2.441,21.484,7.812,16.602,0.0,0
665,1581436126.7370002,47.363,20.02,33.203,29.296999999999997,0.0,0
666,1581436126.7410002,43.457,24.414,48.34,26.855,0.0,0
667,1581436126.744,-3.418,17.09,5.371,10.742,0.0,0
668,1581436126.748,-16.602,11.719000000000001,-16.113,3.418,0.0,0
669,1581436126.752,27.344,23.438000000000002,52.733999999999995,17.09,0.0,0
670,1581436126.756,51.27,24.901999999999997,56.641000000000005,27.344,0.0,0
671,1581436126.76,0.977,20.02,26.855,14.16,0.0,0
672,1581436126.762,-26.855,17.578,10.742,10.742,0.0,0
673,1581436126.766,17.578,17.578,34.18,21.973000000000003,0.0,0
674,1581436126.77,49.316,15.625,52.246,23.926,0.0,0
675,1581436126.774,15.137,20.508000000000003,32.227,16.113,0.0,0
676,1581436126.7779999,-20.02,23.438000000000002,19.043,9.277000000000001,0.0,0
677,1581436126.782,3.418,16.602,13.672,15.625,0.0,0
678,1581436126.786,45.41,16.602,29.296999999999997,24.414,0.0,0
679,1581436126.789,31.738000000000003,20.02,19.531,16.113,0.0,0
680,1581436126.793,-19.043,20.508000000000003,21.484,6.836,0.0,0
681,1581436126.7970002,-12.207,25.879,53.223,11.719000000000001,0.0,0
682,1581436126.801,37.598,25.879,50.781000000000006,20.508000000000003,0.0,0
683,1581436126.805,37.109,20.02,49.316,19.531,0.0,0
684,1581436126.8070002,-5.371,24.414,52.733999999999995,13.184000000000001,0.0,0
685,1581436126.811,-15.137,29.785,42.48,14.16,0.0,0
686,1581436126.815,27.344,18.555,33.691,17.578,0.0,0
687,1581436126.819,46.387,12.207,23.926,18.066,0.0,0
688,1581436126.823,5.371,20.508000000000003,28.32,12.695,0.0,0
689,1581436126.8270001,-18.066,23.438000000000002,20.996,9.277000000000001,0.0,0
690,1581436126.831,14.648,18.555,-12.207,14.648,0.0,0
691,1581436126.8339999,47.363,20.02,7.324,13.672,0.0,0
692,1581436126.8379998,20.508000000000003,30.273000000000003,67.87100000000001,10.254000000000001,0.0,0
693,1581436126.842,-21.973000000000003,23.926,52.733999999999995,11.23,0.0,0
694,1581436126.846,0.977,20.02,35.156,13.672,0.0,0
695,1581436126.85,46.387,27.831999999999997,54.688,20.508000000000003,0.0,0
696,1581436126.8520002,39.551,32.227,64.453,16.602,0.0,0
697,1581436126.856,-8.301,25.879,31.25,8.301,0.0,0
698,1581436126.86,-13.672,21.973000000000003,6.348,11.719000000000001,0.0,0
699,1581436126.8639998,38.086,30.761999999999997,45.41,22.949,0.0,0
700,1581436126.8679998,57.129,38.086,61.035,27.344,0.0,0
701,1581436126.8720002,3.418,28.809,4.395,12.207,0.0,0
702,1581436126.8760002,-27.344,19.043,-23.926,0.977,0.0,0
703,1581436126.879,18.066,18.066,18.066,11.719000000000001,0.0,0
704,1581436126.883,48.34,24.414,71.777,20.02,0.0,0
705,1581436126.887,13.184000000000001,24.901999999999997,37.598,14.16,0.0,0
706,1581436126.891,-21.973000000000003,24.414,0.977,6.348,0.0,0
707,1581436126.895,3.906,25.879,41.016000000000005,8.301,0.0,0
708,1581436126.9120002,43.457,23.926,64.453,18.066,0.0,0
709,1581436126.9160001,19.531,23.926,39.062,14.648,0.0,0
710,1581436126.92,-28.809,24.414,9.766,3.418,0.0,0
711,1581436126.924,-21.484,27.831999999999997,33.203,-7.324,0.0,0
712,1581436126.928,13.672,26.855,57.129,-7.324,0.0,0
713,1581436126.9320002,8.301,22.461,15.137,-6.348,0.0,0
714,1581436126.936,-39.062,26.366999999999997,-4.883,-20.508000000000003,0.0,0
715,1581436126.939,-53.223,30.761999999999997,37.109,-26.366999999999997,0.0,0
716,1581436126.9429998,-13.672,32.715,58.593999999999994,-28.32,0.0,0
717,1581436126.947,-9.277000000000001,32.227,38.086,-34.668,0.0,0
718,1581436126.951,-62.012,30.761999999999997,23.438000000000002,-44.922,0.0,0
719,1581436126.955,-89.844,38.086,38.574,-55.663999999999994,0.0,0
720,1581436126.957,-63.965,42.48,57.617,-63.477,0.0,0
721,1581436126.961,-46.387,38.574,67.87100000000001,-76.172,0.0,0
722,1581436126.965,-87.891,34.668,55.663999999999994,-88.867,0.0,0
723,1581436126.9689999,-132.32399999999998,41.016000000000005,47.363,-103.516,0.0,0
724,1581436126.9729998,-112.79299999999999,41.992,41.992,-106.445,0.0,0
725,1581436126.9770002,-77.637,41.016000000000005,48.34,-100.586,0.0,0
726,1581436126.981,-115.234,40.039,43.457,-120.117,0.0,0
727,1581436126.984,-165.52700000000002,37.109,39.551,-139.16,0.0,0
728,1581436126.988,-157.715,41.504,42.968999999999994,-139.16,0.0,0
729,1581436126.992,-125.488,43.457,31.738000000000003,-144.043,0.0,0
730,1581436126.996,-128.906,43.945,65.43,-150.879,0.0,0
731,1581436127.0,-173.828,36.133,60.547,-158.203,0.0,0
732,1581436127.002,-183.105,29.785,18.555,-158.691,0.0,0
733,1581436127.006,-138.184,37.109,39.062,-147.461,0.0,0
734,1581436127.01,-117.18799999999999,45.41,68.848,-143.066,0.0,0
735,1581436127.014,-160.645,43.457,47.363,-153.809,0.0,0
736,1581436127.018,-182.12900000000002,35.156,4.883,-154.785,0.0,0
737,1581436127.022,-134.27700000000002,32.227,7.324,-135.74200000000002,0.0,0
738,1581436127.026,-101.074,38.086,49.316,-127.441,0.0,0
739,1581436127.029,-131.836,41.016000000000005,68.359,-133.789,0.0,0
740,1581436127.033,-160.645,33.203,4.395,-136.719,0.0,0
741,1581436127.0370002,-136.719,29.785,1.953,-130.371,0.0,0
742,1581436127.0410001,-87.402,36.133,79.102,-114.74600000000001,0.0,0
743,1581436127.045,-88.867,33.691,68.848,-100.586,0.0,0
744,1581436127.0470002,-128.418,28.32,37.109,-95.215,0.0,0
745,1581436127.051,-119.62899999999999,28.809,33.691,-88.37899999999999,0.0,0
746,1581436127.055,-65.43,34.668,55.176,-76.66,0.0,0
747,1581436127.059,-50.781000000000006,34.18,40.527,-67.87100000000001,0.0,0
748,1581436127.063,-86.914,22.461,3.906,-65.918,0.0,0
749,1581436127.0670002,-101.074,15.137,4.883,-59.082,0.0,0
750,1581436127.071,-54.199,24.901999999999997,33.203,-43.457,0.0,0
751,1581436127.074,-21.973000000000003,27.344,41.504,-35.645,0.0,0
752,1581436127.0779998,-49.805,30.273000000000003,6.836,-40.039,0.0,0
753,1581436127.082,-68.359,34.18,11.23,-40.039,0.0,0
754,1581436127.086,-27.344,36.621,59.57,-26.855,0.0,0
755,1581436127.09,20.508000000000003,33.691,52.733999999999995,-7.812,0.0,0
756,1581436127.093,3.418,22.949,21.484,-1.953,0.0,0
757,1581436127.0970001,-33.691,20.508000000000003,15.625,-2.93,0.0,0
758,1581436127.101,-10.254000000000001,23.926,25.391,9.277000000000001,0.0,0
759,1581436127.105,41.504,20.996,30.273000000000003,23.926,0.0,0
760,1581436127.109,43.457,16.602,28.809,29.785,0.0,0
761,1581436127.113,-6.348,13.672,12.207,21.484,0.0,0
762,1581436127.117,-8.301,16.113,5.859,23.926,0.0,0
763,1581436127.12,52.733999999999995,19.531,0.488,37.598,0.0,0
764,1581436127.1239998,70.312,20.02,2.93,42.968999999999994,0.0,0
765,1581436127.1279998,20.508000000000003,19.043,39.551,39.551,0.0,0
766,1581436127.1320002,1.465,13.672,26.855,34.668,0.0,0
767,1581436127.1360002,52.733999999999995,18.066,20.508000000000003,44.922,0.0,0
768,1581436127.137,87.891,20.508000000000003,44.922,53.711000000000006,0.0,0
769,1581436127.141,52.733999999999995,18.555,49.316,47.363,0.0,0
770,1581436127.145,24.901999999999997,12.695,12.207,38.574,0.0,0
771,1581436127.149,63.965,8.789,0.0,42.48,0.0,0
772,1581436127.1529999,109.375,15.625,25.879,56.152,0.0,0
773,1581436127.157,84.961,21.484,25.391,58.593999999999994,0.0,0
774,1581436127.161,35.645,15.625,-3.906,55.663999999999994,0.0,0
775,1581436127.164,47.363,10.742,-25.391,58.593999999999994,0.0,0
776,1581436127.168,92.773,19.043,21.973000000000003,74.707,0.0,0
777,1581436127.1720002,84.961,19.531,59.57,84.961,0.0,0
778,1581436127.176,35.156,19.531,38.086,75.195,0.0,0
779,1581436127.18,26.855,22.949,21.484,78.125,0.0,0
780,1581436127.1820002,76.66,19.043,48.34,86.426,0.0,0
781,1581436127.186,94.238,15.625,58.105,84.961,0.0,0
782,1581436127.19,44.434,9.277000000000001,26.366999999999997,77.148,0.0,0
783,1581436127.194,16.602,9.766,1.465,68.848,0.0,0
784,1581436127.198,63.477,19.531,32.715,76.66,0.0,0
785,1581436127.2020001,102.051,21.973000000000003,47.363,89.355,0.0,0
786,1581436127.206,68.848,11.23,-11.719000000000001,79.59,0.0,0
787,1581436127.2089999,32.227,5.371,-35.645,65.43,0.0,0
788,1581436127.2129998,62.988,18.066,41.504,77.148,0.0,0
789,1581436127.217,104.98,17.578,63.477,87.891,0.0,0
790,1581436127.221,84.961,10.254000000000001,29.296999999999997,79.59,0.0,0
791,1581436127.225,42.968999999999994,7.324,-3.418,73.242,0.0,0
792,1581436127.2270002,52.733999999999995,10.742,9.766,82.031,0.0,0
793,1581436127.231,111.32799999999999,17.09,45.41,89.355,0.0,0
794,1581436127.235,115.234,16.113,35.156,90.82,0.0,0
795,1581436127.2389998,59.57,18.066,32.715,82.52,0.0,0
796,1581436127.2429998,51.758,20.996,20.508000000000003,75.684,0.0,0
797,1581436127.2470002,102.539,21.484,6.348,91.309,0.0,0
798,1581436127.2510002,123.535,18.555,1.953,100.586,0.0,0
799,1581436127.254,79.59,18.066,10.742,90.82,0.0,0
800,1581436127.258,52.733999999999995,18.555,26.855,83.984,0.0,0
801,1581436127.262,89.844,17.09,16.602,86.914,0.0,0
802,1581436127.266,128.418,15.625,38.086,92.773,0.0,0
803,1581436127.27,101.074,11.719000000000001,46.875,89.844,0.0,0
804,1581436127.2870002,58.593999999999994,10.254000000000001,16.602,79.102,0.0,0
805,1581436127.2910001,83.49600000000001,14.648,16.113,87.402,0.0,0
806,1581436127.295,126.465,23.926,19.531,98.145,0.0,0
807,1581436127.299,109.375,26.366999999999997,24.901999999999997,91.309,0.0,0
808,1581436127.303,62.988,15.137,24.414,88.867,0.0,0
809,1581436127.3070002,66.895,15.137,-25.391,92.285,0.0,0
810,1581436127.311,109.863,19.531,-22.949,91.79700000000001,0.0,0
811,1581436127.314,115.234,13.672,54.199,92.285,0.0,0
812,1581436127.3179998,70.312,14.648,42.968999999999994,86.426,0.0,0
813,1581436127.322,52.733999999999995,19.531,6.836,80.566,0.0,0
814,1581436127.326,96.68,20.508000000000003,33.203,83.008,0.0,0
815,1581436127.33,123.04700000000001,22.461,56.641000000000005,90.33200000000001,0.0,0
816,1581436127.332,83.984,20.02,38.574,84.473,0.0,0
817,1581436127.336,51.27,17.09,14.16,73.242,0.0,0
818,1581436127.34,83.008,21.973000000000003,31.738000000000003,76.66,0.0,0
819,1581436127.3439999,119.62899999999999,26.366999999999997,49.316,85.449,0.0,0
820,1581436127.3479998,87.891,20.02,36.133,80.078,0.0,0
821,1581436127.3520002,43.457,12.695,7.812,72.266,0.0,0
822,1581436127.356,60.547,12.695,0.488,74.219,0.0,0
823,1581436127.359,106.934,18.066,41.992,80.566,0.0,0
824,1581436127.363,104.00399999999999,19.043,44.922,79.59,0.0,0
825,1581436127.367,51.758,14.648,-11.23,67.87100000000001,0.0,0
826,1581436127.371,47.363,21.484,21.973000000000003,62.012,0.0,0
827,1581436127.375,94.727,25.391,79.102,65.43,0.0,0
828,1581436127.377,102.051,20.996,55.663999999999994,67.87100000000001,0.0,0
829,1581436127.381,56.641000000000005,20.02,29.296999999999997,64.453,0.0,0
830,1581436127.385,30.761999999999997,19.531,36.621,55.176,0.0,0
831,1581436127.389,69.824,21.973000000000003,49.805,54.199,0.0,0
832,1581436127.393,100.098,21.484,47.852,64.453,0.0,0
833,1581436127.397,64.453,18.066,18.066,59.57,0.0,0
834,1581436127.401,25.391,20.02,1.465,46.875,0.0,0
835,1581436127.404,50.293,24.901999999999997,44.434,52.246,0.0,0
836,1581436127.408,95.70299999999999,17.578,32.715,57.129,0.0,0
837,1581436127.4120002,75.195,16.602,10.254000000000001,53.223,0.0,0
838,1581436127.4160001,19.043,23.926,45.41,41.504,0.0,0
839,1581436127.42,27.831999999999997,22.461,52.733999999999995,39.551,0.0,0
840,1581436127.4220002,82.52,22.461,64.941,54.199,0.0,0
841,1581436127.426,80.078,17.578,69.824,54.688,0.0,0
842,1581436127.43,23.438000000000002,10.742,44.434,39.551,0.0,0
843,1581436127.434,14.16,15.625,17.578,39.551,0.0,0
844,1581436127.438,58.593999999999994,19.531,31.25,52.733999999999995,0.0,0
845,1581436127.4420002,71.777,15.137,36.133,53.711000000000006,0.0,0
846,1581436127.446,28.32,19.043,20.996,44.434,0.0,0
847,1581436127.449,3.906,19.531,3.418,40.039,0.0,0
848,1581436127.4529998,42.48,16.113,-11.719000000000001,38.574,0.0,0
849,1581436127.457,73.73,17.09,42.48,41.992,0.0,0
850,1581436127.461,43.457,17.09,64.453,40.039,0.0,0
851,1581436127.465,-0.488,20.508000000000003,17.09,29.785,0.0,0
852,1581436127.467,16.113,25.879,13.672,35.156,0.0,0
853,1581436127.471,65.918,37.109,62.012,41.992,0.0,0
854,1581436127.475,49.805,32.227,61.035,39.551,0.0,0
855,1581436127.4789999,-7.324,19.531,20.996,23.438000000000002,0.0,0
856,1581436127.4829998,0.0,19.531,16.602,18.066,0.0,0
857,1581436127.4870002,47.852,21.484,19.531,32.227,0.0,0
858,1581436127.4910002,48.34,23.438000000000002,35.156,35.156,0.0,0
859,1581436127.494,0.977,19.531,8.789,25.879,0.0,0
860,1581436127.498,-8.301,19.043,-20.02,20.996,0.0,0
861,1581436127.502,39.551,23.926,46.387,27.344,0.0,0
862,1581436127.506,58.105,21.484,61.035,31.738000000000003,0.0,0
863,1581436127.51,16.602,19.531,21.973000000000003,28.32,0.0,0
864,1581436127.512,-16.113,20.508000000000003,7.812,20.996,0.0,0
865,1581436127.516,22.461,21.973000000000003,34.668,21.973000000000003,0.0,0
866,1581436127.52,67.383,18.555,31.738000000000003,33.203,0.0,0
867,1581436127.524,32.715,20.996,21.973000000000003,33.203,0.0,0
868,1581436127.5279999,-16.602,24.414,23.926,21.484,0.0,0
869,1581436127.532,6.348,22.461,22.949,25.391,0.0,0
870,1581436127.536,52.246,17.09,21.484,33.691,0.0,0
871,1581436127.539,40.039,12.207,1.953,22.949,0.0,0
872,1581436127.543,-6.348,21.484,11.719000000000001,19.531,0.0,0
873,1581436127.5470002,-2.441,27.831999999999997,31.738000000000003,27.344,0.0,1
874,1581436127.551,47.363,22.949,35.156,34.668,0.0,0
875,1581436127.555,46.387,19.531,43.457,32.227,0.0,0
876,1581436127.5570002,-0.977,21.484,35.156,20.508000000000003,0.0,0
877,1581436127.561,-13.184000000000001,20.508000000000003,20.996,20.508000000000003,0.0,0
878,1581436127.565,28.32,21.973000000000003,21.484,25.391,0.0,0
879,1581436127.569,54.199,26.855,28.809,27.344,0.0,0
880,1581436127.573,17.578,24.414,26.855,19.043,0.0,0
881,1581436127.5770001,-15.625,21.484,6.836,17.09,0.0,0
882,1581436127.581,17.09,16.113,-21.973000000000003,22.461,0.0,0
883,1581436127.5839999,56.152,21.484,-0.488,22.949,0.0,0
884,1581436127.5879998,30.273000000000003,30.273000000000003,51.758,23.438000000000002,0.0,0
885,1581436127.592,-8.789,19.531,26.366999999999997,20.02,0.0,0
886,1581436127.596,10.254000000000001,15.625,17.578,26.855,0.0,0
887,1581436127.6,53.711000000000006,24.414,49.805,35.645,0.0,0
888,1581436127.6020002,52.246,30.273000000000003,52.733999999999995,36.133,0.0,0
889,1581436127.606,7.324,26.855,27.831999999999997,35.156,0.0,0
890,1581436127.61,-6.348,21.973000000000003,15.625,23.926,0.0,0
891,1581436127.6139998,36.133,23.438000000000002,45.898,24.414,0.0,0
892,1581436127.6179998,47.852,24.901999999999997,61.035,30.761999999999997,0.0,0
893,1581436127.6220002,-0.977,18.066,5.371,24.414,0.0,0
894,1581436127.6260002,-22.461,8.301,-39.062,17.09,0.0,0
895,1581436127.629,21.484,17.09,25.391,19.531,0.0,0
896,1581436127.633,58.105,28.809,70.801,33.203,0.0,0
897,1581436127.637,30.273000000000003,24.901999999999997,39.062,36.621,0.0,0
898,1581436127.641,-3.418,24.414,12.695,27.831999999999997,0.0,0
899,1581436127.645,30.273000000000003,27.831999999999997,40.527,35.645,0.0,0
900,1581436127.6620002,73.242,27.344,72.75399999999999,44.434,0.0,0
901,1581436127.6660001,51.758,20.02,46.387,44.922,0.0,0
902,1581436127.67,3.418,17.578,8.789,36.133,0.0,0
903,1581436127.674,9.766,25.391,23.926,29.296999999999997,0.0,0
904,1581436127.678,61.523,21.973000000000003,49.805,37.598,0.0,0
905,1581436127.6820002,57.129,13.672,18.555,35.156,0.0,0
906,1581436127.686,10.254000000000001,19.043,-6.348,20.996,0.0,0
907,1581436127.689,6.836,25.879,25.879,20.996,0.0,0
908,1581436127.6929998,47.363,21.973000000000003,45.898,24.901999999999997,0.0,0
909,1581436127.697,61.035,18.555,38.086,27.344,0.0,0
910,1581436127.701,17.09,13.672,22.461,21.484,0.0,0
911,1581436127.705,-11.23,18.066,19.043,16.113,0.0,0
912,1581436127.707,25.879,22.949,33.691,24.414,0.0,0
913,1581436127.711,60.059,19.531,43.457,28.32,0.0,0
914,1581436127.715,24.901999999999997,19.043,34.668,21.973000000000003,0.0,0
915,1581436127.7189999,-12.207,15.137,19.043,16.113,0.0,0
916,1581436127.7229998,17.09,16.602,25.879,22.461,0.0,0
917,1581436127.7270002,61.035,18.555,28.32,32.715,0.0,0
918,1581436127.731,47.852,17.578,17.578,30.761999999999997,0.0,0
919,1581436127.734,-4.395,19.043,31.25,21.484,0.0,0
920,1581436127.738,-1.953,18.066,31.738000000000003,20.996,0.0,0
921,1581436127.742,54.199,18.066,10.254000000000001,32.715,0.0,0
922,1581436127.746,56.152,25.879,39.062,32.227,0.0,0
923,1581436127.75,4.883,29.785,50.781000000000006,22.949,0.0,0
924,1581436127.752,-3.906,26.855,14.648,24.414,0.0,0
925,1581436127.756,39.551,22.949,14.648,26.366999999999997,0.0,0
926,1581436127.76,65.918,26.366999999999997,49.316,31.25,0.0,0
927,1581436127.764,20.508000000000003,30.273000000000003,52.246,25.391,0.0,0
928,1581436127.768,-15.137,24.901999999999997,1.953,15.625,0.0,0
929,1581436127.772,22.461,19.531,-5.859,22.949,0.0,0
930,1581436127.776,58.593999999999994,23.926,27.831999999999997,33.203,0.0,0
931,1581436127.779,31.738000000000003,29.296999999999997,46.387,32.227,0.0,0
932,1581436127.783,-6.836,22.949,11.23,22.949,0.0,0
933,1581436127.7870002,15.625,23.926,-11.23,20.02,0.0,0
934,1581436127.7910001,61.523,30.761999999999997,56.641000000000005,33.203,0.0,0
935,1581436127.795,48.34,29.785,70.312,31.738000000000003,0.0,0
936,1581436127.7979999,-0.488,25.879,29.296999999999997,21.973000000000003,0.0,0
937,1581436127.802,2.441,30.273000000000003,28.32,24.901999999999997,0.0,0
938,1581436127.806,48.34,34.668,54.199,30.273000000000003,0.0,0
939,1581436127.81,53.223,26.366999999999997,50.293,24.901999999999997,0.0,0
940,1581436127.814,2.441,18.066,16.602,14.16,0.0,0
941,1581436127.8179998,-16.602,18.066,-6.836,11.23,0.0,0
942,1581436127.822,29.296999999999997,24.901999999999997,5.371,18.555,0.0,0
943,1581436127.825,56.152,30.761999999999997,38.574,23.438000000000002,0.0,0
944,1581436127.829,18.066,23.926,8.789,9.766,0.0,0
945,1581436127.833,-20.02,22.949,10.742,-4.883,0.0,0
946,1581436127.8370001,5.371,26.855,54.688,2.93,0.0,0
947,1581436127.841,46.387,25.391,44.434,17.09,0.0,0
948,1581436127.843,26.366999999999997,27.344,24.414,14.648,0.0,0
949,1581436127.8470001,-20.02,30.761999999999997,26.366999999999997,6.836,0.0,0
950,1581436127.851,-6.348,29.785,35.645,7.812,0.0,0
951,1581436127.855,39.551,18.066,35.156,13.672,0.0,0
952,1581436127.859,26.855,12.207,31.738000000000003,14.16,0.0,0
953,1581436127.863,-17.578,13.672,7.812,9.766,0.0,0
954,1581436127.867,-14.648,22.461,16.113,12.695,0.0,0
955,1581436127.87,29.296999999999997,23.438000000000002,17.578,20.508000000000003,0.0,0
956,1581436127.8739998,37.109,20.508000000000003,8.301,17.578,0.0,0
957,1581436127.8779998,-12.695,25.391,32.715,7.324,0.0,0
958,1581436127.8820002,-32.227,21.973000000000003,22.949,10.254000000000001,0.0,0
959,1581436127.8860002,19.531,21.973000000000003,39.551,22.949,0.0,0
960,1581436127.887,51.27,20.996,50.293,26.366999999999997,0.0,0
961,1581436127.891,14.648,26.855,44.434,25.391,0.0,0
962,1581436127.895,-22.949,22.949,25.879,21.484,0.0,0
963,1581436127.899,4.395,7.812,20.996,16.602,0.0,0
964,1581436127.9029999,47.852,14.16,49.316,22.949,0.0,0
965,1581436127.907,20.02,18.555,32.715,21.484,0.0,0
966,1581436127.911,-25.879,20.996,-12.695,12.207,0.0,0
967,1581436127.914,-6.836,23.926,-27.344,13.184000000000001,0.0,0
968,1581436127.918,41.016000000000005,28.32,41.504,16.113,0.0,0
969,1581436127.9220002,34.668,33.691,91.309,19.531,0.0,0
970,1581436127.926,-8.789,28.32,31.738000000000003,16.602,0.0,0
971,1581436127.93,-14.16,24.414,3.906,15.137,0.0,0
972,1581436127.9329998,29.296999999999997,29.296999999999997,49.316,21.484,0.0,0
973,1581436127.937,49.805,26.366999999999997,70.312,18.555,0.0,0
974,1581436127.941,6.348,19.531,28.32,8.789,0.0,0
975,1581436127.945,-22.949,22.949,14.16,3.418,0.0,0
976,1581436127.949,18.555,24.901999999999997,39.062,10.742,0.0,0
977,1581436127.9529998,55.663999999999994,22.949,42.968999999999994,14.648,0.0,0
978,1581436127.957,23.926,19.531,3.418,5.371,0.0,0
979,1581436127.96,-11.719000000000001,24.414,-22.461,0.0,0.0,0
980,1581436127.964,17.09,32.227,37.598,3.906,0.0,0
981,1581436127.968,64.453,26.366999999999997,67.383,11.719000000000001,0.0,0
982,1581436127.9720001,50.293,25.391,46.387,13.672,0.0,0
983,1581436127.976,-3.906,21.484,17.578,11.23,0.0,0
984,1581436127.9770002,-6.348,16.602,26.855,17.09,0.0,0
985,1581436127.981,37.109,20.508000000000003,32.227,27.344,0.0,0
986,1581436127.985,41.504,20.996,24.414,32.227,0.0,0
987,1581436127.9889998,-4.395,20.996,36.133,27.344,0.0,0
988,1581436127.9929998,-18.555,26.366999999999997,31.738000000000003,24.414,0.0,0
989,1581436127.9970002,20.508000000000003,28.32,23.926,31.25,0.0,0
990,1581436128.0010002,41.992,20.508000000000003,-1.465,25.391,0.0,0
991,1581436128.004,-4.883,16.113,13.672,10.254000000000001,0.0,0
992,1581436128.008,-41.504,11.719000000000001,49.316,6.348,0.0,0
993,1581436128.012,0.488,9.766,29.296999999999997,14.648,0.0,0
994,1581436128.016,41.504,20.508000000000003,35.645,21.484,0.0,0
995,1581436128.02,12.695,24.901999999999997,45.898,14.16,0.0,0
996,1581436128.0370002,-25.391,23.438000000000002,35.156,10.742,0.0,0
997,1581436128.0410001,-5.859,24.414,16.602,17.578,0.0,0
998,1581436128.045,41.016000000000005,26.855,26.855,25.391,0.0,0
999,1581436128.049,31.738000000000003,27.831999999999997,57.129,23.438000000000002,0.0,0
1000,1581436128.053,-11.719000000000001,24.414,23.438000000000002,19.531,0.0,0
1001,1581436128.0570002,-8.301,20.508000000000003,-10.254000000000001,21.484,0.0,0
1002,1581436128.061,36.133,20.996,25.391,26.366999999999997,0.0,0
1003,1581436128.064,43.457,20.508000000000003,59.082,26.366999999999997,0.0,0
1004,1581436128.0679998,-5.859,13.184000000000001,41.992,16.602,0.0,0
1005,1581436128.072,-21.973000000000003,8.789,-9.277000000000001,7.812,0.0,0
1006,1581436128.076,22.949,17.09,-0.977,14.16,0.0,0
1007,1581436128.08,49.316,22.949,60.547,23.926,0.0,0
1008,1581436128.082,13.184000000000001,22.949,37.109,22.949,0.0,0
1009,1581436128.086,-17.09,25.879,-4.395,19.531,0.0,0
1010,1581436128.09,16.113,30.273000000000003,18.555,23.926,0.0,0
1011,1581436128.0939999,57.617,30.761999999999997,65.43,32.227,0.0,0
1012,1581436128.0979998,34.18,25.879,57.617,25.391,0.0,0
1013,1581436128.1020002,-10.742,21.484,9.766,17.09,0.0,0
1014,1581436128.106,7.812,25.391,12.695,17.09,0.0,0
1015,1581436128.109,48.34,26.855,47.852,20.996,0.0,0
1016,1581436128.113,34.668,17.578,41.504,20.996,0.0,0
1017,1581436128.117,-14.648,14.648,-16.113,4.395,0.0,0
1018,1581436128.121,-20.02,23.438000000000002,1.465,3.906,0.0,0
1019,1581436128.125,32.715,31.25,60.547,20.02,0.0,0
1020,1581436128.1279998,50.293,23.926,51.27,16.602,0.0,0
1021,1581436128.1320002,7.324,15.137,17.09,11.23,0.0,0
1022,1581436128.1360002,-13.184000000000001,19.531,15.137,12.695,0.0,0
1023,1581436128.14,33.203,24.414,40.039,22.949,0.0,0
1024,1581436128.144,61.523,19.043,38.086,24.414,0.0,0
1025,1581436128.1479998,25.879,16.113,3.418,16.113,0.0,0
1026,1581436128.1520002,-9.277000000000001,25.391,-14.648,20.02,0.0,0
1027,1581436128.155,22.949,32.227,20.996,28.32,0.0,0
1028,1581436128.159,70.801,26.366999999999997,20.996,30.761999999999997,0.0,0
1029,1581436128.1629999,46.387,22.949,10.254000000000001,23.438000000000002,0.0,0
1030,1581436128.167,0.488,28.32,26.366999999999997,19.043,0.0,0
1031,1581436128.171,15.625,28.32,15.625,25.391,0.0,0
1032,1581436128.1720002,60.059,32.227,47.363,28.809,0.0,0
1033,1581436128.176,59.082,26.855,65.43,28.809,0.0,0
1034,1581436128.18,8.789,20.508000000000003,51.758,16.602,0.0,0
1035,1581436128.184,0.977,24.414,33.203,8.789,0.0,0
1036,1581436128.188,49.316,26.366999999999997,41.016000000000005,19.043,0.0,0
1037,1581436128.1920002,68.848,28.809,52.246,27.344,0.0,0
1038,1581436128.196,25.879,35.645,34.668,20.996,0.0,0
1039,1581436128.199,-6.836,32.715,19.531,8.301,0.0,0
1040,1581436128.2029998,30.273000000000003,27.831999999999997,12.207,7.812,0.0,0
1041,1581436128.207,60.547,30.273000000000003,48.34,12.207,0.0,0
1042,1581436128.211,24.414,32.227,68.848,9.766,0.0,0
1043,1581436128.215,-14.648,29.296999999999997,30.273000000000003,9.766,0.0,0
1044,1581436128.217,14.648,24.414,31.25,14.16,0.0,0
1045,1581436128.221,62.988,24.901999999999997,61.523,21.973000000000003,0.0,0
1046,1581436128.225,41.016000000000005,26.366999999999997,71.289,25.879,0.0,0
1047,1581436128.2289999,-8.789,22.949,47.363,18.066,0.0,0
1048,1581436128.2329998,-1.953,23.438000000000002,28.32,18.066,0.0,0
1049,1581436128.2370002,43.945,24.414,44.434,25.879,0.0,0
1050,1581436128.2410002,50.781000000000006,26.855,58.593999999999994,28.32,0.0,0
1051,1581436128.244,4.395,25.391,11.719000000000001,15.137,0.0,0
1052,1581436128.248,-11.23,22.461,-14.648,8.301,0.0,0
1053,1581436128.252,33.203,29.296999999999997,62.012,25.391,0.0,0
1054,1581436128.256,56.152,27.344,82.52,25.879,0.0,0
1055,1581436128.26,12.695,18.555,41.992,14.16,0.0,0
1056,1581436128.2629998,-23.926,20.508000000000003,20.508000000000003,13.672,0.0,0
1057,1581436128.2670002,13.184000000000001,24.414,33.691,24.901999999999997,0.0,0
1058,1581436128.2710001,55.663999999999994,24.901999999999997,63.477,34.668,0.0,0
1059,1581436128.275,26.366999999999997,22.461,36.133,23.926,0.0,0
1060,1581436128.279,-18.066,21.973000000000003,-3.906,15.137,0.0,0
1061,1581436128.283,1.953,25.879,8.301,21.973000000000003,0.0,0
1062,1581436128.2870002,46.875,22.949,10.254000000000001,30.761999999999997,0.0,0
1063,1581436128.29,36.133,15.625,-11.719000000000001,20.02,0.0,0
1064,1581436128.294,-10.742,20.508000000000003,15.137,7.324,0.0,0
1065,1581436128.2979999,-15.137,26.366999999999997,51.27,14.648,0.0,0
1066,1581436128.302,29.296999999999997,20.508000000000003,43.457,19.531,0.0,0
1067,1581436128.306,41.504,22.949,41.016000000000005,20.996,0.0,0
1068,1581436128.3070002,-3.418,24.901999999999997,33.691,14.16,0.0,0
1069,1581436128.311,-23.438000000000002,25.391,20.508000000000003,10.254000000000001,0.0,0
1070,1581436128.315,20.996,24.901999999999997,20.02,20.508000000000003,0.0,0
1071,1581436128.319,49.316,21.973000000000003,41.992,25.391,0.0,0
1072,1581436128.323,15.625,22.949,36.133,19.531,0.0,0
1073,1581436128.3270001,-18.555,18.555,4.883,19.043,0.0,0
1074,1581436128.331,13.184000000000001,15.625,-11.719000000000001,18.555,0.0,0
1075,1581436128.3339999,58.593999999999994,21.484,5.859,20.02,0.0,0
1076,1581436128.3379998,35.645,34.668,59.082,21.484,0.0,0
1077,1581436128.342,-20.02,32.715,34.668,12.695,0.0,0
1078,1581436128.346,-7.324,28.32,11.719000000000001,18.555,0.0,0
1079,1581436128.35,45.41,26.366999999999997,28.809,21.484,0.0,0
1080,1581436128.3520002,35.645,20.996,38.574,15.137,0.0,0
1081,1581436128.356,-19.043,17.578,27.831999999999997,11.719000000000001,0.0,0
1082,1581436128.36,-18.066,17.09,19.531,13.184000000000001,0.0,0
1083,1581436128.3639998,33.691,18.555,42.48,22.949,0.0,0
1084,1581436128.3679998,45.898,22.461,67.87100000000001,22.949,0.0,0
1085,1581436128.3720002,5.859,22.461,29.296999999999997,21.973000000000003,0.0,0
1086,1581436128.3760002,-14.648,20.02,-29.785,14.648,0.0,0
1087,1581436128.379,22.461,24.414,11.719000000000001,11.23,0.0,0
1088,1581436128.383,55.176,29.785,69.336,23.926,0.0,0
1089,1581436128.387,13.184000000000001,21.973000000000003,38.574,17.09,0.0,0
1090,1581436128.391,-23.438000000000002,18.066,0.977,10.254000000000001,0.0,0
1091,1581436128.395,4.395,21.973000000000003,23.926,13.672,0.0,0
1092,1581436128.4120002,37.109,23.926,64.453,13.184000000000001,0.0,0
1093,1581436128.4160001,19.043,22.949,41.504,9.766,0.0,0
1094,1581436128.42,-24.414,20.02,1.953,3.906,0.0,0
1095,1581436128.424,-10.254000000000001,21.973000000000003,17.09,10.254000000000001,0.0,0
1096,1581436128.428,41.992,23.926,49.805,19.531,0.0,0
1097,1581436128.4320002,43.945,18.555,13.184000000000001,17.578,0.0,0
1098,1581436128.436,0.977,16.602,-11.23,13.672,0.0,0
1099,1581436128.439,-10.254000000000001,19.043,22.949,12.695,0.0,0
1100,1581436128.4429998,28.32,18.555,42.48,22.461,0.0,0
1101,1581436128.447,45.898,21.973000000000003,49.316,30.273000000000003,0.0,0
1102,1581436128.451,11.23,25.879,28.32,22.461,0.0,0
1103,1581436128.455,-17.578,22.949,26.366999999999997,14.648,0.0,0
1104,1581436128.456,20.02,18.066,27.344,21.484,0.0,0
1105,1581436128.46,55.176,18.555,29.785,27.831999999999997,0.0,0
1106,1581436128.464,20.508000000000003,18.555,42.48,21.973000000000003,0.0,0
1107,1581436128.468,-17.09,27.831999999999997,36.621,17.09,0.0,0
1108,1581436128.4720001,9.277000000000001,32.715,39.062,22.949,0.0,0
1109,1581436128.476,51.27,22.949,28.32,32.227,0.0,0
1110,1581436128.48,32.715,21.484,22.461,29.785,0.0,0
1111,1581436128.4829998,-11.23,24.414,33.691,17.578,0.0,0
1112,1581436128.4870002,-3.418,19.531,18.555,20.508000000000003,0.0,0
1113,1581436128.4910002,47.363,12.695,7.324,31.738000000000003,0.0,0
1114,1581436128.495,52.246,13.672,41.016000000000005,29.785,0.0,0
1115,1581436128.4989998,1.465,23.438000000000002,54.688,27.344,0.0,0
1116,1581436128.502,-14.16,23.438000000000002,23.438000000000002,25.879,0.0,0
1117,1581436128.506,28.809,20.508000000000003,24.414,28.809,0.0,0
1118,1581436128.51,55.663999999999994,24.414,63.477,33.691,0.0,0
1119,1581436128.514,22.461,24.414,29.296999999999997,28.809,0.0,0
1120,1581436128.518,-6.836,22.461,-21.973000000000003,23.438000000000002,0.0,0
1121,1581436128.522,22.949,20.02,-0.488,25.879,0.0,0
1122,1581436128.526,57.129,20.508000000000003,26.855,28.809,0.0,0
1123,1581436128.529,31.738000000000003,22.461,52.733999999999995,22.949,0.0,0
1124,1581436128.533,-14.16,15.137,3.906,14.648,0.0,0
1125,1581436128.5370002,1.953,19.531,-17.578,13.672,0.0,0
1126,1581436128.5410001,54.199,32.227,60.547,27.344,0.0,0
1127,1581436128.545,44.434,32.227,68.359,32.715,0.0,0
1128,1581436128.546,-7.812,28.32,39.551,23.438000000000002,0.0,0
1129,1581436128.55,-8.789,22.461,26.366999999999997,21.484,0.0,0
1130,1581436128.554,40.039,20.02,46.875,25.391,0.0,0
1131,1581436128.5579998,48.34,19.043,56.641000000000005,25.879,0.0,0
1132,1581436128.562,2.93,20.996,29.785,24.414,0.0,0
1133,1581436128.566,-18.555,23.438000000000002,-1.953,20.508000000000003,0.0,0
1134,1581436128.57,21.973000000000003,21.484,17.578,23.438000000000002,0.0,0
1135,1581436128.573,56.152,20.996,44.434,27.831999999999997,0.0,0
1136,1581436128.5770001,19.043,20.996,5.859,17.578,0.0,0
1137,1581436128.581,-18.555,24.901999999999997,17.578,12.695,0.0,0
1138,1581436128.585,11.719000000000001,25.879,59.57,22.461,0.0,0
1139,1581436128.589,52.733999999999995,19.043,40.527,28.809,0.0,0
1140,1581436128.592,27.344,15.625,25.879,24.414,0.0,0
1141,1581436128.596,-19.043,23.438000000000002,41.992,16.113,0.0,0
1142,1581436128.6,-4.883,26.366999999999997,40.039,20.508000000000003,0.0,0
1143,1581436128.6039999,41.992,20.02,21.973000000000003,26.366999999999997,0.0,0
1144,1581436128.6079998,35.156,20.02,29.296999999999997,23.926,0.0,0
1145,1581436128.6120002,-13.184000000000001,18.066,17.578,17.09,0.0,0
1146,1581436128.6160002,-15.625,17.09,10.254000000000001,19.043,0.0,0
1147,1581436128.619,34.668,17.578,5.859,24.901999999999997,0.0,0
1148,1581436128.623,50.781000000000006,18.555,1.953,22.461,0.0,0
1149,1581436128.627,9.277000000000001,24.414,32.227,17.578,0.0,0
1150,1581436128.631,-11.23,24.414,20.508000000000003,19.531,0.0,0
1151,1581436128.635,26.855,21.973000000000003,29.296999999999997,24.414,0.0,0
1152,1581436128.6360002,61.523,24.414,47.363,29.785,0.0,1
1153,1581436128.64,28.32,27.831999999999997,53.223,25.879,0.0,0
1154,1581436128.644,-13.184000000000001,30.273000000000003,31.738000000000003,18.066,0.0,0
1155,1581436128.6479998,7.324,25.879,17.09,17.578,0.0,0
1156,1581436128.6520002,51.27,17.09,36.133,21.973000000000003,0.0,0
1157,1581436128.6560001,37.109,20.996,25.391,27.831999999999997,0.0,0
1158,1581436128.66,-9.766,26.366999999999997,5.371,21.484,0.0,0
1159,1581436128.6629999,-4.883,24.414,-14.16,12.695,0.0,0
1160,1581436128.667,43.945,23.926,20.996,17.578,0.0,0
1161,1581436128.671,49.316,26.855,62.988,25.391,0.0,0
1162,1581436128.675,-0.488,24.414,21.973000000000003,18.066,0.0,0
1163,1581436128.679,-12.207,24.414,2.93,13.184000000000001,0.0,0
1164,1581436128.6820002,37.598,26.366999999999997,27.831999999999997,23.926,0.0,0
1165,1581436128.686,52.246,22.461,48.34,26.855,0.0,0
1166,1581436128.69,9.277000000000001,23.438000000000002,33.691,17.09,0.0,0
1167,1581436128.694,-14.648,30.761999999999997,5.371,17.578,0.0,0
1168,1581436128.698,21.484,31.25,39.062,23.438000000000002,0.0,0
1169,1581436128.7020001,53.711000000000006,25.391,51.758,27.344,0.0,0
1170,1581436128.706,23.926,23.438000000000002,-5.859,22.949,0.0,0
1171,1581436128.7089999,-19.531,21.973000000000003,-21.973000000000003,7.812,0.0,0
1172,1581436128.7129998,1.465,24.901999999999997,48.828,10.742,0.0,0
1173,1581436128.717,51.27,24.901999999999997,67.383,18.555,0.0,0
1174,1581436128.721,39.551,24.901999999999997,43.945,13.672,0.0,0
1175,1581436128.725,-13.184000000000001,23.926,34.668,10.742,0.0,0
1176,1581436128.7270002,-8.301,23.926,43.457,12.207,0.0,0
1177,1581436128.731,42.968999999999994,20.508000000000003,57.617,18.555,0.0,0
1178,1581436128.735,44.434,14.648,60.547,18.066,0.0,0
1179,1581436128.7389998,-2.93,19.531,24.901999999999997,14.16,0.0,0
1180,1581436128.7429998,-15.625,23.438000000000002,3.418,17.09,0.0,0
1181,1581436128.7470002,31.738000000000003,19.043,28.32,26.855,0.0,0
1182,1581436128.7510002,56.641000000000005,14.648,16.113,22.461,0.0,0
1183,1581436128.754,18.555,17.09,24.414,6.836,0.0,0
1184,1581436128.758,-10.254000000000001,20.996,43.945,9.766,0.0,0
1185,1581436128.762,20.508000000000003,19.043,27.344,19.531,0.0,0
1186,1581436128.766,59.57,25.879,39.551,26.855,0.0,0
1187,1581436128.77,37.598,29.296999999999997,39.062,19.531,0.0,0
1188,1581436128.7870002,-6.836,26.855,27.344,6.836,0.0,0
1189,1581436128.7910001,16.602,28.32,22.461,9.766,0.0,0
1190,1581436128.795,70.312,28.809,33.203,16.602,0.0,0
1191,1581436128.799,66.406,32.715,49.805,14.16,0.0,0
1192,1581436128.803,12.695,32.227,35.645,17.09,0.0,0
1193,1581436128.8070002,-2.93,18.066,-10.742,23.926,0.0,0
1194,1581436128.811,39.062,15.625,-18.555,33.203,0.0,0
1195,1581436128.814,50.781000000000006,24.414,43.945,43.457,0.0,0
1196,1581436128.8179998,1.465,24.414,37.109,34.668,0.0,0
1197,1581436128.822,-20.996,19.531,-3.906,29.785,0.0,0
1198,1581436128.826,23.438000000000002,21.973000000000003,17.578,34.668,0.0,0
1199,1581436128.83,52.733999999999995,30.273000000000003,68.848,35.156,0.0,0
1200,1581436128.832,14.16,24.901999999999997,53.711000000000006,30.761999999999997,0.0,0
1201,1581436128.836,-22.461,20.02,11.23,21.484,0.0,0
1202,1581436128.84,9.766,25.391,12.207,24.901999999999997,0.0,0
1203,1581436128.8439999,48.34,33.203,49.316,25.391,0.0,0
1204,1581436128.8479998,20.996,28.809,39.551,15.137,0.0,0
1205,1581436128.8520002,-26.855,9.766,-21.973000000000003,8.301,0.0,0
1206,1581436128.856,-9.277000000000001,14.16,-3.418,13.672,0.0,0
1207,1581436128.859,43.945,25.879,54.688,24.901999999999997,0.0,0
1208,1581436128.863,36.621,16.602,42.968999999999994,19.043,0.0,0
1209,1581436128.867,-20.02,14.648,-13.184000000000001,6.348,0.0,0
1210,1581436128.871,-23.926,21.973000000000003,11.719000000000001,6.836,0.0,0
1211,1581436128.875,27.831999999999997,23.438000000000002,66.895,13.184000000000001,0.0,0
1212,1581436128.877,44.922,20.508000000000003,42.48,21.484,0.0,0
1213,1581436128.881,4.883,19.043,17.578,13.672,0.0,0
1214,1581436128.885,-18.555,20.996,28.32,9.766,0.0,0
1215,1581436128.889,20.508000000000003,20.996,31.738000000000003,18.066,0.0,0
1216,1581436128.893,53.711000000000006,20.996,35.156,23.926,0.0,0
1217,1581436128.897,16.602,15.625,16.113,18.555,0.0,0
1218,1581436128.901,-26.366999999999997,13.184000000000001,-9.277000000000001,1.953,0.0,0
1219,1581436128.904,1.953,24.901999999999997,25.879,7.324,0.0,0
1220,1581436128.908,44.922,24.414,25.879,17.578,0.0,0
1221,1581436128.9120002,23.438000000000002,15.137,-7.324,4.883,0.0,0
1222,1581436128.9160001,-28.809,18.066,25.879,0.977,0.0,0
1223,1581436128.92,-21.484,21.484,36.133,1.953,0.0,0
1224,1581436128.9220002,32.715,24.901999999999997,41.504,6.836,0.0,0
1225,1581436128.926,36.133,25.391,42.968999999999994,15.625,0.0,0
1226,1581436128.93,-11.719000000000001,27.344,30.273000000000003,9.766,0.0,0
1227,1581436128.934,-23.926,23.438000000000002,16.113,8.789,0.0,0
1228,1581436128.938,26.366999999999997,19.531,22.949,19.531,0.0,0
1229,1581436128.9420002,47.852,22.461,31.25,23.926,0.0,0
1230,1581436128.946,7.324,21.973000000000003,22.949,16.113,0.0,0
1231,1581436128.949,-21.973000000000003,20.02,21.484,8.301,0.0,0
1232,1581436128.9529998,18.555,20.996,0.977,16.602,0.0,0
1233,1581436128.957,59.57,27.344,42.968999999999994,23.438000000000002,0.0,0
1234,1581436128.961,27.344,28.809,62.988,21.484,0.0,0
1235,1581436128.965,-13.184000000000001,25.391,12.207,17.09,0.0,0
1236,1581436128.967,8.789,22.461,18.555,22.461,0.0,0
1237,1581436128.971,58.105,25.879,61.523,34.668,0.0,0
1238,1581436128.975,46.387,28.809,52.733999999999995,34.668,0.0,0
1239,1581436128.9789999,-2.441,27.344,11.719000000000001,29.785,0.0,0
1240,1581436128.9829998,3.418,24.901999999999997,20.02,28.32,0.0,0
1241,1581436128.9870002,52.246,22.949,41.992,31.25,0.0,0
1242,1581436128.9910002,61.523,22.949,48.34,31.25,0.0,0
1243,1581436128.994,11.719000000000001,19.043,10.742,18.066,0.0,0
1244,1581436128.998,-11.23,25.879,-8.789,5.859,0.0,0
1245,1581436129.002,31.25,34.18,61.523,14.648,0.0,0
1246,1581436129.006,57.617,30.761999999999997,83.008,22.949,0.0,0
1247,1581436129.01,16.602,22.949,35.156,16.113,0.0,0
1248,1581436129.012,-19.043,21.484,21.973000000000003,7.812,0.0,0
1249,1581436129.016,10.254000000000001,28.809,62.012,11.719000000000001,0.0,0
1250,1581436129.02,52.733999999999995,32.715,78.125,23.438000000000002,0.0,0
1251,1581436129.024,30.273000000000003,27.344,49.316,23.438000000000002,0.0,0
1252,1581436129.0279999,-14.648,27.344,33.691,10.742,0.0,0
1253,1581436129.032,5.859,28.32,25.879,11.23,0.0,0
1254,1581436129.036,56.641000000000005,23.926,27.831999999999997,22.461,0.0,0
1255,1581436129.039,48.34,22.949,28.32,18.066,0.0,0
1256,1581436129.043,1.465,25.879,32.715,8.301,0.0,0
1257,1581436129.0470002,-4.395,28.32,40.527,10.254000000000001,0.0,0
1258,1581436129.051,40.039,26.366999999999997,49.316,21.484,0.0,0
1259,1581436129.055,58.105,24.414,57.129,27.831999999999997,0.0,0
1260,1581436129.0570002,12.207,27.831999999999997,46.387,22.949,0.0,0
1261,1581436129.061,-14.16,30.761999999999997,30.761999999999997,18.555,0.0,0
1262,1581436129.065,30.273000000000003,27.831999999999997,19.531,25.879,0.0,0
1263,1581436129.069,60.059,22.461,36.133,29.296999999999997,0.0,0
1264,1581436129.073,20.02,19.531,34.18,26.366999999999997,0.0,0
1265,1581436129.0770001,-11.719000000000001,19.531,4.395,27.344,0.0,0
1266,1581436129.081,18.066,18.555,-12.207,31.738000000000003,0.0,0
1267,1581436129.0839999,56.152,14.648,4.395,31.738000000000003,0.0,0
1268,1581436129.0879998,36.133,16.113,40.527,28.32,0.0,0
1269,1581436129.092,-10.742,20.02,17.578,22.949,0.0,0
1270,1581436129.096,0.488,20.508000000000003,11.719000000000001,23.438000000000002,0.0,0
1271,1581436129.1,51.758,18.555,39.551,29.785,0.0,0
1272,1581436129.103,46.875,24.414,54.688,29.296999999999997,0.0,0
1273,1581436129.107,-7.812,25.879,25.879,19.531,0.0,0
1274,1581436129.111,-12.207,18.555,8.301,20.996,0.0,0
1275,1581436129.115,38.086,21.973000000000003,43.457,30.761999999999997,0.0,0
1276,1581436129.119,49.805,25.391,65.43,29.785,0.0,0
1277,1581436129.123,4.395,17.578,23.926,22.461,0.0,0
1278,1581436129.127,-21.484,13.184000000000001,-31.738000000000003,11.23,0.0,0
1279,1581436129.13,19.043,24.414,8.301,12.207,0.0,0
1280,1581436129.1339998,55.176,32.227,66.406,24.901999999999997,0.0,0
1281,1581436129.1379998,24.901999999999997,21.484,29.296999999999997,22.461,0.0,0
1282,1581436129.1420002,-12.207,18.555,7.812,14.648,0.0,0
1283,1581436129.1460001,14.648,24.901999999999997,32.715,22.461,0.0,0
1284,1581436129.161,54.199,26.366999999999997,43.945,34.18,0.0,0
1285,1581436129.165,32.227,25.879,29.296999999999997,26.366999999999997,0.0,0
1286,1581436129.169,-13.184000000000001,23.438000000000002,19.531,16.602,0.0,0
1287,1581436129.1729999,-4.883,24.901999999999997,34.18,18.555,0.0,0
1288,1581436129.177,48.828,28.809,57.129,32.227,0.0,0
1289,1581436129.181,50.293,25.879,19.043,31.25,0.0,0
1290,1581436129.185,-3.906,26.855,-29.296999999999997,10.254000000000001,0.0,0
1291,1581436129.188,-14.16,32.227,31.25,9.277000000000001,0.0,0
1292,1581436129.1920002,34.18,25.391,56.152,22.461,0.0,0
1293,1581436129.196,56.641000000000005,25.391,41.992,25.391,0.0,0
1294,1581436129.2,7.324,25.391,37.109,16.602,0.0,0
1295,1581436129.204,-24.414,15.137,13.184000000000001,9.277000000000001,0.0,0
1296,1581436129.206,13.184000000000001,15.625,24.414,18.555,0.0,0
1297,1581436129.21,45.898,20.02,45.898,26.366999999999997,0.0,0
1298,1581436129.214,18.066,20.508000000000003,22.461,20.508000000000003,0.0,0
1299,1581436129.218,-25.391,24.901999999999997,1.465,9.277000000000001,0.0,0
1300,1581436129.2220001,-3.906,24.901999999999997,13.672,13.184000000000001,0.0,0
1301,1581436129.226,44.922,23.438000000000002,31.25,26.366999999999997,0.0,0
1302,1581436129.23,34.18,23.926,36.133,21.484,0.0,0
1303,1581436129.2329998,-14.16,25.391,32.227,8.789,0.0,0
1304,1581436129.2370002,-13.184000000000001,23.926,22.949,14.16,0.0,0
1305,1581436129.2410002,41.992,20.508000000000003,-0.977,21.973000000000003,0.0,0
1306,1581436129.245,55.176,26.366999999999997,35.645,27.831999999999997,0.0,0
1307,1581436129.2489998,3.906,22.461,50.293,28.809,0.0,0
1308,1581436129.2510002,-18.066,14.648,8.789,19.531,0.0,0
1309,1581436129.255,22.949,15.625,24.414,21.973000000000003,0.0,0
1310,1581436129.2589998,51.758,21.484,56.152,28.32,0.0,0
1311,1581436129.2629998,16.602,25.391,38.086,25.391,0.0,0
1312,1581436129.2670002,-18.555,24.414,-2.93,19.531,0.0,0
1313,1581436129.2710001,15.625,26.855,-5.859,22.461,0.0,0
1314,1581436129.275,56.152,27.831999999999997,29.785,29.785,0.0,0
1315,1581436129.2779999,26.366999999999997,27.831999999999997,37.598,26.855,0.0,0
1316,1581436129.282,-14.16,23.438000000000002,-8.789,17.09,0.0,0
1317,1581436129.286,0.0,20.996,-7.812,15.137,0.0,0
1318,1581436129.29,45.41,27.831999999999997,66.895,22.461,0.0,0
1319,1581436129.294,41.016000000000005,25.879,63.477,21.484,0.0,0
1320,1581436129.296,-10.254000000000001,20.508000000000003,24.414,15.137,0.0,0
1321,1581436129.3,-9.277000000000001,19.531,20.996,15.625,0.0,0
1322,1581436129.304,44.434,25.879,48.828,22.949,0.0,0
1323,1581436129.3079998,56.641000000000005,25.879,58.593999999999994,27.344,0.0,0
1324,1581436129.312,5.859,18.555,35.645,15.137,0.0,0
1325,1581436129.316,-20.02,17.578,3.906,7.812,0.0,0
1326,1581436129.32,25.391,20.02,17.09,14.16,0.0,0
1327,1581436129.323,57.129,18.555,41.992,20.508000000000003,0.0,0
1328,1581436129.3270001,19.043,15.625,8.301,14.16,0.0,0
1329,1581436129.331,-19.043,24.901999999999997,15.625,9.766,0.0,0
1330,1581436129.335,7.324,30.273000000000003,51.758,18.066,0.0,0
1331,1581436129.339,52.733999999999995,29.785,51.27,28.809,0.0,0
1332,1581436129.342,35.645,32.227,44.922,27.344,0.0,0
1333,1581436129.346,-9.766,26.366999999999997,39.551,12.695,0.0,0
1334,1581436129.35,-0.977,22.949,24.901999999999997,14.648,0.0,0
1335,1581436129.3539999,43.945,24.901999999999997,21.484,26.855,0.0,0
1336,1581436129.3579998,47.852,24.414,32.227,29.296999999999997,0.0,0
1337,1581436129.3620002,0.977,25.391,13.672,22.461,0.0,0
1338,1581436129.3660002,-14.648,25.391,8.789,18.066,0.0,0
1339,1581436129.369,33.691,20.996,0.0,27.831999999999997,0.0,0
1340,1581436129.373,53.223,20.996,2.93,27.831999999999997,0.0,0
1341,1581436129.377,2.441,24.414,46.875,16.113,0.0,0
1342,1581436129.381,-24.414,25.391,35.645,12.207,0.0,0
1343,1581436129.385,19.531,31.25,29.785,22.461,0.0,0
1344,1581436129.387,54.688,31.738000000000003,57.129,29.785,0.0,0
1345,1581436129.391,15.625,24.901999999999997,46.387,18.555,0.0,0
1346,1581436129.395,-22.461,22.461,6.836,16.602,0.0,0
1347,1581436129.399,5.371,23.438000000000002,11.23,19.043,0.0,0
1348,1581436129.4029999,51.758,25.879,46.387,23.926,0.0,0
1349,1581436129.407,39.062,25.391,36.133,26.855,0.0,0
1350,1581436129.411,-9.766,19.531,1.953,21.484,0.0,0
1351,1581436129.414,-7.324,15.625,-20.508000000000003,14.16,0.0,0
1352,1581436129.418,39.551,24.414,25.879,15.625,0.0,0
1353,1581436129.4220002,45.898,34.18,74.707,15.137,0.0,0
1354,1581436129.426,-4.395,26.366999999999997,29.296999999999997,8.789,0.0,0
1355,1581436129.43,-19.043,20.508000000000003,8.789,12.207,0.0,0
1356,1581436129.4329998,28.32,22.461,43.945,16.602,0.0,0
1357,1581436129.437,53.223,20.02,60.059,19.531,0.0,0
1358,1581436129.441,6.348,18.555,15.625,15.137,0.0,0
1359,1581436129.445,-28.32,19.531,-10.254000000000001,9.766,0.0,0
1360,1581436129.449,7.812,21.973000000000003,25.391,18.066,0.0,0
1361,1581436129.4529998,48.34,22.461,40.039,26.855,0.0,0
1362,1581436129.457,23.438000000000002,20.02,-3.418,21.484,0.0,0
1363,1581436129.46,-17.09,21.973000000000003,-18.066,8.789,0.0,0
1364,1581436129.464,6.836,27.831999999999997,43.945,14.16,0.0,0
1365,1581436129.468,52.246,30.273000000000003,64.453,24.414,0.0,0
1366,1581436129.4720001,37.598,28.32,43.945,22.461,0.0,0
1367,1581436129.476,-9.277000000000001,20.508000000000003,30.761999999999997,12.695,0.0,0
1368,1581436129.4770002,-3.906,23.438000000000002,34.668,15.137,0.0,0
1369,1581436129.481,42.968999999999994,27.344,43.945,25.391,0.0,0
1370,1581436129.485,49.805,23.926,45.41,22.461,0.0,0
1371,1581436129.4889998,-0.488,24.414,23.438000000000002,16.113,0.0,0
1372,1581436129.4929998,-17.578,26.366999999999997,15.625,14.16,0.0,0
1373,1581436129.4970002,31.25,23.438000000000002,14.16,21.973000000000003,0.0,0
1374,1581436129.5010002,54.688,20.996,4.395,27.831999999999997,0.0,0
1375,1581436129.504,14.648,22.949,22.461,16.602,0.0,0
1376,1581436129.508,-15.625,24.414,45.41,13.672,0.0,0
1377,1581436129.512,13.184000000000001,18.066,42.48,21.973000000000003,0.0,0
1378,1581436129.516,53.223,19.043,53.711000000000006,26.855,0.0,0
1379,1581436129.52,30.761999999999997,29.296999999999997,53.223,23.926,0.0,0
1380,1581436129.536,-13.672,31.738000000000003,30.761999999999997,17.578,0.0,0
1381,1581436129.54,0.0,27.344,17.578,20.996,0.0,0
1382,1581436129.544,46.387,24.414,26.855,22.949,0.0,0
1383,1581436129.5479999,40.039,23.926,37.109,23.926,0.0,0
1384,1581436129.552,-7.324,20.996,32.227,23.438000000000002,0.0,0
1385,1581436129.556,-9.277000000000001,19.043,-4.883,20.02,0.0,0
1386,1581436129.56,34.18,22.949,4.395,22.461,0.0,0
1387,1581436129.563,48.828,23.438000000000002,63.965,21.973000000000003,0.0,0
1388,1581436129.5670002,5.371,19.531,42.968999999999994,12.695,0.0,0
1389,1581436129.571,-25.391,19.531,-10.742,9.277000000000001,0.0,0
1390,1581436129.575,19.531,24.901999999999997,21.484,19.531,0.0,0
1391,1581436129.579,57.617,33.203,69.336,26.366999999999997,0.0,0
1392,1581436129.582,19.043,25.879,51.27,20.02,0.0,0
1393,1581436129.586,-21.484,19.043,24.901999999999997,15.137,0.0,0
1394,1581436129.59,10.254000000000001,22.949,31.738000000000003,21.973000000000003,0.0,0
1395,1581436129.5939999,50.293,27.344,59.082,28.32,0.0,0
1396,1581436129.5979998,26.855,27.831999999999997,45.41,21.973000000000003,0.0,0
1397,1581436129.6020002,-16.113,21.973000000000003,-1.953,16.602,0.0,0
1398,1581436129.606,-9.277000000000001,22.461,11.23,18.066,0.0,0
1399,1581436129.609,34.668,28.809,66.895,20.02,0.0,0
1400,1581436129.613,36.621,24.901999999999997,51.27,19.043,0.0,0
1401,1581436129.617,-9.766,15.137,-8.301,6.348,0.0,0
1402,1581436129.621,-19.043,18.066,6.348,-1.465,0.0,0
1403,1581436129.625,27.344,24.901999999999997,36.133,9.277000000000001,0.0,0
1404,1581436129.627,54.688,24.414,36.621,13.672,0.0,0
1405,1581436129.631,16.113,22.461,19.531,4.395,0.0,0
1406,1581436129.635,-7.324,23.926,13.672,3.418,0.0,0
1407,1581436129.639,35.645,25.391,39.551,13.184000000000001,0.0,0
1408,1581436129.643,72.266,18.066,40.527,17.09,0.0,0
1409,1581436129.647,43.945,17.09,15.137,14.16,0.0,0
1410,1581436129.651,-9.277000000000001,17.09,-4.395,12.695,0.0,0
1411,1581436129.654,2.441,20.508000000000003,30.761999999999997,23.926,0.0,0
1412,1581436129.658,45.898,19.531,29.785,36.621,0.0,0
1413,1581436129.6620002,29.785,12.695,11.23,31.738000000000003,0.0,0
1414,1581436129.6660001,-20.02,22.461,35.156,23.926,0.0,0
1415,1581436129.67,-18.066,30.273000000000003,28.32,28.32,0.0,0
1416,1581436129.6720002,35.645,23.926,33.203,35.645,0.0,0
1417,1581436129.676,37.598,20.996,41.016000000000005,28.809,0.0,0
1418,1581436129.68,-21.484,22.461,26.366999999999997,11.719000000000001,0.0,0
1419,1581436129.684,-35.645,24.414,20.02,7.812,0.0,1
1420,1581436129.688,13.672,19.531,28.809,15.625,0.0,0
1421,1581436129.6920002,43.945,17.09,33.203,24.901999999999997,0.0,0
1422,1581436129.696,3.418,22.949,22.461,19.531,0.0,0
1423,1581436129.699,-28.32,26.366999999999997,11.719000000000001,13.184000000000001,0.0,0
1424,1581436129.7029998,14.648,24.901999999999997,-6.348,16.602,0.0,0
1425,1581436129.707,55.663999999999994,29.296999999999997,31.25,18.555,0.0,0
1426,1581436129.711,27.344,25.879,68.359,19.531,0.0,0
1427,1581436129.715,-19.043,16.113,22.461,13.184000000000001,0.0,0
1428,1581436129.717,1.465,18.555,15.625,15.137,0.0,0
1429,1581436129.721,54.688,23.438000000000002,62.5,27.344,0.0,0
1430,1581436129.725,44.434,23.926,63.965,30.761999999999997,0.0,0
1431,1581436129.7289999,-9.766,20.996,20.508000000000003,21.484,0.0,0
1432,1581436129.7329998,-8.301,25.391,11.719000000000001,16.113,0.0,0
1433,1581436129.7370002,47.363,30.273000000000003,23.438000000000002,24.901999999999997,0.0,0
1434,1581436129.7410002,54.688,24.901999999999997,25.879,25.879,0.0,0
1435,1581436129.744,4.883,17.09,-12.695,15.625,0.0,0
1436,1581436129.748,-12.695,17.578,-32.715,7.812,0.0,0
1437,1581436129.752,28.32,30.761999999999997,40.527,11.719000000000001,0.0,0
1438,1581436129.756,54.199,31.738000000000003,64.453,19.531,0.0,0
1439,1581436129.76,16.602,22.461,27.831999999999997,16.602,0.0,0
1440,1581436129.7610002,-20.508000000000003,12.695,16.113,14.16,0.0,0
1441,1581436129.765,14.648,18.066,51.27,22.461,0.0,0
1442,1581436129.769,62.012,31.25,49.805,27.344,0.0,0
1443,1581436129.7729998,30.761999999999997,31.25,28.32,18.066,0.0,0
1444,1581436129.7770002,-18.555,22.949,22.461,6.836,0.0,0
1445,1581436129.7810001,-3.906,20.02,10.742,9.766,0.0,0
1446,1581436129.785,47.363,26.855,24.414,24.901999999999997,0.0,0
1447,1581436129.7879999,44.922,24.901999999999997,10.254000000000001,18.555,0.0,0
1448,1581436129.792,-7.324,24.414,6.836,7.812,0.0,0
1449,1581436129.796,-14.16,31.25,48.828,15.137,0.0,0
1450,1581436129.8,40.527,29.785,56.641000000000005,28.32,0.0,0
1451,1581436129.804,61.523,24.901999999999997,46.387,34.18,0.0,0
1452,1581436129.8070002,14.16,21.484,40.039,23.926,0.0,0
1453,1581436129.811,-10.742,16.602,26.366999999999997,20.02,0.0,0
1454,1581436129.815,33.203,14.16,30.761999999999997,26.855,0.0,0
1455,1581436129.819,63.965,22.949,50.781000000000006,32.715,0.0,0
1456,1581436129.823,34.18,31.25,50.293,28.32,0.0,0
1457,1581436129.8270001,-2.441,23.926,19.043,18.555,0.0,0
1458,1581436129.831,20.996,19.531,-3.906,24.414,0.0,0
1459,1581436129.8339999,70.801,24.414,22.949,31.25,0.0,0
1460,1581436129.8379998,49.316,25.391,64.453,22.949,0.0,0
1461,1581436129.842,-2.441,20.508000000000003,45.41,14.16,0.0,0
1462,1581436129.846,11.23,20.02,12.695,16.113,0.0,0
1463,1581436129.85,60.059,23.926,32.227,27.344,0.0,0
1464,1581436129.851,53.223,28.809,75.195,25.391,0.0,0
1465,1581436129.855,4.883,28.32,48.828,19.043,0.0,0
1466,1581436129.859,-1.465,28.32,23.438000000000002,21.484,0.0,0
1467,1581436129.863,43.457,25.879,46.387,25.391,0.0,0
1468,1581436129.867,63.965,22.949,72.266,28.32,0.0,0
1469,1581436129.871,16.602,16.602,37.598,19.043,0.0,0
1470,1581436129.875,-12.207,13.184000000000001,-21.484,9.766,0.0,0
1471,1581436129.8779998,33.203,21.973000000000003,21.484,16.113,0.0,0
1472,1581436129.8820002,61.035,23.926,81.055,26.366999999999997,0.0,0
1473,1581436129.8860002,32.227,22.949,53.711000000000006,25.879,0.0,0
1474,1581436129.89,0.0,17.09,8.301,24.901999999999997,0.0,0
1475,1581436129.894,21.484,19.043,26.366999999999997,29.785,0.0,0
1476,1581436129.897,69.336,27.344,62.5,38.574,0.0,0
1477,1581436129.901,56.152,27.831999999999997,26.366999999999997,38.574,0.0,0
1478,1581436129.905,5.859,23.438000000000002,12.695,29.296999999999997,0.0,0
1479,1581436129.909,8.301,22.461,38.086,27.831999999999997,0.0,0
1480,1581436129.9129999,58.105,27.831999999999997,64.453,38.574,0.0,0
1481,1581436129.917,64.453,20.996,23.926,44.922,0.0,0
1482,1581436129.921,13.672,22.461,-17.578,30.761999999999997,0.0,0
1483,1581436129.924,-3.418,29.296999999999997,29.296999999999997,22.461,0.0,0
1484,1581436129.928,39.551,25.391,38.086,31.25,0.0,0
1485,1581436129.9320002,60.547,24.901999999999997,29.785,35.156,0.0,0
1486,1581436129.936,23.926,21.484,22.949,26.855,0.0,0
1487,1581436129.94,-11.719000000000001,20.996,16.602,20.996,0.0,0
1488,1581436129.957,16.113,20.996,24.414,28.809,0.0,0
1489,1581436129.961,54.199,16.602,38.086,31.738000000000003,0.0,0
1490,1581436129.965,22.949,16.602,38.574,25.879,0.0,0
1491,1581436129.9689999,-21.484,22.461,29.296999999999997,20.996,0.0,0
1492,1581436129.9729998,-1.953,23.438000000000002,11.23,21.484,0.0,0
1493,1581436129.9770002,45.898,21.973000000000003,11.23,30.761999999999997,0.0,0
1494,1581436129.981,41.016000000000005,18.555,27.344,27.344,0.0,0
1495,1581436129.984,-10.254000000000001,21.484,27.831999999999997,19.043,0.0,0
1496,1581436129.988,-17.09,21.973000000000003,17.09,21.973000000000003,0.0,0
1497,1581436129.992,28.32,16.602,14.16,24.414,0.0,0
1498,1581436129.996,40.039,21.484,44.922,25.879,0.0,0
1499,1581436130.0,-4.395,21.973000000000003,42.968999999999994,19.043,0.0,0
1500,1581436130.002,-23.438000000000002,16.113,5.859,17.09,0.0,0
1501,1581436130.006,20.508000000000003,17.578,14.16,21.973000000000003,0.0,0
1502,1581436130.01,46.387,23.926,46.875,22.949,0.0,0
1503,1581436130.014,14.648,26.366999999999997,36.621,23.926,0.0,0
1504,1581436130.018,-17.578,20.996,2.441,20.02,0.0,0
1505,1581436130.022,9.277000000000001,18.066,-6.836,21.973000000000003,0.0,0
1506,1581436130.026,50.293,20.02,28.809,33.203,0.0,0
1507,1581436130.029,29.785,23.926,38.574,31.738000000000003,0.0,0
1508,1581436130.033,-15.625,20.996,-19.043,24.414,0.0,0
1509,1581436130.0370002,-3.418,21.484,-10.742,26.855,0.0,0
1510,1581436130.0410001,44.922,24.901999999999997,55.663999999999994,31.738000000000003,0.0,0
1511,1581436130.045,41.016000000000005,20.508000000000003,48.828,29.296999999999997,0.0,0
1512,1581436130.0470002,-11.23,20.508000000000003,16.602,19.531,0.0,0
1513,1581436130.051,-18.066,20.02,15.137,19.531,0.0,0
1514,1581436130.055,29.296999999999997,21.973000000000003,42.968999999999994,26.366999999999997,0.0,0
1515,1581436130.059,44.922,25.879,48.34,26.855,0.0,0
1516,1581436130.063,0.0,20.02,26.855,17.578,0.0,0
1517,1581436130.0670002,-26.855,14.648,2.93,13.184000000000001,0.0,0
1518,1581436130.071,14.648,20.996,13.184000000000001,25.879,0.0,0
1519,1581436130.074,46.387,22.949,32.715,31.738000000000003,0.0,0
1520,1581436130.0779998,12.207,18.066,2.441,17.578,0.0,0
1521,1581436130.082,-20.508000000000003,27.831999999999997,15.137,7.324,0.0,0
1522,1581436130.086,6.348,28.32,45.41,14.16,0.0,0
1523,1581436130.09,51.27,21.973000000000003,43.945,21.484,0.0,0
1524,1581436130.092,32.227,25.391,50.293,21.484,0.0,0
1525,1581436130.096,-19.043,27.344,45.898,15.625,0.0,0
1526,1581436130.1,-3.906,26.366999999999997,29.785,17.578,0.0,0
1527,1581436130.1039999,46.875,18.555,24.901999999999997,27.831999999999997,0.0,0
1528,1581436130.1079998,45.41,20.02,36.621,28.809,0.0,0
1529,1581436130.1120002,-2.441,22.949,22.949,20.508000000000003,0.0,0
1530,1581436130.1160002,-17.578,22.949,19.531,19.531,0.0,0
1531,1581436130.119,31.25,20.02,7.812,21.484,0.0,0
1532,1581436130.123,56.152,16.602,1.953,14.648,0.0,0
1533,1581436130.127,16.113,23.926,43.457,14.648,0.0,0
1534,1581436130.131,-13.184000000000001,27.831999999999997,38.574,17.578,0.0,0
1535,1581436130.135,20.996,26.366999999999997,36.133,24.414,0.0,0
1536,1581436130.137,53.223,27.831999999999997,51.758,27.344,0.0,0
1537,1581436130.141,17.578,28.809,47.852,20.508000000000003,0.0,0
1538,1581436130.145,-20.996,23.438000000000002,28.809,15.137,0.0,0
1539,1581436130.149,-0.488,19.043,28.32,12.695,0.0,0
1540,1581436130.1529999,44.434,21.484,55.176,22.949,0.0,0
1541,1581436130.157,36.133,24.414,52.246,18.066,0.0,0
1542,1581436130.161,-12.695,20.02,21.973000000000003,7.812,0.0,0
1543,1581436130.164,-7.324,13.672,-12.207,12.695,0.0,0
1544,1581436130.168,43.457,20.996,36.133,17.578,0.0,0
1545,1581436130.1720002,46.387,31.25,87.891,21.973000000000003,0.0,0
1546,1581436130.176,0.488,30.761999999999997,40.527,12.207,0.0,0
1547,1581436130.18,-11.23,20.508000000000003,13.184000000000001,3.418,0.0,0
1548,1581436130.1829998,30.761999999999997,23.926,43.945,13.184000000000001,0.0,0
1549,1581436130.187,55.663999999999994,30.761999999999997,59.57,18.555,0.0,0
1550,1581436130.191,13.184000000000001,20.996,23.438000000000002,13.184000000000001,0.0,0
1551,1581436130.195,-20.508000000000003,20.996,-1.465,4.395,0.0,0
1552,1581436130.199,14.16,24.414,16.602,11.23,0.0,0
1553,1581436130.2029998,49.805,23.926,38.574,25.391,0.0,0
1554,1581436130.207,17.09,20.508000000000003,4.883,13.184000000000001,0.0,0
1555,1581436130.21,-27.831999999999997,23.438000000000002,-17.578,-2.93,0.0,0
1556,1581436130.214,-5.371,33.691,37.598,2.93,0.0,0
1557,1581436130.218,40.039,29.785,51.758,15.625,0.0,0
1558,1581436130.2220001,32.227,27.344,39.551,19.531,0.0,0
1559,1581436130.226,-17.09,28.809,20.02,7.812,0.0,0
1560,1581436130.228,-20.996,30.273000000000003,26.366999999999997,5.371,0.0,0
1561,1581436130.232,29.296999999999997,33.691,44.922,17.578,0.0,0
1562,1581436130.236,44.922,35.645,37.598,25.879,0.0,0
1563,1581436130.24,-1.465,28.32,26.366999999999997,14.648,0.0,0
1564,1581436130.244,-24.414,20.996,24.414,8.301,0.0,0
1565,1581436130.248,18.555,22.461,14.16,20.508000000000003,0.0,0
1566,1581436130.252,47.852,17.578,-13.184000000000001,22.461,0.0,0
1567,1581436130.255,15.137,20.996,-2.93,16.113,0.0,0
1568,1581436130.2589998,-18.555,35.645,29.296999999999997,20.02,0.0,0
1569,1581436130.2629998,9.766,32.715,36.621,27.344,0.0,0
1570,1581436130.2670002,60.547,23.926,44.434,33.691,0.0,0
1571,1581436130.2710001,37.598,27.831999999999997,52.246,24.901999999999997,0.0,0
1572,1581436130.2870002,-18.066,31.738000000000003,48.34,11.23,0.0,0
1573,1581436130.2910001,-2.93,24.901999999999997,27.831999999999997,19.043,0.0,0
1574,1581436130.295,47.363,20.02,27.344,26.366999999999997,0.0,0
1575,1581436130.299,46.387,23.926,43.457,25.879,0.0,0
1576,1581436130.303,-4.395,27.831999999999997,27.344,15.137,0.0,0
1577,1581436130.3070002,-12.207,19.043,-24.901999999999997,8.301,0.0,0
1578,1581436130.311,36.133,18.066,-13.672,19.043,0.0,0
1579,1581436130.314,45.41,24.901999999999997,55.663999999999994,25.879,0.0,0
1580,1581436130.3179998,-0.488,21.973000000000003,51.27,18.066,0.0,0
1581,1581436130.322,-22.461,18.555,-0.977,4.883,0.0,0
1582,1581436130.326,20.508000000000003,20.996,-2.441,7.324,0.0,0
1583,1581436130.33,47.363,24.414,46.387,20.508000000000003,0.0,0
1584,1581436130.332,14.648,23.438000000000002,48.34,19.531,0.0,0
1585,1581436130.336,-20.02,24.901999999999997,21.973000000000003,13.184000000000001,0.0,0
1586,1581436130.34,3.906,24.901999999999997,23.438000000000002,12.207,0.0,0
1587,1581436130.3439999,48.828,23.438000000000002,41.016000000000005,18.066,0.0,0
1588,1581436130.3479998,29.296999999999997,22.461,35.645,16.602,0.0,0
1589,1581436130.3520002,-19.043,14.648,-3.418,7.812,0.0,0
1590,1581436130.356,-6.836,16.602,-6.348,12.207,0.0,0
1591,1581436130.359,39.062,24.901999999999997,49.805,21.484,0.0,0
1592,1581436130.363,41.992,22.949,53.711000000000006,24.901999999999997,0.0,0
1593,1581436130.367,-3.906,18.066,-11.23,12.695,0.0,0
1594,1581436130.371,-16.113,17.09,-2.441,6.836,0.0,0
1595,1581436130.375,33.691,20.996,49.316,21.484,0.0,0
1596,1581436130.377,54.688,21.484,43.457,25.879,0.0,0
1597,1581436130.381,5.371,13.184000000000001,8.789,20.508000000000003,0.0,0
1598,1581436130.385,-27.344,15.137,12.695,15.137,0.0,0
1599,1581436130.389,12.207,21.973000000000003,40.039,17.578,0.0,0
1600,1581436130.393,46.875,21.973000000000003,42.48,28.809,0.0,0
1601,1581436130.397,17.09,20.508000000000003,19.043,25.391,0.0,0
1602,1581436130.401,-20.02,19.043,7.812,12.207,0.0,0
1603,1581436130.404,3.906,22.949,41.016000000000005,17.578,0.0,0
1604,1581436130.408,45.898,18.555,33.203,28.809,0.0,0
1605,1581436130.4120002,36.133,14.16,9.277000000000001,25.391,0.0,0
1606,1581436130.4160001,-9.277000000000001,20.508000000000003,36.621,13.672,0.0,0
1607,1581436130.42,-7.812,16.113,31.25,15.137,0.0,0
1608,1581436130.4220002,44.434,20.996,38.574,30.273000000000003,0.0,0
1609,1581436130.426,49.316,32.227,57.129,25.879,0.0,0
1610,1581436130.43,-4.883,24.901999999999997,39.062,13.672,0.0,0
1611,1581436130.434,-23.438000000000002,18.555,17.09,9.766,0.0,0
1612,1581436130.438,23.438000000000002,22.949,22.949,16.602,0.0,0
1613,1581436130.4420002,54.199,27.344,30.273000000000003,25.879,0.0,0
1614,1581436130.446,11.719000000000001,23.438000000000002,18.555,19.531,0.0,0
1615,1581436130.449,-20.508000000000003,19.531,17.09,13.672,0.0,0
1616,1581436130.4529998,15.137,15.137,4.883,9.766,0.0,0
1617,1581436130.457,55.176,23.438000000000002,42.968999999999994,18.555,0.0,0
1618,1581436130.461,29.296999999999997,30.273000000000003,75.684,26.366999999999997,0.0,0
1619,1581436130.465,-22.949,20.02,20.508000000000003,16.113,0.0,0
1620,1581436130.467,-8.301,22.949,14.16,19.043,0.0,0
1621,1581436130.471,47.363,28.32,45.41,21.484,0.0,0
1622,1581436130.475,41.992,18.555,50.293,12.207,0.0,0
1623,1581436130.4789999,-7.812,16.113,19.043,5.859,0.0,0
1624,1581436130.4829998,-3.906,19.531,6.348,4.395,0.0,0
1625,1581436130.4870002,51.27,22.461,27.344,14.648,0.0,0
1626,1581436130.4910002,64.453,22.461,31.25,18.066,0.0,0
1627,1581436130.494,24.414,17.09,-5.859,5.859,0.0,0
1628,1581436130.498,6.836,18.555,-19.531,-0.977,0.0,0
1629,1581436130.502,44.434,29.296999999999997,47.363,9.277000000000001,0.0,0
1630,1581436130.506,68.848,28.32,58.593999999999994,24.414,0.0,0
1631,1581436130.51,21.973000000000003,28.809,26.855,33.691,0.0,0
1632,1581436130.512,-17.09,28.32,13.184000000000001,36.621,0.0,0
1633,1581436130.516,6.348,23.438000000000002,36.621,42.968999999999994,0.0,0
1634,1581436130.52,41.992,19.043,60.059,44.434,0.0,0
1635,1581436130.524,23.926,14.16,45.41,34.668,0.0,0
1636,1581436130.5279999,-27.831999999999997,10.254000000000001,15.137,21.484,0.0,0
1637,1581436130.532,-16.602,11.719000000000001,6.836,22.949,0.0,0
1638,1581436130.536,35.645,20.508000000000003,23.438000000000002,30.273000000000003,0.0,0
1639,1581436130.539,31.738000000000003,21.484,-9.766,19.531,0.0,0
1640,1581436130.543,-20.996,18.066,-3.418,3.418,0.0,0
1641,1581436130.5470002,-28.809,16.602,21.484,4.395,0.0,0
1642,1581436130.551,20.508000000000003,20.996,26.855,19.531,0.0,0
1643,1581436130.555,38.574,25.391,59.082,23.926,0.0,0
1644,1581436130.5579998,-1.953,20.508000000000003,46.875,20.02,0.0,0
1645,1581436130.562,-22.461,20.508000000000003,26.366999999999997,14.648,0.0,0
1646,1581436130.566,20.02,20.996,10.254000000000001,18.066,0.0,0
1647,1581436130.57,56.641000000000005,20.02,24.414,28.809,0.0,0
1648,1581436130.574,17.09,17.09,43.457,20.508000000000003,0.0,0
1649,1581436130.5779998,-23.926,14.16,0.977,14.648,0.0,0
1650,1581436130.582,5.859,14.16,-28.809,21.484,0.0,0
1651,1581436130.585,51.758,20.02,6.348,26.855,0.0,0
1652,1581436130.589,32.227,29.296999999999997,63.965,25.879,0.0,0
1653,1581436130.593,-18.555,27.831999999999997,45.41,16.113,0.0,0
1654,1581436130.5970001,-9.277000000000001,26.366999999999997,22.949,12.695,0.0,0
1655,1581436130.601,43.945,31.25,42.48,22.461,0.0,0
1656,1581436130.6020002,47.852,31.738000000000003,47.363,22.949,0.0,0
1657,1581436130.606,-2.93,27.831999999999997,24.414,13.672,0.0,0
1658,1581436130.61,-13.672,23.926,17.09,13.672,0.0,0
1659,1581436130.6139998,28.32,20.02,39.062,20.508000000000003,0.0,0
1660,1581436130.6179998,50.781000000000006,19.531,64.453,24.414,0.0,0
1661,1581436130.6220002,12.695,17.578,33.691,17.578,0.0,0
1662,1581436130.6260002,-21.973000000000003,14.648,-32.715,8.301,0.0,0
1663,1581436130.629,15.625,23.926,8.301,12.695,0.0,0
1664,1581436130.633,51.27,33.691,73.73,20.508000000000003,0.0,0
1665,1581436130.637,20.996,28.809,44.434,18.066,0.0,0
1666,1581436130.641,-14.16,24.414,14.16,16.602,0.0,0
1667,1581436130.645,6.836,26.855,38.086,22.461,0.0,0
1668,1581436130.6620002,51.27,26.855,65.918,29.296999999999997,0.0,0
1669,1581436130.6660001,41.504,20.508000000000003,33.691,31.738000000000003,0.0,0
1670,1581436130.67,-4.883,17.578,7.812,27.831999999999997,0.0,0
1671,1581436130.674,-6.348,20.02,6.348,17.578,0.0,0
1672,1581436130.678,39.551,21.484,30.273000000000003,24.901999999999997,0.0,0
1673,1581436130.6820002,44.434,16.113,22.949,25.391,0.0,0
1674,1581436130.686,-4.883,13.184000000000001,-20.508000000000003,2.93,0.0,0
1675,1581436130.689,-24.414,20.508000000000003,20.996,0.488,0.0,0
1676,1581436130.6929998,20.996,23.438000000000002,55.663999999999994,15.625,0.0,0
1677,1581436130.697,52.246,20.508000000000003,38.574,22.949,0.0,0
1678,1581436130.701,14.16,20.508000000000003,38.086,16.602,0.0,0
1679,1581436130.705,-14.16,21.484,39.551,15.625,0.0,0
1680,1581436130.707,21.484,20.508000000000003,40.039,22.461,0.0,0
1681,1581436130.711,62.988,19.531,48.828,27.831999999999997,0.0,0
1682,1581436130.715,40.527,21.484,39.062,23.438000000000002,0.0,0
1683,1581436130.7189999,-0.488,21.973000000000003,27.344,16.602,0.0,0
1684,1581436130.7229998,16.113,16.113,26.855,23.438000000000002,0.0,0
1685,1581436130.7270002,60.059,17.09,44.922,32.227,0.0,0
1686,1581436130.731,46.875,9.766,31.25,27.344,0.0,0
1687,1581436130.734,-3.418,6.836,12.207,18.066,0.0,0
1688,1581436130.738,-7.812,18.066,21.484,14.16,0.0,0
1689,1581436130.742,38.574,18.066,11.23,19.043,0.0,0
1690,1581436130.746,52.733999999999995,21.484,52.246,20.996,0.0,0
1691,1581436130.75,11.719000000000001,20.02,56.641000000000005,15.625,0.0,0
1692,1581436130.7510002,-9.766,16.113,10.742,11.719000000000001,0.0,0
1693,1581436130.755,29.785,21.973000000000003,26.855,19.531,0.0,0
1694,1581436130.7589998,63.965,28.32,57.129,28.809,0.0,0
1695,1581436130.7629998,31.738000000000003,23.926,37.598,25.391,0.0,0
1696,1581436130.7670002,-6.836,20.508000000000003,2.93,20.02,0.0,0
1697,1581436130.7710001,20.508000000000003,21.973000000000003,-6.348,25.879,0.0,0
1698,1581436130.775,63.477,21.484,24.414,30.761999999999997,0.0,0
1699,1581436130.7779999,37.598,19.043,51.27,27.344,0.0,0
1700,1581436130.782,-10.254000000000001,17.09,-3.906,18.555,0.0,0
1701,1581436130.786,5.859,19.043,-36.621,18.066,0.0,0
1702,1581436130.79,53.223,24.901999999999997,37.598,31.25,0.0,0
1703,1581436130.794,55.176,25.391,62.5,32.227,0.0,0
1704,1581436130.7970002,12.695,26.855,33.691,26.366999999999997,0.0,0
1705,1581436130.801,1.953,25.879,14.648,29.296999999999997,0.0,0
1706,1581436130.805,40.527,20.996,36.621,31.738000000000003,0.0,2
1707,1581436130.809,61.035,25.879,53.711000000000006,36.621,0.0,0
1708,1581436130.813,17.578,28.32,28.32,31.25,0.0,0
1709,1581436130.8170002,-19.043,19.531,-0.977,20.02,0.0,0
1710,1581436130.821,28.32,23.438000000000002,21.973000000000003,25.391,0.0,0
1711,1581436130.824,64.941,30.273000000000003,55.176,28.809,0.0,0
1712,1581436130.8279998,20.996,16.602,-1.465,20.508000000000003,0.0,0
1713,1581436130.832,-19.043,14.648,-6.836,12.695,0.0,0
1714,1581436130.836,9.766,23.926,50.293,22.461,0.0,0
1715,1581436130.84,60.059,19.531,45.898,36.621,0.0,0
1716,1581436130.841,47.363,20.02,24.901999999999997,37.598,0.0,0
1717,1581436130.845,-6.348,29.785,24.901999999999997,28.809,0.0,0
1718,1581436130.849,-4.395,27.831999999999997,18.066,29.785,0.0,0
1719,1581436130.853,48.828,20.02,21.484,40.527,0.0,0
1720,1581436130.857,53.711000000000006,22.949,39.062,37.109,0.0,0
1721,1581436130.861,-0.488,21.973000000000003,6.348,23.926,0.0,0
1722,1581436130.865,-18.066,18.555,-12.695,23.926,0.0,0
1723,1581436130.8679998,30.273000000000003,21.973000000000003,6.348,25.391,0.0,0
1724,1581436130.8720002,54.199,25.879,18.555,23.926,0.0,0
1725,1581436130.8760002,13.672,32.715,47.363,19.531,0.0,0
1726,1581436130.88,-17.578,25.391,23.926,13.672,0.0,0
1727,1581436130.8839998,19.043,19.043,5.859,19.531,0.0,0
1728,1581436130.887,57.129,24.901999999999997,31.738000000000003,29.296999999999997,0.0,0
1729,1581436130.891,24.901999999999997,27.344,44.922,25.391,0.0,0
1730,1581436130.895,-12.695,25.391,27.344,17.578,0.0,0
1731,1581436130.899,10.742,24.901999999999997,5.371,21.973000000000003,0.0,0
1732,1581436130.9029999,56.152,21.484,27.344,30.273000000000003,0.0,0
1733,1581436130.907,42.968999999999994,21.973000000000003,25.391,31.25,0.0,0
1734,1581436130.911,-5.371,24.414,-3.418,19.531,0.0,0
1735,1581436130.914,-3.906,19.043,-19.531,6.836,0.0,0
1736,1581436130.918,43.457,22.949,24.414,16.113,0.0,0
1737,1581436130.9220002,57.617,32.715,74.219,26.366999999999997,0.0,0
1738,1581436130.926,10.742,34.18,38.574,22.461,0.0,0
1739,1581436130.93,-10.742,32.715,21.484,21.973000000000003,0.0,0
1740,1581436130.9320002,36.133,30.273000000000003,42.48,26.366999999999997,0.0,0
1741,1581436130.936,66.895,30.761999999999997,50.293,31.738000000000003,0.0,0
1742,1581436130.94,28.32,23.926,28.32,25.879,0.0,0
1743,1581436130.944,-8.789,16.113,5.859,19.043,0.0,0
1744,1581436130.948,14.648,15.625,22.949,22.461,0.0,0
1745,1581436130.9520001,55.663999999999994,15.137,38.574,23.926,0.0,0
1746,1581436130.956,31.738000000000003,15.137,4.395,17.09,0.0,0
1747,1581436130.9589999,-17.578,21.973000000000003,-29.296999999999997,8.301,0.0,0
1748,1581436130.9629998,-2.93,30.761999999999997,23.926,8.789,0.0,0
1749,1581436130.967,43.457,26.855,65.43,18.555,0.0,0
1750,1581436130.971,36.133,23.926,50.293,20.996,0.0,0
1751,1581436130.975,-8.789,24.901999999999997,31.738000000000003,16.602,0.0,0
1752,1581436130.9770002,-13.184000000000001,24.414,40.039,12.207,0.0,0
1753,1581436130.981,34.18,21.484,49.316,18.066,0.0,0
1754,1581436130.985,60.059,24.901999999999997,55.663999999999994,31.738000000000003,0.0,0
1755,1581436130.9889998,19.043,21.484,46.875,22.949,0.0,0
1756,1581436130.9929998,-6.836,15.137,24.901999999999997,18.066,0.0,0
1757,1581436130.9970002,32.227,19.043,18.066,37.109,0.0,0
1758,1581436131.0010002,62.988,18.555,9.277000000000001,32.227,0.0,0
1759,1581436131.004,30.761999999999997,23.438000000000002,21.973000000000003,18.066,0.0,0
1760,1581436131.008,-14.16,26.855,54.199,17.578,0.0,0
1761,1581436131.012,10.742,23.438000000000002,28.809,19.531,0.0,0
1762,1581436131.016,59.082,26.366999999999997,39.551,27.831999999999997,0.0,0
1763,1581436131.02,44.434,29.296999999999997,67.87100000000001,30.761999999999997,0.0,0
1764,1581436131.0370002,-0.488,28.32,44.434,23.926,0.0,0
1765,1581436131.0410001,5.371,20.996,23.438000000000002,21.484,0.0,0
1766,1581436131.045,51.27,16.113,31.738000000000003,30.761999999999997,0.0,0
1767,1581436131.049,50.293,20.02,61.035,29.296999999999997,0.0,0
1768,1581436131.053,-1.465,20.02,44.922,23.438000000000002,0.0,0
1769,1581436131.0570002,-19.531,16.113,-10.742,18.066,0.0,0
1770,1581436131.061,25.879,21.484,2.441,14.16,0.0,0
1771,1581436131.064,44.922,29.296999999999997,62.012,18.555,0.0,0
1772,1581436131.0679998,-3.906,28.809,50.781000000000006,14.648,0.0,0
1773,1581436131.072,-31.25,20.996,15.137,9.766,0.0,0
1774,1581436131.076,13.672,14.16,25.391,13.672,0.0,0
1775,1581436131.08,52.246,17.578,46.875,16.602,0.0,0
1776,1581436131.082,22.461,27.831999999999997,25.879,16.602,0.0,0
1777,1581436131.086,-25.391,24.901999999999997,11.23,11.719000000000001,0.0,0
1778,1581436131.09,-7.812,15.137,24.901999999999997,8.789,0.0,0
1779,1581436131.0939999,43.457,19.043,47.852,13.672,0.0,0
1780,1581436131.0979998,23.926,19.043,47.363,10.254000000000001,0.0,0
1781,1581436131.1020002,-27.344,18.066,6.836,0.977,0.0,0
1782,1581436131.106,-20.508000000000003,23.438000000000002,-3.906,3.906,0.0,0
1783,1581436131.109,32.227,23.438000000000002,41.504,12.207,0.0,0
1784,1581436131.113,40.527,17.09,61.035,14.648,0.0,0
1785,1581436131.117,-8.789,13.184000000000001,-9.277000000000001,-1.465,0.0,0
1786,1581436131.121,-23.926,20.508000000000003,-16.602,-4.883,0.0,0
1787,1581436131.125,23.438000000000002,25.391,51.27,17.578,0.0,0
1788,1581436131.127,50.293,23.438000000000002,39.062,24.901999999999997,0.0,0
1789,1581436131.131,3.906,23.438000000000002,10.742,13.672,0.0,0
1790,1581436131.135,-32.715,20.996,28.32,3.906,0.0,0
1791,1581436131.139,4.395,20.02,41.504,12.695,0.0,0
1792,1581436131.143,43.457,25.391,45.898,22.949,0.0,0
1793,1581436131.147,20.508000000000003,23.438000000000002,20.02,21.484,0.0,0
1794,1581436131.151,-19.531,15.625,-10.742,13.672,0.0,0
1795,1581436131.154,-0.977,19.531,12.695,15.625,0.0,0
1796,1581436131.158,47.852,17.09,12.695,26.855,0.0,0
1797,1581436131.1620002,39.551,15.625,-3.418,21.973000000000003,0.0,0
1798,1581436131.1660001,-7.812,20.996,29.785,13.184000000000001,0.0,0
1799,1581436131.17,-6.836,19.531,26.855,15.625,0.0,0
1800,1581436131.1720002,42.48,25.879,36.621,25.391,0.0,0
1801,1581436131.176,54.199,31.25,55.663999999999994,32.227,0.0,0
1802,1581436131.18,5.371,26.855,28.32,19.531,0.0,0
1803,1581436131.184,-17.578,20.02,5.859,12.695,0.0,0
1804,1581436131.188,25.391,18.066,20.02,23.926,0.0,0
1805,1581436131.1920002,52.733999999999995,16.602,21.973000000000003,26.855,0.0,0
1806,1581436131.196,16.602,18.555,5.371,19.043,0.0,0
1807,1581436131.199,-16.602,18.555,-1.465,12.207,0.0,0
1808,1581436131.2029998,13.184000000000001,14.648,-18.555,9.766,0.0,0
1809,1581436131.207,49.805,23.438000000000002,17.09,13.672,0.0,0
1810,1581436131.211,26.855,29.296999999999997,58.593999999999994,15.137,0.0,0
1811,1581436131.215,-17.09,21.484,21.973000000000003,9.766,0.0,0
1812,1581436131.217,-7.812,22.949,8.301,15.137,0.0,0
1813,1581436131.221,37.598,28.809,37.109,23.438000000000002,0.0,0
1814,1581436131.225,34.668,23.438000000000002,53.711000000000006,19.043,0.0,0
1815,1581436131.2289999,-11.719000000000001,17.09,17.09,11.719000000000001,0.0,0
1816,1581436131.2329998,-16.113,16.602,9.277000000000001,16.113,0.0,0
1817,1581436131.2370002,35.645,21.973000000000003,22.949,26.366999999999997,0.0,0
1818,1581436131.2410002,50.293,27.344,34.18,28.32,0.0,0
1819,1581436131.244,1.953,23.926,5.859,17.578,0.0,0
1820,1581436131.248,-22.949,19.531,-23.926,9.766,0.0,0
1821,1581436131.252,14.648,26.855,35.156,15.625,0.0,0
1822,1581436131.256,48.828,30.761999999999997,74.219,22.461,0.0,0
1823,1581436131.26,17.09,28.32,42.48,15.625,0.0,0
1824,1581436131.262,-21.484,29.785,14.16,9.277000000000001,0.0,0
1825,1581436131.266,11.23,30.761999999999997,40.039,14.648,0.0,0
1826,1581436131.27,47.363,22.949,60.059,15.625,0.0,0
1827,1581436131.274,23.926,20.996,37.598,11.719000000000001,0.0,0
1828,1581436131.2779999,-17.578,20.996,22.949,6.836,0.0,0
1829,1581436131.282,-10.742,17.578,16.602,14.16,0.0,0
1830,1581436131.286,43.945,21.973000000000003,18.555,28.809,0.0,0
1831,1581436131.289,45.41,21.973000000000003,4.883,25.391,0.0,0
1832,1581436131.293,-11.23,19.043,10.254000000000001,12.207,0.0,0
1833,1581436131.2970002,-20.996,20.02,40.039,14.16,0.0,0
1834,1581436131.301,23.438000000000002,21.484,43.945,21.973000000000003,0.0,0
1835,1581436131.305,48.34,24.414,41.504,24.414,0.0,0
1836,1581436131.3070002,7.812,24.414,34.668,17.578,0.0,0
1837,1581436131.311,-27.344,20.508000000000003,24.901999999999997,5.371,0.0,0
1838,1581436131.315,9.277000000000001,18.066,27.831999999999997,12.695,0.0,0
1839,1581436131.319,46.387,16.113,40.039,17.578,0.0,0
1840,1581436131.323,18.555,14.648,41.504,9.766,0.0,0
1841,1581436131.3270001,-21.973000000000003,15.137,16.113,6.348,0.0,0
1842,1581436131.331,7.324,20.508000000000003,-9.277000000000001,8.789,0.0,0
1843,1581436131.3339999,60.547,26.855,6.348,9.766,0.0,0
1844,1581436131.3379998,52.246,28.32,56.152,9.766,0.0,0
1845,1581436131.342,7.324,23.926,47.363,11.23,0.0,0
1846,1581436131.346,11.23,24.901999999999997,24.901999999999997,14.648,0.0,0
1847,1581436131.35,61.035,30.273000000000003,43.945,24.414,0.0,0
1848,1581436131.3520002,58.593999999999994,29.296999999999997,76.66,32.715,0.0,0
1849,1581436131.356,-7.812,21.973000000000003,55.663999999999994,29.296999999999997,0.0,0
1850,1581436131.36,-27.831999999999997,18.555,7.324,26.366999999999997,0.0,0
1851,1581436131.3639998,18.555,16.602,29.785,36.133,0.0,0
1852,1581436131.3679998,40.527,19.531,64.941,37.109,0.0,0
1853,1581436131.3720002,0.488,22.949,38.086,30.273000000000003,0.0,0
1854,1581436131.3760002,-26.855,19.531,-9.766,25.879,0.0,0
1855,1581436131.379,5.859,22.461,23.926,21.973000000000003,0.0,0
1856,1581436131.383,41.016000000000005,30.273000000000003,85.449,30.273000000000003,0.0,0
1857,1581436131.387,17.578,22.461,54.688,26.855,0.0,0
1858,1581436131.391,-21.973000000000003,17.578,9.766,16.113,0.0,0
1859,1581436131.395,-0.488,30.273000000000003,32.227,20.996,0.0,0
1860,1581436131.397,45.41,31.738000000000003,66.406,26.366999999999997,0.0,0
1861,1581436131.401,34.668,20.02,29.296999999999997,20.02,0.0,0
1862,1581436131.405,-15.137,16.602,-4.395,11.719000000000001,0.0,0
1863,1581436131.409,-15.137,27.344,31.25,14.648,0.0,0
1864,1581436131.4129999,34.18,27.831999999999997,53.711000000000006,21.973000000000003,0.0,0
1865,1581436131.417,46.387,18.066,14.16,21.484,0.0,0
1866,1581436131.421,2.441,13.184000000000001,-14.16,16.113,0.0,0
1867,1581436131.424,-19.043,16.602,16.602,9.277000000000001,0.0,0
1868,1581436131.428,20.508000000000003,23.926,43.457,13.184000000000001,0.0,0
1869,1581436131.4320002,45.898,25.391,21.973000000000003,19.043,0.0,0
1870,1581436131.436,9.766,21.973000000000003,4.883,8.301,0.0,0
1871,1581436131.44,-24.414,28.32,35.156,8.301,0.0,0
1872,1581436131.457,6.836,28.809,41.992,19.043,0.0,0
1873,1581436131.461,43.945,21.973000000000003,31.25,22.461,0.0,0
1874,1581436131.465,22.461,21.973000000000003,28.809,12.695,0.0,0
1875,1581436131.4689999,-18.066,20.508000000000003,14.16,7.812,0.0,0
1876,1581436131.4729998,-5.859,25.391,12.207,12.207,0.0,0
1877,1581436131.4770002,42.48,21.973000000000003,16.602,16.113,0.0,0
1878,1581436131.481,37.109,18.555,30.273000000000003,14.16,0.0,0
1879,1581436131.484,-15.137,23.438000000000002,45.41,7.812,0.0,0
1880,1581436131.488,-19.043,17.09,10.254000000000001,11.719000000000001,0.0,0
1881,1581436131.492,33.203,12.695,1.953,19.531,0.0,0
1882,1581436131.496,50.293,19.043,50.293,22.461,0.0,0
