timestamps,TP9,AF7,AF8,TP10,Right AUX,Marker0
1582736991.887,14.648,26.367,13.184,9.766,0.0,0
1582736991.891,20.508000000000006,22.461,12.207,13.184,0.0,0
1582736991.895,23.926,5.859,14.648,13.184,0.0,0
1582736991.899,21.484,-2.441,11.719,15.625,0.0,0
1582736991.903,17.578,16.602,-1.953,15.625,0.0,0
1582736991.907,25.879,24.902,-7.812,16.113,0.0,0
1582736991.911,21.973000000000006,23.926,5.859,14.648,0.0,0
1582736991.914,16.602,24.902,20.02,17.09,0.0,0
1582736991.918,24.414,14.16,25.879,22.949,0.0,0
1582736991.9220002,24.902,22.949,21.484,23.438,0.0,0
1582736991.926,26.367,32.227,15.137,29.297,0.0,0
1582736991.93,23.438,27.344,8.301,27.832,0.0,0
1582736991.9320002,20.508000000000006,23.438,6.836,19.531,0.0,0
1582736991.936,23.926,10.254,15.625,23.926,0.0,0
1582736991.94,31.738000000000003,2.441,16.602,27.344,0.0,0
1582736991.944,24.902,14.16,16.113,24.902,0.0,0
1582736991.948,24.414,29.297,14.648,26.367,0.0,0
1582736991.952,32.715,28.809,14.16,30.762,0.0,0
1582736991.956,35.156,22.949,12.207,33.203,0.0,0
1582736991.959,36.621,22.461,12.695,35.156,0.0,0
1582736991.9629998,34.668,21.484,17.09,33.203,0.0,0
1582736991.967,26.367,26.855,20.996,32.715,0.0,0
1582736991.971,22.949,24.414,19.043,37.598,0.0,0
1582736991.975,22.949,13.184,17.09,33.691,0.0,0
1582736991.992,22.949,12.695,22.949,28.32,0.0,0
1582736991.996,20.508000000000006,6.348,20.02,22.949,0.0,0
1582736992.0,10.254,12.695,15.625,16.113,0.0,0
1582736992.004,13.184,20.996,12.207,16.113,0.0,0
1582736992.008,20.996,26.855,18.066,24.902,0.0,0
1582736992.012,16.113,34.18,16.602,21.484,0.0,0
1582736992.016,10.254,26.855,6.836,13.672,0.0,0
1582736992.019,9.766,28.32,13.184,19.531,0.0,0
1582736992.0229998,15.137,20.02,14.648,21.484,0.0,0
1582736992.0270002,11.719,9.766,20.996,18.555,0.0,0
1582736992.031,8.789,12.695,24.414,18.066,0.0,0
1582736992.035,15.137,7.324,15.625,18.555,0.0,0
1582736992.0370002,22.461,14.16,10.254,20.02,0.0,0
1582736992.041,22.949,22.461,9.766,17.578,0.0,0
1582736992.045,16.113,25.391,19.531,18.066,0.0,0
1582736992.049,10.742,25.879,29.297,19.043,0.0,0
1582736992.053,15.625,29.785,30.762,22.949,0.0,0
1582736992.0570002,27.344,19.531,26.855,27.832,0.0,0
1582736992.061,37.598,9.277,20.02,35.645,0.0,0
1582736992.064,39.551,34.18,27.344,40.527,0.0,0
1582736992.0679998,24.902,41.504,39.062,27.344,0.0,0
1582736992.072,16.113,25.391,40.039,22.949,0.0,0
1582736992.076,21.973000000000006,20.02,36.621,25.391,0.0,0
1582736992.08,28.809,9.766,36.621,36.621,0.0,0
1582736992.082,23.926,5.371,33.691,35.645,0.0,0
1582736992.086,24.902,20.508000000000006,21.973000000000006,30.762,0.0,0
1582736992.09,27.832,16.602,17.09,36.133,0.0,0
1582736992.094,16.602,10.254,12.207,33.203,0.0,0
1582736992.0979998,20.996,14.648,13.184,32.715,0.0,0
1582736992.1020002,29.785,16.113,15.625,37.109,0.0,0
1582736992.106,27.344,15.625,15.625,39.062,0.0,0
1582736992.109,23.926,12.695,20.508000000000006,38.086,0.0,0
1582736992.113,23.926,12.207,20.996,37.598,0.0,0
1582736992.117,30.273000000000003,20.508000000000006,23.926,38.574,0.0,0
1582736992.121,28.32,10.742,29.297,37.109,0.0,0
1582736992.125,22.461,0.977,27.344,29.785,0.0,0
1582736992.127,20.02,10.742,24.902,26.855,0.0,0
1582736992.131,24.414,10.254,21.973000000000006,24.902,0.0,0
1582736992.135,22.949,4.883,24.414,24.414,0.0,0
1582736992.139,23.438,11.719,23.926,23.926,0.0,0
1582736992.143,22.949,25.879,14.648,26.855,0.0,0
1582736992.147,20.02,16.602,15.137,28.32,0.0,0
1582736992.151,24.414,11.23,15.625,27.344,0.0,0
1582736992.154,21.484,22.949,16.602,26.367,0.0,0
1582736992.158,18.555,18.066,16.602,24.414,0.0,0
1582736992.1620002,29.297,15.137,14.16,28.32,0.0,0
1582736992.166,30.762,24.414,21.973000000000006,30.273000000000003,0.0,0
1582736992.17,23.926,25.391,24.902,25.879,0.0,0
1582736992.1720002,23.438,26.855,23.438,23.438,0.0,0
1582736992.176,22.461,24.902,32.715,26.367,0.0,0
1582736992.18,21.484,20.996,28.32,25.879,0.0,0
1582736992.184,21.484,17.09,18.555,25.391,0.0,0
1582736992.188,19.531,15.625,19.043,25.879,0.0,0
1582736992.1920002,17.578,20.02,19.043,26.367,0.0,0
1582736992.196,23.926,16.602,20.996,26.855,0.0,0
1582736992.199,28.809,18.555,18.066,25.879,0.0,0
1582736992.2029998,31.25,18.555,19.043,28.32,0.0,0
1582736992.207,30.273000000000003,13.184,18.066,31.25,0.0,0
1582736992.211,27.344,10.254,11.23,28.809,0.0,0
1582736992.215,31.25,6.348,11.719,26.855,0.0,0
1582736992.217,24.414,14.648,20.508000000000006,21.973000000000006,0.0,0
1582736992.221,18.555,18.066,23.438,23.926,0.0,0
1582736992.225,20.508000000000006,23.438,16.602,28.809,0.0,0
1582736992.229,25.879,27.344,18.066,25.879,0.0,0
1582736992.2329998,26.855,23.438,23.926,27.344,0.0,0
1582736992.2370002,28.809,21.484,23.926,32.715,0.0,0
1582736992.2410002,32.227,17.578,21.973000000000006,34.668,0.0,0
1582736992.244,28.32,21.973000000000006,22.461,29.785,0.0,0
1582736992.248,24.902,27.832,19.043,27.344,0.0,0
1582736992.252,31.738000000000003,23.438,16.602,29.785,0.0,0
1582736992.256,27.344,18.555,14.648,32.227,0.0,0
1582736992.26,19.531,18.555,17.578,31.738000000000003,0.0,0
1582736992.262,21.484,21.973000000000006,26.367,32.715,0.0,0
1582736992.266,21.484,21.973000000000006,23.438,29.785,0.0,0
1582736992.27,24.902,18.555,17.578,26.367,0.0,0
1582736992.274,28.32,15.625,17.578,29.297,0.0,0
1582736992.278,30.762,18.066,17.09,32.227,0.0,0
1582736992.282,31.738000000000003,24.902,21.484,28.809,0.0,0
1582736992.286,35.156,30.273000000000003,22.949,32.227,0.0,0
1582736992.289,35.645,30.762,24.414,38.086,0.0,0
1582736992.293,33.203,22.949,21.973000000000006,34.18,0.0,0
1582736992.2970002,36.133,14.648,20.996,37.109,0.0,0
1582736992.301,41.504,18.066,19.043,39.551,0.0,0
1582736992.305,37.598,16.113,17.09,35.156,0.0,0
1582736992.3070002,29.785,24.902,20.508000000000006,33.691,0.0,0
1582736992.311,32.227,34.668,22.949,34.18,0.0,0
1582736992.315,28.809,26.855,23.926,33.691,0.0,0
1582736992.319,20.02,28.32,21.973000000000006,31.738000000000003,0.0,0
1582736992.323,20.996,24.902,25.879,34.18,0.0,0
1582736992.327,29.785,15.625,29.785,36.133,0.0,0
1582736992.331,30.273000000000003,18.066,27.344,33.203,0.0,0
1582736992.334,26.855,21.973000000000006,31.25,31.25,0.0,0
1582736992.3379998,22.949,17.578,27.832,23.438,0.0,0
1582736992.342,17.09,8.301,16.113,20.508000000000006,0.0,0
1582736992.346,20.02,0.488,13.672,27.344,0.0,0
1582736992.35,20.508000000000006,9.766,13.184,29.297,0.0,0
1582736992.367,19.531,27.832,11.23,23.926,0.0,0
1582736992.371,28.809,23.438,8.301,25.391,0.0,0
1582736992.375,32.715,14.16,11.23,31.738000000000003,0.0,0
1582736992.379,28.32,25.879,15.625,34.18,0.0,0
1582736992.383,34.18,28.32,18.555,32.227,0.0,0
1582736992.387,33.691,13.672,28.32,32.227,0.0,0
1582736992.391,28.32,12.207,30.762,30.273000000000003,0.0,0
1582736992.394,28.809,20.996,21.973000000000006,28.809,0.0,0
1582736992.3979998,25.391,13.184,19.531,30.762,0.0,0
1582736992.4020002,19.043,9.277,24.902,27.344,0.0,0
1582736992.406,24.414,19.531,19.531,23.438,0.0,0
1582736992.41,27.832,8.789,16.602,23.926,0.0,0
1582736992.4120002,17.09,14.16,12.695,24.902,0.0,0
1582736992.416,14.16,20.996,10.742,25.391,0.0,0
1582736992.42,14.648,9.277,18.066,24.414,0.0,0
1582736992.424,12.207,19.043,18.555,20.02,0.0,0
1582736992.428,14.648,23.926,19.043,19.531,0.0,0
1582736992.4320002,14.16,15.625,25.391,17.578,0.0,0
1582736992.436,9.766,21.973000000000006,21.484,12.695,0.0,0
1582736992.439,12.695,20.508000000000006,18.555,13.184,0.0,0
1582736992.4429998,17.09,13.672,19.531,14.648,0.0,0
1582736992.447,20.02,22.461,20.02,17.578,0.0,0
1582736992.451,19.531,23.926,22.949,20.02,0.0,0
1582736992.455,22.461,20.996,23.438,21.973000000000006,0.0,0
1582736992.457,25.879,25.879,26.855,21.484,0.0,0
1582736992.461,32.715,24.414,25.879,21.484,0.0,0
1582736992.465,25.391,14.16,19.043,22.461,0.0,0
1582736992.469,16.602,20.02,21.973000000000006,21.484,0.0,0
1582736992.4729998,17.09,23.926,25.879,15.137,0.0,0
1582736992.4770002,19.531,13.672,26.855,24.414,0.0,0
1582736992.481,22.949,7.812,29.785,35.156,0.0,0
1582736992.484,15.625,23.438,23.438,25.879,0.0,0
1582736992.488,6.836,17.578,27.832,13.672,0.0,0
1582736992.492,6.348,1.953,32.227,5.859,0.0,0
1582736992.496,9.766,10.742,27.832,9.766,0.0,0
1582736992.5,10.742,18.066,30.762,13.672,0.0,0
1582736992.502,19.043,28.809,25.391,15.625,0.0,0
1582736992.506,20.508000000000006,28.809,18.555,22.461,0.0,0
1582736992.51,20.996,27.344,17.09,24.414,0.0,0
1582736992.514,24.902,18.555,16.113,26.367,0.0,0
1582736992.518,28.32,13.184,19.043,30.273000000000003,0.0,0
1582736992.522,27.344,22.461,24.414,33.203,0.0,0
1582736992.526,25.391,23.926,27.832,33.203,0.0,0
1582736992.529,21.973000000000006,16.602,39.062,31.25,0.0,0
1582736992.533,20.996,10.254,36.133,30.273000000000003,0.0,0
1582736992.5370002,28.32,13.184,23.926,29.297,0.0,0
1582736992.541,27.832,17.578,26.367,29.785,0.0,0
1582736992.545,25.391,20.996,26.367,30.762,0.0,0
1582736992.5470002,27.832,26.855,20.508000000000006,32.227,0.0,0
1582736992.551,33.203,15.625,17.578,32.715,0.0,0
1582736992.555,26.367,-1.465,16.113,27.832,0.0,0
1582736992.559,18.555,9.277,15.137,24.414,0.0,0
1582736992.563,20.508000000000006,21.973000000000006,15.625,25.391,0.0,0
1582736992.5670002,20.508000000000006,13.184,6.348,24.414,0.0,0
1582736992.571,20.996,9.277,11.719,20.508000000000006,0.0,0
1582736992.574,26.367,27.832,15.625,23.438,0.0,0
1582736992.5779998,22.949,23.926,16.113,26.367,0.0,0
1582736992.582,19.531,5.371,26.367,21.484,0.0,0
1582736992.586,28.809,15.137,22.461,24.902,0.0,0
1582736992.59,29.785,13.672,11.719,28.809,0.0,0
1582736992.592,22.949,-0.977,11.719,21.484,0.0,0
1582736992.596,25.391,5.859,18.555,20.02,0.0,0
1582736992.6,32.227,18.066,27.344,25.879,0.0,0
1582736992.604,32.715,28.32,23.438,22.949,0.0,0
1582736992.6079998,26.367,33.203,20.508000000000006,16.113,0.0,0
1582736992.6120002,20.996,28.809,22.949,19.531,0.0,0
1582736992.6160002,23.438,26.855,19.043,21.484,0.0,0
1582736992.619,26.855,10.254,17.578,20.508000000000006,0.0,0
1582736992.623,26.855,3.906,12.695,18.555,0.0,0
1582736992.627,16.602,28.809,12.207,18.555,0.0,0
1582736992.631,7.812,28.809,20.996,20.996,0.0,0
1582736992.635,10.742,15.137,25.879,18.555,0.0,0
1582736992.637,8.789,11.23,23.438,8.789,0.0,0
1582736992.641,5.859,15.137,18.066,7.324,0.0,0
1582736992.645,13.184,16.113,11.719,16.113,0.0,0
1582736992.649,10.254,10.254,7.324,14.16,0.0,0
1582736992.653,5.859,13.184,9.277,10.254,0.0,0
1582736992.657,16.113,21.973000000000006,13.672,16.602,0.0,0
1582736992.661,17.578,22.461,20.996,21.973000000000006,0.0,0
1582736992.664,20.02,-1.465,20.508000000000006,20.02,0.0,0
1582736992.668,18.066,-9.766,17.09,20.996,0.0,0
1582736992.6720002,11.719,6.836,14.648,25.391,0.0,0
1582736992.676,10.254,16.602,21.484,28.809,0.0,0
1582736992.68,10.254,13.184,24.902,21.973000000000006,0.0,0
1582736992.6820002,17.578,12.207,21.484,17.578,0.0,0
1582736992.686,17.09,20.996,25.391,25.879,0.0,0
1582736992.69,17.09,35.645,15.137,21.484,0.0,0
1582736992.694,27.344,41.992,9.766,19.043,0.0,0
1582736992.698,28.809,29.785,12.207,21.973000000000006,0.0,0
1582736992.702,17.578,14.16,11.23,17.09,0.0,0
1582736992.706,22.461,12.207,14.648,23.926,0.0,0
1582736992.709,28.32,14.16,25.391,27.344,0.0,0
1582736992.7129998,33.203,10.254,29.785,26.855,0.0,0
1582736992.717,40.527,19.531,26.367,35.156,0.0,0
1582736992.721,32.715,26.855,22.949,32.227,0.0,0
1582736992.725,22.461,21.973000000000006,31.25,24.902,0.0,0
1582736992.742,18.066,6.836,26.367,20.508000000000006,0.0,0
1582736992.746,28.32,-3.418,19.043,30.762,0.0,0
1582736992.75,27.344,7.812,26.367,31.738000000000003,0.0,2
1582736992.754,18.066,13.672,17.578,11.23,0.0,0
1582736992.758,16.113,19.043,12.695,3.418,0.0,0
1582736992.762,14.648,21.973000000000006,21.484,8.789,0.0,0
1582736992.766,9.277,20.508000000000006,24.902,9.766,0.0,0
1582736992.769,0.488,29.297,13.672,9.277,0.0,0
1582736992.7729998,7.812,31.25,13.672,18.066,0.0,0
1582736992.7770002,21.973000000000006,22.461,17.09,19.043,0.0,0
1582736992.781,24.414,19.531,15.137,21.973000000000006,0.0,0
1582736992.785,22.949,16.602,17.09,30.762,0.0,0
1582736992.7870002,22.461,14.648,13.184,23.438,0.0,0
1582736992.791,23.438,19.043,5.371,21.484,0.0,0
1582736992.795,26.367,23.926,8.789,20.508000000000006,0.0,0
1582736992.799,15.625,14.648,17.578,13.672,0.0,0
1582736992.803,13.184,9.277,17.09,16.113,0.0,0
1582736992.8070002,13.672,10.254,15.137,12.207,0.0,0
1582736992.811,8.789,-2.441,16.113,12.207,0.0,0
1582736992.814,10.254,5.859,17.578,11.719,0.0,0
1582736992.8179998,8.789,23.438,20.996,4.883,0.0,0
1582736992.822,11.719,27.832,23.438,7.324,0.0,0
1582736992.826,7.324,21.484,20.996,9.766,0.0,0
1582736992.83,10.254,11.23,19.043,10.742,0.0,0
1582736992.832,4.883,20.508000000000006,14.648,9.766,0.0,0
1582736992.836,9.277,17.578,22.949,14.648,0.0,0
1582736992.84,20.996,1.465,28.809,20.508000000000006,0.0,0
1582736992.844,13.672,11.719,16.602,13.672,0.0,0
1582736992.8479998,12.695,27.344,3.906,10.742,0.0,0
1582736992.8520002,18.066,26.367,5.371,18.066,0.0,0
1582736992.856,21.484,21.484,23.926,13.184,0.0,0
1582736992.859,23.438,20.02,19.043,10.742,0.0,0
1582736992.863,15.625,28.809,20.508000000000006,10.742,0.0,0
1582736992.867,10.742,25.879,23.926,9.766,0.0,0
1582736992.871,15.625,21.484,22.949,12.695,0.0,0
1582736992.875,14.648,21.484,15.625,12.695,0.0,0
1582736992.877,16.602,4.883,10.254,20.508000000000006,0.0,0
1582736992.881,24.902,-1.953,17.09,30.273000000000003,0.0,0
1582736992.885,31.738000000000003,18.066,28.32,31.738000000000003,0.0,0
1582736992.889,22.461,20.996,35.645,19.043,0.0,0
1582736992.893,16.602,18.555,30.273000000000003,18.066,0.0,0
1582736992.897,22.461,32.715,21.484,26.367,0.0,0
1582736992.901,20.508000000000006,35.645,23.438,27.832,0.0,0
1582736992.904,25.391,30.762,24.414,21.973000000000006,0.0,0
1582736992.908,28.32,24.414,22.949,23.926,0.0,0
1582736992.9120002,24.414,8.789,27.344,27.344,0.0,0
1582736992.916,25.879,14.648,31.25,30.273000000000003,0.0,0
1582736992.92,25.879,25.391,17.578,27.344,0.0,0
1582736992.9220002,32.227,25.391,10.742,29.297,0.0,0
1582736992.926,25.879,23.438,15.137,30.273000000000003,0.0,0
1582736992.93,22.461,12.695,16.113,27.344,0.0,0
1582736992.934,30.762,21.484,12.695,33.203,0.0,0
1582736992.938,32.715,27.344,15.625,31.738000000000003,0.0,0
1582736992.9420002,25.879,18.066,32.227,21.973000000000006,0.0,0
1582736992.946,25.391,12.695,30.273000000000003,20.996,0.0,0
1582736992.949,27.832,20.996,18.555,25.391,0.0,0
1582736992.9529998,32.227,7.324,16.113,29.785,0.0,0
1582736992.957,35.156,0.488,4.883,27.832,0.0,0
1582736992.961,28.809,26.855,15.625,21.973000000000006,0.0,0
1582736992.965,22.949,39.062,34.18,21.973000000000006,0.0,0
1582736992.967,19.531,35.645,29.297,16.113,0.0,0
1582736992.971,20.996,30.273000000000003,22.461,11.719,0.0,0
1582736992.975,25.391,31.25,14.648,20.508000000000006,0.0,0
1582736992.979,28.809,39.062,14.648,27.344,0.0,0
1582736992.9829998,31.25,28.809,23.438,24.414,0.0,0
1582736992.9870002,25.391,11.719,28.32,23.926,0.0,0
1582736992.9910002,18.555,23.438,32.227,26.367,0.0,0
1582736992.994,17.578,28.32,34.18,24.414,0.0,0
1582736992.998,15.625,12.207,15.625,20.508000000000006,0.0,0
1582736993.002,20.508000000000006,14.16,4.395,16.113,0.0,0
1582736993.006,29.785,34.18,11.719,18.066,0.0,0
1582736993.01,29.297,35.156,13.672,21.484,0.0,0
1582736993.012,18.066,28.809,25.391,17.578,0.0,0
1582736993.016,2.441,23.438,30.762,8.301,0.0,0
1582736993.02,10.254,15.625,21.484,13.672,0.0,0
1582736993.024,18.066,14.648,25.879,25.879,0.0,0
1582736993.028,11.23,-7.812,32.227,23.438,0.0,0
1582736993.032,19.043,-13.672,30.762,25.879,0.0,0
1582736993.036,11.719,6.348,26.855,25.879,0.0,0
1582736993.039,4.883,16.113,13.184,20.996,0.0,0
1582736993.043,15.625,40.039,11.23,21.484,0.0,0
1582736993.0470002,17.09,41.992,20.02,25.391,0.0,0
1582736993.051,16.113,30.762,26.367,28.809,0.0,0
1582736993.055,19.043,31.25,25.391,28.32,0.0,0
1582736993.0570002,15.137,28.32,29.785,27.832,0.0,0
1582736993.061,12.207,14.648,39.062,19.531,0.0,0
1582736993.065,24.414,7.324,29.785,19.043,0.0,0
1582736993.069,18.555,8.301,22.461,20.02,0.0,0
1582736993.073,9.766,16.113,18.555,14.648,0.0,0
1582736993.077,14.648,24.414,20.508000000000006,17.578,0.0,0
1582736993.081,16.113,22.949,23.926,19.531,0.0,0
1582736993.084,15.137,24.414,17.09,15.137,0.0,0
1582736993.0879998,17.09,25.391,17.09,15.137,0.0,0
1582736993.092,22.949,14.16,20.996,23.926,0.0,0
1582736993.096,17.578,5.859,19.531,19.043,0.0,0
1582736993.1,10.254,15.625,6.348,12.695,0.0,0
1582736993.117,13.184,20.508000000000006,6.348,19.043,0.0,0
1582736993.121,19.043,14.16,15.625,20.996,0.0,0
1582736993.125,20.02,13.672,10.742,19.531,0.0,0
1582736993.129,18.555,21.484,9.277,22.949,0.0,0
1582736993.133,25.879,21.484,4.883,24.902,0.0,0
1582736993.137,36.621,20.508000000000006,6.348,26.367,0.0,0
1582736993.141,41.504,29.785,16.602,28.32,0.0,0
1582736993.144,39.551,28.32,27.344,29.297,0.0,0
1582736993.1479998,37.109,23.926,33.691,33.691,0.0,0
1582736993.1520002,41.01600000000001,17.09,37.598,39.062,0.0,0
1582736993.156,48.828,12.695,39.551,41.01600000000001,0.0,0
1582736993.16,42.969,23.438,28.809,38.086,0.0,0
1582736993.1620002,40.039,25.391,24.902,40.527,0.0,0
1582736993.166,40.527,21.484,22.949,44.922,0.0,0
1582736993.17,37.109,25.879,18.555,40.527,0.0,0
1582736993.174,41.992,14.648,20.508000000000006,32.227,0.0,0
1582736993.178,33.203,11.719,26.855,26.855,0.0,0
1582736993.1820002,26.855,27.344,27.832,24.902,0.0,0
1582736993.186,36.133,26.855,33.203,32.715,0.0,0
1582736993.189,32.715,19.531,33.691,32.715,0.0,0
1582736993.1929998,29.785,15.625,20.996,29.297,0.0,0
1582736993.197,25.879,8.301,20.996,26.855,0.0,0
1582736993.201,22.461,4.395,22.461,36.133,0.0,0
1582736993.205,29.785,5.371,21.973000000000006,40.527,0.0,0
1582736993.207,31.738000000000003,14.648,19.043,27.832,0.0,0
1582736993.211,27.344,28.32,19.531,26.367,0.0,0
1582736993.215,23.926,31.738000000000003,20.02,28.809,0.0,0
1582736993.219,25.879,25.391,18.555,32.715,0.0,0
1582736993.2229998,31.738000000000003,27.344,21.973000000000006,31.25,0.0,0
1582736993.2270002,29.785,26.367,29.785,31.738000000000003,0.0,0
1582736993.231,26.367,17.578,30.273000000000003,29.785,0.0,0
1582736993.234,20.996,19.043,19.043,20.996,0.0,0
1582736993.238,23.926,21.973000000000006,21.484,16.602,0.0,0
1582736993.242,28.32,24.414,24.414,16.113,0.0,0
1582736993.246,19.531,20.02,19.043,19.531,0.0,0
1582736993.25,11.719,16.113,19.043,19.531,0.0,0
1582736993.252,22.461,14.648,24.414,15.137,0.0,0
1582736993.256,22.949,7.324,26.855,17.09,0.0,0
1582736993.26,16.602,8.301,20.02,21.484,0.0,0
1582736993.264,19.043,20.508000000000006,12.695,19.531,0.0,0
1582736993.268,22.949,35.645,7.812,24.902,0.0,0
1582736993.272,17.578,29.297,18.066,21.484,0.0,0
1582736993.276,13.672,15.625,27.344,21.484,0.0,0
1582736993.279,22.461,22.949,27.832,31.25,0.0,0
1582736993.283,22.949,24.414,25.391,24.902,0.0,0
1582736993.2870002,23.926,23.926,18.555,22.461,0.0,0
1582736993.291,21.484,24.902,20.996,20.02,0.0,0
1582736993.295,19.531,25.879,22.461,20.996,0.0,0
1582736993.2970002,31.25,24.414,17.578,29.297,0.0,0
1582736993.301,36.621,20.508000000000006,18.555,30.762,0.0,0
1582736993.305,25.879,22.461,25.391,32.227,0.0,0
1582736993.309,23.926,25.391,25.391,31.738000000000003,0.0,0
1582736993.313,27.344,26.855,28.809,31.738000000000003,0.0,0
1582736993.3170002,32.227,24.902,28.809,36.621,0.0,0
1582736993.321,40.527,19.043,26.855,40.039,0.0,0
1582736993.324,33.203,20.996,30.273000000000003,36.133,0.0,0
1582736993.3279998,23.438,23.926,20.508000000000006,30.273000000000003,0.0,0
1582736993.332,24.414,17.578,14.16,28.809,0.0,0
1582736993.336,26.855,20.996,25.391,27.832,0.0,0
1582736993.34,23.438,30.762,20.02,23.926,0.0,0
1582736993.342,22.949,33.691,15.137,25.391,0.0,0
1582736993.346,22.949,24.414,23.438,25.391,0.0,0
1582736993.35,24.414,19.043,27.344,29.785,0.0,0
1582736993.354,24.414,12.207,30.762,31.738000000000003,0.0,0
1582736993.3579998,24.902,5.859,22.461,19.531,0.0,0
1582736993.3620002,38.086,12.695,15.625,22.461,0.0,0
1582736993.3660002,33.203,17.09,30.762,31.25,0.0,0
1582736993.369,20.508000000000006,19.043,29.297,28.809,0.0,0
1582736993.373,21.973000000000006,18.066,18.555,27.344,0.0,0
1582736993.377,21.484,18.555,19.531,26.367,0.0,0
1582736993.381,21.973000000000006,24.414,17.578,26.855,0.0,0
1582736993.385,19.043,35.156,14.648,20.996,0.0,0
1582736993.387,9.766,42.969,23.438,16.113,0.0,0
1582736993.391,3.906,40.527,30.273000000000003,17.578,0.0,0
1582736993.395,10.742,41.992,25.391,17.578,0.0,0
1582736993.399,16.602,32.715,24.414,17.09,0.0,0
1582736993.403,11.719,21.484,24.902,17.09,0.0,0
1582736993.407,2.441,20.508000000000006,22.461,20.508000000000006,0.0,0
1582736993.411,7.812,19.043,20.508000000000006,22.949,0.0,0
1582736993.414,18.066,10.254,18.066,15.625,0.0,0
1582736993.418,20.996,7.324,19.043,19.531,0.0,0
1582736993.4220002,20.02,19.531,13.184,26.367,0.0,0
1582736993.426,13.672,15.625,16.113,21.973000000000006,0.0,0
1582736993.43,12.207,15.137,20.996,13.184,0.0,0
1582736993.4320002,5.371,33.691,11.23,5.859,0.0,0
1582736993.436,1.953,36.621,18.066,8.301,0.0,0
1582736993.44,3.906,30.273000000000003,24.414,9.766,0.0,0
1582736993.444,7.812,20.508000000000006,22.949,8.301,0.0,0
1582736993.448,11.719,4.395,16.113,9.277,0.0,0
1582736993.452,19.531,10.742,11.719,12.695,0.0,0
1582736993.456,29.785,17.09,10.742,22.949,0.0,0
1582736993.459,21.484,21.484,6.348,20.996,0.0,0
1582736993.4629998,7.812,33.203,21.484,8.301,0.0,0
1582736993.467,-1.953,20.996,29.297,5.859,0.0,0
1582736993.471,-2.93,16.113,14.16,0.977,0.0,0
1582736993.475,12.207,20.508000000000006,12.695,5.859,0.0,0
1582736993.492,9.766,12.207,10.254,8.301,0.0,0
1582736993.496,2.441,10.254,4.395,6.348,0.0,0
1582736993.5,9.766,19.043,14.16,7.324,0.0,0
1582736993.504,13.672,34.18,19.531,13.184,0.0,0
1582736993.508,14.16,37.598,19.043,18.066,0.0,0
1582736993.512,16.113,23.438,16.113,16.602,0.0,0
1582736993.516,21.484,6.836,10.742,20.02,0.0,0
1582736993.519,19.043,6.836,11.23,20.508000000000006,0.0,0
1582736993.5229998,24.902,10.742,28.809,20.02,0.0,0
1582736993.5270002,22.949,13.184,35.645,18.555,0.0,0
1582736993.531,10.254,15.137,22.949,11.719,0.0,0
1582736993.535,13.672,12.695,24.902,17.09,0.0,0
1582736993.5370002,19.531,25.391,26.855,25.879,0.0,0
1582736993.541,20.996,34.18,23.926,26.855,0.0,0
1582736993.545,20.996,18.555,22.949,23.926,0.0,0
1582736993.549,22.461,10.742,24.414,21.484,0.0,0
1582736993.553,20.996,13.672,13.672,19.531,0.0,0
1582736993.5570002,20.508000000000006,18.555,9.277,21.484,0.0,0
1582736993.561,16.602,18.066,18.555,17.578,0.0,0
1582736993.564,15.625,17.09,27.832,15.137,0.0,0
1582736993.5679998,20.508000000000006,22.949,31.25,19.531,0.0,0
1582736993.572,25.879,14.648,30.762,22.949,0.0,0
1582736993.576,29.785,12.207,33.203,24.414,0.0,0
1582736993.58,27.832,28.809,25.391,22.949,0.0,0
1582736993.582,20.996,20.996,11.719,20.02,0.0,0
1582736993.586,20.996,9.277,7.812,15.137,0.0,0
1582736993.59,20.02,14.648,14.648,11.23,0.0,0
1582736993.594,12.695,12.695,19.043,12.695,0.0,0
1582736993.5979998,15.137,20.996,23.438,18.555,0.0,0
1582736993.6020002,26.367,21.484,26.367,27.344,0.0,0
1582736993.606,24.902,11.719,24.414,27.344,0.0,0
1582736993.609,18.066,8.789,22.949,21.973000000000006,0.0,0
1582736993.613,20.02,16.602,27.832,30.273000000000003,0.0,0
1582736993.617,14.648,15.625,27.344,28.809,0.0,0
1582736993.621,20.02,18.555,15.137,20.02,0.0,0
1582736993.625,26.367,25.879,12.695,19.531,0.0,0
1582736993.627,12.207,19.043,17.09,17.578,0.0,0
1582736993.631,8.301,7.812,13.672,16.602,0.0,0
1582736993.635,13.672,2.93,14.16,18.555,0.0,0
1582736993.639,11.719,12.207,21.973000000000006,14.648,0.0,0
1582736993.643,8.301,18.555,20.02,11.23,0.0,0
1582736993.647,9.277,14.648,18.066,14.648,0.0,0
1582736993.651,14.648,29.785,27.344,22.949,0.0,0
1582736993.654,17.09,32.715,23.926,21.484,0.0,0
1582736993.658,8.789,14.648,16.602,16.602,0.0,0
1582736993.6620002,10.254,17.578,22.949,21.484,0.0,0
1582736993.666,15.137,21.973000000000006,29.297,24.902,0.0,0
1582736993.67,23.438,18.555,26.855,29.785,0.0,0
1582736993.6720002,25.391,10.742,23.926,35.645,0.0,0
1582736993.676,33.691,17.09,26.367,28.809,0.0,0
1582736993.68,36.621,29.297,29.297,25.879,0.0,0
1582736993.684,27.832,20.508000000000006,20.996,30.273000000000003,0.0,0
1582736993.688,36.133,11.23,20.02,39.062,0.0,0
1582736993.6920002,32.227,17.578,36.133,35.645,0.0,0
1582736993.696,22.949,26.855,28.32,26.367,0.0,0
1582736993.699,22.461,27.344,19.531,24.902,0.0,0
1582736993.7029998,14.648,19.531,20.508000000000006,16.602,0.0,0
1582736993.707,5.859,14.16,18.555,10.742,0.0,0
1582736993.711,5.859,17.578,13.184,11.719,0.0,0
1582736993.715,7.324,15.137,10.742,11.23,0.0,0
1582736993.717,15.137,11.23,16.602,15.625,0.0,0
1582736993.721,19.531,24.414,20.996,26.367,0.0,0
1582736993.725,19.043,15.137,14.648,22.461,0.0,0
1582736993.729,27.832,1.953,13.672,16.113,0.0,0
1582736993.7329998,31.25,8.301,28.809,28.809,0.0,0
1582736993.7370002,31.738000000000003,19.531,27.832,38.574,0.0,0
1582736993.7410002,27.344,29.785,13.184,29.785,0.0,0
1582736993.744,22.949,30.762,24.414,30.762,0.0,0
1582736993.748,26.855,25.391,24.902,29.785,0.0,0
1582736993.752,32.227,21.484,17.09,28.32,0.0,0
1582736993.756,31.738000000000003,23.438,23.438,32.715,0.0,0
1582736993.76,25.391,14.16,21.484,31.25,0.0,0
1582736993.762,23.926,14.16,22.949,33.203,0.0,0
1582736993.766,18.555,18.555,27.832,29.297,0.0,0
1582736993.77,16.113,13.672,27.344,27.832,0.0,0
1582736993.774,18.555,13.672,36.133,28.32,0.0,0
1582736993.778,12.207,24.414,31.738000000000003,26.855,0.0,0
1582736993.782,10.254,41.01600000000001,22.949,32.227,0.0,0
1582736993.786,17.578,36.621,25.879,24.414,0.0,0
1582736993.789,15.137,20.508000000000006,26.855,15.625,0.0,0
1582736993.793,14.648,24.414,20.02,16.113,0.0,0
1582736993.7970002,22.949,33.203,22.949,22.949,0.0,0
1582736993.801,30.762,25.879,24.902,24.902,0.0,0
1582736993.805,29.297,24.414,20.02,19.531,0.0,0
1582736993.8070002,24.414,25.391,17.09,20.02,0.0,0
1582736993.811,24.902,9.766,14.16,17.578,0.0,1
1582736993.815,30.273000000000003,13.184,14.648,20.508000000000006,0.0,0
1582736993.819,29.785,28.809,19.531,21.484,0.0,0
1582736993.823,20.508000000000006,23.438,20.996,17.09,0.0,0
1582736993.827,22.949,18.555,17.578,16.602,0.0,0
1582736993.831,25.879,22.949,21.973000000000006,15.625,0.0,0
1582736993.834,15.137,23.926,26.855,16.602,0.0,0
1582736993.8379998,12.695,26.367,25.879,23.438,0.0,0
1582736993.842,17.578,13.672,24.902,29.785,0.0,0
1582736993.846,16.602,9.277,25.879,29.297,0.0,0
1582736993.85,10.254,24.414,21.484,25.391,0.0,0
1582736993.867,13.672,30.762,22.949,20.508000000000006,0.0,0
1582736993.871,19.043,37.598,29.297,24.414,0.0,0
1582736993.875,18.066,39.062,20.508000000000006,23.438,0.0,0
1582736993.879,24.414,34.18,19.043,21.973000000000006,0.0,0
1582736993.883,25.879,36.133,25.391,28.809,0.0,0
1582736993.887,20.996,35.645,26.367,27.832,0.0,0
1582736993.891,33.203,36.621,27.344,29.785,0.0,0
1582736993.894,32.715,30.273000000000003,20.996,33.691,0.0,0
1582736993.8979998,20.508000000000006,20.996,18.066,33.203,0.0,0
1582736993.9020002,30.762,14.648,26.855,37.109,0.0,0
1582736993.906,30.762,9.766,25.391,32.227,0.0,0
1582736993.91,23.926,9.766,15.137,20.02,0.0,0
1582736993.9120002,24.902,23.926,12.207,20.02,0.0,0
1582736993.916,22.949,31.738000000000003,27.832,23.438,0.0,0
1582736993.92,24.414,24.414,37.109,26.367,0.0,0
1582736993.924,24.902,19.531,23.926,25.879,0.0,0
1582736993.928,22.949,26.367,15.137,22.949,0.0,0
1582736993.9320002,26.855,28.809,18.555,20.996,0.0,0
1582736993.936,28.809,18.066,19.043,21.484,0.0,0
1582736993.939,23.438,16.602,15.625,19.531,0.0,0
1582736993.9429998,19.043,20.996,20.02,20.508000000000006,0.0,0
1582736993.947,18.555,22.949,23.926,20.02,0.0,0
1582736993.951,22.461,21.484,19.043,20.508000000000006,0.0,0
1582736993.955,28.32,11.23,21.973000000000006,18.066,0.0,0
1582736993.957,28.32,15.625,25.879,20.996,0.0,0
1582736993.961,24.414,25.391,17.578,21.484,0.0,0
1582736993.965,21.973000000000006,14.16,17.09,16.113,0.0,0
1582736993.969,23.438,7.324,12.695,19.531,0.0,0
1582736993.9729998,30.762,18.555,17.578,26.367,0.0,0
1582736993.9770002,34.668,28.32,18.066,31.738000000000003,0.0,0
1582736993.981,22.461,28.32,15.625,30.273000000000003,0.0,0
1582736993.984,17.09,24.902,23.438,30.762,0.0,0
1582736993.988,30.273000000000003,22.461,35.156,36.621,0.0,0
1582736993.992,22.461,13.184,40.039,34.18,0.0,0
1582736993.996,16.113,7.812,24.902,29.297,0.0,0
1582736994.0,25.879,20.02,17.578,33.691,0.0,0
1582736994.002,29.785,28.809,18.555,38.574,0.0,0
1582736994.006,27.344,26.367,25.879,35.645,0.0,0
1582736994.01,31.25,22.949,30.762,38.086,0.0,0
1582736994.014,40.527,18.555,25.879,41.01600000000001,0.0,0
1582736994.018,39.551,10.742,21.484,42.969,0.0,0
1582736994.022,40.039,13.672,19.531,47.852,0.0,0
1582736994.026,40.527,26.367,15.625,43.945,0.0,0
1582736994.029,36.621,25.879,16.113,37.109,0.0,0
1582736994.033,39.062,30.273000000000003,18.066,38.086,0.0,0
1582736994.0370002,36.621,32.227,24.902,37.598,0.0,0
1582736994.041,28.32,20.996,30.762,31.25,0.0,0
1582736994.045,20.508000000000006,10.742,18.555,30.273000000000003,0.0,0
1582736994.0470002,19.531,12.695,8.301,27.344,0.0,0
1582736994.051,17.09,22.461,10.742,27.344,0.0,0
1582736994.055,17.578,16.113,20.508000000000006,32.715,0.0,0
1582736994.059,17.578,8.301,18.555,33.691,0.0,0
1582736994.063,13.184,23.926,22.949,37.109,0.0,0
1582736994.0670002,20.02,28.32,28.32,40.039,0.0,0
1582736994.071,21.973000000000006,12.207,16.113,35.156,0.0,0
1582736994.074,14.16,13.184,9.766,27.344,0.0,0
1582736994.0779998,11.719,26.855,17.578,23.438,0.0,0
1582736994.082,21.484,36.133,24.902,20.02,0.0,0
1582736994.086,27.832,41.01600000000001,30.273000000000003,22.949,0.0,0
1582736994.09,25.391,38.086,30.762,31.738000000000003,0.0,0
1582736994.092,26.367,21.484,32.227,32.227,0.0,0
1582736994.096,19.043,19.043,31.25,23.926,0.0,0
1582736994.1,23.438,28.809,15.625,18.066,0.0,0
1582736994.104,26.367,25.879,5.859,20.02,0.0,0
1582736994.1079998,21.484,24.902,8.301,22.949,0.0,0
1582736994.1120002,22.949,22.461,11.23,19.043,0.0,0
1582736994.1160002,14.16,22.949,12.695,12.207,0.0,0
1582736994.119,8.301,23.926,19.531,9.766,0.0,0
1582736994.123,1.953,20.02,19.043,4.395,0.0,0
1582736994.127,6.836,21.484,12.695,9.766,0.0,0
1582736994.131,9.277,21.973000000000006,15.625,19.043,0.0,0
1582736994.135,6.836,21.973000000000006,17.09,18.555,0.0,0
1582736994.137,7.324,13.184,12.207,13.184,0.0,0
1582736994.141,11.23,8.301,21.484,15.137,0.0,0
1582736994.145,12.695,20.02,23.438,14.648,0.0,0
1582736994.149,11.719,22.461,9.277,10.254,0.0,0
1582736994.153,13.672,17.09,4.883,6.348,0.0,0
1582736994.157,16.602,21.973000000000006,12.207,6.836,0.0,0
1582736994.161,14.648,31.738000000000003,19.043,7.324,0.0,0
1582736994.164,14.16,24.902,18.066,9.766,0.0,0
1582736994.168,20.508000000000006,17.09,20.508000000000006,18.066,0.0,0
1582736994.1720002,17.578,26.367,11.23,20.02,0.0,0
1582736994.176,19.043,29.785,9.766,20.996,0.0,0
1582736994.18,23.926,27.832,15.625,28.32,0.0,0
1582736994.1820002,22.949,25.879,14.16,28.32,0.0,0
1582736994.186,22.461,20.02,18.066,19.043,0.0,0
1582736994.19,20.02,15.625,21.484,20.508000000000006,0.0,0
1582736994.194,17.09,20.508000000000006,21.973000000000006,28.32,0.0,0
1582736994.198,24.414,11.719,19.043,27.832,0.0,0
1582736994.202,22.949,4.395,20.02,23.926,0.0,0
1582736994.206,21.484,16.113,25.391,23.438,0.0,0
1582736994.209,18.066,21.484,21.484,18.555,0.0,0
1582736994.2129998,9.766,20.508000000000006,18.555,17.09,0.0,0
1582736994.217,13.672,18.066,23.438,18.066,0.0,0
1582736994.221,10.742,14.648,21.484,19.043,0.0,0
1582736994.225,12.695,20.996,18.066,21.973000000000006,0.0,0
1582736994.242,21.484,21.484,24.902,28.32,0.0,0
1582736994.246,22.461,16.602,23.438,30.273000000000003,0.0,0
1582736994.25,22.461,11.23,24.902,27.344,0.0,0
1582736994.254,20.508000000000006,14.16,29.785,29.785,0.0,0
1582736994.258,22.461,22.461,28.32,28.809,0.0,0
1582736994.262,31.25,32.715,25.391,29.297,0.0,0
1582736994.266,26.367,32.715,28.32,32.227,0.0,0
1582736994.269,15.625,30.273000000000003,20.02,27.832,0.0,0
1582736994.2729998,21.973000000000006,27.832,5.371,21.973000000000006,0.0,0
1582736994.2770002,29.785,24.902,14.16,23.438,0.0,0
1582736994.281,30.762,24.414,22.949,25.879,0.0,0
1582736994.285,27.832,32.227,20.508000000000006,22.461,0.0,0
1582736994.2870002,22.461,38.086,20.508000000000006,22.461,0.0,0
1582736994.291,25.391,28.809,24.414,24.902,0.0,0
1582736994.295,22.949,25.879,23.926,24.414,0.0,0
1582736994.299,17.578,28.809,18.555,22.461,0.0,0
1582736994.303,20.508000000000006,23.926,18.555,21.484,0.0,0
1582736994.3070002,20.996,25.391,18.555,26.855,0.0,0
1582736994.311,18.555,26.855,19.531,25.391,0.0,0
1582736994.314,19.531,18.066,20.02,19.531,0.0,0
1582736994.3179998,18.555,13.672,12.207,20.02,0.0,0
1582736994.322,18.066,16.602,12.207,20.02,0.0,0
1582736994.326,21.973000000000006,12.207,15.137,17.578,0.0,0
1582736994.33,15.625,10.254,11.23,16.602,0.0,0
1582736994.332,13.184,13.184,13.672,22.461,0.0,0
1582736994.336,25.391,14.16,22.461,20.996,0.0,0
1582736994.34,25.391,11.23,20.996,12.207,0.0,0
1582736994.344,20.996,13.184,19.043,10.742,0.0,0
1582736994.3479998,24.414,21.484,13.672,16.602,0.0,0
1582736994.3520002,21.484,20.508000000000006,9.277,18.555,0.0,0
1582736994.356,17.09,14.648,13.672,13.672,0.0,0
1582736994.359,21.973000000000006,14.16,17.09,13.672,0.0,0
1582736994.363,23.438,12.207,21.484,12.695,0.0,0
1582736994.367,16.113,13.672,21.973000000000006,12.207,0.0,0
1582736994.371,22.949,19.531,15.137,15.625,0.0,0
1582736994.375,23.438,17.09,15.625,13.672,0.0,0
1582736994.377,17.578,12.207,17.09,5.859,0.0,0
1582736994.381,12.695,7.812,6.836,1.465,0.0,0
1582736994.385,10.254,6.836,5.859,6.836,0.0,0
1582736994.389,14.648,15.137,6.348,12.207,0.0,0
1582736994.393,9.277,19.531,7.324,5.859,0.0,0
1582736994.397,6.348,17.09,18.555,4.395,0.0,0
1582736994.401,12.207,18.555,21.484,8.789,0.0,0
1582736994.404,15.625,18.066,19.043,14.16,0.0,0
1582736994.408,13.672,14.648,22.949,12.207,0.0,0
1582736994.4120002,16.113,18.066,23.926,10.254,0.0,0
1582736994.416,22.949,8.301,20.996,14.648,0.0,0
1582736994.42,26.367,5.371,17.09,23.438,0.0,0
1582736994.4220002,27.832,12.207,12.695,27.344,0.0,0
1582736994.426,21.973000000000006,2.93,15.625,19.531,0.0,0
1582736994.43,14.16,5.371,28.32,15.137,0.0,0
1582736994.434,18.555,16.602,26.855,17.578,0.0,0
1582736994.438,22.461,26.367,17.578,16.113,0.0,0
1582736994.4420002,16.113,24.902,20.996,19.531,0.0,0
1582736994.446,22.949,27.344,18.555,21.973000000000006,0.0,0
1582736994.449,29.785,33.203,7.324,21.973000000000006,0.0,0
1582736994.4529998,23.926,29.785,10.742,24.414,0.0,0
1582736994.457,18.555,23.438,21.484,20.508000000000006,0.0,0
1582736994.461,20.02,19.531,25.391,19.531,0.0,0
1582736994.465,24.902,21.484,30.273000000000003,17.09,0.0,0
1582736994.467,24.902,21.484,26.855,20.996,0.0,0
1582736994.471,22.949,8.789,27.832,26.367,0.0,0
1582736994.475,17.09,0.488,29.785,19.043,0.0,0
1582736994.479,26.367,17.09,28.809,22.461,0.0,0
1582736994.4829998,35.156,31.738000000000003,31.738000000000003,21.484,0.0,0
1582736994.4870002,22.461,34.18,25.879,11.23,0.0,0
1582736994.4910002,15.625,27.344,13.672,10.742,0.0,0
1582736994.494,15.137,20.996,11.23,10.254,0.0,0
1582736994.498,12.695,23.438,15.137,8.301,0.0,0
1582736994.502,14.648,22.461,21.484,15.625,0.0,0
1582736994.506,7.324,17.09,24.414,14.648,0.0,0
1582736994.51,3.418,4.883,19.531,14.16,0.0,0
1582736994.512,18.066,11.23,21.484,21.973000000000006,0.0,0
1582736994.516,23.438,15.137,24.902,22.949,0.0,0
1582736994.52,20.508000000000006,-2.441,23.926,24.414,0.0,0
1582736994.524,19.531,7.812,20.508000000000006,24.902,0.0,0
1582736994.528,18.066,31.25,16.602,23.438,0.0,0
1582736994.532,21.973000000000006,37.598,21.973000000000006,23.438,0.0,0
1582736994.536,19.531,27.832,26.367,22.949,0.0,0
1582736994.539,13.672,20.02,14.16,18.555,0.0,0
1582736994.543,18.066,17.09,21.973000000000006,21.973000000000006,0.0,0
1582736994.5470002,23.438,0.488,36.133,26.855,0.0,0
1582736994.551,18.555,6.348,25.391,24.414,0.0,0
1582736994.555,9.766,20.508000000000006,22.949,14.16,0.0,0
1582736994.5570002,12.207,19.531,15.625,18.555,0.0,0
1582736994.561,23.438,18.066,4.395,23.926,0.0,0
1582736994.565,28.32,20.508000000000006,13.672,21.973000000000006,0.0,0
1582736994.569,19.043,15.625,24.902,19.531,0.0,0
1582736994.573,17.578,7.812,23.438,17.578,0.0,0
1582736994.577,21.484,19.043,19.043,20.02,0.0,0
1582736994.581,20.02,22.949,21.484,12.207,0.0,0
1582736994.584,20.02,14.648,22.949,10.742,0.0,0
1582736994.5879998,18.066,16.602,24.414,16.602,0.0,0
1582736994.592,19.531,12.207,17.578,17.09,0.0,0
1582736994.596,21.973000000000006,11.719,17.09,19.043,0.0,0
1582736994.6,13.672,19.531,21.484,17.09,0.0,0
1582736994.617,13.672,12.695,18.555,16.602,0.0,0
1582736994.621,20.02,10.742,20.996,23.438,0.0,0
1582736994.625,21.484,20.996,18.066,26.855,0.0,0
1582736994.629,22.949,24.414,18.555,29.297,0.0,0
1582736994.633,23.438,17.09,15.137,30.762,0.0,0
1582736994.637,30.762,10.254,12.207,39.062,0.0,0
1582736994.641,27.832,9.766,18.555,42.969,0.0,0
1582736994.644,18.066,17.578,23.438,25.879,0.0,0
1582736994.6479998,18.555,24.414,31.738000000000003,20.02,0.0,0
1582736994.6520002,11.719,21.484,26.855,17.578,0.0,0
1582736994.656,15.137,23.438,13.672,13.184,0.0,0
1582736994.66,21.973000000000006,24.902,11.719,17.578,0.0,0
1582736994.6620002,21.973000000000006,8.789,17.578,19.043,0.0,0
1582736994.666,21.973000000000006,-3.418,23.438,19.043,0.0,0
1582736994.67,26.367,6.836,16.113,21.484,0.0,0
1582736994.674,24.902,13.184,1.465,19.531,0.0,0
1582736994.678,16.602,23.926,9.766,16.113,0.0,0
1582736994.6820002,17.09,22.949,22.949,14.648,0.0,0
1582736994.686,14.16,15.625,22.949,19.531,0.0,0
1582736994.689,15.625,28.809,21.973000000000006,19.043,0.0,0
1582736994.6929998,18.555,28.32,28.32,18.555,0.0,0
1582736994.697,15.137,16.602,28.809,20.508000000000006,0.0,0
1582736994.701,15.625,19.043,14.16,17.09,0.0,0
1582736994.705,25.391,21.973000000000006,9.766,21.484,0.0,0
1582736994.707,28.809,18.555,14.16,23.926,0.0,0
1582736994.711,24.902,12.207,14.648,21.484,0.0,0
1582736994.715,22.949,11.23,10.254,21.484,0.0,0
1582736994.719,28.809,17.578,14.648,18.555,0.0,0
1582736994.7229998,21.973000000000006,24.902,20.508000000000006,15.137,0.0,0
1582736994.7270002,11.719,20.508000000000006,20.996,11.23,0.0,0
1582736994.731,12.207,12.695,22.949,10.742,0.0,0
1582736994.734,11.23,18.555,18.066,13.672,0.0,0
1582736994.738,15.625,27.344,13.184,8.789,0.0,0
1582736994.742,18.066,29.785,9.277,5.859,0.0,0
1582736994.746,13.184,28.809,7.812,2.441,0.0,0
1582736994.75,7.812,20.508000000000006,10.254,1.465,0.0,0
1582736994.752,8.789,18.555,10.254,14.648,0.0,0
1582736994.756,8.301,24.414,10.254,16.113,0.0,0
1582736994.76,13.184,13.184,12.695,13.184,0.0,0
1582736994.764,17.09,11.719,16.113,8.301,0.0,0
1582736994.768,18.555,25.391,22.461,8.301,0.0,0
1582736994.772,13.184,25.391,27.832,13.672,0.0,0
1582736994.776,3.418,21.973000000000006,11.23,6.348,0.0,0
1582736994.779,7.324,23.438,-1.953,7.812,0.0,0
1582736994.783,14.648,15.625,2.441,15.137,0.0,0
1582736994.7870002,9.277,3.906,6.348,12.207,0.0,0
1582736994.791,6.836,3.418,10.742,12.207,0.0,0
1582736994.795,15.137,9.766,12.207,17.578,0.0,0
1582736994.7970002,20.508000000000006,15.137,17.578,24.414,0.0,0
1582736994.801,13.672,13.184,20.02,22.949,0.0,0
1582736994.805,14.648,0.0,21.484,19.043,0.0,0
1582736994.809,22.461,-0.977,21.484,23.926,0.0,0
1582736994.813,20.996,12.695,18.066,25.879,0.0,0
1582736994.8170002,17.578,20.02,24.414,27.344,0.0,0
1582736994.821,18.066,21.973000000000006,22.461,24.902,0.0,0
1582736994.824,16.602,22.461,10.742,21.484,0.0,0
1582736994.8279998,13.184,16.113,12.695,15.137,0.0,0
1582736994.832,13.672,18.555,22.461,14.16,0.0,0
1582736994.836,16.602,11.23,25.391,16.113,0.0,0
1582736994.84,23.438,5.371,21.973000000000006,14.648,0.0,0
1582736994.857,20.508000000000006,12.207,17.578,13.672,0.0,0
1582736994.861,20.02,15.137,13.672,16.113,0.0,0
1582736994.865,26.367,20.02,18.066,20.508000000000006,0.0,0
1582736994.869,20.508000000000006,12.695,23.926,16.113,0.0,0
1582736994.873,16.113,15.625,19.043,13.184,0.0,0
1582736994.877,20.02,22.949,15.137,17.578,0.0,0
1582736994.881,26.367,22.949,20.02,21.973000000000006,0.0,0
1582736994.8839998,27.832,29.297,20.996,25.391,0.0,0
1582736994.8879998,31.738000000000003,28.32,17.09,27.832,0.0,0
1582736994.8920002,30.273000000000003,19.531,17.09,22.461,0.0,0
1582736994.896,28.32,23.926,18.555,25.879,0.0,0
1582736994.9,33.203,24.414,21.484,32.227,0.0,0
1582736994.887,34.668,16.602,20.02,24.414,0.0,0
1582736994.891,29.297,8.789,15.137,22.461,0.0,0
1582736994.895,20.508000000000006,1.465,13.184,27.832,0.0,0
1582736994.899,21.973000000000006,22.949,10.254,28.809,0.0,0
1582736994.903,11.719,42.48,10.742,24.902,0.0,0
1582736994.907,2.441,35.645,13.672,20.02,0.0,0
1582736994.911,12.695,21.973000000000006,14.648,18.066,0.0,0
1582736994.914,17.578,15.625,21.484,16.602,0.0,0
1582736994.918,18.555,25.879,25.391,22.949,0.0,0
1582736994.9220002,20.508000000000006,19.043,20.996,27.832,0.0,0
1582736994.926,24.902,5.859,21.973000000000006,29.785,0.0,0
1582736994.93,27.832,28.32,22.461,34.18,0.0,0
1582736994.9320002,27.832,41.992,17.578,38.086,0.0,0
1582736994.936,26.367,38.574,13.672,34.668,0.0,0
1582736994.94,22.949,29.297,13.672,33.203,0.0,0
1582736994.944,24.414,11.23,23.926,30.762,0.0,0
1582736994.948,20.508000000000006,10.742,26.367,27.832,0.0,0
1582736994.952,9.277,9.766,22.461,24.414,0.0,0
1582736994.956,5.371,14.648,22.461,21.484,0.0,0
1582736994.959,13.184,18.555,17.09,25.879,0.0,0
1582736994.9629998,19.043,12.695,20.996,20.996,0.0,0
1582736994.967,15.625,12.695,20.996,13.672,0.0,0
1582736994.971,13.184,9.277,21.973000000000006,19.043,0.0,0
1582736994.975,19.043,22.461,20.508000000000006,22.949,0.0,0
1582736994.992,22.461,26.367,10.254,17.09,0.0,2
1582736994.996,19.043,19.531,13.672,20.02,0.0,0
1582736995.0,15.137,19.043,22.949,21.973000000000006,0.0,0
1582736995.004,15.137,21.484,22.949,20.508000000000006,0.0,0
1582736995.008,23.926,23.438,20.508000000000006,32.227,0.0,0
1582736995.012,26.367,16.602,30.762,35.156,0.0,0
1582736995.016,20.508000000000006,13.672,34.18,29.785,0.0,0
1582736995.019,20.02,9.766,19.043,25.391,0.0,0
1582736995.0229998,21.484,6.348,15.137,21.973000000000006,0.0,0
1582736995.0270002,24.414,13.672,8.301,24.414,0.0,0
1582736995.031,25.391,20.996,12.695,18.555,0.0,0
1582736995.035,20.02,20.508000000000006,22.461,12.695,0.0,0
1582736995.0370002,19.043,12.207,20.996,21.484,0.0,0
1582736995.041,18.555,13.672,13.184,24.414,0.0,0
1582736995.045,16.602,20.02,11.23,18.555,0.0,0
1582736995.049,19.531,19.043,23.926,25.879,0.0,0
1582736995.053,13.184,8.789,30.762,24.902,0.0,0
1582736995.0570002,7.324,7.324,32.227,12.695,0.0,0
1582736995.061,13.672,13.672,25.391,14.648,0.0,0
1582736995.064,7.324,9.277,15.137,18.066,0.0,0
1582736995.0679998,5.859,16.113,20.02,16.113,0.0,0
1582736995.072,15.137,20.996,17.09,17.09,0.0,0
1582736995.076,23.926,11.719,24.414,22.461,0.0,0
1582736995.08,16.113,22.461,29.785,21.484,0.0,0
1582736995.082,15.137,32.715,19.043,24.902,0.0,0
1582736995.086,28.32,22.949,21.484,32.227,0.0,0
1582736995.09,30.273000000000003,9.766,25.391,31.738000000000003,0.0,0
1582736995.094,26.367,16.602,28.32,32.715,0.0,0
1582736995.0979998,27.344,33.691,30.762,37.598,0.0,0
1582736995.1020002,34.668,33.691,30.273000000000003,41.01600000000001,0.0,0
1582736995.106,35.645,34.18,30.762,40.039,0.0,0
1582736995.109,35.645,37.598,34.18,37.109,0.0,0
1582736995.113,33.203,30.762,37.109,31.738000000000003,0.0,0
1582736995.117,28.809,32.227,32.715,31.738000000000003,0.0,0
1582736995.121,28.809,41.01600000000001,25.879,36.621,0.0,0
1582736995.125,29.785,40.039,31.738000000000003,33.691,0.0,0
1582736995.127,26.367,30.273000000000003,24.902,30.273000000000003,0.0,0
1582736995.131,26.367,21.484,21.484,34.668,0.0,0
1582736995.135,27.832,21.973000000000006,35.156,33.203,0.0,0
1582736995.139,22.461,16.113,33.203,28.809,0.0,0
1582736995.143,18.555,16.602,25.391,24.902,0.0,0
1582736995.147,21.973000000000006,23.926,27.832,23.438,0.0,0
1582736995.151,23.926,24.902,21.484,27.344,0.0,0
1582736995.154,25.391,23.438,15.625,30.762,0.0,0
1582736995.158,28.809,19.531,25.879,38.574,0.0,0
1582736995.1620002,34.668,23.926,20.996,34.18,0.0,0
1582736995.166,27.344,25.879,24.414,23.438,0.0,0
1582736995.17,20.996,18.066,21.973000000000006,23.926,0.0,0
1582736995.1720002,27.832,14.16,9.277,29.785,0.0,0
1582736995.176,23.926,22.949,17.09,29.785,0.0,0
1582736995.18,22.461,31.25,21.484,27.344,0.0,0
1582736995.184,26.367,26.855,20.996,22.461,0.0,0
1582736995.188,23.438,21.484,22.461,22.949,0.0,0
1582736995.1920002,21.973000000000006,24.902,20.02,30.273000000000003,0.0,0
1582736995.196,32.715,23.438,18.555,36.133,0.0,0
1582736995.199,33.691,20.02,20.508000000000006,35.156,0.0,0
1582736995.2029998,28.809,26.855,27.344,30.273000000000003,0.0,0
1582736995.207,33.691,35.156,25.879,28.32,0.0,0
1582736995.211,29.785,34.18,22.949,31.25,0.0,0
1582736995.215,20.996,35.645,19.043,33.691,0.0,0
1582736995.217,17.09,33.691,10.742,27.832,0.0,0
1582736995.221,14.648,19.531,20.996,17.09,0.0,0
1582736995.225,10.742,20.02,29.785,16.602,0.0,0
1582736995.229,11.23,23.926,25.879,22.461,0.0,0
1582736995.2329998,19.043,20.02,26.367,22.461,0.0,0
1582736995.2370002,20.02,16.602,31.738000000000003,21.484,0.0,0
1582736995.2410002,17.578,19.043,21.484,22.949,0.0,0
1582736995.244,16.602,19.043,8.789,21.973000000000006,0.0,0
1582736995.248,17.578,21.973000000000006,13.672,20.508000000000006,0.0,0
1582736995.252,21.973000000000006,27.344,16.113,24.414,0.0,0
1582736995.256,16.113,26.367,6.348,17.578,0.0,0
1582736995.26,16.602,22.949,7.324,18.555,0.0,0
1582736995.262,19.043,23.926,12.207,20.996,0.0,0
1582736995.266,16.602,24.414,13.672,13.672,0.0,0
1582736995.27,16.602,13.184,8.301,9.766,0.0,0
1582736995.274,15.625,10.742,5.371,10.742,0.0,0
1582736995.278,8.789,12.695,8.301,15.137,0.0,0
1582736995.282,-0.488,12.695,3.906,10.254,0.0,0
1582736995.286,7.324,19.531,6.836,10.742,0.0,0
1582736995.289,8.789,13.184,8.301,13.184,0.0,0
1582736995.293,1.465,10.254,5.371,12.207,0.0,0
1582736995.2970002,6.348,23.926,12.207,12.695,0.0,0
1582736995.301,9.766,20.02,20.02,9.277,0.0,0
1582736995.305,4.395,14.648,21.973000000000006,10.742,0.0,0
1582736995.3070002,4.883,22.461,17.578,16.602,0.0,0
1582736995.311,13.672,20.02,13.672,8.789,0.0,0
1582736995.315,14.16,12.207,16.113,11.23,0.0,0
1582736995.319,4.395,13.672,13.672,16.113,0.0,0
1582736995.323,5.371,12.695,9.277,12.695,0.0,0
1582736995.327,22.949,8.789,17.09,20.02,0.0,0
1582736995.331,23.926,18.066,22.461,23.438,0.0,0
1582736995.334,19.531,8.789,18.066,26.855,0.0,0
1582736995.3379998,23.438,3.418,22.949,31.738000000000003,0.0,0
1582736995.342,17.578,16.602,20.02,27.832,0.0,0
1582736995.346,14.648,23.926,22.461,27.344,0.0,0
1582736995.35,17.09,20.508000000000006,23.926,24.902,0.0,0
1582736995.367,15.137,-1.465,11.719,19.043,0.0,0
1582736995.371,21.484,1.953,16.602,28.809,0.0,0
1582736995.375,26.367,21.484,26.855,30.273000000000003,0.0,0
1582736995.379,25.391,20.996,22.949,24.902,0.0,0
1582736995.383,21.973000000000006,22.461,17.09,25.391,0.0,0
1582736995.387,23.438,20.508000000000006,18.555,27.344,0.0,0
1582736995.391,31.25,14.16,20.02,29.785,0.0,0
1582736995.394,30.762,8.301,18.555,28.32,0.0,0
1582736995.3979998,30.762,6.348,25.391,33.691,0.0,0
1582736995.4020002,27.344,19.043,15.137,29.785,0.0,0
1582736995.406,20.996,20.508000000000006,12.695,22.949,0.0,0
1582736995.41,23.926,17.578,26.367,28.32,0.0,0
1582736995.4120002,20.996,14.648,21.973000000000006,28.809,0.0,0
1582736995.416,19.531,9.766,23.438,22.949,0.0,0
1582736995.42,18.555,13.672,28.809,18.555,0.0,0
1582736995.424,13.184,11.719,27.832,14.648,0.0,0
1582736995.428,13.672,3.418,25.391,16.113,0.0,0
1582736995.4320002,11.719,1.465,16.602,17.578,0.0,0
1582736995.436,12.695,16.602,14.16,20.996,0.0,0
1582736995.439,16.602,22.461,5.859,21.973000000000006,0.0,0
1582736995.4429998,23.926,17.09,7.812,27.832,0.0,0
1582736995.447,22.461,3.906,37.109,34.668,0.0,0
1582736995.451,18.066,2.441,36.133,34.668,0.0,0
1582736995.455,23.438,15.625,20.508000000000006,38.574,0.0,0
1582736995.457,26.367,21.484,22.461,35.156,0.0,0
1582736995.461,24.414,24.902,20.996,29.785,0.0,0
1582736995.465,23.926,24.414,17.578,34.668,0.0,0
1582736995.469,29.785,24.414,14.648,36.133,0.0,0
1582736995.4729998,38.574,24.414,14.648,40.039,0.0,0
1582736995.4770002,34.668,24.414,13.184,38.574,0.0,0
1582736995.481,30.762,19.531,19.043,32.715,0.0,0
1582736995.484,35.156,18.555,23.926,34.668,0.0,0
1582736995.488,40.039,25.391,21.973000000000006,33.691,0.0,0
1582736995.492,38.086,29.297,21.973000000000006,27.344,0.0,0
1582736995.496,34.18,32.715,23.926,25.391,0.0,0
1582736995.5,34.668,26.855,24.902,28.809,0.0,0
1582736995.502,37.598,11.23,25.391,33.691,0.0,0
1582736995.506,34.668,13.184,25.391,35.156,0.0,0
1582736995.51,37.109,23.438,7.812,34.668,0.0,0
1582736995.514,37.109,24.414,3.906,37.109,0.0,0
1582736995.518,24.414,21.484,19.043,34.18,0.0,0
1582736995.522,31.738000000000003,21.973000000000006,21.484,31.25,0.0,0
1582736995.526,31.25,26.367,21.484,30.762,0.0,0
1582736995.529,28.809,35.645,23.438,38.086,0.0,0
1582736995.533,38.574,37.598,24.414,42.969,0.0,0
1582736995.5370002,35.645,33.203,22.461,34.668,0.0,0
1582736995.541,34.668,30.762,20.508000000000006,38.574,0.0,0
1582736995.545,39.551,23.926,18.066,45.41,0.0,0
1582736995.5470002,38.574,22.949,23.926,41.504,0.0,0
1582736995.551,35.645,21.484,26.367,38.086,0.0,0
1582736995.555,32.715,24.414,20.996,36.133,0.0,0
1582736995.559,29.297,39.062,14.648,33.691,0.0,0
1582736995.563,25.879,41.504,10.254,31.25,0.0,0
1582736995.5670002,26.367,38.086,20.02,28.32,0.0,0
1582736995.571,25.391,23.438,18.555,21.484,0.0,0
1582736995.574,24.902,9.766,6.836,20.996,0.0,0
1582736995.5779998,15.625,21.484,13.184,17.578,0.0,0
1582736995.582,12.695,32.227,9.766,11.719,0.0,0
1582736995.586,18.555,26.855,5.371,8.789,0.0,0
1582736995.59,16.113,30.762,9.277,3.906,0.0,0
1582736995.592,16.602,31.738000000000003,7.812,2.93,0.0,0
1582736995.596,20.02,29.297,6.348,13.184,0.0,0
1582736995.6,27.344,26.367,4.883,15.625,0.0,0
1582736995.604,27.344,9.766,6.836,14.648,0.0,0
1582736995.6079998,16.602,19.043,15.625,13.184,0.0,0
1582736995.6120002,24.414,39.062,23.926,18.066,0.0,0
1582736995.6160002,21.973000000000006,32.227,20.996,20.508000000000006,0.0,0
1582736995.619,15.137,24.902,19.531,27.832,0.0,0
1582736995.623,11.23,30.273000000000003,19.531,27.832,0.0,0
1582736995.627,6.836,26.855,15.137,16.113,0.0,0
1582736995.631,13.184,25.879,13.672,21.973000000000006,0.0,0
1582736995.635,12.207,30.762,12.207,22.461,0.0,0
1582736995.637,9.277,21.973000000000006,14.16,19.531,0.0,0
1582736995.641,12.695,3.906,28.32,27.344,0.0,0
1582736995.645,20.02,0.488,30.762,30.273000000000003,0.0,0
1582736995.649,20.02,12.695,17.578,24.414,0.0,0
1582736995.653,13.672,8.789,12.207,22.461,0.0,0
1582736995.657,14.16,7.324,15.625,25.879,0.0,0
1582736995.661,12.207,17.578,19.043,21.973000000000006,0.0,0
1582736995.664,13.672,22.461,15.137,13.672,0.0,0
1582736995.668,9.277,27.832,17.09,14.648,0.0,0
1582736995.6720002,10.742,34.18,20.508000000000006,22.461,0.0,0
1582736995.676,18.066,27.832,23.438,24.902,0.0,0
1582736995.68,15.137,18.555,23.438,23.438,0.0,0
1582736995.6820002,11.719,16.602,23.926,20.02,0.0,0
1582736995.686,5.371,13.672,23.926,14.648,0.0,0
1582736995.69,0.0,15.137,21.973000000000006,8.301,0.0,0
1582736995.694,2.441,19.043,25.391,1.953,0.0,0
1582736995.698,-7.324,20.996,28.32,-3.906,0.0,0
1582736995.702,-20.508000000000006,18.555,26.855,-13.672,0.0,0
1582736995.706,-23.438,18.555,25.391,-19.531,0.0,0
1582736995.709,-26.367,23.438,28.32,-16.602,0.0,0
1582736995.7129998,-30.273000000000003,21.484,29.297,-20.02,0.0,0
1582736995.717,-37.598,24.902,30.762,-36.621,0.0,0
1582736995.721,-48.828,33.203,35.156,-48.828,0.0,0
1582736995.725,-61.523,37.598,36.621,-57.617,0.0,0
1582736995.742,-66.895,39.062,43.457,-66.406,0.0,0
1582736995.746,-73.73,41.992,49.316,-68.848,0.0,0
1582736995.75,-87.891,37.598,52.734,-80.078,0.0,0
1582736995.754,-92.773,33.691,53.223,-90.332,0.0,0
1582736995.758,-85.449,35.156,55.176,-87.891,0.0,0
1582736995.762,-87.891,39.551,51.27,-93.262,0.0,0
1582736995.766,-101.562,41.504,45.41,-101.074,0.0,0
1582736995.769,-100.586,39.551,46.875,-105.957,0.0,0
1582736995.7729998,-96.191,38.574,41.504,-107.91,0.0,0
1582736995.7770002,-104.98,36.133,45.41,-106.934,0.0,0
1582736995.781,-108.398,45.41,59.57,-112.793,0.0,0
1582736995.785,-94.727,38.574,61.035,-107.422,0.0,0
1582736995.7870002,-93.75,26.855,60.059,-98.633,0.0,0
1582736995.791,-103.027,37.598,58.105,-96.68,0.0,0
1582736995.795,-90.332,40.527,53.71100000000001,-84.961,0.0,0
1582736995.799,-78.125,30.762,53.223,-78.125,0.0,0
1582736995.803,-69.824,17.578,53.71100000000001,-68.359,0.0,0
1582736995.8070002,-58.105,27.832,39.062,-49.316,0.0,0
1582736995.811,-49.805,30.762,37.109,-42.48,0.0,0
1582736995.814,-35.156,25.391,43.457,-29.785,0.0,0
1582736995.8179998,-8.789,26.855,35.156,-5.859,0.0,0
1582736995.822,3.906,29.297,25.391,-3.906,0.0,0
1582736995.826,6.836,22.949,21.973000000000006,4.395,0.0,0
1582736995.83,24.414,15.625,22.949,21.973000000000006,0.0,0
1582736995.832,31.738000000000003,18.555,20.508000000000006,30.762,0.0,0
1582736995.836,32.715,1.465,25.391,38.086,0.0,0
1582736995.84,40.039,-16.113,19.531,43.945,0.0,0
1582736995.844,45.898,3.418,3.418,52.246,0.0,0
1582736995.8479998,58.105,9.277,5.371,57.129,0.0,0
1582736995.8520002,66.895,4.395,4.395,64.453,0.0,0
1582736995.856,68.359,14.16,-3.418,66.895,0.0,0
1582736995.859,65.918,16.113,-11.23,63.477,0.0,0
1582736995.863,71.777,-3.418,-2.93,67.87100000000001,0.0,0
1582736995.867,82.52,-15.137,5.859,73.242,0.0,0
1582736995.871,80.566,-10.254,0.488,82.52,0.0,0
1582736995.875,74.219,-4.883,0.0,82.031,0.0,0
1582736995.877,78.125,2.441,14.16,83.008,0.0,0
1582736995.881,86.426,-0.488,20.996,87.891,0.0,0
1582736995.885,86.426,2.441,5.859,81.055,0.0,0
1582736995.889,85.449,7.812,0.488,85.93799999999997,0.0,0
1582736995.893,82.031,5.371,-1.465,87.402,0.0,0
1582736995.897,76.66,2.441,-2.441,83.008,0.0,0
1582736995.901,75.684,6.348,0.0,84.961,0.0,0
1582736995.904,79.59,2.93,0.977,85.93799999999997,0.0,0
1582736995.908,79.59,0.488,6.836,85.93799999999997,0.0,0
1582736995.9120002,71.777,8.789,0.488,82.52,0.0,0
1582736995.916,80.078,10.254,-7.812,86.914,0.0,0
1582736995.92,80.566,-5.371,-1.465,89.355,0.0,0
1582736995.9220002,75.684,-0.488,-3.906,81.055,0.0,0
1582736995.926,72.266,9.766,-8.789,75.684,0.0,0
1582736995.93,73.242,9.277,-6.348,69.824,0.0,0
1582736995.934,74.219,7.324,-6.348,66.406,0.0,0
1582736995.938,71.289,1.465,-11.23,65.43,0.0,0
1582736995.9420002,72.75399999999998,-1.953,-9.277,68.359,0.0,0
1582736995.946,64.941,5.371,-0.488,67.87100000000001,0.0,0
1582736995.949,63.965,14.16,7.324,62.988,0.0,0
1582736995.9529998,66.406,10.742,3.418,60.547,0.0,0
1582736995.957,63.965,3.418,7.324,58.105,0.0,0
1582736995.961,61.035,3.418,5.371,58.594,0.0,0
1582736995.965,62.988,5.371,-2.441,65.918,0.0,0
1582736995.967,63.965,10.742,-4.883,65.918,0.0,0
1582736995.971,62.012,9.277,-6.348,64.941,0.0,0
1582736995.975,63.965,7.324,4.883,68.359,0.0,0
1582736995.979,61.523,10.254,9.766,65.43,0.0,0
1582736995.9829998,61.523,13.672,14.16,70.312,0.0,0
1582736995.9870002,61.523,7.324,22.949,65.43,0.0,0
1582736995.9910002,47.363,6.836,7.812,47.363,0.0,0
1582736995.994,41.01600000000001,13.184,-5.371,41.992,0.0,0
1582736995.998,39.062,12.207,10.254,39.551,0.0,0
1582736996.002,34.18,-0.977,9.766,38.086,0.0,0
1582736996.006,40.039,-3.418,3.418,39.062,0.0,0
1582736996.01,37.109,16.113,12.695,38.574,0.0,0
1582736996.012,31.738000000000003,24.902,17.578,41.504,0.0,0
1582736996.016,31.25,14.16,17.09,41.992,0.0,0
1582736996.02,28.809,4.883,29.785,42.48,0.0,0
1582736996.024,25.879,9.766,21.973000000000006,37.598,0.0,0
1582736996.028,20.508000000000006,3.906,3.418,34.18,0.0,0
1582736996.032,25.879,2.441,11.719,37.598,0.0,0
1582736996.036,42.48,13.184,19.531,45.898,0.0,0
1582736996.039,46.387,18.555,18.555,47.363,0.0,0
1582736996.043,32.715,17.09,21.973000000000006,36.621,0.0,0
1582736996.0470002,30.762,23.926,28.809,36.621,0.0,0
1582736996.051,30.273000000000003,27.832,26.855,37.598,0.0,0
1582736996.055,22.949,18.066,21.484,31.25,0.0,0
1582736996.0570002,24.414,17.09,14.16,29.297,0.0,0
1582736996.061,23.438,16.113,14.16,27.832,0.0,0
1582736996.065,17.578,19.043,13.672,28.32,0.0,0
1582736996.069,17.578,17.578,15.625,28.32,0.0,0
1582736996.073,16.602,10.742,24.902,28.809,0.0,0
1582736996.077,27.832,7.812,25.391,31.738000000000003,0.0,0
1582736996.081,34.18,4.883,20.508000000000006,30.273000000000003,0.0,0
1582736996.084,30.273000000000003,13.672,24.414,30.762,0.0,0
1582736996.0879998,32.715,23.438,27.344,28.809,0.0,0
1582736996.092,37.109,30.273000000000003,19.043,28.809,0.0,0
1582736996.096,39.551,31.25,12.207,31.738000000000003,0.0,0
1582736996.1,34.668,23.926,14.16,34.18,0.0,0
1582736996.117,24.414,17.09,18.555,32.227,0.0,0
1582736996.121,30.762,13.672,20.508000000000006,32.227,0.0,0
1582736996.125,30.762,17.09,20.996,26.855,0.0,0
1582736996.129,21.484,23.926,28.32,22.461,0.0,0
1582736996.133,18.066,20.996,30.762,20.508000000000006,0.0,0
1582736996.137,14.648,28.809,21.973000000000006,19.531,0.0,0
1582736996.141,19.531,37.598,23.438,22.949,0.0,2
1582736996.144,18.555,32.227,23.438,16.113,0.0,0
1582736996.1479998,12.207,30.762,25.879,16.113,0.0,0
1582736996.1520002,12.207,24.414,27.344,17.578,0.0,0
1582736996.156,6.348,9.766,20.02,9.277,0.0,0
1582736996.16,11.719,15.137,20.508000000000006,9.277,0.0,0
1582736996.1620002,21.973000000000006,18.066,18.555,16.602,0.0,0
1582736996.166,19.043,13.184,19.531,16.602,0.0,0
1582736996.17,20.02,16.113,19.531,20.996,0.0,0
1582736996.174,19.043,18.066,19.531,20.02,0.0,0
1582736996.178,17.578,16.602,25.391,16.113,0.0,0
1582736996.1820002,18.555,19.531,19.043,19.531,0.0,0
1582736996.186,17.578,20.996,16.602,15.625,0.0,0
1582736996.189,26.367,23.438,24.902,20.02,0.0,0
1582736996.1929998,29.785,23.438,24.902,26.367,0.0,0
1582736996.197,24.414,29.785,20.02,27.832,0.0,0
1582736996.201,22.949,36.621,25.879,23.926,0.0,0
1582736996.205,19.531,27.344,25.879,19.531,0.0,0
1582736996.207,23.438,20.02,16.113,26.367,0.0,0
1582736996.211,25.391,19.043,14.16,24.414,0.0,0
1582736996.215,20.02,9.766,16.113,20.02,0.0,0
1582736996.219,26.855,-3.418,17.09,24.902,0.0,0
1582736996.2229998,22.461,12.695,16.113,19.531,0.0,0
1582736996.2270002,16.113,35.156,13.184,16.113,0.0,0
1582736996.231,13.184,33.691,7.812,10.742,0.0,0
1582736996.234,7.324,27.832,8.789,7.324,0.0,0
1582736996.238,15.625,26.855,15.625,14.16,0.0,0
1582736996.242,22.461,21.973000000000006,17.09,18.066,0.0,0
1582736996.246,18.066,19.531,10.254,20.02,0.0,0
1582736996.25,16.602,19.043,19.043,22.461,0.0,0
1582736996.252,20.996,20.996,30.762,20.02,0.0,0
1582736996.256,17.09,18.555,20.508000000000006,16.113,0.0,0
1582736996.26,16.113,12.695,7.324,15.625,0.0,0
1582736996.264,22.949,15.137,9.766,16.602,0.0,0
1582736996.268,22.461,7.324,21.973000000000006,21.973000000000006,0.0,0
1582736996.272,18.555,0.488,20.996,21.484,0.0,0
1582736996.276,19.531,9.277,14.648,17.09,0.0,0
1582736996.279,19.531,22.949,19.043,21.484,0.0,0
1582736996.283,22.461,30.762,20.508000000000006,23.438,0.0,0
1582736996.2870002,23.438,23.438,26.367,24.902,0.0,0
1582736996.291,18.555,19.531,28.32,28.32,0.0,0
1582736996.295,21.973000000000006,17.578,16.113,28.809,0.0,0
1582736996.2970002,23.926,15.625,15.137,29.297,0.0,0
1582736996.301,18.555,19.531,20.996,19.043,0.0,0
1582736996.305,14.648,21.973000000000006,27.344,19.043,0.0,0
1582736996.309,13.672,24.902,22.461,27.832,0.0,0
1582736996.313,25.879,30.273000000000003,20.996,32.715,0.0,0
1582736996.3170002,28.809,26.367,20.02,34.668,0.0,0
1582736996.321,21.973000000000006,22.949,10.254,31.738000000000003,0.0,0
1582736996.324,23.926,27.832,21.484,34.18,0.0,0
1582736996.3279998,25.391,32.227,25.879,38.086,0.0,0
1582736996.332,31.738000000000003,35.645,17.09,35.156,0.0,0
1582736996.336,36.621,27.832,22.461,33.203,0.0,0
1582736996.34,39.551,27.344,29.297,37.598,0.0,0
1582736996.342,41.01600000000001,20.02,28.32,38.086,0.0,0
1582736996.346,39.062,6.836,16.602,37.598,0.0,0
1582736996.35,44.922,22.949,20.508000000000006,45.41,0.0,0
1582736996.354,41.504,32.227,31.738000000000003,41.992,0.0,0
1582736996.3579998,40.039,26.367,26.367,34.668,0.0,0
1582736996.3620002,43.945,34.18,20.508000000000006,40.039,0.0,0
1582736996.3660002,44.434,39.062,27.344,43.945,0.0,0
1582736996.369,41.504,28.32,38.086,37.109,0.0,0
1582736996.373,34.668,22.461,32.227,36.133,0.0,0
1582736996.377,38.574,30.762,26.855,35.645,0.0,0
1582736996.381,39.551,33.691,26.367,32.227,0.0,0
1582736996.385,32.715,31.738000000000003,27.832,35.645,0.0,0
1582736996.387,28.32,27.832,27.832,27.344,0.0,0
1582736996.391,30.273000000000003,26.367,22.949,24.902,0.0,0
1582736996.395,35.156,28.809,16.602,30.273000000000003,0.0,0
1582736996.399,31.25,28.32,18.066,29.785,0.0,0
1582736996.403,28.809,20.02,33.691,36.621,0.0,0
1582736996.407,27.832,12.695,29.297,38.086,0.0,0
1582736996.411,29.297,12.695,22.461,27.832,0.0,0
1582736996.414,25.879,20.996,30.762,24.414,0.0,0
1582736996.418,13.184,29.785,23.438,21.973000000000006,0.0,0
1582736996.4220002,10.254,27.832,12.207,15.137,0.0,0
1582736996.426,11.23,25.391,11.23,16.113,0.0,0
1582736996.43,14.648,24.902,15.137,17.578,0.0,0
1582736996.4320002,20.508000000000006,26.367,16.113,16.602,0.0,0
1582736996.436,12.695,21.973000000000006,20.508000000000006,14.16,0.0,0
1582736996.44,3.418,7.812,21.973000000000006,15.137,0.0,0
1582736996.444,2.93,5.859,27.344,21.484,0.0,0
1582736996.448,10.742,4.883,21.484,22.949,0.0,0
1582736996.452,17.578,9.766,13.672,22.461,0.0,0
1582736996.456,15.625,20.508000000000006,19.043,17.09,0.0,0
1582736996.459,9.277,18.555,17.09,15.137,0.0,0
1582736996.4629998,13.184,22.461,13.672,20.02,0.0,0
1582736996.467,18.066,30.273000000000003,18.066,22.949,0.0,0
1582736996.471,9.766,28.32,22.461,16.602,0.0,0
1582736996.475,6.348,18.555,20.02,18.555,0.0,0
1582736996.492,8.789,14.648,20.508000000000006,22.461,0.0,0
1582736996.496,11.719,20.02,26.855,19.043,0.0,0
1582736996.5,2.93,22.461,25.391,17.578,0.0,0
1582736996.504,5.859,23.926,20.02,19.043,0.0,0
1582736996.508,11.719,20.02,19.043,29.297,0.0,0
1582736996.512,9.277,10.742,15.625,26.855,0.0,0
1582736996.516,13.184,16.113,16.113,17.578,0.0,0
1582736996.519,15.625,27.832,23.926,18.066,0.0,0
1582736996.5229998,21.484,25.879,28.809,21.484,0.0,0
1582736996.5270002,29.297,21.484,28.32,24.902,0.0,0
1582736996.531,23.926,26.367,28.809,25.879,0.0,0
1582736996.535,27.344,21.973000000000006,27.344,29.785,0.0,0
1582736996.5370002,32.227,17.578,25.879,30.273000000000003,0.0,0
1582736996.541,34.668,19.043,19.043,21.484,0.0,0
1582736996.545,29.785,17.09,13.672,18.066,0.0,0
1582736996.549,20.996,28.32,23.926,18.555,0.0,0
1582736996.553,21.484,21.973000000000006,21.973000000000006,16.113,0.0,0
1582736996.5570002,16.602,9.277,21.484,20.508000000000006,0.0,0
1582736996.561,16.602,23.926,25.879,17.09,0.0,0
1582736996.564,16.113,29.785,22.949,14.648,0.0,0
1582736996.5679998,20.996,26.367,23.438,18.555,0.0,0
1582736996.572,25.879,34.668,21.484,17.578,0.0,0
1582736996.576,20.508000000000006,28.32,18.066,12.695,0.0,0
1582736996.58,16.113,19.043,13.672,10.254,0.0,0
1582736996.582,20.996,18.555,22.949,15.137,0.0,0
1582736996.586,26.855,15.137,28.809,19.531,0.0,0
1582736996.59,29.785,12.695,28.32,21.973000000000006,0.0,0
1582736996.594,28.32,18.555,28.32,25.879,0.0,0
1582736996.5979998,26.855,20.02,22.949,27.344,0.0,0
1582736996.6020002,32.227,14.16,16.113,23.926,0.0,0
1582736996.606,29.785,12.207,8.301,19.531,0.0,0
1582736996.609,23.438,15.625,3.906,20.02,0.0,0
1582736996.613,24.414,25.391,14.16,23.438,0.0,0
1582736996.617,26.367,34.18,24.414,30.762,0.0,0
1582736996.621,29.297,31.738000000000003,13.184,29.297,0.0,0
1582736996.625,36.133,20.02,15.137,22.949,0.0,0
1582736996.627,30.273000000000003,19.531,20.996,25.391,0.0,0
1582736996.631,20.508000000000006,19.531,18.066,25.391,0.0,0
1582736996.635,26.855,17.578,12.695,25.391,0.0,0
1582736996.639,30.273000000000003,23.926,16.113,32.227,0.0,0
1582736996.643,25.879,20.508000000000006,25.391,28.809,0.0,0
1582736996.647,23.926,20.996,21.484,23.438,0.0,0
1582736996.651,21.484,24.902,22.461,26.855,0.0,0
1582736996.654,21.484,22.949,20.02,25.391,0.0,0
1582736996.658,25.879,20.02,17.578,25.391,0.0,0
1582736996.6620002,27.344,18.555,20.996,28.32,0.0,0
1582736996.666,28.32,19.043,20.02,32.227,0.0,0
1582736996.67,30.273000000000003,12.207,15.137,33.691,0.0,0
1582736996.6720002,27.832,3.906,7.812,30.762,0.0,0
1582736996.676,20.508000000000006,7.812,15.625,30.273000000000003,0.0,0
1582736996.68,20.996,16.602,33.691,27.344,0.0,0
1582736996.684,25.391,19.531,35.156,24.414,0.0,0
1582736996.688,26.367,18.555,31.738000000000003,29.297,0.0,0
1582736996.6920002,25.391,24.902,30.762,33.691,0.0,0
1582736996.696,20.508000000000006,11.23,28.809,29.297,0.0,0
1582736996.699,18.555,3.906,30.762,30.273000000000003,0.0,0
1582736996.7029998,21.973000000000006,20.508000000000006,31.738000000000003,34.668,0.0,0
1582736996.707,20.996,23.926,28.32,29.785,0.0,0
1582736996.711,28.32,23.926,15.137,31.738000000000003,0.0,0
1582736996.715,33.203,24.414,7.324,36.133,0.0,0
1582736996.717,24.414,22.461,19.043,32.227,0.0,0
1582736996.721,20.996,19.043,29.785,28.32,0.0,0
1582736996.725,19.531,20.02,31.738000000000003,27.832,0.0,0
1582736996.729,18.066,22.949,28.32,25.391,0.0,0
1582736996.7329998,20.02,17.578,26.855,25.391,0.0,0
1582736996.7370002,23.926,12.695,26.855,26.367,0.0,0
1582736996.7410002,21.484,21.484,28.32,25.879,0.0,0
1582736996.744,20.996,29.297,27.344,24.902,0.0,0
1582736996.748,19.043,27.344,21.973000000000006,23.926,0.0,0
1582736996.752,14.648,24.414,20.02,19.531,0.0,0
1582736996.756,13.184,25.879,19.043,19.043,0.0,0
1582736996.76,11.719,27.344,17.09,17.578,0.0,0
1582736996.762,13.184,21.973000000000006,16.113,15.137,0.0,0
1582736996.766,23.438,19.531,20.508000000000006,18.555,0.0,0
1582736996.77,23.438,18.066,18.555,15.625,0.0,0
1582736996.774,13.672,13.672,10.254,12.207,0.0,0
1582736996.778,15.137,17.578,14.648,17.578,0.0,0
1582736996.782,10.742,15.625,19.043,18.555,0.0,0
1582736996.786,13.184,9.766,18.066,18.555,0.0,0
1582736996.789,18.066,19.043,10.254,15.625,0.0,0
1582736996.793,20.996,24.902,10.742,20.02,0.0,0
1582736996.7970002,23.438,20.02,20.02,27.832,0.0,0
1582736996.801,24.902,15.625,22.949,31.738000000000003,0.0,0
1582736996.805,22.949,11.23,16.113,25.879,0.0,0
1582736996.8070002,28.809,16.602,17.578,20.508000000000006,0.0,0
1582736996.811,40.527,28.32,19.043,23.438,0.0,0
1582736996.815,38.086,25.879,17.578,25.391,0.0,0
1582736996.819,37.598,22.461,16.113,26.855,0.0,0
1582736996.823,37.598,17.09,17.578,29.297,0.0,0
1582736996.827,33.691,10.254,21.484,29.297,0.0,0
1582736996.831,30.762,22.949,14.16,26.367,0.0,0
1582736996.834,27.832,22.461,5.371,23.438,0.0,0
1582736996.8379998,23.438,15.137,7.324,14.16,0.0,0
1582736996.842,26.367,21.973000000000006,9.277,18.066,0.0,0
1582736996.846,28.809,24.902,11.23,22.461,0.0,0
1582736996.85,25.391,20.996,21.973000000000006,23.926,0.0,0
1582736996.867,21.484,23.926,18.555,22.949,0.0,0
1582736996.871,20.02,31.25,20.02,16.602,0.0,0
1582736996.875,25.391,32.227,23.438,16.113,0.0,0
1582736996.879,25.879,21.973000000000006,16.602,15.137,0.0,0
1582736996.883,14.648,18.555,17.578,15.625,0.0,0
1582736996.887,12.695,21.484,21.484,13.672,0.0,0
1582736996.891,17.578,20.02,22.949,14.16,0.0,0
1582736996.894,14.16,11.23,29.785,16.602,0.0,0
1582736996.8979998,8.789,11.719,28.32,14.16,0.0,0
1582736996.9020002,11.719,21.973000000000006,19.043,14.16,0.0,0
1582736996.906,18.066,14.648,16.602,12.695,0.0,0
1582736996.91,15.625,7.324,16.602,12.207,0.0,0
1582736996.9120002,12.695,10.254,16.602,12.695,0.0,0
1582736996.916,10.742,2.441,17.578,11.23,0.0,0
1582736996.92,13.672,9.766,20.02,12.207,0.0,0
1582736996.924,16.113,34.668,17.09,11.23,0.0,0
1582736996.928,14.648,33.691,8.301,7.324,0.0,0
1582736996.9320002,17.09,28.809,7.324,12.695,0.0,0
1582736996.936,2.441,26.855,11.23,4.883,0.0,0
1582736996.939,-12.695,15.137,13.672,-7.812,0.0,0
1582736996.9429998,-1.465,11.23,21.973000000000006,-4.395,0.0,0
1582736996.947,0.488,17.578,20.02,-4.395,0.0,0
1582736996.951,-0.488,17.09,19.531,3.418,0.0,0
1582736996.955,1.953,2.93,30.762,12.695,0.0,0
1582736996.957,4.883,9.766,23.438,11.719,0.0,0
1582736996.961,10.742,24.902,16.113,13.672,0.0,0
1582736996.965,6.836,22.949,15.625,12.695,0.0,0
1582736996.969,14.648,26.367,15.625,19.531,0.0,0
1582736996.9729998,24.902,22.461,18.555,24.414,0.0,0
1582736996.9770002,15.137,20.02,16.113,17.578,0.0,0
1582736996.981,10.742,30.273000000000003,13.184,12.207,0.0,0
1582736996.984,12.695,23.926,10.254,15.625,0.0,0
1582736996.988,17.09,12.207,12.207,19.043,0.0,0
1582736996.992,19.531,3.906,19.043,18.066,0.0,0
1582736996.996,18.066,8.789,20.996,15.137,0.0,0
1582736997.0,20.996,32.227,27.832,16.602,0.0,0
1582736997.002,21.973000000000006,39.551,29.785,16.602,0.0,0
1582736997.006,26.367,28.32,16.602,17.09,0.0,0
1582736997.01,23.438,26.367,11.23,16.602,0.0,0
1582736997.014,21.973000000000006,29.297,16.113,18.555,0.0,0
1582736997.018,29.297,29.297,18.066,26.367,0.0,0
1582736997.022,26.367,20.996,7.812,21.484,0.0,0
1582736997.026,21.484,6.348,3.906,16.113,0.0,0
1582736997.029,19.531,19.531,15.137,16.113,0.0,0
1582736997.033,20.996,28.809,20.996,18.066,0.0,0
1582736997.0370002,27.344,24.414,20.508000000000006,21.973000000000006,0.0,0
1582736997.041,25.391,24.414,16.113,20.02,0.0,0
1582736997.045,18.555,20.02,10.742,18.555,0.0,0
1582736997.0470002,21.484,17.578,16.602,20.508000000000006,0.0,0
1582736997.051,24.414,19.043,20.508000000000006,21.484,0.0,0
1582736997.055,29.785,9.277,13.672,25.391,0.0,0
1582736997.059,27.344,16.113,12.207,23.926,0.0,0
1582736997.063,22.461,34.668,20.996,26.367,0.0,0
1582736997.0670002,26.855,33.203,25.391,31.738000000000003,0.0,0
1582736997.071,25.391,36.621,18.066,26.855,0.0,0
1582736997.074,26.855,34.668,16.602,27.832,0.0,0
1582736997.0779998,31.25,25.391,26.367,34.18,0.0,0
1582736997.082,31.738000000000003,22.949,27.832,32.715,0.0,0
1582736997.086,32.715,20.02,29.297,33.203,0.0,0
1582736997.09,28.32,19.531,24.902,30.273000000000003,0.0,0
1582736997.092,18.555,10.254,22.949,22.949,0.0,0
1582736997.096,17.578,8.789,25.391,23.926,0.0,0
1582736997.1,21.973000000000006,26.855,22.461,20.996,0.0,0
1582736997.104,15.625,36.133,28.809,17.09,0.0,0
1582736997.1079998,7.324,33.691,22.949,12.207,0.0,0
1582736997.1120002,8.789,31.738000000000003,14.648,7.324,0.0,0
1582736997.1160002,12.695,27.832,15.625,6.836,0.0,0
1582736997.119,16.113,26.367,5.859,14.16,0.0,0
1582736997.123,14.16,26.855,2.93,14.648,0.0,0
1582736997.127,11.23,15.625,10.742,8.301,0.0,0
1582736997.131,25.391,-4.395,12.207,15.137,0.0,0
1582736997.135,27.344,17.09,17.09,23.926,0.0,0
1582736997.137,17.578,33.203,24.902,24.902,0.0,0
1582736997.141,20.02,26.367,25.879,24.902,0.0,0
1582736997.145,26.367,30.273000000000003,22.949,33.203,0.0,0
1582736997.149,26.855,34.18,19.531,31.738000000000003,0.0,0
1582736997.153,24.414,28.809,15.137,29.297,0.0,0
1582736997.157,20.02,21.484,15.625,31.738000000000003,0.0,0
1582736997.161,15.625,18.066,23.926,33.691,0.0,0
1582736997.164,15.625,16.113,22.461,34.668,0.0,0
1582736997.168,15.137,28.809,24.902,30.762,0.0,0
1582736997.1720002,8.789,26.367,27.344,22.949,0.0,0
1582736997.176,10.742,20.996,31.25,20.996,0.0,0
1582736997.18,21.484,25.879,34.18,24.902,0.0,0
1582736997.1820002,20.996,25.879,20.508000000000006,24.902,0.0,0
1582736997.186,17.09,19.043,23.438,23.438,0.0,0
1582736997.19,17.578,5.371,28.32,26.367,0.0,0
1582736997.194,26.855,18.555,31.738000000000003,36.133,0.0,0
1582736997.198,27.832,29.297,26.855,35.156,0.0,0
1582736997.202,14.16,10.254,26.855,33.691,0.0,0
1582736997.206,5.859,21.973000000000006,32.227,28.32,0.0,0
1582736997.209,10.742,28.809,30.762,25.391,0.0,0
1582736997.2129998,23.438,20.02,36.621,34.18,0.0,0
1582736997.217,37.109,35.645,25.391,39.551,0.0,0
1582736997.221,32.715,45.41,8.789,34.668,0.0,0
1582736997.225,20.02,36.621,18.555,25.879,0.0,1
1582736997.242,21.973000000000006,20.996,25.879,27.832,0.0,0
1582736997.246,36.621,19.531,29.785,42.48,0.0,0
1582736997.25,34.668,26.367,31.25,47.363,0.0,0
1582736997.254,23.438,20.996,23.926,32.715,0.0,0
1582736997.258,22.949,13.672,24.902,30.762,0.0,0
1582736997.262,23.438,22.949,22.949,33.691,0.0,0
1582736997.266,14.648,33.203,20.996,28.32,0.0,0
1582736997.269,8.789,29.785,18.066,25.879,0.0,0
1582736997.2729998,21.973000000000006,22.461,23.926,28.809,0.0,0
1582736997.2770002,30.762,19.043,25.879,30.762,0.0,0
1582736997.281,29.297,17.09,19.043,24.902,0.0,0
1582736997.285,19.531,4.395,25.391,17.578,0.0,0
1582736997.2870002,21.484,2.441,15.625,20.02,0.0,0
1582736997.291,30.762,20.996,7.812,25.879,0.0,0
1582736997.295,28.809,28.809,9.766,24.414,0.0,0
1582736997.299,24.902,31.25,10.254,17.578,0.0,0
1582736997.303,24.902,33.691,18.555,21.484,0.0,0
1582736997.3070002,32.715,21.973000000000006,23.926,30.762,0.0,0
1582736997.311,31.738000000000003,13.184,22.461,28.809,0.0,0
1582736997.314,27.832,20.508000000000006,13.672,23.926,0.0,0
1582736997.3179998,27.832,19.043,23.926,23.926,0.0,0
1582736997.322,33.203,16.602,32.715,22.949,0.0,0
1582736997.326,34.668,14.16,19.531,24.414,0.0,0
1582736997.33,27.344,5.371,13.672,26.855,0.0,0
1582736997.332,21.973000000000006,3.906,10.742,23.926,0.0,0
1582736997.336,26.367,10.742,12.207,22.949,0.0,0
1582736997.34,23.438,7.324,19.531,18.066,0.0,0
1582736997.344,11.719,6.836,21.973000000000006,11.719,0.0,0
1582736997.3479998,21.484,14.16,21.484,16.602,0.0,0
1582736997.3520002,29.785,27.832,31.25,26.367,0.0,0
1582736997.356,26.367,28.809,32.227,24.414,0.0,0
1582736997.359,24.902,18.555,24.414,26.367,0.0,0
1582736997.363,25.879,30.762,28.809,27.832,0.0,0
1582736997.367,23.926,36.621,23.926,25.391,0.0,0
1582736997.371,17.09,24.414,20.508000000000006,26.367,0.0,0
1582736997.375,14.16,18.066,30.273000000000003,25.879,0.0,0
1582736997.377,12.207,15.625,31.25,19.531,0.0,0
1582736997.381,10.742,8.301,21.484,12.207,0.0,0
1582736997.385,16.602,7.324,22.461,11.719,0.0,0
1582736997.389,20.996,17.578,21.973000000000006,13.184,0.0,0
1582736997.393,18.555,22.461,12.207,13.672,0.0,0
1582736997.397,16.113,29.297,16.602,18.066,0.0,0
1582736997.401,8.301,28.809,16.113,7.812,0.0,0
1582736997.404,13.672,24.414,21.484,12.207,0.0,0
1582736997.408,19.531,26.367,24.902,16.602,0.0,0
1582736997.4120002,11.23,17.09,20.02,15.625,0.0,0
1582736997.416,15.625,5.859,23.438,23.926,0.0,0
1582736997.42,26.367,20.02,31.25,25.879,0.0,0
1582736997.4220002,22.949,27.832,35.645,20.02,0.0,0
1582736997.426,19.043,28.32,25.391,20.508000000000006,0.0,0
1582736997.43,15.625,26.367,23.926,22.949,0.0,0
1582736997.434,18.555,11.23,23.438,24.414,0.0,0
1582736997.438,26.367,20.508000000000006,20.996,34.18,0.0,0
1582736997.4420002,26.367,30.273000000000003,25.391,33.203,0.0,0
1582736997.446,27.344,26.855,30.273000000000003,33.691,0.0,0
1582736997.449,32.715,33.691,31.25,40.039,0.0,0
1582736997.4529998,29.785,32.227,27.344,33.691,0.0,0
1582736997.457,22.949,15.625,17.09,29.297,0.0,0
1582736997.461,20.996,6.836,13.184,22.949,0.0,0
1582736997.465,27.344,18.066,20.02,24.902,0.0,0
1582736997.467,28.32,29.297,18.555,32.715,0.0,0
1582736997.471,26.367,34.18,18.066,30.273000000000003,0.0,0
1582736997.475,23.926,28.809,21.973000000000006,24.902,0.0,0
1582736997.479,22.461,23.926,32.715,27.344,0.0,0
1582736997.4829998,26.855,32.227,30.762,28.809,0.0,0
1582736997.4870002,28.809,33.203,20.02,31.738000000000003,0.0,0
1582736997.4910002,25.391,25.391,27.832,34.668,0.0,0
1582736997.494,25.879,21.973000000000006,26.367,27.344,0.0,0
1582736997.498,26.367,13.184,21.973000000000006,22.949,0.0,0
1582736997.502,23.926,9.277,25.391,24.414,0.0,0
1582736997.506,20.996,24.902,31.25,29.785,0.0,0
1582736997.51,13.672,27.344,31.25,27.344,0.0,0
1582736997.512,11.23,18.555,27.344,23.926,0.0,0
1582736997.516,16.602,16.113,31.25,24.414,0.0,0
1582736997.52,20.02,8.301,30.273000000000003,22.461,0.0,0
1582736997.524,13.184,6.348,20.996,17.09,0.0,0
1582736997.528,7.812,19.531,16.113,10.254,0.0,0
1582736997.532,19.043,30.273000000000003,19.531,14.648,0.0,0
1582736997.536,23.438,26.855,24.902,20.996,0.0,0
1582736997.539,12.695,18.066,21.484,12.695,0.0,0
1582736997.543,6.836,13.184,11.719,14.648,0.0,0
1582736997.5470002,11.719,10.742,11.719,23.438,0.0,0
1582736997.551,12.695,15.625,20.508000000000006,17.578,0.0,0
1582736997.555,14.648,17.578,19.043,16.602,0.0,0
1582736997.5570002,15.625,15.137,15.625,22.461,0.0,0
1582736997.561,11.23,16.113,11.719,20.996,0.0,0
1582736997.565,12.695,20.508000000000006,11.719,19.043,0.0,0
1582736997.569,12.695,20.508000000000006,16.113,20.02,0.0,0
1582736997.573,17.09,19.531,18.555,21.484,0.0,0
1582736997.577,25.391,21.973000000000006,14.16,22.949,0.0,0
1582736997.581,24.902,22.461,13.672,22.461,0.0,0
1582736997.584,21.484,23.438,23.926,16.602,0.0,0
1582736997.5879998,16.602,23.926,34.18,17.09,0.0,0
1582736997.592,20.508000000000006,15.625,32.715,25.391,0.0,0
1582736997.596,22.949,9.766,20.508000000000006,21.973000000000006,0.0,0
1582736997.6,17.578,11.23,19.043,20.996,0.0,0
1582736997.617,14.648,9.277,23.926,20.02,0.0,0
1582736997.621,19.531,14.16,24.902,22.949,0.0,0
1582736997.625,24.414,11.719,24.414,23.438,0.0,0
1582736997.629,19.043,14.648,23.438,17.09,0.0,0
1582736997.633,19.531,28.809,20.508000000000006,19.531,0.0,0
1582736997.637,22.461,27.832,22.461,21.973000000000006,0.0,0
1582736997.641,23.438,20.996,27.344,23.438,0.0,0
1582736997.644,34.668,24.414,28.32,28.809,0.0,0
1582736997.6479998,40.039,23.926,31.25,27.832,0.0,0
1582736997.6520002,26.855,19.531,26.367,23.438,0.0,0
1582736997.656,34.18,18.066,25.391,37.109,0.0,0
1582736997.66,39.062,9.766,25.391,41.504,0.0,0
1582736997.6620002,31.25,16.113,23.438,29.297,0.0,0
1582736997.666,30.273000000000003,23.438,32.227,25.391,0.0,0
1582736997.67,29.297,8.789,32.715,28.809,0.0,0
1582736997.674,27.344,-0.488,24.902,28.32,0.0,0
1582736997.678,26.367,17.09,17.09,23.926,0.0,0
1582736997.6820002,23.438,26.855,14.648,20.02,0.0,0
1582736997.686,24.902,20.508000000000006,16.113,20.02,0.0,0
1582736997.689,25.879,12.207,26.855,19.043,0.0,0
1582736997.6929998,15.137,9.766,27.832,18.555,0.0,0
1582736997.697,18.555,21.973000000000006,19.043,21.484,0.0,0
1582736997.701,20.996,27.832,21.484,16.113,0.0,0
1582736997.705,15.625,23.926,20.996,15.625,0.0,0
1582736997.707,19.043,20.02,20.02,20.996,0.0,0
1582736997.711,17.578,13.672,24.414,22.461,0.0,0
1582736997.715,14.16,5.859,27.832,18.066,0.0,0
1582736997.719,16.113,5.859,25.879,20.996,0.0,0
1582736997.7229998,30.762,18.555,29.297,34.668,0.0,0
1582736997.7270002,27.832,22.461,30.273000000000003,30.273000000000003,0.0,0
1582736997.731,11.719,15.137,22.949,15.625,0.0,0
1582736997.734,16.602,22.461,19.531,18.066,0.0,0
1582736997.738,27.832,23.926,20.996,27.344,0.0,0
1582736997.742,22.461,24.414,32.715,25.391,0.0,0
1582736997.746,12.695,27.832,34.668,15.137,0.0,0
1582736997.75,20.508000000000006,25.879,15.137,17.578,0.0,0
1582736997.752,23.438,18.066,11.23,25.879,0.0,0
1582736997.756,19.043,20.996,21.973000000000006,23.926,0.0,0
1582736997.76,19.531,24.414,24.902,17.578,0.0,0
1582736997.764,18.066,27.344,28.32,18.555,0.0,0
1582736997.768,21.973000000000006,25.879,33.691,26.855,0.0,0
1582736997.772,27.832,16.113,32.715,27.832,0.0,0
1582736997.776,24.902,20.02,27.832,25.391,0.0,0
1582736997.779,25.879,26.367,29.297,27.832,0.0,0
1582736997.783,29.785,29.785,21.973000000000006,28.809,0.0,0
1582736997.7870002,34.668,30.273000000000003,22.461,31.738000000000003,0.0,0
1582736997.791,37.109,18.555,37.109,29.785,0.0,0
1582736997.795,30.273000000000003,20.02,31.25,27.832,0.0,0
1582736997.7970002,17.578,24.414,30.762,26.367,0.0,0
1582736997.801,19.043,23.438,32.227,22.949,0.0,0
1582736997.805,27.832,30.273000000000003,31.738000000000003,24.902,0.0,0
1582736997.809,26.855,20.508000000000006,34.18,27.832,0.0,0
1582736997.813,31.738000000000003,12.207,38.574,31.738000000000003,0.0,0
1582736997.8170002,37.109,25.391,38.086,33.203,0.0,0
1582736997.821,15.137,32.715,32.227,18.066,0.0,0
1582736997.824,9.766,27.344,33.203,8.789,0.0,0
1582736997.8279998,12.207,17.578,35.645,9.766,0.0,0
1582736997.832,12.207,14.16,33.203,14.16,0.0,0
1582736997.836,24.902,17.09,24.902,23.438,0.0,0
1582736997.84,29.785,15.625,34.668,30.273000000000003,0.0,0
1582736997.842,17.09,17.09,43.457,17.09,0.0,0
1582736997.846,10.254,22.461,36.133,10.742,0.0,0
1582736997.85,13.672,21.973000000000006,30.762,17.09,0.0,0
1582736997.854,3.418,17.578,22.949,9.277,0.0,0
1582736997.8579998,-0.488,19.531,19.531,2.93,0.0,0
1582736997.8620002,7.324,18.555,28.32,1.953,0.0,0
1582736997.8660002,10.254,17.578,31.738000000000003,3.906,0.0,0
1582736997.869,15.625,21.484,29.785,9.277,0.0,0
1582736997.873,16.113,25.879,25.879,8.301,0.0,0
1582736997.877,19.043,14.16,26.367,16.602,0.0,0
1582736997.881,25.391,4.395,34.18,24.902,0.0,0
1582736997.885,24.414,15.137,30.762,24.414,0.0,0
1582736997.887,23.926,12.207,22.461,25.879,0.0,0
1582736997.891,30.273000000000003,16.602,19.531,26.367,0.0,0
1582736997.895,30.762,30.762,20.02,25.391,0.0,0
1582736997.899,33.691,22.949,15.137,27.832,0.0,0
1582736997.903,39.551,20.996,21.484,34.18,0.0,0
1582736997.907,22.949,35.156,27.344,26.367,0.0,0
1582736997.911,9.766,31.25,17.09,17.578,0.0,0
1582736997.914,13.184,24.414,20.02,19.531,0.0,0
1582736997.918,13.184,21.973000000000006,22.461,19.043,0.0,0
1582736997.9220002,11.23,23.926,20.996,12.695,0.0,0
1582736997.926,19.531,24.902,18.066,12.207,0.0,0
1582736997.93,24.414,23.926,18.555,22.949,0.0,0
1582736997.9320002,25.879,24.414,20.02,27.344,0.0,0
1582736997.936,28.32,7.812,15.625,25.879,0.0,0
1582736997.94,32.715,1.465,23.438,31.25,0.0,0
1582736997.944,31.738000000000003,20.996,26.367,27.344,0.0,0
1582736997.948,27.344,39.062,10.254,27.344,0.0,0
1582736997.952,28.32,43.457,13.672,32.715,0.0,0
1582736997.956,22.461,32.715,20.508000000000006,25.879,0.0,0
1582736997.959,18.555,25.391,14.648,23.438,0.0,0
1582736997.9629998,21.484,18.066,17.09,22.461,0.0,0
1582736997.967,21.484,11.23,21.973000000000006,20.508000000000006,0.0,0
1582736997.971,19.043,22.949,17.09,16.113,0.0,0
1582736997.975,20.02,29.297,11.23,14.16,0.0,0
1582736997.992,25.879,23.438,13.184,16.602,0.0,0
1582736997.996,20.508000000000006,12.207,14.648,12.695,0.0,0
1582736998.0,22.949,8.789,23.438,6.836,0.0,0
1582736998.004,26.855,25.879,30.273000000000003,-4.883,0.0,0
1582736998.008,26.855,31.738000000000003,14.648,-25.879,0.0,0
1582736998.012,36.621,30.762,11.23,-33.691,0.0,0
1582736998.016,29.785,39.551,23.926,-40.039,0.0,0
1582736998.019,25.879,35.645,24.902,-50.78100000000001,0.0,0
1582736998.0229998,31.738000000000003,30.762,18.066,-51.27,0.0,0
1582736998.0270002,32.715,27.344,18.555,-50.293,0.0,0
1582736998.031,33.691,8.301,27.344,-39.551,0.0,0
1582736998.035,33.691,2.441,28.32,-44.434,0.0,0
1582736998.0370002,31.25,29.297,24.902,-53.223,0.0,0
1582736998.041,20.508000000000006,39.062,24.414,-54.688,0.0,0
1582736998.045,15.137,30.762,26.855,-66.406,0.0,0
1582736998.049,11.23,21.973000000000006,21.484,-76.172,0.0,0
1582736998.053,12.695,14.648,11.719,-80.078,0.0,0
1582736998.0570002,17.09,19.043,12.695,-77.148,0.0,0
1582736998.061,24.414,20.508000000000006,18.555,-60.547,0.0,0
1582736998.064,20.996,16.602,19.531,-49.805,0.0,0
1582736998.0679998,11.23,19.043,18.066,-38.574,0.0,0
1582736998.072,20.02,10.742,15.137,-19.043,0.0,0
1582736998.076,24.902,-0.977,16.113,-4.883,0.0,0
1582736998.08,19.043,18.555,24.902,7.812,0.0,0
1582736998.082,15.625,34.18,28.809,11.719,0.0,0
1582736998.086,17.09,27.344,21.973000000000006,13.672,0.0,0
1582736998.09,23.926,23.438,16.113,19.043,0.0,0
1582736998.094,25.879,19.043,16.113,28.32,0.0,0
1582736998.0979998,23.926,19.531,20.508000000000006,36.621,0.0,0
1582736998.1020002,27.344,33.203,35.645,43.457,0.0,0
1582736998.106,20.996,33.691,28.32,42.969,0.0,0
1582736998.109,15.625,22.461,13.672,38.086,0.0,0
1582736998.113,20.996,15.625,18.066,39.551,0.0,0
1582736998.117,19.531,19.043,27.344,39.062,0.0,0
1582736998.121,18.066,12.207,26.855,37.109,0.0,0
1582736998.125,20.508000000000006,12.695,17.578,37.598,0.0,0
1582736998.127,13.184,31.25,19.043,36.621,0.0,0
1582736998.131,11.719,29.297,22.949,34.18,0.0,0
1582736998.135,15.625,25.879,17.09,35.156,0.0,0
1582736998.139,14.16,23.438,15.137,33.203,0.0,0
1582736998.143,15.625,19.531,13.184,31.738000000000003,0.0,0
1582736998.147,16.602,27.832,19.531,32.227,0.0,0
1582736998.151,21.484,21.484,28.809,31.25,0.0,0
1582736998.154,22.949,9.766,17.09,33.203,0.0,0
1582736998.158,25.391,18.066,17.09,37.598,0.0,0
1582736998.1620002,18.555,21.973000000000006,24.414,36.621,0.0,0
1582736998.166,19.043,19.043,22.949,39.062,0.0,0
1582736998.17,32.227,18.066,22.461,46.387,0.0,0
1582736998.1720002,25.391,11.23,18.555,46.875,0.0,0
1582736998.176,23.438,15.625,17.09,45.41,0.0,0
1582736998.18,22.461,20.996,16.113,40.527,0.0,0
1582736998.184,28.809,22.461,22.461,49.316,0.0,0
1582736998.188,26.855,1.953,37.109,49.316,0.0,0
1582736998.1920002,14.648,5.371,27.344,38.086,0.0,0
1582736998.196,15.137,27.344,20.508000000000006,41.992,0.0,0
1582736998.199,20.996,25.879,25.391,41.992,0.0,0
1582736998.2029998,29.785,31.25,26.855,43.457,0.0,0
1582736998.207,28.32,28.32,30.762,49.316,0.0,0
1582736998.211,20.996,13.672,30.762,50.78100000000001,0.0,0
1582736998.215,27.344,19.531,22.949,51.27,0.0,0
1582736998.217,26.367,31.25,24.414,47.363,0.0,0
1582736998.221,19.531,36.133,28.32,41.992,0.0,0
1582736998.225,18.066,30.762,30.762,39.551,0.0,0
1582736998.229,16.113,21.484,22.949,35.156,0.0,0
1582736998.2329998,21.973000000000006,24.902,14.648,33.203,0.0,0
1582736998.2370002,26.855,34.18,15.625,32.715,0.0,0
1582736998.2410002,24.414,26.367,13.184,33.203,0.0,0
1582736998.244,26.367,17.09,6.348,35.156,0.0,0
1582736998.248,27.832,17.578,11.23,35.156,0.0,0
1582736998.252,28.809,26.855,19.043,43.457,0.0,0
1582736998.256,31.738000000000003,27.344,16.602,49.805,0.0,0
1582736998.26,35.156,17.09,16.113,51.27,0.0,0
1582736998.262,32.715,11.23,28.32,51.27,0.0,0
1582736998.266,30.762,22.461,30.762,42.969,0.0,0
1582736998.27,28.32,30.762,15.625,33.691,0.0,0
1582736998.274,16.602,23.438,10.742,29.297,0.0,0
1582736998.278,19.531,22.949,13.672,28.809,0.0,0
1582736998.282,26.367,20.02,14.648,32.227,0.0,0
1582736998.286,18.555,17.09,14.16,34.18,0.0,0
1582736998.289,11.719,18.066,20.996,33.691,0.0,0
1582736998.293,12.695,13.184,17.09,36.133,0.0,0
1582736998.2970002,15.625,3.418,16.602,34.18,0.0,0
1582736998.301,17.578,9.277,26.855,29.785,0.0,1
1582736998.305,16.602,16.602,12.695,31.25,0.0,0
1582736998.3070002,23.926,15.137,6.348,34.668,0.0,0
1582736998.311,31.738000000000003,24.414,14.648,36.133,0.0,0
1582736998.315,21.973000000000006,41.01600000000001,15.625,34.18,0.0,0
1582736998.319,22.461,41.992,17.09,33.691,0.0,0
1582736998.323,20.02,25.879,21.973000000000006,34.18,0.0,0
1582736998.327,14.16,7.812,20.508000000000006,36.133,0.0,0
1582736998.331,16.113,15.625,13.184,29.297,0.0,0
1582736998.334,13.672,29.785,17.578,18.555,0.0,0
1582736998.3379998,13.184,19.043,26.367,20.02,0.0,0
1582736998.342,17.578,11.23,13.184,32.227,0.0,0
1582736998.346,25.391,24.414,7.324,36.621,0.0,0
1582736998.35,24.902,39.062,22.461,34.18,0.0,0
1582736998.367,23.438,36.621,22.461,33.203,0.0,0
1582736998.371,28.32,26.367,13.672,33.691,0.0,0
1582736998.375,33.203,21.973000000000006,17.578,41.504,0.0,0
1582736998.379,28.809,20.02,21.973000000000006,38.086,0.0,0
1582736998.383,22.949,19.043,19.043,34.18,0.0,0
1582736998.387,25.879,20.996,14.648,36.133,0.0,0
1582736998.391,28.809,17.578,15.625,36.621,0.0,0
1582736998.394,27.832,20.508000000000006,20.02,41.992,0.0,0
1582736998.3979998,29.297,29.297,25.879,44.434,0.0,0
1582736998.4020002,26.855,28.809,20.02,36.133,0.0,0
1582736998.406,24.414,31.25,2.441,32.227,0.0,0
1582736998.41,25.879,25.879,-7.812,29.785,0.0,0
1582736998.4120002,25.879,22.949,1.465,25.879,0.0,0
1582736998.416,27.344,23.926,16.113,26.367,0.0,0
1582736998.42,28.809,17.09,17.578,24.902,0.0,0
1582736998.424,21.973000000000006,7.324,11.719,20.02,0.0,0
1582736998.428,18.066,8.789,14.648,19.043,0.0,0
1582736998.4320002,12.695,14.648,19.043,18.066,0.0,0
1582736998.436,14.16,27.832,18.066,18.555,0.0,0
1582736998.439,17.09,38.574,12.207,20.02,0.0,0
1582736998.4429998,20.02,34.668,17.09,22.949,0.0,0
1582736998.447,26.855,25.391,25.391,27.832,0.0,0
1582736998.451,22.461,23.438,28.809,31.25,0.0,0
1582736998.455,22.949,19.531,34.668,38.574,0.0,0
1582736998.457,27.344,21.973000000000006,28.809,38.086,0.0,0
1582736998.461,24.902,26.367,25.391,36.133,0.0,0
1582736998.465,25.879,26.855,24.902,35.645,0.0,0
1582736998.469,31.25,30.762,28.32,38.574,0.0,0
1582736998.4729998,32.227,21.973000000000006,33.691,43.457,0.0,0
1582736998.4770002,30.762,19.531,31.25,42.969,0.0,0
1582736998.481,26.367,18.555,23.926,38.574,0.0,0
1582736998.484,24.902,15.137,19.531,40.527,0.0,0
1582736998.488,31.738000000000003,15.137,22.461,40.527,0.0,0
1582736998.492,26.367,4.395,35.645,33.203,0.0,0
1582736998.496,14.16,4.883,36.133,25.391,0.0,0
1582736998.5,12.695,23.926,24.414,25.879,0.0,0
1582736998.502,13.672,33.691,20.508000000000006,27.344,0.0,0
1582736998.506,19.531,34.18,19.531,31.738000000000003,0.0,0
1582736998.51,21.973000000000006,32.227,13.672,33.203,0.0,0
1582736998.514,22.949,24.902,22.461,26.855,0.0,0
1582736998.518,20.508000000000006,18.066,27.344,30.762,0.0,0
1582736998.522,26.855,14.648,17.09,37.109,0.0,0
1582736998.526,31.738000000000003,14.16,27.344,37.109,0.0,0
1582736998.529,24.414,23.438,29.297,36.133,0.0,0
1582736998.533,28.32,25.391,26.855,36.621,0.0,0
1582736998.5370002,27.344,22.461,20.508000000000006,31.738000000000003,0.0,0
1582736998.541,21.484,32.227,23.438,31.738000000000003,0.0,0
1582736998.545,25.879,30.762,31.25,31.738000000000003,0.0,0
1582736998.5470002,32.227,24.902,26.855,33.203,0.0,0
1582736998.551,34.668,25.391,26.855,41.01600000000001,0.0,0
1582736998.555,32.227,26.855,27.344,41.01600000000001,0.0,0
1582736998.559,31.25,23.438,34.18,40.527,0.0,0
1582736998.563,33.203,20.996,26.855,46.387,0.0,0
1582736998.5670002,27.832,3.418,13.672,47.852,0.0,0
1582736998.571,29.297,-13.672,20.02,45.41,0.0,0
1582736998.574,35.645,5.859,24.414,43.945,0.0,0
1582736998.5779998,26.367,25.879,29.785,40.527,0.0,0
1582736998.582,21.973000000000006,36.133,29.297,35.645,0.0,0
1582736998.586,31.25,35.156,24.414,31.738000000000003,0.0,0
1582736998.59,32.227,25.391,26.855,31.25,0.0,0
1582736998.592,30.762,20.996,29.297,31.738000000000003,0.0,0
1582736998.596,33.203,26.367,30.762,36.621,0.0,0
1582736998.6,28.32,24.902,20.996,37.598,0.0,0
1582736998.604,23.438,18.555,16.113,29.297,0.0,0
1582736998.6079998,22.949,8.301,14.16,24.902,0.0,0
1582736998.6120002,23.926,7.812,12.695,26.367,0.0,0
1582736998.6160002,26.367,22.949,14.648,27.832,0.0,0
1582736998.619,30.762,23.438,17.578,24.414,0.0,0
1582736998.623,30.273000000000003,23.926,18.555,24.902,0.0,0
1582736998.627,28.809,20.508000000000006,11.23,26.855,0.0,0
1582736998.631,23.926,16.602,15.137,22.461,0.0,0
1582736998.635,23.926,26.855,22.949,24.414,0.0,0
1582736998.637,24.902,20.508000000000006,18.555,18.066,0.0,0
1582736998.641,21.484,16.113,13.184,13.672,0.0,0
1582736998.645,24.902,20.996,18.555,17.09,0.0,0
1582736998.649,23.926,15.137,20.508000000000006,13.184,0.0,0
1582736998.653,19.043,20.508000000000006,19.531,16.602,0.0,0
1582736998.657,15.137,20.02,25.391,21.484,0.0,0
1582736998.661,14.648,25.879,18.066,16.602,0.0,0
1582736998.664,19.043,33.203,11.719,16.113,0.0,0
1582736998.668,19.531,28.809,12.695,16.602,0.0,0
1582736998.6720002,21.973000000000006,28.32,16.602,19.043,0.0,0
1582736998.676,19.531,23.438,18.555,17.09,0.0,0
1582736998.68,14.16,14.648,21.973000000000006,15.137,0.0,0
1582736998.6820002,21.484,20.02,22.461,18.555,0.0,0
1582736998.686,18.066,27.832,26.367,17.09,0.0,0
1582736998.69,12.695,19.531,20.02,15.625,0.0,0
1582736998.694,12.207,12.695,9.277,17.578,0.0,0
1582736998.698,8.301,12.207,23.926,14.648,0.0,0
1582736998.702,7.812,18.066,27.344,9.766,0.0,0
1582736998.706,14.16,27.344,20.508000000000006,16.602,0.0,0
1582736998.709,20.508000000000006,29.785,26.855,23.438,0.0,0
1582736998.7129998,17.578,24.902,33.203,23.926,0.0,0
1582736998.717,11.719,22.949,31.738000000000003,21.973000000000006,0.0,0
1582736998.721,13.184,0.0,25.879,17.578,0.0,0
1582736998.725,20.02,-16.113,18.066,16.602,0.0,0
1582736998.7429998,14.648,17.578,15.137,15.137,0.0,0
1582736998.7470002,8.789,40.039,25.391,12.207,0.0,0
1582736998.7510002,4.883,35.156,34.18,14.16,0.0,0
1582736998.755,0.0,22.461,26.367,13.672,0.0,0
1582736998.7589998,9.277,14.648,22.949,14.648,0.0,0
1582736998.7629998,14.648,15.137,33.691,16.113,0.0,0
1582736998.7670002,9.277,20.996,31.738000000000003,16.113,0.0,0
1582736998.77,12.695,17.578,19.531,19.043,0.0,0
1582736998.774,17.09,6.348,14.16,19.043,0.0,0
1582736998.778,20.996,19.531,22.949,20.996,0.0,0
1582736998.782,20.02,30.762,29.785,23.438,0.0,0
1582736998.786,15.625,29.297,21.484,21.484,0.0,0
1582736998.7870002,15.625,22.461,19.531,20.996,0.0,0
1582736998.791,14.16,5.371,18.555,20.02,0.0,0
1582736998.795,15.137,8.301,14.16,20.996,0.0,0
1582736998.799,20.02,30.273000000000003,17.578,31.25,0.0,0
1582736998.803,24.902,34.18,21.484,35.156,0.0,0
1582736998.8070002,24.414,27.344,26.367,29.785,0.0,0
1582736998.811,20.02,26.855,27.344,24.902,0.0,0
1582736998.814,16.113,29.297,22.949,21.973000000000006,0.0,0
1582736998.8179998,17.578,20.02,32.715,26.855,0.0,0
1582736998.822,15.625,12.695,29.785,21.484,0.0,0
1582736998.826,11.719,15.137,20.996,15.137,0.0,0
1582736998.83,15.137,15.625,22.949,19.043,0.0,0
1582736998.832,25.879,18.555,20.02,28.809,0.0,0
1582736998.836,25.879,9.277,21.973000000000006,34.668,0.0,0
1582736998.84,22.949,9.277,25.879,31.738000000000003,0.0,0
1582736998.844,24.902,30.762,28.809,24.414,0.0,0
1582736998.8479998,21.973000000000006,34.668,26.367,24.902,0.0,0
1582736998.8520002,21.973000000000006,29.785,24.902,32.715,0.0,0
1582736998.856,21.484,24.902,21.484,31.25,0.0,0
1582736998.859,19.043,16.113,19.043,27.832,0.0,0
1582736998.863,21.484,7.812,19.531,24.902,0.0,0
1582736998.867,16.113,6.348,20.508000000000006,15.625,0.0,0
1582736998.871,15.137,15.625,13.672,15.625,0.0,0
1582736998.875,21.484,21.973000000000006,14.648,24.902,0.0,0
1582736998.877,21.973000000000006,28.809,22.461,23.438,0.0,0
1582736998.881,18.555,29.785,19.531,19.531,0.0,0
1582736998.885,23.926,20.02,15.137,20.02,0.0,0
1582736998.889,30.273000000000003,16.113,19.043,25.879,0.0,0
1582736998.893,17.09,17.578,14.648,23.438,0.0,0
1582736998.897,7.324,15.625,10.742,16.602,0.0,0
1582736998.901,12.695,10.742,20.508000000000006,18.066,0.0,0
1582736998.904,19.531,9.277,18.555,19.531,0.0,0
1582736998.908,21.484,17.09,14.16,21.484,0.0,0
1582736998.9120002,14.648,19.043,18.066,19.531,0.0,0
1582736998.916,18.555,20.508000000000006,22.949,22.461,0.0,0
1582736998.92,27.344,23.438,27.832,28.32,0.0,0
1582736998.9220002,20.996,22.461,20.02,22.461,0.0,0
1582736998.926,11.719,23.438,14.648,16.113,0.0,0
1582736998.93,15.137,22.949,12.695,18.555,0.0,0
1582736998.934,28.32,15.137,12.207,26.367,0.0,0
1582736998.938,20.508000000000006,14.16,22.461,24.902,0.0,0
1582736998.9420002,7.324,24.414,22.949,13.672,0.0,0
1582736998.946,11.23,27.344,20.508000000000006,15.625,0.0,0
1582736998.949,20.508000000000006,19.043,18.066,15.625,0.0,0
1582736998.9529998,20.996,15.137,13.672,14.648,0.0,0
1582736998.957,13.184,18.066,17.578,12.207,0.0,0
1582736998.961,14.16,19.531,24.902,13.672,0.0,0
1582736998.965,16.113,32.715,21.973000000000006,19.531,0.0,0
1582736998.967,26.367,42.48,18.555,24.414,0.0,0
1582736998.971,28.809,34.18,21.484,24.902,0.0,0
1582736998.975,24.902,24.902,25.879,22.949,0.0,0
1582736998.979,28.32,30.762,29.297,29.297,0.0,0
1582736998.9829998,35.156,38.574,31.738000000000003,34.668,0.0,0
1582736998.9870002,38.574,33.691,34.668,37.109,0.0,0
1582736998.9910002,37.109,27.344,35.645,39.551,0.0,0
1582736998.994,34.18,28.32,40.039,41.01600000000001,0.0,0
1582736998.998,30.762,29.297,40.527,34.668,0.0,0
1582736999.002,29.785,28.32,36.621,27.832,0.0,0
1582736999.006,19.531,29.297,39.062,27.344,0.0,0
1582736999.01,10.254,29.785,43.457,25.391,0.0,0
1582736999.012,9.277,30.762,40.527,18.066,0.0,0
1582736999.016,1.953,33.691,38.574,10.742,0.0,0
1582736999.02,-9.766,33.203,37.109,-1.953,0.0,0
1582736999.024,-14.16,31.738000000000003,41.01600000000001,-10.254,0.0,0
1582736999.028,-14.16,32.227,42.969,-15.625,0.0,0
1582736999.032,-20.508000000000006,31.738000000000003,46.875,-24.902,0.0,0
1582736999.036,-36.621,34.18,43.945,-42.969,0.0,0
1582736999.039,-60.547,40.039,39.551,-62.5,0.0,0
1582736999.043,-75.195,33.691,48.34,-69.336,0.0,0
1582736999.0470002,-73.242,31.738000000000003,52.734,-67.87100000000001,0.0,0
1582736999.051,-83.49600000000002,34.668,60.059,-72.266,0.0,0
1582736999.055,-99.609,33.203,64.453,-94.238,0.0,0
1582736999.0570002,-102.051,33.203,62.5,-100.098,0.0,0
1582736999.061,-100.098,29.785,67.87100000000001,-94.727,0.0,0
1582736999.065,-103.516,31.738000000000003,64.941,-111.328,0.0,0
1582736999.069,-109.375,48.34,56.64100000000001,-117.676,0.0,0
1582736999.073,-106.934,52.246,55.176,-109.863,0.0,0
1582736999.077,-97.168,49.805,50.78100000000001,-104.004,0.0,0
1582736999.081,-83.984,50.78100000000001,61.523,-100.098,0.0,0
1582736999.084,-83.984,47.852,65.43,-101.562,0.0,0
1582736999.0879998,-85.449,39.551,62.012,-90.82,0.0,0
1582736999.092,-73.73,30.762,64.453,-74.219,0.0,0
1582736999.096,-59.082,27.832,58.594,-64.453,0.0,0
1582736999.1,-40.527,27.832,45.898,-47.363,0.0,0
1582736999.117,-30.273000000000003,33.691,38.574,-35.645,0.0,0
1582736999.121,-24.902,35.645,39.062,-27.344,0.0,0
1582736999.125,-8.301,29.785,37.109,-13.672,0.0,0
1582736999.129,12.695,32.227,34.668,-0.977,0.0,0
1582736999.133,24.902,35.156,41.504,16.602,0.0,0
1582736999.137,30.273000000000003,36.133,36.621,28.809,0.0,0
1582736999.141,45.898,25.879,24.414,38.086,0.0,0
1582736999.144,58.105,20.508000000000006,27.832,48.828,0.0,0
1582736999.1479998,62.988,36.133,27.344,55.176,0.0,0
1582736999.1520002,65.918,34.18,19.531,60.059,0.0,0
1582736999.156,67.87100000000001,17.09,9.277,67.87100000000001,0.0,0
1582736999.16,78.613,18.555,2.441,73.73,0.0,0
1582736999.1620002,78.125,20.02,2.93,69.824,0.0,0
1582736999.166,71.289,13.672,7.324,71.289,0.0,0
1582736999.17,79.102,21.484,5.859,78.613,0.0,0
1582736999.174,88.37899999999998,17.578,3.418,82.031,0.0,0
1582736999.178,80.566,11.23,1.953,83.008,0.0,0
1582736999.1820002,77.148,11.23,5.859,83.984,0.0,0
1582736999.186,83.984,10.742,-1.953,83.49600000000002,0.0,0
1582736999.189,83.008,11.719,-8.301,84.473,0.0,0
1582736999.1929998,82.52,7.812,2.441,86.426,0.0,0
1582736999.197,86.426,-6.836,6.348,79.59,0.0,0
1582736999.201,89.355,1.465,-0.977,82.52,0.0,0
1582736999.205,86.426,11.23,0.977,91.797,0.0,0
1582736999.207,84.961,-2.93,6.836,87.402,0.0,0
1582736999.211,77.637,10.254,5.859,73.73,0.0,0
1582736999.215,73.242,20.996,9.766,74.707,0.0,0
1582736999.219,78.613,18.555,11.719,84.473,0.0,0
1582736999.2229998,82.031,16.602,2.93,75.684,0.0,0
1582736999.2270002,76.66,16.602,-1.465,71.289,0.0,0
1582736999.231,68.848,18.555,-6.348,73.73,0.0,0
1582736999.234,67.383,14.16,-7.812,73.242,0.0,0
1582736999.238,72.75399999999998,9.766,-1.465,76.66,0.0,0
1582736999.242,71.777,10.742,2.441,77.148,0.0,0
1582736999.246,69.336,4.395,8.301,79.102,0.0,0
1582736999.25,73.242,2.441,11.23,79.59,0.0,0
1582736999.252,80.566,13.184,10.254,87.402,0.0,0
1582736999.256,79.102,23.438,14.648,91.309,0.0,0
1582736999.26,73.73,14.16,18.555,85.93799999999997,0.0,0
1582736999.264,71.289,-0.977,16.602,83.984,0.0,0
1582736999.268,70.801,1.953,12.207,83.008,0.0,0
1582736999.272,73.242,-0.977,10.742,79.102,0.0,0
1582736999.276,69.824,6.348,9.766,72.266,0.0,0
1582736999.279,58.105,26.367,12.695,69.824,0.0,0
1582736999.283,48.828,27.344,8.789,67.383,0.0,0
1582736999.2870002,51.27,16.113,5.859,58.594,0.0,0
1582736999.291,49.805,12.695,9.766,59.57,0.0,0
1582736999.295,50.78100000000001,14.16,18.066,63.477,0.0,0
1582736999.2970002,49.316,12.207,24.902,53.223,0.0,0
1582736999.301,43.945,12.695,16.113,45.41,0.0,0
1582736999.305,46.875,8.301,12.207,49.316,0.0,0
1582736999.309,49.805,9.766,11.23,48.828,0.0,0
1582736999.313,47.852,15.625,8.301,41.992,0.0,0
1582736999.3170002,52.246,10.742,10.254,49.316,0.0,0
1582736999.321,56.152,14.16,6.836,50.293,0.0,0
1582736999.324,54.688,23.438,3.906,39.062,0.0,0
1582736999.3279998,44.922,10.254,8.301,39.062,0.0,0
1582736999.332,39.551,8.789,6.836,52.734,0.0,0
1582736999.336,47.363,20.508000000000006,18.555,52.246,0.0,2
1582736999.34,38.574,18.066,22.949,43.945,0.0,0
1582736999.342,30.762,19.043,9.277,45.41,0.0,0
1582736999.346,32.227,20.508000000000006,6.348,40.039,0.0,0
1582736999.35,35.645,19.531,10.254,40.039,0.0,0
1582736999.354,34.668,23.926,18.555,42.969,0.0,0
1582736999.3579998,31.738000000000003,28.32,15.625,38.574,0.0,0
1582736999.3620002,32.715,20.508000000000006,10.254,33.203,0.0,0
1582736999.3660002,36.621,3.906,17.09,35.156,0.0,0
1582736999.369,39.062,9.766,18.066,34.18,0.0,0
1582736999.373,36.621,20.508000000000006,15.137,28.32,0.0,0
1582736999.377,37.598,13.184,12.695,26.855,0.0,0
1582736999.381,39.062,16.602,13.672,28.809,0.0,0
1582736999.385,39.062,21.973000000000006,5.371,31.25,0.0,0
1582736999.387,34.18,18.066,-5.371,28.32,0.0,0
1582736999.391,33.691,13.672,0.488,34.668,0.0,0
1582736999.395,36.133,15.625,11.719,37.109,0.0,0
1582736999.399,27.832,19.531,16.602,33.203,0.0,0
1582736999.403,17.578,10.742,15.625,33.203,0.0,0
1582736999.407,15.137,0.488,15.137,34.18,0.0,0
1582736999.411,20.508000000000006,8.301,15.625,38.574,0.0,0
1582736999.414,22.949,20.996,13.184,33.203,0.0,0
1582736999.418,16.113,26.367,18.066,28.809,0.0,0
1582736999.4220002,16.113,27.344,25.879,28.809,0.0,0
1582736999.426,14.648,22.461,17.578,25.391,0.0,0
1582736999.43,15.625,16.113,13.184,27.344,0.0,0
1582736999.4320002,18.066,17.09,19.043,25.879,0.0,0
1582736999.436,18.066,22.949,18.066,24.414,0.0,0
1582736999.44,12.695,18.555,14.648,25.879,0.0,0
1582736999.444,9.277,14.16,14.16,21.484,0.0,0
1582736999.448,15.625,6.836,17.578,18.555,0.0,0
1582736999.452,18.066,-7.812,18.555,18.555,0.0,0
1582736999.456,12.207,5.371,23.438,12.695,0.0,0
1582736999.459,14.648,26.367,26.855,20.508000000000006,0.0,0
1582736999.4629998,24.902,30.762,27.832,35.645,0.0,0
1582736999.467,32.227,22.461,38.574,42.48,0.0,0
1582736999.471,27.344,21.973000000000006,36.133,38.086,0.0,0
1582736999.475,22.461,32.715,22.461,33.691,0.0,0
1582736999.492,26.855,32.715,17.578,33.691,0.0,0
1582736999.496,24.414,30.762,11.23,30.762,0.0,0
1582736999.5,18.555,27.344,17.578,22.949,0.0,0
1582736999.504,21.484,25.879,27.344,29.785,0.0,0
1582736999.508,24.414,16.113,33.691,33.691,0.0,0
1582736999.512,26.367,9.277,32.227,26.367,0.0,0
1582736999.516,25.391,15.625,24.902,30.273000000000003,0.0,0
1582736999.519,22.461,20.996,23.438,29.785,0.0,0
1582736999.5229998,25.879,15.625,19.531,21.973000000000006,0.0,0
1582736999.5270002,32.715,27.344,30.273000000000003,31.738000000000003,0.0,0
1582736999.531,20.996,28.809,36.133,30.273000000000003,0.0,0
1582736999.535,12.207,22.949,24.902,24.902,0.0,0
1582736999.5370002,20.508000000000006,32.715,25.879,35.645,0.0,0
1582736999.541,18.066,27.344,17.578,31.25,0.0,0
1582736999.545,13.184,25.879,20.02,27.832,0.0,0
1582736999.549,17.09,29.297,32.715,33.203,0.0,0
1582736999.553,26.855,30.273000000000003,30.762,32.715,0.0,0
1582736999.5570002,30.273000000000003,25.879,28.32,31.738000000000003,0.0,0
1582736999.561,22.949,26.855,24.902,35.645,0.0,0
1582736999.564,24.902,32.715,26.855,33.203,0.0,0
1582736999.5679998,27.344,24.414,34.18,30.762,0.0,0
1582736999.572,22.461,11.23,33.691,28.809,0.0,0
1582736999.576,22.949,20.508000000000006,30.762,20.02,0.0,0
1582736999.58,20.996,30.273000000000003,26.367,19.043,0.0,0
1582736999.582,24.414,29.785,25.879,24.902,0.0,0
1582736999.586,26.855,23.926,25.879,30.273000000000003,0.0,0
1582736999.59,28.809,22.949,23.926,28.809,0.0,0
1582736999.594,33.203,37.109,19.043,30.273000000000003,0.0,0
1582736999.5979998,35.645,30.273000000000003,22.949,35.156,0.0,0
1582736999.6020002,35.645,23.926,26.367,34.668,0.0,0
1582736999.606,31.25,28.809,23.926,33.691,0.0,0
1582736999.609,27.832,28.32,24.902,29.297,0.0,0
1582736999.613,29.297,26.855,35.156,23.438,0.0,0
1582736999.617,22.461,23.926,34.668,20.996,0.0,0
1582736999.621,14.16,21.973000000000006,17.578,21.973000000000006,0.0,0
1582736999.625,18.066,19.531,14.648,23.438,0.0,0
1582736999.627,16.602,21.973000000000006,20.508000000000006,14.648,0.0,0
1582736999.631,23.438,26.855,23.438,18.555,0.0,0
1582736999.635,31.25,31.25,21.973000000000006,26.367,0.0,0
1582736999.639,34.668,26.367,28.809,29.297,0.0,0
1582736999.643,38.574,16.602,29.785,29.297,0.0,0
1582736999.647,35.156,8.301,15.625,26.367,0.0,0
1582736999.651,38.086,7.812,15.625,33.203,0.0,0
1582736999.654,42.969,33.203,28.32,37.109,0.0,0
1582736999.658,35.645,48.34,30.762,30.273000000000003,0.0,0
1582736999.6620002,31.25,33.203,24.414,17.578,0.0,0
1582736999.666,32.715,30.273000000000003,24.902,17.09,0.0,0
1582736999.67,35.645,35.156,32.227,32.227,0.0,0
1582736999.6720002,33.203,27.344,32.227,32.227,0.0,0
1582736999.676,28.32,23.926,22.461,25.391,0.0,0
1582736999.68,26.855,21.973000000000006,14.16,26.367,0.0,0
1582736999.684,30.762,21.484,14.648,28.809,0.0,0
1582736999.688,33.203,25.391,29.297,28.809,0.0,0
1582736999.6920002,31.25,14.16,30.273000000000003,25.879,0.0,0
1582736999.696,32.715,13.672,24.902,22.461,0.0,0
1582736999.699,31.738000000000003,24.414,25.879,21.484,0.0,0
1582736999.7029998,32.227,26.367,26.855,23.926,0.0,0
1582736999.707,29.785,33.691,24.414,22.461,0.0,0
1582736999.711,25.391,35.156,21.973000000000006,21.484,0.0,0
1582736999.715,31.738000000000003,33.203,23.438,29.297,0.0,0
1582736999.717,40.527,37.109,22.949,34.668,0.0,0
1582736999.721,38.574,33.203,12.695,28.809,0.0,0
1582736999.725,33.691,27.832,13.672,32.227,0.0,0
1582736999.729,26.855,32.227,15.625,29.785,0.0,0
1582736999.7329998,28.809,30.273000000000003,16.602,23.926,0.0,0
1582736999.7370002,32.227,21.484,22.949,24.902,0.0,0
1582736999.7410002,30.273000000000003,13.672,20.996,23.438,0.0,0
1582736999.744,30.273000000000003,17.09,19.043,29.785,0.0,0
1582736999.748,23.438,31.25,16.602,25.879,0.0,0
1582736999.752,24.414,34.668,12.207,19.531,0.0,0
1582736999.756,22.461,31.738000000000003,6.348,20.996,0.0,0
1582736999.76,15.625,25.391,17.09,23.438,0.0,0
1582736999.762,26.855,24.902,21.484,27.344,0.0,0
1582736999.766,27.832,30.762,10.742,26.367,0.0,0
1582736999.77,20.508000000000006,28.809,11.719,25.879,0.0,0
1582736999.774,23.438,24.414,9.277,22.949,0.0,0
1582736999.778,38.574,18.555,10.742,27.832,0.0,0
1582736999.782,41.01600000000001,22.949,16.113,35.645,0.0,0
1582736999.786,33.203,35.156,18.066,29.785,0.0,0
1582736999.789,29.785,33.691,23.438,28.809,0.0,0
1582736999.793,25.879,26.855,30.762,31.25,0.0,0
1582736999.7970002,27.832,24.902,31.25,28.32,0.0,0
1582736999.801,27.344,29.297,27.344,21.484,0.0,0
1582736999.805,25.879,28.809,22.949,18.066,0.0,0
1582736999.8070002,25.879,30.273000000000003,18.555,20.996,0.0,0
1582736999.811,26.367,30.762,20.02,26.855,0.0,0
1582736999.815,23.438,29.297,23.438,26.855,0.0,0
1582736999.819,22.461,32.715,25.879,28.32,0.0,0
1582736999.823,31.738000000000003,22.949,31.25,33.203,0.0,0
1582736999.827,26.367,16.602,23.926,30.762,0.0,0
1582736999.831,20.508000000000006,25.391,18.066,24.902,0.0,0
1582736999.834,21.973000000000006,24.414,20.996,20.508000000000006,0.0,0
1582736999.8379998,16.602,15.625,17.09,15.625,0.0,0
1582736999.842,19.531,27.344,19.043,21.484,0.0,0
1582736999.846,20.996,35.645,15.625,24.902,0.0,0
1582736999.85,20.02,26.367,16.113,22.949,0.0,0
1582736999.867,19.531,21.973000000000006,15.625,27.344,0.0,0
1582736999.871,18.555,23.438,9.766,27.832,0.0,0
1582736999.875,24.902,21.973000000000006,18.066,26.367,0.0,0
1582736999.879,23.438,22.461,28.32,24.902,0.0,0
1582736999.883,18.555,24.414,30.273000000000003,23.438,0.0,0
1582736999.887,20.996,27.344,26.367,21.484,0.0,0
1582736999.891,12.207,22.461,22.949,14.648,0.0,0
1582736999.894,7.812,11.719,29.297,14.16,0.0,0
1582736999.8979998,8.301,5.859,27.832,12.695,0.0,0
1582736999.9020002,12.207,2.93,17.578,11.719,0.0,0
1582736999.906,17.09,8.789,14.648,11.719,0.0,0
1582736999.91,19.043,28.32,17.578,12.207,0.0,0
1582736999.9120002,16.113,32.715,18.066,15.137,0.0,0
1582736999.916,11.23,24.414,20.996,14.648,0.0,0
1582736999.92,16.113,17.09,25.391,15.137,0.0,0
1582736999.924,23.926,11.23,26.855,12.695,0.0,0
1582736999.928,19.043,16.113,21.484,12.207,0.0,0
1582736999.9320002,14.648,24.414,19.043,18.066,0.0,0
1582736999.936,19.531,30.762,23.926,20.508000000000006,0.0,0
1582736999.939,22.949,26.367,28.809,25.391,0.0,0
1582736999.9429998,23.926,17.578,29.785,29.297,0.0,0
1582736999.947,23.438,23.438,33.691,30.273000000000003,0.0,0
1582736999.951,20.996,22.461,29.785,30.762,0.0,0
1582736999.955,23.438,16.602,24.902,29.785,0.0,0
1582736999.957,22.461,30.762,33.203,26.367,0.0,0
1582736999.961,20.02,34.18,29.297,24.414,0.0,0
1582736999.965,20.02,29.785,25.391,28.809,0.0,0
1582736999.969,23.438,23.926,29.297,32.227,0.0,0
1582736999.9729998,36.621,21.973000000000006,29.785,31.738000000000003,0.0,0
1582736999.9770002,37.109,26.367,32.227,31.25,0.0,0
1582736999.981,28.809,15.625,28.32,28.809,0.0,0
1582736999.984,30.273000000000003,12.695,26.855,28.32,0.0,0
1582736999.988,30.762,29.297,34.668,27.344,0.0,0
1582736999.992,27.344,30.273000000000003,33.691,27.832,0.0,0
1582736999.996,20.02,18.555,30.273000000000003,27.344,0.0,0
1582737000.0,19.043,24.902,32.227,25.879,0.0,0
1582737000.002,21.484,31.25,32.227,29.297,0.0,0
1582737000.006,23.926,22.461,35.156,33.691,0.0,0
1582737000.01,20.508000000000006,9.277,36.621,31.25,0.0,0
1582737000.014,17.09,15.137,26.367,26.855,0.0,0
1582737000.018,17.578,26.367,18.555,21.973000000000006,0.0,0
1582737000.022,25.391,23.926,23.438,20.996,0.0,0
1582737000.026,25.391,23.438,26.367,23.926,0.0,0
1582737000.029,16.602,18.066,25.391,23.926,0.0,0
1582737000.033,19.043,14.648,25.879,22.461,0.0,0
1582737000.0370002,25.879,19.043,22.461,23.926,0.0,0
1582737000.041,28.32,17.09,24.414,28.32,0.0,0
1582737000.045,27.344,13.184,28.809,30.273000000000003,0.0,0
1582737000.0470002,28.809,20.508000000000006,27.832,27.832,0.0,0
1582737000.051,29.297,29.785,26.367,26.855,0.0,0
1582737000.055,28.32,27.832,22.949,24.902,0.0,0
1582737000.059,23.926,24.902,13.184,21.484,0.0,0
1582737000.063,22.949,26.855,15.625,18.555,0.0,0
1582737000.0670002,21.484,21.973000000000006,26.855,19.043,0.0,0
1582737000.071,21.973000000000006,18.555,33.691,25.391,0.0,0
1582737000.074,23.438,19.043,34.18,24.902,0.0,0
1582737000.0779998,20.02,17.578,33.691,20.02,0.0,0
1582737000.082,18.555,18.555,29.785,19.531,0.0,0
1582737000.086,25.391,21.484,28.809,26.855,0.0,0
1582737000.09,28.809,29.297,27.832,30.762,0.0,0
1582737000.092,24.414,31.25,23.926,24.414,0.0,0
1582737000.096,21.484,22.949,21.973000000000006,21.973000000000006,0.0,0
1582737000.1,16.113,22.949,17.578,22.461,0.0,0
1582737000.104,13.672,24.902,18.066,23.438,0.0,0
1582737000.1079998,14.648,18.555,21.484,20.996,0.0,0
1582737000.1120002,20.02,20.996,21.484,23.926,0.0,0
1582737000.1160002,24.902,20.996,20.996,22.949,0.0,0
1582737000.119,25.391,15.137,14.16,19.043,0.0,0
1582737000.123,24.414,14.648,11.719,20.996,0.0,0
1582737000.127,29.297,16.602,17.09,22.949,0.0,0
1582737000.131,33.203,21.973000000000006,12.695,25.879,0.0,0
1582737000.135,30.762,20.508000000000006,14.16,26.855,0.0,0
1582737000.137,27.344,20.996,22.461,27.344,0.0,0
1582737000.141,22.949,18.555,27.344,24.902,0.0,0
1582737000.145,21.973000000000006,21.484,19.531,21.484,0.0,0
1582737000.149,17.578,25.391,18.066,21.484,0.0,0
1582737000.153,16.113,26.855,23.926,21.484,0.0,0
1582737000.157,15.625,25.391,20.508000000000006,25.391,0.0,0
1582737000.161,12.207,11.719,17.578,21.973000000000006,0.0,0
1582737000.164,17.578,15.625,20.02,19.043,0.0,0
1582737000.168,17.09,16.602,20.508000000000006,17.578,0.0,0
1582737000.1720002,13.672,4.883,18.555,18.066,0.0,0
1582737000.176,14.648,6.348,16.602,18.066,0.0,0
1582737000.18,10.742,13.184,7.812,17.09,0.0,0
1582737000.1820002,13.184,27.344,2.93,20.508000000000006,0.0,0
1582737000.186,19.531,23.926,8.789,21.973000000000006,0.0,0
1582737000.19,16.602,19.043,11.23,27.832,0.0,0
1582737000.194,25.879,29.297,16.602,39.062,0.0,0
1582737000.198,26.367,29.297,25.879,34.18,0.0,0
1582737000.202,18.066,25.879,26.855,27.344,0.0,0
1582737000.206,23.438,22.949,25.391,27.344,0.0,0
1582737000.209,20.996,14.648,24.902,21.973000000000006,0.0,0
1582737000.2129998,20.02,15.625,23.926,26.855,0.0,0
1582737000.217,19.531,25.391,20.508000000000006,24.414,0.0,0
1582737000.221,16.602,29.297,19.531,13.672,0.0,0
1582737000.225,17.09,26.855,19.531,15.625,0.0,0
1582737000.242,19.531,24.902,19.043,21.973000000000006,0.0,0
1582737000.246,20.996,21.484,21.973000000000006,20.508000000000006,0.0,0
1582737000.25,12.207,11.23,15.625,11.23,0.0,0
1582737000.254,10.742,2.93,6.836,12.695,0.0,0
1582737000.258,16.602,12.207,5.859,14.648,0.0,0
1582737000.262,15.625,24.902,8.301,11.23,0.0,0
1582737000.266,13.672,23.438,15.137,13.672,0.0,0
1582737000.269,13.672,17.578,7.324,17.09,0.0,0
1582737000.2729998,14.648,15.625,8.789,17.09,0.0,0
1582737000.2770002,18.555,17.09,23.438,19.531,0.0,0
1582737000.281,14.16,5.859,23.926,17.578,0.0,0
1582737000.285,20.02,3.418,20.996,20.508000000000006,0.0,0
1582737000.2870002,20.996,15.625,26.855,25.391,0.0,0
1582737000.291,11.23,18.066,22.949,18.066,0.0,0
1582737000.295,19.043,13.672,7.812,15.137,0.0,0
1582737000.299,18.555,7.812,5.859,19.531,0.0,0
1582737000.303,16.113,19.043,12.695,23.926,0.0,0
1582737000.3070002,18.555,20.02,15.137,22.461,0.0,0
1582737000.311,11.719,7.812,6.836,10.254,0.0,0
1582737000.314,5.371,16.113,7.812,7.324,0.0,0
1582737000.3179998,5.859,19.531,12.207,11.719,0.0,0
1582737000.322,14.16,19.043,10.742,15.625,0.0,0
1582737000.326,13.672,11.23,5.859,10.742,0.0,0
1582737000.33,10.742,4.395,4.395,6.836,0.0,0
1582737000.332,10.254,15.625,10.742,13.184,0.0,0
1582737000.336,5.371,19.043,18.066,11.719,0.0,0
1582737000.34,14.16,22.949,16.113,13.184,0.0,0
1582737000.344,17.578,23.926,8.789,13.672,0.0,0
1582737000.3479998,14.648,17.578,9.766,13.672,0.0,0
1582737000.3520002,14.648,19.043,18.555,17.09,0.0,0
1582737000.356,15.625,26.367,22.461,12.207,0.0,0
1582737000.359,13.672,28.809,25.879,12.695,0.0,0
1582737000.363,15.137,22.949,24.902,15.625,0.0,0
1582737000.367,16.602,20.02,27.344,15.625,0.0,0
1582737000.371,16.602,19.531,30.762,18.066,0.0,0
1582737000.375,19.043,23.926,24.902,19.531,0.0,0
1582737000.377,20.996,27.832,29.785,20.996,0.0,0
1582737000.381,18.555,22.949,28.809,18.555,0.0,0
1582737000.385,19.043,23.438,15.137,14.16,0.0,0
1582737000.389,21.973000000000006,26.367,10.742,11.719,0.0,0
1582737000.393,12.695,28.32,15.625,14.16,0.0,0
1582737000.397,11.719,26.367,24.902,18.066,0.0,0
1582737000.401,21.484,14.16,27.344,21.484,0.0,0
1582737000.404,21.484,12.695,22.461,23.438,0.0,2
1582737000.408,15.625,22.461,30.762,15.625,0.0,0
1582737000.4120002,13.184,25.879,30.762,13.672,0.0,0
1582737000.416,15.137,17.578,17.578,16.113,0.0,0
1582737000.42,18.066,8.789,16.602,15.625,0.0,0
1582737000.4220002,12.695,11.719,17.578,17.578,0.0,0
1582737000.426,10.742,20.508000000000006,14.648,20.996,0.0,0
1582737000.43,21.484,20.02,15.137,23.926,0.0,0
1582737000.434,27.344,21.484,21.484,28.809,0.0,0
1582737000.438,18.066,15.137,22.461,25.879,0.0,0
1582737000.4420002,17.578,16.602,23.926,23.438,0.0,0
1582737000.446,20.02,22.949,21.973000000000006,22.461,0.0,0
1582737000.449,18.066,24.902,20.02,21.484,0.0,0
1582737000.4529998,24.902,26.367,22.461,17.09,0.0,0
1582737000.457,26.367,22.949,18.066,13.672,0.0,0
1582737000.461,17.09,25.879,14.648,23.926,0.0,0
1582737000.465,15.137,15.625,19.531,27.344,0.0,0
1582737000.467,19.043,18.066,19.043,23.926,0.0,0
1582737000.471,17.09,31.25,17.578,17.578,0.0,0
1582737000.475,19.531,37.109,22.949,15.625,0.0,0
1582737000.479,17.578,38.086,21.484,18.555,0.0,0
1582737000.4829998,14.648,20.02,11.719,18.066,0.0,0
1582737000.4870002,18.555,8.301,15.625,15.137,0.0,0
1582737000.4910002,17.09,20.996,23.438,14.16,0.0,0
1582737000.494,12.695,36.133,15.137,15.625,0.0,0
1582737000.498,15.625,31.25,15.625,17.09,0.0,0
1582737000.502,16.113,24.414,21.973000000000006,23.926,0.0,0
1582737000.506,19.531,19.043,30.762,32.715,0.0,0
1582737000.51,23.438,13.672,25.391,33.691,0.0,0
1582737000.512,21.484,20.996,10.254,27.832,0.0,0
1582737000.516,30.762,24.902,14.16,32.227,0.0,0
1582737000.52,31.25,20.996,23.438,33.203,0.0,0
1582737000.524,25.879,16.602,24.414,27.832,0.0,0
1582737000.528,24.414,20.508000000000006,18.066,27.344,0.0,0
1582737000.532,22.461,29.297,18.555,23.438,0.0,0
1582737000.536,24.902,33.691,21.973000000000006,20.508000000000006,0.0,0
1582737000.539,23.926,36.133,22.461,16.602,0.0,0
1582737000.543,20.996,28.809,22.461,15.137,0.0,0
1582737000.5470002,24.414,13.672,19.531,20.996,0.0,0
1582737000.551,26.367,13.672,21.484,24.902,0.0,0
1582737000.555,31.25,22.461,32.227,29.297,0.0,0
1582737000.5570002,36.133,24.902,35.156,35.156,0.0,0
1582737000.561,34.668,18.066,27.344,35.645,0.0,0
1582737000.565,36.621,18.555,19.043,37.598,0.0,0
1582737000.569,29.785,24.902,20.996,32.715,0.0,0
1582737000.573,27.832,30.762,19.531,22.949,0.0,0
1582737000.577,33.691,30.762,22.461,25.391,0.0,0
1582737000.581,26.367,18.555,20.508000000000006,27.344,0.0,0
1582737000.584,16.113,15.137,16.113,19.043,0.0,0
1582737000.5879998,12.695,16.602,18.555,13.672,0.0,0
1582737000.592,12.207,15.625,17.578,16.113,0.0,0
1582737000.596,19.043,10.742,18.066,19.043,0.0,0
1582737000.6,20.996,8.789,24.414,17.578,0.0,0
1582737000.617,19.531,18.066,20.996,19.531,0.0,0
1582737000.621,21.484,23.438,18.066,22.949,0.0,0
1582737000.625,21.484,20.508000000000006,25.879,24.414,0.0,0
1582737000.629,28.32,29.297,26.367,27.832,0.0,0
1582737000.633,33.203,25.391,30.273000000000003,29.785,0.0,0
1582737000.637,30.273000000000003,19.531,34.668,29.785,0.0,0
1582737000.641,31.25,31.738000000000003,36.621,27.344,0.0,0
1582737000.644,26.367,32.227,26.367,17.09,0.0,0
1582737000.6479998,21.973000000000006,30.273000000000003,22.949,20.508000000000006,0.0,0
1582737000.6520002,21.973000000000006,26.367,27.344,20.508000000000006,0.0,0
1582737000.656,20.02,19.043,13.184,12.207,0.0,0
1582737000.66,19.043,8.301,6.348,16.113,0.0,0
1582737000.6620002,13.672,8.301,11.23,14.16,0.0,0
1582737000.666,19.043,31.738000000000003,16.602,17.578,0.0,0
1582737000.67,17.578,36.133,14.16,25.391,0.0,0
1582737000.674,12.207,31.738000000000003,12.207,20.996,0.0,0
1582737000.678,15.625,25.391,20.508000000000006,19.531,0.0,0
1582737000.6820002,20.508000000000006,18.555,21.484,24.414,0.0,0
1582737000.686,21.484,25.879,21.484,27.344,0.0,0
1582737000.689,21.484,29.297,26.855,24.414,0.0,0
1582737000.6929998,27.832,21.973000000000006,25.391,20.996,0.0,0
1582737000.697,31.25,20.996,20.996,20.996,0.0,0
1582737000.701,19.043,14.648,19.043,16.602,0.0,0
1582737000.705,23.438,6.348,18.066,20.996,0.0,0
1582737000.707,25.879,17.09,20.508000000000006,31.738000000000003,0.0,0
1582737000.711,22.461,26.855,19.043,24.902,0.0,0
1582737000.715,17.578,30.762,15.137,11.719,0.0,0
1582737000.719,9.766,32.227,18.066,15.137,0.0,0
1582737000.7229998,12.207,21.484,20.508000000000006,21.484,0.0,0
1582737000.7270002,14.648,16.113,13.672,21.484,0.0,0
1582737000.731,21.484,20.02,20.508000000000006,26.855,0.0,0
1582737000.734,20.508000000000006,20.508000000000006,29.297,25.391,0.0,0
1582737000.738,16.113,21.484,19.043,18.066,0.0,0
1582737000.742,23.438,22.461,12.695,20.508000000000006,0.0,0
1582737000.746,20.508000000000006,22.461,8.789,18.555,0.0,0
1582737000.75,16.113,17.09,10.254,14.648,0.0,0
1582737000.752,19.531,21.484,21.973000000000006,17.578,0.0,0
1582737000.756,20.508000000000006,23.438,22.949,17.09,0.0,0
1582737000.76,12.207,15.137,18.066,13.184,0.0,0
1582737000.764,10.742,9.766,20.996,16.113,0.0,0
1582737000.768,15.625,6.348,26.855,20.02,0.0,0
1582737000.772,9.277,15.137,22.949,16.113,0.0,0
1582737000.776,5.371,23.926,9.277,13.672,0.0,0
1582737000.779,7.812,27.344,2.93,12.695,0.0,0
1582737000.783,14.16,33.203,6.348,15.137,0.0,0
1582737000.7870002,17.09,29.785,18.066,17.09,0.0,0
1582737000.791,19.043,19.531,25.879,15.137,0.0,0
1582737000.795,19.043,20.996,28.32,22.461,0.0,0
1582737000.7970002,17.09,17.578,31.25,23.438,0.0,0
1582737000.801,11.719,9.766,21.973000000000006,15.625,0.0,0
1582737000.805,12.695,14.648,15.625,12.695,0.0,0
1582737000.809,15.625,15.137,16.113,9.277,0.0,0
1582737000.813,14.648,20.02,11.23,11.719,0.0,0
1582737000.8170002,18.555,26.367,12.207,15.625,0.0,0
1582737000.821,23.438,28.809,14.16,21.484,0.0,0
1582737000.824,20.02,28.809,16.113,21.973000000000006,0.0,0
1582737000.8279998,18.066,29.297,18.555,20.02,0.0,0
