timestamps,TP9,AF7,AF8,TP10,Right AUX,Marker0
1581628667,28.809,-8.301,62.5,30.762,0,0
1581628667,48.34,-39.551,54.688,44.434,0,0
1581628667,84.473,-28.809,43.457,38.574,0,0
1581628667,66.895,-40.039,29.297,68.848,0,0
1581628667,58.105,-48.34,10.742,83.008,0,0
1581628667,55.664,1.465,32.715,58.105,0,0
1581628667,20.996,71.777,17.09,53.223,0,0
1581628667,40.527,96.68,-9.766,43.457,0,0
1581628667,50.781,41.992,1.465,56.641,0,0
1581628667,76.172,-21.484,6.836,59.57,0,0
1581628667,120.605,-36.133,53.711,71.289,0,0
1581628667,105.469,-2.93,74.707,82.52,0,0
1581628667,68.848,73.73,55.176,63.965,0,0
1581628667,86.914,13.672,48.34,82.031,0,0
1581628667,126.465,-82.52,46.387,87.891,0,0
1581628667,97.168,-3.906,32.715,47.363,0,0
1581628667,58.594,123.047,28.809,44.434,0,0
1581628667,46.875,99.609,41.992,69.336,0,0
1581628667,62.988,22.949,46.875,67.871,0,0
1581628667,83.496,27.344,25.879,63.477,0,0
1581628667,89.844,0,-15.625,85.938,0,0
1581628667,100.586,-104.004,-5.371,123.535,0,0
1581628667,98.633,-60.059,49.316,123.047,0,0
1581628667,102.539,56.152,68.848,65.918,0,0
1581628667,83.984,78.125,49.316,60.547,0,0
1581628667,55.664,57.617,43.457,70.312,0,0
1581628667,93.75,18.066,41.992,85.938,0,0
1581628667,94.727,-39.551,50.781,93.262,0,0
1581628667,69.336,-19.043,62.988,86.914,0,0
1581628667,67.871,48.34,50.293,78.125,0,0
1581628667,39.551,47.852,38.086,71.777,0,0
1581628667,30.762,9.766,25.391,54.199,0,0
1581628667,50.293,-13.184,28.32,40.527,0,0
1581628667,58.105,3.418,36.133,41.504,0,0
1581628667,31.25,15.137,27.832,17.578,0,0
1581628667,25.879,-26.367,22.461,19.531,0,0
1581628667,29.297,-78.125,24.414,16.113,0,0
1581628667,-20.996,-18.066,22.461,-12.695,0,0
1581628667,-63.965,55.176,17.578,-42.969,0,0
1581628667,-66.406,0,19.043,-71.289,0,0
1581628667,-87.891,-110.352,32.715,-80.078,0,0
1581628667,-119.629,-65.43,8.789,-91.797,0,0
1581628667,-147.949,23.926,-38.086,-98.145,0,0
1581628667,-130.371,44.922,-6.348,-111.328,0,0
1581628667,-116.211,37.598,47.363,-122.07,0,0
1581628667,-98.145,-35.645,24.414,-128.906,0,0
1581628667,-99.121,4.883,-0.977,-103.027,0,0
1581628667,-104.004,31.738,40.527,-77.148,0,0
1581628667,-62.012,-5.859,75.195,-81.055,0,0
1581628667,-51.758,-107.422,58.105,-54.688,0,0
1581628667,-57.129,-156.25,46.875,-21.484,0,0
1581628667,-32.715,-10.742,58.105,-25.391,0,0
1581628667,-41.992,74.219,57.617,-42.48,0,0
1581628667,-52.734,88.867,23.438,-51.27,0,0
1581628667,-24.902,40.039,17.578,-50.781,0,0
1581628667,-5.859,-8.789,58.105,-10.742,0,0
1581628667,-7.812,-31.25,70.312,8.301,0,0
1581628667,27.344,-33.691,42.48,7.812,0,0
1581628667,35.645,-69.336,24.414,28.32,0,0
1581628667,-1.465,-71.777,27.832,8.301,0,0
1581628667,26.367,-9.277,38.574,-5.371,0,0
1581628667,23.926,3.906,36.621,20.02,0,0
1581628667,21.484,36.133,27.832,29.297,0,0
1581628667,22.949,70.312,38.086,62.012,0,0
1581628667,3.418,27.832,20.508,46.387,0,0
1581628667,24.902,-31.25,23.438,11.719,0,0
1581628667,62.5,-64.941,61.035,58.105,0,0
1581628667,89.844,-90.332,65.43,90.332,0,0
1581628667,71.289,-81.543,30.762,61.035,0,0
1581628667,50.781,-31.25,22.949,49.805,0,0
1581628667,49.316,36.621,37.598,56.641,0,0
1581628667,53.711,100.586,30.762,66.895,0,0
1581628667,51.27,92.285,16.602,64.941,0,0
1581628667,40.527,60.059,3.906,47.852,0,0
1581628667,49.316,-47.852,-0.488,73.242,0,0
1581628667,61.523,-77.637,14.648,83.496,0,0
1581628667,56.152,49.316,34.668,64.941,0,0
1581628667,42.48,52.246,37.598,49.805,0,0
1581628667,72.266,-22.461,40.527,61.035,0,0
1581628667,90.332,-90.332,42.48,77.637,0,0
1581628667,42.48,-10.742,42.48,61.523,0,0
1581628667,20.996,111.816,40.527,42.969,0,0
1581628667,45.41,102.539,32.227,47.363,0,0
1581628667,62.012,58.594,35.156,62.012,0,0
1581628667,56.641,-35.156,35.645,61.035,0,0
1581628667,61.523,-49.316,29.297,50.293,0,0
1581628667,45.898,53.711,28.32,25.879,0,0
1581628667,19.531,83.984,26.855,18.555,0,0
1581628667,18.555,57.617,16.113,27.344,0,0
1581628667,0.977,56.641,3.906,12.695,0,0
1581628667,-7.324,22.949,15.137,-26.855,0,0
1581628667,-12.695,-45.41,29.297,-35.645,0,0
1581628667,-16.113,-43.945,37.598,-37.598,0,0
1581628667,-49.316,42.969,27.344,-50.781,0,0
1581628667,-69.336,86.426,-16.113,-54.688,0,0
1581628667,-70.312,30.762,-7.324,-61.523,0,0
1581628667,-78.613,-13.184,21.484,-74.219,0,0
1581628667,-68.359,-10.742,-6.836,-74.219,0,0
1581628667,-51.27,-62.012,-13.672,-62.5,0,0
1581628667,-64.941,-48.34,20.02,-53.711,0,0
1581628667,-87.891,121.582,26.367,-65.918,0,0
1581628667,-87.891,117.188,21.484,-62.988,0,0
1581628667,-76.172,64.453,40.039,-54.199,0,0
1581628667,-27.344,18.555,81.543,-29.297,0,0
1581628667,18.066,-150.391,87.891,-11.719,0,0
1581628667,-10.254,-14.648,56.641,-13.672,0,0
1581628667,-37.109,179.688,56.641,-32.227,0,0
1581628667,-40.039,127.441,67.871,-46.387,0,0
1581628667,-51.758,91.309,51.758,-26.855,0,0
1581628667,-43.945,78.125,26.855,-20.996,0,0
1581628667,-21.484,48.828,19.043,-15.137,0,0
1581628667,10.254,16.113,54.688,5.371,0,0
1581628667,46.875,-113.281,66.895,42.48,0,0
1581628667,82.52,-138.184,22.461,49.316,0,0
1581628667,79.102,4.395,19.043,46.875,0,0
1581628667,57.129,75.195,52.734,83.008,0,0
1581628667,52.734,42.48,37.598,90.82,0,0
1581628667,65.918,10.254,18.555,52.734,0,0
1581628667,72.266,40.039,34.668,41.016,0,0
1581628667,62.012,71.289,44.434,59.57,0,0
1581628667,70.312,42.969,36.133,64.453,0,0
1581628667,106.445,-54.199,29.297,89.844,0,0
1581628667,111.328,-73.73,44.922,126.465,0,0
1581628667,90.332,2.93,28.32,111.328,0,0
1581628667,102.051,20.996,-15.625,92.773,0,0
1581628667,94.727,61.523,9.277,99.121,0,0
1581628667,96.68,97.656,41.016,84.473,0,0
1581628667,95.215,2.93,50.781,57.617,0,0
1581628667,54.199,34.668,35.645,50.781,0,0
1581628667,52.734,100.098,-17.578,71.289,0,0
1581628667,85.938,17.578,10.742,85.449,0,0
1581628667,75.195,-2.93,57.129,88.379,0,0
1581628667,48.34,43.945,53.711,58.105,0,0
1581628667,52.246,22.461,42.48,43.457,0,0
1581628667,67.383,-33.203,29.785,58.594,0,0
1581628667,73.242,-8.301,26.855,51.758,0,0
1581628667,73.73,94.238,37.598,62.988,0,0
1581628667,56.152,40.527,36.621,57.129,0,0
1581628667,43.457,-54.199,18.555,53.711,0,0
1581628667,43.945,0.977,6.836,66.406,0,0
1581628667,47.363,59.57,-15.625,67.383,0,0
1581628667,74.707,49.316,-8.789,57.617,0,0
1581628667,64.453,-38.086,31.738,34.668,0,0
1581628667,56.641,-110.84,54.688,55.176,0,0
1581628667,69.824,-20.508,47.363,66.406,0,0
1581628667,68.359,116.699,38.574,52.734,0,0
1581628667,79.102,98.145,61.035,73.242,0,0
1581628667,63.477,-31.738,44.922,93.75,0,0
1581628667,66.895,-89.355,4.883,102.539,0,0
1581628667,75.195,-52.246,38.086,81.055,0,0
1581628667,57.617,20.508,58.594,62.012,0,0
1581628667,53.223,103.027,57.129,40.039,0,0
1581628667,64.453,114.258,36.621,39.062,0,0
1581628667,70.801,99.609,16.602,67.383,0,0
1581628667,80.566,-52.734,55.664,91.309,0,0
1581628667,92.285,-118.652,52.734,78.613,0,0
1581628667,55.664,50.781,31.738,46.875,0,0
1581628667,28.809,116.699,26.855,57.617,0,0
1581628667,49.805,41.016,11.719,81.543,0,0
1581628667,75.684,-11.719,25.879,103.516,0,0
1581628667,92.773,-15.137,51.758,78.613,0,0
1581628667,54.688,-13.184,41.992,34.668,0,0
1581628667,45.898,-20.508,13.672,52.246,0,0
1581628667,74.219,-36.133,21.484,77.148,0,0
1581628667,44.922,42.48,52.734,65.918,0,0
1581628667,27.344,96.68,62.988,60.059,0,0
1581628667,31.25,93.75,65.43,30.273,0,0
1581628667,26.367,49.316,36.621,23.926,0,0
1581628667,24.902,3.418,23.926,37.109,0,0
1581628667,33.203,24.902,39.062,25.879,0,0
1581628667,34.668,16.113,41.992,15.137,0,0
1581628667,43.945,-14.16,30.273,8.789,0,0
1581628667,67.383,-50.293,31.25,38.086,0,0
1581628667,39.062,-74.707,45.898,37.109,0,0
1581628667,27.344,25.879,54.688,60.059,0,0
1581628667,53.711,114.258,47.363,80.078,0,0
1581628667,54.688,74.219,28.809,50.781,0,0
1581628667,50.293,-11.719,9.766,25.391,0,0
1581628667,28.32,-33.691,-1.953,18.066,0,0
1581628667,17.578,37.109,26.367,28.809,0,0
1581628667,38.574,81.055,57.617,51.27,0,0
1581628667,43.457,78.613,64.453,35.156,0,0
1581628667,28.32,66.895,54.688,3.418,0,0
1581628667,14.648,39.551,43.457,20.02,0,0
1581628667,17.09,34.668,41.016,22.461,0,0
1581628667,-13.184,4.883,42.48,-3.906,0,0
1581628667,-14.16,-25.879,41.504,-19.043,0,0
1581628667,-25.879,-1.953,41.016,-31.738,0,0
1581628667,-42.48,26.855,36.621,-51.27,0,0
1581628667,-52.734,45.898,38.086,-47.852,0,0
1581628667,-87.891,24.902,49.316,-51.27,0,0
1581628667,-89.844,-4.883,33.691,-70.312,0,0
1581628667,-93.75,-79.102,5.859,-89.844,0,0
1581628667,-82.031,-198.242,-15.625,-86.426,0,0
1581628667,-73.73,-109.863,-21.484,-75.684,0,0
1581628667,-96.191,92.285,36.621,-100.098,0,0
1581628667,-95.215,147.461,80.566,-118.652,0,0
1581628667,-107.91,126.953,80.566,-125,0,0
1581628667,-109.375,82.52,74.707,-121.582,0,0
1581628667,-86.914,-8.789,76.172,-81.055,0,0
1581628667,-69.336,-69.824,53.223,-43.457,0,0
1581628667,-44.922,-29.297,27.832,-60.059,0,0
1581628667,-25.879,21.484,29.785,-62.012,0,0
1581628667,-38.574,53.711,34.668,-49.316,0,0
1581628667,-62.988,60.059,8.301,-49.805,0,0
1581628667,-58.105,62.012,23.438,-24.414,0,0
1581628667,-31.738,34.668,60.547,-21.973,0,0
1581628667,-11.23,-0.977,64.453,-23.438,0,0
1581628667,7.812,-16.602,47.852,4.395,0,0
1581628667,18.066,-83.008,26.855,9.766,0,0
1581628667,24.414,-41.016,37.109,5.371,0,0
1581628667,22.949,41.016,47.363,15.137,0,0
1581628667,0,60.547,47.363,38.574,0,0
1581628667,-1.465,67.871,49.316,13.672,0,0
1581628667,6.348,74.219,30.762,-0.977,0,0
1581628667,22.461,16.602,11.23,30.273,0,0
1581628667,60.547,-81.055,10.254,57.617,0,0
1581628667,53.223,-1.953,-3.906,34.668,0,0
1581628667,15.625,87.891,-17.09,9.766,0,0
1581628667,39.551,73.242,6.836,12.207,0,0
1581628667,37.598,43.945,43.945,15.625,0,0
1581628667,6.836,36.621,36.133,32.227,0,0
1581628667,43.457,-46.875,32.227,58.594,0,0
1581628667,68.848,-137.207,38.086,79.102,0,0
1581628667,67.383,-53.223,32.227,62.988,0,0
1581628667,68.848,28.32,39.062,56.641,0,0
1581628667,55.664,89.844,41.992,62.012,0,0
1581628667,64.453,141.602,31.25,65.43,0,0
1581628667,65.918,111.816,14.648,59.57,0,0
1581628667,52.246,24.902,4.395,45.898,0,0
1581628667,61.523,-37.109,21.973,47.852,0,0
1581628668,53.223,-9.277,32.715,54.199,0,0
1581628668,61.523,-9.277,20.02,43.457,0,0
1581628668,57.617,37.109,2.441,47.363,0,0
1581628668,45.41,58.105,18.555,32.715,0,0
1581628668,63.477,20.02,43.457,43.457,0,0
1581628668,42.969,60.547,48.828,54.688,0,0
1581628668,35.156,59.082,39.551,12.207,0,0
1581628668,22.949,2.93,20.996,1.953,0,0
1581628668,-10.742,8.301,14.648,-6.348,0,0
1581628668,-7.812,3.418,6.836,-31.738,0,0
1581628668,5.859,4.883,15.625,-23.438,0,0
1581628668,-3.906,30.273,30.273,-34.18,0,0
1581628668,-37.598,44.922,27.832,-31.738,0,0
1581628668,-32.715,-13.672,33.691,-27.832,0,0
1581628668,-22.461,-145.02,20.02,-43.457,0,0
1581628668,-54.688,-73.73,10.254,-36.621,0,0
1581628668,-71.289,103.516,17.09,-41.016,0,0
1581628668,-73.73,144.531,21.484,-57.617,0,0
1581628668,-70.801,101.074,-14.16,-79.59,0,0
1581628668,-48.34,-4.883,-42.48,-82.52,0,0
1581628668,-44.922,-40.039,-6.836,-67.871,0,0
1581628668,-52.734,-9.277,11.719,-48.34,0,0
1581628668,-26.367,2.441,51.27,-11.719,0,0
1581628668,-30.762,49.316,37.109,-8.301,0,0
1581628668,-82.52,82.52,15.625,-61.035,0,0
1581628668,-73.73,31.738,37.109,-64.941,0,0
1581628668,-35.156,-52.734,74.219,-26.855,0,0
1581628668,-49.805,15.625,77.637,-26.367,0,0
1581628668,-49.316,108.398,47.363,-35.645,0,0
1581628668,-14.648,82.52,64.941,-11.719,0,0
1581628668,0.488,4.395,82.031,15.625,0,0
1581628668,-6.836,-49.805,62.5,9.277,0,0
1581628668,8.789,42.48,45.41,1.465,0,0
1581628668,21.484,110.84,20.996,-3.418,0,0
1581628668,14.16,35.156,13.184,26.855,0,0
1581628668,21.973,10.742,16.602,56.152,0,0
1581628668,29.785,0,-3.418,33.203,0,0
1581628668,53.711,-61.035,14.648,59.57,0,0
1581628668,61.523,-54.688,52.246,72.266,0,0
1581628668,66.406,0,54.199,49.805,0,0
1581628668,67.871,22.949,26.855,41.992,0,0
1581628668,48.828,75.195,13.184,39.551,0,0
1581628668,44.434,126.953,15.625,56.641,0,0
1581628668,64.453,100.586,25.879,79.59,0,0
1581628668,78.613,9.277,38.086,92.773,0,0
1581628668,108.398,-45.898,44.434,97.168,0,0
1581628668,91.309,-7.812,28.809,74.707,0,0
1581628668,51.27,67.871,32.715,65.43,0,0
1581628668,63.965,40.527,48.828,89.844,0,0
1581628668,68.848,-39.551,46.387,82.52,0,0
1581628668,81.543,-53.711,47.852,89.355,0,0
1581628668,111.816,-67.383,35.645,110.352,0,0
1581628668,116.699,23.926,-19.531,104.98,0,0
1581628668,89.844,146.973,-18.066,74.707,0,0
1581628668,66.406,136.719,40.039,50.293,0,0
1581628668,47.852,75.195,61.523,44.922,0,0
1581628668,61.523,8.301,58.105,53.223,0,0
1581628668,95.215,-88.867,30.762,70.312,0,0
1581628668,93.75,-101.562,26.855,76.66,0,0
1581628668,93.262,16.113,27.344,76.172,0,0
1581628668,79.59,95.215,0,79.59,0,0
1581628668,54.199,56.152,16.113,69.336,0,0
1581628668,76.66,-6.836,60.547,56.641,0,0
1581628668,59.082,14.16,54.199,48.828,0,0
1581628668,44.922,48.34,32.227,44.922,0,0
1581628668,73.73,44.922,40.039,53.711,0,0
1581628668,69.336,-11.719,0.488,62.988,0,0
1581628668,58.105,-50.781,-29.297,61.523,0,0
1581628668,75.684,1.465,6.836,69.824,0,0
1581628668,96.68,40.527,8.789,73.242,0,0
1581628668,93.75,47.363,5.371,86.914,0,0
1581628668,84.473,16.602,62.5,103.027,0,0
1581628668,81.543,-26.855,75.684,62.988,0,0
1581628668,48.34,9.766,30.762,23.926,0,0
1581628668,48.828,78.613,5.371,33.203,0,0
1581628668,63.477,53.223,30.273,49.316,0,0
1581628668,59.082,-7.324,59.57,45.898,0,0
1581628668,57.129,8.789,34.668,72.266,0,0
1581628668,69.824,53.711,20.508,75.684,0,0
1581628668,98.145,75.684,18.555,49.805,0,0
1581628668,85.449,60.547,23.926,66.406,0,0
1581628668,63.965,18.066,37.109,65.918,0,0
1581628668,66.895,-60.547,33.691,72.754,0,0
1581628668,72.754,-53.223,47.363,78.613,0,0
1581628668,68.848,-17.09,62.988,78.613,0,0
1581628668,71.289,-55.176,32.715,76.172,0,0
1581628668,64.941,-8.301,-1.465,41.992,0,0
1581628668,48.828,89.355,31.25,22.949,0,0
1581628668,35.645,134.277,38.086,64.941,0,0
1581628668,51.758,82.031,-10.254,94.727,0,0
1581628668,72.754,-66.406,2.441,71.777,0,0
1581628668,71.289,-61.035,53.223,58.594,0,0
1581628668,43.457,72.754,78.613,45.41,0,0
1581628668,18.555,127.93,54.688,49.805,0,0
1581628668,27.344,100.098,20.996,29.297,0,0
1581628668,47.363,51.758,27.832,15.137,0,0
1581628668,39.551,-21.484,35.156,55.664,0,0
1581628668,27.344,-105.957,-0.488,62.988,0,0
1581628668,60.547,-91.309,14.648,63.965,0,0
1581628668,61.523,37.109,29.297,41.992,0,0
1581628668,45.898,118.164,25.879,57.617,0,0
1581628668,53.711,77.637,36.621,65.43,0,0
1581628668,52.734,52.734,31.25,43.457,0,0
1581628668,77.637,35.156,63.477,58.594,0,0
1581628668,71.777,-15.625,77.637,70.312,0,0
1581628668,51.27,-28.809,51.758,46.875,0,0
1581628668,57.617,5.371,5.371,38.086,0,0
1581628668,54.688,55.176,19.043,60.547,0,0
1581628668,47.363,50.293,17.578,58.105,0,0
1581628668,49.316,6.836,-47.852,73.242,0,0
1581628668,64.453,-15.625,4.883,84.473,0,0
1581628668,59.57,-6.836,82.031,38.574,0,0
1581628668,62.988,39.062,81.055,54.688,0,0
1581628668,83.984,48.828,69.336,70.801,0,0
1581628668,54.688,53.223,57.617,41.992,0,0
1581628668,45.898,62.988,59.57,48.34,0,0
1581628668,90.332,-15.137,58.105,37.598,0,0
1581628668,70.801,-68.848,39.062,55.664,0,0
1581628668,37.109,-20.996,7.812,64.453,0,0
1581628668,33.203,62.5,-9.277,29.297,0,0
1581628668,31.25,91.797,10.742,20.508,0,0
1581628668,40.527,58.105,57.617,28.32,0,0
1581628668,23.926,36.621,60.059,35.645,0,0
1581628668,37.598,38.574,49.805,43.457,0,0
1581628668,45.898,51.27,43.945,41.992,0,0
1581628668,52.246,-42.969,27.344,39.062,0,0
1581628668,76.172,-168.457,13.672,52.734,0,0
1581628668,39.551,-53.711,25.879,69.336,0,0
1581628668,17.09,109.863,53.223,51.27,0,0
1581628668,12.207,119.141,61.523,6.836,0,0
1581628668,16.113,108.398,63.965,9.277,0,0
1581628668,30.762,54.688,51.758,23.926,0,0
1581628668,37.598,-6.836,19.531,26.855,0,0
1581628668,41.016,-8.301,14.648,41.016,0,0
1581628668,55.176,-46.387,41.992,60.547,0,0
1581628668,62.012,-70.312,35.645,60.547,0,0
1581628668,36.133,10.742,21.973,24.902,0,0
1581628668,25.391,72.266,16.113,-2.441,0,0
1581628668,27.344,52.734,4.883,21.973,0,0
1581628668,30.273,38.574,8.301,39.551,0,0
1581628668,33.203,49.805,22.461,27.832,0,0
1581628668,42.969,49.805,54.688,20.996,0,0
1581628668,45.41,10.254,60.059,40.527,0,0
1581628668,44.434,-9.766,52.734,61.523,0,0
1581628668,51.27,-89.355,5.859,55.664,0,0
1581628668,45.898,-72.754,-7.812,51.27,0,0
1581628668,35.645,74.219,35.156,52.734,0,0
1581628668,12.695,116.211,28.32,30.273,0,0
1581628668,8.301,63.477,29.297,3.906,0,0
1581628668,19.531,-3.906,55.176,5.859,0,0
1581628668,3.906,-29.785,72.754,15.625,0,0
1581628668,7.324,-16.602,71.777,18.555,0,0
1581628668,10.254,22.949,31.738,21.973,0,0
1581628668,17.578,31.738,22.949,31.738,0,0
1581628668,27.832,65.43,35.645,34.668,0,0
1581628668,13.184,79.102,29.297,19.043,0,0
1581628668,6.348,16.602,43.457,31.25,0,0
1581628668,18.555,-19.043,31.25,35.645,0,0
1581628668,25.391,2.441,-40.039,37.109,0,0
1581628668,15.137,0.488,-31.738,46.875,0,0
1581628668,15.625,43.945,52.734,46.875,0,0
1581628668,24.902,46.875,87.402,38.086,0,0
1581628668,23.438,-21.973,87.891,20.508,0,0
1581628668,19.531,-41.504,69.824,14.16,0,0
1581628668,16.602,-3.418,41.504,11.23,0,0
1581628668,4.395,54.199,38.574,21.484,0,0
1581628668,1.953,70.801,20.02,17.09,0,0
1581628668,22.949,35.645,8.301,18.555,0,0
1581628668,27.344,-1.465,41.016,47.852,0,0
1581628668,36.621,-9.766,43.945,48.34,0,0
1581628668,38.574,16.113,18.555,25.879,0,0
1581628668,29.785,32.227,39.062,42.969,0,0
1581628668,48.828,-33.691,47.363,54.688,0,0
1581628668,32.715,-66.406,14.648,38.574,0,0
1581628668,2.93,-0.977,30.273,14.16,0,0
1581628668,8.301,29.297,59.57,-0.977,0,0
1581628668,24.414,72.266,58.105,14.16,0,0
1581628668,32.227,93.75,19.043,18.066,0,0
1581628668,12.695,44.434,0.977,28.809,0,0
1581628668,28.809,5.371,42.48,52.246,0,0
1581628668,60.059,-10.742,39.551,55.664,0,0
1581628668,56.152,-42.48,15.625,40.527,0,0
1581628668,43.945,-15.137,34.18,30.762,0,0
1581628668,10.742,66.406,55.176,17.09,0,0
1581628668,4.395,79.59,48.34,-2.93,0,0
1581628668,25.391,33.691,32.227,5.859,0,0
1581628668,29.785,-12.695,16.113,17.578,0,0
1581628668,19.043,-24.414,26.855,21.973,0,0
1581628668,6.836,29.785,32.715,15.625,0,0
1581628668,9.277,55.176,29.297,20.02,0,0
1581628668,44.922,-9.766,43.457,44.434,0,0
1581628668,60.547,-49.805,54.199,29.785,0,0
1581628668,29.785,11.719,31.25,18.066,0,0
1581628668,33.203,88.379,-14.16,20.996,0,0
1581628668,68.848,49.316,13.672,33.691,0,0
1581628668,78.613,-14.648,58.594,44.434,0,0
1581628668,31.738,43.457,62.012,23.438,0,0
1581628668,1.465,90.332,47.852,16.113,0,0
1581628668,10.254,77.148,42.969,15.137,0,0
1581628668,10.254,41.016,42.969,22.461,0,0
1581628668,28.32,-15.137,33.203,40.039,0,0
1581628668,67.383,-70.312,36.133,58.105,0,0
1581628668,62.012,-64.453,43.457,71.289,0,0
1581628668,35.156,3.418,20.508,57.129,0,0
1581628668,44.434,3.906,27.832,24.414,0,0
1581628668,38.086,-50.781,37.598,5.371,0,0
1581628668,37.109,29.785,10.254,24.414,0,0
1581628668,58.105,78.125,17.578,53.711,0,0
1581628668,60.059,1.465,41.504,64.941,0,0
1581628668,58.594,17.09,32.715,57.129,0,0
1581628668,43.457,67.383,27.832,19.043,0,0
1581628668,29.297,4.395,43.457,20.508,0,0
1581628668,31.738,-28.32,66.895,50.781,0,0
1581628668,25.879,43.945,59.082,48.34,0,0
1581628668,9.766,83.008,34.18,29.785,0,0
1581628668,4.395,70.312,28.32,8.789,0,0
1581628668,17.09,64.941,44.922,15.137,0,0
1581628668,46.387,32.715,59.57,40.039,0,0
1581628668,64.453,-23.926,4.395,60.059,0,0
1581628668,55.176,-40.527,-36.133,74.707,0,0
1581628668,55.664,-8.789,13.184,60.547,0,0
1581628668,51.27,33.203,43.457,28.32,0,0
1581628668,38.574,37.598,53.223,18.066,0,0
1581628668,20.996,5.859,69.336,28.809,0,0
1581628668,3.906,-26.367,55.664,27.832,0,0
1581628668,8.301,-12.695,31.738,19.043,0,0
1581628668,9.766,2.441,28.32,25.391,0,0
1581628668,25.391,-1.465,50.781,31.25,0,0
1581628668,32.715,15.625,66.895,36.133,0,0
1581628668,29.297,44.922,48.34,35.645,0,0
1581628668,25.879,72.266,17.09,3.906,0,0
1581628668,30.762,85.938,-16.602,14.648,0,0
1581628668,47.363,29.297,-8.789,33.691,0,0
1581628668,43.945,-67.871,33.203,22.461,0,0
1581628668,47.363,-74.707,52.734,18.555,0,0
1581628668,33.203,-12.207,48.34,22.461,0,0
1581628668,17.578,47.852,38.574,31.25,0,0
1581628668,4.883,41.992,41.992,52.734,0,0
1581628668,21.484,-20.996,51.27,44.434,0,0
1581628668,39.062,-10.254,32.715,20.996,0,0
1581628668,16.113,24.902,-11.719,22.949,0,0
1581628668,26.367,0,-3.418,33.203,0,0
1581628668,40.527,-6.348,30.762,41.016,0,0
1581628668,36.133,-34.668,25.391,32.715,0,0
1581628668,32.227,-17.578,19.531,25.879,0,0
1581628668,37.109,66.406,37.598,34.18,0,0
1581628668,32.715,84.961,53.711,45.41,0,0
1581628668,44.434,46.875,54.688,36.133,0,0
1581628668,82.031,-41.992,47.852,21.484,0,0
1581628668,80.078,-21.484,67.383,50.293,0,0
1581628668,33.691,76.172,34.18,46.875,0,0
1581628668,14.16,98.145,-31.738,8.789,0,0
1581628668,12.695,85.449,-1.465,15.137,0,0
1581628668,3.418,43.457,42.48,13.184,0,0
1581628668,23.926,-18.066,61.035,7.324,0,0
1581628668,32.715,-48.34,35.156,16.113,0,0
1581628668,13.672,-19.531,0,34.668,0,0
1581628668,14.16,20.02,29.297,51.27,0,0
1581628668,16.113,69.336,61.523,41.992,0,0
1581628669,4.883,23.438,53.711,19.531,0,0
1581628669,22.461,-63.477,1.465,9.766,0,0
1581628669,58.594,-12.207,-10.742,20.02,0,0
1581628669,59.57,38.086,28.32,28.32,0,0
1581628669,33.691,-1.953,46.875,24.902,0,0
1581628669,17.09,-20.02,50.293,26.855,0,2
1581628669,7.812,10.742,50.781,25.879,0,0
1581628669,15.137,55.664,59.082,24.414,0,0
1581628669,19.531,62.012,49.316,34.18,0,0
1581628669,32.227,43.457,36.621,28.32,0,0
1581628669,34.668,7.812,-0.488,19.043,0,0
1581628669,21.484,-13.184,0.488,40.527,0,0
1581628669,30.762,-8.789,38.574,47.363,0,0
1581628669,14.648,-44.434,46.387,26.855,0,0
1581628669,1.465,-19.043,58.594,8.789,0,0
1581628669,17.09,50.781,64.941,-9.277,0,0
1581628669,28.809,20.996,63.477,-1.953,0,0
1581628669,21.484,-20.996,41.992,25.391,0,0
1581628669,11.719,9.277,12.695,41.504,0,0
1581628669,6.836,60.547,-3.418,36.133,0,0
1581628669,13.184,56.641,20.996,13.672,0,0
1581628669,14.16,15.625,30.273,-0.488,0,0
1581628669,11.23,-7.812,9.277,-1.465,0,0
1581628669,17.09,-2.93,35.156,11.23,0,0
1581628669,31.738,21.484,60.547,18.555,0,0
1581628669,20.996,12.207,52.246,20.02,0,0
1581628669,12.695,-20.02,30.762,41.504,0,0
1581628669,15.625,-23.438,21.973,43.457,0,0
1581628669,8.789,3.418,29.297,2.441,0,0
1581628669,-0.488,17.09,27.344,-9.766,0,0
1581628669,0,25.879,32.227,-14.16,0,0
1581628669,-6.348,17.578,36.621,-20.996,0,0
1581628669,-15.625,3.906,26.855,-20.996,0,0
1581628669,-34.668,0.977,25.879,-25.391,0,0
1581628669,-23.926,5.371,28.809,-28.809,0,0
1581628669,-42.969,8.301,29.297,-49.316,0,0
1581628669,-94.727,0,30.273,-64.453,0,0
1581628669,-102.539,-5.371,27.832,-75.195,0,0
1581628669,-127.93,-11.719,29.785,-91.309,0,0
1581628669,-150.879,-3.906,22.461,-117.188,0,0
1581628669,-153.809,18.066,15.625,-135.742,0,0
1581628669,-176.27,37.598,27.832,-160.156,0,0
1581628669,-192.871,27.832,30.273,-182.617,0,0
1581628669,-193.359,25.391,36.133,-176.758,0,0
1581628669,-205.566,-3.418,34.18,-164.062,0,0
1581628669,-183.105,-79.59,-32.715,-148.438,0,0
1581628669,-142.09,-90.82,-64.941,-158.203,0,0
1581628669,-143.066,-25.391,2.441,-163.086,0,0
1581628669,-166.016,37.598,51.27,-141.602,0,0
1581628669,-125.488,30.273,57.617,-119.629,0,0
1581628669,-75.195,18.555,45.898,-93.75,0,0
1581628669,-90.332,58.594,48.34,-84.473,0,0
1581628669,-100.098,76.172,19.043,-76.172,0,0
1581628669,-78.613,123.535,-18.555,-86.914,0,0
1581628669,-52.734,187.012,9.766,-74.219,0,0
1581628669,-21.973,132.812,29.785,-27.832,0,0
1581628669,14.16,72.754,48.34,6.836,0,0
1581628669,20.02,50.781,42.48,9.766,0,0
1581628669,2.441,-62.5,47.852,-12.695,0,0
1581628669,11.23,-64.941,59.57,-3.418,0,0
1581628669,14.648,53.711,24.414,17.09,0,0
1581628669,35.156,74.219,9.277,24.902,0,0
1581628669,41.992,88.379,34.668,13.184,0,0
1581628669,18.555,94.238,46.875,19.043,0,0
1581628669,44.434,1.465,-14.648,62.5,0,0
1581628669,51.27,-29.297,-66.406,59.57,0,0
1581628669,78.125,36.621,1.465,59.57,0,0
1581628669,84.473,21.973,75.684,68.848,0,0
1581628669,60.547,8.301,65.43,68.848,0,0
1581628669,103.027,-47.852,39.062,95.215,0,0
1581628669,125,-175.781,36.621,99.609,0,0
1581628669,100.586,-77.637,12.695,73.73,0,0
1581628669,71.289,118.652,-8.301,67.871,0,0
1581628669,56.152,163.574,24.902,72.754,0,0
1581628669,72.266,123.535,26.367,74.707,0,0
1581628669,92.773,71.289,-12.695,82.031,0,0
1581628669,84.473,38.086,16.113,101.562,0,0
1581628669,86.914,2.93,51.758,107.91,0,0
1581628669,118.164,-51.27,26.367,116.699,0,0
1581628669,139.648,-93.262,27.832,129.395,0,0
1581628669,127.93,-81.543,45.41,124.023,0,0
1581628669,111.328,-19.043,14.648,114.746,0,0
1581628669,107.422,-8.789,26.367,111.816,0,0
1581628669,104.004,34.18,40.039,103.027,0,0
1581628669,101.562,71.777,27.344,77.148,0,0
1581628669,96.191,36.621,31.25,75.684,0,0
1581628669,81.543,18.066,37.598,76.172,0,0
1581628669,71.777,0.488,31.25,69.824,0,0
1581628669,105.957,-6.348,23.926,95.215,0,0
1581628669,111.816,9.766,6.836,104.004,0,0
1581628669,88.379,-39.551,-9.277,97.656,0,0
1581628669,86.426,-54.688,22.949,110.352,0,0
1581628669,93.262,-24.902,54.199,93.75,0,0
1581628669,79.59,-47.852,66.406,61.523,0,0
1581628669,50.781,-19.043,59.57,62.988,0,0
1581628669,48.828,40.039,49.316,84.961,0,0
1581628669,59.57,30.762,42.48,81.055,0,0
1581628669,74.707,-12.207,20.996,58.105,0,0
1581628669,69.824,-6.836,9.766,50.293,0,0
1581628669,60.547,23.438,12.695,40.527,0,0
1581628669,55.664,30.762,0.488,40.527,0,0
1581628669,66.406,28.809,9.766,43.457,0,0
1581628669,81.543,-16.113,13.184,49.316,0,0
1581628669,58.105,-51.27,31.25,45.898,0,0
1581628669,56.641,-33.691,69.336,47.363,0,0
1581628669,87.402,-0.488,69.824,60.059,0,0
1581628669,79.59,-2.93,57.617,76.172,0,0
1581628669,90.82,-3.906,36.621,70.801,0,0
1581628669,109.863,6.836,35.156,66.406,0,0
1581628669,75.684,-40.527,44.922,87.891,0,0
1581628669,60.059,-11.719,35.645,60.059,0,0
1581628669,54.688,65.918,4.395,37.109,0,0
1581628669,60.059,59.082,-34.668,53.223,0,0
1581628669,87.402,10.742,-29.785,69.824,0,0
1581628669,112.793,-69.336,30.273,72.266,0,0
1581628669,97.168,-70.312,69.824,73.242,0,0
1581628669,43.457,36.621,62.012,52.246,0,0
1581628669,29.297,57.129,64.453,42.969,0,0
1581628669,30.762,57.129,55.664,42.969,0,0
1581628669,27.832,41.504,48.34,29.297,0,0
1581628669,46.387,-71.777,57.129,51.27,0,0
1581628669,59.57,-48.34,46.387,62.5,0,0
1581628669,34.18,67.871,20.02,36.133,0,0
1581628669,15.137,63.965,14.16,13.672,0,0
1581628669,43.945,57.129,40.527,35.156,0,0
1581628669,48.34,31.25,26.855,48.828,0,0
1581628669,40.039,-49.805,11.719,31.25,0,0
1581628669,51.27,3.906,36.621,42.48,0,0
1581628669,51.758,87.891,41.504,52.246,0,0
1581628669,54.688,13.672,31.738,44.434,0,0
1581628669,56.641,-25.879,50.781,41.992,0,0
1581628669,52.246,36.133,68.848,41.992,0,0
1581628669,34.668,30.762,49.805,46.387,0,0
1581628669,51.27,-42.969,24.414,62.988,0,0
1581628669,52.734,-39.551,24.414,54.199,0,0
1581628669,28.32,87.402,7.324,33.203,0,0
1581628669,42.48,37.598,14.648,44.922,0,0
1581628669,63.965,-86.914,52.734,57.617,0,0
1581628669,48.828,13.672,62.5,35.645,0,0
1581628669,26.367,93.262,48.828,18.066,0,0
1581628669,7.324,41.016,30.273,9.277,0,0
1581628669,0.977,33.203,20.508,15.137,0,0
1581628669,13.184,61.523,32.227,23.926,0,0
1581628669,31.738,15.137,24.902,40.527,0,0
1581628669,34.668,-6.348,-7.324,46.875,0,0
1581628669,43.457,-41.016,-14.648,48.34,0,0
1581628669,50.293,-23.438,8.301,60.547,0,0
1581628669,36.621,64.941,43.945,22.949,0,0
1581628669,24.902,-7.324,64.941,21.484,0,0
1581628669,21.973,-44.922,61.035,44.922,0,0
1581628669,26.367,37.109,55.664,25.391,0,0
1581628669,39.551,40.527,65.43,22.949,0,0
1581628669,55.176,1.953,47.363,26.367,0,0
1581628669,35.645,46.875,32.715,27.832,0,0
1581628669,6.348,88.379,39.062,20.02,0,0
1581628669,23.438,46.387,42.48,20.996,0,0
1581628669,59.082,7.324,20.508,35.156,0,0
1581628669,60.059,-6.348,-8.301,64.941,0,0
1581628669,40.039,-13.184,19.043,51.27,0,0
1581628669,20.02,6.348,34.18,5.859,0,0
1581628669,7.324,44.434,20.02,10.254,0,0
1581628669,-5.859,42.48,26.367,4.395,0,0
1581628669,26.367,-40.039,68.359,12.695,0,0
1581628669,67.383,-108.398,68.848,33.203,0,0
1581628669,32.715,-9.766,10.742,24.414,0,0
1581628669,-2.441,73.73,-21.484,-3.418,0,0
1581628669,2.441,69.336,7.812,-20.508,0,0
1581628669,2.441,53.711,43.945,10.742,0,0
1581628669,2.441,-6.348,52.734,30.762,0,0
1581628669,22.949,-27.344,32.715,14.648,0,0
1581628669,30.762,33.691,23.438,24.414,0,0
1581628669,19.531,59.57,18.555,14.16,0,0
1581628669,18.555,4.883,10.254,30.762,0,0
1581628669,22.461,-23.438,32.227,34.18,0,0
1581628669,18.066,-10.742,58.594,9.766,0,0
1581628669,20.02,13.184,55.664,24.414,0,0
1581628669,27.832,45.41,37.109,23.926,0,0
1581628669,40.527,-58.594,47.363,40.039,0,0
1581628669,51.27,-152.832,47.852,47.363,0,0
1581628669,37.109,1.953,28.32,24.902,0,0
1581628669,13.672,136.719,21.973,3.906,0,0
1581628669,6.836,133.301,22.949,17.09,0,0
1581628669,34.668,74.707,17.09,33.691,0,0
1581628669,57.129,-34.18,33.203,35.645,0,0
1581628669,50.293,-75.195,40.527,43.945,0,0
1581628669,35.645,-3.418,44.434,30.762,0,0
1581628669,16.113,34.668,24.414,6.836,0,0
1581628669,-1.465,41.504,12.695,13.184,0,0
1581628669,-0.488,43.945,32.227,16.113,0,0
1581628669,23.438,30.762,46.875,15.137,0,0
1581628669,19.531,24.902,53.223,29.785,0,0
1581628669,13.184,0,44.922,37.598,0,0
1581628669,20.02,7.812,35.645,16.113,0,0
1581628669,27.344,37.598,33.691,17.578,0,0
1581628669,47.852,10.254,32.227,20.508,0,0
1581628669,18.066,-6.836,10.254,4.395,0,0
1581628669,0.488,50.781,18.066,11.23,0,0
1581628669,17.578,25.391,53.711,21.484,0,0
1581628669,43.457,-32.227,46.387,30.273,0,0
1581628669,46.387,-34.668,17.09,27.344,0,0
1581628669,27.344,40.527,29.297,18.555,0,0
1581628669,10.742,83.984,38.574,13.672,0,0
1581628669,41.504,29.785,30.273,26.855,0,0
1581628669,56.641,-8.789,17.578,38.086,0,0
1581628669,18.555,-7.324,13.672,33.203,0,0
1581628669,2.441,45.41,62.012,37.598,0,0
1581628669,16.602,71.289,39.062,27.832,0,0
1581628669,26.855,14.16,9.277,16.602,0,0
1581628669,18.066,-3.418,47.852,22.949,0,0
1581628669,24.902,-1.953,55.664,21.484,0,0
1581628669,43.457,14.16,43.945,15.625,0,0
1581628669,33.203,54.199,45.41,25.879,0,0
1581628669,37.109,6.836,18.555,32.715,0,0
1581628669,41.016,-17.09,4.395,33.203,0,0
1581628669,29.297,5.859,36.621,31.738,0,0
1581628669,7.324,23.438,44.434,30.273,0,0
1581628669,1.465,66.406,41.016,28.32,0,0
1581628669,-9.766,97.656,28.809,11.719,0,0
1581628669,-1.465,87.402,32.715,0.488,0,0
1581628669,5.859,6.836,51.27,-2.441,0,0
1581628669,-4.883,-67.383,45.41,2.441,0,0
1581628669,-1.465,-43.945,20.996,31.25,0,0
1581628669,3.418,-42.969,28.809,26.367,0,0
1581628669,15.137,-5.859,31.738,10.742,0,0
1581628669,1.465,43.945,15.137,6.348,0,0
1581628669,7.324,45.41,33.691,9.766,0,0
1581628669,20.996,59.082,49.316,35.156,0,0
1581628669,10.742,63.965,31.25,45.898,0,0
1581628669,20.508,52.246,27.832,20.02,0,0
1581628669,26.367,-16.113,22.461,20.996,0,0
1581628669,23.438,-50.781,23.926,34.668,0,0
1581628669,17.09,12.695,46.875,10.742,0,0
1581628669,26.855,34.18,53.223,10.254,0,0
1581628669,35.156,-2.441,26.367,22.949,0,0
1581628669,29.785,-19.531,28.32,35.645,0,0
1581628669,28.809,23.926,55.664,38.574,0,0
1581628669,6.348,68.848,30.273,16.602,0,0
1581628669,10.742,63.477,4.883,18.066,0,0
1581628669,27.344,-2.93,41.992,42.48,0,0
1581628669,20.996,-13.184,75.684,34.668,0,0
1581628669,10.742,49.316,59.082,-1.953,0,0
1581628669,9.766,45.41,41.504,9.277,0,0
1581628669,37.109,-4.883,5.859,41.992,0,0
1581628669,71.777,-50.293,-0.977,53.223,0,0
1581628669,30.762,-25.879,35.156,21.484,0,0
1581628669,-0.977,60.547,17.09,0.488,0,0
1581628669,-2.93,62.988,15.625,8.789,0,0
1581628669,-7.324,-5.859,25.879,21.484,0,0
1581628669,32.715,-21.484,32.715,33.203,0,0
1581628669,37.109,-4.395,52.734,29.785,0,0
1581628669,18.555,22.461,54.688,13.184,0,0
1581628669,9.766,75.684,60.059,2.441,0,0
1581628669,-2.441,87.891,37.598,3.906,0,0
1581628669,-2.93,61.035,21.973,8.789,0,0
1581628669,31.25,36.621,33.203,18.066,0,0
1581628670,41.992,-10.254,20.02,31.738,0,0
1581628670,7.324,-65.43,9.277,29.297,0,0
1581628670,5.859,-35.156,8.789,25.879,0,0
1581628670,17.09,-15.137,18.066,20.02,0,0
1581628670,26.367,-16.602,42.48,13.184,0,0
1581628670,47.852,38.086,50.781,24.414,0,0
1581628670,51.27,-23.438,41.504,20.996,0,0
1581628670,35.645,-27.832,46.387,22.461,0,0
1581628670,25.879,81.055,39.551,15.625,0,0
1581628670,0,92.285,35.156,-0.977,0,0
1581628670,-9.766,47.852,44.434,0.977,0,0
1581628670,12.695,25.391,39.551,4.883,0,0
1581628670,27.344,9.766,37.109,22.949,0,0
1581628670,41.992,-17.578,20.508,27.832,0,0
1581628670,27.832,10.254,-0.977,6.836,0,0
1581628670,13.184,67.871,0.488,10.254,0,0
1581628670,34.668,58.594,7.324,18.066,0,0
1581628670,43.945,-42.48,10.742,30.273,0,0
1581628670,57.617,-33.691,26.855,39.551,0,0
1581628670,55.664,30.762,62.5,25.879,0,0
1581628670,26.367,20.996,50.781,14.648,0,0
1581628670,17.578,33.203,17.09,29.785,0,0
1581628670,12.207,49.316,22.461,20.996,0,0
1581628670,25.879,30.273,40.039,11.23,0,0
1581628670,30.762,-20.996,37.598,25.879,0,0
1581628670,33.203,12.207,31.738,36.621,0,0
1581628670,38.574,-4.395,22.949,32.715,0,0
1581628670,36.621,-37.598,0.977,29.785,0,0
1581628670,53.223,-6.836,-15.625,47.363,0,0
1581628670,61.523,-8.301,15.137,61.035,0,0
1581628670,20.996,47.852,33.203,42.48,0,0
1581628670,-7.812,57.129,24.902,36.621,0,0
1581628670,11.719,7.812,45.41,37.109,0,0
1581628670,17.09,36.133,61.523,12.207,0,0
1581628670,1.953,67.871,48.34,8.301,0,0
1581628670,11.719,-3.418,23.926,19.043,0,0
1581628670,41.992,-67.383,36.133,28.809,0,0
1581628670,33.691,-18.555,50.293,20.02,0,0
1581628670,-3.906,36.133,43.945,-0.977,0,0
1581628670,-1.465,1.465,31.738,8.789,0,0
1581628670,2.441,-4.395,12.695,21.973,0,0
1581628670,7.812,65.43,7.324,20.02,0,0
1581628670,33.691,68.848,4.883,25.879,0,0
1581628670,53.223,17.09,44.434,30.273,0,0
1581628670,19.531,-28.32,21.484,24.414,0,0
1581628670,21.484,-1.953,-20.996,43.457,0,0
1581628670,48.34,17.578,14.648,40.527,0,0
1581628670,23.926,-45.898,47.363,6.348,0,2
1581628670,4.395,-53.223,50.781,9.277,0,0
1581628670,0,27.344,36.133,14.16,0,0
1581628670,11.719,69.336,42.969,9.277,0,0
1581628670,12.207,53.711,40.527,19.043,0,0
1581628670,17.09,78.613,33.691,22.949,0,0
1581628670,24.902,90.332,27.344,13.184,0,0
1581628670,38.086,60.059,27.344,12.207,0,0
1581628670,34.668,-13.184,27.344,36.621,0,0
1581628670,28.809,-123.047,23.438,45.41,0,0
1581628670,51.758,-70.801,43.457,36.133,0,0
1581628670,49.316,64.941,40.527,35.156,0,0
1581628670,12.207,106.934,16.602,19.531,0,0
1581628670,14.648,71.289,17.578,25.391,0,0
1581628670,10.254,28.32,7.324,29.785,0,0
1581628670,2.93,1.953,30.762,42.48,0,0
1581628670,37.109,-9.766,56.641,42.969,0,0
1581628670,35.645,24.902,19.531,20.508,0,0
1581628670,12.695,1.465,18.066,19.531,0,0
1581628670,7.324,-24.414,35.645,24.902,0,0
1581628670,22.949,43.457,41.016,34.18,0,0
1581628670,40.527,-8.789,35.156,5.371,0,0
1581628670,32.715,-73.73,20.508,-3.418,0,0
1581628670,40.527,2.441,25.879,27.832,0,0
1581628670,44.434,15.137,25.391,45.898,0,0
1581628670,20.996,27.344,-1.465,54.688,0,0
1581628670,10.254,90.332,1.465,41.016,0,0
1581628670,16.113,98.633,58.105,18.555,0,0
1581628670,36.133,46.875,73.73,16.113,0,0
1581628670,41.992,1.465,41.504,14.16,0,0
1581628670,15.137,-16.113,20.996,2.93,0,0
1581628670,19.531,21.973,33.691,11.719,0,0
1581628670,31.25,43.457,49.805,29.297,0,0
1581628670,24.902,25.391,42.969,13.184,0,0
1581628670,27.832,20.996,21.973,11.719,0,0
1581628670,32.715,-6.348,14.16,32.227,0,0
1581628670,52.734,-19.043,-8.301,41.504,0,0
1581628670,53.711,2.441,-6.836,47.363,0,0
1581628670,41.016,38.086,23.926,28.809,0,0
1581628670,29.785,82.031,42.48,16.113,0,0
1581628670,17.578,56.152,40.039,26.855,0,0
1581628670,30.762,-57.617,38.086,20.02,0,0
1581628670,21.973,-125.488,46.387,24.414,0,0
1581628670,20.508,-0.488,33.691,22.949,0,0
1581628670,30.762,112.305,30.273,22.461,0,0
1581628670,26.367,73.73,40.039,24.902,0,0
1581628670,64.453,41.016,27.832,33.691,0,0
1581628670,76.66,48.828,22.461,54.199,0,0
1581628670,37.598,-9.766,22.461,40.527,0,0
1581628670,44.922,-76.66,27.344,38.086,0,0
1581628670,57.129,-33.203,67.871,61.035,0,0
1581628670,35.156,27.832,55.176,25.879,0,0
1581628670,10.742,69.824,34.18,5.371,0,0
1581628670,-0.977,71.777,38.574,22.949,0,0
1581628670,12.695,68.848,28.809,25.879,0,0
1581628670,36.133,17.09,31.25,39.062,0,0
1581628670,49.316,-23.438,29.785,49.316,0,0
1581628670,48.828,41.016,-24.414,18.066,0,0
1581628670,29.785,44.922,-35.156,-0.977,0,0
1581628670,47.852,-45.898,55.176,36.621,0,0
1581628670,65.43,-72.266,59.57,51.758,0,0
1581628670,41.504,26.367,11.719,31.738,0,0
1581628670,49.805,92.285,23.438,30.762,0,0
1581628670,58.594,66.895,40.527,34.668,0,0
1581628670,48.828,22.461,51.27,32.715,0,0
1581628670,34.18,41.992,45.41,37.598,0,0
1581628670,29.297,61.523,29.297,45.898,0,0
1581628670,29.297,33.203,39.551,17.578,0,0
1581628670,55.176,-32.715,54.199,0.977,0,0
1581628670,61.035,-61.035,30.273,34.18,0,0
1581628670,23.438,-1.953,8.301,41.016,0,0
1581628670,16.113,44.922,10.254,28.32,0,0
1581628670,20.996,92.773,18.555,11.23,0,0
1581628670,49.316,69.336,42.969,20.02,0,0
1581628670,46.387,-2.93,57.617,49.316,0,0
1581628670,26.855,17.578,16.602,59.082,0,0
1581628670,40.527,60.547,-38.086,48.828,0,0
1581628670,41.016,71.777,4.883,36.133,0,0
1581628670,20.996,26.855,57.617,20.02,0,0
1581628670,31.25,-19.043,71.289,17.578,0,0
1581628670,72.754,-37.598,67.383,41.992,0,0
1581628670,68.359,-71.289,50.293,60.059,0,0
1581628670,27.832,-2.441,32.227,36.621,0,0
1581628670,34.18,37.109,14.648,29.297,0,0
1581628670,53.223,-46.387,11.719,45.41,0,0
1581628670,38.574,-20.02,13.184,36.621,0,0
1581628670,27.832,96.68,30.273,35.645,0,0
1581628670,20.996,66.895,35.156,14.16,0,0
1581628670,32.227,20.508,28.32,-7.324,0,0
1581628670,54.199,49.316,34.668,12.695,0,0
1581628670,33.691,23.438,41.504,43.945,0,0
1581628670,10.254,-17.578,51.27,36.621,0,0
1581628670,29.785,20.02,30.273,19.043,0,0
1581628670,51.27,68.359,13.184,27.344,0,0
1581628670,62.5,31.738,26.367,28.32,0,0
1581628670,50.781,-40.527,34.668,35.156,0,0
1581628670,21.973,-23.926,31.738,41.504,0,0
1581628670,15.625,45.898,26.367,29.785,0,0
1581628670,16.602,34.18,34.668,23.438,0,0
1581628670,20.996,36.621,41.016,21.973,0,0
1581628670,30.273,20.996,36.133,28.809,0,0
1581628670,38.574,-31.25,34.668,36.133,0,0
1581628670,27.344,-6.348,18.066,31.738,0,0
1581628670,24.414,29.785,4.883,30.762,0,0
1581628670,39.551,15.625,20.508,38.086,0,0
1581628670,41.016,22.461,21.973,30.762,0,0
1581628670,31.25,30.762,25.879,17.09,0,0
1581628670,40.039,20.508,43.945,28.809,0,0
1581628670,46.387,8.789,28.32,36.133,0,0
1581628670,46.387,-17.578,31.25,37.598,0,0
1581628670,22.949,3.906,37.598,38.086,0,0
1581628670,13.672,65.918,12.695,40.039,0,0
1581628670,48.828,24.414,5.859,40.039,0,0
1581628670,52.734,-37.598,32.715,34.18,0,0
1581628670,21.484,21.973,58.105,42.969,0,0
1581628670,30.273,63.965,49.316,25.879,0,0
1581628670,42.48,52.246,28.32,10.742,0,0
1581628670,8.789,23.926,31.25,29.785,0,0
1581628670,13.672,4.395,36.133,40.039,0,0
1581628670,31.738,15.625,-15.625,32.715,0,0
1581628670,37.598,5.859,-29.297,41.016,0,0
1581628670,53.223,-41.016,18.066,47.852,0,0
1581628670,40.039,-42.969,57.129,17.09,0,0
1581628670,2.441,-1.465,56.152,-1.465,0,0
1581628670,-4.883,65.918,27.344,23.438,0,0
1581628670,20.508,80.078,51.27,53.223,0,0
1581628670,20.02,44.922,48.828,30.273,0,0
1581628670,28.32,38.086,29.297,22.461,0,0
1581628670,23.438,-32.227,15.137,20.996,0,0
1581628670,17.09,-29.785,16.602,12.207,0,0
1581628670,39.062,52.246,51.27,14.648,0,0
1581628670,34.18,58.594,78.613,9.766,0,0
1581628670,4.883,36.621,62.012,-12.207,0,0
1581628670,-12.207,-14.648,28.32,-10.742,0,0
1581628670,-1.953,-10.742,25.391,29.785,0,0
1581628670,2.93,46.875,21.973,32.715,0,0
1581628670,-2.441,34.18,4.395,4.883,0,0
1581628670,3.906,-25.879,20.508,13.672,0,0
1581628670,23.438,-23.926,37.109,20.508,0,0
1581628670,18.555,30.273,21.484,10.742,0,0
1581628670,0.977,24.902,-1.465,6.836,0,0
1581628670,32.715,6.348,21.484,30.762,0,0
1581628670,38.086,2.93,43.457,32.715,0,0
1581628670,9.766,-11.23,38.086,2.441,0,0
1581628670,9.277,12.695,36.621,10.742,0,0
1581628670,11.23,0.488,27.832,10.254,0,0
1581628670,0.977,23.926,23.926,-14.648,0,0
1581628670,-18.555,89.355,7.812,-6.348,0,0
1581628670,-0.977,74.219,-14.648,0.977,0,0
1581628670,13.672,38.574,2.93,4.395,0,0
1581628670,14.16,11.719,52.734,30.273,0,0
1581628670,11.719,-4.883,58.105,21.973,0,0
1581628670,25.391,-35.156,40.039,19.043,0,0
1581628670,49.805,-80.078,56.641,40.039,0,0
1581628670,41.504,-20.02,53.223,36.133,0,0
1581628670,2.93,58.594,30.762,15.137,0,0
1581628670,-12.695,65.43,34.18,3.418,0,0
1581628670,0.488,86.426,21.973,8.789,0,0
1581628670,16.602,7.324,14.16,12.695,0,0
1581628670,13.184,-71.289,32.227,21.484,0,0
1581628670,16.113,12.695,27.344,24.414,0,0
1581628670,24.902,75.684,13.184,20.508,0,0
1581628670,26.367,82.52,32.715,15.137,0,0
1581628670,2.441,13.672,51.27,18.555,0,0
1581628670,5.859,-30.762,41.504,2.93,0,0
1581628670,2.93,37.109,50.781,-2.93,0,0
1581628670,0,74.219,41.504,30.273,0,0
1581628670,9.766,40.039,9.766,40.039,0,0
1581628670,13.184,-34.18,15.625,18.066,0,0
1581628670,36.621,-42.48,31.738,20.508,0,0
1581628670,30.273,-6.348,26.855,38.574,0,0
1581628670,44.922,-17.578,41.016,38.086,0,0
1581628670,60.547,-39.551,21.973,43.945,0,0
1581628670,31.25,17.578,19.043,41.016,0,0
1581628670,5.371,119.629,63.477,22.949,0,0
1581628670,6.348,114.746,56.641,4.395,0,0
1581628670,9.766,74.707,14.648,-9.766,0,0
1581628670,20.508,49.805,15.625,-3.906,0,0
1581628670,7.324,6.836,41.016,4.395,0,0
1581628670,-2.441,-7.812,59.082,19.043,0,0
1581628670,-1.953,1.465,59.082,3.418,0,0
1581628670,14.648,-12.695,37.598,-2.93,0,0
1581628670,24.902,-52.734,20.508,18.066,0,0
1581628670,37.598,-48.34,31.738,30.762,0,0
1581628670,24.414,8.789,8.301,34.18,0,0
1581628670,-0.977,-5.859,-28.809,35.156,0,0
1581628670,21.973,-6.348,10.742,13.672,0,0
1581628670,41.504,32.715,48.828,14.648,0,0
1581628670,63.477,32.227,54.199,38.086,0,0
1581628670,52.246,20.508,13.184,30.762,0,0
1581628670,28.32,29.297,7.812,15.137,0,0
1581628670,34.18,71.289,48.828,3.906,0,0
1581628670,14.648,57.617,50.293,6.348,0,0
1581628670,-2.441,42.969,62.5,4.395,0,0
1581628670,0.977,50.781,40.039,3.906,0,0
1581628670,17.09,21.973,-15.137,9.766,0,0
1581628670,41.016,-20.508,-8.789,9.277,0,0
1581628670,35.156,-57.129,41.016,28.32,0,0
1581628670,-3.906,-50.781,67.383,16.602,0,0
1581628670,-1.465,15.137,45.41,0.977,0,0
1581628670,14.16,68.359,19.531,-7.812,0,0
1581628670,10.254,51.758,7.812,-24.902,0,0
1581628670,8.301,6.836,31.738,-5.371,0,0
1581628670,16.113,43.945,74.707,6.348,0,0
1581628670,11.23,52.734,49.805,5.371,0,0
1581628670,-14.648,52.246,1.953,-9.277,0,0
1581628670,-15.625,44.922,14.648,-8.301,0,0
1581628671,0.977,17.09,23.438,-4.883,0,0
1581628671,1.953,-13.184,8.789,19.043,0,0
1581628671,-6.836,-34.18,13.184,29.785,0,0
1581628671,-14.16,9.277,16.602,18.555,0,0
1581628671,4.883,50.781,18.066,24.414,0,0
1581628671,32.227,29.297,26.367,2.93,0,0
1581628671,34.18,8.301,51.758,2.441,0,0
1581628671,13.672,22.949,41.504,11.23,0,0
1581628671,-5.371,52.734,13.184,11.23,0,0
1581628671,21.973,27.344,5.371,18.555,0,0
1581628671,33.203,-46.387,20.508,17.09,0,0
1581628671,16.602,-30.762,49.316,16.602,0,0
1581628671,18.555,53.711,27.832,17.09,0,0
1581628671,20.02,67.383,7.812,22.461,0,0
1581628671,29.297,-6.836,3.418,24.902,0,0
1581628671,21.973,-30.273,9.277,34.18,0,0
1581628671,26.367,36.133,49.316,65.43,0,0
1581628671,46.387,62.988,70.312,47.363,0,0
1581628671,20.02,47.363,33.691,-10.742,0,0
1581628671,5.859,23.926,-0.488,-17.578,0,0
1581628671,4.395,11.719,4.395,1.953,0,0
1581628671,4.883,19.531,28.809,10.254,0,0
1581628671,11.719,-0.488,45.898,8.789,0,0
1581628671,14.648,-55.176,26.855,13.184,0,0
1581628671,2.441,-29.785,9.766,18.066,0,0
1581628671,-9.766,48.34,28.809,13.672,0,0
1581628671,-16.602,70.801,20.996,-2.93,0,0
1581628671,-5.859,53.223,22.461,19.531,0,0
1581628671,10.254,62.5,22.461,41.992,0,0
1581628671,19.531,46.875,12.695,11.719,0,0
1581628671,25.879,-9.766,41.992,13.672,0,0
1581628671,21.973,-59.57,48.34,3.418,0,0
1581628671,28.32,-59.082,25.391,2.93,0,0
1581628671,28.809,24.414,25.391,19.531,0,0
1581628671,27.832,47.852,33.203,5.859,0,0
1581628671,19.531,29.297,21.973,4.883,0,0
1581628671,2.93,23.438,21.973,0.488,0,0
1581628671,3.418,28.809,13.184,16.602,0,0
1581628671,21.484,37.109,2.441,38.574,0,0
1581628671,41.992,43.457,13.672,35.645,0,0
1581628671,27.344,33.203,28.32,30.762,0,0
1581628671,17.578,-24.414,26.855,20.996,0,0
1581628671,18.555,-9.277,5.859,27.832,0,0
1581628671,37.598,54.199,19.531,39.062,0,0
1581628671,53.711,50.293,44.434,37.598,0,0
1581628671,27.344,38.086,52.246,30.273,0,0
1581628671,22.461,52.246,56.152,36.133,0,0
1581628671,18.066,30.273,43.457,32.715,0,0
1581628671,16.602,7.324,29.297,18.555,0,0
1581628671,17.578,0,42.48,49.316,0,0
1581628671,14.16,-38.574,40.527,41.504,0,0
1581628671,15.137,-109.375,0.977,10.254,0,0
1581628671,27.832,-49.316,-19.043,18.555,0,0
1581628671,27.832,49.805,-19.043,16.602,0,0
1581628671,27.832,83.496,22.949,42.48,0,0
1581628671,37.109,92.773,57.129,37.109,0,0
1581628671,22.949,56.641,47.852,1.465,0,0
1581628671,13.184,39.062,47.852,19.043,0,0
1581628671,21.973,5.859,46.387,53.223,0,0
1581628671,25.391,-37.109,10.742,38.574,0,0
1581628671,36.133,2.441,0.977,7.324,0,0
1581628671,43.945,-3.906,33.691,18.555,0,0
1581628671,45.41,-70.801,41.992,29.297,0,0
1581628671,41.504,-46.387,28.809,36.133,0,0
1581628671,42.969,76.66,24.902,25.391,0,0
1581628671,36.621,131.348,36.621,10.742,0,0
1581628671,-13.672,82.52,39.062,15.137,0,0
1581628671,-7.812,51.758,37.598,16.602,0,0
1581628671,13.184,35.645,29.297,8.301,0,0
1581628671,21.973,-5.859,40.039,19.043,0,0
1581628671,59.57,-44.434,39.062,44.434,0,1
1581628671,65.918,-43.457,18.555,70.801,0,0
1581628671,44.434,4.883,0.977,61.523,0,0
1581628671,27.832,5.371,-4.395,29.785,0,0
1581628671,2.441,10.254,14.648,17.578,0,0
1581628671,-4.883,28.32,43.457,17.09,0,0
1581628671,1.465,22.461,41.016,4.395,0,0
1581628671,20.996,46.875,27.832,3.418,0,0
1581628671,28.32,41.016,12.695,16.602,0,0
1581628671,11.719,-38.086,16.113,21.484,0,0
1581628671,32.715,-29.297,34.18,29.297,0,0
1581628671,23.438,22.949,44.922,47.852,0,0
1581628671,14.16,23.926,47.852,24.902,0,0
1581628671,21.973,46.875,-13.184,-0.977,0,0
1581628671,-3.418,28.809,-5.859,16.602,0,0
1581628671,-1.465,7.324,49.316,23.438,0,0
1581628671,20.996,21.973,45.898,0.977,0,0
1581628671,23.926,46.875,44.922,-3.906,0,0
1581628671,14.648,23.926,37.598,14.648,0,0
1581628671,27.832,-17.578,46.875,27.344,0,0
1581628671,56.152,-5.371,61.035,33.203,0,0
1581628671,56.641,20.02,41.016,47.363,0,0
1581628671,31.25,34.668,19.043,36.621,0,0
1581628671,48.34,54.688,11.719,37.598,0,0
1581628671,53.223,62.988,-9.277,29.785,0,0
1581628671,47.363,46.387,-18.555,7.812,0,0
1581628671,33.691,4.883,31.25,19.043,0,0
1581628671,10.254,-21.484,48.34,32.715,0,0
1581628671,26.367,-11.23,32.227,45.41,0,0
1581628671,56.152,-25.879,31.738,49.805,0,0
1581628671,55.664,-47.363,41.016,43.945,0,0
1581628671,49.316,-22.461,54.199,54.199,0,0
1581628671,44.434,40.527,23.438,37.109,0,0
1581628671,11.23,106.445,16.113,23.926,0,0
1581628671,1.953,86.426,28.32,21.484,0,0
1581628671,0.977,55.176,29.785,-1.953,0,0
1581628671,11.719,47.852,27.344,20.508,0,0
1581628671,27.832,36.621,10.742,41.016,0,0
1581628671,26.855,21.973,32.715,24.414,0,0
1581628671,29.297,-12.207,54.688,15.137,0,0
1581628671,28.809,-24.902,30.762,21.973,0,0
1581628671,23.926,-51.758,21.484,31.738,0,0
1581628671,34.668,-77.148,3.906,60.547,0,0
1581628671,43.945,-48.34,-3.906,55.664,0,0
1581628671,38.574,41.504,25.879,24.902,0,0
1581628671,10.742,78.125,38.574,-1.465,0,0
1581628671,17.09,41.504,48.828,-7.324,0,0
1581628671,24.902,3.906,43.945,25.879,0,0
1581628671,3.418,-5.371,46.387,23.926,0,0
1581628671,20.508,44.434,39.062,15.625,0,0
1581628671,29.785,45.898,5.859,34.18,0,0
1581628671,26.367,39.551,22.949,33.203,0,0
1581628671,33.203,49.805,52.734,7.812,0,0
1581628671,34.18,38.574,20.02,11.23,0,0
1581628671,15.625,41.504,13.184,21.484,0,0
1581628671,9.277,35.645,37.109,29.297,0,0
1581628671,25.391,8.789,38.086,31.25,0,0
1581628671,23.926,2.441,11.23,20.508,0,0
1581628671,35.156,26.855,16.113,22.949,0,0
1581628671,64.453,5.371,45.898,43.457,0,0
1581628671,48.34,-81.543,33.203,57.129,0,0
1581628671,19.043,-35.645,15.137,40.527,0,0
1581628671,21.973,68.848,27.832,13.184,0,0
1581628671,35.156,95.215,29.297,23.926,0,0
1581628671,40.527,63.965,23.926,21.484,0,0
1581628671,41.016,47.363,21.973,22.949,0,0
1581628671,35.156,25.879,11.23,34.668,0,0
1581628671,44.434,13.672,12.695,36.133,0,0
1581628671,40.039,26.855,19.043,34.668,0,0
1581628671,29.785,3.418,16.113,35.156,0,0
1581628671,34.668,-19.043,24.414,27.832,0,0
1581628671,41.504,-13.184,41.504,26.367,0,0
1581628671,41.992,5.371,43.945,26.367,0,0
1581628671,31.738,13.184,25.879,22.949,0,0
1581628671,37.109,-12.695,2.93,19.531,0,0
1581628671,60.547,-5.859,-7.812,40.527,0,0
1581628671,84.473,60.059,18.066,62.5,0,0
1581628671,70.312,77.148,45.898,38.086,0,0
1581628671,42.48,41.504,41.992,39.551,0,0
1581628671,17.09,51.27,43.457,19.531,0,0
1581628671,5.371,79.102,49.805,8.789,0,0
1581628671,16.113,16.602,37.109,26.367,0,0
1581628671,19.531,-63.965,34.18,18.555,0,0
1581628671,11.719,-26.855,27.832,16.113,0,0
1581628671,9.766,49.805,15.625,22.461,0,0
1581628671,35.645,3.906,15.137,38.574,0,0
1581628671,55.176,-39.062,30.273,41.504,0,0
1581628671,43.945,62.012,-0.488,48.828,0,0
1581628671,22.461,101.074,-15.137,34.668,0,0
1581628671,25.879,83.984,26.855,33.691,0,0
1581628671,31.738,68.848,70.312,39.062,0,0
1581628671,33.203,17.09,71.777,20.02,0,0
1581628671,41.504,-37.598,46.387,29.785,0,0
1581628671,44.922,-97.168,39.062,46.875,0,0
1581628671,48.34,-88.379,33.203,25.879,0,0
1581628671,45.898,13.672,32.715,11.23,0,0
1581628671,60.059,86.914,46.387,38.574,0,0
1581628671,41.016,92.773,21.484,28.809,0,0
1581628671,18.555,41.992,-3.418,2.441,0,0
1581628671,28.809,-5.371,41.992,7.812,0,0
1581628671,8.789,20.508,50.781,13.672,0,0
1581628671,6.348,66.406,26.855,21.973,0,0
1581628671,20.02,42.969,34.668,15.625,0,0
1581628671,7.324,3.906,22.461,12.207,0,0
1581628671,30.273,-17.578,30.273,38.574,0,0
1581628671,37.598,1.953,28.32,32.227,0,0
1581628671,22.949,35.156,-1.953,8.301,0,0
1581628671,23.438,45.898,-3.418,0,0,0
1581628671,10.742,52.246,1.465,9.277,0,0
1581628671,20.996,35.645,19.531,12.207,0,0
1581628671,29.785,-6.836,26.855,22.461,0,0
1581628671,40.527,-43.945,50.781,29.785,0,0
1581628671,40.039,-8.789,61.035,17.578,0,0
1581628671,27.344,41.992,45.41,29.297,0,0
1581628671,31.25,64.453,48.34,34.668,0,0
1581628671,19.531,60.547,34.18,11.719,0,0
1581628671,7.324,59.57,7.812,11.719,0,0
1581628671,13.672,40.039,-4.395,12.695,0,0
1581628671,12.695,-31.25,2.441,2.441,0,0
1581628671,42.969,-52.246,7.812,28.809,0,0
1581628671,64.453,-16.602,31.738,48.34,0,0
1581628671,37.598,13.672,52.734,8.789,0,0
1581628671,3.418,34.668,34.18,-1.465,0,0
1581628671,24.414,46.875,21.484,22.461,0,0
1581628671,49.805,80.078,18.066,39.551,0,0
1581628671,38.574,54.688,27.832,56.641,0,0
1581628671,38.574,-15.625,28.32,67.383,0,0
1581628671,35.156,-26.855,17.09,35.645,0,0
1581628671,32.227,30.762,23.438,12.207,0,0
1581628671,53.711,-4.883,29.785,54.199,0,0
1581628671,69.824,-43.457,20.996,56.641,0,0
1581628671,48.828,30.273,6.348,10.254,0,0
1581628671,35.156,76.66,23.438,26.855,0,0
1581628671,33.691,75.684,63.965,49.805,0,0
1581628671,46.875,53.711,72.754,36.621,0,0
1581628671,62.5,31.738,48.828,35.645,0,0
1581628671,55.176,10.254,16.602,24.902,0,0
1581628671,26.367,40.039,26.367,12.695,0,0
1581628671,21.973,47.363,46.875,9.766,0,0
1581628671,38.574,10.742,23.438,13.184,0,0
1581628671,43.457,-38.086,38.086,54.688,0,0
1581628671,47.363,-94.238,53.711,56.641,0,0
1581628671,35.645,-57.617,32.227,18.066,0,0
1581628671,23.438,49.316,19.531,-0.488,0,0
1581628671,21.973,103.516,16.113,-5.859,0,0
1581628671,12.695,76.172,20.996,14.648,0,0
1581628671,1.465,61.523,41.016,22.461,0,0
1581628671,19.531,57.617,58.594,17.578,0,0
1581628671,18.066,14.16,37.109,18.555,0,0
1581628671,7.324,23.438,20.996,8.789,0,0
1581628671,13.184,37.598,18.066,5.859,0,0
1581628671,20.508,3.418,17.578,30.762,0,0
1581628671,24.414,-42.969,22.461,43.945,0,0
1581628671,22.949,-57.129,11.23,36.621,0,0
1581628671,24.414,5.859,21.484,34.668,0,0
1581628671,36.133,77.148,46.875,27.344,0,0
1581628671,28.32,77.637,65.43,14.648,0,0
1581628671,-3.906,36.621,54.199,10.254,0,0
1581628671,8.301,26.855,26.367,29.785,0,0
1581628671,29.297,-20.02,5.859,48.828,0,0
1581628671,47.363,-50.781,14.648,40.039,0,0
1581628671,35.156,8.789,42.969,27.832,0,0
1581628671,9.766,62.012,42.969,11.23,0,0
1581628671,4.395,87.891,25.879,3.418,0,0
1581628671,18.066,90.82,33.691,19.531,0,0
1581628671,31.738,38.574,29.297,45.41,0,0
1581628671,44.434,-20.02,40.527,37.598,0,0
1581628671,30.273,-22.461,56.152,14.648,0,0
1581628671,1.953,-7.324,33.203,19.531,0,0
1581628671,12.695,24.414,38.574,26.855,0,0
1581628671,20.508,44.922,33.691,32.715,0,0
1581628671,2.93,73.73,-5.859,28.809,0,0
1581628671,13.184,87.402,-6.348,-12.207,0,0
1581628671,18.066,63.477,13.672,-22.949,0,0
1581628671,-9.766,35.156,26.367,-1.465,0,0
1581628671,-10.742,12.207,33.203,-5.859,0,0
1581628671,-8.789,-10.742,12.695,-1.953,0,0
1581628671,-0.488,-18.066,17.578,19.531,0,0
1581628671,9.766,-52.734,27.344,8.789,0,0
1581628671,23.438,-43.945,23.926,3.418,0,0
1581628671,12.695,16.602,45.898,15.137,0,0
1581628671,-4.395,50.293,35.156,7.324,0,0
1581628671,7.812,45.41,5.859,11.719,0,0
1581628671,34.18,14.16,-4.395,27.344,0,0
1581628671,38.574,-39.551,11.23,33.203,0,0
1581628671,25.391,-74.707,20.02,24.902,0,0
1581628671,19.531,-18.066,20.508,6.348,0,0
1581628671,31.25,43.457,25.391,7.324,0,0
1581628671,30.273,57.129,37.109,20.996,0,0
1581628672,16.113,79.59,37.109,21.973,0,0
1581628672,10.254,54.199,35.645,7.324,0,0
1581628672,9.766,8.301,40.527,6.348,0,0
1581628672,14.16,1.953,15.625,19.043,0,0
1581628672,2.441,1.953,4.395,30.762,0,0
1581628672,3.418,16.602,26.367,10.742,0,0
1581628672,31.738,33.691,27.832,4.883,0,0
1581628672,39.062,24.414,5.371,8.301,0,0
1581628672,34.668,-18.066,16.602,28.32,0,0
1581628672,18.555,0.488,38.086,30.762,0,0
1581628672,-7.812,42.48,57.129,2.93,0,0
1581628672,9.277,40.039,54.199,-7.812,0,0
1581628672,24.414,47.852,20.02,-6.836,0,0
1581628672,11.719,41.504,7.324,9.766,0,0
1581628672,-6.348,11.23,-1.953,-13.184,0,0
1581628672,16.113,-21.973,-11.23,-2.93,0,0
1581628672,29.785,-29.297,29.297,23.926,0,0
1581628672,28.32,-18.555,65.43,16.602,0,0
1581628672,28.32,-25.391,54.199,32.227,0,0
1581628672,37.598,29.785,45.41,43.457,0,0
1581628672,37.598,93.262,41.992,21.973,0,0
1581628672,11.23,68.359,33.203,15.137,0,0
1581628672,15.137,47.852,21.973,32.715,0,0
1581628672,16.113,34.18,-0.977,17.09,0,0
1581628672,9.766,-0.488,1.953,11.23,0,0
1581628672,24.414,-25.391,2.441,17.578,0,0
1581628672,19.043,-70.312,-25.391,25.391,0,0
1581628672,17.09,-15.137,18.555,21.484,0,0
1581628672,31.738,94.238,76.66,5.371,0,0
1581628672,18.066,111.816,70.312,23.926,0,0
1581628672,5.371,117.188,41.992,17.09,0,0
1581628672,32.227,53.223,28.809,5.371,0,0
1581628672,15.625,-16.113,23.438,27.344,0,0
1581628672,-7.812,17.09,32.715,5.371,0,0
1581628672,-15.137,40.527,31.25,-7.812,0,0
1581628672,-5.371,18.555,-17.09,5.859,0,0
1581628672,23.926,-16.602,-54.688,-2.441,0,0
1581628672,39.062,-49.805,-12.207,10.254,0,0
1581628672,32.715,-60.547,56.152,21.973,0,0
1581628672,27.344,-9.277,49.316,6.836,0,0
1581628672,9.766,6.836,24.414,7.324,0,0
1581628672,6.836,-11.23,41.992,13.672,0,0
1581628672,-8.301,53.711,54.199,6.348,0,0
1581628672,-1.465,76.66,49.805,20.508,0,0
1581628672,18.555,41.992,51.758,20.02,0,0
1581628672,26.855,44.434,42.48,2.441,0,0
1581628672,25.391,69.824,24.902,20.508,0,0
1581628672,27.344,59.082,6.836,25.391,0,0
1581628672,46.387,-25.879,-3.418,25.879,0,0
1581628672,47.363,-67.871,10.742,36.621,0,0
1581628672,27.344,3.418,40.039,47.852,0,0
1581628672,16.113,63.477,41.016,46.387,0,0
1581628672,22.461,57.129,36.621,9.766,0,0
1581628672,25.879,1.953,43.945,15.137,0,0
1581628672,48.34,-58.594,29.785,41.504,0,0
1581628672,44.434,-20.02,38.574,23.926,0,0
1581628672,16.113,49.805,12.695,9.277,0,0
1581628672,36.621,28.32,-4.395,24.902,0,0
1581628672,37.598,41.504,45.41,30.273,0,0
1581628672,24.902,41.016,32.715,15.137,0,0
1581628672,27.832,16.113,2.93,17.09,0,0
1581628672,10.742,44.434,22.461,25.879,0,0
1581628672,0.977,78.613,33.203,20.508,0,0
1581628672,20.996,81.543,42.48,12.207,0,0
1581628672,15.625,30.273,40.527,20.02,0,0
1581628672,4.395,-12.207,32.715,23.926,0,0
1581628672,33.203,-17.578,30.273,30.273,0,0
1581628672,40.527,-16.602,16.602,41.504,0,0
1581628672,52.246,20.508,18.555,57.129,0,0
1581628672,51.758,17.09,20.996,44.922,0,0
1581628672,36.621,-11.719,-7.324,9.766,0,0
1581628672,52.246,8.301,0.977,16.602,0,0
1581628672,29.785,32.227,38.574,32.715,0,0
1581628672,17.09,67.383,43.945,19.043,0,0
1581628672,28.32,43.945,42.48,5.859,0,0
1581628672,39.551,-18.066,50.781,48.828,0,0
1581628672,46.875,0,50.293,71.289,0,0
1581628672,46.387,34.668,16.113,43.457,0,0
1581628672,53.711,36.133,2.441,33.691,0,0
1581628672,47.852,60.547,21.484,33.203,0,0
1581628672,27.832,40.039,53.223,26.855,0,0
1581628672,13.184,2.441,53.223,10.254,0,0
1581628672,10.254,30.762,35.156,16.113,0,0
1581628672,24.414,56.641,22.949,22.461,0,0
1581628672,41.992,-0.977,33.691,20.508,0,0
1581628672,36.133,-48.828,37.598,40.527,0,0
1581628672,37.598,11.719,11.719,54.688,0,0
1581628672,29.297,61.523,21.973,20.02,0,0
1581628672,10.254,47.852,14.16,1.953,0,0
1581628672,12.695,90.332,11.23,27.832,0,0
1581628672,22.461,82.031,33.691,33.691,0,0
1581628672,20.508,44.922,37.598,15.625,0,0
1581628672,30.273,-14.648,48.34,20.02,0,0
1581628672,48.34,-100.098,50.781,27.344,0,2
1581628672,43.457,-60.547,47.852,40.527,0,0
1581628672,31.738,-21.484,21.973,43.457,0,0
1581628672,31.738,3.906,0,30.273,0,0
1581628672,28.809,95.215,-0.488,15.625,0,0
1581628672,0.977,136.23,5.371,-8.789,0,0
1581628672,1.465,88.867,0.977,5.371,0,0
1581628672,27.832,51.758,18.066,36.133,0,0
1581628672,32.227,-12.207,56.641,43.457,0,0
1581628672,40.039,-118.164,66.895,31.738,0,0
1581628672,39.551,-86.914,70.801,10.254,0,0
1581628672,17.578,40.039,29.785,13.184,0,0
1581628672,21.484,120.117,-2.441,26.367,0,0
1581628672,18.066,97.168,15.625,16.113,0,0
1581628672,15.625,60.547,25.391,29.785,0,0
1581628672,37.109,37.598,13.184,55.176,0,0
1581628672,28.809,-29.785,33.691,50.781,0,0
1581628672,10.742,-47.363,55.664,35.156,0,0
1581628672,20.02,5.371,31.738,21.484,0,0
1581628672,29.785,-2.93,27.344,12.695,0,0
1581628672,27.344,-28.809,45.41,21.484,0,0
1581628672,29.785,10.742,55.176,48.34,0,0
1581628672,38.086,64.941,61.523,41.016,0,0
1581628672,50.781,78.613,67.871,36.621,0,0
1581628672,41.504,50.293,55.176,34.18,0,0
1581628672,13.184,47.363,-5.371,0.977,0,0
1581628672,0.488,24.902,-52.246,-0.977,0,0
1581628672,26.855,-12.695,-8.789,19.531,0,0
1581628672,30.762,9.277,45.41,17.09,0,0
1581628672,16.602,5.859,58.594,17.09,0,0
1581628672,29.297,-107.422,63.965,27.832,0,0
1581628672,24.414,-74.707,67.383,34.18,0,0
1581628672,19.531,87.891,45.41,41.992,0,0
1581628672,14.16,122.07,30.762,19.531,0,0
1581628672,16.113,82.52,27.344,20.02,0,0
1581628672,20.02,55.176,11.719,29.785,0,0
1581628672,21.484,40.527,8.301,19.531,0,0
1581628672,28.32,-26.855,10.254,43.945,0,0
1581628672,20.508,-104.492,34.18,55.176,0,0
1581628672,8.301,-60.059,50.293,41.016,0,0
1581628672,10.254,23.438,39.551,17.09,0,0
1581628672,10.742,36.133,36.133,13.184,0,0
1581628672,13.184,37.598,40.527,19.531,0,0
1581628672,2.93,60.547,12.207,-2.93,0,0
1581628672,9.766,42.969,-2.93,3.418,0,0
1581628672,32.715,6.348,32.715,20.02,0,0
1581628672,15.625,26.855,28.32,14.648,0,0
1581628672,-0.977,39.062,-6.836,-0.977,0,0
1581628672,1.953,-56.152,23.438,10.254,0,0
1581628672,10.254,-73.242,54.688,12.207,0,0
1581628672,22.949,61.523,49.316,1.465,0,0
1581628672,14.648,86.914,27.344,10.254,0,0
1581628672,25.391,33.691,24.414,14.648,0,0
1581628672,44.434,-63.965,46.875,14.648,0,0
1581628672,41.992,-33.203,12.695,20.996,0,0
1581628672,50.293,111.328,-23.926,23.438,0,0
1581628672,62.5,48.828,23.926,41.016,0,0
1581628672,40.039,-22.949,47.852,39.551,0,0
1581628672,14.16,42.969,37.598,41.016,0,0
1581628672,20.996,81.055,46.875,31.738,0,0
1581628672,10.742,82.52,51.27,8.789,0,0
1581628672,9.277,34.668,44.434,9.277,0,0
1581628672,30.762,-29.785,33.203,-3.418,0,0
1581628672,22.949,-32.715,12.207,-8.789,0,0
1581628672,17.578,15.137,-15.137,13.672,0,0
1581628672,20.508,75.684,-8.301,25.879,0,0
1581628672,13.184,73.73,36.621,37.598,0,0
1581628672,26.367,33.691,51.27,44.922,0,0
1581628672,35.156,11.23,44.922,25.879,0,0
1581628672,20.02,24.414,41.016,23.438,0,0
1581628672,9.277,41.016,25.391,11.719,0,0
1581628672,33.691,29.785,22.949,15.625,0,0
1581628672,26.367,-3.906,14.648,34.668,0,0
1581628672,0.977,-13.672,20.996,32.227,0,0
1581628672,12.207,7.812,31.738,20.02,0,0
1581628672,35.156,-21.973,0.488,22.461,0,0
1581628672,43.945,16.113,-2.441,38.086,0,0
1581628672,45.41,45.41,28.809,42.48,0,0
1581628672,50.781,7.812,42.48,23.438,0,0
1581628672,24.414,22.461,45.898,22.461,0,0
1581628672,1.953,62.5,54.199,23.438,0,0
1581628672,7.812,70.801,45.41,20.02,0,0
1581628672,28.32,41.992,41.016,26.367,0,0
1581628672,46.387,-36.133,48.34,50.781,0,0
1581628672,42.969,-82.52,29.297,43.457,0,0
1581628672,39.062,0.488,15.625,25.391,0,0
1581628672,18.555,95.215,3.418,26.855,0,0
1581628672,3.906,107.91,-17.578,10.742,0,0
1581628672,16.113,77.637,30.273,8.789,0,0
1581628672,34.668,20.508,76.66,40.039,0,0
1581628672,31.25,-45.898,61.035,42.969,0,0
1581628672,10.254,-22.461,38.574,16.602,0,0
1581628672,4.883,20.996,19.043,20.508,0,0
1581628672,19.531,15.137,35.645,27.344,0,0
1581628672,21.973,48.34,57.617,23.438,0,0
1581628672,32.715,48.34,38.086,28.809,0,0
1581628672,45.41,14.648,27.832,33.203,0,0
1581628672,35.156,15.137,9.277,23.438,0,0
1581628672,15.137,15.137,-10.742,16.602,0,0
1581628672,36.133,1.465,19.043,22.461,0,0
1581628672,59.57,-32.227,55.664,32.715,0,0
1581628672,29.785,-28.32,56.152,12.207,0,0
1581628672,19.531,55.176,40.039,3.418,0,0
1581628672,14.648,86.914,3.906,17.09,0,0
1581628672,-0.488,66.406,-13.184,3.906,0,0
1581628672,20.02,74.219,22.949,18.555,0,0
1581628672,45.41,69.336,29.297,49.805,0,0
1581628672,29.297,-62.5,16.602,32.227,0,0
1581628672,31.738,-138.184,23.438,28.32,0,0
1581628672,39.062,5.371,14.16,41.016,0,0
1581628672,25.879,89.355,12.207,30.762,0,0
1581628672,11.23,87.891,38.574,18.066,0,0
1581628672,-0.488,103.516,39.551,20.996,0,0
1581628672,15.625,74.219,41.992,37.598,0,0
1581628672,42.48,14.16,26.855,34.668,0,0
1581628672,45.898,-1.953,6.348,23.438,0,0
1581628672,37.598,7.812,38.574,35.645,0,0
1581628672,40.527,-9.766,56.641,27.832,0,0
1581628672,20.996,-22.949,45.41,2.441,0,0
1581628672,-4.395,-2.441,36.133,-3.418,0,0
1581628672,-9.277,62.5,30.273,8.789,0,0
1581628672,7.324,75.684,40.527,16.602,0,0
1581628672,11.719,23.926,33.691,3.418,0,0
1581628672,8.789,-38.086,28.32,14.16,0,0
1581628672,31.738,-50.293,44.922,30.762,0,0
1581628672,18.555,37.109,46.387,22.461,0,0
1581628672,2.93,20.996,2.93,21.973,0,0
1581628672,19.531,-61.035,-5.859,43.457,0,0
1581628672,13.672,24.902,32.227,36.621,0,0
1581628672,-9.766,101.562,46.875,-4.883,0,0
1581628672,-8.301,99.609,43.457,-8.301,0,0
1581628672,5.859,77.148,36.133,0.488,0,0
1581628672,15.625,33.203,36.133,8.301,0,0
1581628672,34.668,-44.922,22.461,21.973,0,0
1581628672,40.039,-57.617,-14.16,23.926,0,0
1581628672,28.809,2.93,5.371,30.273,0,0
1581628672,42.48,9.766,17.578,29.785,0,0
1581628672,61.035,-62.5,3.906,29.785,0,0
1581628672,63.477,-20.02,14.648,39.551,0,0
1581628672,46.875,119.141,40.039,48.34,0,0
1581628672,13.672,152.344,61.035,17.578,0,0
1581628672,-1.953,109.375,59.57,-0.488,0,0
1581628672,-1.953,53.711,43.457,-0.977,0,0
1581628672,12.207,1.953,28.809,-25.391,0,0
1581628672,56.641,-24.902,38.574,-11.23,0,0
1581628672,53.223,-56.152,11.719,17.09,0,0
1581628672,21.973,-23.438,-24.902,33.691,0,0
1581628672,28.809,33.691,0,31.25,0,0
1581628672,22.949,36.621,34.18,-4.395,0,0
1581628672,8.789,38.086,34.18,-13.672,0,0
1581628672,10.254,31.738,8.789,14.16,0,0
1581628672,35.156,45.898,40.039,40.039,0,0
1581628672,19.531,59.57,55.664,19.043,0,0
1581628672,-8.789,45.898,35.156,0.488,0,0
1581628672,-6.348,1.953,29.297,11.23,0,0
1581628672,-2.93,4.395,29.785,7.324,0,0
1581628672,14.648,21.484,24.902,34.18,0,0
1581628672,16.602,-6.836,9.766,26.855,0,0
1581628672,7.812,14.648,7.812,-3.418,0,0
1581628672,23.438,28.32,16.602,8.789,0,0
1581628672,44.434,17.09,16.602,35.156,0,0
1581628673,35.156,34.18,4.883,44.434,0,0
1581628673,10.254,49.805,22.461,21.973,0,0
1581628673,7.812,62.012,43.945,3.418,0,0
1581628673,19.043,26.855,49.316,13.184,0,0
1581628673,50.293,-60.547,58.105,38.574,0,0
1581628673,56.152,-54.688,57.617,23.926,0,0
1581628673,23.926,-14.648,44.922,6.836,0,0
1581628673,8.789,71.289,30.762,4.883,0,0
1581628673,23.926,133.301,37.598,-9.277,0,0
1581628673,34.18,98.145,14.648,0.977,0,0
1581628673,15.625,74.219,-8.301,16.113,0,0
1581628673,13.672,38.574,-7.812,28.32,0,0
1581628673,26.367,11.719,-14.648,46.875,0,0
1581628673,56.641,-17.09,20.996,51.27,0,0
1581628673,70.312,-88.867,53.223,45.898,0,0
1581628673,46.387,-35.645,53.711,56.152,0,0
1581628673,6.348,69.824,23.926,40.039,0,0
1581628673,-6.348,63.477,20.02,13.672,0,0
1581628673,0,74.707,47.852,10.254,0,0
1581628673,0.977,83.008,1.953,20.508,0,0
1581628673,21.484,54.688,-14.16,21.484,0,0
1581628673,60.059,-53.223,37.598,20.996,0,0
1581628673,51.758,-109.863,33.691,35.645,0,0
1581628673,9.766,18.066,29.785,33.203,0,0
1581628673,16.602,100.586,34.668,28.32,0,0
1581628673,30.762,47.852,42.969,32.715,0,0
1581628673,1.465,0,45.41,-0.977,0,0
1581628673,-6.348,71.777,42.969,-15.137,0,0
1581628673,-2.93,114.258,26.855,4.883,0,0
1581628673,8.301,7.812,13.672,1.953,0,0
1581628673,11.23,-97.656,29.785,10.742,0,0
1581628673,-0.488,-17.578,25.879,12.695,0,0
1581628673,7.324,105.469,11.719,9.277,0,0
1581628673,17.09,114.258,7.324,3.906,0,0
1581628673,35.645,67.383,46.875,23.438,0,0
1581628673,31.25,16.113,68.848,31.25,0,0
1581628673,27.832,-14.16,45.41,12.695,0,0
1581628673,42.969,-20.508,29.785,28.32,0,0
1581628673,47.363,14.16,8.301,29.297,0,0
1581628673,47.363,54.688,5.859,17.09,0,0
1581628673,56.152,30.762,29.785,35.645,0,0
1581628673,32.227,15.137,33.691,42.48,0,0
1581628673,17.578,2.441,-11.23,37.109,0,0
1581628673,30.273,-31.25,1.953,35.645,0,0
1581628673,16.113,31.25,48.828,34.18,0,0
1581628673,3.906,97.656,47.852,10.254,0,0
1581628673,1.465,57.129,32.715,9.766,0,0
1581628673,27.832,4.395,3.906,23.438,0,0
1581628673,40.527,-2.93,9.766,24.414,0,0
1581628673,22.949,29.297,51.758,41.504,0,0
1581628673,16.113,68.848,40.039,7.324,0,0
1581628673,10.742,87.891,25.879,-29.297,0,0
1581628673,9.766,25.879,47.852,-4.395,0,0
1581628673,16.602,-66.895,25.391,19.531,0,0
1581628673,20.508,-53.711,9.766,11.719,0,0
1581628673,24.414,16.113,14.648,5.859,0,0
1581628673,7.324,85.449,7.812,-5.371,0,0
1581628673,-1.953,82.52,24.414,1.953,0,0
1581628673,12.695,35.645,47.363,22.949,0,0
1581628673,13.672,30.762,24.414,18.555,0,0
1581628673,31.25,62.988,-19.531,-1.953,0,0
1581628673,27.344,-8.301,10.254,-0.977,0,0
1581628673,0,-88.379,44.434,19.043,0,0
1581628673,1.465,-33.203,32.715,28.32,0,0
1581628673,18.066,53.711,-11.719,18.555,0,0
1581628673,21.484,100.586,-14.16,9.277,0,0
1581628673,29.785,67.871,26.855,11.23,0,0
1581628673,27.832,-1.953,46.387,34.668,0,0
1581628673,17.578,-1.465,53.223,53.223,0,0
1581628673,27.344,39.551,31.738,14.648,0,0
1581628673,25.391,77.148,13.672,-2.441,0,0
1581628673,22.461,84.473,27.832,18.066,0,0
1581628673,25.879,54.688,49.316,19.531,0,0
1581628673,25.391,4.395,52.246,25.879,0,0
1581628673,33.203,-60.059,24.902,34.668,0,0
1581628673,33.203,-95.703,23.926,47.852,0,0
1581628673,34.668,-68.359,47.363,51.758,0,0
1581628673,33.203,35.645,42.969,37.598,0,0
1581628673,12.695,107.91,33.691,21.973,0,0
1581628673,12.695,101.562,23.438,1.465,0,0
1581628673,16.113,60.059,15.137,10.742,0,0
1581628673,14.16,1.465,22.949,17.09,0,0
1581628673,41.016,-59.57,46.875,17.578,0,0
1581628673,39.062,-31.25,37.598,31.25,0,0
1581628673,38.574,39.551,12.207,52.734,0,0
1581628673,52.734,43.945,27.832,49.316,0,0
1581628673,28.32,7.812,31.25,20.996,0,0
1581628673,-8.789,9.277,9.277,14.16,0,0
1581628673,4.395,65.43,29.297,20.996,0,0
1581628673,15.625,76.66,16.113,-3.418,0,0
1581628673,21.484,53.711,12.695,-9.766,0,0
1581628673,35.156,41.504,50.293,12.207,0,0
1581628673,17.578,-6.836,53.223,1.465,0,0
1581628673,5.859,-45.898,52.246,3.418,0,0
1581628673,12.207,-20.02,45.898,11.719,0,0
1581628673,17.09,-20.02,20.02,15.137,0,0
1581628673,33.203,-14.16,23.926,26.855,0,0
1581628673,19.531,28.809,33.691,25.391,0,0
1581628673,15.137,45.41,22.949,24.902,0,0
1581628673,23.438,23.438,7.324,25.391,0,0
1581628673,4.395,19.531,9.766,20.02,0,0
1581628673,6.348,28.32,34.18,21.484,0,2
1581628673,14.648,-0.977,37.598,8.301,0,0
1581628673,13.184,-5.859,51.27,-1.953,0,0
1581628673,0.977,14.16,17.09,19.043,0,0
1581628673,10.742,-6.836,-48.828,21.973,0,0
1581628673,26.367,-41.016,-6.348,14.16,0,0
1581628673,18.555,-24.902,57.617,22.461,0,0
1581628673,12.695,16.602,62.012,15.137,0,0
1581628673,17.578,59.57,41.016,3.906,0,0
1581628673,35.156,82.031,45.898,22.949,0,0
1581628673,54.199,69.824,40.527,19.531,0,0
1581628673,43.457,31.738,13.184,8.789,0,0
1581628673,20.996,24.902,23.926,45.41,0,0
1581628673,35.156,37.598,39.062,46.387,0,0
1581628673,43.457,20.996,25.391,21.484,0,0
1581628673,31.25,44.922,6.348,25.391,0,0
1581628673,26.855,41.504,10.742,31.25,0,0
1581628673,41.016,-20.02,40.039,39.062,0,0
1581628673,56.152,-24.414,53.711,45.41,0,0
1581628673,49.805,-10.742,28.32,45.898,0,0
1581628673,43.457,9.766,37.109,42.969,0,0
1581628673,38.086,51.27,27.832,48.34,0,0
1581628673,4.883,44.434,-56.641,23.926,0,0
1581628673,-7.812,11.23,-36.133,-6.348,0,0
1581628673,5.371,41.504,48.34,10.254,0,0
1581628673,5.859,77.148,55.176,8.789,0,0
1581628673,7.812,66.895,51.27,-14.16,0,0
1581628673,4.883,12.695,23.438,2.441,0,0
1581628673,35.156,-16.602,20.996,33.691,0,0
1581628673,34.18,1.465,54.199,37.598,0,0
1581628673,5.859,45.41,53.711,19.531,0,0
1581628673,35.645,24.414,51.758,23.438,0,0
1581628673,32.227,-25.391,15.625,19.531,0,0
1581628673,9.277,6.348,-24.414,4.883,0,0
1581628673,11.23,65.43,-1.465,7.812,0,0
1581628673,17.578,64.453,30.273,28.32,0,0
1581628673,19.043,34.668,56.641,24.902,0,0
1581628673,15.137,26.367,51.27,6.836,0,0
1581628673,18.555,-9.277,36.133,11.23,0,0
1581628673,36.133,-23.926,19.043,25.391,0,0
1581628673,59.57,24.414,5.859,30.762,0,0
1581628673,53.223,26.367,27.344,10.254,0,0
1581628673,21.973,-29.785,56.152,15.137,0,0
1581628673,24.414,-24.414,23.926,26.855,0,0
1581628673,37.109,58.594,-13.672,22.461,0,0
1581628673,22.949,101.562,9.766,36.133,0,0
1581628673,26.367,53.223,45.41,32.227,0,0
1581628673,20.02,10.742,50.781,3.906,0,0
1581628673,17.09,26.367,22.461,22.949,0,0
1581628673,28.32,66.406,27.344,42.969,0,0
1581628673,28.32,53.711,40.039,34.668,0,0
1581628673,23.926,13.184,18.555,18.066,0,0
1581628673,31.25,-14.648,20.996,22.949,0,0
1581628673,48.828,-14.648,17.09,31.738,0,0
1581628673,50.781,42.48,12.207,28.809,0,0
1581628673,41.504,74.707,32.227,32.715,0,0
1581628673,41.504,50.293,52.734,40.527,0,0
1581628673,52.246,-20.996,72.266,64.453,0,0
1581628673,55.664,-48.34,58.594,71.777,0,0
1581628673,30.762,60.059,33.203,30.273,0,0
1581628673,20.996,123.535,34.18,26.367,0,0
1581628673,36.133,41.992,12.695,47.363,0,0
1581628673,45.41,22.949,-18.555,21.973,0,0
1581628673,42.969,95.215,-4.883,23.926,0,0
1581628673,14.648,79.102,37.598,40.039,0,0
1581628673,18.555,45.41,65.918,36.621,0,0
1581628673,45.898,58.594,46.875,40.527,0,0
1581628673,46.875,-29.297,35.645,50.293,0,0
1581628673,34.668,-110.84,56.641,54.688,0,0
1581628673,25.391,-13.672,50.781,39.062,0,0
1581628673,23.438,40.527,37.109,17.09,0,0
1581628673,10.742,48.828,22.461,22.949,0,0
1581628673,26.367,67.871,13.184,32.227,0,0
1581628673,29.297,84.961,-3.418,28.809,0,0
1581628673,11.23,70.312,4.395,30.273,0,0
1581628673,28.809,25.879,29.297,54.688,0,0
1581628673,44.434,2.93,24.414,52.734,0,0
1581628673,61.523,-39.551,44.434,44.434,0,0
1581628673,42.969,-29.297,43.945,37.109,0,0
1581628673,26.855,-1.465,8.301,23.438,0,0
1581628673,39.062,4.883,1.465,50.781,0,0
1581628673,28.809,49.805,20.508,18.555,0,0
1581628673,21.973,78.613,46.875,12.207,0,0
1581628673,29.785,84.961,65.43,35.645,0,0
1581628673,42.969,72.266,51.27,39.551,0,0
1581628673,37.109,53.711,40.039,45.898,0,0
1581628673,21.973,28.809,38.574,14.648,0,0
1581628673,39.551,5.371,37.109,25.879,0,0
1581628673,47.852,-24.414,0,51.27,0,0
1581628673,44.434,-20.508,-6.836,55.664,0,0
1581628673,47.363,44.434,21.973,35.645,0,0
1581628673,40.527,65.918,25.879,15.625,0,0
1581628673,19.531,49.805,38.574,17.578,0,0
1581628673,16.113,6.348,47.852,30.273,0,0
1581628673,26.855,-44.922,30.762,35.156,0,0
1581628673,35.645,-37.109,23.438,30.273,0,0
1581628673,30.273,22.461,38.574,37.109,0,0
1581628673,24.414,83.984,45.898,39.062,0,0
1581628673,34.18,86.426,20.02,36.621,0,0
1581628673,44.434,40.527,11.23,53.223,0,0
1581628673,57.129,-13.672,-15.137,36.133,0,0
1581628673,62.012,-35.156,-22.461,5.859,0,0
1581628673,33.203,38.086,19.043,20.996,0,0
1581628673,13.672,89.355,28.809,34.668,0,0
1581628673,17.09,58.594,45.41,20.996,0,0
1581628673,30.273,14.648,62.988,16.602,0,0
1581628673,49.316,-4.395,62.5,45.41,0,0
1581628673,29.785,38.086,41.504,53.223,0,0
1581628673,14.648,57.129,17.578,11.719,0,0
1581628673,42.969,44.922,17.578,15.625,0,0
1581628673,39.551,16.602,2.441,19.043,0,0
1581628673,19.043,-40.039,-12.695,7.812,0,0
1581628673,41.016,-40.527,23.926,23.438,0,0
1581628673,42.48,-4.395,29.297,40.527,0,0
1581628673,32.715,43.457,16.602,47.363,0,0
1581628673,46.875,75.195,33.691,3.906,0,0
1581628673,22.949,66.406,34.668,-10.742,0,0
1581628673,-2.441,32.715,17.09,15.625,0,0
1581628673,18.066,-8.789,41.992,27.344,0,0
1581628673,28.32,-8.301,59.57,41.016,0,0
1581628673,24.414,22.949,25.391,35.645,0,0
1581628673,14.648,23.438,-15.625,9.277,0,0
1581628673,9.277,31.738,-11.23,0,0,0
1581628673,-6.836,45.41,13.672,-2.441,0,0
1581628673,-5.371,49.805,-2.93,-9.766,0,0
1581628673,7.812,28.32,2.93,14.648,0,0
1581628673,28.809,-19.531,34.668,34.668,0,0
1581628673,34.668,4.883,63.477,26.367,0,0
1581628673,15.625,47.852,70.801,2.93,0,0
1581628673,-1.465,5.859,62.012,3.418,0,0
1581628673,11.23,-28.809,47.852,27.344,0,0
1581628673,4.395,3.906,19.043,13.184,0,0
1581628673,-1.953,32.227,28.32,2.441,0,0
1581628673,1.953,20.996,30.273,0,0,0
1581628673,11.23,62.988,8.301,7.324,0,0
1581628673,31.25,94.238,17.09,19.531,0,0
1581628673,19.043,49.805,34.668,14.648,0,0
1581628673,12.695,18.066,34.18,5.371,0,0
1581628673,27.344,-2.93,23.438,-4.395,0,0
1581628673,30.273,-19.531,9.766,8.789,0,0
1581628673,31.738,-6.348,25.391,31.738,0,0
1581628673,23.926,43.945,51.27,25.879,0,0
1581628673,18.555,74.219,36.621,11.719,0,0
1581628673,11.719,74.219,10.742,16.113,0,0
1581628673,4.395,51.758,11.719,15.137,0,0
1581628673,17.09,29.785,30.273,5.371,0,0
1581628673,27.344,15.625,30.273,10.742,0,0
1581628673,28.809,-18.555,13.672,18.066,0,0
1581628673,27.832,-33.203,27.832,25.391,0,0
1581628673,27.832,5.371,26.855,38.574,0,0
1581628673,27.832,53.223,10.742,24.902,0,0
1581628673,5.859,48.34,32.227,9.277,0,0
1581628673,-14.648,41.504,30.273,-5.371,0,0
1581628673,-20.02,33.203,18.066,-0.488,0,0
1581628674,-7.324,-38.574,21.484,17.578,0,0
1581628674,18.555,-63.477,22.949,16.113,0,0
1581628674,29.785,-6.836,35.645,22.949,0,0
1581628674,28.32,-3.906,57.129,37.598,0,0
1581628674,45.898,-3.906,43.457,27.344,0,0
1581628674,21.973,55.176,0.488,0.488,0,0
1581628674,-9.766,92.285,0.488,-20.02,0,0
1581628674,2.93,97.656,29.297,-22.949,0,0
1581628674,30.273,68.359,55.176,18.066,0,0
1581628674,41.016,22.461,37.598,29.785,0,0
1581628674,47.363,41.992,27.832,16.113,0,0
1581628674,41.016,36.621,47.363,17.578,0,0
1581628674,40.527,10.254,51.758,24.414,0,0
1581628674,55.176,18.555,61.523,47.852,0,0
1581628674,52.246,22.461,43.457,53.223,0,0
1581628674,28.32,8.301,-27.344,17.09,0,0
1581628674,16.602,10.254,-42.48,-8.789,0,0
1581628674,21.973,9.277,10.254,20.996,0,0
1581628674,30.273,16.113,63.965,41.992,0,0
1581628674,22.461,53.223,72.266,18.555,0,0
1581628674,15.137,49.805,19.043,18.066,0,0
1581628674,39.062,-8.301,-5.371,45.41,0,0
1581628674,54.688,-2.93,32.715,55.664,0,0
1581628674,27.344,62.5,50.781,27.832,0,0
1581628674,-6.836,93.75,30.273,-1.953,0,0
1581628674,-14.648,69.336,9.766,0.488,0,0
1581628674,1.465,19.043,28.32,2.93,0,0
1581628674,5.371,-16.113,43.457,-2.93,0,0
1581628674,8.301,2.93,33.203,-1.953,0,0
1581628674,11.23,31.738,9.277,1.953,0,0
1581628674,29.785,20.02,17.578,27.344,0,0
1581628674,30.762,23.926,50.781,35.645,0,0
1581628674,14.16,61.523,56.152,32.227,0,0
1581628674,20.02,48.34,35.156,34.18,0,0
1581628674,20.996,16.113,5.371,21.973,0,0
1581628674,7.324,10.254,-3.906,15.625,0,0
1581628674,-4.883,3.418,28.809,-8.301,0,0
1581628674,23.438,14.648,71.289,2.93,0,0
1581628674,27.832,-5.859,73.73,33.691,0,0
1581628674,17.578,-18.066,52.246,32.715,0,0
1581628674,28.32,22.461,40.527,17.578,0,0
1581628674,22.461,79.59,10.742,18.555,0,0
1581628674,27.344,99.609,-16.602,34.668,0,0
1581628674,39.551,16.602,-11.719,41.504,0,0
1581628674,45.898,-25.879,-26.367,40.039,0,0
1581628674,32.715,43.945,7.812,27.344,0,0
1581628674,26.367,82.52,70.312,15.137,0,0
1581628674,27.344,67.871,80.566,15.625,0,0
1581628674,3.906,28.809,71.289,19.531,0,0
1581628674,7.324,9.277,48.34,19.531,0,0
1581628674,25.391,24.902,34.668,19.043,0,0
1581628674,22.949,33.691,27.832,8.789,0,0
1581628674,40.527,39.551,33.203,27.344,0,0
1581628674,40.527,24.902,28.32,50.781,0,0
1581628674,17.578,17.578,-2.441,26.367,0,0
1581628674,15.137,-5.859,-40.039,10.254,0,0
1581628674,21.484,-24.902,-20.996,20.508,0,0
1581628674,32.715,-38.574,31.25,32.227,0,0
1581628674,27.344,-42.969,66.895,26.855,0,0
1581628674,-3.418,-4.883,70.312,13.184,0,0
1581628674,9.766,29.297,61.035,9.766,0,0
1581628674,9.277,56.152,41.992,2.93,0,0
1581628674,-9.766,40.527,12.695,10.254,0,0
1581628674,3.418,37.598,14.648,31.738,0,0
1581628674,23.438,70.312,26.855,42.48,0,0
1581628674,26.367,48.34,15.137,41.016,0,0
1581628674,20.996,46.387,12.695,28.809,0,0
1581628674,15.137,5.371,22.949,21.484,0,0
1581628674,36.133,-10.742,35.156,11.719,0,0
1581628674,52.246,-14.16,18.555,15.625,0,0
1581628674,26.367,-65.43,1.465,34.18,0,0
1581628674,12.207,-13.184,23.438,25.879,0,0
1581628674,11.719,65.918,48.34,4.883,0,0
1581628674,3.418,99.609,50.781,13.672,0,0
1581628674,-4.395,81.543,37.598,14.16,0,0
1581628674,7.812,21.484,24.414,7.812,0,0
1581628674,16.113,13.672,22.461,11.719,0,0
1581628674,16.113,45.41,4.883,3.418,0,0
1581628674,29.297,51.758,3.418,14.648,0,0
1581628674,41.016,44.922,6.836,34.18,0,0
1581628674,3.906,-10.742,-11.23,16.602,0,0
1581628674,-1.465,-29.297,-1.953,15.625,0,0
1581628674,28.809,34.668,44.922,30.273,0,0
1581628674,14.648,41.992,72.754,16.113,0,0
1581628674,18.555,10.742,61.523,17.09,0,0
1581628674,16.602,6.836,36.621,16.602,0,0
1581628674,11.23,-4.883,25.391,29.297,0,0
1581628674,22.949,8.789,20.508,32.227,0,0
1581628674,9.277,34.668,-24.902,23.926,0,0
1581628674,18.555,33.203,-21.484,21.973,0,0
1581628674,42.969,12.207,42.969,18.066,0,0
1581628674,37.598,-8.789,43.457,22.949,0,0
1581628674,13.184,-23.438,28.32,19.531,0,0
1581628674,9.766,-15.137,57.617,37.598,0,0
1581628674,25.391,12.207,39.062,42.48,0,0
1581628674,15.137,24.902,25.879,15.625,0,0
1581628674,14.16,59.082,41.992,-0.488,0,0
1581628674,9.766,61.035,32.715,-6.836,0,0
1581628674,19.531,44.922,37.109,5.371,0,0
1581628674,36.133,69.824,35.156,4.395,0,0
1581628674,19.531,69.336,5.371,8.789,0,0
1581628674,21.484,61.035,-2.441,26.855,0,0
1581628674,37.109,38.086,36.621,39.551,0,0
1581628674,47.852,-87.402,51.758,49.805,0,0
1581628674,51.27,-99.609,29.297,42.48,0,0
1581628674,41.016,18.555,31.25,50.293,0,0
1581628674,9.766,71.777,24.902,16.602,0,0
1581628674,14.648,85.938,20.508,-2.93,0,0
1581628674,39.551,56.152,26.855,18.555,0,0
1581628674,16.113,32.227,39.551,23.438,0,0
1581628674,13.184,46.387,51.27,18.066,0,0
1581628674,25.391,67.383,4.883,26.855,0,0
1581628674,21.973,45.898,-33.203,52.246,0,0
1581628674,20.02,-13.672,-0.977,34.18,0,0
1581628674,28.32,-34.18,31.738,2.93,0,0
1581628674,20.996,19.043,53.223,29.785,0,0
1581628674,3.906,70.312,45.41,19.531,0,0
1581628674,5.371,67.871,16.602,-7.324,0,0
1581628674,12.695,72.754,29.297,1.953,0,0
1581628674,28.32,45.41,59.57,24.414,0,0
1581628674,39.062,19.043,59.082,41.016,0,0
1581628674,29.297,10.254,50.293,25.391,0,0
1581628674,30.762,15.137,30.273,27.344,0,0
1581628674,37.598,39.062,0.977,31.25,0,0
1581628674,25.879,39.551,16.602,27.832,0,0
1581628674,25.879,10.254,47.852,31.25,0,0
1581628674,23.926,-42.969,27.344,13.184,0,0
1581628674,0.977,-6.348,-23.926,35.156,0,0
1581628674,12.695,35.645,-28.32,44.434,0,0
1581628674,26.855,-17.578,15.137,6.836,0,0
1581628674,13.672,2.441,66.895,13.672,0,0
1581628674,37.109,65.43,79.59,39.551,0,0
1581628674,34.18,93.262,55.664,36.621,0,0
1581628674,-0.977,94.727,25.879,8.789,0,0
1581628674,2.441,62.5,15.137,18.066,0,0
1581628674,12.695,43.945,42.48,24.414,0,0
1581628674,37.109,-32.715,32.227,17.09,0,0
1581628674,33.203,-65.43,-6.348,28.809,0,0
1581628674,23.438,-14.16,8.301,37.598,0,0
1581628674,27.832,30.762,29.297,30.273,0,0
1581628674,24.414,67.383,31.25,35.156,0,0
1581628674,15.137,37.598,13.184,24.902,0,0
1581628674,10.254,35.645,10.254,2.93,0,0
1581628674,15.137,27.344,35.156,2.441,0,0
1581628674,30.762,5.859,59.082,25.879,0,0
1581628674,44.434,-13.672,58.105,39.062,0,0
1581628674,42.969,-10.254,55.176,23.438,0,0
1581628674,16.113,72.754,56.152,29.297,0,0
1581628674,-3.418,48.828,35.645,14.648,0,0
1581628674,20.508,-27.832,36.621,2.441,0,0
1581628674,30.273,30.762,30.762,14.16,0,0
1581628674,6.836,101.562,8.301,27.832,0,0
1581628674,-7.324,77.148,-21.973,35.645,0,0
1581628674,-3.906,30.273,-38.574,12.695,0,0
1581628674,15.625,-26.855,4.883,12.207,0,0
1581628674,24.414,-12.207,61.523,40.039,0,2
1581628674,42.969,9.766,66.406,32.715,0,0
1581628674,53.711,-19.531,49.316,29.785,0,0
1581628674,31.738,49.316,43.945,40.039,0,0
1581628674,7.812,103.027,26.855,6.836,0,0
1581628674,10.254,83.984,14.16,2.441,0,0
1581628674,39.062,33.691,24.414,33.691,0,0
1581628674,37.598,-29.297,38.574,45.41,0,0
1581628674,32.227,-31.25,14.648,65.918,0,0
1581628674,47.363,27.344,10.742,58.594,0,0
1581628674,21.973,78.125,22.949,17.578,0,0
1581628674,38.086,52.246,39.551,8.789,0,0
1581628674,62.988,-63.477,51.27,17.578,0,0
1581628674,31.738,-33.691,42.48,10.742,0,0
1581628674,28.32,94.238,25.391,16.602,0,0
1581628674,34.668,106.445,13.672,22.949,0,0
1581628674,29.297,78.125,11.23,7.324,0,0
1581628674,40.039,32.227,9.766,34.668,0,0
1581628674,52.246,5.371,-14.16,51.758,0,0
1581628674,62.5,16.602,-22.949,28.809,0,0
1581628674,56.641,-17.578,19.043,44.434,0,0
1581628674,45.898,-57.617,64.941,41.016,0,0
1581628674,31.738,-7.324,71.289,15.137,0,0
1581628674,5.859,62.5,59.57,1.953,0,0
1581628674,0.488,85.938,45.41,-1.465,0,0
1581628674,31.738,78.125,35.645,12.207,0,0
1581628674,25.879,50.293,9.766,13.672,0,0
1581628674,0.977,23.438,2.93,18.555,0,0
1581628674,18.555,29.297,24.414,35.645,0,0
1581628674,31.738,48.828,23.926,28.809,0,0
1581628674,32.227,36.133,38.574,29.785,0,0
1581628674,19.043,-17.578,28.32,25.391,0,0
1581628674,18.066,-15.137,25.391,3.418,0,0
1581628674,53.711,32.715,39.062,15.137,0,0
1581628674,53.711,-0.488,35.645,27.344,0,0
1581628674,30.762,-0.977,27.832,22.461,0,0
1581628674,36.621,36.133,18.555,25.391,0,0
1581628674,33.203,22.949,37.109,35.645,0,0
1581628674,29.297,28.809,44.922,30.762,0,0
1581628674,34.668,60.059,39.551,29.785,0,0
1581628674,26.367,61.035,37.109,24.414,0,0
1581628674,6.348,33.203,-3.418,8.789,0,0
1581628674,7.812,0,-19.531,24.902,0,0
1581628674,25.391,-38.574,2.93,15.625,0,0
1581628674,19.531,-32.227,2.441,-3.418,0,0
1581628674,20.02,20.02,25.879,10.742,0,0
1581628674,36.621,18.066,53.711,14.648,0,0
1581628674,36.621,18.555,58.105,28.32,0,0
1581628674,33.691,44.434,53.711,30.273,0,0
1581628674,22.461,37.109,28.32,11.23,0,0
1581628674,11.23,84.961,23.926,13.184,0,0
1581628674,15.625,97.168,39.062,2.441,0,0
1581628674,10.254,47.363,41.992,-7.812,0,0
1581628674,-2.441,14.16,28.809,13.184,0,0
1581628674,20.996,-25.391,15.625,21.484,0,0
1581628674,24.414,-7.324,4.883,19.043,0,0
1581628674,18.066,56.152,-16.602,28.32,0,0
1581628674,45.898,29.297,15.137,38.574,0,0
1581628674,49.805,-55.176,39.551,35.156,0,0
1581628674,30.273,-2.441,26.855,6.348,0,0
1581628674,17.09,78.613,29.785,3.418,0,0
1581628674,27.832,57.129,26.367,23.438,0,0
1581628674,24.902,43.457,38.574,24.902,0,0
1581628674,40.039,25.879,48.34,33.203,0,0
1581628674,62.012,15.137,19.531,11.719,0,0
1581628674,23.438,29.785,-0.977,15.625,0,0
1581628674,14.16,36.621,19.531,28.809,0,0
1581628674,33.203,41.016,38.574,10.254,0,0
1581628674,29.297,32.715,64.453,13.184,0,0
1581628674,29.785,22.461,54.688,34.18,0,0
1581628674,22.949,-8.301,-5.371,20.996,0,0
1581628674,13.184,-19.043,-2.441,11.23,0,0
1581628674,40.039,10.742,32.715,28.32,0,0
1581628674,37.598,26.855,29.297,22.461,0,0
1581628674,18.555,46.875,12.207,23.438,0,0
1581628674,24.902,72.266,7.812,23.926,0,0
1581628674,24.414,9.766,29.297,17.578,0,0
1581628674,33.203,-55.664,39.551,22.949,0,0
1581628674,44.434,11.719,37.109,37.598,0,0
1581628674,30.273,65.43,48.828,45.41,0,0
1581628674,18.066,64.453,45.898,16.602,0,0
1581628674,25.391,46.875,24.902,13.672,0,0
1581628674,13.184,-9.766,-3.418,18.066,0,0
1581628674,6.836,-32.227,-21.973,16.602,0,0
1581628674,23.438,6.348,-15.625,12.207,0,0
1581628674,25.879,56.641,12.695,13.184,0,0
1581628674,14.648,51.27,39.551,24.414,0,0
1581628674,11.23,35.645,57.129,18.066,0,0
1581628674,12.207,55.664,47.363,13.672,0,0
1581628674,31.25,75.195,45.41,25.391,0,0
1581628674,37.598,59.082,54.199,36.133,0,0
1581628674,26.855,-14.648,42.48,39.062,0,0
1581628674,31.738,1.465,30.762,13.672,0,0
1581628674,28.809,-8.301,37.598,-0.488,0,0
1581628674,18.555,-63.477,34.668,17.578,0,0
1581628674,27.832,15.137,14.648,24.414,0,0
1581628674,24.902,83.008,10.742,21.484,0,0
1581628674,33.203,86.426,29.785,20.02,0,0
1581628674,47.852,48.828,37.598,25.391,0,0
1581628674,39.551,15.137,27.344,35.645,0,0
1581628674,39.062,5.371,29.785,35.156,0,0
1581628674,49.805,-5.859,42.969,49.316,0,0
1581628674,41.016,0.488,35.156,61.523,0,0
1581628675,20.02,15.625,15.137,36.621,0,0
1581628675,27.832,41.504,7.812,19.043,0,0
1581628675,30.273,62.988,35.156,12.207,0,0
1581628675,21.973,27.832,32.227,21.484,0,0
1581628675,9.766,-13.184,19.043,20.996,0,0
1581628675,-0.977,20.996,25.391,10.254,0,0
1581628675,3.906,60.059,16.602,12.207,0,0
1581628675,23.926,34.18,41.504,24.902,0,0
1581628675,44.434,7.324,56.152,29.297,0,0
1581628675,53.223,2.93,47.363,36.621,0,0
1581628675,49.805,35.156,22.949,50.781,0,0
1581628675,49.316,59.082,5.371,42.969,0,0
1581628675,34.668,44.922,19.531,23.438,0,0
1581628675,20.02,37.598,40.039,-0.977,0,0
1581628675,33.203,-12.207,49.805,-9.766,0,0
1581628675,40.527,-17.09,35.156,-0.488,0,0
1581628675,35.645,47.363,-15.625,21.484,0,0
1581628675,27.344,79.102,-31.738,23.926,0,0
1581628675,15.625,51.27,21.973,22.949,0,0
1581628675,34.668,-36.621,76.66,42.969,0,0
1581628675,56.641,-78.125,81.543,56.641,0,0
1581628675,33.203,-23.438,51.758,28.32,0,0
1581628675,9.766,69.824,31.25,6.348,0,0
1581628675,14.16,124.023,9.277,6.836,0,0
1581628675,29.785,98.145,6.836,11.23,0,0
1581628675,16.602,55.664,26.855,16.113,0,0
1581628675,-1.953,45.898,34.18,17.578,0,0
1581628675,2.93,38.574,37.109,18.066,0,0
1581628675,4.395,31.738,31.738,15.137,0,0
1581628675,-3.418,32.715,24.902,3.906,0,0
1581628675,0,26.855,20.996,-14.16,0,0
1581628675,8.789,24.414,19.531,-15.625,0,0
1581628675,0.977,21.484,23.926,-2.441,0,0
1581628675,-10.742,-8.301,20.996,1.953,0,0
1581628675,-11.719,-43.457,21.973,0,0,0
1581628675,6.836,-27.832,26.367,7.812,0,0
1581628675,11.719,-10.254,25.391,8.301,0,0
1581628675,-14.648,19.043,28.809,-4.395,0,0
1581628675,-35.156,68.848,21.484,-35.645,0,0
1581628675,-42.969,56.152,-1.465,-62.988,0,0
1581628675,-58.594,5.371,-10.254,-57.129,0,0
1581628675,-61.523,-26.855,-14.16,-61.523,0,0
1581628675,-67.383,22.461,-9.277,-67.383,0,0
1581628675,-82.031,71.289,22.461,-73.242,0,0
1581628675,-94.727,73.73,36.621,-64.941,0,0
1581628675,-77.637,30.273,28.809,-56.152,0,0
1581628675,-80.566,-37.109,45.898,-78.613,0,0
1581628675,-94.238,-41.016,48.828,-105.957,0,0
1581628675,-107.422,47.363,50.293,-113.281,0,0
1581628675,-119.629,62.5,42.48,-117.188,0,0
1581628675,-108.887,-17.578,34.668,-109.863,0,0
1581628675,-98.145,-15.137,69.824,-92.773,0,0
1581628675,-91.797,18.066,36.621,-81.055,0,0
1581628675,-82.031,33.203,7.812,-93.262,0,0
1581628675,-82.52,69.824,69.824,-98.633,0,0
1581628675,-91.309,83.984,59.082,-90.332,0,0
1581628675,-64.453,17.09,-18.555,-80.078,0,0
1581628675,-53.711,14.16,-2.441,-50.781,0,0
1581628675,-75.195,73.242,53.223,-54.688,0,0
1581628675,-78.125,73.73,68.848,-73.242,0,0
1581628675,-48.828,72.266,62.988,-53.711,0,0
1581628675,-33.691,27.344,66.895,-35.156,0,0
1581628675,-29.785,-52.246,62.012,-27.344,0,0
1581628675,-24.414,-15.137,51.27,-24.414,0,0
1581628675,-9.277,58.594,40.527,-8.789,0,0
1581628675,30.762,56.641,14.16,23.438,0,0
1581628675,26.855,42.969,-5.371,41.016,0,0
1581628675,12.207,53.711,-25.391,25.879,0,0
1581628675,24.414,45.41,-19.043,13.672,0,0
1581628675,40.527,45.898,54.688,27.832,0,0
1581628675,46.875,71.777,85.449,18.066,0,0
1581628675,43.945,63.477,73.242,38.086,0,0
1581628675,65.918,12.695,32.227,64.941,0,0
1581628675,76.172,-26.855,3.906,33.691,0,0
1581628675,51.758,21.973,18.555,15.625,0,0
1581628675,46.875,73.242,27.832,18.555,0,0
1581628675,52.246,4.395,27.344,16.113,0,0
1581628675,66.406,-87.402,9.277,41.504,0,0
1581628675,58.105,-49.316,20.508,50.781,0,0
1581628675,45.898,62.5,-3.418,29.297,0,0
1581628675,68.848,124.023,-20.02,50.293,0,0
1581628675,66.895,100.586,33.203,61.523,0,0
1581628675,37.109,41.016,38.574,62.012,0,0
1581628675,46.875,33.691,18.066,66.406,0,0
1581628675,67.871,37.598,14.16,65.918,0,0
1581628675,67.383,-11.23,41.016,66.895,0,0
1581628675,69.336,-4.883,57.617,83.984,0,0
1581628675,76.172,41.016,38.086,96.191,0,0
1581628675,80.566,13.672,12.695,74.707,0,0
1581628675,50.293,5.859,26.367,79.102,0,0
1581628675,31.738,43.945,30.273,75.684,0,0
1581628675,46.387,29.785,26.855,60.547,0,0
1581628675,63.477,-43.457,34.668,79.102,0,0
1581628675,88.867,-56.641,10.254,93.75,0,0
1581628675,83.008,33.203,12.695,83.496,0,0
1581628675,48.828,80.078,49.316,53.711,0,0
1581628675,44.922,62.988,58.105,39.062,0,0
1581628675,64.941,50.781,29.785,54.199,0,0
1581628675,58.105,47.852,25.391,61.523,0,0
1581628675,51.758,43.945,27.832,51.758,0,0
1581628675,78.613,22.949,-3.418,67.871,0,0
1581628675,99.121,-26.855,20.02,93.262,0,0
1581628675,67.383,-7.812,42.48,78.613,0,0
1581628675,56.152,64.453,32.227,49.805,0,0
1581628675,68.359,40.527,35.156,50.781,0,0
1581628675,69.336,26.855,39.551,60.059,0,0
1581628675,53.223,54.199,51.27,48.34,0,0
1581628675,43.945,13.672,27.344,47.852,0,0
1581628675,54.199,-6.348,16.113,56.152,0,0
1581628675,52.734,55.176,8.301,50.781,0,0
1581628675,36.133,58.105,13.672,35.645,0,0
1581628675,25.391,-6.348,30.273,51.27,0,0
1581628675,47.363,0.488,46.875,73.242,0,0
1581628675,43.457,24.414,57.129,50.781,0,0
1581628675,28.809,31.25,44.922,23.438,0,0
1581628675,34.668,88.379,27.832,41.504,0,0
1581628675,30.762,67.871,-4.395,57.617,0,0
1581628675,51.27,3.418,14.648,53.223,0,0
1581628675,67.383,-15.137,47.363,55.664,0,0
1581628675,44.922,17.09,30.762,64.453,0,0
1581628675,45.41,43.945,16.602,66.895,0,0
1581628675,54.688,-20.508,33.691,75.684,0,0
1581628675,61.523,-18.555,43.945,82.52,0,0
1581628675,77.637,52.734,53.711,67.383,0,0
1581628675,76.172,80.566,59.082,47.852,0,0
1581628675,59.082,75.195,54.199,44.434,0,0
1581628675,56.152,42.969,58.105,57.617,0,0
1581628675,51.27,15.137,46.875,72.754,0,0
1581628675,42.969,34.18,24.414,62.5,0,0
1581628675,45.898,65.43,8.301,44.434,0,0
1581628675,42.48,63.965,5.371,46.875,0,0
1581628675,58.105,24.902,17.09,55.176,0,0
1581628675,83.008,-124.023,16.113,66.406,0,0
1581628675,70.312,-190.918,16.113,51.27,0,0
1581628675,16.113,0.488,31.738,23.438,0,0
1581628675,5.859,161.133,49.805,17.09,0,0
1581628675,7.324,160.156,39.062,10.742,0,0
1581628675,-7.812,112.793,31.25,15.137,0,0
1581628675,23.926,66.406,37.109,17.578,0,0
1581628675,25.879,55.664,21.484,14.648,0,0
1581628675,11.23,20.02,18.555,17.578,0,0
1581628675,27.344,-54.199,46.387,42.969,0,0
1581628675,34.668,-93.262,40.527,44.922,0,0
1581628675,44.922,-24.414,54.199,40.527,0,0
1581628675,54.199,57.617,37.109,48.828,0,0
1581628675,28.809,37.598,0,48.34,0,0
1581628675,8.301,41.504,14.16,33.691,0,0
1581628675,29.297,83.008,46.875,35.645,0,0
1581628675,46.387,92.285,47.363,54.688,0,0
1581628675,32.227,57.617,-4.883,42.969,0,0
1581628675,29.785,1.465,12.695,32.227,0,0
1581628675,46.875,-36.621,60.059,39.062,0,0
1581628675,52.246,-56.641,56.641,45.898,0,0
1581628675,39.062,8.789,13.672,61.523,0,0
1581628675,40.039,40.039,14.648,35.645,0,0
1581628675,43.945,3.906,22.949,2.93,0,0
1581628675,45.41,52.246,13.184,13.184,0,2
1581628675,64.941,74.707,25.391,29.297,0,0
1581628675,50.293,56.641,36.621,45.898,0,0
1581628675,34.668,41.992,32.715,51.758,0,0
1581628675,46.875,34.18,28.809,40.039,0,0
1581628675,48.828,16.113,19.531,26.855,0,0
1581628675,50.293,10.742,19.531,19.043,0,0
1581628675,59.082,-43.457,51.758,23.926,0,0
1581628675,45.898,-101.562,62.012,28.809,0,0
1581628675,19.043,-37.109,54.199,25.391,0,0
1581628675,20.02,59.57,28.32,35.645,0,0
1581628675,35.645,83.008,4.883,36.621,0,0
1581628675,52.734,83.008,4.395,38.086,0,0
1581628675,53.223,88.379,28.809,43.945,0,0
1581628675,36.133,53.711,42.48,47.852,0,0
1581628675,25.391,20.02,27.832,40.039,0,0
1581628675,39.551,-8.301,-1.465,13.672,0,0
1581628675,50.781,6.348,2.441,28.32,0,0
1581628675,25.391,63.477,43.457,50.293,0,0
1581628675,-1.953,70.801,32.715,10.742,0,0
1581628675,11.23,59.57,26.855,2.93,0,0
1581628675,39.551,56.152,40.039,46.387,0,0
1581628675,35.645,6.836,42.48,36.133,0,0
1581628675,28.809,-60.547,38.086,12.207,0,0
1581628675,14.16,-30.762,13.184,8.789,0,0
1581628675,4.883,-31.25,12.695,15.137,0,0
1581628675,20.508,-50.781,25.879,18.066,0,0
1581628675,24.414,10.742,14.648,7.324,0,0
1581628675,14.648,69.336,0.977,4.883,0,0
1581628675,3.906,70.801,34.668,9.766,0,0
1581628675,10.742,58.105,45.41,26.367,0,0
1581628675,-0.488,81.543,28.809,29.785,0,0
1581628675,-0.488,44.434,35.156,20.996,0,0
1581628675,23.926,-20.996,32.715,16.602,0,0
1581628675,19.531,-22.949,22.461,11.23,0,0
1581628675,22.461,-26.855,35.645,22.461,0,0
1581628675,31.738,4.395,41.016,17.09,0,0
1581628675,47.852,16.602,45.41,20.508,0,0
1581628675,44.922,8.789,6.836,27.832,0,0
1581628675,18.555,59.57,-18.555,34.18,0,0
1581628675,30.273,108.398,14.648,35.156,0,0
1581628675,39.551,101.562,11.719,16.602,0,0
1581628675,22.461,35.156,24.414,9.277,0,0
1581628675,37.598,-30.762,63.965,40.527,0,0
1581628675,45.41,-75.684,66.406,41.016,0,0
1581628675,26.367,-91.797,36.133,12.695,0,0
1581628675,12.695,-7.812,-9.766,2.441,0,0
1581628675,20.508,75.684,-46.387,-3.906,0,0
1581628675,13.672,57.617,2.441,6.836,0,0
1581628675,1.953,57.617,48.828,-2.93,0,0
1581628675,2.93,83.008,53.223,-2.441,0,0
1581628675,-3.418,70.801,66.406,16.113,0,0
1581628675,14.16,-20.508,65.918,20.996,0,0
1581628675,33.203,-56.152,53.223,25.391,0,0
1581628675,21.973,-31.738,30.273,9.766,0,0
1581628675,12.695,29.785,13.672,14.16,0,0
1581628675,18.555,77.148,-15.137,17.09,0,0
1581628675,24.414,65.43,-5.371,8.789,0,0
1581628675,31.25,27.832,41.504,25.391,0,0
1581628675,25.879,-15.625,59.082,25.879,0,0
1581628675,21.484,11.23,64.453,18.066,0,0
1581628675,32.227,-15.625,50.293,8.789,0,0
1581628675,34.18,0,34.18,10.254,0,0
1581628675,29.785,72.754,15.625,17.578,0,0
1581628675,20.996,75.195,3.418,24.414,0,0
1581628675,19.043,51.758,12.207,17.578,0,0
1581628675,27.832,55.176,28.809,19.043,0,0
1581628675,37.109,30.273,33.691,41.016,0,0
1581628675,47.852,-35.645,23.438,69.336,0,0
1581628675,41.992,-17.09,-11.23,75.195,0,0
1581628675,22.949,50.293,0.488,34.18,0,0
1581628675,21.973,73.242,33.691,30.273,0,0
1581628675,41.992,36.133,42.48,41.504,0,0
1581628675,51.758,-1.953,56.641,23.926,0,0
1581628675,42.969,32.715,61.523,23.926,0,0
1581628675,43.945,22.461,59.082,60.059,0,0
1581628675,48.828,-34.18,63.965,62.012,0,0
1581628675,52.246,-28.809,23.438,33.691,0,0
1581628675,45.898,26.367,-28.809,42.48,0,0
1581628675,35.645,92.773,-5.371,52.734,0,0
1581628675,24.902,71.289,33.203,21.973,0,0
1581628675,11.23,9.277,41.992,4.395,0,0
1581628675,27.832,20.996,48.34,36.133,0,0
1581628675,41.504,-8.301,43.945,33.203,0,0
1581628675,25.879,-30.273,45.41,25.391,0,0
1581628675,16.113,16.602,30.762,14.16,0,0
1581628675,26.855,58.594,21.484,4.883,0,0
1581628675,30.273,43.457,42.969,29.297,0,0
1581628675,20.02,-6.348,8.301,40.527,0,0
1581628675,-1.465,-14.648,-5.371,21.973,0,0
1581628675,-3.418,-1.953,36.133,0.488,0,0
1581628675,18.066,27.344,53.711,23.926,0,0
1581628675,17.09,28.32,37.598,43.945,0,0
1581628675,7.812,22.949,27.832,28.32,0,0
1581628675,7.812,26.367,37.598,10.254,0,0
1581628675,20.996,-4.883,33.691,7.812,0,0
1581628675,31.25,-4.395,17.09,29.297,0,0
1581628675,30.273,36.133,20.996,46.387,0,0
1581628675,39.062,41.992,41.016,41.016,0,0
1581628676,19.043,10.254,-3.418,32.227,0,0
1581628676,10.254,35.645,-20.508,18.555,0,0
1581628676,29.785,59.082,41.016,23.926,0,0
1581628676,42.969,10.742,55.664,32.227,0,0
1581628676,33.203,-27.832,42.969,25.391,0,0
1581628676,28.32,-5.859,52.246,20.02,0,0
1581628676,41.016,33.203,44.434,19.043,0,0
1581628676,41.504,85.449,36.133,12.207,0,0
1581628676,19.043,82.52,9.277,19.043,0,0
1581628676,16.113,49.805,1.465,27.832,0,0
1581628676,33.203,49.316,31.738,18.066,0,0
1581628676,48.828,-1.465,32.715,15.625,0,0
1581628676,54.688,-85.938,12.207,46.387,0,0
1581628676,69.336,-65.918,19.043,61.035,0,0
1581628676,36.621,37.109,36.621,27.832,0,0
1581628676,24.414,42.48,57.129,43.457,0,0
1581628676,47.852,-10.742,48.828,37.598,0,0
1581628676,45.898,48.34,42.48,16.113,0,0
1581628676,45.41,110.352,53.711,43.945,0,0
1581628676,24.414,91.309,33.203,42.48,0,0
1581628676,18.555,71.777,14.16,44.434,0,0
1581628676,42.48,-8.301,-4.395,56.152,0,0
1581628676,44.922,-89.844,-28.809,40.527,0,0
1581628676,32.715,-31.738,9.766,23.438,0,0
1581628676,38.574,27.344,69.336,38.574,0,0
1581628676,42.969,41.992,62.988,41.016,0,0
1581628676,30.762,73.242,44.922,14.648,0,0
1581628676,12.207,108.398,57.129,24.414,0,0
1581628676,14.648,74.219,33.691,22.461,0,0
1581628676,23.438,24.414,18.066,18.555,0,0
1581628676,26.367,-3.906,31.738,42.969,0,0
1581628676,28.809,-8.789,31.25,32.715,0,0
1581628676,33.203,-5.859,57.129,16.602,0,0
1581628676,52.246,-22.461,24.414,39.551,0,0
1581628676,48.34,14.16,-6.348,42.48,0,0
1581628676,34.18,81.543,15.137,22.461,0,0
1581628676,22.949,90.82,20.02,24.902,0,0
1581628676,31.738,75.195,27.832,33.691,0,0
1581628676,53.711,27.344,51.27,33.203,0,0
1581628676,36.133,-36.133,58.594,32.715,0,0
1581628676,26.855,7.812,42.48,32.715,0,0
1581628676,45.41,51.27,45.41,31.738,0,0
1581628676,51.27,59.57,52.246,23.926,0,0
1581628676,42.969,69.824,59.57,21.484,0,0
1581628676,28.32,45.898,27.832,19.043,0,0
1581628676,29.785,28.809,-20.02,14.648,0,0
1581628676,27.832,18.066,-0.977,32.227,0,0
1581628676,17.578,19.531,31.25,33.203,0,0
1581628676,28.809,-1.953,8.789,19.043,0,0
1581628676,24.414,-33.203,5.371,20.508,0,0
1581628676,20.508,-27.832,44.434,14.16,0,0
1581628676,30.273,-14.648,74.219,3.418,0,0
1581628676,12.695,27.832,52.734,2.93,0,0
1581628676,10.742,89.355,16.113,1.953,0,0
1581628676,10.254,96.191,37.109,-16.113,0,0
1581628676,-13.184,57.129,42.48,2.93,0,0
1581628676,5.371,20.508,1.465,15.625,0,0
1581628676,24.414,15.137,3.906,17.578,0,0
1581628676,10.742,3.906,40.527,21.484,0,0
1581628676,12.695,-40.039,30.273,22.461,0,0
1581628676,19.043,-14.648,22.461,27.832,0,0
1581628676,29.297,43.457,57.617,36.621,0,0
1581628676,31.25,57.617,56.152,39.062,0,0
1581628676,19.531,49.316,41.504,20.996,0,0
1581628676,17.09,48.34,26.367,9.766,0,0
1581628676,36.621,38.086,2.93,-1.953,0,0
1581628676,50.781,17.578,0.488,12.695,0,0
1581628676,53.223,-0.977,17.578,23.926,0,0
1581628676,61.035,-5.371,32.715,31.25,0,0
1581628676,41.016,-30.762,30.762,33.203,0,0
1581628676,35.645,-35.645,24.902,27.344,0,0
1581628676,46.875,11.23,20.02,23.438,0,0
1581628676,31.738,76.66,33.203,13.672,0,0
1581628676,13.672,97.168,29.297,13.184,0,0
1581628676,16.113,55.176,34.668,-1.953,0,0
1581628676,21.484,41.992,45.898,6.836,0,0
1581628676,12.207,53.711,10.254,24.414,0,0
1581628676,1.465,30.762,0,0.488,0,0
1581628676,33.691,35.645,45.41,10.254,0,0
1581628676,43.457,23.438,76.172,38.086,0,0
1581628676,1.465,-11.719,54.199,28.809,0,0
1581628676,-6.348,56.152,33.691,5.371,0,0
1581628676,-9.277,91.797,27.344,4.395,0,0
1581628676,-4.883,52.246,23.438,5.371,0,0
1581628676,21.484,-6.836,17.09,12.695,0,0
1581628676,32.715,-57.617,20.996,44.922,0,0
1581628676,43.457,-41.504,25.391,57.129,0,0
1581628676,47.852,-25.879,-1.465,6.348,0,0
1581628676,21.484,28.809,5.371,-2.93,0,0
1581628676,-11.719,119.629,29.297,2.93,0,0
1581628676,-18.555,141.113,28.809,-12.207,0,0
1581628676,-13.672,101.074,31.738,-17.578,0,0
1581628676,-0.488,41.016,38.574,9.277,0,0
1581628676,23.926,-43.457,7.324,28.809,0,0
1581628676,44.922,-85.449,-5.371,39.551,0,0
1581628676,43.945,-22.461,47.363,46.875,0,0
1581628676,23.926,45.898,74.219,22.461,0,0
1581628676,22.461,67.383,30.273,11.23,0,0
1581628676,30.273,85.938,-6.348,20.996,0,0
1581628676,7.812,97.656,16.602,24.902,0,0
1581628676,2.93,40.527,30.762,24.902,0,0
1581628676,24.902,-36.133,32.715,25.391,0,0
1581628676,20.02,-10.254,41.016,17.578,0,0
1581628676,22.949,68.359,43.457,13.184,0,0
1581628676,34.18,40.039,43.457,20.508,0,0
1581628676,44.922,-74.219,55.664,20.996,0,0
1581628676,31.738,-35.645,56.641,19.043,0,0
1581628676,19.043,95.215,27.832,24.902,0,0
1581628676,29.297,68.848,-12.695,31.738,0,0
1581628676,30.273,0,7.812,31.738,0,0
1581628676,34.668,80.078,25.391,25.391,0,0
1581628676,34.18,76.172,36.621,32.227,0,0
1581628676,21.973,32.227,33.691,29.297,0,0
1581628676,21.973,65.918,-4.883,45.41,0,0
1581628676,36.133,49.316,22.461,53.223,0,0
1581628676,44.434,21.973,65.918,7.324,0,0
1581628676,23.926,29.297,73.242,-5.859,0,0
1581628676,0.977,31.25,60.547,-2.441,0,0
1581628676,8.789,45.898,30.273,7.324,0,0
1581628676,18.555,-7.324,-3.418,17.578,0,0
1581628676,28.32,1.953,1.465,12.695,0,0
1581628676,40.527,92.285,27.344,9.766,0,0
1581628676,43.457,56.152,42.969,11.23,0,0
1581628676,34.668,25.879,26.367,8.789,0,0
1581628676,34.18,41.504,31.738,30.762,0,0
1581628676,45.898,26.855,68.359,42.969,0,0
1581628676,27.832,2.93,37.598,31.25,0,0
1581628676,7.324,-18.555,21.484,14.16,0,0
1581628676,15.625,-20.02,27.344,14.16,0,0
1581628676,35.645,52.734,22.949,25.391,0,0
1581628676,28.809,73.242,7.812,11.719,0,0
1581628676,17.09,29.297,6.836,7.324,0,0
1581628676,37.109,-0.977,0,45.898,0,0
1581628676,23.438,-16.113,-0.488,34.18,0,0
1581628676,29.785,36.133,21.484,23.926,0,0
1581628676,45.898,58.594,36.133,56.152,0,0
1581628676,28.809,40.039,47.852,43.457,0,0
1581628676,3.418,46.875,43.945,-11.23,0,0
1581628676,-9.766,25.391,40.039,-24.902,0,0
1581628676,-3.418,10.254,46.875,-0.977,0,0
1581628676,15.137,23.926,27.344,2.93,0,0
1581628676,38.086,23.438,-7.812,11.23,0,0
1581628676,47.363,13.672,-24.902,34.18,0,0
1581628676,34.18,-36.621,6.836,32.715,0,0
1581628676,3.418,-53.711,67.383,18.066,0,0
1581628676,-6.348,32.227,75.195,19.043,0,0
1581628676,-8.789,86.426,64.941,18.066,0,0
1581628676,-7.324,100.098,41.992,17.09,0,0
1581628676,13.184,84.961,28.32,32.227,0,0
1581628676,33.691,-0.977,35.645,19.531,0,0
1581628676,47.852,-109.863,37.598,13.184,0,0
1581628676,33.203,-113.77,54.688,24.902,0,0
1581628676,15.137,14.16,52.246,37.109,0,0
1581628676,19.043,129.883,10.742,21.973,0,0
1581628676,21.973,151.367,-18.555,1.953,0,0
1581628676,10.254,98.633,3.418,-0.977,0,0
1581628676,0.977,46.875,24.902,25.391,0,0
1581628676,16.602,39.062,32.227,38.086,0,0
1581628676,24.414,11.719,46.875,7.812,0,0
1581628676,14.16,-25.391,42.48,20.02,0,0
1581628676,13.672,-16.113,28.809,23.926,0,0
1581628676,12.695,-29.297,14.16,26.367,0,0
1581628676,22.949,-19.531,30.273,41.992,0,0
1581628676,42.48,-8.301,51.758,37.109,0,0
1581628676,37.109,-13.672,37.109,16.113,0,0
1581628676,28.809,38.086,-1.465,14.648,0,0
1581628676,17.09,100.098,-26.367,14.648,0,0
1581628676,30.273,88.379,-3.906,2.441,0,0
1581628676,47.363,6.348,49.316,19.531,0,0
1581628676,19.043,-36.621,74.707,29.785,0,0
1581628676,9.277,43.945,54.688,16.113,0,0
1581628676,25.391,101.074,44.434,7.324,0,2
1581628676,28.809,45.41,39.062,9.766,0,0
1581628676,20.02,22.949,38.086,35.645,0,0
1581628676,16.602,50.781,28.809,53.223,0,0
1581628676,15.137,38.574,10.254,10.254,0,0
1581628676,13.184,-3.906,0.488,-15.137,0,0
1581628676,0.977,-10.254,-1.465,6.348,0,0
1581628676,0,14.648,2.93,0,0,0
1581628676,8.789,41.504,12.695,-11.719,0,0
1581628676,42.48,35.156,11.719,16.602,0,0
1581628676,74.707,-22.949,39.062,34.18,0,0
1581628676,38.086,24.414,63.477,20.996,0,0
1581628676,0.488,83.496,60.547,20.508,0,0
1581628676,2.441,0,7.812,20.996,0,0
1581628676,3.418,-29.297,-27.344,4.883,0,0
1581628676,10.254,-44.922,9.277,0.977,0,0
1581628676,10.254,-30.273,40.039,6.836,0,0
1581628676,3.906,92.773,55.664,-4.883,0,0
1581628676,-3.906,144.531,25.879,-8.301,0,0
1581628676,-2.441,107.91,7.324,15.137,0,0
1581628676,3.906,17.578,28.32,13.184,0,0
1581628676,29.785,-35.156,38.574,7.324,0,0
1581628676,41.016,-77.148,42.969,26.367,0,0
1581628676,24.902,-68.359,59.082,29.297,0,0
1581628676,-2.441,63.965,40.039,5.859,0,0
1581628676,-9.277,139.16,24.902,-4.395,0,0
1581628676,14.648,66.895,37.109,22.461,0,0
1581628676,27.344,6.348,32.227,55.176,0,0
1581628676,35.645,-9.766,17.09,37.598,0,0
1581628676,36.133,1.953,0.488,11.719,0,0
1581628676,20.508,75.195,9.277,15.137,0,0
1581628676,37.109,69.824,34.18,36.133,0,0
1581628676,62.5,-3.906,15.137,36.621,0,0
1581628676,42.48,-53.711,16.113,23.926,0,0
1581628676,22.949,23.926,44.434,22.949,0,0
1581628676,20.02,93.262,62.5,18.066,0,0
1581628676,14.648,87.402,49.805,23.438,0,0
1581628676,30.273,50.781,29.297,50.781,0,0
1581628676,53.711,-8.789,37.598,59.082,0,0
1581628676,44.434,51.27,32.227,36.621,0,0
1581628676,31.25,83.008,14.648,21.484,0,0
1581628676,28.32,49.805,26.367,10.254,0,0
1581628676,36.621,25.391,19.043,37.109,0,0
1581628676,36.133,-43.457,-13.672,43.945,0,0
1581628676,37.598,-15.137,21.484,39.551,0,0
1581628676,47.363,27.832,62.5,53.223,0,0
1581628676,41.992,20.996,55.664,22.461,0,0
1581628676,44.922,36.133,53.711,9.277,0,0
1581628676,35.645,85.938,69.824,31.738,0,0
1581628676,21.973,88.379,60.059,37.109,0,0
1581628676,10.254,76.172,40.039,26.367,0,0
1581628676,15.137,37.598,30.273,20.996,0,0
1581628676,33.203,-48.34,-5.371,38.574,0,0
1581628676,48.34,-13.672,-24.414,52.246,0,0
1581628676,53.711,8.301,24.414,35.645,0,0
1581628676,23.926,-9.277,50.781,5.859,0,0
1581628676,14.648,60.547,56.641,19.043,0,0
1581628676,28.809,88.867,56.641,26.855,0,0
1581628676,37.109,84.473,42.969,23.926,0,0
1581628676,42.969,105.957,35.645,41.992,0,0
1581628676,70.801,13.184,33.691,57.617,0,0
1581628676,79.59,-87.402,29.297,41.504,0,0
1581628676,39.062,-52.734,14.16,26.367,0,0
1581628676,34.18,14.648,-11.719,31.25,0,0
1581628676,38.086,88.379,-12.695,11.23,0,0
1581628676,28.809,97.168,-3.418,23.926,0,0
1581628676,33.203,67.383,24.902,48.34,0,0
1581628676,28.32,57.129,57.617,27.344,0,0
1581628676,41.504,60.059,64.941,43.457,0,0
1581628676,44.434,27.344,67.871,34.18,0,0
1581628676,21.973,40.527,49.316,20.02,0,0
1581628676,25.391,44.922,40.527,32.227,0,0
1581628676,36.621,-21.484,23.438,26.855,0,0
1581628676,50.781,-5.859,15.137,44.434,0,0
1581628676,31.738,49.805,7.324,27.344,0,0
1581628676,15.625,67.871,-4.395,28.809,0,0
1581628676,38.086,6.836,4.883,47.852,0,0
1581628676,47.852,-54.688,15.137,42.969,0,0
1581628676,40.039,38.574,38.574,35.645,0,0
1581628676,44.922,92.773,61.523,35.645,0,0
1581628676,37.598,80.078,46.387,20.996,0,0
1581628676,15.137,51.27,40.527,6.348,0,0
1581628676,32.227,-2.93,52.734,30.273,0,0
1581628676,38.086,3.906,51.758,35.156,0,0
1581628677,30.762,5.371,34.668,25.391,0,0
1581628677,25.879,14.648,4.883,36.621,0,0
1581628677,15.137,51.27,-17.578,34.18,0,0
1581628677,45.41,31.25,20.508,47.852,0,0
1581628677,65.43,-50.781,29.297,42.48,0,0
1581628677,47.852,-38.574,1.953,25.391,0,0
1581628677,23.926,93.262,24.902,30.273,0,0
1581628677,13.184,106.934,59.082,12.207,0,0
1581628677,12.207,41.992,64.941,9.766,0,0
1581628677,-2.441,47.852,46.387,17.578,0,0
1581628677,7.324,31.738,44.434,7.812,0,0
1581628677,21.973,-13.184,55.176,19.531,0,0
1581628677,26.367,-9.766,33.691,27.344,0,0
1581628677,20.02,14.16,-2.441,12.695,0,0
1581628677,26.367,-3.418,9.766,30.762,0,0
1581628677,21.484,-20.996,36.621,37.598,0,0
1581628677,17.578,40.039,12.207,31.738,0,0
1581628677,11.719,71.289,-3.418,38.086,0,0
1581628677,8.301,66.895,21.973,16.602,0,0
1581628677,25.391,38.086,48.828,11.23,0,0
1581628677,61.035,-7.812,73.73,49.316,0,0
1581628677,61.523,-3.906,77.637,54.688,0,0
1581628677,23.438,36.133,25.879,35.645,0,0
1581628677,19.043,58.594,0.488,29.297,0,0
1581628677,25.879,51.27,17.09,39.062,0,0
1581628677,19.531,24.414,29.785,37.598,0,0
1581628677,11.719,17.578,27.344,20.996,0,0
1581628677,21.484,24.902,8.789,26.367,0,0
1581628677,28.809,28.809,27.344,19.531,0,0
1581628677,33.203,39.551,44.922,17.09,0,0
1581628677,43.945,27.344,49.805,35.156,0,0
1581628677,37.109,-27.344,23.926,32.715,0,0
1581628677,18.555,7.324,-16.113,16.113,0,0
1581628677,28.809,54.688,3.906,33.203,0,0
1581628677,39.551,23.926,48.828,53.223,0,0
1581628677,21.484,71.289,43.457,34.668,0,0
1581628677,3.906,83.496,27.832,11.23,0,0
1581628677,23.438,19.043,26.367,24.902,0,0
1581628677,28.809,4.395,12.207,46.387,0,0
1581628677,22.949,38.574,12.207,13.184,0,0
1581628677,23.926,46.875,24.414,9.277,0,0
1581628677,6.348,33.691,46.875,25.391,0,0
1581628677,12.695,-0.488,59.57,-2.441,0,0
1581628677,37.598,-35.156,49.805,15.137,0,0
1581628677,46.387,-8.301,29.297,41.016,0,0
1581628677,30.762,-20.996,6.348,34.668,0,0
1581628677,26.855,-9.766,3.418,37.598,0,0
1581628677,20.508,90.332,-6.836,28.32,0,0
1581628677,21.484,89.355,7.324,14.16,0,0
1581628677,14.16,46.875,49.805,-0.488,0,0
1581628677,0.977,54.688,57.617,0,0,0
1581628677,7.324,29.297,55.664,15.625,0,0
1581628677,29.785,-29.785,50.293,32.715,0,0
1581628677,39.062,-20.02,45.898,34.668,0,0
1581628677,46.875,-10.254,37.598,22.949,0,0
1581628677,52.246,7.812,18.555,33.203,0,0
1581628677,22.461,43.945,16.602,14.648,0,0
1581628677,-8.789,70.312,31.738,-7.324,0,0
1581628677,0.488,71.289,36.133,6.836,0,0
1581628677,10.742,22.461,33.203,13.672,0,0
1581628677,11.23,27.832,23.926,6.836,0,0
1581628677,12.695,43.945,12.695,2.93,0,0
1581628677,20.996,-1.953,-13.672,15.137,0,0
1581628677,32.227,6.348,-7.812,32.715,0,0
1581628677,37.598,32.715,35.645,32.227,0,0
1581628677,37.109,23.438,39.551,36.621,0,0
1581628677,35.156,32.227,28.809,26.855,0,0
1581628677,19.531,29.297,29.297,5.371,0,0
1581628677,12.695,26.367,31.25,11.23,0,0
1581628677,15.625,11.719,34.18,27.344,0,0
1581628677,8.301,-25.391,38.574,19.043,0,0
1581628677,26.367,-20.02,43.945,10.742,0,0
1581628677,45.898,7.812,29.297,28.809,0,0
1581628677,42.48,1.465,22.949,39.551,0,0
1581628677,35.645,-2.93,26.367,34.668,0,0
1581628677,29.297,-8.789,24.902,23.926,0,0
1581628677,32.227,-19.531,44.434,23.438,0,0
1581628677,20.996,39.062,36.621,12.207,0,0
1581628677,-5.859,83.496,15.625,10.742,0,0
1581628677,-3.906,67.383,30.762,10.742,0,0
1581628677,16.602,46.387,23.438,13.184,0,0
1581628677,27.344,30.762,22.461,19.531,0,0
1581628677,19.043,-2.93,42.969,36.133,0,0
1581628677,24.414,6.836,45.41,34.18,0,0
1581628677,14.648,30.762,10.742,5.371,0,0
1581628677,10.254,16.602,-9.766,8.789,0,0
1581628677,31.738,0.977,20.996,22.461,0,0
1581628677,40.527,-0.977,42.48,24.902,0,0
1581628677,25.879,19.043,4.395,34.18,0,0
1581628677,32.715,30.762,-7.812,32.715,0,0
1581628677,32.227,39.062,51.27,12.207,0,0
1581628677,17.09,35.156,82.52,17.578,0,0
1581628677,28.32,14.16,48.34,31.25,0,0
1581628677,39.062,-71.289,15.137,33.691,0,0
1581628677,41.504,-96.191,16.113,41.504,0,0
1581628677,29.297,20.508,24.902,21.484,0,0
1581628677,22.461,124.512,27.344,11.23,0,0
1581628677,30.273,104.98,33.691,28.32,0,0
1581628677,18.555,-4.395,27.832,15.137,0,0
1581628677,7.324,-46.387,-13.672,8.789,0,0
1581628677,18.555,-3.418,-6.836,34.18,0,0
1581628677,21.484,47.852,16.113,22.461,0,0
1581628677,12.207,43.945,17.09,1.465,0,0
1581628677,13.184,54.688,38.574,14.16,0,0
1581628677,16.113,65.43,53.223,10.254,0,0
1581628677,24.414,45.41,58.105,28.809,0,0
1581628677,49.316,2.441,56.152,26.367,0,0
1581628677,33.691,-36.621,30.273,0.488,0,0
1581628677,24.414,2.441,12.695,23.926,0,0
1581628677,33.203,21.484,31.25,25.879,0,0
1581628677,7.812,31.25,7.812,19.531,0,0
1581628677,9.277,84.473,-35.645,34.668,0,0
1581628677,29.785,75.684,10.254,30.762,0,0
1581628677,18.555,7.812,55.664,12.695,0,0
1581628677,16.602,-13.672,51.758,26.855,0,0
1581628677,34.668,0.977,37.109,35.645,0,0
1581628677,29.297,6.348,28.32,18.555,0,0
1581628677,20.508,24.902,29.297,-2.93,0,0
1581628677,20.508,17.578,38.086,20.02,0,0
1581628677,12.207,46.387,29.785,38.086,0,0
1581628677,5.859,120.117,15.137,1.465,0,0
1581628677,3.418,82.031,-5.859,12.695,0,0
1581628677,-2.93,25.391,-4.883,27.344,0,0
1581628677,2.93,34.668,21.973,18.066,0,0
1581628677,17.578,12.695,15.625,1.465,0,0
1581628677,1.953,-18.555,19.531,-8.301,0,0
1581628677,7.812,-62.5,34.668,20.508,0,0
1581628677,26.855,-64.453,28.32,52.246,0,0
1581628677,25.879,35.156,29.297,47.852,0,0
1581628677,21.484,67.383,27.832,11.23,0,0
1581628677,17.09,34.668,25.391,-2.441,0,0
1581628677,2.93,66.406,39.551,0.977,0,0
1581628677,-1.953,76.66,45.898,7.324,0,0
1581628677,24.414,47.852,23.438,21.973,0,0
1581628677,33.691,30.273,1.465,43.457,0,0
1581628677,23.926,-3.418,3.906,21.484,0,0
1581628677,45.898,-15.137,17.578,9.766,0,0
1581628677,31.25,22.461,22.461,22.461,0,0
1581628677,2.441,17.578,12.695,25.391,0,0
1581628677,15.625,-2.93,28.809,20.508,0,0
1581628677,29.785,-43.457,42.48,23.926,0,0
1581628677,50.293,-51.27,50.293,29.297,0,0
1581628677,61.035,25.879,57.129,24.414,0,0
1581628677,42.969,58.105,40.039,23.926,0,0
1581628677,19.043,71.777,31.738,26.367,0,0
1581628677,10.254,104.004,28.809,7.812,0,0
1581628677,7.324,94.727,12.207,2.93,0,0
1581628677,12.207,64.941,10.254,16.113,0,0
1581628677,10.254,49.805,26.367,26.367,0,0
1581628677,11.23,32.715,31.738,25.879,0,0
1581628677,31.25,-1.953,19.531,27.344,0,0
1581628677,34.668,0,6.836,28.809,0,0
1581628677,22.461,18.555,20.508,20.996,0,0
1581628677,31.25,8.301,39.551,21.484,0,0
1581628677,35.645,4.883,41.016,32.715,0,0
1581628677,21.484,13.672,36.133,38.574,0,0
1581628677,21.973,9.277,38.086,30.273,0,0
1581628677,29.785,-17.09,31.25,30.762,0,0
1581628677,36.621,-29.297,13.184,36.133,0,0
1581628677,40.039,-18.066,2.441,35.156,0,0
1581628677,28.809,8.789,25.391,22.461,0,0
1581628677,17.09,37.109,53.711,9.766,0,0
1581628677,25.879,50.293,35.156,26.855,0,0
1581628677,31.25,48.34,23.438,31.738,0,0
1581628677,35.645,20.508,53.711,25.391,0,0
1581628677,46.875,12.207,57.617,31.738,0,0
1581628677,50.781,8.789,20.996,25.391,0,0
1581628677,38.086,6.836,4.395,29.785,0,0
1581628677,32.715,7.812,30.273,30.762,0,0
1581628677,31.738,0.488,53.711,22.461,0,0
1581628677,36.621,23.438,65.918,34.668,0,0
1581628677,48.34,21.973,45.898,32.227,0,0
1581628677,34.668,15.137,15.137,16.602,0,0
1581628677,15.137,47.363,25.391,16.602,0,0
1581628677,13.184,41.016,40.039,35.645,0,0
1581628677,34.18,46.875,29.785,57.129,0,0
1581628677,35.645,80.078,16.602,40.039,0,0
1581628677,24.902,40.039,30.273,2.93,0,0
1581628677,44.434,14.16,28.32,4.883,0,0
1581628677,46.875,47.852,10.254,25.391,0,0
1581628677,20.996,56.152,2.441,38.086,0,0
1581628677,11.23,1.465,14.16,19.531,0,0
1581628677,20.996,-37.598,34.18,-5.371,0,0
1581628677,5.371,20.508,40.039,21.973,0,0
1581628677,-15.137,50.781,22.461,19.043,0,0
1581628677,0.488,70.801,7.812,-9.766,0,0
1581628677,7.812,70.801,31.25,5.371,0,0
1581628677,4.395,6.348,52.734,12.695,0,0
1581628677,21.484,27.832,60.547,8.789,0,0
1581628677,28.32,66.895,41.016,6.836,0,0
1581628677,43.945,29.297,4.395,40.527,0,0
1581628677,52.734,-15.137,16.113,48.34,0,0
1581628677,26.855,-41.992,35.645,25.391,0,0
1581628677,11.23,-8.789,20.02,30.762,0,0
1581628677,5.859,73.242,25.391,33.203,0,0
1581628677,-9.766,93.262,25.391,14.648,0,0
1581628677,4.883,63.965,34.18,12.695,0,0
1581628677,31.738,3.418,48.828,27.344,0,0
1581628677,31.738,-0.977,37.109,21.973,0,0
1581628677,31.25,27.832,27.832,20.508,0,0
1581628677,38.086,-0.488,33.203,31.738,0,0
1581628677,35.645,16.113,44.922,54.199,0,0
1581628677,34.668,35.645,49.805,44.922,0,0
1581628677,40.039,32.227,54.199,33.203,0,0
1581628677,31.25,47.363,36.133,39.062,0,1
1581628677,39.062,54.688,14.648,36.133,0,0
1581628677,38.574,10.254,16.602,33.203,0,0
1581628677,36.133,-40.039,20.996,26.855,0,0
1581628677,30.762,-20.02,23.438,23.926,0,0
1581628677,22.949,34.18,23.438,13.672,0,0
1581628677,12.207,63.965,17.578,0,0,0
1581628677,10.742,60.547,18.066,13.672,0,0
1581628677,20.508,30.762,14.648,21.973,0,0
1581628677,15.625,32.715,12.207,20.02,0,0
1581628677,13.184,49.316,26.855,15.625,0,0
