timestamps,TP9,AF7,AF8,TP10,Right AUX,Marker0
1582149647.255,8.301,11.719,36.133,-4.883,0.0,0
1582149647.2589998,13.184,9.766,34.668,-3.418,0.0,0
1582149647.2629998,20.02,9.277,41.992,11.719,0.0,0
1582149647.2670002,0.488,13.184,42.969,8.789,0.0,0
1582149647.271,-3.418,15.137,44.922,12.207,0.0,0
1582149647.275,1.953,18.555,44.922,11.719,0.0,0
1582149647.279,8.789,17.578,38.574,16.113,0.0,0
1582149647.282,17.09,14.16,30.273000000000003,21.484,0.0,0
1582149647.286,22.949,14.648,28.809,21.484,0.0,0
1582149647.29,15.137,11.719,31.738000000000003,2.441,0.0,0
1582149647.294,11.719,15.625,31.738000000000003,-3.418,0.0,0
1582149647.298,15.137,19.043,32.715,15.625,0.0,0
1582149647.3,15.625,21.484,34.668,5.371,0.0,0
1582149647.304,20.02,21.973000000000006,39.062,0.488,0.0,0
1582149647.3079998,30.762,19.043,37.598,13.672,0.0,0
1582149647.312,38.086,18.555,31.25,8.301,0.0,0
1582149647.316,18.555,16.602,33.203,-1.465,0.0,0
1582149647.32,13.184,15.137,34.18,4.395,0.0,0
1582149647.324,20.02,21.484,34.18,8.301,0.0,0
1582149647.327,12.207,21.484,35.156,15.625,0.0,0
1582149647.331,15.625,19.531,34.18,22.461,0.0,0
1582149647.335,16.602,20.02,37.598,22.461,0.0,0
1582149647.339,10.254,19.043,38.086,21.484,0.0,0
1582149647.343,17.09,21.973000000000006,33.691,15.625,0.0,0
1582149647.345,29.785,24.414,30.273000000000003,9.277,0.0,0
1582149647.349,25.879,25.391,33.691,9.766,0.0,0
1582149647.353,12.695,26.855,37.109,15.625,0.0,0
1582149647.357,11.719,27.344,36.133,14.648,0.0,0
1582149647.361,21.484,29.297,35.156,8.301,0.0,0
1582149647.365,20.996,30.273000000000003,36.133,-1.465,0.0,0
1582149647.369,4.883,28.809,39.551,-2.93,0.0,0
1582149647.3720002,5.371,28.809,40.039,6.348,0.0,0
1582149647.3760002,16.113,25.879,34.668,4.883,0.0,0
1582149647.38,25.391,23.438,32.227,6.836,0.0,0
1582149647.3839998,26.855,23.438,35.156,13.184,0.0,0
1582149647.3879998,22.461,26.367,44.434,13.672,0.0,0
1582149647.39,31.25,29.297,44.434,20.996,0.0,0
1582149647.394,26.855,29.297,39.062,21.484,0.0,0
1582149647.3979998,18.066,29.297,46.387,12.207,0.0,0
1582149647.4020002,8.789,27.344,47.363,14.16,0.0,0
1582149647.406,13.184,21.973000000000006,41.992,13.672,0.0,0
1582149647.41,30.273000000000003,24.414,39.551,13.672,0.0,0
1582149647.414,20.508000000000006,27.832,15.137,10.254,0.0,0
1582149647.417,10.742,27.344,-11.23,7.812,0.0,0
1582149647.421,12.695,25.879,3.418,14.16,0.0,0
1582149647.425,18.066,26.855,26.367,16.602,0.0,0
1582149647.429,18.555,30.273000000000003,37.598,9.766,0.0,0
1582149647.4329998,32.227,31.25,49.316,20.996,0.0,0
1582149647.435,37.598,31.25,72.75399999999998,23.438,0.0,0
1582149647.439,17.578,31.738000000000003,90.82,-0.977,0.0,0
1582149647.4429998,-2.441,30.273000000000003,91.797,-18.066,0.0,0
1582149647.447,-1.953,26.367,91.309,-9.766,0.0,0
1582149647.451,7.324,26.855,97.168,-9.766,0.0,0
1582149647.455,-4.883,24.414,106.445,-33.691,0.0,0
1582149647.459,-18.066,23.926,106.445,-23.926,0.0,0
1582149647.462,-19.043,15.625,106.934,-13.184,0.0,0
1582149647.466,-22.949,10.742,114.258,-28.809,0.0,0
1582149647.47,-18.555,13.184,114.746,-10.742,0.0,0
1582149647.474,-5.371,16.602,109.863,-2.93,0.0,0
1582149647.478,-3.418,19.043,100.586,-21.973000000000006,0.0,0
1582149647.48,-6.836,14.648,96.68,-14.648,0.0,0
1582149647.484,-4.395,13.672,96.68,-1.953,0.0,0
1582149647.488,4.883,14.16,92.773,-7.324,0.0,0
1582149647.492,9.766,16.602,87.402,-2.93,0.0,0
1582149647.496,9.766,17.09,83.008,5.859,0.0,0
1582149647.5,11.23,17.09,73.242,3.418,0.0,0
1582149647.504,7.812,18.066,67.383,4.883,0.0,0
1582149647.5070002,19.043,23.438,66.895,5.859,0.0,0
1582149647.5110002,32.715,26.855,60.547,11.23,0.0,0
1582149647.515,11.719,21.484,53.71100000000001,7.812,0.0,0
1582149647.519,14.648,17.578,45.898,2.441,0.0,0
1582149647.5229998,28.32,20.508000000000006,27.832,17.09,0.0,0
1582149647.525,31.25,20.02,18.066,18.066,0.0,0
1582149647.529,27.832,17.578,17.578,12.207,0.0,0
1582149647.533,-1.953,25.391,17.578,18.555,0.0,0
1582149647.5370002,-0.488,28.809,18.555,3.906,0.0,0
1582149647.541,15.137,24.902,20.996,6.348,0.0,0
1582149647.545,25.879,23.438,26.367,16.113,0.0,0
1582149647.549,36.133,25.879,32.227,-5.371,0.0,0
1582149647.552,27.832,27.832,33.691,7.812,0.0,0
1582149647.556,30.273000000000003,27.832,21.484,19.531,0.0,0
1582149647.56,19.531,23.438,13.184,14.16,0.0,0
1582149647.564,8.789,19.531,16.602,25.391,0.0,0
1582149647.5679998,27.344,26.855,23.438,27.832,0.0,0
1582149647.585,34.18,31.738000000000003,29.785,27.344,0.0,0
1582149647.589,39.551,27.344,27.832,23.926,0.0,0
1582149647.593,28.809,25.391,28.809,20.996,0.0,0
1582149647.597,16.113,25.879,34.18,19.531,0.0,0
1582149647.601,31.738000000000003,28.809,31.738000000000003,28.809,0.0,0
1582149647.605,28.809,25.391,30.762,19.531,0.0,0
1582149647.609,14.16,22.461,32.227,-1.465,0.0,0
1582149647.6120002,8.789,21.484,31.738000000000003,15.625,0.0,0
1582149647.6160002,1.953,17.578,32.715,28.809,0.0,0
1582149647.62,12.207,20.02,33.691,30.762,0.0,0
1582149647.6239998,26.855,21.484,37.598,22.461,0.0,0
1582149647.6279998,15.137,26.367,40.527,23.438,0.0,0
1582149647.63,6.836,34.668,37.598,25.879,0.0,0
1582149647.6339998,16.602,38.086,38.086,22.461,0.0,0
1582149647.6379998,21.973000000000006,41.992,37.109,21.484,0.0,0
1582149647.6420002,12.207,35.156,31.25,12.695,0.0,0
1582149647.646,5.371,25.391,31.25,11.719,0.0,0
1582149647.65,17.09,29.785,36.133,17.578,0.0,0
1582149647.654,26.855,35.156,37.109,26.367,0.0,0
1582149647.657,17.09,39.062,37.598,22.461,0.0,0
1582149647.661,6.836,41.504,39.062,12.695,0.0,0
1582149647.665,21.484,45.898,39.062,17.09,0.0,0
1582149647.669,20.02,45.41,44.922,20.508000000000006,0.0,0
1582149647.673,8.301,37.598,46.875,29.297,0.0,0
1582149647.675,16.602,39.062,35.156,16.113,0.0,0
1582149647.679,29.785,38.086,35.156,11.23,0.0,0
1582149647.6829998,44.922,35.156,41.01600000000001,27.344,0.0,0
1582149647.687,26.367,36.621,38.086,13.672,0.0,0
1582149647.691,3.418,31.25,38.086,2.93,0.0,0
1582149647.695,14.16,28.809,41.992,12.695,0.0,0
1582149647.699,17.578,35.156,41.992,18.066,0.0,0
1582149647.702,7.324,39.062,39.551,11.23,0.0,0
1582149647.706,9.766,35.645,39.551,5.859,0.0,0
1582149647.71,23.438,35.156,39.551,5.859,0.0,0
1582149647.714,25.391,38.574,40.527,13.672,0.0,0
1582149647.718,16.602,36.133,41.01600000000001,3.906,0.0,0
1582149647.72,17.09,35.645,40.527,4.883,0.0,0
1582149647.724,30.762,40.527,45.41,13.184,0.0,0
1582149647.728,22.949,41.992,44.922,11.719,0.0,0
1582149647.732,19.531,41.01600000000001,41.504,11.719,0.0,0
1582149647.736,27.344,36.133,44.922,13.184,0.0,0
1582149647.74,18.555,31.738000000000003,49.316,6.836,0.0,0
1582149647.744,7.812,38.574,50.293,5.859,0.0,0
1582149647.7470002,18.066,35.645,54.688,12.695,0.0,0
1582149647.7510002,28.32,26.855,56.152,9.277,0.0,0
1582149647.755,12.207,26.367,49.316,3.418,0.0,0
1582149647.7589998,16.113,29.297,50.293,12.207,0.0,0
1582149647.7629998,28.809,32.715,54.688,11.719,0.0,0
1582149647.765,9.766,31.738000000000003,51.758,-1.465,0.0,0
1582149647.769,9.766,31.738000000000003,49.805,-1.465,0.0,0
1582149647.7729998,26.855,31.738000000000003,52.246,11.719,0.0,0
1582149647.7770002,30.273000000000003,31.25,49.316,21.484,0.0,0
1582149647.781,18.066,35.156,45.898,12.207,0.0,0
1582149647.785,18.066,37.598,48.34,5.859,0.0,0
1582149647.789,34.668,36.621,49.316,10.254,0.0,0
1582149647.792,40.527,36.133,49.805,23.438,0.0,0
1582149647.796,33.203,36.133,51.758,13.672,0.0,0
1582149647.8,15.625,41.01600000000001,49.805,3.906,0.0,0
1582149647.804,20.996,49.805,43.945,10.742,0.0,0
1582149647.8079998,29.785,50.293,45.898,6.836,0.0,0
1582149647.811,33.691,40.039,42.48,2.93,0.0,0
1582149647.815,39.062,37.109,40.527,16.602,0.0,0
1582149647.819,37.598,46.875,42.48,20.02,0.0,0
1582149647.823,42.969,54.688,45.898,22.461,0.0,0
1582149647.827,45.898,61.523,47.363,27.344,0.0,0
1582149647.831,41.992,60.059,43.945,27.344,0.0,0
1582149647.835,20.508000000000006,51.27,42.48,23.438,0.0,0
1582149647.8379998,19.043,48.828,43.945,7.812,0.0,0
1582149647.842,28.32,49.316,45.898,-6.836,0.0,0
1582149647.846,21.973000000000006,55.664,47.363,5.859,0.0,0
1582149647.85,22.949,58.105,50.78100000000001,15.137,0.0,0
1582149647.854,22.461,58.594,49.316,12.207,0.0,0
1582149647.856,17.578,55.176,46.387,6.348,0.0,0
1582149647.86,19.531,42.969,44.434,14.648,0.0,0
1582149647.8639998,11.719,39.062,42.969,13.184,0.0,0
1582149647.8679998,13.672,39.062,47.363,2.441,0.0,0
1582149647.8720002,19.043,37.598,53.223,13.184,0.0,0
1582149647.8760002,19.043,39.062,54.688,15.625,0.0,0
1582149647.88,16.602,39.062,48.34,16.113,0.0,0
1582149647.883,8.301,37.109,48.34,13.184,0.0,0
1582149647.887,7.812,36.133,54.688,19.531,0.0,0
1582149647.891,25.391,37.598,55.664,19.043,0.0,0
1582149647.895,8.789,34.668,53.71100000000001,11.23,0.0,0
1582149647.899,-1.953,28.32,51.758,15.625,0.0,0
1582149647.901,16.113,24.902,54.199,9.277,0.0,0
1582149647.905,16.113,27.832,56.64100000000001,5.859,0.0,0
1582149647.909,17.09,38.086,56.152,10.254,0.0,0
1582149647.913,25.879,41.01600000000001,55.664,21.973000000000006,0.0,0
1582149647.917,27.344,37.598,59.57,26.367,0.0,0
1582149647.921,24.902,32.227,62.012,23.926,0.0,0
1582149647.925,20.996,27.344,56.64100000000001,24.414,0.0,0
1582149647.928,13.672,29.785,54.199,23.438,0.0,0
1582149647.9320002,22.461,30.762,54.688,16.602,0.0,0
1582149647.936,33.691,30.273000000000003,55.176,20.02,0.0,0
1582149647.94,35.156,37.598,55.664,22.949,0.0,0
1582149647.944,39.062,38.574,57.617,23.438,0.0,0
1582149647.961,44.922,32.227,60.547,27.832,0.0,0
1582149647.965,33.203,28.809,58.105,19.531,0.0,0
1582149647.969,23.926,26.855,64.941,31.25,0.0,0
1582149647.9729998,26.367,28.32,75.195,34.18,0.0,0
1582149647.9770002,22.461,24.414,73.242,21.973000000000006,0.0,0
1582149647.981,28.32,20.996,69.336,32.715,0.0,0
1582149647.985,31.738000000000003,26.855,65.918,16.602,0.0,0
1582149647.988,27.344,31.738000000000003,72.266,1.465,0.0,0
1582149647.992,27.832,31.738000000000003,79.59,14.648,0.0,0
1582149647.996,34.18,26.855,80.566,12.207,0.0,0
1582149648.0,23.438,22.461,84.961,14.16,0.0,0
1582149648.004,4.395,27.344,83.984,29.297,0.0,0
1582149648.006,1.953,31.25,83.008,20.508000000000006,0.0,0
1582149648.01,9.277,25.391,82.52,10.742,0.0,0
1582149648.014,31.738000000000003,28.32,79.102,11.719,0.0,0
1582149648.018,28.32,36.133,75.195,0.977,0.0,0
1582149648.022,14.16,34.668,71.289,9.277,0.0,0
1582149648.026,18.555,32.715,72.266,11.719,0.0,0
1582149648.03,19.043,35.156,73.73,10.742,0.0,0
1582149648.033,22.949,35.645,70.801,12.695,0.0,0
1582149648.0370002,26.367,31.738000000000003,72.266,11.23,0.0,0
1582149648.041,11.719,30.273000000000003,72.266,12.695,0.0,0
1582149648.045,6.348,33.691,67.383,13.184,0.0,0
1582149648.049,23.926,31.738000000000003,64.941,10.254,0.0,0
1582149648.051,19.043,27.344,64.941,10.742,0.0,0
1582149648.055,2.93,25.879,67.87100000000001,16.113,0.0,0
1582149648.059,19.531,29.785,68.848,17.09,0.0,0
1582149648.063,25.391,34.668,63.477,10.254,0.0,0
1582149648.0670002,1.465,30.762,57.617,18.555,0.0,0
1582149648.071,2.93,25.391,59.57,15.625,0.0,0
1582149648.075,14.16,29.297,63.477,-0.977,0.0,0
1582149648.0779998,13.184,32.227,63.477,7.324,0.0,0
1582149648.082,15.137,26.367,60.547,7.324,0.0,0
1582149648.086,26.855,19.043,57.129,-6.836,0.0,0
1582149648.09,27.344,21.484,59.082,-8.789,0.0,0
1582149648.094,17.578,22.949,53.223,1.953,0.0,0
1582149648.096,23.438,22.461,52.246,19.043,0.0,0
1582149648.1,23.438,29.785,58.105,24.414,0.0,0
1582149648.104,15.625,34.668,55.664,19.531,0.0,0
1582149648.1079998,18.066,32.227,48.34,12.695,0.0,0
1582149648.1120002,27.344,29.785,49.805,12.695,0.0,0
1582149648.1160002,18.066,29.785,52.246,13.184,0.0,0
1582149648.12,20.996,32.715,50.293,21.973000000000006,0.0,0
1582149648.123,27.832,31.25,49.316,28.809,0.0,0
1582149648.127,15.137,28.32,46.875,22.461,0.0,0
1582149648.131,19.043,31.25,47.363,21.973000000000006,0.0,0
1582149648.135,13.672,35.645,51.27,20.996,0.0,0
1582149648.139,11.719,34.668,46.875,10.742,0.0,0
1582149648.141,27.344,30.762,47.363,20.508000000000006,0.0,0
1582149648.145,23.438,30.762,46.387,28.809,0.0,0
1582149648.149,21.484,31.25,37.598,18.555,0.0,0
1582149648.153,20.996,37.109,39.551,14.16,0.0,0
1582149648.157,21.484,42.48,44.922,7.324,0.0,0
1582149648.161,31.738000000000003,39.551,47.852,9.766,0.0,0
1582149648.165,31.25,38.086,50.78100000000001,10.254,0.0,0
1582149648.168,12.695,37.109,53.71100000000001,5.859,0.0,0
1582149648.1720002,13.672,35.645,52.246,11.23,0.0,0
1582149648.176,22.461,38.086,42.969,5.859,0.0,0
1582149648.18,14.648,36.133,40.039,-5.371,0.0,0
1582149648.184,8.301,36.621,40.527,-5.371,0.0,0
1582149648.186,12.207,38.086,41.992,4.395,0.0,0
1582149648.19,34.18,36.133,44.434,8.301,0.0,0
1582149648.194,31.25,33.691,47.363,1.465,0.0,0
1582149648.198,4.883,34.668,47.363,0.977,0.0,0
1582149648.202,9.277,40.527,49.805,0.0,0.0,0
1582149648.206,4.395,42.48,59.082,6.836,0.0,0
1582149648.21,-1.953,39.551,55.664,7.324,0.0,0
1582149648.2129998,17.578,40.527,45.898,1.953,0.0,0
1582149648.217,22.461,44.434,44.922,18.066,0.0,0
1582149648.221,12.207,43.457,46.875,16.602,0.0,0
1582149648.225,20.508000000000006,43.457,45.898,1.953,0.0,0
1582149648.229,34.18,43.457,48.34,6.836,0.0,0
1582149648.231,36.133,40.527,51.27,6.836,0.0,0
1582149648.235,31.738000000000003,41.504,52.734,5.371,0.0,0
1582149648.2389998,22.949,45.41,56.152,17.09,0.0,0
1582149648.2429998,30.273000000000003,43.945,52.734,25.879,0.0,0
1582149648.2470002,28.32,38.574,49.805,23.438,0.0,0
1582149648.2510002,-5.859,36.133,47.852,20.996,0.0,0
1582149648.255,-6.348,36.133,47.852,21.484,0.0,0
1582149648.258,-2.441,30.273000000000003,46.875,13.672,0.0,0
1582149648.262,-4.883,31.25,39.062,13.672,0.0,0
1582149648.266,-1.465,30.762,35.156,4.883,0.0,0
1582149648.27,3.906,28.32,34.668,-1.953,0.0,0
1582149648.274,14.648,33.203,34.668,8.301,0.0,0
1582149648.275,20.996,33.203,35.645,4.883,0.0,0
1582149648.279,10.254,30.273000000000003,26.367,-1.953,0.0,0
1582149648.283,10.254,32.715,22.461,5.371,0.0,0
1582149648.2870002,22.461,39.062,30.273000000000003,7.324,0.0,0
1582149648.291,26.367,38.086,32.715,16.113,0.0,0
1582149648.295,20.02,28.32,31.25,14.648,0.0,0
1582149648.299,1.953,31.738000000000003,30.273000000000003,15.137,0.0,0
1582149648.302,12.207,58.105,31.738000000000003,22.949,0.0,0
1582149648.306,12.695,77.637,30.762,7.812,0.0,0
1582149648.31,11.719,77.637,27.344,5.859,0.0,0
1582149648.314,7.324,72.75399999999998,23.438,7.812,0.0,0
1582149648.3179998,0.488,69.824,21.973000000000006,-3.906,0.0,0
1582149648.335,11.719,67.383,24.902,14.16,0.0,0
1582149648.339,2.441,62.988,21.973000000000006,10.254,0.0,0
1582149648.343,3.418,51.758,13.184,-3.906,0.0,0
1582149648.347,8.789,47.363,15.625,5.371,0.0,0
1582149648.351,17.578,46.387,19.531,-2.93,0.0,0
1582149648.355,25.391,38.574,17.09,5.371,0.0,0
1582149648.359,4.395,31.25,20.02,13.184,0.0,0
1582149648.3620002,5.371,29.785,24.414,13.184,0.0,0
1582149648.3660002,13.672,11.23,21.973000000000006,15.625,0.0,0
1582149648.37,20.02,-8.301,17.578,5.859,0.0,0
1582149648.3739998,16.602,-31.25,20.02,4.395,0.0,0
1582149648.3779998,14.16,-121.094,20.996,9.766,0.0,0
1582149648.38,18.066,-202.148,18.066,11.719,0.0,0
1582149648.3839998,21.484,-220.215,22.949,6.836,0.0,0
1582149648.3879998,14.648,-206.543,27.344,-2.441,0.0,0
1582149648.3920002,8.789,-199.707,27.832,0.977,0.0,0
1582149648.396,15.137,-200.68400000000003,29.297,6.348,0.0,0
1582149648.4,23.926,-239.746,26.367,3.418,0.0,0
1582149648.404,10.254,-324.219,20.508000000000006,0.488,0.0,0
1582149648.407,0.977,-343.26199999999994,22.461,9.766,0.0,0
1582149648.411,25.879,-333.496,29.785,16.113,0.0,0
1582149648.415,16.602,-322.266,26.855,2.93,0.0,0
1582149648.419,12.207,-301.758,20.02,3.418,0.0,0
1582149648.423,20.02,-288.574,21.973000000000006,15.625,0.0,0
1582149648.425,19.043,-279.297,24.902,9.766,0.0,0
1582149648.429,27.832,-260.254,25.391,4.395,0.0,0
1582149648.4329998,21.973000000000006,-240.723,23.438,12.695,0.0,0
1582149648.437,9.766,-226.074,20.02,11.23,0.0,0
1582149648.441,4.395,-207.52,17.578,4.883,0.0,0
1582149648.445,15.625,-188.477,17.578,3.906,0.0,0
1582149648.449,19.043,-172.363,18.066,0.488,0.0,0
1582149648.452,21.973000000000006,-146.484,17.578,-1.953,0.0,2
1582149648.456,20.996,-126.465,20.02,7.812,0.0,0
1582149648.46,9.766,-115.723,21.484,6.836,0.0,0
1582149648.464,20.996,-104.98,26.367,8.301,0.0,0
1582149648.468,42.48,-97.168,25.879,14.648,0.0,0
1582149648.47,53.71100000000001,-85.93799999999997,20.996,6.836,0.0,0
1582149648.474,38.574,-73.73,23.438,14.16,0.0,0
1582149648.478,20.508000000000006,-65.43,19.043,6.348,0.0,0
1582149648.482,18.066,-62.5,13.184,1.953,0.0,0
1582149648.486,10.254,-62.012,19.531,12.207,0.0,0
1582149648.49,13.184,-55.176,23.926,16.602,0.0,0
1582149648.494,20.996,-48.34,17.578,29.297,0.0,0
1582149648.4970002,23.438,-48.34,17.09,19.531,0.0,0
1582149648.5010002,25.879,-48.34,21.973000000000006,8.789,0.0,0
1582149648.505,31.25,-42.48,24.414,22.461,0.0,0
1582149648.5089998,34.18,-41.01600000000001,26.367,30.762,0.0,0
1582149648.5129998,21.484,-41.992,25.879,26.367,0.0,0
1582149648.515,19.531,-33.691,23.438,17.09,0.0,0
1582149648.519,20.996,-27.832,25.879,19.043,0.0,0
1582149648.5229998,16.602,-28.32,25.391,25.391,0.0,0
1582149648.5270002,20.02,-26.855,20.996,14.16,0.0,0
1582149648.531,26.855,-25.879,19.531,9.766,0.0,0
1582149648.535,15.137,-29.785,17.09,9.277,0.0,0
1582149648.539,-2.93,-30.762,23.438,16.602,0.0,0
1582149648.542,-0.488,-27.832,24.902,29.785,0.0,0
1582149648.546,5.371,-23.926,23.926,20.02,0.0,0
1582149648.55,10.742,-19.043,22.461,2.441,0.0,0
1582149648.554,15.137,-20.508000000000006,20.508000000000006,3.418,0.0,0
1582149648.5579998,12.695,-21.973000000000006,22.949,16.602,0.0,0
1582149648.56,20.508000000000006,-16.602,21.973000000000006,8.789,0.0,0
1582149648.564,24.414,-16.113,23.926,8.301,0.0,0
1582149648.5679998,21.484,-20.02,22.949,11.23,0.0,0
1582149648.572,32.715,-19.531,20.996,12.207,0.0,0
1582149648.576,38.574,-22.949,24.902,17.578,0.0,0
1582149648.58,18.066,-22.461,24.414,10.254,0.0,0
1582149648.584,9.277,-20.508000000000006,24.414,16.602,0.0,0
1582149648.587,13.184,-17.09,25.391,16.113,0.0,0
1582149648.591,33.691,-14.648,20.02,13.184,0.0,0
1582149648.595,32.227,-18.555,18.066,15.137,0.0,0
1582149648.599,18.066,-19.043,24.414,15.625,0.0,0
1582149648.603,16.602,-11.719,31.738000000000003,20.508000000000006,0.0,0
1582149648.605,14.648,-13.672,28.809,25.879,0.0,0
1582149648.609,30.273000000000003,-20.508000000000006,24.902,27.832,0.0,0
1582149648.613,23.926,-18.555,27.344,17.09,0.0,0
1582149648.617,5.859,-18.066,24.902,12.207,0.0,0
1582149648.621,19.043,-18.555,18.066,16.602,0.0,0
1582149648.625,19.043,-18.555,21.484,20.508000000000006,0.0,0
1582149648.629,13.184,-15.137,21.973000000000006,18.066,0.0,0
1582149648.6320002,22.949,-12.207,21.973000000000006,18.066,0.0,0
1582149648.6360002,26.367,-10.742,30.762,19.043,0.0,0
1582149648.64,26.367,-10.742,28.32,20.02,0.0,0
1582149648.644,24.414,-17.09,22.461,26.367,0.0,0
1582149648.6479998,19.531,-16.113,24.414,20.508000000000006,0.0,0
1582149648.65,26.367,-13.184,25.391,17.578,0.0,0
1582149648.654,39.062,-9.766,18.066,25.391,0.0,0
1582149648.658,47.363,-7.812,10.742,30.273000000000003,0.0,0
1582149648.6620002,37.598,-6.836,23.926,21.484,0.0,0
1582149648.666,29.297,-8.789,35.156,9.766,0.0,0
1582149648.67,19.043,-18.066,33.691,15.137,0.0,0
1582149648.674,4.395,-18.066,36.621,3.906,0.0,0
1582149648.677,-5.371,-13.672,39.551,3.418,0.0,0
1582149648.681,-16.113,-14.648,39.062,7.324,0.0,0
1582149648.685,1.465,-18.555,36.133,4.883,0.0,0
1582149648.689,14.16,-18.555,36.621,12.695,0.0,0
1582149648.6929998,-0.977,-19.043,35.156,12.695,0.0,0
1582149648.711,2.441,-21.484,33.203,20.02,0.0,0
1582149648.715,14.648,-16.113,39.551,25.391,0.0,0
1582149648.719,24.414,-8.301,41.504,26.855,0.0,0
1582149648.7229998,39.062,-7.324,36.133,32.227,0.0,0
1582149648.7270002,29.297,-8.301,31.25,26.855,0.0,0
1582149648.731,10.254,-3.418,30.273000000000003,13.184,0.0,0
1582149648.735,17.578,-5.859,31.738000000000003,11.719,0.0,0
1582149648.738,25.879,-10.254,32.227,16.113,0.0,0
1582149648.742,14.16,-3.906,30.273000000000003,14.16,0.0,0
1582149648.746,15.137,-1.953,27.344,19.043,0.0,0
1582149648.75,30.273000000000003,3.418,29.785,17.09,0.0,0
1582149648.754,29.297,7.324,27.832,18.066,0.0,0
1582149648.756,15.625,4.883,24.414,23.438,0.0,0
1582149648.76,17.578,2.441,24.902,11.23,0.0,0
1582149648.764,24.902,2.93,28.809,20.996,0.0,0
1582149648.768,19.043,3.906,28.809,21.484,0.0,0
1582149648.772,19.531,1.465,28.809,17.09,0.0,0
1582149648.776,34.18,2.93,33.691,25.391,0.0,0
1582149648.78,33.203,4.883,34.18,19.043,0.0,0
1582149648.783,20.508000000000006,4.395,36.133,34.18,0.0,0
1582149648.7870002,13.184,7.324,38.574,34.18,0.0,0
1582149648.791,1.465,7.812,32.227,7.812,0.0,0
1582149648.795,1.465,9.277,25.879,4.395,0.0,0
1582149648.799,3.906,9.277,26.855,8.301,0.0,0
1582149648.801,8.301,11.719,29.785,12.695,0.0,0
1582149648.805,3.906,20.02,34.668,11.23,0.0,0
1582149648.809,-1.953,28.809,35.156,6.836,0.0,0
1582149648.813,7.324,41.01600000000001,28.809,13.672,0.0,0
1582149648.8170002,21.484,47.852,26.855,11.23,0.0,0
1582149648.821,17.578,51.758,30.273000000000003,9.766,0.0,0
1582149648.825,10.742,51.758,25.879,2.93,0.0,0
1582149648.8279998,25.391,50.293,22.461,1.953,0.0,0
1582149648.832,23.438,52.246,24.414,4.395,0.0,0
1582149648.836,9.766,50.78100000000001,27.344,3.418,0.0,0
1582149648.84,8.301,51.758,30.762,8.789,0.0,0
1582149648.844,16.113,51.758,26.855,10.254,0.0,0
1582149648.846,15.625,45.898,27.832,12.207,0.0,0
1582149648.85,16.602,42.969,33.203,13.672,0.0,0
1582149648.854,24.414,42.969,28.809,10.254,0.0,0
1582149648.8579998,32.227,38.086,24.414,13.184,0.0,0
1582149648.8620002,27.344,38.086,25.879,20.02,0.0,0
1582149648.8660002,22.949,39.062,27.344,17.09,0.0,0
1582149648.87,21.484,41.01600000000001,28.809,10.742,0.0,0
1582149648.873,17.578,41.504,31.738000000000003,15.625,0.0,0
1582149648.877,24.902,39.062,35.156,17.09,0.0,0
1582149648.881,14.648,37.598,36.133,10.254,0.0,0
1582149648.885,12.207,30.273000000000003,32.715,16.602,0.0,0
1582149648.889,21.484,20.508000000000006,31.738000000000003,23.438,0.0,0
1582149648.891,6.836,20.02,31.738000000000003,18.555,0.0,0
1582149648.895,4.883,26.855,26.367,15.625,0.0,0
1582149648.899,21.484,30.273000000000003,22.461,19.043,0.0,0
1582149648.903,15.137,26.367,25.879,10.742,0.0,0
1582149648.907,15.137,26.855,29.297,3.906,0.0,0
1582149648.911,19.043,30.762,26.855,8.301,0.0,0
1582149648.915,3.906,33.203,25.879,2.441,0.0,0
1582149648.918,-1.953,30.762,25.391,-6.836,0.0,0
1582149648.9220002,-5.371,26.855,26.367,-4.883,0.0,0
1582149648.926,-4.883,34.668,23.926,1.465,0.0,0
1582149648.93,9.766,34.18,19.043,-7.812,0.0,0
1582149648.934,15.625,27.832,16.602,-6.836,0.0,0
1582149648.936,-1.465,29.785,15.625,-4.883,0.0,0
1582149648.94,3.906,29.297,15.625,-10.254,0.0,0
1582149648.944,10.254,27.344,12.695,-0.488,0.0,0
1582149648.948,4.883,26.367,13.672,-5.859,0.0,0
1582149648.952,4.883,28.32,20.996,-4.395,0.0,0
1582149648.956,8.789,31.738000000000003,25.391,11.719,0.0,0
1582149648.96,15.625,32.227,22.949,15.625,0.0,0
1582149648.9629998,10.254,29.297,18.555,-3.418,0.0,0
1582149648.967,-0.977,24.902,18.555,-13.672,0.0,0
1582149648.971,2.441,23.438,18.555,5.371,0.0,0
1582149648.975,6.348,31.25,17.578,12.695,0.0,0
1582149648.979,14.16,45.898,17.578,9.766,0.0,0
1582149648.981,19.531,63.477,18.066,8.301,0.0,0
1582149648.985,5.371,76.172,21.484,15.625,0.0,0
1582149648.9889998,25.879,83.49600000000002,27.832,16.113,0.0,0
1582149648.9929998,32.715,82.031,23.438,13.184,0.0,0
1582149648.9970002,14.16,70.312,14.648,16.113,0.0,0
1582149649.0010002,22.461,65.918,16.602,1.953,0.0,0
1582149649.005,24.902,63.965,24.902,-4.883,0.0,0
1582149649.008,19.531,64.941,32.227,4.883,0.0,0
1582149649.012,2.93,68.359,32.227,12.695,0.0,0
1582149649.016,13.184,68.359,26.367,3.418,0.0,0
1582149649.02,20.02,66.895,25.391,1.465,0.0,0
1582149649.024,5.859,64.941,30.273000000000003,9.277,0.0,0
1582149649.026,3.418,61.523,25.391,12.207,0.0,0
1582149649.03,0.977,54.688,21.973000000000006,14.648,0.0,0
1582149649.034,7.324,51.758,27.344,5.859,0.0,0
1582149649.038,17.578,49.316,28.32,6.348,0.0,0
1582149649.042,12.695,45.41,27.832,13.672,0.0,0
1582149649.046,9.766,45.41,29.785,13.184,0.0,0
1582149649.05,9.766,47.852,28.32,5.371,0.0,0
1582149649.053,8.301,53.71100000000001,28.809,7.812,0.0,0
1582149649.0570002,10.254,51.758,32.227,10.254,0.0,0
1582149649.061,20.02,42.969,30.762,9.277,0.0,0
1582149649.065,26.367,41.01600000000001,29.785,19.043,0.0,0
1582149649.069,15.625,41.992,30.273000000000003,15.625,0.0,0
1582149649.086,14.16,39.062,31.25,14.16,0.0,0
1582149649.09,14.648,34.668,34.668,20.996,0.0,0
1582149649.094,14.16,35.645,29.297,20.02,0.0,0
1582149649.0979998,10.254,39.062,26.855,16.602,0.0,0
1582149649.1020002,13.672,38.086,33.691,24.414,0.0,0
1582149649.106,25.391,30.273000000000003,29.297,22.461,0.0,0
1582149649.11,16.113,26.855,22.461,21.484,0.0,0
1582149649.113,17.578,34.668,18.555,22.949,0.0,0
1582149649.117,31.738000000000003,33.691,18.555,16.113,0.0,0
1582149649.121,34.668,28.809,20.996,9.277,0.0,0
1582149649.125,45.898,34.668,21.973000000000006,2.93,0.0,0
1582149649.129,29.297,40.527,24.902,1.953,0.0,0
1582149649.131,4.395,34.18,26.367,14.16,0.0,0
1582149649.135,17.09,14.648,26.855,18.066,0.0,0
1582149649.139,14.16,-9.277,29.785,16.113,0.0,0
1582149649.143,2.93,-30.762,31.738000000000003,24.902,0.0,0
1582149649.147,12.207,-45.41,26.367,23.926,0.0,0
1582149649.151,11.23,-50.78100000000001,23.926,13.184,0.0,0
1582149649.155,1.953,-56.152,24.902,12.207,0.0,0
1582149649.158,-0.488,-58.105,24.902,11.23,0.0,0
1582149649.1620002,15.137,-63.477,28.809,14.648,0.0,0
1582149649.166,23.926,-71.777,35.645,15.137,0.0,0
1582149649.17,3.906,-69.336,38.574,9.277,0.0,0
1582149649.174,11.23,-69.824,34.18,17.578,0.0,0
1582149649.176,19.043,-74.219,31.25,24.414,0.0,0
1582149649.18,26.855,-73.242,31.738000000000003,18.066,0.0,0
1582149649.184,27.344,-67.87100000000001,29.297,8.789,0.0,0
1582149649.188,7.324,-64.941,29.297,1.465,0.0,0
1582149649.1920002,5.371,-60.547,32.715,13.184,0.0,0
1582149649.196,15.625,-55.664,32.715,19.043,0.0,0
1582149649.2,21.484,-53.223,31.25,12.695,0.0,0
1582149649.2029998,26.855,-51.27,37.109,13.672,0.0,0
1582149649.207,37.598,-50.293,31.738000000000003,10.254,0.0,0
1582149649.211,35.645,-51.27,20.996,16.113,0.0,0
1582149649.215,25.879,-52.734,22.949,14.648,0.0,0
1582149649.219,28.809,-48.34,30.762,11.719,0.0,0
1582149649.221,24.902,-43.457,36.133,16.113,0.0,0
1582149649.225,17.578,-43.457,31.738000000000003,12.695,0.0,0
1582149649.229,15.625,-43.945,28.809,13.672,0.0,0
1582149649.2329998,17.09,-42.969,32.715,18.066,0.0,0
1582149649.2370002,24.902,-41.504,36.133,22.949,0.0,0
1582149649.2410002,30.273000000000003,-37.598,30.273000000000003,24.414,0.0,0
1582149649.245,21.973000000000006,-34.18,28.32,15.625,0.0,0
1582149649.248,32.227,-29.297,27.832,22.949,0.0,0
1582149649.252,30.762,-27.344,26.367,21.973000000000006,0.0,0
1582149649.256,16.113,-25.391,28.809,20.508000000000006,0.0,0
1582149649.26,25.879,-23.438,30.762,28.32,0.0,0
1582149649.264,25.879,-24.414,30.273000000000003,26.367,0.0,0
1582149649.266,21.484,-29.297,30.762,32.715,0.0,0
1582149649.27,12.695,-28.809,28.32,18.066,0.0,0
1582149649.274,16.602,-26.367,30.273000000000003,1.465,0.0,0
1582149649.278,31.25,-29.785,32.227,8.301,0.0,0
1582149649.282,25.879,-30.762,27.344,14.648,0.0,0
1582149649.286,22.461,-30.273000000000003,26.367,9.766,0.0,0
1582149649.29,26.367,-28.809,28.32,12.207,0.0,0
1582149649.293,33.203,-25.879,32.227,19.043,0.0,0
1582149649.2970002,34.668,-25.879,32.227,15.137,0.0,0
1582149649.301,22.461,-20.996,34.18,17.09,0.0,0
1582149649.305,21.484,-15.625,34.18,15.625,0.0,0
1582149649.309,21.484,-18.555,32.227,19.043,0.0,0
1582149649.311,11.719,-18.066,33.203,14.648,0.0,0
1582149649.315,8.301,-18.066,32.715,12.695,0.0,0
1582149649.319,11.719,-21.484,29.297,14.16,0.0,0
1582149649.323,7.812,-23.926,28.809,7.812,0.0,0
1582149649.327,12.207,-24.902,33.691,3.906,0.0,0
1582149649.331,16.113,-21.484,36.133,4.395,0.0,0
1582149649.335,8.789,-18.066,34.668,14.16,0.0,0
1582149649.3379998,6.836,-19.043,36.133,3.906,0.0,0
1582149649.342,3.906,-17.578,36.621,-11.23,0.0,0
1582149649.346,5.859,-17.09,32.715,-7.812,0.0,0
1582149649.35,12.207,-12.695,35.156,-5.859,0.0,0
1582149649.354,15.137,-9.277,38.574,-4.395,0.0,0
1582149649.356,16.602,-11.23,38.086,0.977,0.0,0
1582149649.36,26.855,-7.324,33.203,-4.395,0.0,0
1582149649.3639998,30.273000000000003,-9.766,32.227,0.488,0.0,0
1582149649.3679998,17.09,-8.301,33.203,1.953,0.0,0
1582149649.3720002,23.438,-4.883,32.227,7.324,0.0,0
1582149649.3760002,39.062,-5.371,29.785,10.742,0.0,0
1582149649.38,29.785,-3.906,29.297,8.789,0.0,0
1582149649.383,18.555,-2.93,31.738000000000003,11.23,0.0,0
1582149649.387,15.625,-2.441,30.762,10.254,0.0,0
1582149649.391,12.695,-10.742,29.297,4.883,0.0,0
1582149649.395,18.066,-12.207,35.156,2.441,0.0,0
1582149649.399,12.695,-7.812,41.01600000000001,16.602,0.0,0
1582149649.4,12.695,-8.301,39.551,16.602,0.0,0
1582149649.404,34.18,-13.672,37.598,15.137,0.0,0
1582149649.408,38.574,-7.812,40.527,20.508000000000006,0.0,0
1582149649.4120002,17.09,0.488,37.598,15.625,0.0,0
1582149649.416,7.324,-0.488,34.18,7.812,0.0,0
1582149649.42,17.09,-1.465,34.668,3.906,0.0,0
1582149649.424,20.02,-5.371,31.738000000000003,11.719,0.0,0
1582149649.427,7.812,0.488,30.762,4.395,0.0,0
1582149649.431,8.789,2.93,30.762,-5.859,0.0,0
1582149649.435,8.789,-0.977,29.785,14.16,0.0,0
1582149649.439,12.207,4.883,29.297,18.555,0.0,0
1582149649.4429998,13.184,5.371,29.297,9.277,0.0,0
1582149649.46,1.953,-0.488,34.18,11.23,0.0,0
1582149649.464,7.324,-0.488,34.18,6.348,0.0,0
1582149649.468,25.391,4.883,31.738000000000003,4.883,0.0,0
1582149649.472,26.855,10.742,31.25,6.836,0.0,0
1582149649.476,9.277,8.789,26.367,5.859,0.0,0
1582149649.48,5.859,7.812,22.949,20.02,0.0,0
1582149649.484,25.391,13.184,28.32,18.066,0.0,0
1582149649.4870002,25.391,15.137,31.25,6.348,0.0,0
1582149649.4910002,3.906,11.23,28.32,13.184,0.0,0
1582149649.495,5.859,4.883,28.809,19.043,0.0,0
1582149649.4989998,10.254,4.883,28.32,21.973000000000006,0.0,0
1582149649.5029998,18.066,11.23,23.438,12.207,0.0,0
1582149649.505,24.414,9.766,19.531,2.93,0.0,0
1582149649.5089998,17.09,5.371,15.625,1.953,0.0,0
1582149649.5129998,14.16,8.789,19.043,12.695,0.0,0
1582149649.5170002,1.953,11.23,27.832,13.672,0.0,0
1582149649.521,6.348,8.301,26.855,6.348,0.0,0
1582149649.525,21.973000000000006,8.301,24.414,3.418,0.0,0
1582149649.529,17.09,15.625,25.879,11.23,0.0,0
1582149649.532,16.113,24.414,24.414,14.648,0.0,0
1582149649.536,14.648,21.973000000000006,20.02,8.789,0.0,0
1582149649.54,16.602,19.043,24.414,13.184,0.0,0
1582149649.544,27.344,24.414,26.367,7.324,0.0,0
1582149649.548,27.344,22.949,19.043,11.23,0.0,0
1582149649.55,20.02,15.137,21.484,12.207,0.0,0
1582149649.554,24.902,12.207,24.414,8.301,0.0,0
1582149649.5579998,29.297,17.09,21.484,4.883,0.0,0
1582149649.562,21.973000000000006,20.996,21.973000000000006,-8.789,0.0,0
1582149649.566,22.949,18.555,25.391,4.883,0.0,0
1582149649.57,27.344,16.113,28.809,18.555,0.0,0
1582149649.574,17.578,19.043,28.32,9.277,0.0,0
1582149649.577,14.648,23.438,29.297,9.277,0.0,0
1582149649.581,31.738000000000003,20.508000000000006,31.738000000000003,20.508000000000006,0.0,0
1582149649.585,18.555,13.672,28.32,13.184,0.0,2
1582149649.589,6.348,11.719,27.344,0.977,0.0,0
1582149649.593,13.672,15.137,29.785,7.324,0.0,0
1582149649.595,14.16,17.578,33.203,20.02,0.0,0
1582149649.599,18.555,20.02,37.109,17.578,0.0,0
1582149649.603,4.883,24.414,31.738000000000003,7.324,0.0,0
1582149649.607,-2.441,21.484,27.832,0.977,0.0,0
1582149649.611,6.348,17.09,29.297,-3.906,0.0,0
1582149649.615,12.695,15.625,26.367,1.953,0.0,0
1582149649.619,8.301,17.09,25.391,12.695,0.0,0
1582149649.6220002,8.301,23.438,25.879,21.973000000000006,0.0,0
1582149649.6260002,19.531,24.902,22.461,13.184,0.0,0
1582149649.63,30.762,25.391,20.508000000000006,20.508000000000006,0.0,0
1582149649.6339998,29.785,28.32,23.926,25.391,0.0,0
1582149649.6379998,33.691,32.227,26.855,13.184,0.0,0
1582149649.64,31.738000000000003,29.297,25.391,20.508000000000006,0.0,0
1582149649.644,24.414,20.996,22.949,24.414,0.0,0
1582149649.6479998,35.156,22.949,28.32,17.578,0.0,0
1582149649.6520002,35.645,22.949,30.762,17.578,0.0,0
1582149649.656,36.621,26.367,33.203,23.438,0.0,0
1582149649.66,31.738000000000003,30.762,34.18,22.949,0.0,0
1582149649.664,30.273000000000003,27.344,28.809,16.113,0.0,0
1582149649.667,35.645,26.367,29.785,11.23,0.0,0
1582149649.671,18.066,27.832,28.809,14.16,0.0,0
1582149649.675,18.555,26.367,20.508000000000006,11.23,0.0,0
1582149649.679,21.484,23.438,21.484,2.441,0.0,0
1582149649.6829998,10.254,27.832,24.414,11.23,0.0,0
1582149649.685,15.625,30.762,21.973000000000006,10.742,0.0,0
1582149649.689,33.203,34.18,22.949,6.348,0.0,0
1582149649.6929998,37.598,41.504,24.414,20.996,0.0,0
1582149649.697,22.461,39.062,19.043,15.137,0.0,0
1582149649.701,5.371,29.785,20.508000000000006,1.953,0.0,0
1582149649.705,12.207,27.832,24.414,9.277,0.0,0
1582149649.709,15.137,34.668,22.949,13.672,0.0,0
1582149649.712,11.719,37.109,26.367,13.672,0.0,0
1582149649.716,21.973000000000006,38.086,24.902,6.836,0.0,0
1582149649.72,18.555,38.574,22.949,3.418,0.0,0
1582149649.724,11.23,35.156,17.09,20.996,0.0,0
1582149649.728,19.043,33.691,18.066,19.043,0.0,0
1582149649.73,17.578,33.203,22.949,12.207,0.0,0
1582149649.734,25.879,35.645,25.879,17.578,0.0,0
1582149649.738,27.344,38.574,26.367,13.672,0.0,0
1582149649.742,12.207,37.109,23.926,14.648,0.0,0
1582149649.746,22.461,35.156,24.902,13.184,0.0,0
1582149649.75,33.691,35.156,24.414,19.531,0.0,0
1582149649.754,35.645,32.227,23.926,30.273000000000003,0.0,0
1582149649.7570002,39.062,22.949,26.855,21.484,0.0,0
1582149649.7610002,21.484,21.484,26.855,16.602,0.0,0
1582149649.765,15.137,24.902,23.438,20.996,0.0,0
1582149649.769,29.785,29.785,28.809,22.461,0.0,0
1582149649.7729998,23.926,34.668,30.762,30.273000000000003,0.0,0
1582149649.776,28.32,30.762,29.297,37.109,0.0,0
1582149649.78,37.598,27.832,31.25,30.762,0.0,0
1582149649.784,23.926,33.203,32.227,33.691,0.0,0
1582149649.788,21.484,35.645,28.809,35.645,0.0,0
1582149649.792,20.02,30.273000000000003,25.391,28.32,0.0,0
1582149649.796,13.672,29.785,26.367,22.949,0.0,0
1582149649.8,14.16,34.668,30.273000000000003,9.766,0.0,0
1582149649.803,24.414,32.227,25.391,8.301,0.0,0
1582149649.8070002,26.367,27.832,20.996,6.348,0.0,0
1582149649.811,13.672,23.926,24.414,9.766,0.0,0
1582149649.815,17.578,26.367,25.879,27.344,0.0,0
1582149649.819,22.949,37.598,21.973000000000006,19.531,0.0,0
1582149649.836,26.855,35.645,17.578,10.254,0.0,0
1582149649.84,16.602,28.32,16.602,14.648,0.0,0
1582149649.844,17.09,30.273000000000003,18.555,23.438,0.0,0
1582149649.8479998,20.508000000000006,28.809,20.508000000000006,17.578,0.0,0
1582149649.8520002,19.043,28.32,15.625,11.23,0.0,0
1582149649.856,25.879,26.855,12.207,20.508000000000006,0.0,0
1582149649.86,20.508000000000006,25.879,16.113,17.09,0.0,0
1582149649.863,14.16,34.668,15.625,20.508000000000006,0.0,0
1582149649.867,20.508000000000006,34.18,15.625,23.926,0.0,0
1582149649.871,28.32,27.832,20.02,12.207,0.0,0
1582149649.875,19.043,26.855,21.484,11.719,0.0,0
1582149649.879,0.0,29.785,21.973000000000006,19.043,0.0,0
1582149649.881,3.906,32.227,20.508000000000006,12.207,0.0,0
1582149649.885,21.484,33.203,20.02,0.488,0.0,0
1582149649.889,30.273000000000003,31.738000000000003,20.996,5.859,0.0,0
1582149649.893,11.719,29.785,22.461,17.578,0.0,0
1582149649.897,6.836,32.715,26.855,7.812,0.0,0
1582149649.901,9.277,41.01600000000001,23.438,-1.953,0.0,0
1582149649.905,7.812,38.574,21.973000000000006,-0.488,0.0,0
1582149649.908,13.184,33.691,27.832,14.648,0.0,0
1582149649.9120002,11.23,36.621,27.344,17.578,0.0,0
1582149649.916,14.16,35.156,24.902,6.836,0.0,0
1582149649.92,11.719,42.969,25.879,0.488,0.0,0
1582149649.924,21.484,47.363,28.32,-0.977,0.0,0
1582149649.926,21.484,39.551,23.926,6.348,0.0,0
1582149649.93,14.16,41.01600000000001,19.043,7.812,0.0,0
1582149649.934,30.273000000000003,38.574,22.949,6.348,0.0,0
1582149649.938,27.832,35.156,20.996,8.789,0.0,0
1582149649.9420002,17.09,35.645,22.461,11.23,0.0,0
1582149649.946,26.855,37.598,26.855,21.484,0.0,0
1582149649.95,20.996,39.551,25.391,22.949,0.0,0
1582149649.9529998,15.625,39.551,22.461,4.395,0.0,0
1582149649.957,24.902,36.133,24.414,5.859,0.0,0
1582149649.961,19.043,34.668,26.367,10.254,0.0,0
1582149649.965,20.508000000000006,37.109,25.391,11.719,0.0,0
1582149649.969,10.742,31.738000000000003,24.414,6.836,0.0,0
1582149649.971,2.441,25.391,24.414,2.441,0.0,0
1582149649.975,16.113,26.855,28.809,15.625,0.0,0
1582149649.979,17.09,33.691,30.762,20.02,0.0,0
1582149649.9829998,8.301,34.668,21.973000000000006,10.254,0.0,0
1582149649.9870002,9.277,32.715,18.555,5.371,0.0,0
1582149649.9910002,16.602,31.25,23.438,7.324,0.0,0
1582149649.995,10.742,32.715,26.367,6.836,0.0,0
1582149649.998,10.254,36.621,29.297,19.531,0.0,0
1582149650.002,16.602,34.18,30.273000000000003,6.836,0.0,0
1582149650.006,10.742,32.227,29.785,-10.742,0.0,0
1582149650.01,-0.488,29.785,25.391,-1.953,0.0,0
1582149650.014,3.418,29.297,19.043,-2.93,0.0,0
1582149650.016,16.602,34.18,21.973000000000006,-4.395,0.0,0
1582149650.02,20.02,37.109,23.926,9.766,0.0,0
1582149650.024,26.855,29.785,23.438,13.184,0.0,0
1582149650.028,37.109,25.879,25.391,11.719,0.0,0
1582149650.032,43.457,32.715,27.344,17.578,0.0,0
1582149650.036,38.574,36.133,31.738000000000003,13.184,0.0,0
1582149650.04,24.414,34.18,34.668,17.578,0.0,0
1582149650.043,25.391,35.156,32.715,30.273000000000003,0.0,0
1582149650.0470002,15.625,36.133,27.832,21.973000000000006,0.0,0
1582149650.051,7.812,34.18,23.926,5.859,0.0,0
1582149650.055,13.184,32.227,22.949,6.348,0.0,0
1582149650.059,19.043,32.227,26.367,11.23,0.0,0
1582149650.061,14.648,33.203,33.203,17.09,0.0,0
1582149650.065,17.578,33.203,30.762,19.531,0.0,0
1582149650.069,23.926,30.273000000000003,24.414,4.883,0.0,0
1582149650.073,0.977,34.668,23.926,4.395,0.0,0
1582149650.077,2.441,40.039,28.32,8.301,0.0,0
1582149650.081,19.043,40.527,31.25,0.977,0.0,0
1582149650.085,12.695,41.992,30.762,3.906,0.0,0
1582149650.0879998,13.672,41.504,34.668,8.789,0.0,0
1582149650.092,21.484,38.086,34.668,1.953,0.0,0
1582149650.096,11.23,31.738000000000003,27.344,-2.93,0.0,0
1582149650.1,11.719,29.785,24.414,-4.883,0.0,0
1582149650.104,29.785,33.203,24.414,6.348,0.0,0
1582149650.106,19.531,31.738000000000003,29.297,4.395,0.0,0
1582149650.11,0.977,32.715,36.133,7.812,0.0,0
1582149650.1139998,8.301,31.738000000000003,36.133,6.348,0.0,0
1582149650.1179998,18.066,29.297,32.715,-9.766,0.0,0
1582149650.1220002,4.883,32.227,32.715,3.906,0.0,0
1582149650.1260002,-8.789,29.785,34.18,2.93,0.0,0
1582149650.13,-1.953,25.391,30.762,-7.812,0.0,0
1582149650.133,9.277,27.344,30.762,18.555,0.0,0
1582149650.137,14.16,31.738000000000003,28.32,4.395,0.0,0
1582149650.141,10.742,37.598,25.879,-7.324,0.0,0
1582149650.145,7.812,40.039,30.273000000000003,6.348,0.0,0
1582149650.149,9.766,41.504,26.367,-4.395,0.0,0
1582149650.151,20.02,41.504,23.438,8.301,0.0,0
1582149650.155,21.484,39.062,25.879,15.625,0.0,0
1582149650.159,30.762,37.598,32.227,27.832,0.0,0
1582149650.163,27.344,38.086,36.133,21.484,0.0,0
1582149650.167,13.672,36.621,30.273000000000003,6.836,0.0,0
1582149650.171,16.602,37.109,28.809,18.555,0.0,0
1582149650.175,23.438,39.551,28.809,10.742,0.0,0
1582149650.178,23.926,39.551,30.273000000000003,5.859,0.0,0
1582149650.1820002,23.438,38.086,34.668,7.812,0.0,0
1582149650.186,22.949,37.109,34.18,9.766,0.0,0
1582149650.19,21.484,35.645,37.109,14.16,0.0,0
1582149650.194,29.785,34.18,38.574,9.766,0.0,0
1582149650.211,18.066,34.668,32.227,6.836,0.0,0
1582149650.215,22.949,34.18,28.809,23.926,0.0,0
1582149650.219,32.715,35.645,29.297,20.996,0.0,0
1582149650.2229998,26.855,35.156,29.297,1.953,0.0,0
1582149650.2270002,20.996,32.715,33.203,21.973000000000006,0.0,0
1582149650.231,12.695,33.691,37.109,22.461,0.0,0
1582149650.235,16.113,36.621,31.738000000000003,10.254,0.0,0
1582149650.238,20.996,36.621,30.273000000000003,23.926,0.0,0
1582149650.242,20.508000000000006,35.645,31.25,20.02,0.0,0
1582149650.246,23.438,32.715,33.203,16.113,0.0,0
1582149650.25,41.01600000000001,28.809,33.203,26.855,0.0,0
1582149650.254,33.203,30.273000000000003,33.691,23.438,0.0,0
1582149650.256,0.0,36.133,34.668,20.02,0.0,0
1582149650.26,13.672,36.133,30.762,5.371,0.0,0
1582149650.264,24.902,32.227,26.855,0.977,0.0,0
1582149650.268,17.09,31.738000000000003,26.855,5.371,0.0,0
1582149650.272,14.648,36.621,21.973000000000006,3.418,0.0,0
1582149650.276,2.93,39.062,20.02,2.93,0.0,0
1582149650.28,0.488,35.156,22.949,-0.488,0.0,0
1582149650.283,4.883,36.133,22.949,-8.789,0.0,0
1582149650.2870002,6.836,36.621,24.902,-13.672,0.0,0
1582149650.291,9.766,36.621,25.391,-15.137,0.0,0
1582149650.295,19.531,39.551,25.391,-10.742,0.0,0
1582149650.299,24.902,37.109,21.973000000000006,-4.883,0.0,0
1582149650.301,17.578,34.18,20.02,-6.348,0.0,0
1582149650.305,12.207,33.691,27.832,-3.418,0.0,0
1582149650.309,23.438,33.203,28.809,9.766,0.0,0
1582149650.313,33.691,32.227,26.855,9.766,0.0,0
1582149650.3170002,13.184,28.809,32.227,3.906,0.0,0
1582149650.321,12.695,26.855,31.25,6.836,0.0,0
1582149650.325,9.277,29.297,28.32,15.137,0.0,0
1582149650.3279998,6.348,24.902,32.227,20.02,0.0,0
1582149650.332,28.32,18.555,34.18,24.902,0.0,0
1582149650.336,14.648,21.973000000000006,30.762,19.531,0.0,0
1582149650.34,-3.418,23.926,30.762,3.418,0.0,0
1582149650.344,16.113,26.855,33.691,7.324,0.0,0
1582149650.346,16.113,34.668,32.715,13.184,0.0,0
1582149650.35,-4.395,44.434,30.273000000000003,14.648,0.0,0
1582149650.354,5.371,52.734,28.809,17.578,0.0,0
1582149650.3579998,14.648,58.105,29.785,18.555,0.0,0
1582149650.3620002,17.578,62.5,31.25,21.973000000000006,0.0,0
1582149650.3660002,28.809,65.43,30.762,21.973000000000006,0.0,0
1582149650.37,25.391,64.453,31.738000000000003,15.137,0.0,0
1582149650.373,19.531,63.477,29.297,7.324,0.0,0
1582149650.377,25.391,64.453,30.762,16.602,0.0,0
1582149650.381,23.926,71.289,29.785,14.16,0.0,0
1582149650.385,22.461,75.195,24.414,4.883,0.0,0
1582149650.389,20.02,74.707,25.391,15.625,0.0,0
1582149650.391,28.32,73.73,19.043,16.602,0.0,0
1582149650.395,24.414,72.266,8.301,11.23,0.0,0
1582149650.399,17.578,72.266,9.766,11.719,0.0,0
1582149650.403,10.742,68.848,11.23,-0.488,0.0,0
1582149650.407,8.789,68.359,15.137,-3.906,0.0,0
1582149650.411,28.809,71.777,17.578,-0.977,0.0,0
1582149650.415,20.508000000000006,70.801,17.578,2.441,0.0,0
1582149650.418,10.742,63.477,22.949,-0.488,0.0,0
1582149650.4220002,13.184,60.059,21.484,1.465,0.0,0
1582149650.426,16.113,63.477,17.578,12.207,0.0,0
1582149650.43,20.508000000000006,62.5,18.555,10.254,0.0,0
1582149650.434,22.949,58.105,21.973000000000006,10.254,0.0,0
1582149650.436,17.09,55.664,27.344,9.766,0.0,0
1582149650.44,11.23,54.688,27.344,0.0,0.0,0
1582149650.444,15.137,54.199,27.344,1.465,0.0,0
1582149650.448,12.207,54.688,29.785,5.371,0.0,0
1582149650.452,16.602,57.617,29.297,2.93,0.0,0
1582149650.456,23.926,56.152,23.926,6.348,0.0,0
1582149650.46,31.25,48.828,25.391,17.09,0.0,0
1582149650.4629998,27.344,46.875,29.297,15.625,0.0,0
1582149650.467,11.719,50.78100000000001,26.367,11.23,0.0,0
1582149650.471,13.184,54.199,22.461,20.508000000000006,0.0,0
1582149650.475,18.066,52.734,26.855,17.09,0.0,0
1582149650.479,10.254,51.758,31.738000000000003,12.207,0.0,0
1582149650.48,12.695,54.199,30.273000000000003,11.719,0.0,0
1582149650.484,20.508000000000006,53.223,32.227,11.719,0.0,0
1582149650.488,14.648,46.875,30.273000000000003,14.16,0.0,0
1582149650.492,16.602,42.48,24.902,10.254,0.0,0
1582149650.496,17.578,44.434,21.484,7.324,0.0,0
1582149650.5,18.555,47.363,24.414,14.648,0.0,0
1582149650.504,21.484,46.387,26.855,14.648,0.0,0
1582149650.5070002,21.973000000000006,47.363,21.973000000000006,9.277,0.0,0
1582149650.5110002,20.508000000000006,49.805,29.785,10.254,0.0,0
1582149650.515,19.531,47.852,37.598,19.531,0.0,0
1582149650.519,25.879,45.41,33.691,25.879,0.0,0
1582149650.5229998,33.203,47.363,32.227,18.066,0.0,0
1582149650.525,23.438,49.805,33.203,9.277,0.0,0
1582149650.529,9.277,48.34,30.762,13.672,0.0,0
1582149650.533,11.719,45.41,32.715,26.367,0.0,0
1582149650.5370002,27.344,43.457,34.668,18.066,0.0,0
1582149650.541,27.832,42.969,31.25,10.254,0.0,0
1582149650.545,5.371,40.527,33.691,11.719,0.0,0
1582149650.549,15.625,41.504,37.109,13.184,0.0,0
1582149650.552,31.25,45.898,35.156,18.555,0.0,0
1582149650.556,40.039,43.945,33.203,12.695,0.0,0
1582149650.56,46.387,45.898,30.762,10.254,0.0,0
1582149650.564,23.438,49.316,35.645,20.996,0.0,0
1582149650.5679998,11.23,44.434,37.109,21.484,0.0,0
1582149650.585,14.16,38.086,31.25,4.395,0.0,0
1582149650.589,17.578,36.621,33.203,1.953,0.0,0
1582149650.593,21.973000000000006,41.992,35.156,11.719,0.0,0
1582149650.597,16.602,44.434,30.762,2.441,0.0,0
1582149650.601,23.926,42.969,27.832,2.93,0.0,0
1582149650.605,28.32,41.504,27.832,11.23,0.0,0
1582149650.609,13.672,42.969,32.227,10.254,0.0,0
1582149650.6120002,20.02,42.48,34.668,15.137,0.0,0
1582149650.6160002,25.391,29.785,35.645,12.207,0.0,0
1582149650.62,16.113,30.273000000000003,34.668,3.418,0.0,0
1582149650.6239998,5.371,35.645,25.879,5.371,0.0,0
1582149650.6279998,9.277,38.086,23.926,11.23,0.0,0
1582149650.63,15.137,39.551,26.855,6.348,0.0,0
1582149650.6339998,24.902,36.133,27.344,5.371,0.0,0
1582149650.6379998,21.973000000000006,32.227,31.25,15.625,0.0,0
1582149650.6420002,8.301,24.902,33.691,9.766,0.0,0
1582149650.646,13.672,27.832,34.668,10.254,0.0,0
1582149650.65,20.508000000000006,35.156,35.645,22.949,0.0,0
1582149650.654,26.855,34.18,28.809,18.066,0.0,1
1582149650.657,16.602,28.809,26.367,7.324,0.0,0
1582149650.661,15.625,23.926,32.227,11.719,0.0,0
1582149650.665,26.367,27.832,33.203,10.742,0.0,0
1582149650.669,19.043,32.227,32.227,6.348,0.0,0
1582149650.673,9.277,29.785,31.25,8.789,0.0,0
1582149650.675,10.742,30.762,36.621,12.695,0.0,0
1582149650.679,28.32,37.598,39.551,14.648,0.0,0
1582149650.6829998,36.621,41.992,34.668,22.461,0.0,0
1582149650.687,20.02,39.551,33.691,39.062,0.0,0
1582149650.691,10.254,34.18,36.133,23.926,0.0,0
1582149650.695,17.578,34.18,38.086,16.113,0.0,0
1582149650.699,19.043,39.062,36.621,19.531,0.0,0
1582149650.702,6.836,39.062,32.227,6.836,0.0,0
1582149650.706,1.465,35.156,30.762,0.977,0.0,0
1582149650.71,12.207,38.574,33.203,2.93,0.0,0
1582149650.714,26.855,45.898,34.668,5.859,0.0,0
1582149650.718,14.648,44.922,32.227,7.812,0.0,0
1582149650.72,-4.883,38.574,29.297,10.742,0.0,0
1582149650.724,8.301,36.621,35.645,11.23,0.0,0
1582149650.728,16.113,38.574,36.621,15.137,0.0,0
1582149650.732,12.695,37.598,31.738000000000003,12.695,0.0,0
1582149650.736,20.508000000000006,41.01600000000001,31.25,-3.418,0.0,0
1582149650.74,21.484,44.922,39.551,6.348,0.0,0
1582149650.744,12.695,50.293,39.062,17.09,0.0,0
1582149650.7470002,24.414,52.734,34.668,14.648,0.0,0
1582149650.7510002,20.996,50.78100000000001,37.598,11.23,0.0,0
1582149650.755,4.395,49.805,36.133,11.719,0.0,0
1582149650.7589998,14.648,46.875,35.645,14.16,0.0,0
1582149650.7629998,13.672,44.434,33.203,5.371,0.0,0
1582149650.765,4.883,47.363,29.297,4.395,0.0,0
1582149650.769,21.973000000000006,51.758,34.668,6.348,0.0,0
1582149650.7729998,28.32,51.758,34.668,9.277,0.0,0
1582149650.7770002,25.879,51.758,33.691,17.578,0.0,0
1582149650.781,20.996,53.71100000000001,32.715,21.973000000000006,0.0,0
1582149650.785,17.09,58.105,31.25,15.625,0.0,0
1582149650.789,27.344,64.453,36.133,15.137,0.0,0
1582149650.792,31.738000000000003,59.57,32.227,21.973000000000006,0.0,0
1582149650.796,21.973000000000006,57.617,27.344,19.531,0.0,0
1582149650.8,13.672,64.941,30.273000000000003,16.113,0.0,0
1582149650.804,17.578,60.547,33.203,13.672,0.0,0
1582149650.8079998,14.16,59.57,31.738000000000003,22.461,0.0,0
1582149650.811,4.883,58.105,34.18,19.531,0.0,0
1582149650.815,2.441,57.617,38.086,0.488,0.0,0
1582149650.819,7.812,59.082,31.738000000000003,4.395,0.0,0
1582149650.823,22.949,62.012,30.273000000000003,21.484,0.0,0
1582149650.827,27.832,63.965,31.25,17.578,0.0,0
1582149650.831,29.297,59.57,27.344,7.812,0.0,0
1582149650.835,18.066,50.78100000000001,29.785,1.953,0.0,0
1582149650.8379998,13.672,42.969,32.227,7.324,0.0,0
1582149650.842,21.973000000000006,53.223,32.715,11.23,0.0,0
1582149650.846,19.531,57.617,30.762,8.301,0.0,0
1582149650.85,17.578,52.246,24.414,3.906,0.0,0
1582149650.854,22.461,53.223,27.832,9.277,0.0,0
1582149650.856,21.484,55.664,34.668,15.137,0.0,0
1582149650.86,11.719,55.664,27.832,11.719,0.0,0
1582149650.8639998,12.695,48.34,27.832,22.461,0.0,0
1582149650.8679998,16.113,48.828,28.32,19.043,0.0,0
1582149650.8720002,13.184,51.27,23.926,2.441,0.0,0
1582149650.8760002,16.113,46.875,27.344,4.883,0.0,0
1582149650.88,11.719,46.387,29.297,7.812,0.0,0
1582149650.883,3.418,45.898,30.762,10.742,0.0,0
1582149650.887,17.09,45.898,32.715,14.16,0.0,0
1582149650.891,20.508000000000006,47.852,33.691,16.602,0.0,0
1582149650.895,15.137,47.363,30.762,22.949,0.0,0
1582149650.899,17.09,41.992,27.344,24.902,0.0,0
1582149650.901,18.066,42.48,32.715,21.484,0.0,0
1582149650.905,16.602,42.969,36.133,11.23,0.0,0
1582149650.909,16.602,40.039,35.645,17.09,0.0,0
1582149650.913,21.484,37.598,37.598,15.137,0.0,0
1582149650.917,21.973000000000006,35.156,38.574,0.488,0.0,0
1582149650.921,25.391,34.668,32.715,6.348,0.0,0
1582149650.925,24.902,34.18,25.879,2.93,0.0,0
1582149650.928,24.414,35.645,28.32,13.184,0.0,0
1582149650.9320002,29.297,41.01600000000001,33.691,20.02,0.0,0
1582149650.936,26.855,40.039,29.297,12.695,0.0,0
1582149650.94,20.508000000000006,35.645,31.25,20.02,0.0,0
1582149650.944,13.672,34.668,35.156,7.324,0.0,0
1582149650.946,18.066,34.668,33.691,-2.93,0.0,0
1582149650.95,25.391,34.668,32.715,9.277,0.0,0
1582149650.954,33.691,36.621,25.879,-0.977,0.0,0
1582149650.958,32.715,35.645,20.508000000000006,-10.742,0.0,0
1582149650.962,26.855,33.691,21.973000000000006,8.301,0.0,0
1582149650.966,29.297,31.25,27.344,13.184,0.0,0
1582149650.97,29.297,29.785,33.203,4.395,0.0,0
1582149650.9729998,18.066,30.762,35.645,11.719,0.0,0
1582149650.9770002,0.977,28.32,35.645,13.184,0.0,0
1582149650.981,-2.93,27.832,34.18,15.137,0.0,0
1582149650.985,19.043,29.297,35.156,8.301,0.0,0
1582149650.9889998,20.996,27.832,39.551,9.277,0.0,0
1582149651.006,7.812,30.273000000000003,35.156,10.254,0.0,0
1582149651.01,6.836,30.273000000000003,34.18,-2.93,0.0,0
1582149651.014,5.371,27.344,41.504,6.348,0.0,0
1582149651.018,7.324,24.414,38.086,13.184,0.0,0
1582149651.022,8.789,22.461,35.156,22.949,0.0,0
1582149651.026,16.602,31.25,39.551,20.996,0.0,0
1582149651.03,20.02,37.598,37.109,21.973000000000006,0.0,0
1582149651.033,13.672,32.227,32.227,25.391,0.0,0
1582149651.0370002,12.207,28.809,32.715,15.137,0.0,0
1582149651.041,16.602,30.762,33.691,14.648,0.0,0
1582149651.045,18.066,26.855,30.273000000000003,24.902,0.0,0
1582149651.049,22.949,28.32,26.855,13.184,0.0,0
1582149651.051,27.832,29.785,29.297,1.953,0.0,0
1582149651.055,16.113,26.855,30.762,14.648,0.0,0
1582149651.059,11.23,25.391,31.25,6.348,0.0,0
1582149651.063,20.02,20.996,34.18,0.488,0.0,0
1582149651.0670002,29.785,21.484,34.668,10.742,0.0,0
1582149651.071,27.832,24.902,36.133,22.949,0.0,0
1582149651.075,32.227,27.344,40.039,19.531,0.0,0
1582149651.0779998,35.645,27.832,35.156,18.555,0.0,0
1582149651.082,32.715,24.902,32.227,18.066,0.0,0
1582149651.086,31.738000000000003,30.273000000000003,37.109,13.672,0.0,0
1582149651.09,23.438,32.715,37.598,18.066,0.0,0
1582149651.094,12.207,23.438,39.551,17.578,0.0,0
1582149651.096,7.324,19.531,39.551,12.207,0.0,0
1582149651.1,9.277,21.973000000000006,41.504,15.625,0.0,0
1582149651.104,11.23,20.508000000000006,40.039,7.324,0.0,0
1582149651.1079998,18.066,20.996,33.203,2.441,0.0,0
1582149651.1120002,15.137,21.484,31.738000000000003,17.09,0.0,0
1582149651.1160002,13.672,23.438,36.133,10.742,0.0,0
1582149651.12,16.113,23.926,38.086,8.301,0.0,0
1582149651.123,21.973000000000006,21.484,41.01600000000001,12.207,0.0,0
1582149651.127,25.391,20.996,42.48,8.789,0.0,0
1582149651.131,30.762,21.973000000000006,41.504,16.602,0.0,0
1582149651.135,19.531,19.531,36.133,5.859,0.0,0
1582149651.139,9.766,13.672,31.25,-1.953,0.0,0
1582149651.141,27.832,9.277,30.273000000000003,8.301,0.0,0
1582149651.145,22.461,14.16,33.203,8.789,0.0,0
1582149651.149,19.043,14.16,35.156,14.16,0.0,0
1582149651.153,16.602,9.277,35.156,6.836,0.0,0
1582149651.157,14.648,15.625,38.086,5.859,0.0,0
1582149651.161,10.742,18.555,40.039,19.043,0.0,0
1582149651.165,4.395,10.742,37.598,10.254,0.0,0
1582149651.168,13.184,6.836,35.156,2.441,0.0,0
1582149651.1720002,10.742,13.672,34.668,6.836,0.0,0
1582149651.176,15.137,16.602,34.668,12.695,0.0,0
1582149651.18,21.973000000000006,12.695,40.039,19.531,0.0,0
1582149651.184,22.461,12.695,40.527,19.531,0.0,0
1582149651.186,21.484,21.973000000000006,37.109,7.324,0.0,0
1582149651.19,20.508000000000006,26.367,35.645,5.371,0.0,0
1582149651.194,26.367,22.949,32.715,10.254,0.0,0
1582149651.198,20.508000000000006,17.578,27.832,7.812,0.0,0
1582149651.202,22.949,12.695,31.738000000000003,0.488,0.0,0
1582149651.206,25.879,13.184,36.133,-2.93,0.0,0
1582149651.21,10.742,12.207,35.645,-3.906,0.0,0
1582149651.2129998,8.789,9.766,38.086,0.488,0.0,0
1582149651.217,13.672,13.672,41.504,9.277,0.0,0
1582149651.221,25.391,18.066,47.852,24.414,0.0,0
1582149651.225,27.344,18.555,45.41,19.043,0.0,0
1582149651.229,22.949,14.16,40.527,10.254,0.0,0
1582149651.231,21.484,8.789,37.109,16.602,0.0,0
1582149651.235,18.555,7.812,37.598,16.602,0.0,0
1582149651.2389998,20.508000000000006,7.324,41.01600000000001,17.578,0.0,0
1582149651.2429998,25.391,9.766,39.551,16.113,0.0,0
1582149651.2470002,13.672,8.301,44.922,20.508000000000006,0.0,0
1582149651.2510002,12.695,3.906,46.387,11.719,0.0,0
1582149651.255,23.438,6.348,43.457,5.859,0.0,0
1582149651.258,16.602,15.137,45.898,8.301,0.0,0
1582149651.262,13.184,16.602,38.574,10.254,0.0,0
1582149651.266,11.719,6.836,37.598,10.254,0.0,0
1582149651.27,22.461,6.836,42.48,8.789,0.0,0
1582149651.274,25.391,20.02,41.01600000000001,14.16,0.0,0
1582149651.276,10.742,24.902,41.992,9.277,0.0,0
1582149651.28,10.742,18.555,46.387,3.906,0.0,0
1582149651.284,10.742,15.137,43.457,9.766,0.0,0
1582149651.288,8.301,18.066,37.109,6.836,0.0,0
1582149651.292,15.625,18.066,35.156,9.766,0.0,0
1582149651.296,2.441,11.719,33.203,8.789,0.0,0
1582149651.3,-5.859,15.137,35.156,4.883,0.0,0
1582149651.303,7.324,18.066,41.992,10.742,0.0,0
1582149651.3070002,16.113,18.066,44.434,7.812,0.0,0
1582149651.311,18.555,13.672,41.992,4.883,0.0,0
1582149651.315,7.812,9.766,39.551,3.906,0.0,0
1582149651.319,4.883,13.184,34.18,3.418,0.0,0
1582149651.321,7.812,8.789,33.203,3.418,0.0,0
1582149651.325,-1.465,3.906,36.133,1.465,0.0,0
1582149651.329,3.906,8.789,39.062,5.371,0.0,0
1582149651.333,5.371,8.301,38.574,8.789,0.0,0
1582149651.337,6.348,4.883,41.504,20.02,0.0,0
1582149651.341,24.414,4.395,49.805,20.508000000000006,0.0,0
1582149651.345,25.391,8.789,44.434,12.207,0.0,0
1582149651.3479998,16.602,9.277,32.227,4.883,0.0,0
1582149651.3520002,27.344,7.324,34.668,6.836,0.0,0
1582149651.356,16.602,13.672,40.039,14.648,0.0,0
1582149651.36,18.066,18.066,39.062,4.395,0.0,0
1582149651.3639998,25.391,14.16,38.086,-1.465,0.0,0
1582149651.381,3.906,6.348,39.551,-1.465,0.0,0
1582149651.385,10.254,7.812,39.551,8.301,0.0,0
1582149651.389,11.23,11.23,41.504,14.648,0.0,0
1582149651.393,10.254,13.672,43.945,10.254,0.0,0
1582149651.397,37.109,17.09,37.109,13.672,0.0,0
1582149651.401,29.785,13.672,32.715,10.742,0.0,0
1582149651.405,15.625,15.625,36.133,10.254,0.0,0
1582149651.408,27.832,20.996,41.504,8.301,0.0,0
1582149651.4120002,26.855,18.066,41.992,13.184,0.0,0
1582149651.416,15.625,10.742,40.527,22.949,0.0,0
1582149651.42,23.438,8.789,42.969,0.0,0.0,0
1582149651.424,25.391,5.859,40.527,-5.859,0.0,0
1582149651.426,3.906,4.395,35.645,13.672,0.0,0
1582149651.43,-0.977,10.254,34.18,11.23,0.0,0
1582149651.434,2.93,11.23,35.645,6.348,0.0,0
1582149651.438,1.465,9.766,31.738000000000003,0.977,0.0,0
1582149651.4420002,11.23,9.766,36.621,5.859,0.0,0
1582149651.446,17.578,9.277,44.434,14.16,0.0,0
1582149651.45,19.531,3.906,37.598,16.602,0.0,0
1582149651.4529998,19.531,-2.93,35.156,18.066,0.0,0
1582149651.457,20.02,-4.883,40.039,12.207,0.0,0
1582149651.461,22.949,-8.301,39.062,9.277,0.0,0
1582149651.465,18.066,-6.836,38.086,20.02,0.0,0
1582149651.469,28.809,7.324,41.01600000000001,16.113,0.0,0
1582149651.471,11.23,17.09,38.086,3.906,0.0,0
1582149651.475,-7.812,21.484,37.598,19.531,0.0,0
1582149651.479,6.836,25.879,36.621,18.066,0.0,0
1582149651.4829998,6.836,20.996,35.645,12.695,0.0,0
1582149651.4870002,4.395,16.113,32.227,8.789,0.0,0
1582149651.4910002,11.23,17.578,34.18,9.277,0.0,0
1582149651.495,14.648,23.438,39.551,15.625,0.0,0
1582149651.498,10.742,27.832,32.715,3.906,0.0,0
1582149651.502,20.996,20.996,33.203,5.859,0.0,0
1582149651.506,20.508000000000006,22.461,33.203,8.789,0.0,0
1582149651.51,6.836,25.879,32.227,2.93,0.0,0
1582149651.514,16.113,24.902,33.691,10.742,0.0,0
1582149651.516,16.113,26.855,27.832,16.602,0.0,0
1582149651.52,9.277,25.391,26.367,0.977,0.0,0
1582149651.524,13.184,27.832,34.18,-4.395,0.0,0
1582149651.528,21.484,28.809,29.297,5.859,0.0,0
1582149651.532,29.297,27.344,27.832,4.395,0.0,0
1582149651.536,15.625,24.414,33.203,9.766,0.0,0
1582149651.54,16.113,21.973000000000006,32.715,17.578,0.0,0
1582149651.543,26.367,20.508000000000006,33.203,15.137,0.0,0
1582149651.5470002,32.715,17.578,33.203,14.16,0.0,0
1582149651.551,24.902,21.484,32.227,14.16,0.0,0
1582149651.555,29.297,22.949,34.668,15.625,0.0,0
1582149651.559,36.133,21.973000000000006,35.645,9.766,0.0,0
1582149651.561,20.02,18.555,31.25,9.277,0.0,0
1582149651.565,18.066,10.742,32.227,6.348,0.0,0
1582149651.569,20.02,6.836,36.133,-3.418,0.0,0
1582149651.573,17.578,13.672,32.227,-6.348,0.0,0
1582149651.577,19.531,16.602,30.273000000000003,-0.488,0.0,0
1582149651.581,15.625,10.742,41.504,3.418,0.0,0
1582149651.585,10.742,8.789,41.992,4.883,0.0,0
1582149651.5879998,17.09,7.812,31.25,7.324,0.0,0
1582149651.592,19.043,6.348,35.156,13.672,0.0,0
1582149651.596,9.766,0.488,39.551,12.207,0.0,0
1582149651.6,12.207,-1.953,31.738000000000003,11.719,0.0,0
1582149651.604,32.715,0.977,31.25,19.531,0.0,0
1582149651.606,23.926,0.0,43.945,20.02,0.0,0
1582149651.61,10.742,-1.953,45.898,26.855,0.0,0
1582149651.6139998,14.648,-0.488,41.01600000000001,25.391,0.0,0
1582149651.6179998,13.184,-1.953,39.062,10.254,0.0,0
1582149651.6220002,16.602,-4.883,34.18,10.254,0.0,0
1582149651.6260002,11.719,-5.859,32.227,9.277,0.0,0
1582149651.63,8.301,-8.789,34.668,1.465,0.0,0
1582149651.633,9.766,-11.23,34.18,-2.93,0.0,0
1582149651.637,18.555,-5.371,35.156,5.859,0.0,0
1582149651.641,20.02,3.906,38.574,11.23,0.0,0
1582149651.645,18.555,6.348,40.039,16.113,0.0,0
1582149651.649,21.973000000000006,5.859,35.645,14.648,0.0,0
1582149651.651,12.207,1.465,32.227,9.766,0.0,0
1582149651.655,13.672,-1.465,36.133,15.137,0.0,0
1582149651.659,9.277,-2.93,36.621,15.137,0.0,0
1582149651.663,5.371,-3.418,39.551,11.719,0.0,0
1582149651.667,0.488,-1.953,41.01600000000001,9.277,0.0,0
1582149651.671,25.391,-3.906,39.062,17.578,0.0,0
1582149651.675,42.48,-3.418,42.48,17.578,0.0,0
1582149651.678,8.789,5.371,42.969,11.23,0.0,0
1582149651.6820002,13.672,8.789,38.574,21.484,0.0,0
1582149651.686,19.531,3.906,36.133,20.996,0.0,0
1582149651.69,9.277,0.977,39.551,6.348,0.0,0
1582149651.694,24.414,2.93,46.875,9.766,0.0,0
1582149651.695,20.996,8.301,50.78100000000001,19.531,0.0,0
1582149651.699,12.207,13.672,49.316,20.02,0.0,0
1582149651.7029998,24.414,13.184,49.316,4.883,0.0,0
1582149651.707,24.902,8.789,43.945,2.441,0.0,0
1582149651.711,11.719,5.859,42.48,8.301,0.0,0
1582149651.715,19.531,1.953,46.387,10.254,0.0,0
1582149651.719,20.508000000000006,0.488,44.434,8.301,0.0,0
1582149651.722,3.418,0.977,47.363,5.859,0.0,0
1582149651.726,-1.953,2.441,45.898,4.883,0.0,0
1582149651.73,8.301,4.395,44.434,-0.977,0.0,0
1582149651.734,17.09,4.883,47.852,13.184,0.0,0
1582149651.738,14.648,6.836,38.574,14.16,0.0,0
1582149651.755,19.043,7.324,33.691,5.371,0.0,0
1582149651.7589998,16.602,7.812,37.598,13.184,0.0,0
1582149651.7629998,10.254,10.742,44.922,10.254,0.0,0
1582149651.7670002,15.137,16.113,48.828,9.766,0.0,0
1582149651.771,20.02,19.043,43.457,11.719,0.0,0
1582149651.775,15.625,14.648,43.945,10.742,0.0,0
1582149651.779,10.742,16.113,43.945,15.625,0.0,0
1582149651.782,24.414,17.578,37.109,16.113,0.0,0
1582149651.786,26.855,15.625,38.086,16.113,0.0,0
1582149651.79,8.789,9.766,43.457,16.113,0.0,0
1582149651.794,11.23,6.836,44.922,5.371,0.0,0
1582149651.798,26.855,11.23,49.316,17.578,0.0,0
1582149651.8,16.113,11.23,44.922,18.066,0.0,0
1582149651.804,6.836,13.672,42.969,-3.418,0.0,0
1582149651.8079998,14.16,15.625,46.387,0.488,0.0,0
1582149651.812,13.672,12.695,42.969,8.301,0.0,0
1582149651.816,12.695,14.16,44.434,15.625,0.0,0
1582149651.82,15.137,13.184,43.945,23.438,0.0,0
1582149651.824,14.648,14.648,42.48,21.973000000000006,0.0,0
1582149651.827,27.832,17.09,40.039,22.461,0.0,0
1582149651.831,35.156,15.137,40.527,23.438,0.0,0
1582149651.835,17.578,12.207,39.551,13.184,0.0,0
1582149651.839,5.371,15.625,38.086,6.836,0.0,0
1582149651.843,14.16,18.555,40.039,7.812,0.0,0
1582149651.845,20.508000000000006,18.066,35.645,6.348,0.0,0
1582149651.849,20.02,15.625,31.25,11.23,0.0,1
1582149651.853,17.578,13.184,28.32,11.719,0.0,0
1582149651.857,18.066,13.184,27.832,10.254,0.0,0
1582149651.861,16.113,17.578,28.32,9.277,0.0,0
1582149651.865,16.602,17.09,37.109,8.301,0.0,0
1582149651.869,14.648,15.625,39.062,4.883,0.0,0
1582149651.8720002,15.137,19.043,31.738000000000003,2.93,0.0,0
1582149651.8760002,17.09,16.113,29.297,8.301,0.0,0
1582149651.88,14.648,13.184,33.691,2.441,0.0,0
1582149651.8839998,28.32,13.184,37.109,0.488,0.0,0
1582149651.8879998,31.738000000000003,12.207,36.133,6.836,0.0,0
1582149651.89,18.555,13.184,35.156,7.812,0.0,0
1582149651.894,31.25,15.137,34.18,5.859,0.0,0
1582149651.8979998,16.113,16.602,39.062,8.301,0.0,0
1582149651.9020002,3.906,16.113,40.039,6.836,0.0,0
1582149651.906,10.742,17.578,37.109,20.996,0.0,0
1582149651.91,14.648,18.066,36.133,20.996,0.0,0
1582149651.914,10.742,14.16,36.621,15.625,0.0,0
1582149651.917,-0.977,13.672,35.645,24.414,0.0,0
1582149651.921,1.465,16.113,39.062,17.578,0.0,0
1582149651.925,1.465,16.113,36.621,17.578,0.0,0
1582149651.929,0.488,17.09,28.32,10.254,0.0,0
1582149651.9329998,11.719,15.625,26.855,-5.859,0.0,0
1582149651.935,20.996,17.578,20.508000000000006,2.441,0.0,0
1582149651.939,4.883,19.043,20.996,3.906,0.0,0
1582149651.9429998,4.883,17.578,24.414,6.836,0.0,0
1582149651.947,8.789,16.113,25.391,8.789,0.0,0
1582149651.951,15.625,16.602,31.738000000000003,1.465,0.0,0
1582149651.955,29.297,18.555,33.203,-0.977,0.0,0
1582149651.959,14.16,20.02,30.762,7.812,0.0,0
1582149651.962,4.395,11.719,21.973000000000006,8.301,0.0,0
1582149651.966,3.418,9.277,18.555,0.977,0.0,0
1582149651.97,10.254,12.695,21.973000000000006,6.348,0.0,0
1582149651.974,19.043,8.301,21.973000000000006,14.648,0.0,0
1582149651.978,17.578,6.348,23.438,15.137,0.0,0
1582149651.98,15.625,10.742,24.902,8.301,0.0,0
1582149651.984,26.855,10.254,25.391,11.23,0.0,0
1582149651.988,23.926,8.301,25.879,16.113,0.0,0
1582149651.992,10.254,3.418,21.484,9.766,0.0,0
1582149651.996,15.625,-5.859,21.973000000000006,3.418,0.0,0
1582149652.0,12.207,-8.301,26.855,10.254,0.0,0
1582149652.004,14.16,-4.883,26.855,12.695,0.0,0
1582149652.0070002,27.832,-11.719,21.973000000000006,13.184,0.0,0
1582149652.0110002,15.137,-22.949,22.461,16.113,0.0,0
1582149652.015,7.812,-25.391,28.32,17.578,0.0,0
1582149652.019,18.555,-25.391,34.668,28.809,0.0,0
1582149652.0229998,15.625,-29.785,31.738000000000003,13.184,0.0,0
1582149652.026,14.648,-32.227,24.902,0.488,0.0,0
1582149652.03,13.672,-34.18,26.855,12.207,0.0,0
1582149652.034,12.207,-30.762,28.32,8.301,0.0,0
1582149652.038,15.625,-29.297,23.926,1.953,0.0,0
1582149652.042,20.02,-32.715,22.461,9.277,0.0,0
1582149652.046,17.09,-33.691,20.996,9.277,0.0,0
1582149652.05,30.273000000000003,-33.691,20.996,3.418,0.0,0
1582149652.053,37.109,-26.855,27.344,7.812,0.0,0
1582149652.0570002,20.02,-25.391,31.738000000000003,12.207,0.0,0
1582149652.061,27.344,-31.738000000000003,28.809,3.418,0.0,0
1582149652.065,30.273000000000003,-27.832,27.832,-4.883,0.0,0
1582149652.069,20.996,-19.043,20.996,0.977,0.0,0
1582149652.071,21.973000000000006,-20.508000000000006,20.508000000000006,3.418,0.0,0
1582149652.075,24.902,-20.02,24.414,9.766,0.0,0
1582149652.079,29.297,-20.508000000000006,20.02,11.23,0.0,0
1582149652.083,41.992,-22.461,23.926,2.441,0.0,0
1582149652.087,30.762,-21.484,30.762,12.695,0.0,0
1582149652.091,5.371,-22.949,33.203,8.789,0.0,0
1582149652.095,5.859,-24.414,32.715,12.695,0.0,0
1582149652.0979998,14.648,-16.602,25.391,13.672,0.0,0
1582149652.1020002,20.02,-15.137,20.508000000000006,4.883,0.0,0
1582149652.106,19.531,-15.137,23.926,17.09,0.0,0
1582149652.11,15.625,-6.836,26.367,20.02,0.0,0
1582149652.1139998,24.414,-7.812,31.25,23.926,0.0,0
1582149652.131,23.926,-7.324,31.738000000000003,31.25,0.0,0
1582149652.135,29.785,-1.465,31.25,26.367,0.0,0
1582149652.139,39.551,2.93,33.203,18.555,0.0,0
1582149652.143,31.738000000000003,4.395,31.738000000000003,25.879,0.0,0
1582149652.147,25.391,1.953,24.414,28.809,0.0,0
1582149652.151,33.203,-0.488,20.02,24.902,0.0,0
1582149652.155,38.574,-0.488,28.809,25.391,0.0,0
1582149652.158,17.09,-4.883,33.203,21.973000000000006,0.0,0
1582149652.1620002,10.254,-10.742,27.832,22.461,0.0,0
1582149652.166,16.602,-10.254,23.438,20.02,0.0,0
1582149652.17,18.066,-7.324,25.391,12.207,0.0,0
1582149652.174,24.902,-6.836,32.715,13.184,0.0,0
1582149652.176,20.996,-2.441,36.133,18.555,0.0,0
1582149652.18,12.695,2.93,36.621,23.926,0.0,0
1582149652.184,18.066,0.0,37.109,18.066,0.0,0
1582149652.188,18.066,-4.883,36.133,11.23,0.0,0
1582149652.1920002,19.043,-9.766,34.668,15.137,0.0,0
1582149652.196,20.02,-8.301,28.809,21.484,0.0,0
1582149652.2,14.648,-2.93,24.902,22.949,0.0,0
1582149652.2029998,10.742,-6.836,27.344,14.648,0.0,0
1582149652.207,6.348,-9.277,29.785,9.766,0.0,0
1582149652.211,11.719,-1.953,32.715,8.301,0.0,0
1582149652.215,15.625,-2.441,39.551,15.137,0.0,0
1582149652.219,17.09,-4.395,39.062,20.996,0.0,0
1582149652.221,16.602,1.953,32.227,19.531,0.0,0
1582149652.225,9.277,-2.441,34.668,11.23,0.0,0
1582149652.229,13.184,-6.836,35.156,7.324,0.0,0
1582149652.2329998,26.367,-4.395,32.715,24.414,0.0,0
1582149652.2370002,17.578,-4.883,32.227,17.09,0.0,0
1582149652.2410002,8.301,-4.883,37.598,2.441,0.0,0
1582149652.245,18.066,-3.906,41.504,7.324,0.0,0
1582149652.248,19.043,0.977,43.945,12.695,0.0,0
1582149652.252,20.508000000000006,0.977,48.828,7.812,0.0,0
1582149652.256,31.738000000000003,1.465,47.363,7.324,0.0,0
1582149652.26,22.949,4.883,40.527,15.625,0.0,0
1582149652.264,12.695,2.93,36.621,19.531,0.0,0
1582149652.266,14.16,1.465,43.457,16.602,0.0,0
1582149652.27,14.648,5.859,53.223,16.602,0.0,0
1582149652.274,22.461,5.371,53.223,9.277,0.0,0
1582149652.278,21.973000000000006,0.977,46.875,10.742,0.0,0
1582149652.282,11.719,-2.441,47.852,13.672,0.0,0
1582149652.286,10.254,-4.395,50.293,11.719,0.0,0
1582149652.29,6.836,-2.441,49.316,27.832,0.0,0
1582149652.293,7.812,2.441,50.78100000000001,23.926,0.0,0
1582149652.2970002,18.555,2.441,46.387,1.465,0.0,0
1582149652.301,14.16,6.836,38.086,1.465,0.0,0
1582149652.305,22.461,11.23,41.504,15.137,0.0,0
1582149652.309,28.32,12.695,44.922,18.066,0.0,0
1582149652.311,29.785,7.812,44.434,12.695,0.0,0
1582149652.315,24.414,2.441,48.828,30.273000000000003,0.0,0
1582149652.319,11.719,-0.488,51.758,27.344,0.0,0
1582149652.323,19.043,1.465,50.78100000000001,3.906,0.0,0
1582149652.327,33.203,9.766,49.805,22.461,0.0,0
1582149652.331,35.645,7.324,47.852,25.879,0.0,0
1582149652.335,24.414,2.441,50.78100000000001,8.301,0.0,0
1582149652.3379998,13.672,-0.488,49.805,12.695,0.0,0
1582149652.342,13.672,1.465,50.78100000000001,11.719,0.0,0
1582149652.346,18.555,1.953,66.406,21.973000000000006,0.0,0
1582149652.35,26.855,-2.93,69.824,22.461,0.0,0
1582149652.354,26.367,-4.395,65.43,21.484,0.0,0
1582149652.356,14.16,4.395,61.035,18.555,0.0,0
1582149652.36,7.324,8.301,59.082,2.441,0.0,0
1582149652.3639998,-2.441,0.0,59.082,0.0,0.0,0
1582149652.3679998,-1.465,-3.418,54.199,1.953,0.0,0
1582149652.3720002,11.23,0.488,51.758,4.883,0.0,0
1582149652.3760002,16.602,2.441,54.199,19.043,0.0,0
1582149652.38,12.695,3.418,57.617,16.602,0.0,0
1582149652.383,10.742,7.324,58.105,13.184,0.0,0
1582149652.387,25.879,11.719,54.688,16.602,0.0,0
1582149652.391,17.09,11.719,49.316,16.113,0.0,0
1582149652.395,-4.883,12.207,47.852,18.066,0.0,0
1582149652.399,6.836,14.648,51.27,14.648,0.0,0
1582149652.401,11.719,15.625,50.78100000000001,18.555,0.0,0
1582149652.405,16.602,18.555,53.223,21.973000000000006,0.0,0
1582149652.409,25.879,18.066,55.664,17.578,0.0,0
1582149652.413,19.043,19.043,51.27,10.254,0.0,0
1582149652.417,15.137,22.461,47.852,16.602,0.0,0
1582149652.421,27.832,21.484,46.875,19.531,0.0,0
1582149652.425,33.691,18.555,48.34,4.883,0.0,0
1582149652.428,19.043,20.996,45.898,1.465,0.0,0
1582149652.4320002,16.602,25.391,43.457,7.324,0.0,0
1582149652.436,31.25,24.902,46.875,18.066,0.0,0
1582149652.44,27.832,29.297,48.34,21.973000000000006,0.0,0
1582149652.444,17.578,30.273000000000003,47.363,18.555,0.0,0
1582149652.446,23.926,25.879,49.316,8.789,0.0,0
1582149652.45,23.926,20.508000000000006,55.176,10.254,0.0,0
1582149652.454,20.508000000000006,20.508000000000006,52.734,17.578,0.0,0
1582149652.458,13.672,24.902,47.852,14.648,0.0,0
1582149652.462,7.812,24.414,48.828,10.742,0.0,0
1582149652.466,15.137,21.973000000000006,48.828,14.16,0.0,0
1582149652.47,10.254,27.832,47.363,17.09,0.0,0
1582149652.4729998,7.324,28.809,48.828,10.742,0.0,0
1582149652.4770002,9.277,23.438,51.27,0.977,0.0,0
1582149652.481,2.93,22.461,47.363,-0.488,0.0,0
1582149652.485,-0.488,25.391,43.945,12.695,0.0,0
1582149652.4889998,8.789,29.297,45.41,15.137,0.0,0
1582149652.506,12.695,31.25,41.992,10.254,0.0,0
1582149652.51,10.254,34.668,38.574,8.301,0.0,0
1582149652.514,20.508000000000006,37.598,37.598,3.906,0.0,0
1582149652.518,24.414,37.598,39.062,3.906,0.0,0
1582149652.522,21.973000000000006,36.621,41.01600000000001,3.418,0.0,0
1582149652.526,23.438,30.762,41.504,4.883,0.0,0
1582149652.53,11.719,26.367,44.922,0.0,0.0,0
1582149652.533,4.883,26.367,49.805,4.883,0.0,0
1582149652.5370002,10.742,26.855,45.898,14.648,0.0,0
1582149652.541,12.695,29.297,41.504,0.977,0.0,0
1582149652.545,16.113,35.645,41.992,0.0,0.0,0
1582149652.549,23.438,39.062,40.527,13.672,0.0,0
1582149652.551,22.461,32.715,41.504,8.789,0.0,0
1582149652.555,24.414,36.133,42.969,0.0,0.0,0
1582149652.559,21.484,35.645,45.41,2.441,0.0,0
1582149652.563,20.996,27.832,48.34,0.488,0.0,0
1582149652.5670002,28.809,27.832,44.922,0.0,0.0,0
1582149652.571,12.207,28.32,44.434,2.441,0.0,0
1582149652.575,-5.371,29.297,45.41,-2.441,0.0,0
1582149652.5779998,14.16,32.227,41.504,6.348,0.0,0
1582149652.582,21.973000000000006,31.738000000000003,44.434,15.625,0.0,0
1582149652.586,16.602,32.715,47.363,4.395,0.0,0
1582149652.59,8.789,36.621,46.875,3.418,0.0,0
1582149652.594,5.371,39.551,46.875,6.348,0.0,0
1582149652.596,20.02,39.062,40.527,7.324,0.0,0
1582149652.6,18.555,39.551,41.01600000000001,8.301,0.0,0
1582149652.604,10.254,39.062,46.387,3.906,0.0,0
1582149652.6079998,10.254,36.621,43.945,2.441,0.0,0
1582149652.6120002,8.789,33.203,48.828,14.16,0.0,0
1582149652.6160002,14.648,31.738000000000003,57.129,11.23,0.0,0
1582149652.62,24.414,34.668,51.758,-6.348,0.0,0
1582149652.623,17.578,37.109,46.875,-2.441,0.0,0
1582149652.627,9.766,40.039,46.387,5.371,0.0,0
1582149652.631,16.113,38.574,47.363,4.395,0.0,0
1582149652.635,7.324,40.039,51.27,4.395,0.0,0
1582149652.639,5.859,46.875,53.71100000000001,11.23,0.0,0
1582149652.641,9.277,59.57,51.27,10.742,0.0,0
1582149652.645,9.277,65.43,49.805,8.301,0.0,0
1582149652.649,8.301,57.129,49.316,3.906,0.0,0
1582149652.653,7.812,57.129,49.316,6.348,0.0,0
1582149652.657,12.207,62.012,51.758,18.066,0.0,0
1582149652.661,16.602,66.406,52.734,17.09,0.0,0
1582149652.665,20.02,63.965,48.34,9.766,0.0,0
1582149652.668,26.367,74.219,47.363,12.695,0.0,0
1582149652.6720002,13.184,126.953,54.688,14.16,0.0,0
1582149652.676,8.789,151.36700000000005,55.176,8.789,0.0,0
1582149652.68,20.996,138.184,46.875,10.254,0.0,0
1582149652.684,12.695,132.32399999999998,50.78100000000001,2.93,0.0,0
1582149652.686,5.371,130.859,55.664,0.0,0.0,0
1582149652.69,12.207,127.93,50.78100000000001,6.836,0.0,0
1582149652.694,8.301,124.023,47.852,2.441,0.0,0
1582149652.698,8.789,120.117,52.734,-6.348,0.0,0
1582149652.702,13.184,120.605,54.688,-7.324,0.0,0
1582149652.706,19.043,118.652,48.34,-4.395,0.0,0
1582149652.71,20.02,111.816,43.457,-2.441,0.0,0
1582149652.7129998,19.531,110.352,39.551,3.906,0.0,0
1582149652.717,12.207,107.91,40.527,5.859,0.0,0
1582149652.721,11.23,107.91,47.852,15.137,0.0,0
1582149652.725,14.16,108.398,48.34,23.438,0.0,0
1582149652.729,12.207,105.957,45.41,5.859,0.0,0
1582149652.73,20.508000000000006,104.492,43.457,0.0,0.0,0
1582149652.734,18.555,105.469,42.969,14.16,0.0,0
1582149652.738,9.766,103.027,42.48,17.578,0.0,0
1582149652.742,0.977,107.91,43.457,13.672,0.0,0
1582149652.746,-9.766,129.395,44.434,9.766,0.0,0
1582149652.75,-10.742,154.297,43.457,7.324,0.0,0
1582149652.754,1.465,171.875,42.969,17.09,0.0,0
1582149652.7570002,11.719,177.734,38.086,6.836,0.0,0
1582149652.7610002,8.301,182.617,35.156,-0.977,0.0,0
1582149652.765,9.766,184.57,39.062,7.812,0.0,0
1582149652.769,19.043,188.965,40.039,9.277,0.0,0
1582149652.7729998,19.043,195.801,40.527,8.301,0.0,0
1582149652.775,14.648,198.73,41.504,1.465,0.0,0
1582149652.779,16.113,200.195,33.203,6.836,0.0,0
1582149652.783,21.484,195.312,24.414,21.484,0.0,0
1582149652.7870002,23.926,188.477,32.715,27.344,0.0,0
1582149652.791,2.93,187.5,42.48,21.973000000000006,0.0,0
1582149652.795,-0.977,183.105,39.062,19.043,0.0,0
1582149652.799,19.531,180.664,34.18,25.879,0.0,0
1582149652.802,24.902,178.71099999999996,38.086,15.137,0.0,0
1582149652.806,17.578,175.78099999999995,36.621,8.789,0.0,0
1582149652.81,7.812,167.96900000000005,28.809,7.324,0.0,0
1582149652.814,14.648,159.668,24.414,5.859,0.0,0
1582149652.8179998,14.648,156.738,21.484,9.277,0.0,0
1582149652.82,10.742,150.879,25.391,1.953,0.0,0
1582149652.824,14.16,145.50799999999995,26.855,6.348,0.0,0
1582149652.8279998,19.043,145.50799999999995,22.949,20.508000000000006,0.0,0
1582149652.832,24.902,145.02,25.391,4.883,0.0,0
1582149652.836,23.926,136.23,25.879,-1.953,0.0,0
1582149652.84,20.996,126.465,19.043,8.789,0.0,0
1582149652.844,19.531,125.0,16.113,-4.883,0.0,0
1582149652.847,17.09,125.0,19.043,-6.836,0.0,0
1582149652.851,26.855,120.117,20.996,5.859,0.0,0
1582149652.855,37.598,114.258,19.043,13.184,0.0,0
1582149652.859,34.18,110.352,21.484,16.602,0.0,0
1582149652.863,6.348,114.258,24.902,17.578,0.0,0
1582149652.88,-4.395,116.211,24.414,17.578,0.0,0
1582149652.8839998,7.812,104.492,23.926,9.277,0.0,0
1582149652.8879998,4.395,95.215,20.508000000000006,4.883,0.0,0
1582149652.8920002,1.953,92.285,19.043,8.301,0.0,0
1582149652.896,6.348,89.844,21.484,4.883,0.0,0
1582149652.9,17.578,88.37899999999998,20.996,7.812,0.0,0
1582149652.904,11.719,89.844,23.438,13.672,0.0,0
1582149652.907,9.277,92.285,27.344,18.066,0.0,0
1582149652.911,19.531,88.867,28.809,20.996,0.0,0
1582149652.915,31.25,75.684,30.273000000000003,19.531,0.0,0
1582149652.919,30.273000000000003,62.5,27.832,13.184,0.0,2
1582149652.923,17.09,58.594,21.484,11.23,0.0,0
1582149652.925,13.672,55.176,17.09,18.555,0.0,0
1582149652.929,16.113,50.78100000000001,18.066,26.855,0.0,0
1582149652.9329998,20.996,54.199,20.996,35.156,0.0,0
1582149652.937,27.344,60.059,23.438,22.949,0.0,0
1582149652.941,35.156,59.082,26.855,12.695,0.0,0
1582149652.945,34.668,59.57,29.785,25.391,0.0,0
1582149652.949,32.715,59.082,29.297,29.297,0.0,0
1582149652.952,28.809,53.223,27.344,19.043,0.0,0
1582149652.956,14.648,46.875,28.32,19.531,0.0,0
1582149652.96,20.508000000000006,47.363,25.879,17.578,0.0,0
1582149652.964,40.039,51.758,26.367,20.996,0.0,0
1582149652.968,30.762,53.223,27.344,28.809,0.0,0
1582149652.97,13.184,55.176,25.879,28.32,0.0,0
1582149652.974,20.02,53.71100000000001,29.297,27.344,0.0,0
1582149652.978,32.227,55.176,29.785,19.043,0.0,0
1582149652.982,37.109,24.902,32.715,20.508000000000006,0.0,0
1582149652.986,27.344,-24.414,30.273000000000003,26.367,0.0,0
1582149652.99,25.879,-38.086,29.785,28.32,0.0,0
1582149652.994,32.715,-38.574,35.645,24.902,0.0,0
1582149652.9970002,39.551,-38.574,31.738000000000003,20.02,0.0,0
1582149653.0010002,31.738000000000003,-41.504,24.902,8.301,0.0,0
1582149653.005,12.695,-37.109,28.32,17.578,0.0,0
1582149653.0089998,16.113,-29.785,32.715,24.902,0.0,0
1582149653.0129998,33.691,-31.738000000000003,32.715,6.836,0.0,0
1582149653.015,24.902,-27.344,31.25,6.836,0.0,0
1582149653.019,11.23,-17.09,29.297,6.836,0.0,0
1582149653.0229998,15.137,-11.719,25.879,8.301,0.0,0
1582149653.0270002,17.578,-12.695,28.809,9.277,0.0,0
1582149653.031,16.602,-9.277,36.133,5.859,0.0,0
1582149653.035,6.348,-3.906,41.01600000000001,3.906,0.0,0
1582149653.039,7.812,2.93,48.828,2.441,0.0,0
1582149653.042,22.461,13.184,48.34,7.812,0.0,0
1582149653.046,24.902,11.23,46.875,10.742,0.0,0
1582149653.05,14.16,0.0,48.34,-3.906,0.0,0
1582149653.054,16.602,-7.812,46.875,3.418,0.0,0
1582149653.0579998,18.555,-11.23,44.922,9.277,0.0,0
1582149653.06,11.719,-5.859,43.457,4.883,0.0,0
1582149653.064,21.484,-2.441,44.922,6.348,0.0,0
1582149653.0679998,20.508000000000006,-4.883,45.898,0.977,0.0,0
1582149653.072,5.859,-8.789,43.457,8.301,0.0,0
1582149653.076,18.555,-6.348,42.969,7.324,0.0,0
1582149653.08,22.949,-3.418,40.039,6.348,0.0,0
1582149653.084,-8.301,-5.371,31.738000000000003,4.883,0.0,0
1582149653.087,-7.324,17.578,38.086,3.906,0.0,0
1582149653.091,11.23,47.363,42.48,10.742,0.0,0
1582149653.095,13.184,43.945,42.969,13.184,0.0,0
1582149653.099,20.02,5.371,41.504,27.344,0.0,0
1582149653.103,15.137,-32.227,35.156,23.438,0.0,0
1582149653.105,10.254,-44.922,36.133,13.672,0.0,0
1582149653.109,6.348,-49.805,36.133,16.602,0.0,0
1582149653.113,5.859,-57.129,34.668,5.859,0.0,0
1582149653.117,8.789,-61.035,41.504,15.625,0.0,0
1582149653.121,13.672,-57.129,44.922,19.531,0.0,0
1582149653.125,28.809,-55.664,42.48,16.113,0.0,0
1582149653.129,20.02,-57.617,43.457,14.16,0.0,0
1582149653.1320002,13.672,-55.176,38.086,4.883,0.0,0
1582149653.1360002,17.09,-46.387,32.227,7.324,0.0,0
1582149653.14,19.043,-37.598,34.668,16.602,0.0,0
1582149653.144,22.949,-34.18,34.18,24.414,0.0,0
1582149653.1479998,16.113,-37.109,37.109,17.578,0.0,0
1582149653.15,13.184,-40.039,42.48,6.348,0.0,0
1582149653.154,5.859,-40.039,40.527,5.859,0.0,0
1582149653.158,0.977,-39.551,38.574,11.23,0.0,0
1582149653.1620002,13.672,-33.203,43.945,10.742,0.0,0
1582149653.166,25.391,-19.531,50.293,7.812,0.0,0
1582149653.17,27.832,-7.324,49.316,16.602,0.0,0
1582149653.174,32.227,-20.508000000000006,47.852,15.625,0.0,0
1582149653.177,23.438,-39.551,47.363,5.371,0.0,0
1582149653.181,18.066,-38.574,51.27,15.625,0.0,0
1582149653.185,21.484,-38.086,55.176,19.531,0.0,0
1582149653.189,22.461,-40.039,53.71100000000001,15.137,0.0,0
1582149653.1929998,28.809,-32.227,56.152,14.16,0.0,0
1582149653.196,22.461,-26.855,57.617,10.254,0.0,0
1582149653.2,16.113,-29.297,57.129,16.113,0.0,0
1582149653.204,25.391,-23.926,56.64100000000001,26.367,0.0,0
1582149653.208,34.668,-15.625,58.105,16.113,0.0,0
1582149653.212,27.832,-9.277,61.035,5.371,0.0,0
1582149653.216,19.043,-3.418,55.664,18.555,0.0,0
1582149653.22,37.109,-5.859,50.293,23.926,0.0,0
1582149653.2229998,41.01600000000001,-5.859,46.875,9.277,0.0,0
1582149653.2270002,23.438,3.906,44.922,8.789,0.0,0
1582149653.231,31.25,12.207,47.852,11.23,0.0,0
1582149653.235,32.715,9.766,49.805,12.207,0.0,0
1582149653.2389998,21.484,3.418,50.78100000000001,8.789,0.0,0
1582149653.256,15.625,4.883,55.176,11.719,0.0,0
1582149653.26,16.113,8.789,56.152,6.836,0.0,0
1582149653.264,14.648,11.719,53.71100000000001,9.277,0.0,0
1582149653.268,13.672,11.719,55.176,11.719,0.0,0
1582149653.272,13.672,9.766,59.57,3.906,0.0,0
1582149653.276,13.672,21.484,61.523,12.207,0.0,0
1582149653.28,15.625,27.344,56.64100000000001,6.348,0.0,0
1582149653.283,19.531,17.578,57.617,6.348,0.0,0
1582149653.2870002,9.277,15.625,62.5,1.465,0.0,0
1582149653.291,8.301,17.09,64.941,-2.441,0.0,0
1582149653.295,18.066,15.137,67.383,6.836,0.0,0
1582149653.299,7.812,17.09,65.43,1.953,0.0,0
1582149653.301,-9.277,18.066,62.988,2.441,0.0,0
1582149653.305,4.395,20.508000000000006,66.406,11.719,0.0,0
1582149653.309,18.555,32.227,70.801,15.625,0.0,0
1582149653.313,20.996,37.598,68.359,26.855,0.0,0
1582149653.3170002,20.996,29.297,68.848,21.484,0.0,0
1582149653.321,13.184,26.367,69.336,19.531,0.0,0
1582149653.325,17.09,29.297,71.289,23.926,0.0,0
1582149653.3279998,24.902,34.18,74.219,12.207,0.0,0
1582149653.332,17.09,34.668,74.707,10.742,0.0,0
1582149653.336,9.766,37.598,75.195,11.23,0.0,0
1582149653.34,20.508000000000006,46.387,74.707,9.277,0.0,0
1582149653.344,14.648,45.898,67.87100000000001,5.859,0.0,0
1582149653.346,7.324,45.898,67.383,8.301,0.0,0
1582149653.35,9.277,46.875,72.266,12.207,0.0,0
1582149653.354,7.324,40.039,67.383,6.836,0.0,0
1582149653.3579998,17.578,35.645,69.336,10.742,0.0,0
1582149653.3620002,22.461,33.691,73.242,6.348,0.0,0
1582149653.3660002,16.113,30.762,69.824,1.465,0.0,0
1582149653.37,15.625,34.668,68.359,9.766,0.0,0
1582149653.373,17.09,41.01600000000001,67.87100000000001,15.137,0.0,0
1582149653.377,16.113,40.527,65.43,14.648,0.0,0
1582149653.381,10.254,39.062,65.43,11.719,0.0,0
1582149653.385,12.207,38.574,67.383,18.555,0.0,0
1582149653.389,24.902,35.645,66.406,9.766,0.0,0
1582149653.391,15.137,35.156,63.477,-2.441,0.0,0
1582149653.395,4.883,38.086,64.941,5.371,0.0,0
1582149653.399,8.301,41.504,66.406,7.324,0.0,0
1582149653.403,13.184,41.992,67.383,3.906,0.0,0
1582149653.407,16.113,40.527,62.988,11.719,0.0,0
1582149653.411,20.02,41.992,61.523,26.367,0.0,0
1582149653.415,19.043,41.01600000000001,67.383,18.066,0.0,0
1582149653.418,25.391,33.691,66.895,3.418,0.0,0
1582149653.4220002,27.344,32.227,66.406,3.418,0.0,0
1582149653.426,16.113,34.18,69.336,10.254,0.0,0
1582149653.43,19.043,33.203,61.523,3.418,0.0,0
1582149653.434,19.531,34.18,52.246,0.977,0.0,0
1582149653.436,9.277,32.715,56.152,9.277,0.0,0
1582149653.44,18.066,23.438,59.57,11.719,0.0,0
1582149653.444,21.973000000000006,19.043,58.105,10.254,0.0,0
1582149653.448,13.672,23.926,63.965,17.578,0.0,0
1582149653.452,10.742,25.879,66.406,14.648,0.0,0
1582149653.456,11.23,19.043,62.012,9.277,0.0,0
1582149653.46,16.113,20.02,62.5,12.207,0.0,0
1582149653.4629998,17.09,23.438,59.57,13.672,0.0,0
1582149653.467,17.09,24.414,54.199,13.672,0.0,0
1582149653.471,24.414,24.902,59.082,15.137,0.0,0
1582149653.475,34.18,20.508000000000006,58.594,4.883,0.0,0
1582149653.479,25.879,19.531,51.758,9.277,0.0,0
1582149653.481,2.93,22.461,56.152,20.508000000000006,0.0,0
1582149653.485,4.395,27.344,56.152,12.695,0.0,0
1582149653.4889998,16.113,21.484,51.27,8.301,0.0,0
1582149653.4929998,22.461,20.508000000000006,50.78100000000001,15.625,0.0,0
1582149653.4970002,18.066,24.902,51.27,18.555,0.0,0
1582149653.5010002,11.23,26.367,53.71100000000001,18.555,0.0,0
1582149653.505,20.02,30.762,53.71100000000001,17.578,0.0,0
1582149653.508,29.297,35.645,49.805,17.09,0.0,0
1582149653.512,21.973000000000006,35.156,50.78100000000001,22.461,0.0,0
1582149653.516,10.254,31.25,46.875,14.648,0.0,0
1582149653.52,25.879,30.273000000000003,43.945,12.695,0.0,0
1582149653.524,35.156,34.18,45.41,26.855,0.0,0
1582149653.526,16.602,25.879,41.992,21.973000000000006,0.0,0
1582149653.53,23.926,18.555,47.852,15.625,0.0,0
1582149653.534,38.086,24.902,53.223,23.926,0.0,0
1582149653.538,23.438,22.949,49.316,22.949,0.0,0
1582149653.542,10.742,20.996,48.34,24.902,0.0,0
1582149653.546,12.695,25.391,46.387,16.113,0.0,0
1582149653.55,18.066,17.578,40.527,1.953,0.0,0
1582149653.553,25.879,8.789,39.551,6.836,0.0,0
1582149653.5570002,20.02,8.789,42.48,20.508000000000006,0.0,0
1582149653.561,20.02,11.23,44.922,18.066,0.0,0
1582149653.565,23.926,14.16,48.34,6.836,0.0,0
1582149653.569,15.137,18.555,46.875,3.906,0.0,0
1582149653.571,14.648,20.02,43.945,10.742,0.0,0
1582149653.575,18.555,13.672,40.039,7.324,0.0,0
1582149653.579,15.137,10.254,42.48,2.441,0.0,0
1582149653.583,10.254,14.648,47.852,21.973000000000006,0.0,0
1582149653.587,22.461,20.996,43.945,24.414,0.0,0
1582149653.591,28.809,18.066,45.41,18.066,0.0,0
1582149653.595,11.719,15.137,46.387,16.113,0.0,0
1582149653.5979998,11.23,20.508000000000006,38.574,8.789,0.0,0
1582149653.6020002,30.273000000000003,26.855,38.574,2.441,0.0,0
1582149653.606,35.645,22.949,38.574,15.137,0.0,0
1582149653.61,24.902,15.625,38.574,13.672,0.0,0
1582149653.6139998,17.578,19.531,43.945,0.977,0.0,0
1582149653.631,22.461,22.461,46.387,0.977,0.0,0
1582149653.635,24.414,26.367,49.316,2.93,0.0,0
1582149653.639,28.809,35.156,47.852,7.324,0.0,0
1582149653.643,13.672,36.621,47.363,6.348,0.0,0
1582149653.647,-2.93,35.156,50.78100000000001,11.719,0.0,0
1582149653.651,6.836,30.762,47.852,4.395,0.0,0
1582149653.655,2.441,27.344,47.852,1.465,0.0,0
1582149653.658,4.883,34.668,47.363,11.719,0.0,0
1582149653.6620002,15.625,38.574,43.457,15.625,0.0,0
1582149653.666,14.16,38.086,46.387,11.719,0.0,0
1582149653.67,18.066,41.504,48.828,4.395,0.0,0
1582149653.674,23.926,43.457,49.316,12.207,0.0,0
1582149653.676,20.508000000000006,44.434,51.27,16.602,0.0,0
1582149653.68,27.344,44.922,50.293,11.23,0.0,0
1582149653.684,38.086,38.086,50.78100000000001,17.09,0.0,0
1582149653.688,35.645,32.227,50.293,8.789,0.0,0
1582149653.6920002,23.438,37.598,49.316,0.0,0.0,0
1582149653.696,25.391,42.48,53.71100000000001,-1.953,0.0,0
1582149653.7,31.25,39.551,61.523,-5.371,0.0,0
1582149653.7029998,20.996,37.598,62.5,-3.418,0.0,0
1582149653.707,11.23,40.039,59.57,-2.441,0.0,0
1582149653.711,10.254,46.387,56.152,5.371,0.0,0
1582149653.715,6.348,53.223,61.035,12.695,0.0,0
1582149653.719,3.906,54.199,69.336,8.301,0.0,0
1582149653.721,0.0,52.734,62.5,7.812,0.0,0
1582149653.725,5.371,51.758,57.617,12.207,0.0,0
1582149653.729,6.836,58.594,57.617,15.625,0.0,0
1582149653.7329998,2.93,66.895,53.223,11.719,0.0,0
1582149653.7370002,5.371,71.777,52.734,4.395,0.0,0
1582149653.7410002,5.371,73.73,50.78100000000001,1.465,0.0,0
1582149653.745,20.508000000000006,68.848,44.434,5.371,0.0,0
1582149653.748,19.043,65.918,41.992,4.395,0.0,0
1582149653.752,4.883,62.012,42.969,1.953,0.0,0
1582149653.756,14.648,55.664,41.992,4.883,0.0,0
1582149653.76,12.207,50.293,39.062,-1.465,0.0,0
1582149653.764,8.301,43.945,42.969,11.719,0.0,0
1582149653.766,14.16,42.969,39.551,20.996,0.0,0
1582149653.77,-2.93,40.039,33.203,-8.301,0.0,0
1582149653.774,-2.441,38.086,29.785,-17.09,0.0,0
1582149653.778,4.395,40.039,29.297,-3.418,0.0,0
1582149653.782,4.883,40.527,32.227,-8.789,0.0,0
1582149653.786,2.93,38.086,31.25,-10.742,0.0,0
1582149653.79,9.277,36.133,30.762,-2.441,0.0,0
1582149653.793,12.207,40.527,31.738000000000003,-5.859,0.0,0
1582149653.7970002,-3.418,43.457,30.762,-10.254,0.0,0
1582149653.801,-8.789,48.34,30.273000000000003,-1.465,0.0,0
1582149653.805,-4.883,55.176,34.18,-1.465,0.0,0
1582149653.809,7.324,59.082,32.227,5.859,0.0,0
1582149653.811,6.836,63.477,24.902,10.742,0.0,0
1582149653.815,-1.465,62.012,26.855,1.953,0.0,0
1582149653.819,14.648,60.059,29.297,1.953,0.0,0
1582149653.823,14.648,59.57,25.879,-5.859,0.0,0
1582149653.827,5.859,58.594,23.438,0.488,0.0,0
1582149653.831,13.672,57.129,27.344,15.137,0.0,0
1582149653.835,10.742,60.547,33.203,3.906,0.0,0
1582149653.8379998,8.301,63.477,33.203,-6.348,0.0,0
1582149653.842,13.184,58.594,28.32,1.465,0.0,0
1582149653.846,8.789,58.594,24.414,-5.371,0.0,0
1582149653.85,8.789,58.105,24.414,-5.859,0.0,0
1582149653.854,10.742,57.617,23.438,7.324,0.0,0
1582149653.856,12.207,59.082,22.461,0.488,0.0,0
1582149653.86,19.043,59.082,21.973000000000006,-2.93,0.0,0
1582149653.8639998,23.438,55.176,23.926,6.348,0.0,0
1582149653.8679998,20.996,56.64100000000001,25.391,7.324,0.0,0
1582149653.8720002,15.625,62.5,26.367,5.371,0.0,0
1582149653.8760002,23.438,54.688,27.832,9.277,0.0,0
1582149653.88,17.09,49.805,24.902,5.371,0.0,0
1582149653.883,3.418,51.758,22.461,0.488,0.0,0
1582149653.887,21.973000000000006,48.34,22.949,7.324,0.0,0
1582149653.891,20.996,49.805,24.414,3.418,0.0,0
1582149653.895,6.836,49.805,30.273000000000003,2.441,0.0,0
1582149653.899,9.766,50.293,37.598,11.719,0.0,0
1582149653.901,33.203,49.805,33.691,11.23,0.0,0
1582149653.905,26.367,49.316,27.832,10.254,0.0,0
1582149653.909,5.859,54.199,23.926,6.836,0.0,0
1582149653.913,13.184,53.223,20.02,5.371,0.0,0
1582149653.917,8.301,49.805,20.02,5.371,0.0,0
1582149653.921,6.348,50.293,21.973000000000006,13.184,0.0,0
1582149653.925,18.555,48.828,24.902,19.043,0.0,0
1582149653.928,27.832,49.316,27.344,13.672,0.0,0
1582149653.9320002,23.926,54.199,27.344,17.578,0.0,0
1582149653.936,19.531,56.64100000000001,23.926,26.367,0.0,0
1582149653.94,21.973000000000006,53.71100000000001,23.926,20.996,0.0,0
1582149653.944,29.297,54.199,20.996,12.695,0.0,0
1582149653.945,32.227,50.78100000000001,17.09,10.254,0.0,0
1582149653.949,28.32,46.875,15.625,10.254,0.0,0
1582149653.9529998,30.762,45.41,19.043,15.137,0.0,0
1582149653.957,25.879,44.434,29.297,23.926,0.0,0
1582149653.961,12.207,43.945,27.344,20.996,0.0,0
1582149653.965,20.996,47.852,21.973000000000006,20.508000000000006,0.0,0
1582149653.969,31.25,52.734,23.926,20.02,0.0,0
1582149653.972,20.02,52.734,24.414,15.137,0.0,0
1582149653.976,15.137,48.34,22.949,10.742,0.0,0
1582149653.98,18.555,46.387,24.902,17.09,0.0,0
1582149653.984,29.785,50.78100000000001,27.832,25.391,0.0,0
1582149653.988,29.785,50.78100000000001,30.273000000000003,24.414,0.0,0
1582149654.005,7.324,46.387,32.715,21.484,0.0,0
1582149654.0089998,12.207,47.852,30.762,20.508000000000006,0.0,0
1582149654.0129998,20.02,51.758,28.32,22.461,0.0,0
1582149654.0170002,16.113,52.734,30.762,13.184,0.0,0
1582149654.021,15.625,50.78100000000001,31.25,14.16,0.0,0
1582149654.025,14.648,49.805,28.809,21.973000000000006,0.0,0
1582149654.029,13.184,48.828,26.367,11.23,0.0,0
1582149654.032,11.719,50.293,30.273000000000003,4.883,0.0,0
1582149654.036,15.137,51.27,30.273000000000003,6.836,0.0,0
1582149654.04,13.672,54.199,27.344,4.883,0.0,0
1582149654.044,9.766,61.523,31.738000000000003,11.719,0.0,0
1582149654.048,10.742,64.941,33.203,11.719,0.0,0
1582149654.05,19.531,69.336,29.785,20.508000000000006,0.0,0
1582149654.054,26.367,76.172,28.809,22.461,0.0,0
1582149654.0579998,16.113,80.566,28.32,5.371,0.0,0
1582149654.062,7.324,78.125,28.32,15.137,0.0,0
1582149654.066,6.348,72.75399999999998,30.762,24.902,0.0,0
1582149654.07,12.207,71.777,30.273000000000003,10.742,0.0,0
1582149654.074,20.996,73.73,27.344,5.859,0.0,0
1582149654.077,34.668,74.707,32.227,14.648,0.0,0
1582149654.081,33.691,73.73,35.645,22.461,0.0,0
1582149654.085,18.555,76.172,34.668,17.578,0.0,0
1582149654.089,19.043,76.66,36.133,12.695,0.0,0
1582149654.093,21.484,69.824,32.227,16.113,0.0,0
1582149654.095,24.414,68.359,26.855,13.184,0.0,0
1582149654.099,28.32,63.965,22.949,8.301,0.0,0
1582149654.103,19.043,55.176,22.949,13.184,0.0,0
1582149654.107,17.09,52.734,29.785,17.09,0.0,0
1582149654.111,27.344,50.293,31.25,15.625,0.0,2
1582149654.115,31.25,49.316,33.203,19.531,0.0,0
1582149654.119,18.555,52.246,38.086,29.785,0.0,0
1582149654.1220002,22.461,54.199,41.504,21.484,0.0,0
1582149654.1260002,33.203,47.363,36.621,12.207,0.0,0
1582149654.13,33.691,42.48,26.855,17.09,0.0,0
1582149654.1339998,27.344,37.109,28.32,16.113,0.0,0
1582149654.1379998,13.672,37.109,29.297,19.043,0.0,0
1582149654.14,20.02,41.01600000000001,27.832,18.066,0.0,0
1582149654.144,28.809,40.039,34.18,22.949,0.0,0
1582149654.1479998,19.531,37.109,41.01600000000001,24.414,0.0,0
1582149654.1520002,20.508000000000006,38.574,41.01600000000001,12.695,0.0,0
1582149654.156,16.602,44.434,36.621,18.066,0.0,0
1582149654.16,22.461,45.898,36.621,15.137,0.0,0
1582149654.164,16.113,41.504,38.086,1.953,0.0,0
1582149654.167,3.418,35.645,36.133,0.977,0.0,0
1582149654.171,11.719,37.598,36.621,4.883,0.0,0
1582149654.175,17.578,44.434,38.574,14.648,0.0,0
1582149654.179,23.926,40.527,42.969,14.16,0.0,0
1582149654.1829998,13.672,40.039,43.945,17.09,0.0,0
1582149654.185,6.348,42.969,43.457,18.066,0.0,0
1582149654.189,19.043,41.504,45.41,11.719,0.0,0
1582149654.1929998,23.438,41.992,42.48,18.555,0.0,0
1582149654.197,17.09,46.387,42.48,19.043,0.0,0
1582149654.201,14.648,44.434,43.457,13.184,0.0,0
1582149654.205,20.508000000000006,45.898,45.898,19.531,0.0,0
1582149654.209,28.32,56.152,51.27,23.438,0.0,0
1582149654.212,13.672,51.758,43.457,20.508000000000006,0.0,0
1582149654.216,16.113,42.48,36.133,11.23,0.0,0
1582149654.22,23.438,41.992,40.039,2.441,0.0,0
1582149654.224,-2.441,41.992,41.01600000000001,2.93,0.0,0
1582149654.228,2.441,42.48,37.109,13.672,0.0,0
1582149654.23,22.949,45.898,36.621,20.02,0.0,0
1582149654.234,21.484,48.34,38.086,19.043,0.0,0
1582149654.238,10.742,48.828,41.992,16.113,0.0,0
1582149654.242,9.766,44.922,39.062,11.23,0.0,0
1582149654.246,16.113,44.922,32.715,12.207,0.0,0
1582149654.25,11.23,39.551,34.18,10.254,0.0,0
1582149654.254,19.531,31.25,38.086,19.043,0.0,0
1582149654.2570002,17.578,30.762,34.668,20.508000000000006,0.0,0
1582149654.2610002,5.859,32.227,37.598,8.789,0.0,0
1582149654.265,16.113,27.832,37.598,11.719,0.0,0
1582149654.269,16.602,17.578,38.086,13.184,0.0,0
1582149654.2729998,9.277,20.02,40.039,2.441,0.0,0
1582149654.275,17.09,31.738000000000003,38.086,9.766,0.0,0
1582149654.279,18.066,30.762,40.039,14.648,0.0,0
1582149654.283,9.766,20.508000000000006,41.992,12.695,0.0,0
1582149654.2870002,15.625,25.879,42.969,19.043,0.0,0
1582149654.291,12.207,38.574,41.504,11.23,0.0,0
1582149654.295,0.977,40.527,34.668,13.672,0.0,0
1582149654.299,8.301,44.434,34.668,24.902,0.0,0
1582149654.302,19.531,48.34,37.598,6.348,0.0,0
1582149654.306,22.461,46.387,38.574,-7.812,0.0,0
1582149654.31,21.484,47.852,38.086,6.836,0.0,0
1582149654.314,6.836,58.105,34.18,10.742,0.0,0
1582149654.3179998,9.766,65.918,35.156,4.395,0.0,0
1582149654.321,17.09,64.453,37.109,9.766,0.0,0
1582149654.325,5.371,61.523,33.691,6.836,0.0,0
1582149654.329,9.766,56.64100000000001,32.227,8.301,0.0,0
1582149654.333,23.926,56.152,36.621,17.09,0.0,0
1582149654.337,29.297,55.664,38.574,13.672,0.0,0
1582149654.341,30.273000000000003,49.805,39.062,6.348,0.0,0
1582149654.345,27.832,50.293,40.527,9.766,0.0,0
1582149654.3479998,29.297,50.78100000000001,42.48,9.766,0.0,0
1582149654.3520002,35.645,48.34,41.504,10.742,0.0,0
1582149654.356,31.738000000000003,40.527,40.039,15.625,0.0,0
1582149654.36,35.156,28.809,40.527,17.09,0.0,0
1582149654.3639998,38.086,18.066,39.551,17.09,0.0,0
1582149654.381,29.297,10.254,40.039,22.949,0.0,0
1582149654.385,26.855,5.371,39.551,19.043,0.0,0
1582149654.389,25.879,-3.906,40.039,12.695,0.0,0
1582149654.393,26.367,-13.184,43.945,20.996,0.0,0
1582149654.397,26.367,-16.113,46.875,26.367,0.0,0
1582149654.401,29.785,-19.043,49.316,15.625,0.0,0
1582149654.405,28.32,-14.16,50.78100000000001,10.742,0.0,0
1582149654.408,27.344,-5.859,52.246,12.695,0.0,0
1582149654.4120002,26.367,-4.883,53.71100000000001,18.555,0.0,0
1582149654.416,23.926,-10.742,53.223,19.043,0.0,0
1582149654.42,20.508000000000006,-11.23,47.363,14.16,0.0,0
1582149654.424,12.207,-8.301,45.898,11.23,0.0,0
1582149654.426,18.066,-2.93,46.875,12.207,0.0,0
1582149654.43,20.508000000000006,2.93,46.387,16.602,0.0,0
1582149654.434,17.578,7.812,50.293,10.742,0.0,0
1582149654.438,14.16,9.766,45.41,5.371,0.0,0
1582149654.4420002,16.602,6.348,46.387,7.324,0.0,0
1582149654.446,23.926,7.812,56.64100000000001,11.23,0.0,0
1582149654.45,22.461,11.719,55.176,20.02,0.0,0
1582149654.4529998,23.926,10.742,43.945,21.484,0.0,0
1582149654.457,22.949,6.836,42.969,4.395,0.0,0
1582149654.461,19.043,13.672,49.316,5.859,0.0,0
1582149654.465,24.902,25.879,47.363,15.137,0.0,0
1582149654.469,22.949,25.391,44.434,15.625,0.0,0
1582149654.471,21.973000000000006,22.461,47.363,15.625,0.0,0
1582149654.475,29.297,26.855,48.828,10.254,0.0,0
1582149654.479,26.367,22.949,43.945,8.789,0.0,0
1582149654.4829998,22.461,17.09,41.504,8.789,0.0,0
1582149654.4870002,20.996,23.926,39.062,13.672,0.0,0
1582149654.4910002,14.648,25.879,36.133,16.113,0.0,0
1582149654.495,20.02,22.461,40.039,8.301,0.0,0
1582149654.498,20.508000000000006,27.344,42.48,6.836,0.0,0
1582149654.502,12.695,24.902,41.01600000000001,9.277,0.0,0
1582149654.506,15.625,22.949,39.062,5.371,0.0,0
1582149654.51,15.137,23.438,39.062,7.812,0.0,0
1582149654.514,20.508000000000006,21.973000000000006,41.01600000000001,14.16,0.0,0
1582149654.516,20.996,27.832,36.133,20.02,0.0,0
1582149654.52,10.742,27.344,34.18,21.973000000000006,0.0,0
1582149654.524,10.254,26.367,34.668,17.09,0.0,0
1582149654.528,16.113,30.762,30.273000000000003,14.16,0.0,0
1582149654.532,23.438,32.715,35.645,20.996,0.0,0
1582149654.536,18.555,31.738000000000003,43.457,18.066,0.0,0
1582149654.54,18.555,27.344,40.527,16.113,0.0,0
1582149654.543,20.996,24.414,39.062,14.648,0.0,0
1582149654.5470002,8.301,27.832,44.922,13.184,0.0,0
1582149654.551,5.859,31.25,45.41,11.23,0.0,0
1582149654.555,20.02,33.691,36.621,7.812,0.0,0
1582149654.559,25.391,35.645,35.645,16.602,0.0,0
1582149654.561,9.766,30.762,37.109,17.578,0.0,0
1582149654.565,7.812,31.25,36.621,21.484,0.0,0
1582149654.569,15.625,35.645,41.992,25.391,0.0,0
1582149654.573,20.02,29.785,41.01600000000001,16.113,0.0,0
1582149654.577,20.508000000000006,24.902,38.086,19.043,0.0,0
1582149654.581,16.602,26.367,34.18,14.648,0.0,0
1582149654.585,23.438,30.762,30.762,9.766,0.0,0
1582149654.5879998,27.832,34.18,32.715,12.207,0.0,0
1582149654.592,34.18,33.691,35.645,17.09,0.0,0
1582149654.596,35.645,32.227,33.203,19.531,0.0,0
1582149654.6,39.551,32.715,30.762,11.23,0.0,0
1582149654.604,49.316,35.645,31.25,10.742,0.0,0
1582149654.606,47.852,43.457,30.762,14.16,0.0,0
1582149654.61,36.133,51.27,32.227,10.742,0.0,0
1582149654.6139998,23.438,48.828,33.691,11.719,0.0,0
1582149654.6179998,20.02,43.945,36.621,33.203,0.0,0
1582149654.6220002,20.996,45.898,35.156,30.762,0.0,0
1582149654.6260002,25.391,44.922,37.109,20.508000000000006,0.0,0
1582149654.63,16.602,42.48,38.086,24.414,0.0,0
1582149654.633,16.113,41.504,33.691,18.066,0.0,0
1582149654.637,17.09,40.039,36.621,17.578,0.0,0
1582149654.641,18.555,42.48,40.527,30.273000000000003,0.0,0
1582149654.645,22.461,46.387,41.01600000000001,22.461,0.0,0
1582149654.649,17.578,46.387,45.41,4.395,0.0,0
1582149654.65,20.508000000000006,45.898,43.945,13.184,0.0,0
1582149654.654,20.996,49.805,36.133,20.508000000000006,0.0,0
1582149654.658,14.648,54.688,33.691,14.648,0.0,0
1582149654.6620002,11.719,53.223,34.18,16.602,0.0,0
1582149654.666,10.742,55.176,36.621,14.648,0.0,0
1582149654.67,7.324,49.316,39.551,13.672,0.0,0
1582149654.674,9.277,41.992,42.969,28.32,0.0,0
1582149654.677,11.23,46.387,42.969,22.461,0.0,0
1582149654.681,10.254,47.852,40.039,2.441,0.0,0
1582149654.685,19.531,46.387,40.527,7.324,0.0,0
1582149654.689,19.043,50.293,40.527,5.371,0.0,0
1582149654.6929998,6.836,51.27,40.527,0.0,0.0,0
1582149654.695,15.137,50.78100000000001,41.01600000000001,14.16,0.0,0
1582149654.699,20.02,53.71100000000001,39.551,7.324,0.0,0
1582149654.7029998,10.742,53.223,44.922,-3.906,0.0,0
1582149654.707,5.371,52.734,45.898,-3.418,0.0,0
1582149654.711,7.324,53.71100000000001,39.062,-3.906,0.0,0
1582149654.715,7.812,48.828,36.621,-0.488,0.0,0
1582149654.719,9.277,48.828,41.992,0.488,0.0,0
1582149654.722,13.184,54.199,44.922,5.859,0.0,0
1582149654.726,9.766,54.199,41.992,11.719,0.0,0
1582149654.73,15.137,57.129,42.48,11.23,0.0,0
1582149654.734,27.344,54.199,44.922,9.277,0.0,0
1582149654.738,31.25,48.34,38.086,6.836,0.0,0
1582149654.755,17.09,51.27,34.668,9.766,0.0,0
1582149654.7589998,13.184,52.734,40.039,8.301,0.0,0
1582149654.7629998,16.602,53.223,39.551,6.836,0.0,0
1582149654.7670002,19.043,51.758,40.039,20.02,0.0,0
1582149654.771,26.855,50.293,41.01600000000001,18.555,0.0,0
1582149654.775,21.973000000000006,52.734,40.039,7.812,0.0,0
1582149654.779,29.297,58.594,41.504,12.695,0.0,0
1582149654.782,34.668,62.012,48.828,15.625,0.0,0
1582149654.786,26.367,54.199,47.363,11.719,0.0,0
1582149654.79,28.32,45.41,34.668,18.066,0.0,0
1582149654.794,23.926,45.898,32.227,13.672,0.0,0
1582149654.798,14.648,46.875,39.551,-0.977,0.0,0
1582149654.8,18.555,47.363,42.969,10.254,0.0,0
1582149654.804,19.531,50.293,37.598,10.254,0.0,0
1582149654.8079998,15.137,53.71100000000001,37.598,3.906,0.0,0
1582149654.812,15.625,53.223,43.945,9.766,0.0,0
1582149654.816,20.508000000000006,51.758,46.875,10.254,0.0,0
1582149654.82,25.391,52.246,43.457,20.996,0.0,0
1582149654.824,18.555,55.176,37.109,18.555,0.0,0
1582149654.827,17.578,53.71100000000001,30.273000000000003,2.93,0.0,0
1582149654.831,26.855,44.922,32.227,3.906,0.0,0
1582149654.835,28.32,40.039,38.574,5.859,0.0,0
1582149654.839,18.555,48.34,40.527,9.766,0.0,0
1582149654.843,16.113,58.594,37.109,8.301,0.0,0
1582149654.845,20.996,60.059,33.691,9.277,0.0,0
1582149654.849,15.137,57.617,35.645,10.742,0.0,0
1582149654.853,7.812,59.57,35.156,6.836,0.0,0
1582149654.857,14.16,59.57,35.156,13.184,0.0,0
1582149654.861,18.066,53.71100000000001,37.109,7.324,0.0,0
1582149654.865,23.438,46.387,37.598,3.418,0.0,0
1582149654.869,22.461,51.758,37.109,9.766,0.0,0
1582149654.8720002,9.766,60.547,41.504,19.531,0.0,0
1582149654.8760002,20.996,56.64100000000001,42.969,20.508000000000006,0.0,0
1582149654.88,20.02,50.78100000000001,34.18,10.254,0.0,0
1582149654.8839998,11.23,50.78100000000001,34.18,11.719,0.0,0
1582149654.8879998,7.812,49.805,39.551,9.766,0.0,0
1582149654.89,2.93,46.875,37.109,7.812,0.0,0
1582149654.894,5.859,48.34,33.203,10.742,0.0,0
1582149654.8979998,3.418,52.246,34.18,13.672,0.0,0
1582149654.9020002,16.113,57.617,40.039,13.672,0.0,0
1582149654.906,21.484,62.988,42.48,6.348,0.0,0
1582149654.91,9.277,60.547,39.062,12.207,0.0,0
1582149654.914,6.348,58.105,33.691,16.113,0.0,0
1582149654.917,11.23,57.129,34.18,12.207,0.0,0
1582149654.921,11.719,56.152,40.039,7.324,0.0,0
1582149654.925,14.648,63.477,40.039,8.301,0.0,0
1582149654.929,26.367,64.941,38.086,14.648,0.0,0
1582149654.9329998,26.855,60.547,40.527,11.719,0.0,0
1582149654.935,11.719,58.594,44.922,8.789,0.0,0
1582149654.939,7.812,51.27,44.434,8.301,0.0,0
1582149654.9429998,14.648,47.852,42.48,20.02,0.0,0
1582149654.947,10.742,53.223,47.363,20.508000000000006,0.0,0
1582149654.951,17.578,50.78100000000001,50.293,15.137,0.0,0
1582149654.955,18.066,48.34,44.434,20.508000000000006,0.0,0
1582149654.959,7.812,56.64100000000001,47.363,20.02,0.0,0
1582149654.962,10.742,58.594,53.223,18.555,0.0,0
1582149654.966,11.719,60.547,51.758,17.09,0.0,0
1582149654.97,14.16,60.059,48.828,9.277,0.0,0
1582149654.974,23.438,49.316,56.152,11.23,0.0,0
1582149654.978,25.391,49.805,63.965,22.949,0.0,0
1582149654.98,24.902,48.34,61.523,19.531,0.0,0
1582149654.984,24.902,43.457,54.199,12.695,0.0,0
1582149654.988,27.344,41.992,61.523,15.625,0.0,0
1582149654.992,27.832,41.01600000000001,74.707,13.672,0.0,0
1582149654.996,14.648,40.527,75.684,10.254,0.0,0
1582149655.0,9.766,39.551,76.172,13.184,0.0,0
1582149655.004,11.719,42.48,75.195,20.02,0.0,0
1582149655.0070002,20.996,43.457,72.75399999999998,28.809,0.0,0
1582149655.0110002,27.344,43.457,73.242,13.672,0.0,0
1582149655.015,18.066,41.01600000000001,70.312,1.465,0.0,0
1582149655.019,14.16,34.668,71.289,17.578,0.0,0
1582149655.0229998,15.625,36.621,68.848,20.02,0.0,0
1582149655.025,12.695,36.133,63.477,16.602,0.0,0
1582149655.029,6.836,34.18,59.082,12.207,0.0,0
1582149655.033,7.324,38.086,59.082,16.602,0.0,0
1582149655.0370002,15.625,39.062,58.594,32.715,0.0,0
1582149655.041,17.09,33.691,58.105,24.414,0.0,0
1582149655.045,19.043,27.832,62.5,8.789,0.0,0
1582149655.049,18.066,24.414,51.27,12.695,0.0,0
1582149655.052,20.02,21.973000000000006,44.922,17.578,0.0,0
1582149655.056,23.438,20.508000000000006,47.852,20.996,0.0,0
1582149655.06,14.16,18.555,43.457,15.137,0.0,0
1582149655.064,20.508000000000006,19.043,44.434,17.09,0.0,0
1582149655.0679998,33.691,20.996,53.71100000000001,18.066,0.0,0
1582149655.07,23.438,18.066,59.57,17.578,0.0,0
1582149655.074,12.695,13.672,57.129,16.602,0.0,0
1582149655.0779998,20.508000000000006,8.789,51.27,12.207,0.0,0
1582149655.082,32.227,11.719,54.688,15.137,0.0,0
1582149655.086,36.621,13.184,50.78100000000001,19.043,0.0,0
1582149655.09,28.809,9.766,46.875,13.672,0.0,0
1582149655.094,26.367,15.625,52.246,9.766,0.0,0
1582149655.097,25.879,20.996,55.176,11.719,0.0,0
1582149655.101,23.438,17.578,57.617,16.602,0.0,0
1582149655.105,24.902,16.113,57.617,21.484,0.0,0
1582149655.109,11.23,19.531,55.176,18.555,0.0,0
1582149655.113,4.395,16.113,51.27,6.348,0.0,0
1582149655.13,9.766,8.789,50.78100000000001,2.93,0.0,1
1582149655.1339998,13.672,16.113,54.688,11.719,0.0,0
1582149655.1379998,8.301,28.809,54.688,10.742,0.0,0
1582149655.1420002,7.812,27.344,56.152,2.441,0.0,0
1582149655.146,11.719,23.926,61.523,6.348,0.0,0
1582149655.15,5.371,30.273000000000003,57.129,12.695,0.0,0
1582149655.154,1.465,33.203,56.152,7.812,0.0,0
1582149655.157,1.953,27.832,59.57,1.465,0.0,0
1582149655.161,6.836,26.855,57.129,2.93,0.0,0
1582149655.165,17.578,31.25,57.617,3.906,0.0,0
1582149655.169,20.02,34.18,54.688,-10.742,0.0,0
1582149655.173,6.836,36.621,54.199,-14.16,0.0,0
1582149655.175,5.859,36.621,58.594,-2.93,0.0,0
1582149655.179,9.766,33.203,60.059,6.836,0.0,0
1582149655.1829998,14.648,35.156,54.199,16.113,0.0,0
1582149655.187,22.949,39.551,50.293,9.766,0.0,0
1582149655.191,21.484,37.598,53.71100000000001,4.395,0.0,0
1582149655.195,23.926,38.086,55.176,1.953,0.0,0
1582149655.199,17.09,37.109,54.199,5.859,0.0,0
1582149655.202,2.93,32.715,56.64100000000001,8.789,0.0,0
1582149655.206,14.648,32.227,49.316,1.465,0.0,0
1582149655.21,20.508000000000006,29.785,40.527,4.883,0.0,0
1582149655.214,13.672,33.203,44.922,7.812,0.0,0
1582149655.218,17.578,37.109,50.78100000000001,7.324,0.0,0
1582149655.22,16.113,30.762,51.27,4.395,0.0,0
1582149655.224,7.324,23.438,44.434,-2.93,0.0,0
1582149655.228,6.348,21.973000000000006,43.945,-0.977,0.0,0
1582149655.232,1.465,20.02,54.199,-1.465,0.0,0
1582149655.236,6.348,13.672,55.176,-4.883,0.0,0
1582149655.24,10.254,10.254,49.805,-5.859,0.0,0
1582149655.244,8.301,19.531,50.78100000000001,-6.836,0.0,0
1582149655.2470002,4.883,24.414,52.734,-1.465,0.0,0
1582149655.2510002,1.953,20.508000000000006,52.734,0.0,0.0,0
1582149655.255,13.184,15.625,54.688,-6.836,0.0,0
1582149655.2589998,18.066,13.184,57.617,-13.672,0.0,0
1582149655.2629998,5.859,8.789,55.664,-10.254,0.0,0
1582149655.265,1.953,1.465,49.316,-3.418,0.0,0
1582149655.269,8.789,-3.418,55.176,4.395,0.0,0
1582149655.2729998,10.254,-8.789,59.082,3.906,0.0,0
1582149655.2770002,7.324,-12.695,57.129,6.836,0.0,0
1582149655.281,13.184,-9.277,59.082,6.836,0.0,0
1582149655.285,18.066,-14.648,57.617,12.695,0.0,0
1582149655.289,20.996,-18.555,59.57,16.113,0.0,0
1582149655.292,27.344,-11.719,69.824,14.16,0.0,0
1582149655.296,24.902,-9.766,69.824,14.16,0.0,0
1582149655.3,22.461,-13.672,60.547,12.207,0.0,0
1582149655.304,18.066,-12.695,58.594,16.602,0.0,0
1582149655.3079998,23.926,-4.883,55.664,12.207,0.0,0
1582149655.31,23.438,-3.906,52.246,15.137,0.0,0
1582149655.314,11.23,-9.766,55.176,12.695,0.0,0
1582149655.3179998,11.23,-10.254,56.64100000000001,12.207,0.0,0
1582149655.322,21.973000000000006,-5.859,59.082,18.555,0.0,0
1582149655.326,30.273000000000003,-3.418,51.758,8.789,0.0,0
1582149655.33,19.531,-1.953,45.898,10.742,0.0,0
1582149655.334,19.043,3.418,46.875,12.207,0.0,0
1582149655.337,21.973000000000006,1.953,42.969,0.0,0.0,0
1582149655.341,17.09,5.859,41.01600000000001,9.766,0.0,0
1582149655.345,20.02,11.23,40.527,15.137,0.0,0
1582149655.349,18.555,7.812,41.504,9.766,0.0,0
1582149655.353,20.508000000000006,14.16,42.969,18.555,0.0,0
1582149655.355,26.855,23.926,38.574,20.508000000000006,0.0,0
1582149655.359,25.391,30.273000000000003,33.203,14.16,0.0,0
1582149655.363,27.832,37.109,36.133,16.602,0.0,0
1582149655.367,27.344,38.574,40.527,22.461,0.0,0
1582149655.371,19.531,39.062,37.598,18.066,0.0,0
1582149655.375,21.484,42.48,39.062,14.648,0.0,0
1582149655.379,24.414,41.504,40.039,16.602,0.0,0
1582149655.3820002,18.066,43.457,40.527,14.648,0.0,0
1582149655.3860002,29.785,49.805,40.039,20.508000000000006,0.0,0
1582149655.39,34.668,54.199,38.086,33.203,0.0,0
1582149655.394,26.367,59.082,37.109,34.668,0.0,0
1582149655.3979998,31.25,64.453,39.062,24.902,0.0,0
1582149655.4,32.227,61.523,38.086,13.184,0.0,0
1582149655.404,27.344,60.547,28.809,10.254,0.0,0
1582149655.408,15.625,62.012,27.832,5.859,0.0,0
1582149655.4120002,19.043,62.012,34.18,15.137,0.0,0
1582149655.416,25.391,55.664,27.832,17.578,0.0,0
1582149655.42,25.879,51.27,22.949,20.996,0.0,0
1582149655.424,32.715,50.78100000000001,22.949,29.297,0.0,0
1582149655.427,22.461,48.34,20.02,15.137,0.0,0
1582149655.431,20.02,46.875,20.508000000000006,14.648,0.0,0
1582149655.435,31.25,43.457,21.973000000000006,15.625,0.0,0
1582149655.439,30.762,45.898,24.414,16.113,0.0,0
1582149655.4429998,20.508000000000006,46.875,26.367,11.23,0.0,0
1582149655.445,12.207,45.898,30.273000000000003,8.301,0.0,0
1582149655.449,20.02,42.969,34.668,21.973000000000006,0.0,0
1582149655.4529998,31.738000000000003,43.457,30.762,26.855,0.0,0
1582149655.457,38.574,53.223,25.879,16.602,0.0,0
1582149655.461,29.297,60.059,26.855,10.742,0.0,0
1582149655.465,28.809,59.082,28.809,16.602,0.0,0
1582149655.469,36.133,54.688,27.344,17.09,0.0,0
1582149655.472,41.504,54.199,27.832,17.09,0.0,0
1582149655.476,40.039,53.71100000000001,32.715,17.09,0.0,0
1582149655.48,30.273000000000003,50.293,35.645,22.461,0.0,0
1582149655.484,25.391,40.039,33.203,36.621,0.0,0
1582149655.488,22.949,60.059,34.668,39.062,0.0,0
1582149655.505,17.09,107.422,34.668,25.879,0.0,0
1582149655.5089998,14.16,125.977,26.367,13.672,0.0,0
1582149655.5129998,12.695,133.789,28.32,14.16,0.0,0
1582149655.5170002,11.719,137.695,34.668,12.695,0.0,0
1582149655.521,20.996,126.953,38.086,7.812,0.0,0
1582149655.525,20.02,122.559,43.457,12.207,0.0,0
1582149655.529,14.648,129.88299999999998,41.01600000000001,9.766,0.0,0
1582149655.532,19.531,128.906,41.992,11.23,0.0,0
1582149655.536,16.602,125.977,47.852,17.09,0.0,0
1582149655.54,13.184,120.605,48.828,4.395,0.0,0
1582149655.544,23.926,113.77,50.293,2.441,0.0,0
1582149655.548,14.16,112.305,46.875,6.836,0.0,0
1582149655.55,0.0,107.422,44.434,-0.977,0.0,0
1582149655.554,6.348,101.074,47.363,0.0,0.0,0
1582149655.5579998,15.137,99.609,44.434,5.859,0.0,0
1582149655.562,16.113,102.539,41.01600000000001,10.742,0.0,0
1582149655.566,19.531,105.469,45.41,10.742,0.0,0
1582149655.57,20.508000000000006,102.051,54.199,10.254,0.0,0
1582149655.574,15.625,98.633,58.594,19.043,0.0,0
1582149655.577,19.531,99.609,60.547,12.207,0.0,0
1582149655.581,24.902,92.285,63.965,19.531,0.0,0
1582149655.585,24.902,85.93799999999997,69.336,18.066,0.0,0
1582149655.589,25.879,90.82,70.312,7.812,0.0,0
1582149655.593,26.367,94.238,66.406,10.254,0.0,0
1582149655.595,34.668,88.37899999999998,72.266,7.812,0.0,0
1582149655.599,24.902,84.473,75.195,10.742,0.0,0
1582149655.603,13.672,83.49600000000002,70.312,9.277,0.0,0
1582149655.607,22.461,81.055,65.43,4.883,0.0,0
1582149655.611,24.902,79.59,61.523,16.602,0.0,0
1582149655.615,20.02,75.195,57.129,19.531,0.0,0
1582149655.619,16.602,72.75399999999998,57.617,15.137,0.0,0
1582149655.6220002,23.926,73.73,64.453,20.508000000000006,0.0,0
1582149655.6260002,29.785,71.777,66.406,18.555,0.0,0
1582149655.63,30.273000000000003,72.266,67.87100000000001,19.531,0.0,0
1582149655.6339998,32.715,75.684,71.289,20.02,0.0,0
1582149655.6379998,21.973000000000006,76.66,68.848,10.742,0.0,0
1582149655.64,23.438,77.148,74.219,14.648,0.0,0
1582149655.644,27.344,75.684,75.684,10.742,0.0,0
1582149655.6479998,26.367,78.613,66.895,6.348,0.0,0
1582149655.6520002,28.809,76.66,67.383,8.301,0.0,0
1582149655.656,24.414,69.336,72.266,15.137,0.0,0
1582149655.66,23.438,67.383,73.242,9.766,0.0,0
1582149655.664,19.043,66.895,77.148,11.23,0.0,0
1582149655.667,25.391,65.918,81.055,20.996,0.0,0
1582149655.671,29.785,63.477,86.426,6.348,0.0,0
1582149655.675,24.414,63.477,94.238,2.441,0.0,0
1582149655.679,23.438,59.57,93.75,14.648,0.0,0
1582149655.6829998,19.531,59.082,92.285,21.484,0.0,0
1582149655.685,18.066,57.617,93.262,8.301,0.0,0
1582149655.689,26.367,51.27,91.309,9.277,0.0,0
1582149655.6929998,27.344,48.34,90.332,12.695,0.0,0
1582149655.697,26.855,49.316,97.656,11.23,0.0,0
1582149655.701,26.855,48.828,104.98,18.555,0.0,0
1582149655.705,27.344,46.875,104.492,12.207,0.0,0
1582149655.709,21.484,46.875,102.051,6.348,0.0,0
1582149655.712,22.949,42.969,107.422,19.043,0.0,0
1582149655.716,22.461,42.969,109.863,11.719,0.0,0
1582149655.72,23.926,47.363,107.91,2.93,0.0,0
1582149655.724,29.297,44.922,104.98,16.113,0.0,0
1582149655.728,15.625,39.551,98.633,17.578,0.0,0
1582149655.73,9.277,35.645,92.285,15.137,0.0,0
1582149655.734,16.113,35.645,87.402,19.531,0.0,0
1582149655.738,24.902,37.109,87.891,19.043,0.0,0
1582149655.742,17.578,40.039,86.426,11.719,0.0,0
1582149655.746,12.695,42.969,85.93799999999997,12.695,0.0,0
1582149655.75,18.066,41.504,83.008,14.16,0.0,0
1582149655.754,23.438,36.133,79.59,9.766,0.0,0
1582149655.7570002,19.043,33.203,84.961,4.395,0.0,0
1582149655.7610002,12.695,34.18,86.914,2.93,0.0,0
1582149655.765,9.766,35.645,79.59,0.977,0.0,0
1582149655.769,12.207,32.715,76.66,15.137,0.0,0
1582149655.7729998,10.742,28.809,73.73,2.93,0.0,0
1582149655.775,4.395,28.809,65.43,-2.93,0.0,0
1582149655.779,12.207,31.738000000000003,62.012,12.207,0.0,0
1582149655.783,16.113,31.738000000000003,62.012,16.602,0.0,0
1582149655.7870002,9.277,26.367,58.105,14.16,0.0,0
1582149655.791,12.207,20.508000000000006,59.57,17.578,0.0,0
1582149655.795,17.09,19.043,60.547,16.113,0.0,0
1582149655.799,17.09,21.484,58.105,12.207,0.0,0
1582149655.802,20.02,21.973000000000006,61.523,19.531,0.0,0
1582149655.806,23.926,23.438,61.035,17.578,0.0,0
1582149655.81,16.602,16.602,55.176,14.16,0.0,0
1582149655.814,23.926,6.348,52.246,19.531,0.0,0
1582149655.8179998,19.043,3.418,54.199,10.742,0.0,0
1582149655.82,5.859,5.859,49.316,4.883,0.0,0
1582149655.824,12.207,4.883,43.457,12.695,0.0,0
1582149655.8279998,12.207,-0.977,44.922,7.812,0.0,0
1582149655.832,15.137,-3.906,42.48,13.672,0.0,0
1582149655.836,16.113,-6.348,41.01600000000001,26.367,0.0,0
1582149655.84,13.672,-17.578,45.898,2.441,0.0,0
1582149655.844,16.602,-21.973000000000006,44.922,-4.883,0.0,0
1582149655.847,16.113,-40.039,35.645,5.371,0.0,0
1582149655.851,12.695,-103.516,35.645,-3.906,0.0,0
1582149655.855,17.578,-148.92600000000004,31.738000000000003,-8.301,0.0,0
1582149655.859,13.184,-152.832,30.273000000000003,0.0,0.0,0
1582149655.863,16.602,-145.996,36.133,-3.906,0.0,0
1582149655.88,19.043,-137.695,33.691,-9.277,0.0,0
1582149655.8839998,4.395,-131.836,36.621,-2.93,0.0,0
1582149655.8879998,9.766,-125.488,37.598,6.348,0.0,0
1582149655.8920002,12.695,-121.582,36.133,8.301,0.0,0
1582149655.896,6.836,-119.629,34.18,2.441,0.0,0
1582149655.9,13.184,-110.84,27.832,3.906,0.0,0
1582149655.904,20.996,-101.562,27.344,6.836,0.0,0
1582149655.907,20.996,-95.703,30.273000000000003,10.254,0.0,0
1582149655.911,20.508000000000006,-87.891,29.297,9.766,0.0,0
1582149655.915,20.508000000000006,-76.172,24.902,-1.953,0.0,0
1582149655.919,14.16,-68.359,29.297,2.441,0.0,0
1582149655.923,11.719,-65.43,29.785,7.812,0.0,0
1582149655.925,20.996,-59.57,23.926,5.859,0.0,0
1582149655.929,33.203,-54.199,26.855,11.23,0.0,0
1582149655.9329998,18.555,-49.805,27.832,12.207,0.0,0
1582149655.937,10.742,-45.41,25.879,19.531,0.0,0
1582149655.941,20.02,-34.18,28.32,13.184,0.0,0
1582149655.945,14.16,-19.531,25.879,6.836,0.0,0
1582149655.949,5.859,-13.184,20.508000000000006,13.672,0.0,0
1582149655.952,9.766,-11.719,25.391,-1.953,0.0,0
1582149655.956,18.066,-8.789,24.414,-6.348,0.0,0
1582149655.96,20.02,-0.977,17.09,1.465,0.0,0
1582149655.964,16.113,9.766,16.113,10.742,0.0,0
1582149655.968,16.602,16.602,16.113,17.09,0.0,0
1582149655.97,28.32,17.578,13.184,4.883,0.0,0
1582149655.974,23.926,20.02,7.812,15.625,0.0,0
1582149655.978,12.695,24.902,2.93,18.555,0.0,0
1582149655.982,15.137,27.344,-6.836,7.812,0.0,0
1582149655.986,13.184,25.879,-9.766,-1.465,0.0,0
1582149655.99,11.719,29.785,-1.953,3.418,0.0,0
1582149655.994,16.113,31.25,-1.465,15.625,0.0,0
1582149655.9970002,28.809,29.785,-7.324,6.836,0.0,0
1582149656.0010002,33.203,32.715,-6.348,4.395,0.0,0
1582149656.005,26.367,41.01600000000001,0.488,0.0,0.0,0
1582149656.0089998,19.043,59.57,-1.953,2.441,0.0,0
1582149656.0129998,12.695,69.824,-7.812,8.789,0.0,0
1582149656.015,10.742,65.918,-9.277,-1.465,0.0,0
1582149656.019,19.531,69.336,-6.348,1.953,0.0,0
1582149656.0229998,24.902,77.148,-12.207,12.695,0.0,0
1582149656.0270002,21.484,73.73,-33.691,11.23,0.0,0
1582149656.031,22.949,66.895,-43.945,7.324,0.0,0
1582149656.035,20.996,62.988,-43.457,2.93,0.0,0
1582149656.039,21.973000000000006,60.059,-42.48,-2.93,0.0,0
1582149656.042,21.484,54.199,-35.645,-5.371,0.0,0
1582149656.046,27.344,46.875,-31.738000000000003,4.883,0.0,0
1582149656.05,18.066,47.852,-29.297,5.859,0.0,0
1582149656.054,1.953,46.387,-25.391,11.23,0.0,0
1582149656.0579998,12.207,41.504,-19.043,16.602,0.0,0
1582149656.06,18.555,38.086,-13.672,2.441,0.0,0
1582149656.064,14.648,34.18,-19.531,3.906,0.0,0
1582149656.0679998,7.812,32.227,-21.484,7.324,0.0,0
1582149656.072,13.184,26.367,-15.137,2.441,0.0,0
1582149656.076,21.484,21.973000000000006,-10.742,8.789,0.0,0
1582149656.08,14.648,16.602,-5.371,5.371,0.0,0
1582149656.084,20.02,8.301,-1.953,8.789,0.0,0
1582149656.087,33.691,1.953,-1.953,13.184,0.0,0
1582149656.091,22.949,-1.953,-3.418,9.766,0.0,0
1582149656.095,20.508000000000006,-2.441,-5.371,9.277,0.0,0
1582149656.099,34.18,-1.953,-5.859,-3.906,0.0,0
1582149656.103,22.949,2.441,-3.906,-1.953,0.0,0
1582149656.105,12.207,5.859,2.441,3.418,0.0,0
1582149656.109,17.09,6.836,2.441,5.859,0.0,0
1582149656.113,7.812,3.418,-6.348,9.277,0.0,0
1582149656.117,8.301,-0.977,-13.184,-2.93,0.0,0
1582149656.121,12.207,-0.977,-14.648,-6.836,0.0,0
1582149656.125,5.859,-3.906,-24.902,-13.184,0.0,0
1582149656.129,-2.93,-4.395,-37.598,-14.16,0.0,0
1582149656.1320002,0.977,2.93,-35.645,-6.836,0.0,0
1582149656.1360002,6.836,11.23,-38.086,-8.789,0.0,0
1582149656.14,7.324,12.695,-43.945,-4.395,0.0,0
1582149656.144,9.766,9.766,-45.41,7.324,0.0,0
1582149656.1479998,20.02,10.742,-45.898,6.836,0.0,0
1582149656.15,26.367,15.137,-47.852,17.578,0.0,0
1582149656.154,16.113,24.414,-44.922,19.531,0.0,0
1582149656.158,1.953,32.715,-43.945,7.324,0.0,0
1582149656.1620002,5.859,29.297,-45.898,14.16,0.0,0
1582149656.166,15.137,27.344,-41.504,15.137,0.0,0
1582149656.17,16.113,29.785,-38.086,6.348,0.0,0
1582149656.174,22.461,24.902,-37.109,6.836,0.0,0
1582149656.177,31.25,19.531,-36.621,8.789,0.0,0
1582149656.181,19.043,19.043,-35.645,6.348,0.0,0
1582149656.185,17.09,18.555,-28.809,19.043,0.0,0
1582149656.189,19.043,18.066,-33.691,16.113,0.0,0
1582149656.1929998,15.625,17.578,-38.574,8.301,0.0,0
1582149656.195,15.137,19.531,-32.715,21.484,0.0,0
1582149656.199,15.137,22.461,-31.738000000000003,15.625,0.0,0
1582149656.2029998,13.672,21.973000000000006,-31.25,1.953,0.0,0
1582149656.207,18.555,26.367,-27.832,7.324,0.0,0
1582149656.211,21.484,27.832,-25.391,9.277,0.0,0
1582149656.215,11.23,23.438,-27.832,7.812,0.0,0
1582149656.219,9.766,20.508000000000006,-28.809,3.418,0.0,0
1582149656.222,12.695,12.207,-27.344,-2.93,0.0,0
1582149656.226,19.531,8.301,-28.32,1.953,0.0,0
1582149656.23,8.301,10.254,-27.344,10.742,0.0,0
1582149656.234,8.301,10.742,-25.879,13.672,0.0,0
1582149656.238,12.207,10.742,-24.414,8.789,0.0,0
1582149656.255,14.16,10.742,-23.926,13.184,0.0,0
1582149656.2589998,20.996,13.672,-21.973000000000006,16.602,0.0,0
1582149656.2629998,18.555,14.16,-21.484,14.648,0.0,0
1582149656.2670002,19.531,13.672,-27.344,4.395,0.0,0
1582149656.271,18.555,16.602,-29.297,4.395,0.0,0
1582149656.275,9.277,19.043,-24.414,7.812,0.0,0
1582149656.279,6.348,21.484,-20.02,3.418,0.0,0
1582149656.282,23.926,18.555,-21.484,11.23,0.0,0
1582149656.286,30.273000000000003,16.602,-23.438,21.973000000000006,0.0,0
1582149656.29,9.277,19.043,-24.902,11.23,0.0,0
1582149656.294,9.277,23.926,-28.32,7.324,0.0,0
1582149656.298,25.879,27.832,-30.762,13.184,0.0,0
1582149656.3,17.09,27.344,-34.668,13.184,0.0,0
1582149656.304,6.836,26.855,-27.344,25.391,0.0,0
1582149656.3079998,17.578,28.32,-19.043,18.555,0.0,0
1582149656.312,25.391,29.785,-13.184,13.672,0.0,0
1582149656.316,31.738000000000003,30.762,-2.93,17.09,0.0,0
1582149656.32,29.785,29.297,-1.465,6.348,0.0,2
1582149656.324,38.086,35.156,-2.93,1.465,0.0,0
1582149656.327,36.133,35.645,-4.395,5.371,0.0,0
1582149656.331,35.645,21.484,-7.324,6.836,0.0,0
1582149656.335,33.691,14.16,-3.418,5.371,0.0,0
1582149656.339,17.09,14.648,4.883,11.719,0.0,0
1582149656.343,19.043,10.254,7.324,21.484,0.0,0
