timestamps,TP9,AF7,AF8,TP10,Right AUX,Marker0
1582221696.444,20.996,35.645,17.09,37.598,0.0,0
1582221696.448,29.785,27.344,19.043,31.738000000000003,0.0,0
1582221696.452,25.879,25.391,18.555,31.25,0.0,0
1582221696.456,15.137,31.738000000000003,16.113,41.504,0.0,0
1582221696.46,3.906,40.039,17.09,46.875,0.0,0
1582221696.464,9.277,37.598,18.555,20.996,0.0,0
1582221696.468,16.113,30.273000000000003,19.043,22.949,0.0,0
1582221696.471,-2.93,35.156,19.531,35.156,0.0,0
1582221696.475,-1.953,37.598,18.555,24.414,0.0,0
1582221696.479,14.16,37.598,17.09,15.625,0.0,0
1582221696.4829998,2.441,35.156,17.578,16.113,0.0,0
1582221696.4870002,-2.93,23.438,20.02,25.879,0.0,0
1582221696.4889998,4.883,25.879,22.949,22.461,0.0,0
1582221696.4929998,5.371,31.25,22.949,18.066,0.0,0
1582221696.4970002,8.301,33.691,22.461,15.137,0.0,0
1582221696.5010002,10.254,44.434,22.461,23.438,0.0,0
1582221696.505,8.301,42.48,21.973000000000006,30.273000000000003,0.0,0
1582221696.5089998,20.996,33.691,23.926,26.855,0.0,0
1582221696.5129998,19.043,26.855,25.879,20.996,0.0,0
1582221696.516,10.742,31.738000000000003,20.996,19.043,0.0,0
1582221696.52,4.395,42.969,19.531,29.785,0.0,0
1582221696.524,17.578,41.01600000000001,21.484,16.113,0.0,0
1582221696.528,33.691,32.715,22.461,8.301,0.0,0
1582221696.532,21.973000000000006,33.203,20.02,16.602,0.0,0
1582221696.535,7.812,40.527,15.625,24.414,0.0,0
1582221696.539,3.418,34.668,18.066,26.855,0.0,0
1582221696.543,18.555,34.668,20.996,12.207,0.0,0
1582221696.5470002,12.207,40.527,20.508000000000006,9.766,0.0,0
1582221696.551,-7.324,33.203,21.484,14.16,0.0,0
1582221696.555,-0.977,34.18,19.043,19.043,0.0,0
1582221696.559,8.789,32.715,19.531,20.996,0.0,0
1582221696.562,9.277,27.832,23.438,14.16,0.0,0
1582221696.566,7.812,29.785,26.367,3.906,0.0,0
1582221696.57,4.883,27.344,25.879,17.09,0.0,0
1582221696.574,3.418,24.902,27.832,23.438,0.0,0
1582221696.5779998,1.465,35.156,29.785,4.883,0.0,0
1582221696.579,0.0,38.086,28.809,7.324,0.0,0
1582221696.583,-1.953,29.785,27.344,20.02,0.0,0
1582221696.587,4.395,26.855,30.762,13.184,0.0,0
1582221696.591,7.812,33.691,28.809,6.348,0.0,0
1582221696.595,17.578,34.668,21.973000000000006,10.254,0.0,0
1582221696.599,20.508000000000006,38.574,21.484,12.207,0.0,0
1582221696.603,16.602,38.574,19.531,15.137,0.0,0
1582221696.606,29.785,35.645,18.555,10.742,0.0,0
1582221696.61,28.32,37.109,20.508000000000006,7.324,0.0,0
1582221696.6139998,22.949,41.504,20.508000000000006,15.137,0.0,0
1582221696.6179998,17.578,44.922,20.996,12.695,0.0,0
1582221696.6220002,1.953,41.01600000000001,23.438,-1.465,0.0,0
1582221696.64,1.465,36.133,25.879,-5.859,0.0,0
1582221696.644,5.371,31.25,23.438,5.371,0.0,0
1582221696.6479998,3.906,36.621,21.484,15.137,0.0,0
1582221696.6520002,11.719,43.457,21.484,4.883,0.0,0
1582221696.656,24.414,35.156,26.367,-4.395,0.0,0
1582221696.66,6.836,35.645,27.344,6.836,0.0,0
1582221696.664,-2.441,36.621,25.879,10.254,0.0,0
1582221696.667,0.0,30.273000000000003,28.32,11.23,0.0,0
1582221696.671,-2.441,37.598,22.949,2.93,0.0,0
1582221696.675,-4.395,43.457,18.555,-2.441,0.0,0
1582221696.679,-5.371,42.969,22.949,12.695,0.0,0
1582221696.6829998,0.0,29.785,22.949,24.414,0.0,0
1582221696.685,5.371,31.25,22.461,10.742,0.0,0
1582221696.689,-11.23,48.828,23.926,-4.883,0.0,0
1582221696.6929998,-13.672,37.109,23.926,6.836,0.0,0
1582221696.697,-4.395,37.109,21.973000000000006,13.672,0.0,0
1582221696.701,5.371,38.574,22.949,16.602,0.0,0
1582221696.705,17.09,33.203,22.949,13.184,0.0,0
1582221696.709,1.465,48.828,19.043,5.859,0.0,0
1582221696.712,-1.953,48.828,16.602,8.301,0.0,0
1582221696.716,-1.953,47.852,20.996,-1.465,0.0,0
1582221696.72,-6.836,42.969,20.508000000000006,-14.648,0.0,0
1582221696.724,0.0,42.48,19.531,-7.324,0.0,0
1582221696.728,-1.465,48.34,25.391,2.441,0.0,0
1582221696.731,-7.812,42.48,26.367,1.465,0.0,0
1582221696.735,-12.695,34.18,23.926,-7.812,0.0,0
1582221696.7389998,-11.719,35.156,22.461,-13.184,0.0,0
1582221696.7429998,-20.508000000000006,32.715,20.508000000000006,-2.441,0.0,0
1582221696.7470002,-20.996,24.902,17.09,-1.953,0.0,0
1582221696.7510002,-3.906,36.133,15.625,-9.277,0.0,0
1582221696.755,-4.395,36.133,16.113,-13.184,0.0,0
1582221696.758,-13.672,32.715,15.137,-7.324,0.0,0
1582221696.762,-17.578,32.715,20.02,11.719,0.0,0
1582221696.766,-11.719,31.25,22.461,12.207,0.0,0
1582221696.77,-5.371,34.668,20.508000000000006,0.0,0.0,0
1582221696.774,0.0,44.434,20.02,20.508000000000006,0.0,0
1582221696.775,8.301,45.41,20.508000000000006,30.762,0.0,0
1582221696.779,8.301,40.527,20.508000000000006,20.996,0.0,0
1582221696.783,6.836,36.133,20.996,12.207,0.0,0
1582221696.7870002,5.859,24.414,20.996,11.23,0.0,0
1582221696.791,-2.441,31.25,22.461,13.672,0.0,0
1582221696.795,-5.859,43.945,20.02,12.207,0.0,0
1582221696.799,0.0,38.086,19.043,9.766,0.0,0
1582221696.802,-0.977,35.645,20.996,0.0,0.0,0
1582221696.806,-6.348,33.203,21.484,4.395,0.0,0
1582221696.81,-0.977,30.273000000000003,17.09,13.672,0.0,0
1582221696.814,17.578,27.344,14.648,8.789,0.0,0
1582221696.8179998,5.371,30.762,15.137,-0.977,0.0,0
1582221696.821,-1.465,40.527,15.137,6.348,0.0,0
1582221696.825,18.066,36.621,18.555,27.344,0.0,0
1582221696.829,5.859,29.785,17.578,22.949,0.0,0
1582221696.833,10.254,43.457,14.16,5.371,0.0,0
1582221696.837,22.949,52.246,12.695,12.207,0.0,0
1582221696.841,21.973000000000006,44.434,16.602,13.184,0.0,0
1582221696.845,24.902,37.598,19.043,13.672,0.0,0
1582221696.8479998,25.879,37.109,19.043,17.578,0.0,0
1582221696.8520002,19.043,34.668,18.066,9.277,0.0,0
1582221696.856,23.438,40.527,17.578,11.719,0.0,0
1582221696.86,29.785,50.78100000000001,17.578,-0.488,0.0,0
1582221696.8639998,12.207,47.363,17.09,-18.555,0.0,0
1582221696.865,13.672,42.969,18.555,-8.301,0.0,0
1582221696.869,25.879,23.926,20.02,6.836,0.0,0
1582221696.873,17.578,27.344,18.555,4.883,0.0,0
1582221696.877,8.789,51.758,20.02,-7.812,0.0,0
1582221696.881,19.043,46.387,21.484,-7.324,0.0,0
1582221696.885,24.414,40.527,23.438,13.672,0.0,0
1582221696.889,18.555,43.457,24.902,21.484,0.0,0
1582221696.8920002,20.996,43.457,21.484,12.695,0.0,0
1582221696.896,22.461,36.621,21.484,5.859,0.0,0
1582221696.9,19.043,30.273000000000003,21.973000000000006,14.16,0.0,0
1582221696.904,25.391,40.039,25.391,29.297,0.0,0
1582221696.908,31.738000000000003,44.434,25.391,28.809,0.0,0
1582221696.911,29.785,30.762,28.809,29.785,0.0,0
1582221696.915,20.508000000000006,37.109,29.297,31.25,0.0,0
1582221696.919,10.254,37.598,27.344,31.25,0.0,0
1582221696.923,17.09,34.18,29.785,33.691,0.0,0
1582221696.927,28.32,48.34,27.832,23.926,0.0,0
1582221696.931,20.508000000000006,43.457,27.344,11.719,0.0,0
1582221696.935,4.395,38.086,28.32,6.836,0.0,0
1582221696.938,4.883,44.922,29.297,8.301,0.0,0
1582221696.9420002,12.207,38.086,27.832,4.883,0.0,0
1582221696.946,15.625,32.715,26.855,4.395,0.0,0
1582221696.95,9.766,41.01600000000001,26.855,7.812,0.0,0
1582221696.954,-0.977,38.086,26.367,4.395,0.0,0
1582221696.955,-4.395,40.039,24.902,0.488,0.0,0
1582221696.959,3.906,46.387,24.902,-2.93,0.0,0
1582221696.9629998,16.113,40.039,25.879,-6.836,0.0,0
1582221696.967,9.766,32.227,24.902,2.93,0.0,0
1582221696.971,4.395,40.039,23.926,0.488,0.0,0
1582221696.975,16.602,42.969,23.926,-1.953,0.0,0
1582221696.979,10.742,37.598,25.879,-4.883,0.0,0
1582221696.982,0.977,28.32,28.32,-0.488,0.0,0
1582221696.986,2.93,40.527,26.855,11.719,0.0,0
1582221696.99,16.113,49.316,26.367,1.953,0.0,0
1582221696.994,6.348,33.203,27.832,3.418,0.0,0
1582221696.998,5.371,33.691,28.809,23.926,0.0,0
1582221697.0,18.066,42.48,26.367,23.438,0.0,0
1582221697.004,29.785,46.387,22.949,18.555,0.0,0
1582221697.008,31.738000000000003,43.945,22.461,6.348,0.0,0
1582221697.012,23.926,35.156,23.926,7.324,0.0,0
1582221697.016,16.602,34.18,26.367,20.02,0.0,0
1582221697.02,14.648,35.156,25.879,19.043,0.0,0
1582221697.024,26.855,36.621,27.832,9.277,0.0,0
1582221697.0270002,29.785,33.691,31.25,6.836,0.0,0
1582221697.031,17.09,42.969,32.227,23.926,0.0,0
1582221697.035,6.348,59.082,30.273000000000003,25.391,0.0,0
1582221697.039,13.672,54.199,27.832,13.184,0.0,0
1582221697.043,8.301,41.992,28.32,8.789,0.0,0
1582221697.061,-0.488,41.01600000000001,29.297,9.277,0.0,0
1582221697.065,9.766,43.945,27.832,13.672,0.0,0
1582221697.069,10.254,44.922,26.367,19.531,0.0,0
1582221697.073,9.766,42.969,26.367,19.531,0.0,0
1582221697.077,16.602,39.062,28.32,26.367,0.0,0
1582221697.081,4.883,38.574,31.738000000000003,37.109,0.0,0
1582221697.085,11.719,31.25,29.297,41.992,0.0,0
1582221697.0879998,26.367,23.926,25.879,22.949,0.0,0
1582221697.092,16.602,36.621,20.996,10.742,0.0,0
1582221697.096,16.113,50.293,16.602,34.668,0.0,0
1582221697.1,25.879,51.27,20.508000000000006,43.457,0.0,0
1582221697.104,13.672,48.828,23.926,29.297,0.0,0
1582221697.105,18.066,36.621,23.926,28.32,0.0,0
1582221697.109,21.484,38.086,23.926,39.062,0.0,0
1582221697.113,18.555,49.805,20.02,41.992,0.0,0
1582221697.117,25.391,42.969,21.973000000000006,32.715,0.0,0
1582221697.121,24.414,35.645,22.949,18.066,0.0,0
1582221697.125,26.367,38.574,20.02,22.949,0.0,0
1582221697.129,21.973000000000006,35.156,22.949,36.133,0.0,0
1582221697.1320002,16.113,21.484,23.438,25.391,0.0,0
1582221697.1360002,15.137,32.227,22.949,16.602,0.0,0
1582221697.14,17.09,39.551,20.508000000000006,20.996,0.0,0
1582221697.144,9.766,31.738000000000003,21.484,37.598,0.0,0
1582221697.1479998,8.789,24.414,23.438,31.25,0.0,0
1582221697.15,23.926,27.832,24.414,17.09,0.0,0
1582221697.154,24.902,41.01600000000001,25.391,14.16,0.0,0
1582221697.158,12.695,38.574,26.367,20.508000000000006,0.0,0
1582221697.1620002,-2.93,37.598,26.855,15.625,0.0,0
1582221697.166,1.465,41.01600000000001,25.391,11.23,0.0,0
1582221697.17,9.766,41.01600000000001,29.785,20.996,0.0,0
1582221697.174,-0.488,37.109,31.738000000000003,20.02,0.0,0
1582221697.177,4.883,36.621,27.832,20.996,0.0,0
1582221697.181,14.16,41.992,25.879,17.578,0.0,0
1582221697.185,16.602,43.945,26.367,13.184,0.0,0
1582221697.189,15.137,40.039,28.32,20.996,0.0,0
1582221697.1929998,11.719,40.039,28.32,15.137,0.0,0
1582221697.195,19.043,49.805,25.391,11.23,0.0,0
1582221697.199,23.438,45.898,22.461,9.766,0.0,0
1582221697.2029998,13.184,41.992,22.461,2.93,0.0,0
1582221697.207,11.719,45.41,20.508000000000006,9.766,0.0,0
1582221697.211,21.484,37.109,18.555,10.254,0.0,0
1582221697.215,22.461,40.527,22.461,4.883,0.0,0
1582221697.219,18.555,41.01600000000001,21.484,9.277,0.0,0
1582221697.222,2.441,34.668,20.996,14.16,0.0,0
1582221697.226,0.488,38.574,26.367,6.836,0.0,0
1582221697.23,18.555,39.551,26.367,0.488,0.0,0
1582221697.234,15.137,34.668,23.438,5.859,0.0,0
1582221697.238,5.859,24.902,23.438,11.23,0.0,0
1582221697.2389998,-1.465,30.762,23.926,1.953,0.0,0
1582221697.2429998,-10.254,43.457,28.32,-4.395,0.0,0
1582221697.2470002,-14.16,40.527,28.32,-4.395,0.0,0
1582221697.2510002,-21.484,36.133,27.832,1.465,0.0,0
1582221697.255,-26.367,33.691,29.785,3.418,0.0,0
1582221697.2589998,-19.531,31.738000000000003,28.32,5.371,0.0,0
1582221697.2629998,-4.395,37.598,29.297,2.93,0.0,0
1582221697.266,-7.812,35.156,28.809,-3.418,0.0,0
1582221697.27,-7.812,24.414,26.367,7.812,0.0,0
1582221697.274,-3.418,19.043,26.855,13.672,0.0,0
1582221697.278,-5.859,37.109,22.949,-9.766,0.0,0
1582221697.282,2.93,47.363,20.508000000000006,-13.672,0.0,0
1582221697.285,-8.301,37.598,21.484,-1.465,0.0,0
1582221697.289,-9.766,47.363,24.414,5.371,0.0,0
1582221697.293,11.23,43.457,22.949,1.953,0.0,0
1582221697.2970002,16.113,37.598,22.949,2.441,0.0,0
1582221697.301,17.578,43.945,25.391,5.371,0.0,0
1582221697.305,26.367,42.48,21.973000000000006,10.254,0.0,0
1582221697.309,27.344,40.039,21.973000000000006,16.113,0.0,0
1582221697.312,20.508000000000006,36.133,23.438,3.906,0.0,0
1582221697.316,16.602,30.762,21.484,10.254,0.0,0
1582221697.32,15.625,35.645,23.438,15.625,0.0,0
1582221697.324,15.625,40.039,25.879,1.465,0.0,0
1582221697.3279998,8.301,14.16,29.297,-4.395,0.0,0
1582221697.329,7.812,20.02,32.227,3.906,0.0,0
1582221697.333,1.953,50.78100000000001,28.32,15.625,0.0,0
1582221697.337,-7.324,40.527,25.879,6.348,0.0,0
1582221697.341,-0.488,34.18,27.832,3.418,0.0,0
1582221697.345,3.418,38.574,28.809,12.207,0.0,0
1582221697.349,1.465,31.25,28.809,18.066,0.0,0
1582221697.353,-3.906,30.762,29.297,18.066,0.0,0
1582221697.356,-16.113,31.25,27.344,-4.395,0.0,0
1582221697.36,-9.277,27.344,27.832,-8.301,0.0,0
1582221697.3639998,-7.812,32.715,29.297,13.672,0.0,0
1582221697.3679998,-7.812,28.809,29.297,20.02,0.0,0
1582221697.3720002,-9.766,32.715,26.855,14.16,0.0,0
1582221697.375,-7.324,37.109,27.344,5.859,0.0,0
1582221697.379,2.441,40.527,25.391,5.371,0.0,0
1582221697.383,12.207,28.32,24.902,11.719,0.0,0
1582221697.387,16.602,26.367,25.391,3.418,0.0,0
1582221697.391,14.648,44.922,24.414,1.953,0.0,0
1582221697.395,5.859,53.223,24.902,-4.395,0.0,0
1582221697.399,19.531,46.387,22.949,7.812,0.0,1
1582221697.4020002,34.668,31.738000000000003,25.879,18.066,0.0,0
1582221697.406,25.391,41.01600000000001,27.344,6.836,0.0,0
1582221697.41,27.832,35.645,25.879,20.02,0.0,0
1582221697.414,10.742,31.738000000000003,24.414,25.391,0.0,0
1582221697.418,5.371,39.062,21.484,11.23,0.0,0
1582221697.434,20.02,34.668,21.484,12.207,0.0,0
1582221697.438,17.578,38.086,22.461,19.531,0.0,0
1582221697.4420002,6.836,37.598,20.02,17.578,0.0,0
1582221697.446,7.812,39.062,20.996,15.625,0.0,0
1582221697.45,19.531,20.508000000000006,25.879,18.555,0.0,0
1582221697.454,23.926,21.484,28.32,21.973000000000006,0.0,0
1582221697.458,2.441,41.01600000000001,27.344,17.578,0.0,0
1582221697.461,-6.836,41.504,27.344,14.16,0.0,0
1582221697.465,0.488,38.086,25.879,7.324,0.0,0
1582221697.469,-6.348,41.01600000000001,25.391,-11.719,0.0,0
1582221697.4729998,-18.555,42.48,25.391,-16.113,0.0,0
1582221697.4770002,-19.531,42.969,25.391,2.441,0.0,0
1582221697.48,-12.207,40.527,27.344,8.301,0.0,0
1582221697.484,-6.836,39.551,26.367,-14.16,0.0,0
1582221697.488,11.23,33.691,26.367,0.488,0.0,0
1582221697.492,-4.883,20.996,24.414,21.973000000000006,0.0,0
1582221697.496,-13.672,26.855,19.531,15.625,0.0,0
1582221697.5,6.348,34.668,17.09,7.812,0.0,0
1582221697.504,11.719,42.969,14.648,2.93,0.0,0
1582221697.5070002,14.16,38.574,12.695,13.184,0.0,0
1582221697.5110002,14.648,27.832,13.184,23.438,0.0,0
1582221697.515,22.949,28.809,13.672,2.441,0.0,0
1582221697.519,20.508000000000006,33.691,12.207,-5.371,0.0,0
1582221697.5229998,11.23,40.527,13.672,13.672,0.0,0
1582221697.525,28.32,40.527,16.602,23.438,0.0,0
1582221697.529,30.762,39.062,16.602,22.949,0.0,0
1582221697.533,31.738000000000003,39.551,13.184,14.648,0.0,0
1582221697.5370002,27.832,32.227,11.23,10.254,0.0,0
1582221697.541,15.625,21.973000000000006,14.16,7.324,0.0,0
1582221697.545,11.23,39.551,13.184,0.488,0.0,0
1582221697.549,17.09,44.434,13.672,-6.836,0.0,0
1582221697.552,15.137,35.156,19.043,-16.113,0.0,0
1582221697.556,-0.488,50.293,20.02,-12.207,0.0,0
1582221697.56,-14.16,50.293,19.531,-11.719,0.0,0
1582221697.564,1.465,43.457,22.461,-16.113,0.0,0
1582221697.5679998,5.859,46.875,23.926,-8.301,0.0,0
1582221697.57,1.953,46.387,20.996,-0.977,0.0,0
1582221697.574,13.672,35.645,20.02,11.719,0.0,0
1582221697.5779998,19.043,26.855,24.902,11.719,0.0,0
1582221697.582,26.855,31.25,24.902,9.277,0.0,0
1582221697.586,24.902,45.41,23.438,27.832,0.0,0
1582221697.59,22.949,53.71100000000001,24.414,36.133,0.0,0
1582221697.594,31.738000000000003,53.223,20.996,29.785,0.0,0
1582221697.597,39.551,48.828,25.879,19.531,0.0,0
1582221697.601,27.344,42.48,26.367,7.324,0.0,0
1582221697.605,23.438,35.645,22.949,27.832,0.0,0
1582221697.609,36.621,37.598,25.391,42.48,0.0,0
1582221697.613,37.598,43.457,26.855,32.715,0.0,0
1582221697.615,40.527,45.898,26.855,25.879,0.0,0
1582221697.619,34.668,43.945,27.832,25.879,0.0,0
1582221697.623,26.855,36.621,28.809,36.621,0.0,0
1582221697.627,25.391,34.668,27.832,28.809,0.0,0
1582221697.631,19.043,38.574,23.926,12.207,0.0,0
1582221697.635,15.137,41.01600000000001,21.484,7.812,0.0,0
1582221697.639,18.555,41.992,17.578,15.137,0.0,0
1582221697.6420002,28.809,39.062,14.16,26.367,0.0,0
1582221697.646,30.762,33.203,13.672,4.395,0.0,0
1582221697.65,25.879,36.133,15.137,-2.441,0.0,0
1582221697.654,13.184,38.086,19.531,10.254,0.0,0
1582221697.658,16.113,31.738000000000003,20.508000000000006,11.719,0.0,0
1582221697.661,36.621,27.832,15.137,2.93,0.0,0
1582221697.665,40.039,11.23,13.184,0.0,0.0,0
1582221697.669,22.949,13.184,9.277,13.184,0.0,0
1582221697.673,17.09,39.062,5.859,9.277,0.0,0
1582221697.677,20.508000000000006,32.715,10.254,-1.465,0.0,0
1582221697.681,21.973000000000006,27.344,10.742,7.324,0.0,0
1582221697.685,16.602,29.297,8.301,30.762,0.0,0
1582221697.688,12.207,29.297,10.742,27.832,0.0,0
1582221697.6920002,9.277,31.738000000000003,12.695,6.348,0.0,0
1582221697.696,17.578,29.297,12.695,13.672,0.0,0
1582221697.7,22.461,27.344,14.16,33.203,0.0,0
1582221697.704,15.625,28.32,13.184,37.109,0.0,0
1582221697.706,16.602,25.391,13.672,33.691,0.0,0
1582221697.71,25.879,16.602,17.578,20.02,0.0,0
1582221697.714,24.414,20.996,15.625,20.02,0.0,0
1582221697.718,17.578,40.527,11.23,28.809,0.0,0
1582221697.722,18.066,38.086,13.184,35.645,0.0,0
1582221697.726,20.02,35.156,12.207,31.25,0.0,0
1582221697.73,18.555,39.062,10.254,20.508000000000006,0.0,0
1582221697.7329998,0.0,42.969,11.719,19.043,0.0,0
1582221697.7370002,1.953,43.457,14.648,18.555,0.0,0
1582221697.7410002,20.996,35.156,15.625,10.254,0.0,0
1582221697.745,20.02,32.227,16.113,7.812,0.0,0
1582221697.7489998,6.348,35.156,18.066,7.812,0.0,0
1582221697.75,-2.93,29.297,16.113,14.16,0.0,0
1582221697.754,0.0,23.926,17.09,14.648,0.0,0
1582221697.758,6.348,27.344,20.508000000000006,8.789,0.0,0
1582221697.762,6.348,26.367,21.973000000000006,7.812,0.0,0
1582221697.766,4.883,26.367,20.508000000000006,12.695,0.0,0
1582221697.77,14.648,32.715,17.09,16.113,0.0,0
1582221697.774,20.996,34.668,13.184,10.254,0.0,0
1582221697.7770002,12.695,23.438,11.719,12.207,0.0,0
1582221697.781,0.977,26.855,13.184,14.648,0.0,0
1582221697.785,4.883,37.598,9.766,19.531,0.0,0
1582221697.789,12.207,36.133,9.766,16.602,0.0,0
1582221697.793,3.418,29.785,15.137,9.766,0.0,0
1582221697.811,-7.812,29.785,12.695,15.137,0.0,0
1582221697.815,-5.371,28.32,10.254,24.902,0.0,0
1582221697.819,-9.766,30.762,11.719,14.648,0.0,0
1582221697.823,-3.906,31.738000000000003,15.137,13.184,0.0,0
1582221697.827,10.742,23.438,20.508000000000006,23.926,0.0,0
1582221697.831,10.742,26.367,20.02,25.879,0.0,0
1582221697.835,4.883,33.203,20.02,15.137,0.0,0
1582221697.8379998,1.953,43.945,18.555,4.395,0.0,0
1582221697.842,-0.488,43.457,19.043,14.16,0.0,0
1582221697.846,0.0,35.645,22.461,16.113,0.0,0
1582221697.85,-0.488,32.715,22.461,11.23,0.0,0
1582221697.854,7.812,34.18,22.461,9.277,0.0,0
1582221697.856,11.23,38.574,24.414,8.301,0.0,0
1582221697.86,2.93,42.48,23.438,18.066,0.0,0
1582221697.8639998,4.883,49.805,22.949,24.414,0.0,0
1582221697.8679998,12.207,42.48,25.879,19.531,0.0,0
1582221697.8720002,14.16,42.48,26.367,14.16,0.0,0
1582221697.8760002,0.977,45.898,25.879,10.254,0.0,0
1582221697.88,-1.465,41.01600000000001,24.414,24.414,0.0,0
1582221697.883,8.301,37.109,26.855,14.648,0.0,0
1582221697.887,5.371,36.621,30.273000000000003,0.0,0.0,0
1582221697.891,-0.488,33.691,29.297,4.883,0.0,0
1582221697.895,5.371,35.645,31.738000000000003,17.09,0.0,0
1582221697.899,-4.395,38.574,34.668,22.949,0.0,0
1582221697.901,2.93,29.785,33.691,19.531,0.0,0
1582221697.905,12.207,34.18,33.691,9.277,0.0,0
1582221697.909,-5.371,55.176,32.715,9.766,0.0,0
1582221697.913,5.371,59.082,31.738000000000003,18.066,0.0,0
1582221697.917,15.625,48.828,29.785,1.465,0.0,0
1582221697.921,10.254,46.875,28.809,-4.395,0.0,0
1582221697.925,2.441,44.922,29.785,8.301,0.0,0
1582221697.928,2.441,33.691,26.855,6.348,0.0,0
1582221697.9320002,13.672,29.297,23.926,-11.23,0.0,0
1582221697.936,9.766,35.156,24.902,-10.742,0.0,0
1582221697.94,-3.906,41.504,25.879,6.836,0.0,0
1582221697.944,-8.301,36.621,25.391,16.113,0.0,0
1582221697.946,-0.977,32.227,24.414,6.836,0.0,0
1582221697.95,15.137,37.109,22.949,-4.395,0.0,0
1582221697.954,7.812,37.598,22.949,5.859,0.0,0
1582221697.958,1.953,33.691,23.926,17.578,0.0,0
1582221697.962,9.277,28.809,24.414,6.836,0.0,0
1582221697.966,8.789,31.25,24.414,-1.953,0.0,0
1582221697.97,1.465,31.738000000000003,25.391,0.977,0.0,0
1582221697.9729998,1.465,39.062,27.832,14.648,0.0,0
1582221697.9770002,8.789,33.203,26.367,18.066,0.0,0
1582221697.981,7.812,25.879,24.902,7.324,0.0,0
1582221697.985,-2.93,38.574,24.414,8.789,0.0,0
1582221697.9889998,4.883,41.992,25.391,20.508000000000006,0.0,0
1582221697.9910002,11.719,36.621,25.879,18.066,0.0,0
1582221697.995,5.859,28.809,26.367,4.883,0.0,0
1582221697.9989998,10.254,33.203,29.297,4.395,0.0,0
1582221698.0029998,10.254,42.48,27.832,17.09,0.0,0
1582221698.0070002,4.883,47.852,25.391,14.648,0.0,0
1582221698.0110002,6.348,48.34,24.902,3.418,0.0,0
1582221698.015,18.066,43.457,25.391,0.488,0.0,0
1582221698.018,9.277,42.48,27.832,10.254,0.0,0
1582221698.022,-1.953,34.18,27.832,2.441,0.0,0
1582221698.026,10.254,22.949,23.438,-9.277,0.0,0
1582221698.03,7.812,32.227,24.902,-3.906,0.0,0
1582221698.034,-3.418,49.805,25.879,-0.488,0.0,0
1582221698.036,1.953,39.551,24.902,8.301,0.0,0
1582221698.04,12.207,27.344,24.902,5.859,0.0,0
1582221698.044,14.648,46.387,21.973000000000006,-8.301,0.0,0
1582221698.048,16.602,50.78100000000001,23.926,-0.977,0.0,0
1582221698.052,6.348,48.828,24.414,9.277,0.0,0
1582221698.056,3.418,50.78100000000001,20.02,12.207,0.0,0
1582221698.06,13.184,40.527,19.531,8.789,0.0,0
1582221698.063,18.066,31.25,23.438,2.93,0.0,0
1582221698.0670002,8.789,39.062,25.391,8.789,0.0,0
1582221698.071,0.0,40.527,25.391,12.695,0.0,0
1582221698.075,-4.883,35.156,24.902,9.277,0.0,0
1582221698.079,1.953,35.156,23.926,0.0,0.0,0
1582221698.081,5.859,31.25,25.391,2.441,0.0,0
1582221698.085,2.441,31.738000000000003,24.414,11.23,0.0,0
1582221698.089,13.184,39.551,22.949,4.395,0.0,0
1582221698.093,16.113,41.992,24.902,-3.418,0.0,0
1582221698.097,13.672,36.621,26.367,-1.953,0.0,0
1582221698.101,15.137,20.02,27.832,9.277,0.0,0
1582221698.105,4.395,29.785,30.762,15.137,0.0,0
1582221698.1079998,-0.977,45.41,28.809,-4.395,0.0,0
1582221698.1120002,0.977,36.621,25.879,-4.395,0.0,0
1582221698.1160002,0.0,37.109,25.391,9.766,0.0,0
1582221698.12,10.254,40.039,24.414,8.789,0.0,0
1582221698.1239998,0.0,35.156,23.926,0.488,0.0,0
1582221698.141,-7.812,26.855,21.973000000000006,-11.719,0.0,0
1582221698.145,-6.836,27.832,22.461,-2.93,0.0,0
1582221698.149,-10.742,29.297,24.902,3.906,0.0,0
1582221698.153,-6.348,37.598,21.973000000000006,-7.324,0.0,0
1582221698.157,2.93,29.297,20.508000000000006,-12.695,0.0,0
1582221698.161,10.254,22.949,22.949,-7.324,0.0,0
1582221698.165,3.906,36.133,19.043,2.93,0.0,0
1582221698.168,1.465,23.926,17.09,-2.441,0.0,0
1582221698.1720002,11.23,31.25,19.531,-12.695,0.0,0
1582221698.176,9.277,42.969,20.02,-3.418,0.0,0
1582221698.18,-1.465,32.227,20.508000000000006,7.812,0.0,0
1582221698.184,-0.488,28.809,21.973000000000006,11.719,0.0,0
1582221698.186,14.648,32.227,23.926,1.465,0.0,0
1582221698.19,8.301,33.691,23.926,-5.371,0.0,0
1582221698.194,0.977,38.574,21.973000000000006,4.883,0.0,0
1582221698.198,5.371,36.133,20.996,5.859,0.0,0
1582221698.202,5.371,30.762,23.438,2.93,0.0,0
1582221698.206,2.441,36.133,23.926,-1.465,0.0,0
1582221698.21,0.488,37.598,22.461,-4.883,0.0,0
1582221698.2129998,-3.906,35.645,24.902,1.953,0.0,0
1582221698.217,-6.836,29.785,25.879,-4.883,0.0,0
1582221698.221,-0.977,32.227,24.414,-8.789,0.0,0
1582221698.225,-0.488,45.41,23.438,-9.766,0.0,0
1582221698.229,-2.93,35.156,25.391,-3.906,0.0,0
1582221698.23,-3.906,31.25,25.391,9.277,0.0,0
1582221698.234,8.301,39.062,24.414,-5.371,0.0,0
1582221698.238,13.672,49.316,23.926,-7.812,0.0,0
1582221698.242,2.441,37.598,25.391,5.859,0.0,0
1582221698.246,-2.93,32.715,27.832,12.207,0.0,0
1582221698.25,7.812,41.992,25.391,3.906,0.0,0
1582221698.254,11.719,41.504,23.438,-5.859,0.0,0
1582221698.2570002,6.348,38.574,24.414,-1.953,0.0,0
1582221698.2610002,2.441,30.273000000000003,25.391,-2.93,0.0,0
1582221698.265,3.418,31.738000000000003,26.367,-6.348,0.0,0
1582221698.269,6.836,49.805,25.391,-4.395,0.0,0
1582221698.2729998,5.859,41.504,23.926,2.441,0.0,0
1582221698.276,0.977,37.109,24.902,13.184,0.0,0
1582221698.28,-5.859,48.828,22.949,9.277,0.0,0
1582221698.284,-8.301,46.387,22.949,-9.766,0.0,0
1582221698.288,0.0,47.363,25.391,-7.812,0.0,0
1582221698.292,8.301,43.945,28.32,6.836,0.0,0
1582221698.296,11.719,43.457,28.32,10.254,0.0,0
1582221698.3,13.184,41.01600000000001,26.855,-1.465,0.0,0
1582221698.303,11.23,37.598,28.32,-6.348,0.0,0
1582221698.3070002,2.93,41.01600000000001,24.902,4.395,0.0,0
1582221698.311,-6.836,38.574,22.461,11.23,0.0,0
1582221698.315,0.0,28.32,23.438,2.441,0.0,0
1582221698.319,12.207,31.738000000000003,24.902,-7.324,0.0,0
1582221698.321,1.953,40.039,24.414,4.395,0.0,0
1582221698.325,-3.418,49.316,24.414,18.555,0.0,0
1582221698.329,1.953,50.293,26.367,5.371,0.0,0
1582221698.333,6.348,41.504,26.855,-9.277,0.0,0
1582221698.337,4.883,34.18,26.855,0.0,0.0,0
1582221698.341,4.395,32.715,27.832,13.672,0.0,0
1582221698.345,2.441,41.992,27.344,14.648,0.0,0
1582221698.3479998,2.93,43.945,24.902,4.883,0.0,0
1582221698.3520002,5.371,35.156,20.508000000000006,0.488,0.0,0
1582221698.356,-5.371,31.25,20.996,-4.395,0.0,0
1582221698.36,-1.465,36.133,22.461,-0.977,0.0,0
1582221698.3639998,14.648,43.945,21.484,-4.883,0.0,0
1582221698.365,13.184,48.34,22.949,-4.395,0.0,0
1582221698.369,7.812,41.504,26.367,12.695,0.0,0
1582221698.373,7.324,37.598,26.855,14.648,0.0,0
1582221698.377,2.441,40.527,24.902,0.977,0.0,0
1582221698.381,-4.883,42.48,26.367,-3.418,0.0,0
1582221698.385,-4.883,45.898,28.32,9.277,0.0,0
1582221698.389,-0.977,35.156,27.832,18.066,0.0,0
1582221698.3920002,2.441,29.297,27.832,8.301,0.0,0
1582221698.396,5.371,38.086,28.809,-1.953,0.0,0
1582221698.4,-7.324,37.598,29.785,2.93,0.0,0
1582221698.404,-4.883,30.762,28.809,12.207,0.0,0
1582221698.408,10.742,42.48,29.297,16.113,0.0,0
1582221698.41,16.113,42.48,28.809,5.859,0.0,0
1582221698.414,9.277,40.527,26.367,0.488,0.0,0
1582221698.418,5.859,45.41,27.344,11.23,0.0,0
1582221698.4220002,6.836,42.969,26.367,15.625,0.0,0
1582221698.426,6.836,43.457,24.902,10.254,0.0,0
1582221698.43,8.301,36.621,24.902,2.441,0.0,0
1582221698.434,4.883,32.715,25.879,7.812,0.0,0
1582221698.437,2.93,29.785,26.367,12.695,0.0,0
1582221698.441,12.695,37.598,28.809,7.324,0.0,0
1582221698.445,8.301,44.434,30.273000000000003,5.371,0.0,0
1582221698.449,-1.465,44.922,27.344,7.324,0.0,0
1582221698.4529998,1.953,35.156,24.902,18.066,0.0,0
1582221698.455,0.0,36.621,21.973000000000006,20.02,0.0,0
1582221698.459,9.766,45.898,23.438,3.418,0.0,0
1582221698.4629998,11.719,38.086,26.367,1.953,0.0,0
1582221698.467,2.441,39.551,23.926,7.812,0.0,0
1582221698.471,13.184,43.457,24.414,10.254,0.0,0
1582221698.475,17.578,29.297,23.438,4.395,0.0,0
1582221698.479,16.602,29.785,21.973000000000006,-1.465,0.0,0
1582221698.482,12.207,40.039,20.02,1.465,0.0,0
1582221698.486,6.348,36.621,18.066,7.324,0.0,0
1582221698.49,12.695,34.18,22.461,0.977,0.0,0
1582221698.494,8.301,36.133,24.902,-5.859,0.0,0
1582221698.498,-1.953,40.039,23.438,4.883,0.0,0
1582221698.5,0.977,34.668,25.879,16.113,0.0,0
1582221698.504,-3.906,38.574,26.367,5.371,0.0,0
1582221698.508,-3.418,40.039,22.949,-3.906,0.0,0
1582221698.512,-3.418,41.01600000000001,21.973000000000006,6.836,0.0,0
1582221698.516,-13.672,37.598,23.926,11.719,0.0,0
1582221698.52,-6.348,34.18,21.973000000000006,11.23,0.0,0
1582221698.524,2.93,36.621,21.484,5.859,0.0,0
1582221698.5270002,-6.348,35.645,23.926,1.465,0.0,0
1582221698.531,-9.766,33.691,25.391,10.742,0.0,0
1582221698.535,-1.465,30.273000000000003,23.438,9.277,0.0,0
1582221698.539,-1.953,40.527,22.949,0.488,0.0,0
1582221698.543,-0.977,51.27,22.461,-1.465,0.0,0
1582221698.56,-3.906,45.898,21.973000000000006,6.836,0.0,0
1582221698.564,-11.719,43.945,21.484,10.254,0.0,0
1582221698.5679998,-4.395,27.832,21.484,5.859,0.0,0
1582221698.572,0.977,27.344,22.949,5.859,0.0,0
1582221698.576,-5.859,52.734,23.438,3.418,0.0,0
1582221698.58,-6.836,46.387,21.973000000000006,0.0,0.0,1
1582221698.584,-8.789,35.645,20.02,-4.883,0.0,0
1582221698.587,-10.742,37.109,20.996,-13.672,0.0,0
1582221698.591,-14.648,30.273000000000003,20.508000000000006,-8.301,0.0,0
1582221698.595,-16.602,26.367,20.508000000000006,1.953,0.0,0
1582221698.599,-11.719,36.621,19.043,-9.277,0.0,0
1582221698.603,-1.953,42.48,17.578,-24.902,0.0,0
1582221698.605,3.906,44.434,17.578,-17.578,0.0,0
1582221698.609,2.441,37.109,20.02,0.0,0.0,0
1582221698.613,6.836,27.832,23.438,7.324,0.0,0
1582221698.617,10.742,29.297,22.949,-0.488,0.0,0
1582221698.621,9.766,37.109,21.484,-3.418,0.0,0
1582221698.625,1.953,45.41,22.461,12.695,0.0,0
1582221698.629,-7.324,33.691,22.949,27.832,0.0,0
1582221698.6320002,-4.883,32.227,20.996,19.043,0.0,0
1582221698.6360002,-7.324,39.551,22.949,9.766,0.0,0
1582221698.64,-13.184,38.086,26.855,18.555,0.0,0
1582221698.644,-17.09,39.551,26.855,24.902,0.0,0
1582221698.6479998,-11.23,30.762,26.855,15.625,0.0,0
1582221698.65,0.0,31.738000000000003,26.367,2.93,0.0,0
1582221698.654,-2.93,39.062,28.809,7.812,0.0,0
1582221698.658,-13.184,36.621,30.273000000000003,15.625,0.0,0
1582221698.6620002,-7.324,36.621,28.32,7.812,0.0,0
1582221698.666,1.953,34.18,26.855,-6.348,0.0,0
1582221698.67,-0.977,30.762,24.902,-2.441,0.0,0
1582221698.674,-6.836,34.18,24.414,5.859,0.0,0
1582221698.677,-10.254,41.992,23.926,0.488,0.0,0
1582221698.681,-9.277,41.01600000000001,21.973000000000006,-7.812,0.0,0
1582221698.685,-2.441,39.062,23.438,-3.906,0.0,0
1582221698.689,3.418,46.387,24.414,17.09,0.0,0
1582221698.6929998,1.953,35.156,23.926,19.531,0.0,0
1582221698.695,0.977,29.297,24.902,3.906,0.0,0
1582221698.699,0.977,40.039,23.926,4.395,0.0,0
1582221698.7029998,3.906,44.434,22.461,12.207,0.0,0
1582221698.707,7.324,31.25,23.926,13.184,0.0,0
1582221698.711,5.371,37.598,22.461,10.742,0.0,0
1582221698.715,3.418,41.01600000000001,20.996,4.395,0.0,0
1582221698.719,8.789,34.18,21.973000000000006,18.066,0.0,0
1582221698.722,7.812,46.387,24.902,25.391,0.0,0
1582221698.726,8.301,47.363,20.996,15.625,0.0,0
1582221698.73,10.254,42.969,20.508000000000006,9.277,0.0,0
1582221698.734,11.719,41.504,24.902,11.719,0.0,0
1582221698.738,10.254,41.992,22.461,26.367,0.0,0
1582221698.74,8.301,30.762,20.996,25.879,0.0,0
1582221698.744,10.254,32.227,22.461,10.254,0.0,0
1582221698.748,14.16,46.387,22.461,12.207,0.0,0
1582221698.752,11.23,44.922,20.02,26.367,0.0,0
1582221698.756,12.207,30.273000000000003,20.508000000000006,30.273000000000003,0.0,0
1582221698.76,15.625,34.18,20.508000000000006,17.578,0.0,0
1582221698.764,12.695,39.551,22.949,8.789,0.0,0
1582221698.7670002,6.348,36.133,23.926,24.414,0.0,0
1582221698.771,8.301,40.527,23.438,38.574,0.0,0
1582221698.775,9.277,37.109,26.367,32.715,0.0,0
1582221698.779,11.719,37.598,26.855,19.531,0.0,0
1582221698.783,17.09,44.434,24.414,28.32,0.0,0
1582221698.785,11.719,38.574,23.926,40.039,0.0,0
1582221698.789,13.184,32.715,26.855,34.668,0.0,0
1582221698.793,18.555,37.598,29.297,27.344,0.0,0
1582221698.7970002,15.625,38.086,29.297,22.949,0.0,0
1582221698.801,10.254,35.645,28.32,29.297,0.0,0
1582221698.805,12.207,40.039,27.344,36.621,0.0,0
1582221698.809,15.625,45.41,28.32,24.414,0.0,0
1582221698.812,18.066,31.738000000000003,30.762,17.578,0.0,0
1582221698.816,18.066,16.602,33.203,23.438,0.0,0
1582221698.82,11.719,26.855,29.297,25.391,0.0,0
1582221698.824,11.719,32.715,23.438,21.484,0.0,0
1582221698.8279998,10.254,36.133,24.902,12.695,0.0,0
1582221698.846,2.93,43.457,26.367,15.625,0.0,0
1582221698.85,8.301,44.922,24.902,26.367,0.0,0
1582221698.854,11.719,35.156,24.414,24.414,0.0,0
1582221698.8579998,12.695,36.133,26.367,18.555,0.0,0
1582221698.8620002,12.695,34.18,27.344,20.508000000000006,0.0,0
1582221698.8660002,7.324,30.762,27.344,35.645,0.0,0
1582221698.87,11.23,43.945,30.273000000000003,29.785,0.0,0
1582221698.873,17.09,37.598,29.297,7.812,0.0,0
1582221698.877,12.207,29.297,25.879,13.672,0.0,0
1582221698.881,0.977,35.645,28.32,25.879,0.0,0
1582221698.885,-6.836,37.598,29.297,21.973000000000006,0.0,0
1582221698.889,-2.441,28.809,28.32,0.977,0.0,0
1582221698.8760002,4.395,22.461,26.855,-4.883,0.0,0
1582221698.88,0.977,36.621,23.926,10.742,0.0,0
1582221698.8839998,4.883,39.551,26.367,20.02,0.0,0
1582221698.8879998,10.742,39.062,28.32,10.254,0.0,0
1582221698.8920002,13.672,37.109,26.367,-3.906,0.0,0
1582221698.896,11.719,35.645,25.879,5.859,0.0,0
1582221698.9,7.812,39.062,23.926,17.09,0.0,0
1582221698.903,11.23,40.039,21.484,9.766,0.0,0
1582221698.907,18.066,33.691,21.973000000000006,10.254,0.0,0
1582221698.911,18.555,32.227,22.949,11.23,0.0,0
1582221698.915,8.301,31.738000000000003,23.438,15.137,0.0,0
1582221698.919,8.789,24.414,25.391,19.043,0.0,0
1582221698.936,5.371,33.203,26.367,7.324,0.0,0
1582221698.94,0.488,31.738000000000003,24.902,4.395,0.0,0
1582221698.944,-1.953,27.344,24.902,12.207,0.0,0
1582221698.948,-7.324,35.156,24.902,24.902,0.0,0
1582221698.952,0.977,39.551,24.414,16.602,0.0,0
1582221698.956,-0.488,38.574,24.414,-1.465,0.0,0
1582221698.96,-9.277,32.715,26.367,13.184,0.0,0
1582221698.9629998,-10.742,37.109,25.879,17.09,0.0,0
1582221698.967,-6.836,34.18,25.391,5.859,0.0,0
1582221698.971,0.977,28.809,24.414,0.488,0.0,0
1582221698.975,-0.488,34.668,20.02,4.395,0.0,0
1582221698.979,-6.348,42.969,17.09,12.207,0.0,0
1582221698.981,2.93,27.344,20.02,10.742,0.0,0
1582221698.985,9.277,22.461,22.461,1.953,0.0,0
1582221698.9889998,2.441,48.828,21.484,3.418,0.0,0
1582221698.9929998,0.0,45.41,20.02,10.254,0.0,0
1582221698.9970002,5.859,39.062,20.02,16.602,0.0,0
1582221699.0010002,7.324,40.527,21.973000000000006,10.254,0.0,0
1582221699.005,4.883,42.48,24.414,3.906,0.0,0
1582221699.008,-1.953,41.504,23.438,8.301,0.0,0
1582221699.012,-6.348,41.504,22.949,13.672,0.0,0
1582221699.016,0.488,41.01600000000001,22.949,6.836,0.0,0
1582221699.02,6.836,32.715,23.926,-8.301,0.0,0
1582221699.024,4.395,30.762,24.902,0.0,0.0,0
1582221699.026,-2.93,36.133,24.902,16.113,0.0,0
1582221699.03,-5.859,42.48,23.926,5.371,0.0,0
1582221699.034,-5.859,29.785,20.02,-10.254,0.0,0
1582221699.038,-5.371,28.809,21.973000000000006,-10.254,0.0,0
1582221699.042,-5.859,44.922,22.461,-4.395,0.0,0
1582221699.046,-1.465,36.621,20.996,6.348,0.0,0
1582221699.05,1.465,38.574,20.996,-3.418,0.0,0
1582221699.053,-7.812,40.039,24.902,-6.836,0.0,0
1582221699.0570002,-15.137,35.645,30.273000000000003,-2.93,0.0,0
1582221699.061,-18.555,28.32,31.25,-5.371,0.0,0
1582221699.065,-16.602,27.832,30.762,-9.277,0.0,0
1582221699.069,-8.789,38.086,28.809,-10.254,0.0,0
1582221699.071,-12.695,29.785,26.855,-0.977,0.0,0
1582221699.075,-11.23,30.273000000000003,24.902,3.418,0.0,0
1582221699.079,6.348,38.086,24.414,3.906,0.0,0
1582221699.083,4.395,34.668,27.832,-0.488,0.0,0
1582221699.087,1.465,34.668,26.367,0.977,0.0,0
1582221699.091,1.465,30.762,25.879,11.23,0.0,0
1582221699.095,3.906,29.297,27.344,7.324,0.0,0
1582221699.0979998,8.301,29.297,23.926,0.0,0.0,0
1582221699.1020002,0.977,32.715,20.996,4.883,0.0,0
1582221699.106,-4.395,41.992,20.996,20.02,0.0,0
1582221699.11,-4.395,38.574,21.973000000000006,23.926,0.0,0
1582221699.1139998,-1.465,28.809,21.484,8.301,0.0,0
1582221699.1160002,-2.441,29.297,20.996,6.836,0.0,0
1582221699.12,-2.93,31.738000000000003,21.484,16.113,0.0,0
1582221699.1239998,-4.883,32.227,20.996,15.137,0.0,0
1582221699.1279998,-3.418,28.809,20.02,4.883,0.0,0
1582221699.1320002,-7.812,29.297,21.484,-7.324,0.0,0
1582221699.1360002,-15.625,29.297,20.508000000000006,0.488,0.0,0
1582221699.14,-8.789,18.555,19.043,9.766,0.0,0
1582221699.143,0.977,23.926,22.461,7.812,0.0,0
1582221699.147,4.395,40.039,25.391,-0.488,0.0,0
1582221699.151,-4.883,40.527,24.414,1.465,0.0,0
1582221699.155,-1.953,37.598,25.391,13.184,0.0,0
1582221699.159,5.859,40.527,25.879,12.207,0.0,0
1582221699.161,9.766,39.062,24.902,7.324,0.0,0
1582221699.165,7.324,37.598,26.367,15.137,0.0,0
1582221699.169,3.418,34.18,24.902,23.926,0.0,0
1582221699.173,4.395,33.691,21.484,24.902,0.0,0
1582221699.177,5.371,41.01600000000001,20.02,10.742,0.0,0
1582221699.181,5.371,35.645,21.484,3.906,0.0,0
1582221699.185,-2.93,32.227,22.949,10.254,0.0,0
1582221699.188,-1.953,32.227,22.461,5.859,0.0,0
1582221699.1920002,2.441,30.273000000000003,19.531,-4.395,0.0,0
1582221699.196,-2.93,52.246,16.602,-6.836,0.0,0
1582221699.2,-8.301,55.176,19.043,0.0,0.0,0
1582221699.204,-8.789,46.387,20.02,5.859,0.0,0
1582221699.206,-3.906,44.922,19.043,3.418,0.0,0
1582221699.21,3.906,42.969,21.484,3.906,0.0,0
1582221699.214,-2.93,36.621,24.414,4.395,0.0,0
1582221699.218,-4.883,32.715,25.391,11.719,0.0,0
1582221699.222,4.883,35.645,25.879,16.113,0.0,0
1582221699.226,4.395,41.992,24.902,6.348,0.0,0
1582221699.23,0.0,32.715,25.391,10.742,0.0,0
1582221699.2329998,-6.348,21.973000000000006,24.902,21.484,0.0,0
1582221699.2370002,-5.371,42.969,23.438,18.555,0.0,0
1582221699.2410002,1.465,47.363,24.414,4.883,0.0,0
1582221699.245,0.977,31.738000000000003,26.367,0.0,0.0,0
1582221699.2489998,-1.465,41.504,26.367,10.742,0.0,0
1582221699.266,-3.418,47.852,24.902,17.578,0.0,0
1582221699.27,-2.441,40.039,24.902,6.348,0.0,0
1582221699.274,0.0,36.133,25.879,-1.953,0.0,0
1582221699.278,0.0,37.109,25.879,10.254,0.0,0
1582221699.282,0.0,37.598,25.391,22.461,0.0,0
1582221699.286,9.277,34.18,26.367,17.578,0.0,0
1582221699.29,13.672,30.762,22.949,7.812,0.0,0
1582221699.293,2.93,21.973000000000006,21.973000000000006,9.766,0.0,0
1582221699.2970002,-3.418,33.691,23.926,13.184,0.0,0
1582221699.301,-2.93,41.01600000000001,19.531,11.719,0.0,0
1582221699.305,0.0,37.109,21.484,6.348,0.0,0
1582221699.309,2.93,28.32,25.391,5.859,0.0,0
1582221699.311,-1.953,19.531,24.902,17.09,0.0,0
1582221699.315,-2.441,35.156,26.855,18.066,0.0,0
1582221699.319,1.465,44.434,27.832,11.719,0.0,0
1582221699.323,1.953,35.156,25.391,12.207,0.0,0
1582221699.327,-1.953,34.18,23.438,16.602,0.0,0
1582221699.331,-6.348,41.992,23.926,19.043,0.0,0
1582221699.335,-11.23,40.039,25.879,5.859,0.0,0
1582221699.3379998,-6.836,40.527,28.32,4.395,0.0,0
1582221699.342,-3.906,47.852,28.32,12.695,0.0,0
1582221699.346,-5.371,48.828,27.344,11.719,0.0,0
1582221699.35,-4.883,39.551,25.879,-1.953,0.0,0
1582221699.354,-4.395,34.18,24.902,-9.766,0.0,0
1582221699.356,-2.441,26.855,24.414,6.348,0.0,0
1582221699.36,0.488,29.297,24.902,18.066,0.0,0
1582221699.3639998,4.395,36.133,25.879,15.625,0.0,0
1582221699.3679998,7.812,21.484,24.414,3.906,0.0,0
1582221699.3720002,9.766,31.25,23.438,0.0,0.0,0
1582221699.3760002,8.789,43.457,21.973000000000006,9.766,0.0,0
1582221699.38,5.371,41.992,20.996,10.254,0.0,0
1582221699.383,1.953,43.457,20.02,2.93,0.0,0
1582221699.387,-2.441,39.551,22.461,-0.488,0.0,0
1582221699.391,-9.766,40.039,21.484,4.395,0.0,0
1582221699.395,-11.719,35.645,19.531,12.695,0.0,0
1582221699.399,-13.672,34.18,25.391,9.277,0.0,0
1582221699.4,-5.859,38.086,25.391,4.395,0.0,0
1582221699.404,-1.465,42.969,24.414,6.348,0.0,0
1582221699.408,-6.836,24.902,27.832,13.672,0.0,0
1582221699.4120002,-7.324,19.531,26.367,13.672,0.0,0
1582221699.416,-6.348,39.551,23.438,1.953,0.0,0
1582221699.42,-8.301,35.156,23.926,7.812,0.0,0
1582221699.424,-13.672,39.551,24.902,13.672,0.0,0
1582221699.427,-13.184,41.992,22.461,10.742,0.0,0
1582221699.431,-11.23,41.01600000000001,22.949,4.395,0.0,0
1582221699.435,-11.23,43.945,21.973000000000006,-1.953,0.0,0
1582221699.439,-11.23,38.574,20.508000000000006,13.672,0.0,0
1582221699.4429998,-7.812,34.668,20.508000000000006,12.695,0.0,0
1582221699.445,-8.789,34.18,24.414,-2.93,0.0,0
1582221699.449,-2.441,28.32,25.391,2.441,0.0,0
1582221699.4529998,0.977,30.762,25.391,13.184,0.0,0
1582221699.457,-6.836,32.227,27.344,17.09,0.0,0
1582221699.461,-3.906,35.645,26.367,7.324,0.0,0
1582221699.465,3.906,46.387,27.832,-0.977,0.0,0
1582221699.469,2.93,39.551,27.344,11.23,0.0,0
1582221699.472,1.953,42.969,23.926,17.578,0.0,0
1582221699.476,3.906,54.199,21.973000000000006,6.836,0.0,0
1582221699.48,9.277,50.78100000000001,20.508000000000006,-5.859,0.0,0
1582221699.484,11.23,47.852,20.02,-3.906,0.0,0
1582221699.488,7.812,42.48,20.508000000000006,12.207,0.0,0
1582221699.49,4.883,30.762,22.949,20.996,0.0,0
1582221699.494,1.465,38.574,24.414,14.648,0.0,0
1582221699.498,0.488,41.504,22.461,4.883,0.0,0
1582221699.502,-7.812,32.227,21.973000000000006,10.254,0.0,0
1582221699.506,-23.438,46.875,24.414,11.719,0.0,0
1582221699.51,-19.531,41.01600000000001,27.344,3.418,0.0,0
1582221699.514,-8.301,30.273000000000003,26.855,0.977,0.0,0
1582221699.5170002,-8.789,48.828,26.855,6.836,0.0,0
1582221699.521,-13.184,51.758,28.809,14.16,0.0,0
1582221699.525,-15.625,48.34,23.926,12.695,0.0,0
1582221699.529,-1.465,38.574,24.414,15.137,0.0,0
1582221699.533,2.93,32.227,28.32,21.973000000000006,0.0,0
1582221699.535,-7.324,41.504,25.879,16.113,0.0,0
1582221699.539,-5.859,43.945,25.391,15.137,0.0,0
1582221699.543,-6.836,39.062,26.855,17.09,0.0,0
1582221699.5470002,-5.859,38.574,26.367,14.16,0.0,0
1582221699.551,-3.906,42.969,26.367,19.043,0.0,0
1582221699.555,-2.441,47.852,23.926,20.02,0.0,0
1582221699.559,3.906,37.109,24.414,10.254,0.0,0
1582221699.562,0.488,34.18,24.902,6.836,0.0,0
1582221699.566,-4.883,51.27,21.973000000000006,16.113,0.0,0
1582221699.57,-0.977,51.27,22.949,27.344,0.0,0
1582221699.574,4.395,42.969,21.484,17.578,0.0,0
1582221699.5779998,10.254,45.898,19.531,4.395,0.0,0
1582221699.58,6.348,47.852,22.461,12.207,0.0,0
1582221699.584,1.953,44.434,21.484,18.066,0.0,0
1582221699.5879998,3.906,45.898,19.531,13.672,0.0,2
1582221699.592,5.371,40.039,19.531,-2.441,0.0,0
1582221699.596,1.465,41.504,16.113,-7.324,0.0,0
1582221699.6,-7.812,45.41,13.672,4.883,0.0,0
1582221699.604,-4.395,37.109,15.137,0.488,0.0,0
1582221699.607,-1.953,25.391,16.113,-5.371,0.0,0
1582221699.611,-11.23,21.484,19.043,-6.348,0.0,0
1582221699.615,-17.09,41.992,26.367,3.418,0.0,0
1582221699.619,-16.113,53.223,28.809,13.184,0.0,0
1582221699.623,-12.207,50.293,27.344,-1.465,0.0,0
1582221699.64,-10.254,41.992,28.32,-3.418,0.0,0
1582221699.644,-12.207,38.086,31.738000000000003,9.766,0.0,0
1582221699.6479998,-17.09,41.01600000000001,27.832,15.625,0.0,0
1582221699.6520002,-10.254,42.48,27.344,18.066,0.0,0
1582221699.656,-0.977,41.992,28.32,14.648,0.0,0
1582221699.66,-0.977,29.297,27.832,21.973000000000006,0.0,0
1582221699.664,1.953,27.832,30.273000000000003,32.227,0.0,0
1582221699.667,6.348,45.41,30.762,28.32,0.0,0
1582221699.671,9.277,46.875,32.227,20.508000000000006,0.0,0
1582221699.675,10.742,43.945,30.762,23.438,0.0,0
1582221699.679,2.93,39.551,29.785,27.344,0.0,0
1582221699.6829998,-1.953,38.086,29.785,14.16,0.0,0
1582221699.685,6.348,43.945,29.785,5.371,0.0,0
1582221699.689,2.441,44.922,27.832,6.348,0.0,0
1582221699.6929998,-14.16,38.574,23.438,8.789,0.0,0
1582221699.697,-15.137,29.785,20.508000000000006,4.883,0.0,0
1582221699.701,-0.488,27.832,19.043,-8.301,0.0,0
1582221699.705,3.418,27.344,15.137,-8.301,0.0,0
1582221699.709,-6.348,33.203,14.16,2.441,0.0,0
1582221699.712,-6.836,40.527,15.625,7.812,0.0,0
1582221699.716,-3.418,27.344,19.043,3.906,0.0,0
1582221699.72,-0.488,25.879,25.391,-5.859,0.0,0
1582221699.724,0.0,40.039,24.414,-1.953,0.0,0
1582221699.728,-2.441,37.598,26.367,13.672,0.0,0
1582221699.73,0.0,25.391,29.297,20.996,0.0,0
1582221699.734,0.977,31.25,24.902,9.277,0.0,0
1582221699.738,3.418,40.039,24.902,1.465,0.0,0
1582221699.742,4.883,34.18,27.344,15.137,0.0,0
1582221699.746,8.301,33.691,30.762,20.02,0.0,0
1582221699.75,17.578,38.086,33.203,15.137,0.0,0
1582221699.754,19.043,42.48,28.32,19.043,0.0,0
1582221699.7570002,6.836,46.875,25.879,24.902,0.0,0
1582221699.7610002,6.836,41.01600000000001,27.832,27.832,0.0,0
1582221699.765,16.113,35.645,28.809,14.648,0.0,0
1582221699.769,15.137,37.598,29.297,8.789,0.0,0
1582221699.7729998,18.066,23.926,31.25,26.367,0.0,0
1582221699.775,14.16,29.297,29.785,33.691,0.0,0
1582221699.779,11.719,51.758,27.832,22.949,0.0,0
1582221699.783,17.578,52.246,28.809,14.16,0.0,0
1582221699.7870002,15.625,37.109,30.762,21.973000000000006,0.0,0
1582221699.791,17.09,27.344,30.762,32.715,0.0,0
1582221699.795,19.043,46.387,27.344,29.785,0.0,0
1582221699.799,19.043,55.664,27.832,20.996,0.0,0
1582221699.802,17.09,49.316,26.855,23.926,0.0,0
1582221699.806,10.254,50.293,27.344,27.832,0.0,0
1582221699.81,12.207,42.969,27.832,23.438,0.0,0
1582221699.814,20.02,29.785,23.438,14.648,0.0,0
1582221699.8179998,19.043,36.133,23.926,9.766,0.0,0
1582221699.821,5.371,42.969,26.855,17.578,0.0,0
1582221699.825,0.488,45.41,26.367,21.484,0.0,0
1582221699.829,12.207,32.227,25.879,11.23,0.0,0
1582221699.833,16.602,33.691,27.344,3.418,0.0,0
1582221699.837,9.277,51.27,28.809,11.719,0.0,0
1582221699.841,5.859,50.78100000000001,27.344,26.855,0.0,0
1582221699.845,12.695,46.387,23.926,23.926,0.0,0
1582221699.8479998,10.742,40.527,23.438,6.348,0.0,0
1582221699.8520002,2.441,40.527,25.391,6.836,0.0,0
1582221699.856,1.465,38.574,28.32,25.391,0.0,0
1582221699.86,7.324,37.109,29.297,30.762,0.0,0
1582221699.8639998,9.277,31.25,29.297,16.113,0.0,0
1582221699.8660002,6.348,26.855,29.297,10.254,0.0,0
1582221699.87,6.836,37.598,26.855,25.391,0.0,0
1582221699.8739998,6.348,37.598,26.367,29.785,0.0,0
1582221699.8779998,11.23,36.621,27.832,17.578,0.0,0
1582221699.8820002,16.113,44.434,27.344,15.137,0.0,0
1582221699.8860002,11.23,45.41,28.32,29.297,0.0,0
1582221699.89,9.766,45.41,25.879,29.297,0.0,0
1582221699.893,12.695,48.828,25.391,17.09,0.0,0
1582221699.897,13.184,49.316,29.297,10.254,0.0,0
1582221699.901,10.742,37.598,27.832,12.207,0.0,0
1582221699.905,10.254,38.574,26.367,19.043,0.0,0
1582221699.909,13.672,32.227,27.344,18.066,0.0,0
1582221699.911,16.602,21.973000000000006,29.297,11.23,0.0,0
1582221699.915,15.625,33.203,28.32,11.23,0.0,0
1582221699.919,5.371,47.852,26.367,19.531,0.0,0
1582221699.923,8.789,48.34,26.855,18.555,0.0,0
1582221699.927,11.23,40.527,27.832,2.441,0.0,0
1582221699.931,6.836,41.992,27.344,0.0,0.0,0
1582221699.935,5.859,36.133,27.832,18.555,0.0,0
1582221699.938,5.859,34.668,29.785,20.508000000000006,0.0,0
1582221699.9420002,5.371,41.992,29.297,4.395,0.0,0
1582221699.946,7.324,35.645,27.344,2.441,0.0,0
1582221699.95,8.789,28.809,24.414,12.695,0.0,0
1582221699.954,0.0,34.18,21.484,14.648,0.0,0
1582221699.955,-2.93,37.598,21.484,5.371,0.0,0
1582221699.959,9.277,42.969,21.484,2.93,0.0,0
1582221699.9629998,8.301,46.875,20.996,4.395,0.0,0
1582221699.967,0.488,38.574,20.996,8.789,0.0,0
1582221699.971,4.883,35.645,21.484,13.184,0.0,0
1582221699.975,10.742,34.668,20.508000000000006,5.859,0.0,0
1582221699.979,6.348,32.715,21.484,3.906,0.0,0
1582221699.982,-0.488,40.527,20.996,10.254,0.0,0
1582221699.986,-1.465,41.504,20.02,15.625,0.0,0
1582221699.99,4.395,36.621,23.926,13.672,0.0,0
1582221699.994,13.184,40.527,24.902,9.277,0.0,0
1582221699.998,4.395,46.875,25.391,13.672,0.0,0
1582221700.016,-5.859,45.898,24.902,13.672,0.0,0
1582221700.02,5.371,26.855,26.367,10.254,0.0,0
1582221700.024,9.766,30.273000000000003,27.832,5.859,0.0,0
1582221700.028,3.418,49.316,23.926,10.254,0.0,0
1582221700.032,0.488,49.316,22.461,13.184,0.0,0
1582221700.036,4.395,48.34,21.484,4.395,0.0,0
1582221700.04,7.324,40.527,24.414,-0.488,0.0,0
1582221700.043,3.418,34.18,29.785,10.742,0.0,0
1582221700.0470002,6.836,45.898,29.297,29.297,0.0,0
1582221700.051,1.953,54.199,22.949,17.578,0.0,0
1582221700.055,-7.812,47.852,22.949,-7.812,0.0,0
1582221700.059,-10.742,41.992,24.414,-5.371,0.0,0
1582221700.061,-16.602,42.48,23.438,6.836,0.0,0
1582221700.065,-17.09,39.062,23.926,6.836,0.0,0
1582221700.069,-9.277,36.133,24.902,-1.465,0.0,0
1582221700.073,-2.441,38.086,26.367,0.0,0.0,0
1582221700.077,0.977,33.203,26.855,17.578,0.0,0
1582221700.081,1.465,34.18,25.879,22.949,0.0,0
1582221700.085,3.906,38.574,25.391,14.16,0.0,0
1582221700.0879998,-0.488,43.945,25.391,3.906,0.0,0
1582221700.092,-5.371,46.387,26.367,8.789,0.0,0
1582221700.096,-3.418,35.156,27.344,22.949,0.0,0
1582221700.1,-2.93,33.203,24.414,13.184,0.0,0
1582221700.104,3.418,44.434,22.949,0.977,0.0,0
1582221700.106,2.93,43.457,22.461,5.859,0.0,0
1582221700.11,1.953,44.922,23.438,16.602,0.0,0
1582221700.1139998,1.465,32.715,24.902,15.625,0.0,0
1582221700.1179998,4.883,30.762,22.949,-0.977,0.0,0
1582221700.1220002,7.324,30.273000000000003,21.973000000000006,-1.465,0.0,0
1582221700.1260002,8.301,27.832,23.438,13.184,0.0,0
1582221700.13,1.953,48.828,24.902,10.254,0.0,0
1582221700.133,2.441,48.34,26.367,3.418,0.0,0
1582221700.137,8.301,46.875,26.367,6.348,0.0,0
1582221700.141,3.906,42.969,24.902,13.672,0.0,0
1582221700.145,-5.859,41.01600000000001,24.902,14.16,0.0,0
1582221700.149,-1.465,42.969,25.879,7.324,0.0,0
1582221700.151,2.441,38.086,24.902,4.883,0.0,0
1582221700.155,-5.859,36.621,25.879,12.207,0.0,0
1582221700.159,-14.16,42.48,29.785,20.508000000000006,0.0,0
1582221700.163,-7.812,36.621,30.273000000000003,13.184,0.0,0
1582221700.167,9.277,17.578,28.809,4.883,0.0,0
1582221700.171,6.348,28.32,27.344,4.395,0.0,0
1582221700.175,-7.324,48.34,26.367,10.742,0.0,0
1582221700.178,-2.93,37.109,26.367,15.625,0.0,0
1582221700.1820002,2.441,41.504,26.367,-5.371,0.0,0
1582221700.186,-3.906,52.246,23.438,-18.066,0.0,0
1582221700.19,-8.301,43.945,21.973000000000006,2.441,0.0,0
1582221700.194,-6.836,40.527,20.996,11.23,0.0,0
1582221700.196,0.488,44.922,22.461,3.906,0.0,0
1582221700.2,5.859,43.457,24.414,-3.906,0.0,0
1582221700.204,0.488,42.969,23.438,8.789,0.0,0
1582221700.208,1.465,36.133,22.461,22.949,0.0,0
1582221700.212,5.859,29.785,24.414,7.812,0.0,0
1582221700.216,4.883,39.551,24.414,-1.465,0.0,0
1582221700.22,-2.441,44.434,20.996,3.418,0.0,0
1582221700.2229998,-9.766,44.434,19.531,3.906,0.0,0
1582221700.2270002,-6.836,41.01600000000001,19.531,1.953,0.0,0
1582221700.231,-9.277,30.762,21.484,-4.395,0.0,0
1582221700.235,-13.184,37.109,23.926,-0.977,0.0,0
1582221700.2389998,-12.695,38.086,22.949,6.348,0.0,0
1582221700.2410002,-8.789,41.992,19.531,4.395,0.0,0
1582221700.245,-0.977,29.297,20.508000000000006,-1.953,0.0,0
1582221700.2489998,-0.488,19.531,20.996,-1.953,0.0,0
1582221700.2529998,-9.277,36.133,20.02,9.766,0.0,0
1582221700.2570002,-14.16,40.527,21.484,7.812,0.0,0
1582221700.2610002,-8.301,47.363,20.996,-0.488,0.0,0
1582221700.265,-6.836,45.898,20.02,-1.465,0.0,0
1582221700.268,-11.719,39.551,22.461,-2.441,0.0,0
1582221700.272,-9.766,42.48,20.508000000000006,-0.977,0.0,0
1582221700.276,-1.953,36.621,21.484,-1.953,0.0,0
1582221700.28,4.883,37.598,22.949,-5.859,0.0,0
1582221700.284,-3.906,40.527,20.996,-2.441,0.0,0
1582221700.286,-7.812,43.945,22.461,2.93,0.0,0
1582221700.29,-1.953,39.551,24.414,3.418,0.0,0
1582221700.294,0.488,26.855,22.949,-3.906,0.0,0
1582221700.298,-1.465,28.32,21.973000000000006,-1.953,0.0,0
1582221700.302,-12.207,36.133,23.926,14.16,0.0,0
1582221700.306,-6.836,38.086,25.879,19.043,0.0,0
1582221700.31,0.488,38.574,23.926,8.789,0.0,0
1582221700.313,-0.977,39.062,20.02,1.953,0.0,0
1582221700.3170002,1.465,36.133,23.438,11.719,0.0,0
1582221700.321,5.371,27.832,23.926,21.973000000000006,0.0,0
1582221700.325,7.812,27.832,20.996,10.254,0.0,0
1582221700.329,3.418,38.574,19.043,2.441,0.0,0
1582221700.331,-2.93,37.598,20.996,4.395,0.0,0
1582221700.335,-6.348,26.855,23.926,10.742,0.0,0
1582221700.339,-4.395,33.691,21.484,9.277,0.0,0
1582221700.343,0.488,37.598,17.09,0.0,0.0,0
1582221700.347,-4.395,32.227,17.578,1.465,0.0,0
1582221700.351,-8.789,38.574,21.484,-0.488,0.0,0
1582221700.355,-4.883,39.062,16.113,-4.883,0.0,0
1582221700.3579998,-3.418,37.109,12.207,-14.16,0.0,0
1582221700.3620002,-3.906,36.621,14.648,-16.602,0.0,0
1582221700.3660002,-7.324,37.598,16.113,0.0,0.0,0
1582221700.37,-4.883,35.156,18.555,3.418,0.0,0
1582221700.3739998,2.441,34.18,19.043,-10.254,0.0,0
1582221700.3760002,11.23,21.484,21.484,-13.672,0.0,0
1582221700.38,10.254,20.02,22.949,-3.418,0.0,0
1582221700.3839998,2.93,39.551,20.02,-0.977,0.0,0
1582221700.3879998,6.836,37.109,19.043,-8.789,0.0,0
1582221700.3920002,12.207,27.832,19.043,-4.883,0.0,0
1582221700.396,11.719,35.645,21.484,9.277,0.0,0
1582221700.4,7.324,44.922,23.926,13.672,0.0,0
1582221700.403,5.859,32.227,27.832,17.09,0.0,0
1582221700.407,6.348,27.344,29.297,16.113,0.0,0
1582221700.411,0.488,37.598,26.855,16.602,0.0,0
1582221700.415,-4.395,39.062,28.32,32.227,0.0,0
1582221700.419,-4.395,26.855,27.832,29.297,0.0,0
1582221700.435,-8.789,15.625,26.855,4.883,0.0,0
1582221700.439,-2.441,26.367,26.855,-1.465,0.0,0
1582221700.4429998,0.488,40.527,26.367,9.277,0.0,0
1582221700.447,-6.836,51.27,25.391,7.324,0.0,0
1582221700.451,-5.859,55.176,22.949,-13.184,0.0,0
1582221700.455,-7.324,46.875,23.438,-17.578,0.0,0
1582221700.459,-12.695,38.574,23.438,-3.906,0.0,0
1582221700.462,-15.137,37.109,20.508000000000006,6.348,0.0,0
1582221700.466,-13.184,33.691,20.02,11.23,0.0,0
1582221700.47,-5.859,35.645,21.484,3.906,0.0,0
1582221700.474,-12.695,34.18,21.484,6.348,0.0,0
1582221700.478,-14.16,22.949,24.902,14.648,0.0,0
1582221700.48,-2.93,29.785,27.344,18.555,0.0,0
1582221700.484,-0.488,28.32,24.902,11.23,0.0,0
1582221700.488,2.441,33.691,22.949,11.23,0.0,0
1582221700.492,-3.418,44.434,24.902,24.902,0.0,0
1582221700.496,-9.277,44.434,28.32,19.043,0.0,0
1582221700.5,-3.906,47.363,30.273000000000003,0.0,0.0,0
1582221700.504,-1.953,35.645,29.297,-1.465,0.0,0
1582221700.5070002,-6.348,34.668,27.344,2.441,0.0,0
1582221700.5110002,-6.836,38.086,24.414,4.883,0.0,0
1582221700.515,0.977,36.621,26.367,-2.93,0.0,0
1582221700.519,2.93,34.668,28.32,-6.348,0.0,0
1582221700.5229998,-4.883,40.527,26.855,12.695,0.0,0
1582221700.525,-3.418,42.969,23.438,19.043,0.0,0
1582221700.529,2.441,27.832,23.926,11.719,0.0,0
1582221700.533,9.766,37.109,27.344,6.836,0.0,0
1582221700.5370002,12.695,48.34,26.367,16.113,0.0,0
1582221700.541,4.395,49.805,24.902,29.297,0.0,0
1582221700.545,5.371,41.504,24.902,20.996,0.0,0
1582221700.549,6.348,34.18,25.391,8.301,0.0,0
1582221700.552,5.859,44.434,24.902,16.113,0.0,0
1582221700.556,3.418,45.41,23.438,27.344,0.0,0
1582221700.56,-7.324,37.109,23.438,26.855,0.0,0
1582221700.564,-0.488,28.32,24.902,17.578,0.0,0
1582221700.5679998,8.789,29.785,25.879,13.672,0.0,0
1582221700.57,4.395,37.598,29.297,24.414,0.0,0
1582221700.574,4.395,34.18,29.297,34.18,0.0,0
1582221700.5779998,1.465,28.809,27.832,21.484,0.0,0
1582221700.582,5.859,41.504,25.879,12.207,0.0,0
1582221700.586,4.395,51.758,23.926,16.602,0.0,0
1582221700.59,-1.953,40.039,23.926,15.625,0.0,0
1582221700.594,0.488,36.133,20.508000000000006,16.113,0.0,0
1582221700.597,2.441,33.691,19.531,11.23,0.0,0
1582221700.601,2.93,23.926,20.996,6.348,0.0,0
1582221700.605,2.441,23.926,18.555,12.207,0.0,0
1582221700.609,7.812,39.062,18.555,13.672,0.0,0
1582221700.613,18.066,48.828,19.043,4.883,0.0,0
1582221700.615,21.973000000000006,45.898,16.113,13.672,0.0,0
1582221700.619,13.672,40.527,15.625,25.879,0.0,0
1582221700.623,7.324,36.133,17.578,20.02,0.0,0
1582221700.627,12.695,32.715,18.066,9.277,0.0,0
1582221700.631,13.672,38.574,17.578,8.789,0.0,0
1582221700.635,-1.953,37.109,17.09,15.625,0.0,0
1582221700.639,-2.93,42.969,18.066,17.09,0.0,0
1582221700.6420002,6.836,48.34,18.555,15.137,0.0,0
1582221700.646,7.324,39.551,20.02,3.906,0.0,0
1582221700.65,4.395,39.062,21.973000000000006,10.254,0.0,0
1582221700.654,3.418,32.227,20.508000000000006,27.832,0.0,0
1582221700.658,0.977,20.508000000000006,21.484,16.602,0.0,0
1582221700.66,5.371,33.691,25.879,0.0,0.0,0
1582221700.664,6.836,28.809,26.855,1.465,0.0,0
1582221700.668,1.953,23.438,21.973000000000006,8.789,0.0,0
1582221700.6720002,-0.977,40.527,19.531,4.395,0.0,0
1582221700.676,-0.488,43.457,20.508000000000006,-6.836,0.0,0
1582221700.68,1.953,25.391,20.996,-5.371,0.0,0
1582221700.684,-3.906,15.625,20.508000000000006,5.859,0.0,0
1582221700.687,-8.301,37.109,19.531,8.301,0.0,0
1582221700.691,-3.418,40.527,19.531,-0.977,0.0,0
1582221700.695,-4.395,37.109,18.555,-2.441,0.0,0
1582221700.699,-6.836,38.086,18.066,11.719,0.0,0
1582221700.7029998,-2.441,33.691,20.508000000000006,18.066,0.0,0
1582221700.705,-2.93,30.273000000000003,20.02,10.742,0.0,0
1582221700.709,-1.953,25.391,19.531,5.859,0.0,0
1582221700.7129998,2.93,29.785,21.484,15.625,0.0,0
1582221700.717,0.977,39.062,21.973000000000006,20.02,0.0,0
1582221700.721,4.395,29.785,22.949,11.23,0.0,0
1582221700.725,4.883,16.113,22.949,10.254,0.0,0
1582221700.729,-0.488,35.645,20.996,2.441,0.0,2
1582221700.732,-2.93,50.293,19.043,8.301,0.0,0
1582221700.736,-8.301,45.898,20.996,14.648,0.0,0
1582221700.74,-2.93,45.41,21.973000000000006,3.906,0.0,0
1582221700.744,3.418,43.945,21.973000000000006,12.207,0.0,0
1582221700.748,-2.93,39.062,22.461,18.066,0.0,0
1582221700.765,-3.906,39.551,21.973000000000006,16.113,0.0,0
1582221700.769,0.488,41.01600000000001,23.926,6.348,0.0,0
1582221700.7729998,3.906,41.992,23.926,5.859,0.0,0
1582221700.7770002,-0.977,42.48,26.367,19.531,0.0,0
1582221700.781,0.977,36.133,29.785,27.344,0.0,0
1582221700.785,8.301,36.621,28.32,22.461,0.0,0
1582221700.789,12.695,39.062,28.809,13.672,0.0,0
1582221700.792,7.324,37.598,30.273000000000003,17.09,0.0,0
1582221700.796,-7.324,41.992,28.809,23.926,0.0,0
1582221700.8,-1.465,39.551,27.344,15.625,0.0,0
1582221700.804,8.789,37.109,27.832,6.836,0.0,0
1582221700.8079998,0.977,37.598,30.273000000000003,9.766,0.0,0
1582221700.81,-2.93,37.109,28.809,17.09,0.0,0
1582221700.814,-1.953,40.527,25.391,17.578,0.0,0
1582221700.8179998,2.441,46.387,26.367,0.488,0.0,0
1582221700.822,4.883,47.852,27.832,5.371,0.0,0
1582221700.826,0.488,41.992,27.344,15.137,0.0,0
1582221700.83,-2.93,34.18,26.367,7.812,0.0,0
1582221700.834,6.836,32.227,26.367,1.465,0.0,0
1582221700.837,8.301,44.434,24.902,1.465,0.0,0
1582221700.841,1.465,42.48,25.391,11.719,0.0,0
1582221700.845,-1.953,29.297,23.926,8.301,0.0,0
1582221700.849,1.465,29.785,23.926,3.906,0.0,0
1582221700.853,9.277,38.086,24.902,15.625,0.0,0
1582221700.855,5.371,36.621,21.973000000000006,20.508000000000006,0.0,0
1582221700.859,6.348,36.133,19.043,21.973000000000006,0.0,0
1582221700.863,9.277,42.969,18.066,13.672,0.0,0
1582221700.867,17.578,39.062,18.066,1.953,0.0,0
1582221700.871,20.996,36.621,18.555,10.742,0.0,0
1582221700.875,12.207,40.527,22.461,23.926,0.0,0
1582221700.879,4.883,37.109,22.461,24.414,0.0,0
1582221700.8820002,6.348,32.227,20.02,11.23,0.0,0
1582221700.8860002,7.812,30.273000000000003,19.531,3.906,0.0,0
1582221700.89,2.93,28.32,16.113,15.137,0.0,0
1582221700.894,11.23,30.273000000000003,19.531,26.367,0.0,0
1582221700.8979998,16.113,42.969,23.926,15.137,0.0,0
1582221700.9,15.625,41.01600000000001,20.996,0.488,0.0,0
1582221700.904,13.184,34.18,21.484,10.742,0.0,0
1582221700.908,12.207,41.992,20.996,27.344,0.0,0
1582221700.9120002,20.508000000000006,42.969,20.02,24.414,0.0,0
1582221700.916,22.949,38.574,19.043,9.766,0.0,0
1582221700.92,16.602,40.527,18.066,6.836,0.0,0
1582221700.924,13.672,44.434,15.137,17.578,0.0,0
1582221700.927,12.207,34.18,14.16,25.879,0.0,0
1582221700.931,13.672,34.18,18.555,16.113,0.0,0
1582221700.935,13.184,52.734,18.066,9.766,0.0,0
1582221700.939,3.418,52.734,19.531,15.625,0.0,0
1582221700.9429998,6.348,40.527,22.949,18.555,0.0,0
1582221700.945,16.602,31.25,18.555,8.301,0.0,0
1582221700.949,14.16,34.18,18.066,-2.441,0.0,0
1582221700.9529998,7.324,40.527,20.996,7.324,0.0,0
1582221700.957,0.977,41.992,18.066,8.301,0.0,0
1582221700.961,1.953,37.109,17.578,-6.348,0.0,0
1582221700.965,12.207,28.32,20.508000000000006,-1.953,0.0,0
1582221700.969,3.906,28.809,21.484,4.395,0.0,0
1582221700.972,-1.465,26.855,20.508000000000006,13.184,0.0,0
1582221700.976,0.488,35.156,18.555,9.277,0.0,0
1582221700.98,2.441,45.41,18.555,-3.418,0.0,0
1582221700.984,5.371,42.969,19.043,6.348,0.0,0
1582221700.988,-3.418,35.156,19.043,16.602,0.0,0
1582221700.9910002,-3.418,32.715,23.438,22.949,0.0,0
1582221700.995,5.859,34.668,24.902,7.324,0.0,0
1582221700.9989998,5.859,24.414,24.414,5.859,0.0,0
1582221701.0029998,1.953,25.879,26.855,22.949,0.0,0
1582221701.0070002,2.441,40.039,24.902,13.672,0.0,0
1582221701.0110002,8.301,40.527,21.484,11.719,0.0,0
1582221701.015,9.766,34.668,20.996,7.324,0.0,0
1582221701.018,8.301,35.645,20.508000000000006,14.648,0.0,0
1582221701.022,11.23,41.504,21.973000000000006,28.809,0.0,0
1582221701.026,5.371,39.062,21.973000000000006,18.555,0.0,0
1582221701.03,2.93,38.086,22.949,8.789,0.0,0
1582221701.034,4.883,30.762,25.391,10.742,0.0,0
1582221701.036,-0.977,30.273000000000003,26.367,16.602,0.0,0
1582221701.04,-2.93,36.133,22.461,19.531,0.0,0
1582221701.044,6.348,31.25,22.461,11.719,0.0,0
1582221701.048,2.93,37.598,26.855,1.953,0.0,0
1582221701.052,-2.441,48.828,26.855,11.719,0.0,0
1582221701.056,5.859,42.48,26.855,22.949,0.0,0
1582221701.06,2.93,27.344,28.32,8.301,0.0,0
1582221701.063,-0.977,39.551,27.344,0.977,0.0,0
1582221701.0670002,1.953,44.434,24.414,14.16,0.0,0
1582221701.071,0.0,34.18,27.832,11.719,0.0,0
1582221701.075,5.371,31.738000000000003,29.785,8.301,0.0,0
1582221701.079,5.371,39.551,29.785,10.254,0.0,0
1582221701.08,5.859,41.01600000000001,30.273000000000003,18.066,0.0,0
1582221701.084,8.789,41.504,28.809,32.227,0.0,0
1582221701.0879998,11.719,40.039,31.738000000000003,29.785,0.0,0
1582221701.092,12.207,36.133,33.691,19.043,0.0,0
1582221701.096,9.766,38.574,33.691,22.949,0.0,0
1582221701.1,3.418,34.668,32.715,34.668,0.0,0
1582221701.104,0.488,34.668,31.25,27.832,0.0,0
1582221701.107,0.977,41.504,30.762,6.836,0.0,0
1582221701.111,-1.953,37.109,27.832,8.301,0.0,0
1582221701.115,-5.859,44.434,27.344,15.625,0.0,0
1582221701.119,-8.301,56.152,28.809,12.695,0.0,0
1582221701.123,3.418,51.758,28.32,7.324,0.0,0
1582221701.14,5.371,43.945,30.762,-3.418,0.0,0
1582221701.144,-6.348,43.457,31.25,4.883,0.0,0
1582221701.1479998,4.395,46.875,27.832,17.09,0.0,0
1582221701.1520002,14.648,45.898,27.832,5.859,0.0,0
1582221701.156,11.23,32.227,31.738000000000003,3.906,0.0,0
1582221701.16,8.789,33.203,31.738000000000003,13.184,0.0,0
1582221701.164,9.277,50.78100000000001,29.785,19.043,0.0,0
1582221701.167,8.789,50.78100000000001,29.785,9.766,0.0,0
1582221701.171,8.301,42.969,29.785,0.0,0.0,0
1582221701.175,-1.953,39.551,31.25,5.859,0.0,0
1582221701.179,-7.324,36.621,30.273000000000003,10.742,0.0,0
1582221701.1829998,-1.953,42.48,30.273000000000003,12.207,0.0,0
1582221701.185,3.418,41.504,30.762,8.301,0.0,0
1582221701.189,1.953,35.156,28.809,12.207,0.0,0
1582221701.1929998,-5.371,40.527,28.32,22.461,0.0,0
1582221701.197,-0.977,46.875,28.32,18.555,0.0,0
1582221701.201,13.672,47.363,29.297,18.555,0.0,0
1582221701.205,17.578,38.086,29.785,22.949,0.0,0
1582221701.209,10.742,34.668,30.273000000000003,26.367,0.0,0
1582221701.212,5.371,48.828,28.809,20.508000000000006,0.0,0
1582221701.216,5.371,49.316,23.438,0.488,0.0,0
1582221701.22,5.859,44.922,21.484,-1.465,0.0,0
1582221701.224,-6.348,45.41,24.414,3.418,0.0,0
1582221701.228,-11.23,39.551,22.949,8.789,0.0,0
1582221701.231,0.488,37.109,20.996,5.859,0.0,0
1582221701.235,0.0,36.621,21.484,-1.953,0.0,0
1582221701.2389998,-1.465,33.203,21.973000000000006,7.324,0.0,0
1582221701.2429998,2.93,35.645,21.484,10.742,0.0,0
1582221701.2470002,-1.953,33.691,23.926,3.418,0.0,0
1582221701.2510002,-4.883,27.832,23.438,-5.371,0.0,0
1582221701.255,-0.977,38.086,22.461,-4.395,0.0,0
1582221701.258,-0.488,46.387,25.879,4.883,0.0,0
1582221701.262,4.883,41.01600000000001,27.832,6.836,0.0,0
1582221701.266,16.602,29.785,26.367,-1.953,0.0,0
1582221701.27,17.09,27.344,24.414,-12.695,0.0,0
1582221701.274,15.625,36.133,25.391,-4.883,0.0,0
1582221701.276,12.695,37.109,25.879,4.883,0.0,0
1582221701.28,6.348,30.273000000000003,25.391,4.395,0.0,0
1582221701.284,0.977,33.691,26.367,0.0,0.0,0
1582221701.288,-6.836,38.086,28.32,8.301,0.0,0
1582221701.292,-11.719,31.738000000000003,24.902,16.113,0.0,0
1582221701.296,-14.648,20.02,21.484,10.254,0.0,0
1582221701.3,-10.742,14.648,21.484,-2.441,0.0,0
1582221701.303,-4.883,29.785,20.508000000000006,-0.488,0.0,0
1582221701.3070002,-11.23,26.367,20.508000000000006,10.254,0.0,0
1582221701.311,-14.16,27.832,20.02,8.789,0.0,0
1582221701.315,-10.742,34.18,22.949,4.395,0.0,0
1582221701.319,-13.184,38.086,22.461,-0.977,0.0,0
1582221701.321,-20.996,36.133,20.996,0.977,0.0,0
1582221701.325,-16.602,33.691,21.973000000000006,3.906,0.0,0
1582221701.329,-7.812,41.01600000000001,21.484,-5.371,0.0,0
1582221701.333,-4.395,43.945,20.508000000000006,-11.719,0.0,0
1582221701.337,-3.418,34.668,23.438,0.977,0.0,0
1582221701.341,1.953,32.715,26.367,12.207,0.0,0
1582221701.345,2.441,37.109,24.414,2.441,0.0,0
1582221701.3479998,-2.93,24.902,22.949,-10.254,0.0,0
1582221701.3520002,-4.883,24.902,23.438,-1.465,0.0,0
1582221701.356,-6.348,43.945,22.949,7.812,0.0,0
1582221701.36,-6.836,41.504,21.973000000000006,5.371,0.0,0
1582221701.3639998,-8.301,30.762,25.879,2.441,0.0,0
1582221701.3660002,-6.836,38.086,26.855,2.93,0.0,0
1582221701.37,-9.277,35.156,23.438,6.836,0.0,0
1582221701.3739998,-7.324,32.715,24.414,9.766,0.0,0
1582221701.3779998,4.395,30.273000000000003,25.879,5.371,0.0,0
1582221701.3820002,-6.836,33.203,26.367,-10.742,0.0,0
1582221701.3860002,-9.766,41.504,26.367,0.0,0.0,0
1582221701.39,-4.883,35.156,28.809,14.648,0.0,0
1582221701.393,-7.812,31.738000000000003,30.273000000000003,-4.395,0.0,0
1582221701.397,1.953,28.809,31.738000000000003,-1.465,0.0,0
1582221701.401,0.977,32.715,31.738000000000003,17.09,0.0,0
1582221701.405,-3.418,30.273000000000003,29.785,20.996,0.0,0
1582221701.409,5.859,30.762,31.738000000000003,22.949,0.0,0
1582221701.411,8.789,38.086,31.738000000000003,15.137,0.0,0
1582221701.415,5.859,27.344,30.273000000000003,20.02,0.0,0
1582221701.419,-0.488,19.531,31.25,26.855,0.0,0
1582221701.423,3.906,32.227,32.715,21.973000000000006,0.0,0
1582221701.427,15.137,41.992,31.738000000000003,14.648,0.0,0
1582221701.431,8.789,41.504,32.715,11.23,0.0,0
1582221701.435,5.859,40.527,32.715,21.973000000000006,0.0,0
1582221701.438,8.301,38.574,29.785,14.16,0.0,0
1582221701.4420002,4.883,35.156,28.32,-3.906,0.0,0
1582221701.446,4.883,27.344,28.809,-0.977,0.0,0
1582221701.45,5.859,39.551,29.297,15.625,0.0,0
1582221701.454,3.906,43.945,25.879,18.555,0.0,0
1582221701.456,5.371,32.227,25.879,8.789,0.0,0
1582221701.46,8.789,28.32,28.809,9.277,0.0,0
1582221701.464,6.836,38.086,30.273000000000003,21.973000000000006,0.0,0
1582221701.468,4.883,48.828,31.738000000000003,30.762,0.0,0
1582221701.472,11.719,36.621,31.738000000000003,31.25,0.0,0
1582221701.476,15.625,32.227,33.203,19.531,0.0,0
1582221701.48,12.207,38.574,30.273000000000003,10.254,0.0,0
1582221701.4829998,9.766,29.297,25.879,19.043,0.0,0
1582221701.4870002,12.207,32.715,25.879,25.391,0.0,0
1582221701.4910002,18.555,46.875,26.855,22.949,0.0,0
1582221701.495,16.113,38.574,29.785,14.648,0.0,0
1582221701.4989998,8.789,33.203,31.738000000000003,18.555,0.0,0
1582221701.5010002,5.859,41.992,31.738000000000003,26.855,0.0,0
1582221701.505,14.648,45.898,31.738000000000003,16.113,0.0,0
1582221701.5089998,14.648,40.527,31.738000000000003,11.23,0.0,0
1582221701.5129998,6.348,40.039,30.273000000000003,13.184,0.0,0
1582221701.5170002,5.859,33.691,27.344,17.578,0.0,0
1582221701.521,9.277,21.484,29.785,16.113,0.0,0
1582221701.525,9.766,33.691,31.738000000000003,3.906,0.0,0
1582221701.528,-0.488,46.875,28.809,10.742,0.0,0
1582221701.532,-6.348,39.551,26.367,7.812,0.0,0
1582221701.536,4.395,34.18,26.367,-2.93,0.0,0
1582221701.54,12.207,41.992,25.391,-0.977,0.0,0
1582221701.544,7.812,46.387,26.367,1.465,0.0,0
1582221701.56,-5.371,44.434,29.785,15.137,0.0,0
1582221701.564,-6.836,41.01600000000001,26.855,8.789,0.0,0
1582221701.5679998,5.859,40.527,24.414,-6.836,0.0,0
1582221701.572,9.766,40.039,22.949,0.0,0.0,0
1582221701.576,6.836,40.527,22.949,8.301,0.0,0
1582221701.58,3.418,38.574,23.438,8.301,0.0,0
1582221701.584,5.371,33.691,22.461,-0.488,0.0,0
1582221701.587,6.348,39.062,21.484,-3.906,0.0,0
1582221701.591,8.301,29.785,22.461,13.184,0.0,0
1582221701.595,7.812,21.973000000000006,24.414,21.973000000000006,0.0,0
1582221701.599,4.883,40.039,21.973000000000006,11.23,0.0,0
1582221701.603,6.836,48.34,21.973000000000006,5.859,0.0,0
1582221701.605,4.395,47.363,22.461,14.16,0.0,0
1582221701.609,6.348,39.062,23.438,29.785,0.0,0
1582221701.613,-0.488,36.133,22.461,19.043,0.0,0
1582221701.617,0.488,34.668,18.066,4.883,0.0,0
1582221701.621,6.836,31.738000000000003,18.555,10.254,0.0,0
1582221701.625,-0.977,31.25,21.484,14.648,0.0,0
1582221701.629,-0.977,24.414,22.949,18.555,0.0,0
1582221701.6320002,3.418,26.367,23.926,8.301,0.0,0
1582221701.6360002,4.883,30.273000000000003,24.414,5.371,0.0,0
1582221701.64,-0.488,31.25,23.438,5.371,0.0,0
1582221701.644,-4.395,38.574,20.996,4.883,0.0,0
1582221701.6479998,1.953,33.203,18.555,1.953,0.0,0
1582221701.65,1.953,35.156,18.066,-12.207,0.0,0
1582221701.654,-0.977,41.504,20.996,-3.418,0.0,0
1582221701.658,-5.859,39.062,21.484,-2.441,0.0,0
1582221701.6620002,-6.348,33.203,23.438,-12.207,0.0,0
1582221701.666,-1.465,28.809,25.391,-9.766,0.0,0
1582221701.67,-9.277,39.062,23.926,-7.812,0.0,0
1582221701.674,-17.578,47.852,23.926,2.93,0.0,0
1582221701.677,-1.465,38.574,25.391,7.812,0.0,0
1582221701.681,5.859,38.086,24.902,-5.859,0.0,0
1582221701.685,-2.441,39.062,23.926,-0.488,0.0,0
1582221701.689,-3.418,36.133,26.367,14.16,0.0,0
1582221701.6929998,-0.977,39.062,27.344,16.113,0.0,0
1582221701.695,10.254,41.01600000000001,26.367,10.742,0.0,0
1582221701.699,12.207,41.01600000000001,26.855,3.418,0.0,0
1582221701.7029998,5.859,41.504,25.391,11.719,0.0,0
1582221701.707,5.859,41.992,26.367,21.973000000000006,0.0,0
1582221701.711,6.836,39.551,26.855,12.695,0.0,0
1582221701.715,13.184,35.645,23.926,0.977,0.0,0
1582221701.719,8.789,41.992,22.949,9.766,0.0,0
1582221701.722,2.93,46.875,21.973000000000006,14.16,0.0,0
1582221701.726,1.953,42.48,21.484,-2.93,0.0,0
1582221701.73,8.789,35.156,23.438,-7.812,0.0,0
1582221701.734,8.789,36.133,24.902,-2.93,0.0,0
1582221701.738,-5.859,32.715,26.855,0.0,0.0,0
1582221701.74,2.93,32.227,26.855,-3.418,0.0,0
1582221701.744,8.301,39.062,24.414,-11.719,0.0,0
1582221701.748,0.0,38.574,26.367,-3.906,0.0,0
1582221701.752,-5.371,36.621,29.297,5.859,0.0,0
1582221701.756,-0.488,37.109,26.367,12.207,0.0,0
1582221701.76,5.371,50.78100000000001,22.461,7.324,0.0,0
1582221701.764,5.371,44.434,26.367,4.883,0.0,2
1582221701.7670002,3.906,41.01600000000001,30.273000000000003,14.16,0.0,0
1582221701.771,4.883,42.969,26.855,17.09,0.0,0
1582221701.775,9.766,40.039,26.367,12.695,0.0,0
1582221701.779,14.648,40.039,27.832,5.371,0.0,0
1582221701.783,10.742,47.363,27.832,6.836,0.0,0
1582221701.785,4.395,52.734,27.344,12.695,0.0,0
1582221701.789,5.859,47.852,28.809,7.812,0.0,0
1582221701.793,14.16,44.922,29.297,2.93,0.0,0
1582221701.7970002,10.254,41.504,29.297,11.719,0.0,0
1582221701.801,6.348,37.109,29.297,19.531,0.0,0
1582221701.805,7.812,35.156,30.273000000000003,14.648,0.0,0
1582221701.809,13.672,36.621,32.227,14.648,0.0,0
1582221701.812,13.672,30.762,30.273000000000003,15.137,0.0,0
1582221701.816,2.93,23.438,28.809,16.113,0.0,0
1582221701.82,0.488,36.133,26.855,19.531,0.0,0
1582221701.824,0.977,43.945,28.32,12.207,0.0,0
1582221701.8279998,1.465,40.039,28.809,2.93,0.0,0
1582221701.83,-8.789,41.992,25.391,8.789,0.0,0
1582221701.834,-9.277,36.621,25.879,14.648,0.0,0
1582221701.8379998,-1.465,34.668,23.438,-3.906,0.0,0
1582221701.842,0.488,38.086,21.484,-9.766,0.0,0
1582221701.846,-2.441,32.715,24.902,3.418,0.0,0
1582221701.85,-2.441,30.762,24.902,14.16,0.0,0
1582221701.854,4.395,29.785,25.391,4.883,0.0,0
1582221701.857,3.418,36.621,24.414,-13.184,0.0,0
1582221701.861,0.488,41.504,20.02,-6.348,0.0,0
1582221701.865,2.93,37.598,20.996,12.207,0.0,0
1582221701.869,6.836,41.01600000000001,22.949,11.23,0.0,0
1582221701.873,7.812,48.34,23.438,-1.953,0.0,0
1582221701.875,11.719,45.898,24.414,0.977,0.0,0
1582221701.879,7.812,41.01600000000001,22.461,12.207,0.0,0
1582221701.883,4.883,38.574,20.508000000000006,7.324,0.0,0
1582221701.887,10.254,44.434,17.09,5.371,0.0,0
1582221701.891,12.695,51.27,17.578,10.254,0.0,0
1582221701.895,9.766,48.34,20.02,17.09,0.0,0
1582221701.899,7.324,44.922,19.043,22.461,0.0,0
1582221701.9020002,6.836,38.086,20.996,18.066,0.0,0
1582221701.906,9.277,45.898,20.02,10.254,0.0,0
1582221701.91,14.16,45.898,21.484,15.625,0.0,0
1582221701.914,16.113,38.086,21.973000000000006,24.902,0.0,0
1582221701.918,15.137,39.551,20.508000000000006,20.996,0.0,0
1582221701.935,14.648,41.01600000000001,23.438,10.742,0.0,0
1582221701.939,9.277,36.133,24.902,18.066,0.0,0
1582221701.9429998,4.883,30.762,26.855,29.297,0.0,0
1582221701.947,6.348,39.551,27.832,28.32,0.0,0
1582221701.951,8.301,42.969,29.785,17.578,0.0,0
1582221701.955,7.324,42.969,32.715,20.02,0.0,0
1582221701.959,1.465,38.086,31.25,27.344,0.0,0
1582221701.962,-4.395,27.344,29.297,22.461,0.0,0
1582221701.966,4.883,38.086,28.809,15.137,0.0,0
1582221701.97,11.719,41.01600000000001,28.32,7.324,0.0,0
1582221701.974,5.859,36.133,26.855,16.602,0.0,0
1582221701.978,4.883,41.504,25.879,24.902,0.0,0
1582221701.981,8.301,41.992,23.438,15.625,0.0,0
1582221701.985,16.602,37.109,23.926,11.719,0.0,0
1582221701.9889998,16.602,35.645,26.367,17.578,0.0,0
1582221701.9929998,10.254,43.457,23.926,21.484,0.0,0
1582221701.9970002,11.719,36.133,23.926,23.926,0.0,0
1582221702.0010002,20.996,36.133,25.879,20.508000000000006,0.0,0
1582221702.005,15.137,38.086,24.414,15.625,0.0,0
1582221702.008,7.324,21.484,25.391,20.508000000000006,0.0,0
1582221702.012,6.836,31.25,28.32,25.879,0.0,0
1582221702.016,9.766,44.922,28.32,18.066,0.0,0
1582221702.02,10.742,47.852,29.297,11.719,0.0,0
1582221702.024,5.859,43.457,30.273000000000003,23.438,0.0,0
1582221702.026,6.836,37.109,28.809,27.344,0.0,0
1582221702.03,4.883,38.086,27.832,17.578,0.0,0
1582221702.034,8.789,33.691,27.832,17.09,0.0,0
1582221702.038,9.277,31.25,27.832,25.879,0.0,0
1582221702.042,1.953,39.062,26.855,25.879,0.0,0
1582221702.046,-1.953,41.01600000000001,24.414,13.672,0.0,0
1582221702.05,5.859,27.832,21.973000000000006,6.348,0.0,0
1582221702.053,13.184,33.691,21.484,13.184,0.0,0
1582221702.0570002,-5.371,44.922,20.508000000000006,12.207,0.0,0
1582221702.061,-7.812,40.039,21.973000000000006,7.812,0.0,0
1582221702.065,1.953,32.715,24.902,2.93,0.0,0
1582221702.069,3.418,31.738000000000003,24.414,-0.977,0.0,0
1582221702.071,5.371,33.203,22.461,10.742,0.0,0
1582221702.075,5.859,32.715,24.414,12.695,0.0,0
1582221702.079,17.09,33.691,25.391,7.324,0.0,0
1582221702.083,18.555,39.551,24.902,-4.883,0.0,0
1582221702.087,15.137,44.434,22.949,-5.371,0.0,0
1582221702.091,16.602,39.062,21.484,11.23,0.0,0
1582221702.095,18.555,27.832,23.438,10.254,0.0,0
1582221702.0979998,15.625,26.855,26.367,10.254,0.0,0
1582221702.1020002,2.93,37.109,27.832,15.137,0.0,0
1582221702.106,-5.859,41.504,29.297,25.879,0.0,0
1582221702.11,-8.789,39.551,30.762,30.762,0.0,0
1582221702.1139998,-12.207,40.039,29.297,12.695,0.0,0
1582221702.115,-14.16,35.645,29.297,12.207,0.0,0
1582221702.119,-16.113,30.762,28.809,21.484,0.0,0
1582221702.123,-16.113,30.762,24.414,16.602,0.0,0
1582221702.127,-8.301,38.574,23.926,7.812,0.0,0
1582221702.131,-4.883,35.645,24.414,7.324,0.0,0
1582221702.135,-6.348,33.691,25.391,14.16,0.0,0
1582221702.139,-1.953,41.504,26.855,16.602,0.0,0
1582221702.1420002,4.883,46.387,25.391,2.441,0.0,0
1582221702.146,6.836,45.41,25.391,0.488,0.0,0
1582221702.15,0.488,40.527,24.414,12.695,0.0,0
1582221702.154,-2.93,41.992,24.414,19.531,0.0,0
1582221702.158,7.324,37.598,24.414,16.602,0.0,0
1582221702.161,16.113,37.109,23.438,10.742,0.0,0
1582221702.165,16.113,44.922,26.855,21.484,0.0,0
1582221702.169,7.812,41.01600000000001,26.855,24.414,0.0,0
1582221702.173,14.16,40.039,22.949,23.926,0.0,0
1582221702.177,20.02,42.969,26.855,13.184,0.0,0
1582221702.181,7.812,33.203,26.367,7.812,0.0,0
1582221702.185,-4.883,30.762,22.949,20.996,0.0,0
1582221702.188,-2.441,39.551,24.902,15.625,0.0,0
1582221702.1920002,7.812,43.945,25.879,4.883,0.0,0
1582221702.196,1.953,32.715,26.367,-1.953,0.0,0
1582221702.2,-8.789,29.297,25.391,5.371,0.0,0
1582221702.204,-11.23,31.738000000000003,26.855,16.113,0.0,0
1582221702.206,-9.766,37.598,28.809,4.395,0.0,0
1582221702.21,-6.348,39.551,29.297,-1.953,0.0,0
1582221702.214,-7.812,31.738000000000003,31.25,1.465,0.0,0
1582221702.218,-6.836,31.25,30.762,8.789,0.0,0
1582221702.222,0.488,34.18,32.227,15.625,0.0,0
1582221702.226,4.883,43.457,34.18,7.812,0.0,0
1582221702.23,6.836,47.363,33.203,11.23,0.0,0
1582221702.2329998,1.953,39.551,32.227,18.066,0.0,0
1582221702.2370002,3.906,39.062,32.227,22.949,0.0,0
1582221702.2410002,12.207,43.457,31.738000000000003,20.996,0.0,0
1582221702.245,11.23,46.387,31.25,14.648,0.0,0
1582221702.2489998,5.371,44.922,30.762,25.879,0.0,0
1582221702.25,1.953,32.715,31.25,27.344,0.0,0
1582221702.254,7.324,32.227,31.738000000000003,16.602,0.0,0
1582221702.258,7.324,35.156,28.32,19.531,0.0,0
1582221702.262,-1.465,34.668,25.879,26.367,0.0,0
1582221702.266,0.977,37.109,29.785,29.297,0.0,0
1582221702.27,5.371,35.156,30.273000000000003,20.02,0.0,0
1582221702.274,6.836,41.992,29.785,7.324,0.0,0
1582221702.2770002,2.441,42.969,32.227,13.184,0.0,0
1582221702.281,0.0,40.527,34.18,19.531,0.0,0
1582221702.285,5.859,36.133,35.156,12.695,0.0,0
1582221702.289,7.324,36.133,35.156,2.93,0.0,0
1582221702.293,2.441,48.828,32.227,6.836,0.0,0
1582221702.311,-4.395,50.293,29.297,16.602,0.0,0
1582221702.315,-2.93,43.457,31.738000000000003,15.625,0.0,0
1582221702.319,7.812,34.668,30.273000000000003,12.695,0.0,0
1582221702.323,8.301,31.738000000000003,30.762,12.695,0.0,0
1582221702.327,1.953,39.062,33.203,24.414,0.0,0
1582221702.331,9.277,43.945,32.715,30.762,0.0,0
1582221702.335,20.508000000000006,32.227,35.156,23.926,0.0,0
1582221702.3379998,19.043,25.879,33.691,17.09,0.0,0
1582221702.342,6.348,46.875,33.203,26.367,0.0,0
1582221702.346,3.906,47.363,31.738000000000003,26.855,0.0,0
1582221702.35,13.184,40.039,27.832,6.836,0.0,0
1582221702.354,14.648,44.434,26.367,1.465,0.0,0
1582221702.356,13.184,43.457,27.344,12.695,0.0,0
1582221702.36,15.625,33.203,28.809,20.508000000000006,0.0,0
1582221702.3639998,12.207,33.203,26.367,13.672,0.0,0
1582221702.3679998,6.836,35.645,21.973000000000006,4.883,0.0,0
1582221702.3720002,-1.465,31.738000000000003,18.066,1.465,0.0,0
1582221702.3760002,-9.277,33.691,16.602,5.371,0.0,0
1582221702.38,-6.836,28.809,17.578,2.93,0.0,0
1582221702.383,-2.441,26.367,19.531,-8.789,0.0,0
1582221702.387,-0.488,36.133,20.508000000000006,-5.371,0.0,0
1582221702.391,0.977,37.109,22.461,0.977,0.0,0
1582221702.395,-1.465,29.785,24.902,4.395,0.0,0
1582221702.399,3.906,27.344,24.414,0.977,0.0,0
1582221702.401,6.836,34.18,23.438,-6.348,0.0,0
1582221702.405,-0.488,34.18,22.461,2.93,0.0,0
1582221702.409,-9.277,31.738000000000003,21.484,10.254,0.0,0
1582221702.413,-7.324,32.715,21.484,3.906,0.0,0
1582221702.417,-3.906,28.32,21.484,-1.953,0.0,0
1582221702.421,-12.695,32.227,20.02,0.488,0.0,0
1582221702.425,-12.695,32.715,19.043,7.812,0.0,0
1582221702.428,-3.418,29.785,20.996,15.625,0.0,0
1582221702.4320002,2.441,36.133,22.461,7.324,0.0,0
1582221702.436,-0.488,35.645,23.438,-0.977,0.0,0
1582221702.44,-6.836,33.691,24.902,11.719,0.0,0
1582221702.444,1.953,29.785,28.32,18.066,0.0,0
1582221702.446,11.719,29.297,25.391,7.812,0.0,0
1582221702.45,0.0,38.574,19.531,-3.418,0.0,0
1582221702.454,-6.836,40.527,22.461,4.883,0.0,0
1582221702.458,0.488,30.762,24.414,15.137,0.0,0
1582221702.462,5.859,29.297,22.461,7.324,0.0,0
1582221702.466,6.348,33.203,22.949,-2.441,0.0,0
1582221702.47,-2.441,25.391,27.832,2.441,0.0,0
1582221702.4729998,-1.953,33.691,26.855,12.207,0.0,0
1582221702.4770002,4.395,41.504,24.902,9.277,0.0,0
1582221702.481,3.418,41.992,24.414,0.488,0.0,0
1582221702.485,1.465,44.434,21.973000000000006,2.441,0.0,0
1582221702.4889998,-2.93,41.504,20.996,7.324,0.0,0
1582221702.4910002,-0.977,35.645,21.973000000000006,1.465,0.0,0
1582221702.495,7.324,40.039,23.438,-2.441,0.0,0
1582221702.4989998,9.766,39.551,21.973000000000006,6.348,0.0,0
1582221702.5029998,9.277,37.109,21.973000000000006,15.625,0.0,0
1582221702.5070002,9.766,39.551,22.461,17.578,0.0,0
1582221702.5110002,15.137,37.109,20.508000000000006,4.883,0.0,0
1582221702.515,13.184,34.18,19.531,5.859,0.0,0
1582221702.518,8.301,34.18,20.996,14.648,0.0,0
1582221702.522,4.883,44.922,21.973000000000006,13.184,0.0,0
1582221702.526,6.348,44.434,24.902,10.254,0.0,0
1582221702.53,9.277,36.133,25.391,2.441,0.0,0
1582221702.534,2.93,41.504,23.438,12.695,0.0,0
1582221702.536,-0.977,42.969,27.344,28.32,0.0,0
1582221702.54,5.371,34.668,28.809,17.09,0.0,0
1582221702.544,6.836,33.203,26.855,-3.906,0.0,0
1582221702.548,2.93,33.203,26.367,0.0,0.0,0
1582221702.552,0.0,37.109,25.391,12.695,0.0,0
1582221702.556,7.324,45.898,27.344,13.184,0.0,0
1582221702.56,10.254,35.645,29.785,8.789,0.0,0
1582221702.563,6.348,28.809,28.32,9.766,0.0,0
1582221702.5670002,-3.418,44.922,27.344,9.766,0.0,0
1582221702.571,-2.93,49.805,28.32,15.625,0.0,0
1582221702.575,11.23,37.109,29.785,14.16,0.0,0
1582221702.579,18.066,34.668,27.832,15.137,0.0,0
1582221702.58,15.625,43.457,26.367,24.902,0.0,0
1582221702.584,13.672,47.363,25.391,28.32,0.0,0
1582221702.5879998,18.066,47.363,21.484,21.973000000000006,0.0,0
1582221702.592,15.137,41.504,23.926,17.09,0.0,0
1582221702.596,7.324,41.01600000000001,24.902,20.02,0.0,0
1582221702.6,9.277,41.01600000000001,25.391,26.855,0.0,0
1582221702.604,12.695,23.926,31.738000000000003,20.508000000000006,0.0,0
1582221702.607,13.672,27.344,30.273000000000003,9.277,0.0,0
1582221702.611,10.742,41.504,27.832,16.602,0.0,0
1582221702.615,5.859,39.551,29.785,23.438,0.0,0
1582221702.619,7.324,39.062,27.344,17.578,0.0,0
1582221702.623,11.23,41.01600000000001,24.902,5.859,0.0,0
1582221702.625,10.742,46.875,24.902,2.93,0.0,0
1582221702.629,7.324,42.969,25.879,16.113,0.0,0
1582221702.633,-0.977,35.156,26.367,20.02,0.0,0
1582221702.637,3.906,42.48,23.438,9.766,0.0,0
1582221702.641,12.695,46.387,24.902,6.836,0.0,0
1582221702.645,8.789,39.062,27.344,19.531,0.0,0
1582221702.649,7.812,32.715,26.367,25.879,0.0,0
1582221702.6520002,10.742,31.25,25.879,17.578,0.0,0
1582221702.656,12.695,40.039,23.926,11.23,0.0,0
1582221702.66,8.789,43.457,24.902,12.695,0.0,0
1582221702.664,6.836,32.227,25.391,20.02,0.0,0
1582221702.668,6.348,37.598,23.438,15.137,0.0,0
1582221702.685,3.418,40.039,23.438,1.953,0.0,0
1582221702.689,5.859,35.156,23.438,2.441,0.0,0
1582221702.6929998,5.859,41.504,22.461,9.766,0.0,0
1582221702.697,0.0,40.039,21.973000000000006,12.207,0.0,0
1582221702.701,3.906,38.574,25.391,7.812,0.0,0
1582221702.705,11.23,33.203,24.414,4.883,0.0,0
1582221702.709,8.301,29.297,23.438,10.742,0.0,0
1582221702.712,4.883,38.574,25.879,12.207,0.0,0
1582221702.716,6.836,46.875,25.391,8.301,0.0,0
1582221702.72,8.301,38.574,21.484,7.324,0.0,0
1582221702.724,-1.465,32.227,18.066,11.719,0.0,0
1582221702.728,-7.812,35.645,18.555,13.672,0.0,0
1582221702.73,-3.906,37.598,19.531,8.301,0.0,0
1582221702.734,-2.93,31.738000000000003,20.508000000000006,-0.977,0.0,0
1582221702.738,-13.184,31.738000000000003,20.508000000000006,-1.465,0.0,0
1582221702.742,-18.555,30.273000000000003,19.043,8.789,0.0,0
1582221702.746,-8.789,25.391,21.973000000000006,9.766,0.0,0
1582221702.75,-5.371,31.25,22.949,3.906,0.0,0
1582221702.754,-8.301,27.344,20.996,6.836,0.0,0
1582221702.7570002,-9.766,28.32,22.949,14.16,0.0,0
1582221702.7610002,-9.277,24.902,24.902,14.648,0.0,0
1582221702.765,0.977,26.855,25.879,-0.488,0.0,0
1582221702.769,9.277,53.71100000000001,24.902,-4.395,0.0,0
1582221702.7729998,-0.488,52.246,24.414,7.812,0.0,0
1582221702.775,1.465,41.992,26.367,11.719,0.0,0
1582221702.779,10.254,42.969,25.879,-1.953,0.0,0
1582221702.783,-1.953,39.551,22.461,-9.766,0.0,0
1582221702.7870002,-0.488,32.715,22.461,3.418,0.0,0
1582221702.791,7.324,32.227,26.367,10.254,0.0,0
1582221702.795,5.859,37.109,26.855,5.859,0.0,0
1582221702.799,4.395,32.227,24.902,-1.953,0.0,2
1582221702.802,0.488,28.809,26.367,-1.465,0.0,0
1582221702.806,-3.906,41.01600000000001,27.344,1.953,0.0,0
1582221702.81,-6.348,44.922,27.344,5.371,0.0,0
1582221702.814,-1.953,32.227,29.785,-0.488,0.0,0
1582221702.8179998,-2.93,31.738000000000003,30.762,0.0,0.0,0
1582221702.82,-11.719,43.457,30.273000000000003,6.836,0.0,0
1582221702.824,-13.672,44.922,28.32,5.371,0.0,0
1582221702.8279998,-8.789,33.203,29.785,-0.488,0.0,0
1582221702.832,2.93,27.832,31.738000000000003,-1.953,0.0,0
1582221702.836,6.836,34.18,30.762,6.836,0.0,0
1582221702.84,0.488,31.25,29.785,8.789,0.0,0
1582221702.844,-1.953,31.738000000000003,29.297,0.0,0.0,0
1582221702.847,-1.465,35.156,28.32,-10.254,0.0,0
1582221702.851,0.977,35.645,26.367,-4.883,0.0,0
1582221702.855,-0.977,30.273000000000003,23.926,8.789,0.0,0
1582221702.859,-2.441,39.062,21.484,-2.441,0.0,0
1582221702.863,5.371,48.828,21.973000000000006,-10.254,0.0,0
1582221702.865,4.883,29.785,24.902,-0.977,0.0,0
1582221702.869,-4.395,27.344,24.902,0.977,0.0,0
1582221702.873,-9.766,41.01600000000001,22.949,0.488,0.0,0
1582221702.877,1.465,32.715,23.926,-7.324,0.0,0
1582221702.881,2.93,26.855,22.949,-10.254,0.0,0
1582221702.885,-9.766,31.25,20.996,4.883,0.0,0
1582221702.889,-7.812,35.645,21.484,9.277,0.0,0
1582221702.8920002,-11.719,36.133,22.949,-2.441,0.0,0
1582221702.896,-14.16,30.273000000000003,23.926,-6.836,0.0,0
1582221702.9,-9.766,25.879,25.391,6.348,0.0,0
1582221702.904,-6.836,32.227,26.855,18.066,0.0,0
1582221702.908,-1.953,37.109,25.391,11.719,0.0,0
1582221702.91,-1.953,33.691,22.949,1.953,0.0,0
1582221702.914,0.0,23.926,22.461,8.789,0.0,0
1582221702.918,4.883,22.949,23.926,19.043,0.0,0
1582221702.9220002,8.789,35.156,20.996,12.207,0.0,0
1582221702.926,12.695,38.574,21.973000000000006,-2.93,0.0,0
1582221702.93,12.695,44.434,22.949,-1.465,0.0,0
1582221702.934,14.648,35.645,20.02,5.371,0.0,0
1582221702.937,20.02,32.715,21.973000000000006,2.441,0.0,0
1582221702.941,10.742,50.293,21.973000000000006,-4.395,0.0,0
1582221702.945,0.488,35.156,22.949,0.488,0.0,0
1582221702.949,2.441,26.367,25.391,20.02,0.0,0
1582221702.9529998,-3.418,44.922,23.438,23.438,0.0,0
1582221702.955,-4.395,41.504,24.902,16.602,0.0,0
1582221702.959,-1.953,35.156,26.855,20.508000000000006,0.0,0
1582221702.9629998,-6.348,33.203,25.391,22.461,0.0,0
1582221702.967,-6.836,22.461,26.855,30.762,0.0,0
1582221702.971,-5.859,28.32,28.32,23.926,0.0,0
1582221702.975,-6.348,41.504,22.461,4.395,0.0,0
1582221702.979,-9.277,36.133,19.531,5.859,0.0,0
1582221702.982,-13.184,31.738000000000003,24.414,10.742,0.0,0
1582221702.986,-10.254,31.25,27.832,12.207,0.0,0
1582221702.99,0.977,35.156,26.367,0.488,0.0,0
1582221702.994,1.953,30.273000000000003,27.344,6.836,0.0,0
1582221702.998,-4.883,30.273000000000003,30.273000000000003,22.461,0.0,0
1582221703.0010002,-0.977,34.18,28.32,14.16,0.0,0
1582221703.005,7.812,37.109,25.391,8.301,0.0,0
1582221703.0089998,5.371,47.363,23.438,6.836,0.0,0
1582221703.0129998,2.93,47.363,24.414,11.23,0.0,0
1582221703.0170002,5.859,41.992,26.367,21.484,0.0,0
1582221703.021,6.348,41.504,23.438,12.207,0.0,0
1582221703.025,15.137,38.574,21.484,2.441,0.0,0
1582221703.028,16.113,41.504,24.414,9.766,0.0,0
1582221703.032,9.766,44.922,27.344,19.043,0.0,0
1582221703.036,11.719,44.434,26.855,14.648,0.0,0
1582221703.04,19.043,33.691,28.809,9.277,0.0,0
1582221703.044,12.695,30.762,33.203,9.766,0.0,0
1582221703.061,3.906,41.992,32.715,12.695,0.0,0
1582221703.065,4.395,36.133,30.762,11.719,0.0,0
1582221703.069,9.766,29.297,28.809,2.93,0.0,0
1582221703.073,9.277,37.598,27.344,7.324,0.0,0
1582221703.077,-4.883,42.48,26.855,17.09,0.0,0
1582221703.081,-1.465,41.01600000000001,26.367,13.672,0.0,0
1582221703.085,7.324,42.969,27.832,14.16,0.0,0
1582221703.0879998,-4.395,32.227,24.414,14.16,0.0,0
1582221703.092,-4.395,24.902,22.949,17.09,0.0,0
1582221703.096,4.395,30.762,25.879,20.996,0.0,0
1582221703.1,5.371,38.086,24.414,11.23,0.0,0
1582221703.104,7.812,40.039,26.367,10.254,0.0,0
1582221703.106,6.348,43.945,28.809,22.461,0.0,0
1582221703.11,2.93,41.01600000000001,26.367,26.367,0.0,0
1582221703.1139998,5.371,34.18,26.367,17.578,0.0,0
1582221703.1179998,10.742,38.086,26.855,6.348,0.0,0
1582221703.1220002,2.441,40.039,25.391,6.836,0.0,0
1582221703.1260002,-3.418,45.41,25.391,19.531,0.0,0
1582221703.13,7.812,41.01600000000001,24.902,15.137,0.0,0
1582221703.133,13.184,31.738000000000003,22.461,1.953,0.0,0
1582221703.137,13.184,27.344,22.461,8.301,0.0,0
1582221703.141,13.672,29.785,25.879,20.996,0.0,0
1582221703.145,13.184,38.574,22.949,22.461,0.0,0
1582221703.149,13.672,38.086,20.02,13.184,0.0,0
1582221703.151,10.742,27.344,21.484,8.789,0.0,0
1582221703.155,4.883,30.273000000000003,21.973000000000006,17.578,0.0,0
1582221703.159,-4.395,34.18,17.578,13.184,0.0,0
1582221703.163,-3.418,28.32,15.137,2.441,0.0,0
1582221703.167,3.418,35.645,18.066,1.465,0.0,0
1582221703.171,-2.93,31.25,19.043,5.859,0.0,0
1582221703.175,-3.906,20.508000000000006,20.996,15.625,0.0,0
1582221703.178,2.441,31.738000000000003,23.438,19.531,0.0,0
1582221703.1820002,6.836,38.574,23.926,5.859,0.0,0
1582221703.186,2.441,41.504,24.902,4.395,0.0,0
1582221703.19,0.977,38.574,24.902,22.461,0.0,0
1582221703.194,6.836,33.691,24.902,21.484,0.0,0
1582221703.196,6.836,32.715,24.414,8.301,0.0,0
1582221703.2,5.371,36.133,26.855,7.812,0.0,0
1582221703.204,0.0,33.203,29.297,15.625,0.0,0
1582221703.208,-4.395,34.668,23.926,13.672,0.0,0
1582221703.212,1.465,33.691,22.949,4.883,0.0,0
1582221703.216,0.977,36.621,25.391,1.465,0.0,0
1582221703.22,-2.441,41.01600000000001,21.973000000000006,5.371,0.0,0
1582221703.2229998,2.441,38.574,19.043,11.719,0.0,0
1582221703.2270002,1.953,36.621,18.066,2.441,0.0,0
1582221703.231,-1.465,33.691,17.578,-9.277,0.0,0
1582221703.235,6.836,19.531,22.461,5.859,0.0,0
1582221703.2389998,12.207,27.344,22.949,15.137,0.0,0
1582221703.24,9.766,41.504,19.043,6.836,0.0,0
1582221703.244,4.883,38.086,18.066,2.93,0.0,0
1582221703.248,3.906,38.086,18.555,8.789,0.0,0
1582221703.252,5.859,41.01600000000001,20.508000000000006,20.02,0.0,0
1582221703.256,9.277,37.109,22.949,27.344,0.0,0
1582221703.26,15.137,35.645,22.949,20.02,0.0,0
1582221703.264,12.695,40.527,22.949,11.719,0.0,0
1582221703.2670002,9.766,31.25,21.973000000000006,24.414,0.0,0
1582221703.271,11.719,28.809,20.996,31.25,0.0,0
1582221703.275,16.113,40.527,21.973000000000006,17.578,0.0,0
1582221703.279,20.02,44.922,20.996,6.348,0.0,0
1582221703.283,17.578,36.621,22.461,16.602,0.0,0
1582221703.286,9.277,29.297,22.949,23.438,0.0,0
1582221703.29,9.766,34.668,20.996,13.184,0.0,0
1582221703.294,9.277,32.715,22.461,0.977,0.0,0
1582221703.298,7.812,35.156,23.438,5.859,0.0,0
1582221703.302,3.906,31.738000000000003,22.949,13.184,0.0,0
1582221703.306,-4.883,30.762,19.531,1.465,0.0,0
1582221703.31,0.977,33.203,16.602,-8.789,0.0,0
1582221703.313,6.836,27.344,17.09,-2.93,0.0,0
1582221703.3170002,1.465,35.645,16.602,7.324,0.0,0
1582221703.321,5.859,40.527,18.555,8.301,0.0,0
1582221703.325,15.137,35.645,18.555,2.441,0.0,0
1582221703.329,11.23,35.156,20.508000000000006,-0.488,0.0,0
1582221703.331,2.93,36.621,22.949,10.742,0.0,0
1582221703.335,4.883,40.527,22.461,20.508000000000006,0.0,0
1582221703.339,8.789,40.039,25.879,11.719,0.0,0
1582221703.343,14.16,32.227,27.832,6.836,0.0,0
1582221703.347,13.672,38.574,27.344,21.973000000000006,0.0,0
1582221703.351,3.906,45.898,29.297,23.926,0.0,0
1582221703.355,2.441,33.691,26.367,12.207,0.0,0
1582221703.3579998,4.883,29.297,22.461,-0.488,0.0,0
1582221703.3620002,0.488,36.133,25.879,1.465,0.0,0
1582221703.3660002,-1.953,35.156,27.832,15.137,0.0,0
1582221703.37,0.488,50.78100000000001,24.902,12.695,0.0,0
1582221703.3739998,2.441,36.133,23.926,0.488,0.0,0
1582221703.375,0.0,17.09,24.414,-0.488,0.0,0
1582221703.379,-2.93,35.645,23.438,1.953,0.0,0
1582221703.383,-7.324,37.109,25.391,-1.465,0.0,0
1582221703.387,-10.254,35.645,27.344,-7.812,0.0,0
1582221703.391,-0.488,44.922,26.855,-3.906,0.0,0
1582221703.395,5.859,39.551,26.367,5.371,0.0,0
1582221703.399,0.977,30.762,27.344,2.441,0.0,0
1582221703.4020002,-0.488,40.039,25.391,-1.465,0.0,0
1582221703.406,0.0,39.551,25.879,-3.906,0.0,0
1582221703.41,1.953,32.715,30.273000000000003,5.859,0.0,0
1582221703.414,0.488,35.156,29.785,11.23,0.0,0
1582221703.418,-3.906,25.879,30.762,5.859,0.0,0
1582221703.435,1.465,29.297,28.809,2.93,0.0,0
1582221703.439,8.301,44.922,24.902,1.953,0.0,0
1582221703.4429998,4.883,34.18,26.367,12.695,0.0,0
1582221703.447,1.953,34.668,25.391,8.301,0.0,0
1582221703.451,6.348,38.086,25.391,-6.348,0.0,0
1582221703.455,6.836,35.156,24.902,3.906,0.0,0
1582221703.459,5.859,40.039,22.949,15.137,0.0,0
1582221703.462,5.859,31.738000000000003,24.902,10.742,0.0,0
1582221703.466,8.301,30.273000000000003,26.367,-0.488,0.0,0
1582221703.47,10.254,43.457,25.391,-4.395,0.0,0
1582221703.474,2.441,37.109,26.855,5.859,0.0,0
1582221703.478,-5.859,30.273000000000003,23.926,11.719,0.0,0
1582221703.481,-3.418,44.434,23.438,7.324,0.0,0
1582221703.485,4.395,46.875,25.391,0.488,0.0,0
1582221703.4889998,0.0,40.039,25.879,5.859,0.0,0
1582221703.4929998,-2.441,35.645,28.809,22.461,0.0,0
1582221703.4970002,5.859,29.297,28.32,22.949,0.0,0
1582221703.5010002,3.906,24.414,26.855,12.695,0.0,0
1582221703.505,-5.371,35.156,27.344,7.324,0.0,0
1582221703.508,-6.348,41.992,30.762,15.137,0.0,0
1582221703.512,0.0,36.133,32.715,25.879,0.0,0
1582221703.516,4.883,33.203,32.227,10.254,0.0,0
1582221703.52,0.0,33.203,29.785,3.418,0.0,0
1582221703.524,0.488,31.738000000000003,30.273000000000003,15.625,0.0,0
1582221703.525,4.883,32.715,31.738000000000003,18.066,0.0,0
1582221703.529,4.883,35.156,29.297,5.859,0.0,0
1582221703.533,2.441,25.391,29.297,-4.883,0.0,0
1582221703.5370002,2.93,32.227,28.809,2.441,0.0,0
1582221703.541,5.371,49.316,25.879,6.348,0.0,0
1582221703.545,6.836,47.363,24.414,-1.465,0.0,0
1582221703.549,6.348,35.645,23.438,-11.719,0.0,0
1582221703.552,-1.953,40.039,21.973000000000006,-7.324,0.0,0
1582221703.556,-6.348,41.992,22.461,0.977,0.0,0
1582221703.56,0.488,37.109,22.461,-4.883,0.0,0
1582221703.564,10.742,38.086,20.996,-5.859,0.0,0
1582221703.5679998,11.23,36.621,20.996,7.812,0.0,0
1582221703.571,8.789,37.598,24.414,22.461,0.0,0
1582221703.575,5.859,34.18,27.832,22.461,0.0,0
1582221703.579,8.301,34.668,28.32,13.672,0.0,0
1582221703.583,10.742,21.973000000000006,31.25,12.695,0.0,0
1582221703.587,6.836,19.043,32.715,18.555,0.0,0
1582221703.591,7.812,37.109,32.227,23.926,0.0,0
1582221703.595,2.441,35.645,28.32,11.719,0.0,0
1582221703.5979998,-0.977,38.574,25.391,1.465,0.0,0
1582221703.6020002,-0.977,35.156,25.391,8.789,0.0,0
1582221703.606,-2.93,21.973000000000006,23.438,17.578,0.0,0
1582221703.61,0.488,26.855,26.855,15.625,0.0,0
1582221703.6139998,0.977,34.18,28.809,2.441,0.0,0
1582221703.615,-4.883,30.273000000000003,29.297,-0.488,0.0,0
1582221703.619,-11.23,26.855,30.273000000000003,4.883,0.0,0
1582221703.623,-7.324,23.438,29.785,5.859,0.0,0
1582221703.627,-3.906,23.438,30.273000000000003,-9.766,0.0,0
1582221703.631,-8.301,27.832,30.762,-17.578,0.0,0
1582221703.635,-10.742,36.133,27.344,-7.812,0.0,0
1582221703.639,-12.207,45.41,23.438,-6.836,0.0,0
1582221703.6420002,-4.883,34.668,27.832,-13.672,0.0,0
1582221703.646,0.488,33.203,29.297,-15.137,0.0,0
1582221703.65,-1.465,41.992,27.832,2.441,0.0,0
1582221703.654,2.441,34.18,29.297,11.719,0.0,0
1582221703.658,8.789,36.133,28.809,5.371,0.0,0
1582221703.66,10.254,42.969,27.832,6.348,0.0,0
1582221703.664,8.789,42.48,28.32,17.578,0.0,0
1582221703.668,8.301,41.992,27.832,30.273000000000003,0.0,0
1582221703.6720002,12.207,42.969,27.344,18.066,0.0,0
1582221703.676,15.625,44.434,27.832,0.977,0.0,0
1582221703.68,6.348,35.645,28.809,5.859,0.0,0
1582221703.684,-0.488,28.32,29.785,14.648,0.0,0
1582221703.687,-1.953,39.551,28.809,15.137,0.0,0
1582221703.691,-6.348,54.688,28.809,-1.953,0.0,0
1582221703.695,-1.953,42.48,32.715,0.977,0.0,0
1582221703.699,-1.953,35.645,35.645,18.066,0.0,0
1582221703.7029998,0.0,35.156,34.668,22.949,0.0,0
1582221703.705,0.488,32.715,33.203,17.09,0.0,0
1582221703.709,-3.906,44.434,33.203,9.766,0.0,0
1582221703.7129998,-7.812,42.969,31.738000000000003,16.113,0.0,0
1582221703.717,-3.906,40.039,32.715,21.484,0.0,0
1582221703.721,4.395,44.922,31.738000000000003,16.602,0.0,0
1582221703.725,9.766,45.898,30.762,7.324,0.0,0
1582221703.729,5.859,35.156,30.273000000000003,3.906,0.0,0
1582221703.732,-1.465,34.18,27.832,6.836,0.0,0
1582221703.736,1.465,41.504,25.391,6.836,0.0,0
1582221703.74,1.465,45.41,25.391,-0.488,0.0,0
1582221703.744,3.906,39.551,26.367,0.977,0.0,0
1582221703.748,3.906,25.879,26.367,1.953,0.0,0
1582221703.75,0.977,24.414,26.855,4.395,0.0,0
1582221703.754,2.93,38.574,27.832,3.906,0.0,0
1582221703.758,2.93,45.41,27.344,-0.488,0.0,0
1582221703.762,-5.371,37.598,26.367,8.789,0.0,0
1582221703.766,-6.836,35.645,24.414,11.719,0.0,0
1582221703.77,2.93,41.01600000000001,24.902,5.859,0.0,0
1582221703.774,8.301,38.574,30.273000000000003,2.441,0.0,0
1582221703.7770002,1.465,40.039,31.738000000000003,14.648,0.0,0
1582221703.781,-1.465,36.133,32.227,26.367,0.0,0
1582221703.785,8.301,32.227,33.203,13.672,0.0,0
1582221703.789,9.766,39.062,27.344,4.395,0.0,0
1582221703.793,0.977,42.969,27.832,12.207,0.0,0
1582221703.81,1.465,41.01600000000001,33.691,23.438,0.0,0
1582221703.814,3.906,22.461,35.645,19.531,0.0,0
1582221703.8179998,4.395,28.32,36.133,5.859,0.0,0
1582221703.822,-0.488,45.898,34.668,10.742,0.0,0
1582221703.826,-7.324,31.25,32.715,22.949,0.0,0
1582221703.83,-8.789,30.273000000000003,30.273000000000003,20.508000000000006,0.0,0
1582221703.834,-2.93,31.738000000000003,29.297,9.766,0.0,0
1582221703.837,2.93,37.109,31.25,5.859,0.0,0
1582221703.841,4.395,52.734,31.25,15.137,0.0,0
1582221703.845,6.836,52.734,33.203,16.602,0.0,0
1582221703.849,13.184,53.71100000000001,34.18,6.348,0.0,0
1582221703.853,20.996,47.852,35.156,3.418,0.0,0
1582221703.855,14.648,43.457,35.645,7.812,0.0,0
1582221703.859,14.648,45.41,28.32,13.672,0.0,0
1582221703.863,32.227,44.922,28.809,13.184,0.0,0
1582221703.867,34.668,41.992,33.203,2.93,0.0,0
1582221703.871,29.297,41.504,30.273000000000003,12.207,0.0,0
1582221703.875,20.996,48.34,28.809,25.391,0.0,0
1582221703.879,14.648,43.945,29.297,27.344,0.0,1
1582221703.8820002,12.207,36.621,29.785,23.926,0.0,0
1582221703.8860002,5.371,35.156,33.203,23.438,0.0,0
1582221703.89,-1.465,36.133,33.691,28.809,0.0,0
1582221703.894,-4.395,45.898,31.25,24.902,0.0,0
1582221703.8979998,-0.488,45.898,30.762,16.113,0.0,0
1582221703.9,1.953,43.945,30.762,14.16,0.0,0
1582221703.904,1.953,34.668,31.738000000000003,25.391,0.0,0
1582221703.908,0.0,30.273000000000003,29.785,26.367,0.0,0
1582221703.9120002,4.395,45.41,26.367,9.277,0.0,0
1582221703.916,12.207,42.969,27.344,7.324,0.0,0
1582221703.92,9.277,34.18,28.32,15.625,0.0,0
1582221703.924,7.812,44.434,27.344,24.902,0.0,0
1582221703.927,4.883,50.293,25.879,19.043,0.0,0
1582221703.931,1.953,49.316,24.902,5.859,0.0,0
1582221703.935,0.0,45.898,25.879,13.672,0.0,0
1582221703.939,-1.465,35.156,28.32,24.414,0.0,0
1582221703.9429998,2.93,34.18,29.785,27.344,0.0,0
1582221703.945,10.254,45.898,28.809,17.578,0.0,0
1582221703.949,4.883,41.01600000000001,29.785,3.906,0.0,0
1582221703.9529998,1.465,35.645,29.297,15.137,0.0,0
1582221703.957,5.859,29.297,29.785,20.508000000000006,0.0,0
1582221703.961,4.883,28.809,31.738000000000003,7.324,0.0,0
1582221703.965,4.883,32.715,29.297,0.977,0.0,0
1582221703.969,4.395,36.621,25.879,8.789,0.0,0
1582221703.972,2.441,43.945,24.414,19.043,0.0,0
1582221703.976,0.977,42.48,22.461,8.789,0.0,0
1582221703.98,1.465,41.504,21.484,-0.977,0.0,0
1582221703.984,4.395,34.668,21.973000000000006,9.766,0.0,0
1582221703.988,5.371,32.715,21.973000000000006,17.09,0.0,0
1582221703.99,8.301,37.598,22.461,18.555,0.0,0
1582221703.994,9.277,28.809,21.484,6.836,0.0,0
1582221703.998,6.348,32.227,20.02,6.348,0.0,0
1582221704.002,2.441,44.922,19.043,15.625,0.0,0
1582221704.006,2.441,41.992,18.555,13.672,0.0,0
1582221704.01,5.371,32.715,20.996,10.254,0.0,0
1582221704.014,6.348,23.926,20.02,13.184,0.0,0
1582221704.0170002,-1.953,29.785,17.09,17.09,0.0,0
1582221704.021,-2.441,29.785,17.09,10.742,0.0,0
1582221704.025,4.883,31.738000000000003,17.09,5.859,0.0,0
1582221704.029,9.766,37.109,20.996,13.184,0.0,0
1582221704.033,7.324,38.086,23.926,22.949,0.0,0
1582221704.035,3.418,37.109,22.461,36.621,0.0,0
1582221704.039,8.301,28.809,23.438,21.973000000000006,0.0,0
1582221704.043,11.23,33.691,24.414,2.441,0.0,0
1582221704.0470002,6.348,39.551,23.926,20.02,0.0,0
1582221704.051,0.0,36.133,24.414,24.902,0.0,0
1582221704.055,4.883,28.32,24.902,16.113,0.0,0
1582221704.059,6.836,36.133,24.902,0.488,0.0,0
1582221704.062,6.836,47.363,21.973000000000006,-0.977,0.0,0
1582221704.066,8.301,44.434,23.438,21.484,0.0,0
1582221704.07,12.695,34.668,24.902,23.926,0.0,0
1582221704.074,20.02,25.391,21.973000000000006,16.602,0.0,0
1582221704.0779998,19.043,31.25,21.484,16.113,0.0,0
1582221704.08,9.277,43.457,22.461,17.09,0.0,0
1582221704.084,9.277,38.574,23.438,19.531,0.0,0
1582221704.0879998,18.066,35.156,26.855,16.602,0.0,0
1582221704.092,21.484,40.039,29.785,16.602,0.0,0
1582221704.096,15.137,35.156,27.344,20.02,0.0,0
1582221704.1,9.277,33.203,18.555,19.531,0.0,0
1582221704.104,1.465,34.668,11.23,4.883,0.0,0
1582221704.107,-9.277,33.691,9.766,-13.184,0.0,0
1582221704.111,-5.371,24.902,12.207,-3.418,0.0,0
1582221704.115,4.395,24.414,21.484,5.859,0.0,0
1582221704.119,10.742,33.691,26.367,8.789,0.0,0
1582221704.123,14.648,34.668,25.391,4.395,0.0,0
1582221704.125,16.113,38.086,27.344,3.418,0.0,0
1582221704.129,15.625,39.062,29.785,17.09,0.0,0
1582221704.133,17.578,41.504,30.273000000000003,20.508000000000006,0.0,0
1582221704.137,15.137,46.387,30.273000000000003,9.277,0.0,0
1582221704.141,8.789,46.875,29.297,5.859,0.0,0
1582221704.145,3.418,48.828,29.297,12.207,0.0,0
1582221704.149,2.93,42.969,30.762,20.996,0.0,0
1582221704.1520002,11.719,40.527,32.715,18.066,0.0,0
1582221704.156,16.602,34.668,32.715,9.277,0.0,0
1582221704.16,4.883,33.691,29.297,13.672,0.0,0
1582221704.164,0.0,48.828,25.879,17.578,0.0,0
1582221704.168,-2.441,39.551,25.879,10.742,0.0,0
1582221704.186,2.93,35.645,29.785,-5.859,0.0,0
1582221704.19,6.836,45.41,33.203,-4.395,0.0,0
1582221704.194,-1.953,41.992,32.227,13.672,0.0,0
1582221704.198,2.441,44.434,31.738000000000003,10.254,0.0,0
1582221704.202,7.324,43.457,33.203,1.953,0.0,0
1582221704.206,9.277,39.062,30.762,7.324,0.0,0
1582221704.21,0.488,38.086,30.762,6.836,0.0,0
1582221704.2129998,0.977,41.01600000000001,30.762,7.324,0.0,0
1582221704.217,11.23,40.527,29.785,2.93,0.0,0
1582221704.221,7.812,45.41,29.785,-2.441,0.0,0
1582221704.225,3.418,48.34,28.809,-0.977,0.0,0
1582221704.229,10.254,43.457,29.297,7.324,0.0,0
1582221704.231,21.973000000000006,34.18,28.32,8.301,0.0,0
1582221704.235,23.926,33.691,27.344,5.859,0.0,0
1582221704.2389998,21.484,39.551,27.344,13.184,0.0,0
1582221704.2429998,22.461,34.18,25.879,17.578,0.0,0
1582221704.2470002,22.949,44.434,23.926,20.02,0.0,0
1582221704.2510002,22.461,53.223,23.438,16.113,0.0,0
1582221704.255,15.625,46.387,21.484,17.09,0.0,0
1582221704.258,11.719,43.945,22.949,31.738000000000003,0.0,0
1582221704.262,18.066,38.086,25.391,21.973000000000006,0.0,0
1582221704.266,21.484,36.133,26.855,7.812,0.0,0
1582221704.27,11.719,42.969,29.785,14.648,0.0,0
1582221704.274,4.395,34.668,27.344,21.973000000000006,0.0,0
1582221704.276,9.766,33.203,25.879,20.508000000000006,0.0,0
1582221704.28,15.137,28.809,27.344,8.789,0.0,0
1582221704.284,10.742,33.691,26.855,0.977,0.0,0
1582221704.288,3.418,46.387,28.32,13.184,0.0,0
1582221704.292,-0.488,47.852,27.344,13.184,0.0,0
1582221704.296,1.953,50.78100000000001,21.484,6.348,0.0,0
1582221704.3,5.371,42.969,20.508000000000006,-0.488,0.0,0
1582221704.303,1.953,36.621,22.949,-3.418,0.0,0
1582221704.3070002,-4.883,44.434,22.461,8.789,0.0,0
1582221704.311,1.465,43.945,21.484,11.719,0.0,0
1582221704.315,8.301,39.551,23.926,5.371,0.0,0
1582221704.319,6.348,42.48,24.902,-0.488,0.0,0
1582221704.32,14.648,36.133,25.391,13.672,0.0,0
1582221704.324,19.531,39.062,26.855,24.902,0.0,0
1582221704.3279998,17.578,44.922,25.391,11.719,0.0,0
1582221704.332,22.949,41.504,26.367,12.207,0.0,0
1582221704.336,20.996,35.645,28.32,20.508000000000006,0.0,0
1582221704.34,16.113,27.344,29.785,24.414,0.0,0
1582221704.344,12.207,38.086,28.32,17.09,0.0,0
1582221704.347,9.766,41.992,28.809,8.789,0.0,0
1582221704.351,7.324,40.039,27.344,12.207,0.0,0
1582221704.355,2.441,37.109,22.949,14.16,0.0,0
1582221704.359,-0.488,39.062,21.973000000000006,13.184,0.0,0
1582221704.363,3.906,43.457,24.902,4.883,0.0,0
1582221704.3660002,2.441,39.551,29.785,6.836,0.0,0
1582221704.37,-0.977,48.828,30.762,17.09,0.0,0
1582221704.3739998,2.93,46.875,27.832,11.719,0.0,0
1582221704.3779998,3.418,36.133,27.344,2.441,0.0,0
1582221704.3820002,-0.977,38.086,26.367,6.348,0.0,0
1582221704.3860002,-6.348,41.992,24.902,18.066,0.0,0
1582221704.39,-4.395,36.133,25.879,15.625,0.0,0
1582221704.393,8.789,36.133,22.461,-1.953,0.0,0
1582221704.397,13.672,36.133,20.508000000000006,-0.488,0.0,0
1582221704.401,8.301,31.738000000000003,24.902,16.113,0.0,0
1582221704.405,9.766,25.879,27.344,18.555,0.0,0
1582221704.409,14.648,35.156,27.344,5.859,0.0,0
1582221704.411,16.602,37.598,26.367,-2.441,0.0,0
1582221704.415,7.324,39.062,24.414,4.395,0.0,0
1582221704.419,0.488,44.434,27.344,11.719,0.0,0
1582221704.423,6.836,40.039,28.809,10.254,0.0,0
1582221704.427,12.207,48.34,25.879,3.906,0.0,0
1582221704.431,3.906,52.246,25.391,5.371,0.0,0
1582221704.435,1.953,44.922,28.32,18.555,0.0,0
1582221704.438,8.789,36.133,28.32,16.113,0.0,0
1582221704.4420002,6.836,40.527,28.32,4.883,0.0,0
1582221704.446,8.301,46.875,30.762,10.742,0.0,0
1582221704.45,6.348,31.25,30.762,21.484,0.0,0
1582221704.454,2.441,26.367,29.297,23.438,0.0,0
1582221704.456,8.301,39.062,26.367,16.113,0.0,0
1582221704.46,8.789,43.945,25.879,9.766,0.0,0
1582221704.464,0.0,43.457,26.855,14.648,0.0,0
1582221704.468,0.0,39.551,25.879,18.555,0.0,0
1582221704.472,5.859,36.621,26.855,13.184,0.0,0
1582221704.476,4.883,27.344,28.809,7.812,0.0,0
1582221704.48,-2.93,34.18,28.809,9.277,0.0,0
1582221704.4829998,-2.93,48.34,29.785,15.625,0.0,0
1582221704.4870002,-0.977,42.969,31.738000000000003,13.184,0.0,0
1582221704.4910002,5.371,44.922,31.738000000000003,10.254,0.0,0
1582221704.495,5.859,37.598,30.273000000000003,17.578,0.0,0
1582221704.4989998,-9.277,28.32,29.785,18.555,0.0,0
1582221704.5010002,-3.418,40.527,30.762,15.137,0.0,0
1582221704.505,7.812,44.922,26.855,8.789,0.0,0
1582221704.5089998,8.301,36.621,25.391,16.113,0.0,0
1582221704.5129998,-0.977,34.18,28.32,23.438,0.0,0
1582221704.5170002,-2.93,33.203,30.273000000000003,22.461,0.0,0
1582221704.521,7.324,35.645,26.855,16.113,0.0,0
1582221704.525,12.695,38.574,23.438,10.742,0.0,0
1582221704.528,2.441,35.645,26.855,16.602,0.0,0
1582221704.532,-4.395,35.645,27.344,22.461,0.0,0
1582221704.536,0.977,26.855,25.391,11.719,0.0,0
1582221704.54,2.93,30.273000000000003,26.367,2.441,0.0,0
1582221704.544,-0.488,41.504,25.391,7.812,0.0,0
1582221704.561,-5.859,42.48,26.367,14.648,0.0,0
1582221704.565,-2.441,33.203,26.367,14.648,0.0,0
1582221704.569,8.789,25.879,25.879,12.695,0.0,0
1582221704.573,5.859,41.992,26.367,15.137,0.0,0
1582221704.577,-1.953,42.969,25.879,21.973000000000006,0.0,0
1582221704.581,-1.953,33.203,25.879,21.484,0.0,0
1582221704.585,0.488,33.691,24.902,6.348,0.0,0
1582221704.5879998,3.418,33.203,25.879,1.953,0.0,0
1582221704.592,3.906,41.504,24.902,18.066,0.0,0
1582221704.596,9.766,34.18,23.926,22.949,0.0,0
1582221704.6,10.254,36.133,23.926,7.324,0.0,0
1582221704.604,6.348,43.457,22.461,1.953,0.0,0
1582221704.606,0.977,40.527,23.438,14.16,0.0,0
1582221704.61,-3.418,42.48,23.926,24.902,0.0,0
1582221704.6139998,-3.418,31.25,24.414,14.648,0.0,0
1582221704.6179998,-4.395,23.438,27.344,5.859,0.0,0
1582221704.6220002,-1.953,41.01600000000001,26.855,15.137,0.0,0
1582221704.6260002,-0.488,46.387,26.367,22.949,0.0,0
1582221704.63,-0.488,37.109,26.367,19.043,0.0,0
1582221704.633,-1.465,34.668,27.832,2.441,0.0,0
1582221704.637,-2.441,40.039,28.809,3.906,0.0,0
1582221704.641,-4.395,40.527,29.297,10.742,0.0,0
1582221704.645,-9.766,33.691,29.785,3.906,0.0,0
1582221704.649,0.0,37.598,27.832,-1.465,0.0,0
1582221704.651,2.441,34.18,26.367,-0.488,0.0,0
1582221704.655,-5.371,37.109,25.391,16.113,0.0,0
1582221704.659,-2.441,35.156,27.832,17.09,0.0,0
1582221704.663,7.812,29.785,28.809,5.859,0.0,0
1582221704.667,7.812,37.598,25.879,-1.465,0.0,0
1582221704.671,0.977,33.691,26.367,8.789,0.0,0
1582221704.675,-1.465,35.645,27.344,21.484,0.0,0
1582221704.678,0.488,38.086,26.367,15.137,0.0,0
1582221704.6820002,7.812,33.203,25.391,7.324,0.0,0
1582221704.686,5.859,26.367,24.414,7.324,0.0,0
1582221704.69,-6.348,30.762,22.949,14.16,0.0,0
1582221704.694,-3.418,41.504,22.949,15.625,0.0,0
1582221704.695,5.859,38.574,20.996,3.418,0.0,0
1582221704.699,2.441,25.879,19.531,3.418,0.0,0
1582221704.7029998,-0.977,21.973000000000006,18.066,20.996,0.0,0
1582221704.707,-1.953,32.715,16.602,15.137,0.0,0
1582221704.711,4.883,41.992,16.602,0.0,0.0,0
1582221704.715,1.465,40.039,15.137,-4.883,0.0,0
1582221704.719,-4.395,34.18,15.625,0.0,0.0,0
1582221704.722,-1.953,36.621,18.066,4.883,0.0,0
1582221704.726,-2.441,31.738000000000003,19.531,-7.812,0.0,0
1582221704.73,-4.883,23.438,18.555,-8.301,0.0,0
1582221704.734,-10.254,23.438,18.555,2.441,0.0,0
1582221704.738,-12.695,23.438,18.066,5.859,0.0,0
1582221704.74,-11.23,28.32,17.09,-3.906,0.0,0
1582221704.744,-3.418,40.039,16.602,-10.254,0.0,0
1582221704.748,-1.953,37.109,19.043,1.465,0.0,0
1582221704.752,-4.395,30.273000000000003,23.438,12.695,0.0,0
1582221704.756,0.0,33.203,21.973000000000006,16.602,0.0,0
1582221704.76,7.324,34.18,20.996,9.277,0.0,0
1582221704.764,3.906,42.48,20.508000000000006,2.93,0.0,0
1582221704.7670002,-2.441,42.48,20.996,15.625,0.0,0
1582221704.771,-0.488,34.668,24.414,17.578,0.0,0
1582221704.775,-1.465,33.691,24.414,8.301,0.0,0
1582221704.779,4.395,43.457,23.438,2.93,0.0,0
1582221704.783,3.418,47.363,26.855,11.719,0.0,0
1582221704.785,4.395,40.527,27.832,19.531,0.0,0
1582221704.789,13.672,33.691,29.297,14.16,0.0,0
1582221704.793,19.043,36.133,31.25,9.766,0.0,0
1582221704.7970002,15.137,37.109,26.855,7.812,0.0,0
1582221704.801,8.789,37.109,26.367,10.742,0.0,0
1582221704.805,19.043,45.41,30.273000000000003,14.648,0.0,0
1582221704.809,24.902,39.551,29.297,3.906,0.0,0
1582221704.812,29.297,34.668,27.344,1.953,0.0,0
1582221704.816,35.156,33.691,26.855,5.371,0.0,0
1582221704.82,27.832,39.551,28.809,4.395,0.0,0
1582221704.824,23.926,48.34,27.832,2.93,0.0,0
1582221704.8279998,20.02,44.922,27.832,5.859,0.0,0
1582221704.83,6.348,44.434,29.297,14.16,0.0,0
1582221704.834,0.0,44.922,29.297,18.066,0.0,0
1582221704.8379998,0.0,41.01600000000001,26.855,13.672,0.0,0
1582221704.842,-3.906,40.527,26.855,8.301,0.0,0
1582221704.846,-8.789,44.922,31.738000000000003,17.578,0.0,0
1582221704.85,-9.277,41.01600000000001,27.344,26.855,0.0,0
1582221704.854,0.488,29.297,25.391,12.207,0.0,0
1582221704.857,6.348,34.668,29.297,-1.465,0.0,0
1582221704.861,6.348,39.062,27.344,13.672,0.0,0
1582221704.865,7.812,31.25,28.32,25.879,0.0,0
1582221704.869,8.301,41.504,28.809,14.648,0.0,0
1582221704.873,12.207,48.828,24.902,1.465,0.0,0
1582221704.875,10.742,45.41,23.438,1.465,0.0,0
1582221704.879,10.742,38.574,26.855,17.578,0.0,0
1582221704.883,10.742,39.062,27.344,19.043,0.0,0
1582221704.887,6.348,39.551,26.367,6.836,0.0,0
1582221704.891,11.719,36.621,25.879,8.789,0.0,0
1582221704.895,12.695,37.598,23.438,17.09,0.0,0
1582221704.899,1.953,36.621,23.926,19.531,0.0,0
1582221704.9020002,4.883,31.738000000000003,24.902,9.277,0.0,0
1582221704.906,13.184,26.855,22.461,6.348,0.0,0
1582221704.91,6.836,24.902,24.902,12.695,0.0,0
1582221704.914,-1.465,29.297,24.902,12.695,0.0,1
1582221704.918,0.488,32.715,23.438,9.766,0.0,0
1582221704.934,7.812,37.598,25.391,1.465,0.0,0
1582221704.938,0.488,42.969,25.879,0.0,0.0,0
1582221704.9420002,-6.836,41.504,24.902,5.859,0.0,0
1582221704.946,-3.906,31.738000000000003,24.902,4.883,0.0,0
1582221704.95,-0.488,33.203,21.484,2.93,0.0,0
1582221704.954,-1.465,36.621,21.484,3.906,0.0,0
1582221704.958,-7.324,24.902,26.367,12.695,0.0,0
1582221704.961,-0.977,24.902,25.391,10.742,0.0,0
1582221704.965,4.883,34.18,25.391,2.441,0.0,0
1582221704.969,5.859,35.156,26.855,10.254,0.0,0
1582221704.9729998,2.93,41.504,26.367,15.137,0.0,0
1582221704.9770002,0.0,47.363,24.414,17.578,0.0,0
1582221704.98,-0.977,35.645,24.902,12.207,0.0,0
1582221704.984,-1.953,33.203,24.902,0.0,0.0,0
1582221704.988,-3.418,32.715,21.484,2.93,0.0,0
1582221704.992,-7.812,35.156,21.484,11.719,0.0,0
1582221704.996,-1.953,39.062,24.414,8.789,0.0,0
1582221705.0,7.812,39.551,25.391,-4.883,0.0,0
1582221705.004,5.371,33.691,20.996,8.789,0.0,0
1582221705.0070002,0.0,28.32,21.973000000000006,27.344,0.0,0
1582221705.0110002,3.418,28.32,27.832,22.461,0.0,0
1582221705.015,10.742,30.273000000000003,29.297,15.625,0.0,0
1582221705.019,15.137,34.668,31.25,19.043,0.0,0
1582221705.0229998,7.324,39.062,32.227,31.25,0.0,0
1582221705.025,2.93,43.945,29.297,38.086,0.0,0
1582221705.029,17.578,35.156,29.297,28.809,0.0,0
1582221705.033,20.996,29.785,29.297,21.973000000000006,0.0,0
1582221705.0370002,14.16,35.156,28.32,23.926,0.0,0
1582221705.041,9.277,41.01600000000001,30.273000000000003,25.879,0.0,0
1582221705.045,13.184,38.574,31.738000000000003,18.555,0.0,0
1582221705.049,19.043,27.344,30.273000000000003,10.742,0.0,0
1582221705.052,9.277,41.01600000000001,28.32,17.09,0.0,0
1582221705.056,4.883,48.34,30.762,18.555,0.0,0
1582221705.06,15.625,41.992,29.297,18.066,0.0,0
1582221705.064,18.555,43.457,25.391,11.719,0.0,0
1582221705.0679998,12.207,40.527,28.809,14.16,0.0,0
1582221705.07,4.395,36.133,31.25,26.855,0.0,0
1582221705.074,7.812,38.574,27.832,24.902,0.0,0
1582221705.0779998,15.137,32.715,27.344,21.484,0.0,0
1582221705.082,13.184,34.668,28.809,20.996,0.0,0
1582221705.086,11.719,41.992,27.832,28.809,0.0,0
1582221705.09,11.23,35.645,25.879,31.25,0.0,0
1582221705.094,18.066,41.992,26.367,23.926,0.0,0
1582221705.097,20.996,52.246,25.391,24.902,0.0,0
1582221705.101,10.742,47.852,22.949,23.926,0.0,0
1582221705.105,-2.441,35.156,24.902,24.902,0.0,0
1582221705.109,-2.441,33.691,25.879,15.625,0.0,0
1582221705.113,11.719,37.598,23.438,8.789,0.0,0
1582221705.115,11.719,40.527,22.949,19.043,0.0,0
1582221705.119,6.836,35.645,23.926,21.484,0.0,0
1582221705.123,8.301,32.715,24.902,17.578,0.0,0
1582221705.127,8.789,35.645,23.926,6.348,0.0,0
1582221705.131,6.348,26.367,20.508000000000006,-0.488,0.0,0
1582221705.135,4.395,30.762,21.973000000000006,7.324,0.0,0
1582221705.139,0.488,38.574,23.438,12.695,0.0,0
1582221705.1420002,1.465,36.133,21.973000000000006,0.0,0.0,0
1582221705.146,2.93,44.922,21.484,-6.836,0.0,0
1582221705.15,0.488,45.41,23.926,11.23,0.0,0
1582221705.154,-0.488,41.01600000000001,26.367,20.02,0.0,0
1582221705.158,-1.465,36.621,24.902,13.184,0.0,0
1582221705.256,9.277,39.062,22.949,9.766,0.0,0
1582221705.26,7.812,42.969,23.926,20.996,0.0,0
1582221705.264,2.93,37.598,23.438,34.18,0.0,0
1582221705.268,7.812,33.203,19.043,19.043,0.0,0
1582221705.272,4.395,32.715,16.113,-0.488,0.0,0
1582221705.276,-2.93,40.527,17.578,6.836,0.0,0
1582221705.28,-5.859,38.086,18.555,17.09,0.0,0
1582221705.283,-2.93,37.598,17.09,14.16,0.0,0
1582221705.2870002,8.301,44.434,18.555,4.883,0.0,0
1582221705.291,12.695,39.551,19.531,12.695,0.0,0
1582221705.295,6.348,32.715,22.949,27.344,0.0,0
1582221705.299,6.348,41.01600000000001,25.879,22.461,0.0,0
1582221705.2589998,11.23,45.898,23.926,13.184,0.0,0
1582221705.2629998,10.742,37.109,22.461,14.648,0.0,0
1582221705.2670002,7.324,34.668,24.414,19.531,0.0,0
1582221705.271,4.883,36.133,21.973000000000006,17.09,0.0,0
1582221705.275,3.418,23.438,19.531,2.441,0.0,0
1582221705.279,5.859,29.785,20.02,-2.441,0.0,0
1582221705.283,3.418,38.086,20.508000000000006,5.371,0.0,0
1582221705.286,-5.859,32.715,17.578,9.277,0.0,0
1582221705.29,-9.766,35.156,19.531,2.93,0.0,0
1582221705.294,-4.883,34.668,24.902,0.0,0.0,0
1582221705.298,0.977,24.414,26.855,5.371,0.0,0
1582221705.302,0.0,28.809,24.902,16.113,0.0,0
1582221705.2629998,-3.906,34.18,22.949,19.531,0.0,0
1582221705.2670002,-6.348,29.785,25.879,7.324,0.0,0
1582221705.271,-4.883,36.133,27.832,7.812,0.0,0
1582221705.275,-5.371,39.551,27.344,16.602,0.0,0
1582221705.279,-7.812,36.621,24.902,13.672,0.0,0
1582221705.283,-2.441,25.879,22.949,10.742,0.0,0
1582221705.2870002,-5.859,24.902,23.438,4.883,0.0,0
1582221705.29,-16.113,33.203,23.438,5.859,0.0,0
1582221705.294,-2.441,25.879,24.414,16.602,0.0,0
1582221705.298,4.883,23.926,22.461,8.301,0.0,0
1582221705.302,-1.465,33.691,21.973000000000006,-1.465,0.0,0
1582221705.306,-4.395,38.574,20.508000000000006,5.859,0.0,0
1582221705.311,-6.836,33.691,21.484,8.301,0.0,0
1582221705.315,-1.465,31.738000000000003,21.973000000000006,3.418,0.0,0
1582221705.319,3.418,36.133,20.02,-1.953,0.0,0
1582221705.323,1.465,29.785,23.438,3.906,0.0,0
1582221705.327,-3.418,35.156,25.879,23.438,0.0,0
1582221705.331,1.953,40.527,25.879,22.461,0.0,0
1582221705.335,10.742,34.668,24.902,-5.859,0.0,0
1582221705.3379998,14.16,33.203,28.32,4.883,0.0,0
1582221705.342,10.254,35.645,28.809,24.902,0.0,0
1582221705.346,1.953,36.621,27.344,18.555,0.0,0
1582221705.35,6.836,31.25,28.809,13.672,0.0,0
1582221705.354,11.23,39.551,28.32,12.695,0.0,0
1582221705.356,5.371,49.805,25.391,20.508000000000006,0.0,0
1582221705.36,-4.395,35.156,25.879,24.902,0.0,0
1582221705.3639998,-3.418,37.109,24.902,15.625,0.0,0
1582221705.3679998,4.883,44.434,24.902,4.883,0.0,0
1582221705.3720002,2.441,33.691,28.809,2.441,0.0,0
1582221705.3760002,-0.488,34.668,25.391,19.531,0.0,0
1582221705.38,1.953,37.109,19.531,16.602,0.0,0
1582221705.383,-1.465,37.109,22.461,-3.418,0.0,0
1582221705.387,0.0,35.645,23.438,-5.371,0.0,0
1582221705.391,-0.488,35.645,20.996,4.395,0.0,0
1582221705.395,-7.812,32.227,22.949,5.371,0.0,0
1582221705.399,-1.465,17.578,24.902,-3.418,0.0,0
1582221705.401,7.324,26.367,25.391,3.906,0.0,0
1582221705.405,5.371,45.41,23.926,13.672,0.0,0
1582221705.409,0.488,48.34,20.996,12.207,0.0,0
1582221705.413,0.488,43.457,21.484,2.93,0.0,0
1582221705.417,1.465,40.039,21.973000000000006,0.977,0.0,0
1582221705.421,-3.418,38.574,21.484,15.137,0.0,0
1582221705.425,-2.93,32.227,20.508000000000006,17.09,0.0,0
1582221705.428,3.906,32.227,20.508000000000006,5.859,0.0,0
1582221705.4320002,8.789,34.18,22.461,1.953,0.0,0
1582221705.436,4.883,27.344,22.949,6.348,0.0,0
1582221705.44,0.488,32.227,23.926,16.602,0.0,0
1582221705.444,-1.953,41.992,20.508000000000006,8.789,0.0,0
1582221705.446,1.465,27.832,18.555,-8.789,0.0,0
1582221705.45,3.418,27.832,22.461,-3.906,0.0,0
1582221705.454,-4.883,41.504,20.996,5.859,0.0,0
1582221705.458,-7.324,30.273000000000003,19.043,5.371,0.0,0
1582221705.462,4.395,27.344,23.926,-1.465,0.0,0
1582221705.466,2.441,39.062,24.414,-11.23,0.0,0
1582221705.47,-3.418,41.504,22.461,3.906,0.0,0
1582221705.4729998,-0.488,39.551,21.973000000000006,16.602,0.0,0
1582221705.4770002,0.488,32.715,21.973000000000006,2.93,0.0,0
1582221705.481,5.371,24.902,23.926,-8.301,0.0,0
1582221705.485,-3.418,28.32,22.949,-3.418,0.0,0
1582221705.4889998,-8.789,37.109,20.996,13.184,0.0,0
1582221705.49,-2.441,35.156,19.531,4.395,0.0,0
1582221705.494,2.441,24.414,17.09,-3.906,0.0,0
1582221705.498,0.977,30.273000000000003,21.484,5.859,0.0,0
1582221705.502,-4.395,43.945,25.391,12.695,0.0,0
1582221705.506,-1.953,40.527,26.367,8.301,0.0,0
1582221705.51,1.465,34.668,26.855,-4.395,0.0,0
1582221705.514,2.441,42.48,25.879,-0.488,0.0,0
1582221705.5170002,-1.953,48.34,23.926,2.93,0.0,0
1582221705.521,-0.488,41.992,21.973000000000006,-1.953,0.0,0
1582221705.525,4.395,37.598,20.996,-4.395,0.0,0
1582221705.529,1.465,41.504,21.484,-5.859,0.0,0
1582221705.533,-6.836,36.621,26.855,5.859,0.0,0
1582221705.536,-7.812,32.715,28.32,5.371,0.0,0
1582221705.54,3.906,33.203,27.344,3.906,0.0,0
1582221705.544,6.836,39.551,25.391,11.719,0.0,0
1582221705.548,1.953,34.668,21.973000000000006,21.973000000000006,0.0,0
1582221705.552,-0.488,24.414,23.438,31.25,0.0,0
1582221705.556,-0.488,30.273000000000003,21.973000000000006,17.09,0.0,0
1582221705.56,2.93,37.109,20.508000000000006,-1.953,0.0,0
1582221705.563,1.953,31.25,22.949,1.953,0.0,0
1582221705.5670002,-5.371,39.062,26.367,10.742,0.0,0
1582221705.571,0.977,53.71100000000001,27.344,9.277,0.0,0
1582221705.575,8.789,43.457,26.367,-4.883,0.0,0
1582221705.579,2.441,34.18,26.855,-3.906,0.0,0
1582221705.581,-2.441,41.01600000000001,26.367,11.23,0.0,0
1582221705.585,-4.395,44.922,25.879,14.648,0.0,0
1582221705.589,-1.953,40.039,28.809,11.23,0.0,0
1582221705.593,-1.465,27.832,28.32,4.395,0.0,0
1582221705.597,-6.836,23.926,26.855,4.395,0.0,0
1582221705.601,-4.395,37.109,27.832,9.766,0.0,0
1582221705.605,-1.465,38.574,27.344,0.977,0.0,0
1582221705.6079998,6.348,34.18,25.879,-7.324,0.0,0
1582221705.6120002,0.0,42.48,26.855,-7.324,0.0,0
1582221705.6160002,-0.488,35.645,26.367,1.465,0.0,0
1582221705.62,8.789,38.086,24.414,8.789,0.0,0
1582221705.6239998,9.766,52.734,23.926,-1.465,0.0,0
1582221705.641,9.277,39.062,26.855,1.465,0.0,0
1582221705.645,6.348,33.203,26.367,14.16,0.0,0
1582221705.649,4.395,47.852,25.879,18.555,0.0,0
1582221705.653,5.859,45.41,25.391,10.742,0.0,0
1582221705.657,7.812,42.48,24.414,4.395,0.0,0
1582221705.661,7.324,42.48,26.855,19.043,0.0,0
1582221705.665,1.953,40.527,26.855,15.137,0.0,0
1582221705.668,6.836,34.18,25.391,5.371,0.0,0
1582221705.6720002,11.23,34.18,27.344,4.395,0.0,0
1582221705.676,1.953,35.645,26.855,13.184,0.0,0
