timestamps,TP9,AF7,AF8,TP10,Right AUX,Marker0
1556217365.398,21.484,85.449,169.922,6.348,-49.805,0
1556217365.402,15.137,79.590,178.711,11.230,-22.949,0
1556217365.406,-2.441,72.266,-38.086,8.789,27.832,0
1556217365.410,2.441,83.008,-45.410,12.695,34.180,0
1556217365.414,18.066,89.355,215.332,13.672,55.176,0
1556217365.418,17.090,76.172,134.277,9.766,30.762,0
1556217365.422,-1.953,86.914,-281.738,5.371,15.137,0
1556217365.425,-4.395,106.934,-270.020,-1.953,83.984,0
1556217365.429,18.066,111.328,156.250,-4.395,41.016,0
1556217365.433,24.902,101.562,215.332,-1.953,-8.301,0
1556217365.437,10.254,95.215,12.207,-2.930,-5.859,0
1556217365.441,3.906,100.098,-37.109,-5.859,5.859,0
1556217365.443,17.578,100.098,136.230,1.465,17.578,0
1556217365.447,25.391,88.867,232.910,14.160,62.012,0
1556217365.451,11.719,72.266,119.141,11.719,106.934,0
1556217365.455,-0.488,72.754,-0.977,9.766,62.988,0
1556217365.459,7.812,86.914,55.176,19.043,13.184,0
1556217365.463,22.949,89.355,14.648,25.879,-10.254,0
1556217365.467,15.137,95.215,-233.398,17.578,-3.906,0
1556217365.470,-1.465,102.051,-165.527,8.789,11.719,0
1556217365.474,4.883,97.168,-92.285,14.160,-62.988,0
1556217365.478,18.066,99.121,-26.855,12.695,-67.383,0
1556217365.482,12.695,97.168,129.883,6.836,-1.465,0
1556217365.486,-3.906,92.285,94.727,6.836,20.996,0
1556217365.503,-2.930,91.309,26.855,6.348,16.113,0
1556217365.507,19.043,92.285,72.266,3.906,11.230,0
1556217365.511,29.785,93.750,99.609,0.977,-44.434,0
1556217365.515,13.184,92.773,73.730,3.418,-35.156,0
1556217365.519,5.371,83.984,5.859,9.766,11.719,0
1556217365.523,20.020,77.148,-49.316,7.324,-0.977,0
1556217365.527,31.250,91.797,-24.414,9.277,-22.461,0
1556217365.530,19.531,105.957,66.895,9.277,-12.695,0
1556217365.534,-1.953,97.168,32.227,6.348,-12.207,0
1556217365.538,5.859,94.727,-150.391,9.766,12.207,0
1556217365.542,23.438,106.934,8.789,7.324,49.805,0
1556217365.546,12.695,99.609,205.078,3.418,50.293,0
1556217365.548,-7.324,87.402,-18.066,1.953,-5.371,0
1556217365.552,-1.953,89.844,-32.715,7.324,14.648,0
1556217365.556,14.160,95.703,214.355,10.742,53.711,0
1556217365.560,19.043,93.750,299.805,12.207,40.527,0
1556217365.564,6.348,84.473,62.988,13.672,19.043,0
1556217365.568,-5.371,78.125,-174.805,6.348,-12.695,0
1556217365.572,11.230,79.590,-30.273,8.301,31.738,0
1556217365.575,20.508,81.543,204.590,13.672,56.641,0
1556217365.579,5.371,85.449,55.176,4.395,38.574,0
1556217365.583,-2.441,93.262,-247.559,5.371,67.383,0
1556217365.587,6.836,103.516,-36.621,9.766,-10.742,0
1556217365.591,20.020,96.191,234.375,11.230,-57.617,0
1556217365.593,13.184,88.867,172.852,12.207,19.531,0
1556217365.597,1.953,79.102,68.359,11.230,78.613,0
1556217365.601,27.832,81.543,67.383,20.508,55.176,0
1556217365.605,65.918,91.309,207.031,41.016,20.508,0
1556217365.609,35.645,89.844,192.383,18.066,-0.977,0
1556217365.613,-9.766,84.961,-59.082,-4.395,0.000,0
1556217365.617,12.695,86.914,-158.691,19.043,-18.066,0
1556217365.620,22.949,90.332,145.508,17.578,4.883,0
1556217365.624,19.043,75.195,62.988,11.719,2.441,0
1556217365.628,10.254,80.566,-166.504,12.695,-12.207,0
1556217365.632,-14.160,89.844,72.266,-3.418,5.859,0
1556217365.636,-4.883,83.008,186.035,-4.883,14.160,0
1556217365.638,9.766,81.543,243.164,4.395,44.434,0
1556217365.642,0.000,83.008,231.934,6.836,57.129,0
1556217365.646,-13.184,81.543,124.023,2.441,32.715,0
1556217365.650,0.488,78.125,83.008,7.812,14.160,0
1556217365.654,28.809,80.566,173.340,20.508,27.832,0
1556217365.658,25.879,78.613,129.395,21.973,34.668,0
1556217365.662,6.348,77.637,-47.852,23.926,59.570,0
1556217365.665,18.555,71.777,-118.164,25.391,41.016,0
1556217365.669,40.039,64.941,-118.164,22.461,8.789,0
1556217365.673,33.691,75.195,135.742,22.461,40.527,0
1556217365.677,16.113,81.055,165.039,22.461,21.484,0
1556217365.681,13.184,79.102,7.812,18.066,4.883,0
1556217365.683,27.344,69.824,179.688,15.137,63.965,0
1556217365.687,36.621,62.012,318.848,19.531,51.270,0
1556217365.691,22.461,55.664,175.293,24.414,39.062,0
1556217365.695,11.230,57.129,-0.488,21.484,48.828,0
1556217365.699,27.832,59.570,80.566,20.508,32.715,0
1556217365.703,43.457,59.570,129.395,22.461,-14.160,0
1556217365.707,27.832,63.477,-23.926,22.949,-38.086,0
1556217365.710,7.324,50.293,-286.621,15.137,14.160,0
1556217365.714,18.555,59.082,-333.984,9.766,-30.762,0
1556217365.718,37.598,79.102,112.305,14.160,-58.105,0
1556217365.722,29.785,66.895,249.023,13.672,12.207,0
1556217365.726,12.207,59.082,-0.977,19.531,-3.418,0
1556217365.728,16.113,68.848,39.551,23.438,13.184,0
1556217365.732,31.738,66.406,259.766,24.902,29.785,0
1556217365.736,32.227,51.758,211.914,27.344,18.555,0
1556217365.740,11.230,52.246,-3.418,20.020,12.207,0
1556217365.744,4.395,64.453,-9.766,20.508,9.766,0
1556217365.748,28.809,64.453,83.984,28.320,27.344,0
1556217365.752,33.691,57.617,15.625,26.855,-4.395,0
1556217365.755,10.742,61.035,-207.031,15.625,21.484,0
1556217365.759,1.953,74.219,-125.488,14.160,29.785,0
1556217365.763,20.020,71.777,162.109,21.973,10.254,0
1556217365.767,31.738,64.941,194.824,24.414,16.602,0
1556217365.771,18.555,72.754,48.828,28.320,28.809,0
1556217365.773,3.418,73.242,-55.664,25.391,-24.902,0
1556217365.777,11.230,67.871,18.066,15.137,-16.602,0
1556217365.781,28.320,70.801,154.785,13.672,25.391,0
1556217365.785,21.484,76.660,156.250,19.043,8.789,0
1556217365.789,0.000,71.777,96.680,20.508,50.781,0
1556217365.793,4.395,71.289,-12.207,19.531,40.527,0
1556217365.797,21.973,75.684,-158.203,17.090,-3.906,0
1556217365.800,22.461,83.008,-122.559,18.066,-17.578,0
1556217365.804,9.766,97.656,50.293,25.391,-28.809,0
1556217365.808,9.766,97.656,37.109,25.879,-1.953,0
1556217365.812,29.785,98.145,81.055,27.344,-2.930,0
1556217365.816,37.598,98.145,216.309,24.414,-6.348,0
1556217365.818,21.973,96.191,197.266,27.832,16.113,0
1556217365.822,10.254,92.773,-33.203,22.461,5.859,0
1556217365.826,22.949,98.633,-37.109,15.625,16.113,0
1556217365.830,39.551,98.633,214.355,13.184,36.621,0
1556217365.834,28.320,79.102,208.008,16.113,20.020,0
1556217365.838,7.324,81.543,-125.488,19.043,-0.977,0
1556217365.842,11.719,103.027,-357.910,10.742,-12.207,0
1556217365.845,27.832,110.840,5.859,12.695,3.418,0
1556217365.849,25.391,100.098,268.555,13.184,21.484,0
1556217365.853,4.395,98.145,50.293,8.789,46.387,0
1556217365.857,3.418,101.074,-70.801,8.789,-9.277,0
1556217365.861,22.461,105.469,176.270,6.836,18.066,0
1556217365.878,25.391,95.703,323.242,7.812,91.797,0
1556217365.882,8.301,87.402,32.715,8.301,0.488,0
1556217365.886,1.953,95.215,-96.680,12.207,-10.254,0
1556217365.890,19.531,95.703,120.117,14.648,14.160,0
1556217365.894,35.156,87.402,183.105,13.184,16.602,0
1556217365.898,20.020,79.590,-49.805,10.742,9.766,0
1556217365.902,2.441,86.426,-200.195,10.254,6.348,0
1556217365.905,11.719,93.750,35.645,20.996,43.945,0
1556217365.909,27.344,87.891,290.527,29.297,57.617,0
1556217365.913,22.461,82.520,-8.301,23.926,41.992,0
1556217365.917,5.859,83.008,-239.746,20.020,-16.113,0
1556217365.921,8.301,83.008,51.270,24.414,-0.977,0
1556217365.923,19.531,81.543,199.219,30.273,28.809,0
1556217365.927,16.602,83.496,150.391,24.902,33.203,0
1556217365.931,-3.418,88.379,55.176,16.113,31.250,0
1556217365.935,-10.254,92.773,25.391,14.160,0.488,0
1556217365.939,5.371,91.309,130.859,14.648,46.387,0
1556217365.943,10.742,83.496,72.754,13.184,52.734,0
1556217365.947,-7.812,83.008,-63.477,5.859,28.320,0
1556217365.950,-15.625,84.473,-125.977,0.000,-12.207,0
1556217365.954,6.836,79.590,-126.953,0.977,-11.230,0
1556217365.958,19.043,82.031,-116.211,6.836,25.391,0
1556217365.962,4.883,84.961,57.129,7.324,40.527,0
1556217365.966,-4.395,84.961,96.680,3.906,43.457,0
1556217365.969,10.742,82.031,29.297,6.836,20.996,0
1556217365.973,24.902,75.684,159.180,9.766,11.719,0
1556217365.977,23.926,83.496,244.141,11.719,41.016,0
1556217365.981,7.812,84.473,92.773,9.766,41.992,0
1556217365.985,10.742,83.984,-58.594,9.277,-23.438,0
1556217365.989,29.297,82.520,41.016,14.160,30.273,0
1556217365.993,24.902,81.543,65.430,22.461,61.035,0
1556217365.996,0.488,83.496,-16.602,21.973,15.625,0
1556217366.000,-9.766,79.590,-190.918,13.184,65.918,0
1556217366.004,13.672,81.055,-130.859,12.207,50.781,0
1556217366.008,28.809,82.031,166.992,17.090,0.000,0
1556217366.012,20.020,82.520,27.344,22.461,5.859,0
1556217366.014,10.742,88.867,-103.516,17.578,-25.391,0
1556217366.018,17.090,93.750,106.934,13.184,16.602,0
1556217366.022,24.902,87.891,320.801,17.090,64.453,0
1556217366.026,16.602,75.684,146.973,15.137,28.320,0
1556217366.030,5.371,62.500,-56.152,12.207,26.367,0
1556217366.034,14.648,72.754,-60.547,7.812,34.668,0
1556217366.038,29.785,93.262,82.520,9.766,1.465,0
1556217366.041,25.879,81.543,91.797,16.602,8.789,0
1556217366.045,7.812,76.660,-287.109,6.836,0.977,0
1556217366.049,9.277,96.191,-170.410,3.906,-28.320,0
1556217366.053,32.227,88.379,203.125,17.578,-9.277,0
1556217366.057,35.156,83.496,184.082,20.020,12.695,0
1556217366.059,17.090,87.891,29.297,18.066,-7.812,0
1556217366.063,12.207,89.355,-64.453,18.066,-11.719,0
1556217366.067,31.738,90.332,60.059,21.484,11.719,0
1556217366.071,40.039,83.008,191.406,23.438,12.207,0
1556217366.075,23.438,74.707,109.863,22.949,25.391,0
1556217366.079,9.277,69.336,-88.379,24.902,26.367,0
1556217366.083,19.043,78.125,-1.953,28.809,25.879,0
1556217366.086,31.738,67.871,-0.488,30.273,10.254,0
1556217366.090,18.066,58.105,-126.953,23.438,9.277,0
1556217366.094,-1.465,76.172,64.941,18.555,31.738,0
1556217366.098,8.301,83.496,129.395,22.949,52.246,0
1556217366.102,26.855,86.426,237.793,22.461,97.656,0
1556217366.104,20.508,84.473,256.836,19.043,47.852,0
1556217366.108,4.395,75.195,112.793,18.066,-1.953,0
1556217366.112,2.930,70.801,0.488,11.719,11.230,0
1556217366.116,20.020,81.543,76.172,9.766,4.883,0
1556217366.120,24.902,87.402,161.621,7.324,12.207,0
1556217366.124,7.812,83.496,-30.762,9.277,-9.277,0
1556217366.128,8.301,82.520,-126.465,11.719,77.148,0
1556217366.131,26.855,85.449,-196.289,5.859,41.992,0
1556217366.135,30.273,88.867,43.457,4.395,-26.367,0
1556217366.139,19.043,72.754,257.324,6.836,62.500,0
1556217366.143,8.789,68.848,7.812,10.742,32.715,0
1556217366.147,20.996,77.148,20.508,15.625,3.418,0
1556217366.149,41.504,79.102,299.805,19.531,62.500,0
1556217366.153,33.691,74.707,293.945,16.113,83.496,0
1556217366.157,17.578,73.730,30.762,17.090,56.641,0
1556217366.161,26.367,86.426,-11.719,24.902,29.785,0
1556217366.165,39.062,83.496,212.891,25.879,49.805,0
1556217366.169,35.156,75.684,208.496,21.973,96.680,0
1556217366.173,18.066,74.707,-207.031,17.090,69.336,0
1556217366.176,6.348,78.613,-382.324,3.906,26.855,0
1556217366.180,24.902,80.078,89.844,8.301,57.129,0
1556217366.184,33.691,68.848,270.996,15.625,43.945,0
1556217366.188,12.207,71.289,53.711,11.719,29.297,0
1556217366.192,-4.395,80.566,-14.160,7.324,44.434,0
1556217366.194,9.277,80.078,108.887,1.465,29.297,0
1556217366.198,21.484,69.336,143.555,6.836,30.762,0
1556217366.202,7.812,60.547,-14.160,11.230,-20.020,0
1556217366.206,-3.906,67.383,-62.988,11.719,-4.395,0
1556217366.210,5.859,73.730,99.609,8.301,71.777,0
1556217366.214,24.414,66.406,69.336,11.719,41.504,0
1556217366.218,21.484,68.848,-251.465,10.742,-14.160,0
1556217366.221,4.883,80.078,-234.375,3.418,-30.273,0
1556217366.225,14.160,73.730,-1.465,8.789,-19.043,0
1556217366.229,35.156,70.801,83.496,11.230,10.742,0
1556217366.233,30.273,64.941,77.637,9.277,42.480,0
1556217366.237,6.836,63.965,64.453,9.277,60.547,0
1556217366.269,-2.930,72.266,35.156,3.418,41.992,0
1556217366.273,13.672,73.242,48.828,1.465,19.531,0
1556217366.277,27.344,60.059,116.211,11.230,18.066,0
1556217366.281,11.230,59.570,72.754,10.742,13.672,0
1556217366.285,0.488,66.406,-31.250,6.836,-13.672,0
1556217366.289,17.578,68.848,-206.055,7.324,-11.719,0
1556217366.293,27.344,74.707,-147.461,6.348,12.207,0
1556217366.296,12.695,70.801,103.516,9.277,22.461,0
1556217366.300,-3.418,63.965,-14.160,12.207,18.555,0
1556217366.304,6.348,67.383,-75.684,9.766,18.555,0
1556217366.308,22.949,72.754,113.770,5.859,33.203,0
1556217366.312,17.090,68.359,200.684,10.254,38.086,0
1556217366.299,-1.465,63.965,14.160,8.301,48.340,0
1556217366.303,2.930,63.965,-112.305,4.883,80.078,0
1556217366.307,19.531,67.871,36.133,5.371,33.691,0
1556217366.311,20.020,66.406,172.363,0.977,0.488,0
1556217366.315,1.953,52.734,-10.254,-2.441,20.020,0
1556217366.319,-10.254,50.781,-264.648,-6.348,-4.395,0
1556217366.323,5.371,70.312,-114.258,-6.836,6.348,0
1556217366.326,17.090,69.824,169.434,2.930,36.133,0
1556217366.330,5.859,58.594,-18.066,13.184,-0.488,0
1556217366.334,-4.395,65.918,-268.555,10.742,-53.223,0
1556217366.338,4.395,69.336,-38.086,6.836,-17.090,0
1556217366.342,16.113,62.012,214.355,16.113,25.879,0
1556217366.344,11.719,54.199,5.859,20.996,29.297,0
1556217366.348,-5.371,62.012,-361.328,6.836,13.184,0
1556217366.352,0.977,81.055,-122.070,7.324,-3.906,0
1556217366.356,21.973,77.148,194.336,13.672,36.621,0
1556217366.360,17.090,68.848,104.492,15.137,22.949,0
1556217366.364,-5.371,69.824,-138.184,17.090,-0.488,0
1556217366.368,-4.883,80.078,-225.098,14.648,-10.742,0
1556217366.371,18.555,86.914,43.457,15.625,-15.137,0
1556217366.375,26.855,74.219,-49.316,15.625,-20.996,0
1556217366.379,11.230,82.031,-222.656,13.672,34.180,0
1556217366.383,2.441,86.426,83.496,15.137,117.676,0
1556217366.387,21.484,65.430,113.770,15.137,20.508,0
1556217366.389,41.016,63.477,116.699,18.066,-6.348,0
1556217366.393,29.785,71.289,122.559,19.531,42.969,0
1556217366.397,6.348,78.613,25.391,13.672,35.645,0
1556217366.401,15.625,80.566,42.480,11.230,68.359,0
1556217366.405,32.715,72.754,100.586,13.184,43.945,0
1556217366.409,25.879,68.848,30.762,15.625,49.805,0
1556217366.413,6.348,68.359,-77.148,11.719,80.566,0
1556217366.416,7.812,62.988,-178.711,6.836,17.090,0
1556217366.420,30.273,77.637,-222.168,13.184,10.254,0
1556217366.424,29.297,89.355,55.176,22.461,41.504,0
1556217366.428,13.672,74.219,93.750,36.133,15.625,0
1556217366.432,16.602,67.383,-82.031,37.598,1.953,0
1556217366.434,35.645,77.637,14.648,32.227,-14.160,0
1556217366.438,41.016,83.008,203.125,32.715,4.883,0
1556217366.442,20.996,77.148,88.379,30.273,-0.488,0
1556217366.446,9.766,79.590,-111.816,25.879,-6.348,0
1556217366.450,21.484,80.566,11.230,20.996,44.922,0
1556217366.454,37.598,81.055,104.004,25.391,34.668,0
1556217366.458,27.832,86.914,-31.250,28.809,15.625,0
1556217366.461,5.371,77.148,-357.422,14.648,8.301,0
1556217366.465,17.578,79.590,-317.383,8.301,4.395,0
1556217366.469,36.621,77.637,125.977,16.602,26.367,0
1556217366.473,29.785,62.012,65.430,12.695,2.930,0
1556217366.477,14.160,70.801,-47.363,9.277,58.105,0
1556217366.479,18.066,84.473,55.176,16.113,94.727,0
1556217366.483,37.109,83.984,184.570,18.555,22.949,0
1556217366.487,40.039,76.660,107.910,18.555,-30.273,0
1556217366.491,25.879,75.684,-116.699,23.926,-52.246,0
1556217366.495,19.531,75.195,-64.453,29.785,12.207,0
1556217366.499,37.598,74.219,46.387,30.273,38.574,0
1556217366.503,46.387,72.266,5.371,33.691,29.297,0
1556217366.506,31.250,69.824,-267.090,37.109,17.578,0
1556217366.510,20.996,79.590,-213.379,33.691,5.371,0
1556217366.514,34.180,81.543,111.816,37.598,15.625,0
1556217366.518,62.012,95.215,160.156,57.129,19.531,0
1556217366.522,76.660,114.258,133.789,81.055,57.617,0
1556217366.524,70.801,124.023,15.625,91.797,14.648,0
1556217366.528,75.195,128.906,-19.043,83.496,-4.395,0
1556217366.532,86.914,133.301,120.117,77.148,33.691,0
1556217366.536,80.566,135.254,135.742,76.660,20.508,0
1556217366.540,61.035,137.207,20.020,69.824,4.883,0
1556217366.544,60.059,142.090,-73.730,64.941,29.785,0
1556217366.548,79.102,137.695,-185.547,64.453,11.230,0
1556217366.551,80.566,138.672,-147.949,63.965,-5.371,0
1556217366.555,59.570,140.625,36.621,64.941,-9.277,0
1556217366.559,49.805,134.277,-2.441,56.152,-5.859,0
1556217366.563,60.059,127.441,76.172,51.758,49.316,0
1556217366.567,66.895,124.512,190.918,52.246,15.137,0
1556217366.569,51.758,123.047,84.473,45.898,-64.941,0
1556217366.573,40.039,117.676,-59.570,43.457,-8.789,0
1556217366.577,56.641,121.094,41.504,47.852,92.773,0
1556217366.581,76.660,114.258,170.410,54.199,77.637,0
1556217366.585,69.336,102.539,92.285,57.129,42.480,0
1556217366.589,50.781,99.609,-129.883,58.594,43.945,0
1556217366.593,55.664,104.004,-349.609,58.594,25.391,0
1556217366.596,70.801,120.605,-56.641,60.059,-13.184,0
1556217366.600,65.430,110.840,246.094,60.059,33.691,0
1556217366.604,44.922,102.539,21.484,56.641,49.316,0
1556217366.608,38.086,111.328,-118.652,51.270,-13.184,0
1556217366.612,47.363,111.816,159.180,40.527,38.086,0
1556217366.629,48.340,99.121,211.914,36.133,23.438,0
1556217366.633,26.855,93.262,-71.777,28.809,-11.719,0
1556217366.637,12.207,99.609,-134.277,19.531,25.391,0
1556217366.641,29.785,102.051,33.203,20.508,2.930,0
1556217366.645,38.574,93.262,191.895,26.367,17.578,0
1556217366.649,26.855,78.613,-93.262,22.949,52.246,0
1556217366.653,20.020,89.355,-433.105,18.555,15.625,0
1556217366.656,30.273,105.957,-139.648,26.367,9.766,0
1556217366.660,42.480,99.609,144.531,32.715,18.555,0
1556217366.664,30.273,96.191,39.551,31.738,-4.395,0
1556217366.668,9.277,98.633,-75.195,25.391,21.484,0
1556217366.672,15.137,102.051,-13.184,26.367,11.230,0
1556217366.674,37.598,100.586,84.473,34.180,5.371,0
1556217366.678,39.551,96.191,57.617,37.598,18.066,0
1556217366.682,22.461,96.191,-22.461,38.086,34.668,0
1556217366.686,23.438,99.121,-46.875,38.574,34.180,0
1556217366.690,44.434,101.562,4.395,35.645,27.344,0
1556217366.694,47.852,101.074,-43.945,33.203,19.043,0
1556217366.698,31.250,99.121,-140.625,35.645,44.922,0
1556217366.701,15.137,93.750,-110.352,29.297,41.016,0
1556217366.705,32.227,90.820,-62.500,27.344,32.715,0
1556217366.709,50.293,91.797,-211.426,29.785,16.602,0
1556217366.713,35.645,101.562,-83.496,26.855,30.762,0
1556217366.717,20.020,100.586,46.387,27.832,90.332,0
1556217366.719,26.855,99.609,-58.594,28.809,38.086,0
1556217366.723,38.086,99.609,69.824,27.344,38.574,0
1556217366.727,31.250,92.285,126.953,22.949,29.785,0
1556217366.731,8.301,92.773,-41.504,13.672,6.836,0
1556217366.735,2.441,105.957,-141.113,11.719,2.441,0
1556217366.739,16.602,109.863,-97.656,13.672,1.953,0
1556217366.743,16.113,105.469,-73.730,14.648,20.996,0
1556217366.746,-8.789,101.562,-76.660,15.625,13.184,0
1556217366.750,-11.719,86.914,-305.664,16.113,21.973,0
1556217366.754,15.137,94.238,-264.160,20.020,53.711,0
1556217366.758,24.902,100.098,143.066,29.785,26.855,0
1556217366.762,16.113,92.773,66.895,37.598,18.555,0
1556217366.764,14.648,101.562,-195.801,39.551,33.203,0
1556217366.768,34.668,109.863,-152.832,41.504,-4.883,0
1556217366.772,49.316,104.492,127.441,38.574,0.977,0
1556217366.776,39.062,94.238,90.332,33.691,55.176,0
1556217366.780,22.949,91.309,-143.066,27.344,47.852,0
1556217366.784,32.227,93.750,-218.262,19.043,-19.531,0
1556217366.788,50.293,101.562,-86.426,22.461,-5.371,0
1556217366.791,47.852,95.215,-47.852,28.320,25.879,0
1556217366.795,32.715,92.773,-374.023,19.531,-0.977,0
1556217366.799,35.645,106.445,-262.695,20.020,-2.441,0
1556217366.803,53.711,102.539,95.215,29.297,0.488,0
1556217366.807,58.594,95.215,88.379,30.762,13.184,0
1556217366.808,42.969,93.262,-73.242,32.715,0.977,0
1556217366.812,31.250,102.539,-115.234,28.320,-21.484,0
1556217366.816,45.410,102.051,27.832,21.484,7.812,0
1556217366.820,52.246,93.262,78.613,22.461,48.828,0
1556217366.824,27.832,96.680,-28.809,16.602,43.457,0
1556217366.828,9.277,98.145,-211.426,8.789,16.113,0
1556217366.832,20.508,98.633,-208.008,8.301,8.789,0
1556217366.835,32.715,93.262,-228.027,4.395,5.371,0
1556217366.839,24.902,96.680,-305.664,-2.930,-26.367,0
1556217366.843,7.812,97.656,-147.461,-1.953,-39.062,0
1556217366.847,17.578,83.496,-54.688,4.395,9.766,0
1556217366.851,38.574,88.867,12.695,12.695,10.254,0
1556217366.853,33.691,94.727,50.293,16.113,-15.137,0
1556217366.857,16.113,91.797,-34.668,15.625,-11.230,0
1556217366.861,16.113,98.145,-118.652,21.973,22.949,0
1556217366.865,37.598,103.516,-54.688,28.809,10.254,0
1556217366.869,47.852,100.586,93.262,30.762,16.602,0
1556217366.873,32.715,89.355,-54.199,26.855,51.270,0
1556217366.877,25.391,81.055,-318.848,21.484,22.461,0
1556217366.880,46.387,90.820,-372.070,22.949,6.836,2
1556217366.884,54.688,102.051,-44.922,26.367,33.203,0
1556217366.888,38.574,97.656,99.121,28.809,7.812,0
1556217366.892,20.996,96.191,-163.574,27.832,12.207,0
1556217366.896,23.926,100.098,-114.258,23.926,64.453,0
1556217366.898,34.668,101.562,160.645,20.996,43.945,0
1556217366.902,20.508,88.379,179.199,14.160,58.594,0
1556217366.906,-0.977,75.195,-40.527,11.719,85.938,0
1556217366.910,0.977,87.891,-109.375,9.766,41.504,0
1556217366.914,18.555,95.215,132.812,5.859,63.965,0
1556217366.918,22.461,84.961,94.238,7.324,39.551,0
1556217366.922,6.836,87.402,-305.176,4.883,20.020,0
1556217366.925,6.836,103.027,-371.582,3.906,42.480,0
1556217366.929,30.273,109.375,58.105,10.742,18.066,0
1556217366.933,49.316,98.145,117.676,22.461,14.648,0
1556217366.937,40.527,99.121,-58.105,29.785,5.371,0
1556217366.941,30.762,104.492,-52.734,29.297,2.441,0
1556217366.943,49.316,108.398,94.238,38.086,1.465,0
1556217366.947,65.430,110.352,200.684,43.457,33.691,0
1556217366.951,51.270,105.957,86.914,41.504,58.105,0
1556217366.955,32.715,102.539,-22.949,43.457,26.855,0
1556217366.959,41.504,99.121,44.434,43.945,9.766,0
1556217366.963,59.082,88.867,78.125,41.992,42.969,0
1556217366.967,52.734,81.543,-183.105,36.621,29.297,0
1556217366.970,32.227,90.820,-187.500,36.133,3.906,0
1556217366.974,34.180,83.984,38.086,40.039,9.766,0
1556217366.978,49.805,76.660,80.566,39.551,-5.859,0
1556217366.982,45.898,78.125,127.930,38.086,15.625,0
1556217366.986,23.926,75.195,79.102,37.109,21.484,0
1556217367.003,16.113,81.543,-57.129,29.785,17.578,0
1556217367.007,31.250,93.750,18.066,23.438,32.227,0
1556217367.011,37.109,95.215,125.488,21.484,-1.465,0
1556217367.015,23.438,86.914,107.910,18.555,15.137,0
1556217367.019,12.695,81.055,15.625,17.090,42.969,0
1556217367.023,20.508,84.961,-72.266,11.719,1.465,0
1556217367.027,28.320,94.727,-27.344,8.789,0.000,0
1556217367.030,8.789,90.820,78.613,6.348,12.207,0
1556217367.034,-15.625,77.148,8.789,1.953,-22.461,0
1556217367.038,-8.301,80.078,-213.867,-8.301,-8.301,0
1556217367.042,11.230,93.750,-81.055,-10.742,24.902,0
1556217367.046,9.277,92.773,224.609,-0.977,30.762,0
1556217367.049,-5.859,84.473,72.754,2.930,50.293,0
1556217367.053,-4.883,87.402,-79.102,7.324,20.508,0
1556217367.057,16.602,92.773,154.785,19.531,68.848,0
1556217367.061,31.250,90.820,205.566,30.762,42.969,0
1556217367.065,22.461,90.332,32.227,36.133,30.273,0
1556217367.069,21.484,90.820,-107.910,42.480,76.172,0
1556217367.073,41.016,103.027,-38.086,51.758,60.059,0
1556217367.076,55.664,112.305,234.863,56.641,62.988,0
1556217367.080,42.969,95.215,78.125,46.875,15.137,0
1556217367.084,26.855,96.680,-336.914,38.574,-23.926,0
1556217367.088,39.551,117.188,-58.594,38.574,14.160,0
1556217367.092,55.176,108.887,291.016,39.062,20.508,0
1556217367.093,42.969,106.934,149.414,32.227,15.137,0
1556217367.097,20.996,112.305,-3.418,28.809,37.109,0
1556217367.101,19.043,114.258,68.359,26.367,29.297,0
1556217367.105,33.691,116.211,246.582,22.949,53.223,0
1556217367.109,32.227,114.258,191.406,28.320,42.480,0
1556217367.113,11.719,113.281,-112.793,28.809,-14.160,0
1556217367.117,11.230,117.188,-180.176,20.996,26.367,0
1556217367.120,33.203,115.723,74.219,21.973,5.371,0
1556217367.124,39.551,105.469,26.855,25.879,27.344,0
1556217367.128,19.531,111.328,-172.363,20.020,69.336,0
1556217367.132,11.230,117.188,0.000,26.367,39.551,0
1556217367.136,32.715,104.004,106.445,34.668,9.766,0
1556217367.138,51.270,96.680,132.812,37.598,-14.160,0
1556217367.142,39.062,104.492,87.891,37.598,-38.086,0
1556217367.146,25.879,111.816,-37.109,33.691,-77.637,0
1556217367.150,36.621,112.305,-30.762,37.598,-38.574,0
1556217367.154,47.852,104.980,78.613,35.156,-16.113,0
1556217367.158,42.969,97.656,65.918,32.715,19.531,0
1556217367.162,25.391,91.797,-131.836,41.992,-10.254,0
1556217367.165,34.180,93.262,-175.293,54.199,-61.523,0
1556217367.169,44.434,101.074,-103.516,35.156,51.270,0
1556217367.173,17.090,101.562,22.461,6.348,76.660,0
1556217367.177,6.836,97.168,100.586,16.113,52.246,0
1556217367.181,12.207,99.121,21.973,23.926,60.059,0
1556217367.184,26.855,102.539,90.332,17.578,20.508,0
1556217367.188,38.086,102.051,272.949,15.137,31.250,0
1556217367.192,23.926,94.727,173.340,15.625,34.180,0
1556217367.196,13.672,91.309,-41.016,17.090,18.555,0
1556217367.200,21.973,98.145,8.789,9.277,-1.465,0
1556217367.204,40.527,99.121,89.355,14.648,15.137,0
1556217367.208,31.250,94.727,71.777,22.949,39.551,0
1556217367.211,10.254,88.379,-235.840,13.672,-10.742,0
1556217367.215,26.367,102.539,-310.547,11.719,-14.160,0
1556217367.219,42.969,109.863,224.609,20.996,73.242,0
1556217367.223,34.180,89.844,279.297,25.879,57.129,0
1556217367.227,21.973,81.055,-82.520,23.926,-4.395,0
1556217367.229,23.926,88.379,-96.191,24.902,48.340,0
1556217367.233,34.668,91.797,215.332,30.273,54.199,0
1556217367.237,38.086,88.379,203.125,29.785,6.836,0
1556217367.241,19.531,82.520,4.883,21.484,26.367,0
1556217367.245,10.742,86.426,-37.598,13.184,18.066,0
1556217367.249,28.809,95.215,42.969,18.066,12.207,0
1556217367.253,41.016,89.844,34.668,23.926,24.902,0
1556217367.256,26.855,87.891,-251.953,16.602,0.977,0
1556217367.260,15.137,93.750,-208.496,21.973,-0.488,0
1556217367.264,29.297,91.797,90.820,32.715,-4.395,0
1556217367.268,44.922,92.285,138.184,31.738,-14.160,0
1556217367.272,37.109,92.285,89.844,24.902,1.953,0
1556217367.274,15.625,88.867,23.438,21.484,2.930,0
1556217367.278,19.531,89.844,43.457,23.438,-6.836,0
1556217367.282,39.062,93.262,104.980,24.414,9.277,0
1556217367.286,39.062,91.309,82.520,30.273,25.879,0
1556217367.290,20.508,87.402,60.547,24.414,54.688,0
1556217367.294,19.043,85.449,-56.152,23.438,24.414,0
1556217367.298,40.039,88.867,-118.164,24.902,75.684,0
1556217367.301,42.969,89.355,-38.574,22.461,112.793,0
1556217367.305,24.902,87.402,89.844,30.762,35.156,0
1556217367.309,14.648,83.496,23.926,32.715,4.883,0
1556217367.313,32.227,87.402,62.500,39.062,15.137,0
1556217367.317,42.480,88.867,249.512,34.668,55.176,0
1556217367.319,27.344,86.914,194.824,26.367,28.320,0
1556217367.323,10.742,83.984,-64.941,25.879,-50.781,0
1556217367.327,20.020,85.938,-101.074,21.484,-72.266,0
1556217367.331,38.574,86.914,144.043,24.902,-23.926,0
1556217367.335,30.762,87.891,229.980,30.273,38.574,0
1556217367.339,19.043,85.449,-74.219,27.344,28.809,0
1556217367.343,28.809,92.285,-355.469,23.926,1.953,0
1556217367.346,47.852,110.352,13.184,30.762,48.828,0
1556217367.350,50.781,105.957,285.156,35.645,27.344,0
1556217367.354,34.180,101.074,46.875,35.645,26.367,0
1556217367.358,34.180,107.422,-25.879,39.062,49.805,0
1556217367.362,48.340,103.516,153.809,40.039,-11.719,0
1556217367.379,53.711,94.238,313.965,44.434,49.805,0
1556217367.383,38.086,93.750,132.324,41.992,67.871,0
1556217367.387,25.879,100.098,-54.199,35.156,14.648,0
1556217367.391,41.992,102.051,105.469,33.691,10.254,0
1556217367.395,50.293,97.656,256.348,38.086,-12.695,0
1556217367.399,41.016,85.938,-70.801,37.109,-17.090,0
1556217367.403,25.391,92.285,-299.805,29.297,7.324,0
1556217367.406,35.156,97.168,87.402,31.738,40.039,0
1556217367.410,59.082,82.520,225.586,35.156,47.363,0
1556217367.414,54.199,81.055,117.676,41.504,58.594,0
1556217367.418,28.809,88.379,46.387,44.434,46.875,0
1556217367.422,28.809,95.703,44.922,44.922,-22.461,0
1556217367.424,48.828,90.820,142.090,58.594,-29.785,0
1556217367.428,49.316,87.402,175.781,65.430,35.156,0
1556217367.432,22.949,88.379,115.723,56.152,67.383,0
1556217367.436,14.160,90.820,56.152,49.805,34.180,0
1556217367.440,36.133,97.168,124.023,52.246,36.133,0
1556217367.444,39.551,91.797,62.500,50.293,10.742,0
1556217367.448,20.020,90.820,-88.379,45.410,-2.441,0
1556217367.451,8.301,98.145,15.625,33.203,78.125,0
1556217367.455,27.344,92.285,82.031,37.109,77.637,0
1556217367.459,33.691,93.262,-74.707,35.156,30.762,0
1556217367.463,20.996,98.633,22.949,27.832,14.648,0
1556217367.467,13.184,88.867,17.578,36.621,10.254,0
1556217367.469,21.484,90.820,-48.828,41.016,13.184,0
1556217367.473,40.527,95.703,158.203,46.875,63.965,0
1556217367.477,36.133,83.984,222.168,43.945,12.695,0
1556217367.481,12.695,79.590,77.148,32.227,-10.254,0
1556217367.485,6.836,84.473,-3.906,29.785,22.461,0
1556217367.489,26.855,62.988,-6.348,32.227,-24.414,0
1556217367.493,30.762,41.504,56.152,22.461,3.906,0
1556217367.496,9.277,26.367,144.531,14.648,76.660,0
1556217367.500,4.395,11.719,-137.207,11.719,64.941,0
1556217367.504,25.391,20.508,-211.914,9.766,1.953,0
1556217367.508,34.180,15.137,231.445,17.578,14.160,0
1556217367.512,22.461,-6.348,223.145,25.391,64.941,0
1556217367.514,11.719,-9.277,-30.273,27.344,26.367,0
1556217367.518,23.438,-2.930,62.012,33.691,-3.418,0
1556217367.522,38.574,-1.465,244.629,32.715,42.480,0
1556217367.526,31.250,-5.371,111.816,32.227,15.625,0
1556217367.530,14.160,0.000,-41.504,27.832,19.531,0
1556217367.534,15.625,10.254,-90.820,22.949,13.184,0
1556217367.538,31.738,18.555,67.383,19.043,-8.301,0
1556217367.541,30.273,9.277,165.527,19.043,39.062,0
1556217367.545,8.789,8.301,-192.871,15.137,43.945,0
1556217367.549,4.395,25.391,-99.609,4.395,48.828,0
1556217367.553,19.531,26.367,233.398,11.719,17.090,0
1556217367.557,24.902,26.855,191.406,14.160,3.906,0
1556217367.559,8.301,34.180,55.664,11.719,20.996,0
1556217367.563,-0.977,43.457,41.992,-0.488,19.043,0
1556217367.567,14.648,42.480,170.898,-1.953,33.691,0
1556217367.571,24.902,45.898,236.328,2.930,55.176,0
1556217367.575,12.695,54.199,117.188,2.930,20.996,0
1556217367.579,0.000,57.129,-77.148,8.301,-1.465,0
1556217367.583,6.836,58.594,-111.328,10.742,-31.738,0
1556217367.586,20.508,57.129,-65.430,12.207,18.555,0
1556217367.590,17.578,67.383,-65.430,4.883,56.152,0
1556217367.594,-0.977,77.637,54.199,2.930,18.555,0
1556217367.598,-0.488,76.660,85.938,4.883,8.301,0
1556217367.602,14.160,81.543,137.207,9.766,-18.066,0
1556217367.604,10.742,83.984,215.820,11.230,-10.254,0
1556217367.608,-6.348,82.520,106.445,0.488,-34.668,0
1556217367.612,-5.859,84.473,-8.789,-7.324,-5.371,0
1556217367.616,11.719,86.914,124.512,-3.906,73.242,0
1556217367.620,19.043,98.145,265.137,3.418,54.199,0
1556217367.624,3.906,110.840,114.258,0.488,70.801,0
1556217367.628,-2.441,114.746,-134.766,-1.465,54.688,0
1556217367.631,20.020,121.582,-220.703,-8.301,27.344,0
1556217367.635,32.227,139.160,45.898,-3.906,61.523,0
1556217367.639,15.625,133.301,205.566,9.277,25.391,0
1556217367.643,2.441,122.559,-3.418,18.066,-4.883,0
1556217367.647,14.160,128.906,18.555,17.090,13.672,0
1556217367.649,32.227,129.395,275.879,9.277,39.551,0
1556217367.653,30.273,115.723,310.059,10.254,69.336,0
1556217367.657,8.301,113.770,77.637,7.324,70.801,0
1556217367.661,9.277,120.605,26.367,9.766,53.223,0
1556217367.665,32.715,119.141,211.426,15.625,21.484,0
1556217367.669,32.715,111.328,183.594,16.113,21.484,0
1556217367.673,20.996,104.492,-165.527,17.090,57.129,0
1556217367.676,16.113,114.258,-292.969,15.137,36.621,0
1556217367.680,28.809,116.699,133.301,18.555,21.484,0
1556217367.684,39.551,100.586,279.297,17.090,-7.324,0
1556217367.688,20.996,94.727,108.887,11.230,15.137,0
1556217367.692,6.348,96.191,-35.156,13.672,36.621,0
1556217367.693,19.531,93.262,122.559,10.254,32.227,0
1556217367.697,34.180,92.773,262.695,13.672,22.949,0
1556217367.701,19.531,96.191,116.699,17.578,4.395,0
1556217367.705,-3.906,100.098,31.738,14.648,21.973,0
1556217367.709,7.812,102.539,82.031,17.578,0.000,0
1556217367.713,24.902,89.355,76.172,22.949,-29.785,0
1556217367.717,-5.371,63.965,-141.113,-6.348,-0.488,0
1556217367.720,-44.434,47.852,-102.051,-31.250,45.410,0
1556217367.724,-46.875,35.645,91.309,-36.133,35.645,0
1556217367.728,-23.438,31.738,141.602,-33.691,29.297,0
1556217367.732,-22.949,27.832,190.918,-26.855,38.086,0
1556217367.736,-42.969,29.785,140.625,-22.461,27.344,0
1556217367.753,-41.016,35.156,95.703,-20.508,67.871,0
1556217367.757,-18.066,36.133,118.164,-21.484,66.895,0
1556217367.761,-6.348,39.062,83.984,-15.625,-5.371,0
1556217367.765,-17.578,47.852,64.453,-8.301,-20.508,0
1556217367.769,-25.391,54.199,81.055,-1.953,41.992,0
1556217367.773,-10.742,52.734,-119.141,-5.859,30.762,0
1556217367.777,3.906,61.035,-112.793,-3.906,10.254,0
1556217367.780,0.977,63.965,165.039,5.859,16.602,0
1556217367.784,-10.742,58.594,40.039,-2.930,-13.672,0
1556217367.788,-4.395,72.266,-77.637,-4.395,-39.062,0
1556217367.792,13.184,83.496,129.883,3.906,7.812,0
1556217367.796,14.648,80.566,268.555,4.395,47.363,0
1556217367.798,-1.465,76.172,92.773,6.836,48.828,0
1556217367.802,-3.906,79.590,-56.641,13.184,21.484,0
1556217367.806,11.230,89.844,133.789,14.160,23.926,0
1556217367.810,16.602,87.402,287.598,12.695,37.598,0
1556217367.814,7.812,78.125,56.641,14.648,-6.348,0
1556217367.818,-2.930,85.938,-195.312,18.555,-30.273,0
1556217367.822,10.254,96.191,-86.914,19.531,11.230,0
1556217367.825,25.879,95.703,191.406,26.855,25.391,0
1556217367.829,12.695,83.984,145.996,30.762,53.711,0
1556217367.833,2.441,84.961,-254.395,22.949,51.270,0
1556217367.837,14.648,104.004,-101.074,23.926,-23.438,0
1556217367.841,27.832,101.562,312.012,31.738,26.367,0
1556217367.843,21.484,94.238,209.473,36.621,37.109,0
1556217367.847,3.906,94.727,-24.414,37.598,-28.809,0
1556217367.851,10.254,92.285,79.590,37.598,12.695,0
1556217367.855,31.738,92.285,281.738,35.645,53.711,0
1556217367.859,30.762,95.703,242.676,31.738,37.598,0
1556217367.863,10.254,95.215,-29.785,29.297,19.531,0
1556217367.867,6.348,96.680,-120.605,31.738,7.812,0
1556217367.870,27.344,98.145,86.914,38.574,-11.230,0
1556217367.874,33.691,94.727,-15.137,30.273,-6.836,0
1556217367.878,18.066,99.121,-147.461,21.973,32.227,0
1556217367.882,10.742,103.516,50.781,31.738,19.043,0
1556217367.886,26.367,100.586,177.734,34.180,10.254,0
1556217367.889,44.922,94.238,238.770,26.367,42.969,0
1556217367.893,36.621,93.750,187.012,32.715,56.152,0
1556217367.897,18.066,97.656,129.883,35.645,55.664,0
1556217367.901,27.832,93.262,121.582,31.738,45.898,0
1556217367.905,45.898,88.379,161.133,27.832,11.230,0
1556217367.909,37.598,88.379,91.309,25.391,-5.859,0
1556217367.913,12.695,91.797,-56.641,26.367,16.602,0
1556217367.916,9.766,85.938,-37.598,23.438,46.875,0
1556217367.920,32.227,83.008,-97.168,18.555,32.227,0
1556217367.924,35.645,90.332,93.262,20.508,15.137,0
1556217367.928,22.949,75.684,116.699,27.832,17.578,0
1556217367.932,23.438,78.613,-89.355,32.715,48.340,1
1556217367.933,39.551,89.844,84.961,29.785,24.902,0
1556217367.937,44.434,80.566,237.793,32.227,-39.551,0
1556217367.941,28.809,74.707,145.508,31.250,-28.809,0
1556217367.945,20.508,85.938,-41.992,26.367,-8.789,0
1556217367.949,31.738,93.262,-6.836,26.367,-41.016,0
1556217367.953,46.387,84.473,93.262,29.297,-28.809,0
1556217367.957,39.551,86.914,60.547,26.367,12.695,0
1556217367.960,21.484,83.496,-228.516,16.113,3.418,0
1556217367.964,25.879,90.332,-286.133,11.230,3.418,0
1556217367.968,39.551,95.703,206.543,13.184,45.898,0
1556217367.972,38.574,74.707,292.969,15.137,64.941,0
1556217367.976,24.902,76.172,-8.789,14.160,3.906,0
1556217367.978,22.949,90.332,-27.832,15.137,-5.371,0
1556217367.982,30.762,87.891,153.320,15.137,40.527,0
1556217367.986,33.691,75.195,139.160,23.438,29.297,0
1556217367.990,24.414,67.871,-27.344,25.879,-10.742,0
1556217367.994,19.043,71.289,-64.941,19.531,-12.695,0
1556217367.998,34.668,73.730,15.137,13.672,8.789,0
1556217368.002,48.340,69.824,35.156,21.484,35.156,0
1556217368.005,35.156,72.754,-164.551,27.344,71.289,0
1556217368.009,23.438,85.449,-149.902,28.320,54.688,0
1556217368.013,42.969,84.961,121.582,35.156,12.695,0
1556217368.017,62.012,81.055,180.664,38.574,22.461,0
1556217368.021,51.270,75.684,108.398,38.086,18.555,0
1556217368.023,27.344,77.148,64.941,27.832,34.668,0
1556217368.027,27.344,83.496,85.938,24.902,38.086,0
1556217368.031,46.387,86.426,127.930,34.668,15.625,0
1556217368.035,48.828,88.379,176.270,34.668,44.922,0
1556217368.039,22.949,90.820,6.836,26.855,8.301,0
1556217368.043,12.207,92.285,-155.762,24.902,-10.254,0
1556217368.047,28.320,78.613,-185.547,23.926,-4.395,0
1556217368.050,27.344,70.312,-90.332,13.672,23.926,0
1556217368.054,8.789,67.383,148.438,12.695,68.848,0
1556217368.058,5.859,69.336,79.102,16.602,35.156,0
1556217368.062,26.367,82.520,84.961,16.602,15.137,0
1556217368.066,40.039,90.820,217.773,15.625,-4.395,0
1556217368.068,26.367,92.773,241.699,16.113,36.621,0
1556217368.072,16.602,91.797,70.801,23.438,56.152,0
1556217368.076,26.855,97.656,28.809,32.227,45.898,0
1556217368.080,44.922,100.586,263.184,31.250,78.613,0
1556217368.084,27.344,92.285,266.602,36.133,44.922,0
1556217368.088,1.953,87.891,-61.523,31.250,11.230,0
1556217368.092,20.508,91.797,-308.594,19.531,40.039,0
1556217368.095,36.133,93.750,-123.047,22.949,30.273,0
1556217368.099,34.668,85.938,197.754,29.785,35.156,0
1556217368.103,12.695,78.125,125.000,33.203,76.172,0
1556217368.107,4.395,75.195,-15.137,19.043,34.180,0
1556217368.111,28.809,75.684,167.480,10.742,-7.324,0
1556217368.129,40.039,71.777,291.992,23.438,8.789,0
1556217368.133,28.320,60.059,120.605,20.996,32.715,0
1556217368.137,10.742,57.617,-7.324,8.789,52.734,0
1556217368.141,32.227,54.199,147.461,19.531,51.758,0
1556217368.145,49.316,30.762,282.227,30.762,23.926,0
1556217368.149,-1.953,-3.906,-77.148,5.371,-18.066,0
1556217368.153,-28.809,0.488,-318.359,-7.812,-5.859,0
1556217368.156,-10.254,2.930,56.152,-9.766,34.180,0
1556217368.160,5.371,-17.090,236.328,0.488,12.207,0
1556217368.164,1.465,-16.602,161.621,7.812,24.902,0
1556217368.168,-16.113,-10.254,-4.395,-12.695,74.219,0
1556217368.172,-20.020,3.418,-24.414,3.418,58.105,0
1556217368.174,-3.906,6.348,136.719,3.418,13.672,0
1556217368.178,3.906,1.465,205.078,0.977,66.895,0
1556217368.182,-7.812,6.836,80.566,21.973,43.945,0
1556217368.186,-15.137,17.578,9.766,16.113,0.488,0
1556217368.190,14.160,23.438,107.910,17.578,22.949,0
1556217368.194,30.273,20.508,67.383,34.668,1.465,0
1556217368.198,13.184,26.367,-70.312,33.691,-15.625,0
1556217368.201,-1.953,36.621,-36.133,22.461,-2.930,0
1556217368.205,17.090,31.250,1.465,16.113,-23.926,0
1556217368.209,40.039,38.574,-78.613,24.414,7.324,0
1556217368.213,29.785,52.734,81.543,33.691,49.316,0
1556217368.217,11.230,46.387,111.328,33.203,11.230,0
1556217368.219,9.766,47.852,27.832,27.832,13.184,0
1556217368.223,22.949,53.711,154.297,19.531,79.590,0
1556217368.227,20.020,48.340,262.695,15.137,88.379,0
1556217368.231,-14.160,44.922,88.379,0.000,-5.371,0
1556217368.235,-3.418,54.688,-17.578,0.488,12.207,0
1556217368.239,32.715,55.664,9.277,22.949,3.906,0
1556217368.243,33.203,56.152,78.613,37.598,-10.254,0
1556217368.246,24.414,53.223,108.887,39.551,-11.719,0
1556217368.250,12.695,38.086,-179.688,10.742,-0.488,0
1556217368.254,37.598,42.969,-221.191,25.391,-4.395,0
1556217368.258,32.227,44.922,221.191,52.734,20.020,0
1556217368.262,15.625,37.598,171.387,25.391,29.297,0
1556217368.264,26.367,46.875,-61.035,34.180,29.785,0
1556217368.268,37.598,56.641,51.758,46.387,66.895,0
1556217368.272,51.270,55.176,173.340,40.039,12.695,0
1556217368.276,22.461,42.969,48.340,35.156,6.348,0
1556217368.280,-7.324,45.410,-198.242,26.367,64.453,0
1556217368.284,22.949,52.246,-250.488,27.344,85.938,0
1556217368.288,41.992,42.480,-59.082,28.809,63.477,0
1556217368.291,37.109,59.570,-52.734,17.090,38.086,0
1556217368.295,15.625,88.379,-324.707,22.949,-19.531,0
1556217368.299,8.301,93.750,-241.211,47.852,8.789,0
1556217368.303,31.738,84.961,43.457,41.504,72.266,0
1556217368.307,44.922,67.383,-50.781,38.574,38.574,0
1556217368.309,24.902,51.270,-385.742,37.598,16.602,0
1556217368.313,13.672,61.523,-331.055,29.785,27.832,0
1556217368.317,41.992,66.895,-107.422,31.250,2.930,0
1556217368.321,54.688,69.824,-37.109,32.227,-4.883,0
1556217368.325,37.598,65.430,-80.078,37.598,28.320,0
1556217368.329,26.855,51.758,-268.555,36.621,43.945,0
1556217368.333,33.203,57.617,-202.637,31.738,54.688,0
1556217368.336,48.828,56.641,-205.566,33.203,18.555,0
1556217368.340,41.016,52.734,-319.824,37.109,18.555,0
1556217368.344,13.672,53.711,-152.832,28.809,19.043,0
1556217368.348,18.066,59.082,-106.934,26.855,17.090,0
1556217368.352,38.574,66.895,-18.066,32.227,55.664,0
1556217368.354,41.016,70.801,7.324,24.414,8.301,0
1556217368.358,17.578,72.266,-66.406,30.273,11.230,0
1556217368.362,7.812,74.707,-153.809,35.156,58.594,0
1556217368.366,31.738,86.426,-116.699,35.645,42.480,0
1556217368.370,38.086,88.379,15.625,28.320,20.508,0
1556217368.374,30.273,81.543,-123.535,32.227,32.227,0
1556217368.378,13.672,82.520,-381.348,42.480,13.672,0
1556217368.381,10.254,89.844,-466.797,33.203,-15.137,0
1556217368.385,40.039,104.004,-125.977,22.949,23.926,0
1556217368.389,34.668,95.703,66.406,26.367,21.973,0
1556217368.393,19.043,96.191,-270.996,34.180,-53.711,0
1556217368.397,30.273,109.863,-189.453,29.297,6.348,0
1556217368.399,42.480,104.980,98.633,32.227,10.742,0
1556217368.403,34.180,91.797,75.684,41.992,-30.762,0
1556217368.407,17.578,89.355,-182.129,29.785,-36.621,0
1556217368.411,24.414,99.121,-204.102,24.902,0.000,0
1556217368.415,43.457,97.168,35.156,27.832,24.902,0
1556217368.419,36.621,92.285,0.488,19.043,3.418,0
1556217368.423,26.367,92.285,-324.707,19.043,48.340,0
1556217368.426,22.949,100.586,-464.355,21.484,27.832,0
1556217368.430,36.621,106.934,-55.176,31.738,1.465,0
1556217368.434,47.852,102.051,166.992,18.555,24.414,0
1556217368.438,38.574,96.191,0.488,12.207,34.668,0
1556217368.442,34.180,97.656,-109.863,46.387,19.043,0
1556217368.444,39.551,97.168,-29.785,41.504,-2.441,0
1556217368.448,50.293,97.656,18.555,36.133,20.020,0
1556217368.452,46.387,98.145,3.906,42.480,45.898,0
1556217368.456,24.414,92.773,-93.750,35.156,18.066,0
1556217368.460,32.227,88.867,-74.707,28.809,30.273,0
1556217368.464,53.223,80.566,-85.938,37.598,31.250,0
1556217368.468,47.852,81.543,-377.930,30.762,-10.254,0
1556217368.471,34.180,87.402,-400.879,25.391,-23.438,0
1556217368.475,34.180,79.102,-188.965,27.344,-20.020,0
1556217368.479,41.992,70.312,-95.703,24.902,12.695,0
1556217368.483,43.945,77.637,-51.270,28.809,15.137,0
1556217368.487,33.691,87.402,-42.969,24.902,43.457,0
1556217368.504,16.113,87.402,-112.305,13.672,40.039,0
1556217368.508,28.809,90.820,-79.590,12.207,43.457,0
1556217368.512,43.945,93.262,34.180,19.531,43.457,0
1556217368.516,34.180,88.867,-38.574,20.996,-20.508,0
1556217368.520,23.438,86.426,-169.434,19.043,-11.719,0
1556217368.524,32.227,85.938,-262.207,21.973,30.273,0
1556217368.528,51.270,83.496,-192.383,27.344,20.508,0
1556217368.531,45.410,79.102,0.000,14.648,-17.578,0
1556217368.535,32.227,75.684,-37.598,21.973,6.348,0
1556217368.539,37.109,74.219,-83.984,34.668,14.160,0
1556217368.543,51.758,77.148,35.645,33.691,-37.109,0
1556217368.547,48.340,76.172,212.891,17.578,22.949,0
1556217368.549,24.414,69.336,42.969,9.766,31.738,0
1556217368.553,6.836,72.754,-124.512,4.395,8.301,0
1556217368.557,20.020,82.520,98.633,12.207,54.688,0
1556217368.561,44.434,80.078,258.301,24.902,56.641,0
1556217368.565,13.184,68.848,62.988,14.160,26.855,0
1556217368.569,-12.207,68.359,-215.820,15.625,-28.809,0
1556217368.573,22.949,82.031,-156.250,16.602,-6.836,0
1556217368.576,38.086,86.914,76.660,15.625,19.531,0
1556217368.580,17.578,66.406,31.738,12.207,-2.441,0
1556217368.584,-4.395,63.965,-344.727,8.301,-32.715,0
1556217368.588,0.000,83.496,-121.582,17.578,3.906,0
1556217368.592,31.738,81.543,308.105,22.949,67.383,0
1556217368.594,38.574,74.219,182.129,22.949,41.016,0
1556217368.598,15.137,69.336,14.160,26.367,46.387,0
1556217368.602,18.555,74.707,52.246,17.090,23.438,0
1556217368.606,41.504,78.613,210.938,5.371,28.809,0
1556217368.610,40.039,70.312,145.996,25.879,-6.836,0
1556217368.614,20.020,72.266,-127.441,24.902,-48.340,0
1556217368.618,19.043,82.520,-190.918,15.137,-14.160,0
1556217368.621,39.062,85.938,44.922,30.762,-10.742,0
1556217368.625,51.758,81.055,72.266,21.484,35.645,0
1556217368.629,34.668,78.613,-181.641,9.277,49.316,0
1556217368.633,23.926,80.566,-79.102,19.531,22.461,0
1556217368.637,37.109,76.172,157.715,29.785,30.762,0
1556217368.654,42.969,72.266,275.879,32.227,59.082,0
1556217368.658,32.715,69.824,239.258,25.879,46.387,0
1556217368.662,11.719,74.219,138.672,16.602,42.969,0
1556217368.666,28.320,76.660,88.867,23.926,22.949,0
1556217368.670,52.246,71.777,136.230,34.668,-25.879,0
1556217368.674,41.504,69.824,118.652,26.855,11.230,0
1556217368.678,24.414,70.312,23.926,21.484,43.457,0
1556217368.681,26.367,65.918,5.859,35.645,20.020,0
1556217368.685,46.875,68.848,-86.914,21.973,10.742,0
1556217368.689,49.316,78.613,139.160,5.859,45.898,0
1556217368.693,33.203,69.336,249.512,36.621,44.434,0
1556217368.697,28.809,64.941,58.105,25.879,34.668,0
1556217368.684,34.668,71.777,103.027,7.324,57.129,0
1556217368.688,39.551,70.312,259.277,22.949,32.227,0
1556217368.692,27.832,65.430,203.125,28.809,-0.977,0
1556217368.696,10.254,68.359,26.855,16.113,40.527,0
1556217368.700,20.996,67.383,73.730,0.977,45.898,0
1556217368.704,39.551,59.570,160.156,24.414,14.160,0
1556217368.708,29.785,54.199,16.113,14.648,-1.953,0
1556217368.711,1.465,59.570,-120.117,-3.418,28.320,0
1556217368.715,8.301,66.406,60.547,6.348,83.984,0
1556217368.719,39.551,63.477,329.590,15.137,90.332,0
1556217368.723,39.551,55.664,344.727,16.113,40.527,0
1556217368.727,22.949,47.852,-104.980,5.371,8.301,0
1556217368.729,14.648,51.270,-256.348,11.230,9.766,0
1556217368.733,33.203,55.176,135.742,11.230,-21.484,0
1556217368.737,36.621,47.363,312.500,-3.418,42.969,0
1556217368.741,16.113,41.016,105.957,3.906,60.059,0
1556217368.745,8.301,52.246,-56.152,-8.301,-0.488,0
1556217368.749,24.902,57.129,144.043,-0.977,57.617,0
1556217368.753,36.133,41.504,166.016,19.531,36.133,0
1556217368.756,30.273,41.016,-137.207,2.930,-21.484,0
1556217368.760,22.949,55.664,-110.840,7.812,-2.441,0
1556217368.764,32.227,51.758,147.461,16.113,-53.711,0
1556217368.768,44.922,47.852,180.664,19.043,-84.473,0
1556217368.772,44.434,45.410,172.363,19.043,-28.320,0
1556217368.774,29.297,47.363,180.664,21.484,58.594,0
1556217368.778,27.344,50.781,187.012,28.320,61.523,0
1556217368.782,44.922,52.246,226.562,22.949,34.180,0
1556217368.786,50.781,58.594,267.090,27.832,54.688,0
1556217368.790,37.598,48.340,192.383,20.020,63.965,0
1556217368.794,33.203,39.551,51.270,24.414,48.828,0
1556217368.798,47.363,37.598,-74.219,20.508,27.344,0
1556217368.801,50.781,41.016,-33.203,14.160,39.062,0
1556217368.805,31.738,45.898,151.367,27.344,17.090,0
1556217368.809,16.113,40.039,102.539,12.207,0.977,0
1556217368.813,30.273,42.969,171.875,19.043,63.965,0
1556217368.817,44.922,42.969,281.250,13.672,25.879,0
1556217368.819,34.180,38.086,240.723,14.160,-16.113,0
1556217368.823,17.578,31.250,79.102,9.766,9.277,0
1556217368.827,18.066,33.203,36.621,-1.953,13.184,0
1556217368.831,25.391,42.969,257.324,8.301,50.293,0
1556217368.835,27.344,34.668,265.137,17.578,12.695,0
1556217368.839,12.207,27.344,-34.668,18.555,-6.836,0
1556217368.843,7.324,39.062,-311.035,25.391,10.254,0
1556217368.846,32.227,51.758,-37.598,21.973,-0.488,0
1556217368.850,36.133,41.504,331.543,7.324,55.664,0
1556217368.854,15.137,37.598,80.078,12.695,41.992,0
1556217368.858,13.672,42.480,-39.551,24.902,37.109,0
1556217368.862,31.738,42.969,215.820,-4.883,61.035,0
1556217368.879,29.785,39.062,294.434,3.906,18.066,0
1556217368.883,19.531,34.668,30.762,18.555,-60.547,0
1556217368.887,17.578,45.898,-78.613,-7.324,-4.395,0
1556217368.891,23.438,49.805,140.625,2.441,71.289,0
1556217368.895,35.645,42.480,300.293,1.465,64.941,0
1556217368.899,27.832,27.832,-46.387,3.906,26.855,0
1556217368.903,14.160,28.809,-364.258,4.883,-18.555,0
1556217368.906,18.555,41.992,-31.250,3.418,6.836,0
1556217368.910,43.457,37.109,216.797,12.207,41.016,0
1556217368.914,38.086,34.668,97.168,12.207,10.254,0
1556217368.918,11.719,40.039,-80.566,14.160,-22.949,0
1556217368.922,21.973,41.016,10.254,19.531,22.461,0
1556217368.924,36.621,37.598,70.801,30.273,53.223,0
1556217368.928,33.203,37.109,37.598,27.344,13.672,0
1556217368.932,16.113,37.109,54.199,26.855,41.504,0
1556217368.936,6.348,37.598,4.883,14.160,37.598,0
1556217368.940,21.484,41.016,45.898,0.488,25.879,0
1556217368.944,42.480,40.039,84.961,11.719,71.777,0
1556217368.948,22.949,42.969,-88.867,18.555,32.715,0
1556217368.951,7.812,52.246,-156.250,24.902,8.301,0
1556217368.955,34.180,49.316,-31.250,22.949,30.273,0
1556217368.959,49.805,44.922,-133.789,29.785,10.254,0
1556217368.963,33.691,54.199,-54.688,26.855,-19.043,0
1556217368.967,19.531,48.828,58.105,26.855,20.020,0
1556217368.968,33.203,43.457,-57.129,26.367,-5.859,1
1556217368.972,53.223,47.363,50.781,26.367,-30.762,0
1556217368.976,57.129,49.316,226.562,24.414,47.363,0
1556217368.980,35.645,44.922,27.344,18.066,67.383,0
1556217368.984,27.832,47.363,-127.441,10.254,29.785,0
1556217368.988,51.270,53.711,-40.527,7.324,3.906,0
1556217368.992,52.246,55.176,-7.324,15.137,-10.742,0
1556217368.995,26.855,52.734,33.691,16.602,11.719,0
1556217368.999,14.648,44.434,-194.824,13.184,22.949,0
1556217369.003,38.574,52.246,-217.773,6.348,26.855,0
1556217369.007,43.945,50.781,208.008,12.695,9.766,0
1556217369.011,27.832,38.086,175.293,19.531,-7.812,0
1556217369.013,15.625,41.992,-4.883,26.855,42.480,0
1556217369.017,23.438,46.875,36.621,27.344,-10.742,0
1556217369.021,37.109,45.898,234.863,20.020,-28.809,0
1556217369.025,32.715,42.480,243.652,29.297,52.246,0
1556217369.029,18.555,41.504,-1.953,15.625,25.879,0
1556217369.033,25.391,46.387,-89.844,28.809,-4.395,0
1556217369.037,48.340,53.711,86.914,50.293,28.809,0
1556217369.040,45.898,46.875,186.523,46.387,43.945,0
1556217369.044,27.344,46.387,-156.250,35.645,11.230,0
1556217369.048,29.785,61.523,-129.395,25.879,-15.137,0
1556217369.052,41.504,55.176,294.434,29.297,41.504,0
1556217369.056,47.363,46.875,313.965,33.691,53.711,0
1556217369.058,27.832,45.898,146.484,22.949,10.742,0
1556217369.062,14.648,49.316,138.184,18.555,29.785,0
1556217369.066,31.250,52.246,229.492,33.691,17.578,0
1556217369.070,40.039,52.734,255.859,31.250,-4.883,0
1556217369.074,29.785,51.758,192.871,20.996,13.672,0
1556217369.078,13.184,52.246,-13.672,22.461,-17.090,0
1556217369.082,24.902,54.688,14.160,39.062,-5.859,0
1556217369.085,54.199,45.898,95.215,33.691,53.223,0
1556217369.089,45.898,41.016,-18.555,24.902,24.414,0
1556217369.093,23.438,43.945,68.848,29.785,33.691,0
1556217369.097,28.809,43.945,126.465,30.762,24.902,0
1556217369.101,41.504,43.945,244.141,32.715,22.949,0
1556217369.103,37.598,40.527,350.586,20.996,62.500,0
1556217369.107,17.090,34.668,219.238,2.441,17.090,0
1556217369.111,8.301,25.879,116.211,21.484,59.082,0
1556217369.115,15.625,24.902,159.180,41.992,49.316,0
1556217369.119,21.973,31.250,271.973,39.551,10.742,0
1556217369.123,5.859,31.738,127.441,29.297,19.043,0
1556217369.127,-2.930,37.598,-92.773,28.320,43.945,0
1556217369.130,23.438,43.945,-157.227,27.832,63.477,0
1556217369.134,39.551,50.293,79.590,15.625,16.113,0
1556217369.138,34.668,42.480,246.582,32.227,-21.973,0
1556217369.142,11.719,37.109,41.016,39.551,3.906,0
1556217369.146,17.090,39.551,28.320,33.203,47.363,0
1556217369.148,42.480,38.086,202.637,38.086,58.105,0
1556217369.152,39.062,35.645,229.004,40.527,33.691,0
1556217369.156,18.066,33.691,42.969,33.203,7.324,0
1556217369.160,13.184,42.969,15.137,33.203,23.926,0
1556217369.164,30.273,46.875,254.395,37.598,61.035,0
1556217369.168,42.480,37.109,221.191,32.715,23.438,0
1556217369.172,29.785,39.062,-182.129,21.973,-20.508,0
1556217369.175,26.367,57.617,-304.199,32.715,-1.953,0
1556217369.179,47.363,66.406,127.441,40.527,12.207,0
1556217369.183,60.059,57.129,340.332,41.504,27.832,0
1556217369.187,37.598,53.223,190.918,31.250,43.457,0
1556217369.191,17.090,53.223,54.199,23.926,23.438,0
1556217369.193,24.902,52.734,121.582,30.273,-28.320,0
1556217369.197,34.668,53.223,277.832,30.762,5.859,0
1556217369.201,28.809,48.828,152.832,26.855,49.805,0
1556217369.205,12.207,50.781,-98.633,25.391,-21.973,0
1556217369.209,19.043,56.152,19.531,25.391,-39.062,0
1556217369.213,34.668,55.664,150.391,20.996,28.320,0
1556217369.217,35.645,57.617,-43.945,20.996,77.637,0
1556217369.220,17.578,62.500,-103.027,29.297,31.250,0
1556217369.224,12.207,61.035,92.773,26.367,14.648,0
1556217369.228,34.668,57.617,170.898,20.996,36.133,0
1556217369.232,45.410,59.082,220.703,25.879,47.363,0
1556217369.236,32.715,58.105,217.285,29.297,77.637,0
1556217369.254,24.902,56.152,110.352,27.344,64.941,0
1556217369.258,35.645,54.688,74.707,22.949,13.184,0
1556217369.262,45.898,52.734,157.715,22.949,-0.977,0
1556217369.266,37.598,48.828,194.824,25.879,41.992,0
1556217369.270,21.484,45.410,66.895,31.250,20.508,0
1556217369.274,32.227,47.363,-127.441,22.949,24.902,0
1556217369.278,47.363,53.223,-163.086,18.555,14.160,0
1556217369.281,38.086,51.270,71.777,32.715,-31.250,0
1556217369.285,22.461,42.969,83.496,29.297,2.930,0
1556217369.289,20.508,41.992,-8.301,19.531,23.926,0
1556217369.293,31.738,43.457,145.996,19.531,31.738,0
1556217369.297,29.785,40.039,237.793,24.902,-15.137,0
1556217369.299,17.090,37.598,107.422,21.973,20.020,0
1556217369.303,18.555,45.410,-32.715,20.996,32.715,0
1556217369.307,29.785,54.199,101.562,28.320,6.348,0
1556217369.311,40.527,50.781,298.340,37.109,57.617,0
1556217369.315,27.344,43.945,148.438,37.109,61.523,0
1556217369.319,11.230,42.480,-104.004,37.109,48.828,0
1556217369.323,26.855,48.828,-87.891,35.156,39.062,0
1556217369.326,37.109,49.316,175.293,35.156,42.969,0
1556217369.330,18.066,35.645,115.234,28.320,34.668,0
1556217369.334,8.789,41.992,-308.594,24.414,24.902,0
1556217369.338,22.949,57.129,-125.488,28.809,17.090,0
1556217369.342,36.133,50.293,277.832,26.855,38.574,0
1556217369.344,30.762,47.852,170.898,26.367,29.297,0
1556217369.348,15.137,50.781,-57.129,27.344,-21.484,0
1556217369.352,17.578,52.246,62.012,20.996,48.340,0
1556217369.356,44.434,54.199,220.215,23.926,34.180,0
1556217369.360,55.176,56.152,149.902,35.645,-21.484,0
1556217369.364,28.320,50.293,-66.895,26.367,0.488,0
1556217369.368,14.648,46.387,-140.625,16.602,39.062,0
1556217369.371,32.227,51.758,78.613,14.648,72.754,0
1556217369.375,34.180,44.434,40.039,10.254,43.945,0
1556217369.379,5.371,45.898,-160.156,9.277,5.371,0
1556217369.383,-10.742,52.734,64.453,-0.977,41.016,0
1556217369.387,-6.836,43.945,142.090,-16.602,29.297,0
1556217369.389,-2.930,46.875,188.477,-24.902,20.020,0
1556217369.393,-20.508,43.457,277.832,-27.344,47.852,0
1556217369.397,-72.266,36.621,154.785,-43.457,10.254,0
1556217369.401,-75.195,41.992,115.234,-73.242,-1.465,0
1556217369.405,-59.570,35.645,230.469,-84.473,17.090,0
1556217369.409,-73.730,21.973,164.062,-79.102,-17.090,0
1556217369.413,-99.121,22.949,37.598,-84.473,-32.715,0
1556217369.416,-109.375,20.508,72.266,-100.586,-4.395,0
1556217369.420,-86.426,21.973,3.906,-111.328,31.738,0
1556217369.424,-74.219,33.203,155.762,-96.191,4.395,0
1556217369.428,-93.750,31.738,261.719,-95.703,-17.090,0
1556217369.432,-99.121,42.480,117.676,-115.234,36.621,0
1556217369.434,-83.984,49.805,157.227,-89.844,-7.324,0
1556217369.438,-87.402,52.734,365.723,-85.449,-15.625,0
1556217369.442,-73.242,50.781,273.438,-86.914,29.785,0
1556217369.446,-87.402,52.246,30.273,-81.543,21.973,0
1556217369.450,-92.773,55.664,148.926,-60.059,42.969,0
1556217369.454,-57.129,47.852,253.418,-50.293,42.969,0
1556217369.458,-60.547,46.387,193.848,-41.016,52.246,0
1556217369.461,-85.449,41.992,-122.559,-62.988,46.387,0
1556217369.465,-81.055,45.898,-252.930,-82.520,27.832,0
1556217369.469,-51.270,50.781,174.805,-58.594,38.086,0
1556217369.473,-42.480,35.156,242.676,-38.086,16.113,0
1556217369.477,-36.621,23.438,-49.805,-27.832,-21.484,0
1556217369.479,-31.250,20.020,-119.141,-8.301,-13.184,0
1556217369.483,-14.160,17.090,54.199,8.789,-18.066,0
1556217369.487,-8.301,7.812,93.750,12.207,-2.441,0
1556217369.491,-5.859,9.277,-60.059,10.742,55.664,0
1556217369.495,-4.395,11.719,-150.391,0.977,59.570,0
1556217369.499,6.836,17.090,-178.711,17.578,1.953,0
1556217369.503,27.344,23.438,-187.988,17.090,-14.648,0
1556217369.506,20.508,23.926,-362.793,14.160,44.922,0
1556217369.510,18.555,31.738,-362.305,44.922,43.945,0
1556217369.514,40.527,29.785,-59.570,45.410,47.852,0
1556217369.518,61.523,33.203,19.043,34.668,73.242,0
1556217369.522,64.941,41.992,-25.879,57.129,85.449,0
1556217369.524,30.762,48.828,-124.023,57.617,54.688,0
1556217369.528,25.879,47.363,-130.859,42.480,53.223,0
1556217369.532,58.594,38.086,-87.402,69.336,36.133,0
1556217369.536,62.012,40.527,-123.047,62.988,-36.133,0
1556217369.540,51.758,42.969,-183.594,63.477,-26.855,0
1556217369.544,52.246,45.898,-274.414,99.121,7.812,0
1556217369.548,68.359,53.711,-345.215,84.961,29.785,0
1556217369.551,64.941,68.359,-327.148,54.688,23.926,0
1556217369.555,43.945,79.102,-208.008,64.941,15.625,0
1556217369.559,48.340,80.078,-235.352,74.219,7.812,0
1556217369.563,67.383,82.031,-151.855,72.266,24.902,0
1556217369.567,77.148,80.078,-10.742,86.426,1.465,0
1556217369.569,61.523,73.242,6.836,64.453,29.297,0
1556217369.573,41.016,68.848,-196.289,57.129,66.406,0
1556217369.577,45.898,77.148,-251.953,58.594,21.973,0
1556217369.581,67.871,80.566,-23.438,52.734,20.508,0
1556217369.585,71.289,76.172,38.086,73.242,34.668,0
1556217369.589,63.965,72.266,-259.766,83.008,54.199,0
1556217369.593,62.988,72.754,-653.809,72.754,2.930,0
1556217369.596,68.359,82.031,-390.137,51.270,29.785,0
1556217369.600,77.148,73.242,-14.648,55.176,101.562,0
1556217369.604,61.035,63.965,-312.012,49.805,29.785,0
1556217369.608,35.645,61.035,-482.422,53.711,22.461,0
1556217369.612,48.828,61.035,-318.359,68.848,56.152,0
1556217369.628,74.219,66.895,-215.332,68.848,8.301,0
1556217369.632,51.758,63.477,-325.195,64.941,25.391,0
1556217369.636,29.785,66.406,-518.555,54.688,0.977,0
1556217369.640,42.480,64.453,-363.770,50.293,19.043,0
1556217369.644,49.805,56.641,-194.336,50.781,14.160,0
1556217369.648,43.457,49.316,-465.332,51.270,15.625,0
1556217369.652,32.715,48.340,-693.848,56.152,29.785,0
1556217369.655,27.832,57.129,-462.891,49.805,-22.949,0
1556217369.659,49.805,56.641,-246.582,45.898,-15.137,0
1556217369.663,59.570,57.129,-354.004,47.852,5.371,0
1556217369.667,32.715,62.988,-505.859,43.457,1.953,0
1556217369.671,28.320,60.059,-434.082,42.480,-28.809,0
1556217369.674,49.805,54.688,-266.602,43.457,9.766,0
1556217369.678,44.922,48.828,-213.867,45.898,59.082,0
1556217369.682,26.367,47.363,-416.992,24.414,4.395,0
1556217369.686,25.391,49.805,-444.824,22.949,0.000,0
1556217369.690,35.645,39.062,-280.273,34.668,39.551,0
1556217369.694,46.875,35.156,-249.512,36.133,59.570,0
1556217369.698,34.668,43.945,-375.977,51.270,62.988,0
1556217369.701,24.414,56.152,-378.418,47.363,60.547,0
1556217369.705,23.438,51.758,-310.547,53.223,35.156,0
1556217369.709,33.691,54.688,-341.309,31.738,15.625,0
1556217369.713,34.668,67.383,-186.035,16.113,48.828,0
1556217369.717,14.648,64.453,-180.664,51.270,30.273,0
1556217369.719,26.855,67.383,-373.535,49.316,-11.230,0
1556217369.723,46.875,77.637,-344.727,45.410,-6.836,0
1556217369.727,33.203,73.730,-88.867,52.246,0.977,0
1556217369.731,14.160,63.477,-117.676,59.082,31.738,0
1556217369.735,22.461,67.871,-245.605,19.043,54.688,0
1556217369.739,34.668,67.871,-151.855,-0.977,99.609,0
1556217369.743,41.992,67.383,-78.125,64.941,108.887,0
1556217369.746,21.484,66.895,-168.457,61.035,49.316,0
1556217369.750,10.742,67.871,-446.777,41.016,-21.973,0
1556217369.754,37.598,80.078,-355.957,42.969,9.277,0
1556217369.758,44.434,75.195,23.926,34.180,19.043,0
1556217369.762,17.578,61.035,-21.973,39.062,-19.043,0
1556217369.764,1.465,59.570,-412.598,46.875,-6.348,0
1556217369.768,30.273,70.801,-441.895,39.551,-39.551,0
1556217369.772,48.340,67.871,-19.043,32.227,-27.832,0
1556217369.776,27.344,54.199,-30.762,27.344,-4.395,0
1556217369.780,17.090,53.223,-238.281,34.668,10.742,0
1556217369.784,30.762,57.617,-272.461,62.500,60.059,0
1556217369.788,56.152,64.453,-89.355,57.617,81.543,0
1556217369.791,57.129,58.105,-50.293,48.340,53.223,0
1556217369.795,33.203,53.223,-453.613,56.152,7.812,0
1556217369.799,25.879,69.336,-434.082,48.340,-11.230,0
1556217369.803,30.762,65.918,-14.648,29.785,37.109,0
1556217369.807,46.875,63.965,11.230,11.719,49.805,0
1556217369.809,39.551,65.430,-164.062,18.066,11.719,0
1556217369.813,16.113,65.918,-179.688,43.457,29.785,0
1556217369.817,31.250,70.312,-73.242,51.758,28.809,0
1556217369.821,51.270,73.730,-57.617,55.176,-20.996,0
1556217369.825,36.621,75.684,-83.496,49.316,21.484,0
1556217369.829,11.230,75.684,-289.062,16.602,30.273,0
1556217369.833,22.949,87.402,-240.723,31.738,30.273,0
1556217369.836,51.758,79.102,-170.410,52.734,20.508,0
1556217369.840,60.059,78.613,-328.125,30.762,4.883,0
1556217369.844,49.316,86.914,-186.035,32.715,1.465,0
1556217369.848,38.086,76.172,-141.113,28.320,-23.438,0
1556217369.852,52.734,72.266,-46.875,25.879,11.719,0
1556217369.854,60.547,71.289,70.312,56.641,14.160,0
1556217369.858,41.504,68.848,27.832,52.734,24.902,0
1556217369.862,35.645,69.336,-61.523,31.250,72.754,0
1556217369.866,46.875,73.242,-34.668,19.531,51.270,0
1556217369.870,44.434,73.242,151.855,20.020,71.777,0
1556217369.874,29.785,67.871,15.625,29.785,70.801,0
1556217369.878,23.926,68.848,-250.977,15.137,18.066,0
1556217369.881,37.109,74.707,-387.695,3.418,12.695,0
1556217369.885,41.992,81.055,-158.691,30.762,17.578,0
1556217369.889,30.762,70.801,121.582,37.598,18.555,0
1556217369.893,26.367,66.895,-106.445,23.926,19.043,0
1556217369.897,37.598,77.637,-180.664,26.367,-0.488,0
1556217369.899,55.664,80.078,116.699,45.898,43.945,0
1556217369.903,45.898,62.500,83.496,45.898,41.016,0
1556217369.907,16.113,60.547,-247.559,32.715,12.695,0
1556217369.911,19.531,73.730,-198.242,28.320,56.641,0
1556217369.915,43.945,67.871,18.555,33.203,44.922,0
1556217369.919,41.016,61.523,11.719,40.527,15.137,0
1556217369.923,19.531,58.594,-353.027,23.926,-10.742,0
1556217369.926,27.344,73.242,-516.113,22.461,-2.930,0
1556217369.930,46.387,83.008,-92.285,35.645,7.324,0
1556217369.934,45.410,67.871,140.137,26.855,20.020,0
1556217369.938,32.715,65.430,-37.598,19.043,-0.977,0
1556217369.942,18.066,67.383,-154.297,14.160,19.043,0
1556217369.944,23.438,65.430,-10.254,18.555,43.457,0
1556217369.948,38.574,63.965,114.258,29.297,36.133,0
1556217369.952,32.227,58.105,65.918,9.766,83.496,0
1556217369.956,12.695,57.617,-74.219,3.418,41.504,0
1556217369.960,16.602,55.176,-117.676,22.461,-20.020,0
1556217369.964,34.180,42.480,-23.926,26.855,41.016,0
1556217369.968,33.691,38.574,-160.156,-0.977,80.078,0
1556217369.971,16.113,46.875,-200.195,2.930,41.992,0
1556217369.975,15.625,49.805,42.969,25.391,58.594,0
1556217369.979,37.109,44.434,127.930,31.738,84.961,0
1556217369.983,41.504,40.039,134.766,24.902,34.180,0
1556217369.987,20.020,38.086,68.359,8.789,-38.086,0
1556217370.003,1.465,28.320,-35.156,20.020,-40.527,0
1556217370.007,21.973,30.273,-60.547,20.020,-34.668,0
1556217370.011,39.551,39.551,103.516,17.090,-5.371,0
1556217370.015,21.973,41.504,219.727,5.859,74.219,0
1556217370.019,6.348,43.945,71.777,10.742,36.133,0
1556217370.023,17.578,41.992,-211.426,24.902,-36.621,0
1556217370.027,43.457,51.758,-144.043,25.879,-8.301,0
1556217370.030,36.133,47.363,63.477,27.344,-15.137,0
1556217370.034,4.395,42.969,-101.074,6.836,-31.250,0
1556217370.038,9.277,52.734,-149.902,0.977,-43.945,0
1556217370.042,25.879,57.617,76.172,4.395,4.883,0
1556217370.046,17.578,50.781,245.605,0.488,56.641,0
1556217370.048,1.465,43.945,41.504,11.230,19.043,0
1556217370.052,-10.254,48.340,-180.664,23.926,-43.457,0
1556217370.056,-0.977,54.688,-20.020,4.883,-23.926,0
1556217370.060,14.160,53.711,204.590,7.812,47.363,0
1556217370.064,1.465,47.363,70.312,13.672,59.082,0
1556217370.068,-18.066,40.527,-231.445,3.906,11.719,0
1556217370.072,-2.930,46.875,-244.141,-22.461,-21.484,0
1556217370.075,15.625,55.176,16.113,-20.508,-9.766,0
1556217370.079,4.395,39.551,0.977,13.672,-28.320,0
1556217370.083,-5.859,40.527,-362.305,-8.301,-16.113,0
1556217370.087,12.695,55.176,-233.398,-6.836,32.227,0
1556217370.091,29.785,49.805,128.906,6.348,42.969,0
1556217370.093,32.715,47.852,124.512,1.465,27.832,0
1556217370.097,16.602,45.410,-29.297,24.902,11.230,0
1556217370.101,6.348,45.410,31.738,9.277,37.598,0
1556217370.105,32.227,42.969,202.148,9.277,54.199,0
1556217370.109,37.598,39.551,132.324,30.273,-15.137,0
1556217370.113,4.883,35.156,-96.680,40.527,-6.348,0
1556217370.117,-0.977,41.016,-214.355,25.879,22.949,0
1556217370.120,17.090,45.410,24.414,14.160,20.508,1
1556217370.124,21.973,28.809,3.418,22.461,21.973,0
1556217370.128,8.301,27.344,-243.652,16.602,18.555,0
1556217370.132,-0.488,37.598,-79.590,20.020,19.531,0
1556217370.136,9.277,33.691,71.289,18.555,48.340,0
1556217370.138,23.926,33.203,178.223,18.555,90.820,0
1556217370.142,21.973,32.227,27.344,19.043,23.926,0
1556217370.146,10.254,39.062,-95.703,13.672,16.602,0
1556217370.150,18.555,36.133,-31.250,9.277,31.250,0
1556217370.154,28.320,31.738,24.414,11.719,-10.742,0
1556217370.158,24.902,40.039,23.926,16.602,31.738,0
1556217370.162,11.230,41.504,-58.594,3.418,73.730,0
1556217370.165,12.207,35.645,-78.125,7.812,49.316,0
1556217370.169,32.715,40.527,-197.266,6.348,32.715,0
1556217370.173,36.133,43.945,-27.344,6.348,27.344,0
1556217370.177,20.996,29.297,37.109,32.227,-49.316,0
1556217370.181,11.719,30.273,-178.223,31.250,-62.500,0
1556217370.183,22.949,42.480,-9.766,39.062,38.574,0
1556217370.187,31.738,43.945,205.078,36.621,27.832,0
1556217370.191,20.996,35.645,143.066,35.645,18.066,0
1556217370.195,10.254,37.109,-79.590,34.180,18.555,0
1556217370.199,21.973,41.992,-135.742,33.691,-1.953,0
1556217370.203,27.344,41.016,23.438,50.293,30.273,0
1556217370.207,26.367,43.457,21.973,55.664,-4.883,0
1556217370.210,22.461,38.086,-291.992,46.387,-30.762,0
1556217370.214,20.996,48.340,-345.215,34.668,3.906,0
1556217370.218,41.016,59.082,146.973,37.598,36.133,0
1556217370.222,40.527,47.363,274.902,34.668,25.391,0
1556217370.226,23.438,46.875,15.137,11.719,-10.742,0
1556217370.228,22.461,57.129,-43.945,0.488,0.000,0
1556217370.232,34.180,61.035,150.391,17.090,10.254,0
1556217370.236,41.992,56.152,188.477,22.949,-4.883,0
1556217370.240,23.926,55.664,27.344,18.066,16.113,0
1556217370.244,15.137,60.059,0.977,6.348,76.172,0
1556217370.248,38.086,64.453,51.270,4.883,88.867,0
1556217370.252,41.992,60.059,60.059,11.719,56.641,0
1556217370.255,27.344,52.734,-190.918,7.324,29.297,0
1556217370.259,13.672,58.594,-196.777,1.465,44.922,0
1556217370.263,14.160,56.152,75.195,10.742,4.883,0
1556217370.267,28.809,52.246,122.559,17.090,-18.066,0
1556217370.271,25.391,55.664,111.816,17.090,20.996,0
1556217370.273,5.859,60.059,71.289,7.812,40.039,0
1556217370.277,9.766,64.941,69.824,3.418,43.945,0
1556217370.281,28.320,67.383,136.719,22.461,54.199,0
1556217370.285,23.926,67.871,168.945,22.949,51.270,0
1556217370.289,-1.953,65.430,111.328,4.395,64.941,0
1556217370.293,-4.395,66.406,-55.664,-12.207,51.270,0
1556217370.297,11.719,64.453,-190.430,8.789,27.344,0
1556217370.300,26.855,70.801,-133.301,37.598,39.551,0
1556217370.304,16.602,76.172,54.688,21.973,36.621,0
1556217370.308,4.395,66.406,-38.574,23.438,-9.277,0
1556217370.312,20.508,73.242,-55.176,21.484,-3.906,0
1556217370.316,30.762,77.148,118.164,22.949,16.602,0
1556217370.319,26.367,71.289,119.141,23.438,-10.742,0
1556217370.323,10.742,69.824,-54.688,22.461,-0.488,0
1556217370.327,15.137,65.918,-98.633,33.691,27.832,0
1556217370.331,33.691,63.965,45.898,29.297,-12.695,0
1556217370.335,23.926,59.570,59.082,31.738,-77.637,0
1556217370.339,-3.418,55.176,-172.363,27.344,-45.898,0
1556217370.343,4.883,64.941,-431.152,19.531,-0.977,0
1556217370.346,30.762,75.195,-121.094,19.043,53.223,0
1556217370.350,34.668,64.453,217.773,25.391,25.391,0
1556217370.354,23.926,54.199,26.855,32.227,16.113,0
1556217370.358,16.602,58.594,-102.051,23.438,35.156,0
1556217370.362,34.668,60.059,97.168,36.621,25.391,0
1556217370.364,52.734,52.246,221.191,51.758,11.230,0
1556217370.368,38.086,50.293,7.812,44.922,-2.441,0
1556217370.372,22.461,57.617,-85.938,45.898,44.434,0
1556217370.376,35.645,54.688,83.984,37.109,48.828,0
1556217370.380,55.664,49.316,270.508,34.180,46.875,0
1556217370.384,49.316,43.945,4.883,49.316,52.246,0
1556217370.388,24.902,48.340,-257.324,35.156,74.707,0
1556217370.391,21.484,52.734,40.527,38.574,72.754,0
1556217370.395,37.598,49.316,189.941,13.184,-15.625,0
1556217370.399,39.062,50.293,141.113,-4.883,8.301,0
1556217370.403,17.090,46.875,33.691,11.230,56.152,0
1556217370.407,5.859,46.387,8.789,8.789,5.371,0
1556217370.424,31.738,42.480,131.348,20.020,7.324,0
1556217370.428,42.480,35.156,130.859,35.645,-4.395,0
1556217370.432,23.438,30.273,14.160,52.734,-33.691,0
1556217370.436,13.184,29.785,-25.879,42.969,-9.766,0
1556217370.440,17.578,28.809,7.324,35.645,49.316,0
1556217370.444,26.367,24.414,-2.441,31.250,41.504,0
1556217370.448,13.184,24.414,-98.633,22.949,-17.090,0
1556217370.451,-3.906,22.949,-110.840,33.203,-37.109,0
1556217370.455,8.301,20.020,-20.020,37.598,27.344,0
1556217370.459,27.832,24.902,-54.688,30.273,69.336,0
1556217370.463,20.020,30.273,38.574,26.367,40.527,0
1556217370.467,-0.488,23.926,39.551,32.715,24.414,0
1556217370.469,3.418,25.391,-99.121,31.738,10.254,0
1556217370.473,18.066,28.320,-22.949,30.762,-26.367,0
1556217370.477,16.602,25.391,119.629,36.621,-14.648,0
1556217370.481,-0.977,15.137,20.508,32.715,9.766,0
1556217370.485,-6.348,15.625,-129.883,22.949,28.809,0
1556217370.489,16.602,25.391,-89.355,25.879,40.039,0
1556217370.493,20.508,18.555,-20.508,34.668,55.176,0
1556217370.496,5.371,12.207,-84.961,37.109,33.691,0
1556217370.500,0.488,13.672,-291.992,27.832,25.391,0
1556217370.504,9.277,15.625,-318.848,27.344,-8.301,0
1556217370.508,27.344,20.020,72.754,25.391,-46.875,0
1556217370.512,23.438,14.648,151.367,27.344,20.020,0
1556217370.514,4.883,9.277,-87.891,22.461,11.230,0
1556217370.518,16.113,12.695,-86.426,24.902,-45.898,0
1556217370.522,31.250,16.602,167.480,36.621,-2.441,0
1556217370.526,20.508,11.719,115.234,17.578,-11.230,0
1556217370.530,1.465,8.301,-102.539,22.949,4.395,0
1556217370.534,0.977,12.695,-163.086,25.391,54.199,0
1556217370.538,11.230,21.973,20.020,6.348,65.430,0
1556217370.541,17.578,13.184,116.699,12.207,37.109,0
1556217370.545,8.789,8.301,-267.090,28.809,11.719,0
1556217370.549,0.000,24.414,-318.848,13.672,27.832,0
1556217370.553,20.508,24.414,23.438,4.883,46.875,0
1556217370.557,33.203,19.043,97.168,26.855,8.301,0
1556217370.559,12.695,15.137,-1.465,36.621,11.230,0
1556217370.563,-0.488,13.184,-4.395,25.391,61.035,0
1556217370.567,16.113,16.602,59.082,17.090,43.457,0
1556217370.571,31.250,20.996,57.617,21.484,-14.648,0
1556217370.575,18.555,19.531,29.785,24.414,20.996,0
1556217370.579,-1.953,13.184,-157.227,20.996,20.996,0
1556217370.583,4.395,19.043,-181.641,23.438,-1.953,0
1556217370.586,21.973,14.648,-142.578,19.531,-0.977,0
1556217370.590,20.020,12.207,-258.301,15.625,-49.805,0
1556217370.594,-2.930,19.043,-43.457,23.438,27.832,0
1556217370.598,-4.883,17.090,27.344,24.414,56.152,0
1556217370.602,18.555,20.020,51.758,21.973,8.789,0
1556217370.604,25.391,20.508,166.504,7.812,50.781,0
1556217370.608,7.812,12.207,36.133,8.301,19.531,0
1556217370.612,2.930,13.672,-67.871,27.832,14.160,0
1556217370.616,18.555,23.438,25.879,25.879,37.598,0
1556217370.620,24.414,25.391,183.105,18.555,43.945,0
1556217370.624,15.137,17.578,74.707,19.531,58.594,0
1556217370.628,4.395,13.184,-219.238,18.555,-12.207,0
1556217370.631,9.277,21.973,-366.699,7.812,-33.203,0
1556217370.635,20.996,37.598,-22.461,10.742,52.734,0
1556217370.639,14.648,27.344,264.648,10.742,84.473,0
1556217370.643,0.000,17.578,-20.020,4.883,34.668,0
1556217370.647,5.371,27.832,-46.875,11.230,53.223,0
1556217370.649,25.391,30.273,210.938,16.113,60.059,0
1556217370.653,23.926,24.902,250.488,20.996,45.410,0
1556217370.657,6.836,22.461,9.766,27.344,26.855,0
1556217370.661,2.441,21.484,-174.316,22.461,1.465,0
1556217370.665,15.137,20.996,-36.133,22.461,-5.859,0
1556217370.669,21.973,20.020,78.125,15.625,1.953,0
1556217370.673,11.719,24.414,-196.289,13.184,27.832,0
1556217370.676,1.465,35.645,-321.777,8.789,72.266,0
1556217370.680,10.742,37.598,62.012,4.395,71.289,0
1556217370.684,23.438,30.273,281.738,18.066,56.641,0
1556217370.688,8.301,24.902,72.266,15.625,-11.719,0
1556217370.692,-15.137,21.973,-91.797,3.418,-29.297,0
1556217370.693,-4.883,26.855,12.695,1.953,-17.578,0
1556217370.697,17.578,29.297,143.555,7.812,0.977,0
1556217370.701,13.184,23.438,133.789,20.020,83.984,0
1556217370.705,-7.324,23.438,-56.152,3.418,8.789,0
1556217370.709,-10.254,27.344,-81.543,1.953,-45.898,0
1556217370.713,7.324,20.020,-14.160,16.602,-15.137,0
1556217370.717,7.812,20.020,-240.723,0.488,-18.555,0
1556217370.720,-14.648,22.949,-258.301,0.488,-6.836,0
1556217370.724,-16.113,21.484,1.465,3.906,34.180,0
1556217370.728,3.906,26.367,117.676,5.859,99.609,0
1556217370.732,10.254,23.926,138.672,15.625,69.824,0
1556217370.736,-2.930,22.949,62.988,7.812,1.465,0
1556217370.754,-8.301,28.809,7.324,0.000,50.781,0
1556217370.758,5.859,33.691,5.371,8.301,54.688,0
1556217370.762,20.020,33.203,63.477,1.465,4.883,0
1556217370.766,14.160,27.344,113.770,-14.160,44.434,0
1556217370.770,-8.789,26.855,27.832,-1.953,74.707,0
1556217370.774,-1.953,20.996,-186.523,1.953,66.406,0
1556217370.778,12.207,22.949,-229.492,0.488,36.133,0
1556217370.781,0.977,29.297,58.105,4.883,25.391,0
1556217370.785,-15.137,21.973,50.293,9.277,51.758,0
1556217370.789,-20.996,18.555,-127.441,11.230,26.367,0
1556217370.793,-9.277,21.484,-7.812,13.672,1.465,0
1556217370.797,-4.395,27.344,165.039,13.184,1.465,0
1556217370.799,-16.113,27.344,2.441,14.648,-24.414,0
1556217370.803,-20.020,28.320,-147.461,7.324,-2.441,0
1556217370.807,-4.883,35.645,34.180,3.418,45.898,0
1556217370.811,2.441,36.133,222.168,17.090,51.758,0
1556217370.815,-11.230,25.391,60.547,19.531,7.324,0
1556217370.819,-22.461,23.926,-211.914,9.277,-6.836,0
1556217370.823,-3.906,37.109,-184.082,2.441,29.785,0
1556217370.826,12.695,40.039,97.168,-0.488,35.156,0
1556217370.830,6.348,24.902,104.980,2.441,23.926,0
1556217370.834,-2.930,26.367,-326.660,-1.465,11.230,0
1556217370.838,-0.488,42.480,-248.047,-1.953,-26.855,0
1556217370.842,17.090,42.969,178.711,8.301,-8.301,0
1556217370.844,14.648,34.180,110.352,8.301,7.812,0
1556217370.848,-5.859,34.668,-86.914,-6.348,32.715,0
1556217370.852,-10.742,35.645,-12.695,-5.859,36.133,0
1556217370.856,5.371,30.762,153.320,10.254,7.812,0
1556217370.860,25.391,27.832,146.484,7.812,11.719,0
1556217370.864,11.719,24.902,-31.738,5.859,67.871,0
1556217370.868,-0.977,33.203,-111.816,22.461,123.047,0
1556217370.871,22.461,38.086,66.895,24.414,40.527,0
1556217370.875,37.598,27.344,33.691,20.996,-2.441,0
1556217370.879,28.320,29.297,-200.195,22.461,8.789,0
1556217370.883,21.484,40.527,-77.148,23.926,-16.602,0
1556217370.887,29.297,37.598,81.055,25.879,10.254,0
1556217370.889,42.480,34.180,133.789,31.250,-3.906,0
1556217370.893,35.156,35.156,115.234,28.809,-24.902,0
1556217370.897,8.301,30.273,84.473,17.090,47.852,0
1556217370.901,8.789,27.832,-53.711,17.090,35.645,0
1556217370.905,28.320,39.551,-12.695,23.438,-22.949,0
1556217370.909,30.273,41.992,46.387,21.484,0.977,0
1556217370.913,17.090,42.480,-49.316,20.020,22.461,0
1556217370.916,12.207,41.016,-16.602,13.184,52.734,0
1556217370.920,34.668,40.039,-161.621,11.230,20.508,0
1556217370.924,48.340,50.293,-17.090,24.902,-16.113,0
1556217370.928,34.668,39.551,179.688,31.250,21.484,0
1556217370.932,26.367,32.715,-42.480,31.250,2.441,0
1556217370.934,45.410,42.969,32.715,40.039,27.832,0
1556217370.938,60.059,43.945,311.523,48.340,85.938,0
1556217370.942,46.387,38.574,263.184,48.340,82.031,0
1556217370.946,29.785,41.504,30.762,42.969,85.449,0
1556217370.950,38.086,42.480,-20.996,38.086,19.043,0
1556217370.954,55.176,40.039,83.496,33.691,20.020,0
1556217370.958,44.434,40.527,81.055,24.902,41.504,0
1556217370.961,23.438,35.645,-203.613,26.855,8.789,0
1556217370.965,21.484,45.898,-306.152,19.043,19.043,0
1556217370.969,29.297,53.223,130.859,19.531,19.531,0
1556217370.973,30.762,37.109,270.020,26.367,9.766,0
1556217370.977,9.766,37.109,63.965,16.602,26.367,0
1556217370.979,6.836,46.875,21.973,20.508,50.293,0
1556217370.983,28.320,43.945,146.973,23.926,-20.996,0
1556217370.987,41.504,37.598,230.469,32.227,-4.395,0
1556217370.991,28.320,35.645,140.137,28.809,90.820,0
1556217370.995,20.996,30.762,17.090,24.414,59.082,0
1556217370.999,37.109,32.227,39.062,32.715,34.668,0
1556217371.003,46.387,34.180,92.773,33.203,41.992,0
1556217371.006,34.668,38.086,-139.648,26.855,33.691,0
1556217371.010,16.113,48.340,-220.215,24.414,-0.977,0
1556217371.014,25.879,50.293,57.617,32.227,55.664,0
1556217371.018,41.504,45.898,183.594,39.062,88.379,0
1556217371.022,34.180,42.480,154.785,36.133,28.809,0
1556217371.024,19.043,43.945,73.730,32.715,12.207,0
1556217371.028,21.973,41.016,56.641,35.156,20.996,0
1556217371.032,41.016,39.062,96.680,38.086,10.254,0
1556217371.036,43.457,44.922,140.625,37.598,1.953,0
1556217371.040,24.414,45.898,103.027,40.039,25.391,0
1556217371.044,18.066,48.340,-59.570,41.016,24.414,0
1556217371.048,37.598,47.363,-169.922,38.086,25.879,0
1556217371.051,52.246,43.457,-158.203,34.668,-2.441,0
1556217371.055,34.668,45.898,35.156,34.668,-20.996,0
1556217371.059,18.066,41.016,22.461,28.809,0.977,0
1556217371.063,27.832,46.875,5.371,31.738,-2.441,0
1556217371.067,40.039,51.758,164.551,36.133,11.230,0
1556217371.069,30.273,44.434,123.047,32.715,-2.930,0
1556217371.073,12.207,44.434,-48.828,32.715,-18.555,0
1556217371.077,15.137,48.340,-46.875,28.320,8.789,0
1556217371.081,32.715,53.711,151.855,32.715,34.668,0
1556217371.085,32.715,42.969,211.426,33.691,13.184,0
1556217371.089,20.020,32.227,-49.316,33.203,2.930,0
1556217371.093,16.113,33.691,-344.727,27.832,50.781,0
1556217371.096,30.273,48.828,-128.418,28.320,22.949,0
1556217371.100,38.574,48.828,224.609,36.621,-6.836,0
1556217371.104,14.160,30.762,38.574,25.879,3.906,0
1556217371.108,0.977,30.273,-128.418,20.996,0.000,0
1556217371.112,22.461,38.086,77.148,23.926,1.953,0
1556217371.129,35.156,30.273,261.230,26.367,33.203,0
1556217371.133,24.902,25.879,94.238,32.715,26.367,0
1556217371.137,10.254,31.738,-79.102,26.855,39.062,0
1556217371.141,21.484,39.551,-11.719,27.832,45.898,0
1556217371.145,38.086,41.992,151.855,33.691,-2.441,0
1556217371.149,36.133,28.809,-41.504,35.156,-6.348,0
1556217371.153,22.461,35.156,-290.039,36.621,1.953,0
1556217371.156,21.484,47.363,14.648,37.598,53.223,0
1556217371.160,41.504,36.621,244.629,40.527,54.199,0
1556217371.164,43.945,26.855,69.824,37.598,-15.625,0
1556217371.168,24.414,34.180,-120.117,35.156,-43.945,0
1556217371.172,23.926,41.016,0.000,35.156,3.418,0
1556217371.174,37.598,38.574,147.949,34.180,42.480,0
1556217371.178,37.598,38.086,173.828,29.297,46.387,0
1556217371.182,14.160,39.062,82.520,15.137,41.504,0
1556217371.186,-4.395,34.180,21.484,8.789,42.969,0
1556217371.190,13.184,32.227,71.777,15.625,43.457,0
1556217371.194,29.297,32.227,66.406,18.066,23.926,0
1556217371.198,15.625,27.832,-41.016,11.230,37.109,0
1556217371.201,0.977,25.391,-55.176,15.137,88.379,0
1556217371.205,9.277,25.879,52.246,18.066,80.566,0
1556217371.209,24.414,27.344,-88.867,16.602,76.172,0
1556217371.213,20.996,38.574,-63.477,20.020,41.992,0
1556217371.217,9.766,37.598,78.125,30.762,-2.930,0
1556217371.219,13.672,36.621,20.020,29.785,34.668,0
1556217371.223,27.344,41.016,118.652,25.391,14.160,0
1556217371.227,31.250,38.086,274.414,32.715,17.578,0
1556217371.231,17.090,35.645,187.012,31.250,50.781,0
1556217371.235,15.625,36.133,2.441,27.344,26.367,0
1556217371.239,38.574,38.574,-5.371,28.320,-1.953,0
1556217371.243,45.898,37.109,115.234,32.715,17.090,0
1556217371.246,29.297,35.156,205.566,37.109,43.945,0
1556217371.250,21.973,27.344,-67.871,34.668,44.922,0
1556217371.254,38.574,36.133,-159.668,30.273,41.016,0
1556217371.258,54.199,42.969,308.105,33.691,57.617,0
1556217371.262,44.434,34.180,369.141,39.551,61.035,0
1556217371.264,24.902,34.180,90.332,31.738,24.902,0
1556217371.268,26.367,40.527,62.500,23.926,4.395,0
1556217371.272,35.645,41.504,322.266,20.020,10.742,0
1556217371.276,32.715,30.273,329.590,21.484,-7.812,0
1556217371.280,13.184,30.273,109.375,22.949,-18.066,1
1556217371.284,7.324,39.062,43.457,19.043,31.250,0
1556217371.288,23.438,44.922,216.797,21.484,49.805,0
1556217371.291,22.461,34.180,315.430,21.484,-20.020,0
1556217371.295,1.953,28.809,12.695,8.301,20.996,0
1556217371.299,-5.371,34.668,2.441,0.977,38.574,0
1556217371.303,13.672,26.855,341.309,11.230,-15.137,0
1556217371.307,26.855,21.484,379.395,19.531,1.465,0
1556217371.309,18.555,22.949,231.934,20.996,-9.766,0
1556217371.313,11.230,25.391,218.750,27.344,-7.324,0
1556217371.317,21.484,10.742,346.191,31.738,28.320,0
1556217371.321,38.574,-0.488,390.137,34.180,13.184,0
1556217371.325,31.250,-3.906,350.586,25.879,19.531,0
1556217371.329,19.531,-7.324,160.156,24.414,29.297,0
1556217371.333,21.973,-0.488,182.617,24.902,23.926,0
1556217371.336,33.691,-5.371,270.996,16.602,37.598,0
1556217371.340,33.203,-5.371,142.090,19.043,15.137,0
1556217371.344,9.277,-2.441,273.438,17.090,13.184,0
1556217371.348,7.812,-9.766,329.590,16.602,19.531,0
1556217371.352,30.273,-3.906,380.859,12.207,5.859,0
1556217371.354,36.621,0.488,499.023,14.160,24.902,0
1556217371.358,18.555,0.977,474.609,18.555,40.039,0
1556217371.362,4.883,4.395,229.980,13.184,-15.625,0
1556217371.366,13.672,9.277,240.234,10.742,-33.691,0
1556217371.370,19.043,7.812,538.086,11.230,44.434,0
1556217371.374,1.465,-2.441,396.973,16.113,18.066,0
1556217371.378,-16.602,-7.324,105.957,13.672,-29.297,0
1556217371.381,-4.395,4.395,25.391,9.277,20.508,0
1556217371.385,18.555,18.555,322.266,14.648,53.223,0
1556217371.389,20.996,11.719,556.152,18.066,13.184,0
1556217371.393,2.441,4.395,320.801,17.090,9.766,0
1556217371.397,3.906,14.648,233.398,14.160,-8.789,0
1556217371.398,20.996,15.137,481.934,12.207,2.930,0
1556217371.402,21.973,11.719,592.773,13.672,47.852,0
1556217371.406,3.418,19.043,329.590,19.531,14.648,0
1556217371.410,-2.441,26.367,256.348,20.020,52.246,0
1556217371.414,17.090,22.461,470.703,19.531,70.312,0
1556217371.418,22.461,15.625,444.824,14.648,16.113,0
1556217371.422,8.789,17.090,97.168,13.672,0.488,0
1556217371.425,3.418,32.227,-47.852,17.090,36.133,0
1556217371.429,21.973,42.480,351.074,25.391,54.688,0
1556217371.433,39.551,29.297,573.242,38.574,33.203,0
1556217371.437,27.344,24.902,419.922,33.203,20.020,0
1556217371.441,12.695,34.180,296.387,29.785,39.551,0
1556217371.443,26.855,41.016,401.855,33.203,44.922,0
1556217371.447,47.363,40.039,523.438,34.180,32.227,0
1556217371.451,38.086,34.668,410.645,38.086,-2.930,0
1556217371.455,18.555,38.574,303.711,40.527,21.973,0
1556217371.459,19.531,39.062,311.035,37.598,7.324,0
1556217371.463,42.480,34.668,315.430,38.086,-37.598,0
1556217371.467,45.410,30.762,106.934,34.668,-18.066,0
1556217371.470,21.484,40.527,48.828,28.320,-34.668,0
1556217371.474,14.160,45.410,222.656,27.344,-9.766,0
1556217371.478,33.691,35.156,202.637,32.227,-27.344,0
1556217371.482,41.504,39.551,330.078,32.227,-50.781,0
1556217371.486,25.879,46.875,408.691,28.809,-6.836,0
1556217371.504,17.578,38.086,313.477,31.738,15.625,0
1556217371.508,32.715,38.574,280.762,31.250,1.465,0
1556217371.512,44.434,40.039,365.723,31.738,-19.531,0
1556217371.516,37.109,36.133,396.973,31.250,-18.066,0
1556217371.520,23.438,37.109,288.574,27.344,-8.789,0
1556217371.524,34.180,34.180,102.051,28.320,36.133,0
1556217371.528,54.688,42.969,94.727,21.973,61.035,0
1556217371.531,48.340,48.340,399.414,18.555,63.965,0
1556217371.535,35.645,39.062,346.680,30.762,38.086,0
1556217371.539,34.668,41.992,227.539,35.645,55.176,0
1556217371.543,51.758,32.227,358.398,39.551,45.898,0
1556217371.547,62.012,26.855,406.250,35.156,18.066,0
1556217371.549,45.410,38.574,291.504,26.367,47.363,0
1556217371.553,36.621,42.480,113.770,28.809,-14.160,0
1556217371.557,46.875,46.387,202.637,29.297,-46.387,0
1556217371.561,55.176,38.086,430.176,33.203,17.090,0
1556217371.565,42.480,29.785,295.410,40.527,0.977,0
1556217371.569,24.902,31.250,20.020,33.203,-11.719,0
1556217371.573,29.785,35.645,16.113,32.227,-4.883,0
1556217371.576,42.480,41.016,230.957,36.621,-28.320,0
1556217371.580,33.203,29.785,254.883,35.645,-20.020,0
1556217371.584,11.230,25.391,-146.484,26.855,-8.789,0
1556217371.588,11.230,37.109,-39.062,18.066,9.766,0
1556217371.592,34.180,38.574,351.074,29.297,-15.137,0
1556217371.594,35.645,49.316,295.898,34.180,-7.324,0
1556217371.598,12.207,50.293,161.621,34.668,41.016,0
1556217371.602,8.789,42.969,148.926,35.645,65.918,0
1556217371.606,29.297,45.410,271.973,33.203,46.387,0
1556217371.610,35.645,48.340,310.547,42.480,22.461,0
1556217371.614,20.508,50.293,72.266,43.457,8.789,0
1556217371.618,12.695,54.199,-85.938,31.738,9.766,0
1556217371.621,31.738,56.152,177.246,32.715,38.086,0
1556217371.625,48.340,41.504,230.957,40.039,74.707,0
1556217371.629,38.574,44.434,-18.555,38.086,69.824,0
1556217371.633,23.438,61.035,100.586,40.039,37.109,0
1556217371.637,30.273,54.688,225.098,37.598,36.621,0
1556217371.639,39.062,47.363,311.035,32.227,64.941,0
1556217371.643,29.785,51.758,302.734,36.133,43.457,0
1556217371.647,11.719,54.199,160.156,28.320,-5.371,0
1556217371.651,9.766,52.734,106.445,21.484,5.371,0
1556217371.655,24.902,50.293,195.801,22.461,23.926,0
1556217371.659,21.973,46.387,203.125,16.113,38.086,0
1556217371.663,4.883,46.387,20.020,14.160,42.969,0
1556217371.666,4.883,40.039,-81.543,18.555,22.949,0
1556217371.670,23.438,40.527,-108.887,13.672,31.250,0
1556217371.674,32.715,54.688,94.238,15.137,28.809,0
1556217371.678,19.531,53.711,223.633,24.414,-3.906,0
1556217371.682,9.277,54.688,54.199,28.320,25.391,0
1556217371.684,25.391,57.129,127.930,33.691,79.590,0
1556217371.688,39.551,55.664,274.902,40.039,48.828,0
1556217371.692,26.367,56.152,267.578,36.133,57.129,0
1556217371.696,9.277,52.246,45.410,32.227,48.340,0
1556217371.700,19.531,46.875,-30.273,37.109,-41.016,0
1556217371.704,30.762,45.410,101.562,36.621,-6.348,0
1556217371.708,25.879,47.363,163.574,34.180,38.086,0
1556217371.711,14.160,30.273,-113.281,29.785,-1.953,0
1556217371.715,10.254,39.551,-350.098,20.508,-30.762,0
1556217371.719,26.855,52.734,56.152,26.855,-48.340,0
1556217371.723,36.621,42.480,260.742,22.949,-27.832,0
1556217371.727,19.531,51.270,77.148,25.391,3.906,0
1556217371.729,9.277,58.594,33.691,34.668,51.758,0
1556217371.733,29.785,55.664,207.520,38.086,43.457,0
1556217371.737,38.086,43.945,291.992,32.227,39.062,0
1556217371.741,17.090,34.180,128.906,22.949,42.480,0
1556217371.745,3.418,33.203,8.789,20.020,35.156,0
1556217371.749,11.230,34.180,26.855,18.555,36.133,0
1556217371.753,24.902,36.621,103.516,20.996,43.457,0
1556217371.756,20.508,33.203,-94.238,20.020,61.035,0
1556217371.760,1.953,41.504,-193.848,17.578,22.949,0
1556217371.764,6.836,50.293,86.914,20.996,0.977,0
1556217371.768,24.902,41.992,213.379,22.461,51.758,0
1556217371.772,23.438,34.180,145.508,18.066,65.918,0
1556217371.774,4.395,42.480,84.473,14.160,39.062,0
1556217371.778,-2.441,41.016,118.164,10.742,45.898,0
1556217371.782,12.695,38.574,118.164,13.672,-1.953,0
1556217371.786,16.602,42.969,175.293,7.812,9.766,0
1556217371.790,-0.488,33.203,121.094,-2.441,7.812,0
1556217371.794,-10.254,29.297,-42.480,0.977,-11.719,0
1556217371.798,10.254,33.203,-168.945,6.836,-32.715,0
1556217371.801,21.973,39.062,-129.395,13.672,-20.996,0
1556217371.805,0.488,37.109,139.160,21.484,47.852,0
1556217371.809,-14.648,22.461,101.562,19.043,30.762,0
1556217371.813,0.488,15.137,25.391,21.973,-33.203,0
1556217371.817,18.555,23.438,221.191,18.066,16.113,0
1556217371.819,11.719,30.762,285.156,19.531,41.504,0
1556217371.823,-8.789,26.855,95.703,15.137,26.367,0
1556217371.827,-3.906,28.320,12.207,11.230,52.246,0
1556217371.831,21.973,35.645,160.645,14.648,18.555,0
1556217371.835,20.020,38.086,267.578,15.625,11.719,0
1556217371.839,-3.906,32.227,6.348,13.184,-2.930,0
1556217371.843,-9.277,33.203,-332.520,-2.441,7.812,0
1556217371.846,4.883,40.039,-92.773,-2.930,26.855,0
1556217371.850,5.859,33.203,303.711,2.441,21.484,0
1556217371.854,-10.254,25.391,141.113,2.930,30.762,0
1556217371.858,-19.531,35.645,-68.359,6.348,-4.395,0
1556217371.862,-7.812,35.156,125.488,7.812,20.508,0
1556217371.879,8.301,21.973,319.336,10.742,52.734,0
1556217371.883,-0.977,29.785,159.180,13.184,41.504,0
1556217371.887,-16.113,30.762,-12.207,10.742,60.547,0
1556217371.891,2.930,31.738,109.863,11.719,58.594,0
1556217371.895,19.531,38.086,236.816,13.672,30.273,0
1556217371.899,12.207,38.086,37.598,12.207,-20.508,0
1556217371.903,-1.465,38.086,-202.637,6.348,-23.926,0
1556217371.906,2.930,48.340,-139.648,5.859,21.484,0
1556217371.910,22.949,54.688,168.457,17.578,32.227,0
1556217371.914,28.320,44.434,72.266,20.020,24.902,0
1556217371.918,12.695,41.504,-199.707,14.648,10.742,0
1556217371.922,5.859,45.898,6.836,18.066,17.090,0
1556217371.924,23.438,40.527,190.430,26.367,34.180,0
1556217371.928,33.203,28.320,227.539,21.973,52.246,0
1556217371.932,21.484,33.691,124.023,28.809,36.621,0
1556217371.936,12.207,44.922,31.738,30.273,7.324,0
1556217371.940,26.855,50.293,100.098,27.832,20.020,0
1556217371.944,45.410,53.223,127.930,35.156,36.621,0
1556217371.948,41.504,56.641,5.859,31.250,6.836,0
1556217371.951,26.855,57.129,-126.953,24.902,-3.906,0
1556217371.955,33.691,54.199,-82.031,19.043,46.875,0
1556217371.959,47.363,54.199,-75.684,11.230,54.688,0
1556217371.963,39.062,59.570,36.133,14.648,22.461,0
1556217371.967,15.137,46.875,165.039,23.926,50.293,0
1556217371.969,12.207,38.574,27.832,20.996,41.504,0
1556217371.973,27.832,46.875,80.566,21.484,-19.531,0
1556217371.977,26.367,47.852,282.715,24.902,28.320,0
1556217371.981,12.695,45.898,186.523,30.273,42.480,0
1556217371.985,9.766,50.781,-47.852,33.203,-9.766,0
1556217371.989,29.785,49.805,-32.715,30.762,12.695,0
1556217371.993,48.340,44.922,75.684,39.551,27.832,0
1556217371.996,36.621,53.223,86.914,42.480,5.371,0
1556217372.000,23.438,52.246,-193.848,35.156,-38.574,0
1556217372.004,35.645,56.641,-250.488,26.367,-28.809,0
1556217372.008,50.781,62.988,121.582,27.832,-26.855,0
1556217372.012,40.527,51.270,155.273,32.227,2.441,0
1556217372.014,22.949,50.781,6.836,29.785,5.371,0
1556217372.018,27.832,56.641,55.664,29.297,3.906,0
1556217372.022,44.922,52.246,264.160,34.668,0.977,0
1556217372.026,45.898,50.293,263.184,34.180,3.906,0
1556217372.030,20.996,41.992,88.867,20.508,53.711,0
1556217372.034,17.090,42.480,-25.391,23.926,81.055,0
1556217372.038,40.039,57.617,126.465,37.109,83.008,0
1556217372.041,48.828,51.270,274.902,34.180,62.500,0
1556217372.045,36.621,42.480,-90.820,21.484,54.688,0
1556217372.049,31.250,56.641,-166.992,20.508,28.320,0
1556217372.053,49.805,59.570,233.398,34.180,39.551,0
1556217372.057,60.547,51.758,270.996,35.645,38.086,0
1556217372.059,46.387,50.781,133.789,30.762,8.789,0
1556217372.063,28.809,56.152,48.828,27.832,49.805,0
1556217372.067,28.809,57.617,67.871,25.391,60.059,0
1556217372.071,38.574,56.641,180.664,26.855,13.672,0
1556217372.075,28.320,54.688,147.461,31.738,-15.625,0
1556217372.079,4.883,55.176,-33.691,23.926,24.902,0
1556217372.083,3.906,64.941,-7.324,18.555,41.992,0
1556217372.086,22.461,60.059,44.434,24.414,12.207,0
1556217372.090,27.832,46.387,-87.891,23.438,-11.719,0
1556217372.094,10.742,49.805,15.625,19.043,-32.227,0
1556217372.098,5.371,56.641,46.875,23.926,-30.762,0
1556217372.102,25.879,61.523,171.387,28.320,39.062,0
1556217372.104,36.621,59.570,258.301,27.344,32.715,0
1556217372.108,20.508,58.594,150.391,34.180,22.461,0
1556217372.112,6.836,58.594,66.895,29.297,62.988,0
1556217372.116,18.066,58.594,66.895,26.855,3.906,0
1556217372.120,29.297,59.570,145.508,30.762,-24.414,0
1556217372.124,14.160,53.223,42.480,25.391,-3.906,0
1556217372.128,-7.324,53.711,-102.539,16.602,18.066,0
1556217372.131,4.883,62.500,-225.098,11.230,16.113,0
1556217372.135,26.367,74.219,-3.906,20.020,-3.418,0
1556217372.139,21.973,65.918,326.172,29.297,43.945,0
1556217372.143,9.277,58.105,136.719,31.738,73.730,0
1556217372.147,16.602,67.383,39.551,36.621,51.758,0
1556217372.149,32.227,68.848,222.168,37.598,-11.230,0
1556217372.153,27.344,68.359,287.598,36.621,-27.344,0
1556217372.157,10.254,72.266,53.223,33.691,-25.879,0
1556217372.161,3.418,73.242,-32.227,30.762,-3.418,0
1556217372.165,17.090,71.289,176.270,27.344,5.859,0
1556217372.169,26.367,71.777,257.812,31.738,38.574,0
1556217372.173,18.066,63.965,2.930,31.738,95.215,0
1556217372.176,9.766,62.500,-263.184,31.738,72.754,0
1556217372.180,26.367,77.637,75.195,47.363,45.410,0
1556217372.184,43.457,75.195,354.492,45.898,29.297,0
1556217372.188,39.062,69.824,239.746,45.410,39.062,0
1556217372.192,33.203,70.312,57.129,59.082,6.348,0
1556217372.194,29.297,72.266,135.742,45.898,7.324,0
1556217372.198,28.809,71.289,271.484,31.738,3.906,0
1556217372.202,22.949,67.383,229.980,40.527,30.762,0
1556217372.206,1.465,62.988,128.418,38.086,60.547,0
1556217372.210,-0.977,62.988,81.543,30.273,5.371,0
1556217372.214,19.043,56.152,97.656,30.273,-10.742,0
1556217372.218,17.578,49.805,-86.426,21.973,-0.977,0
1556217372.221,1.465,61.523,-127.930,15.625,-3.906,0
1556217372.225,0.000,65.430,87.891,29.297,11.230,0
1556217372.229,18.066,58.594,166.504,37.598,25.879,0
1556217372.233,34.180,58.594,165.527,44.434,25.391,0
1556217372.237,26.855,63.477,158.691,49.316,61.523,0
1556217372.254,11.719,62.012,84.473,46.387,4.883,0
1556217372.258,20.508,61.035,65.430,46.875,-16.602,0
1556217372.262,40.039,62.500,231.445,44.922,58.594,0
1556217372.266,31.738,63.477,285.156,37.598,62.500,0
1556217372.270,10.742,56.641,72.266,33.203,-53.223,0
1556217372.274,18.066,55.664,-188.477,33.203,-87.891,0
1556217372.278,29.297,65.430,-77.637,28.320,39.062,0
1556217372.281,24.902,58.594,207.031,25.879,19.043,0
1556217372.285,9.277,49.316,145.508,28.809,0.488,0
1556217372.289,6.348,58.594,19.531,26.855,35.156,0
1556217372.293,22.949,66.406,159.180,29.297,42.480,0
1556217372.297,32.227,61.523,373.047,31.738,87.402,0
1556217372.314,19.531,48.828,228.027,25.391,73.730,0
1556217372.318,10.254,49.316,0.000,24.414,53.711,0
1556217372.322,23.438,63.477,133.789,24.902,73.730,0
1556217372.326,36.621,62.012,339.355,26.855,71.289,0
1556217372.330,31.738,52.246,180.176,32.715,10.742,0
1556217372.334,19.043,57.617,-93.750,35.645,1.465,0
1556217372.338,29.297,67.383,-97.656,42.480,19.531,0
1556217372.341,45.410,63.477,143.066,45.410,24.414,0
1556217372.345,32.715,49.805,191.406,37.598,18.555,0
1556217372.349,14.160,49.316,-188.965,32.227,47.363,0
1556217372.353,23.926,65.918,-152.832,37.598,34.668,0
1556217372.357,44.434,62.012,253.418,42.969,5.859,0
1556217372.344,44.434,51.270,201.172,44.922,10.254,0
1556217372.348,24.414,51.270,-53.711,39.551,-32.227,0
1556217372.352,12.207,54.199,59.570,37.598,29.785,0
1556217372.356,24.902,59.082,268.555,34.180,84.473,0
1556217372.360,29.297,57.617,218.262,29.297,57.129,0
1556217372.364,4.883,51.270,-3.906,26.855,24.414,0
1556217372.368,-4.395,58.594,-116.211,25.879,24.902,0
1556217372.371,13.672,64.453,72.754,26.367,20.020,0
1556217372.375,29.297,62.500,166.504,25.391,-13.672,0
1556217372.379,19.043,62.500,107.910,24.414,8.789,0
1556217372.383,1.465,56.152,101.562,26.367,39.062,0
1556217372.387,15.625,55.664,153.809,33.203,5.859,0
1556217372.389,34.180,55.176,26.367,30.762,-27.832,0
1556217372.393,30.762,59.570,-18.555,22.461,18.555,2
1556217372.397,14.648,63.965,162.598,25.879,70.312,0
1556217372.401,14.160,55.664,100.098,27.344,23.438,0
1556217372.405,33.203,47.363,159.180,26.855,7.812,0
1556217372.409,38.574,51.270,142.090,32.715,6.348,0
1556217372.413,19.043,58.105,12.207,29.297,-5.859,0
1556217372.416,9.277,58.594,-16.113,26.367,32.715,0
1556217372.420,26.367,58.594,-116.699,25.879,32.715,0
1556217372.424,33.691,63.965,66.895,22.461,3.906,0
1556217372.428,13.672,55.176,263.672,21.973,17.090,0
1556217372.432,2.930,48.828,67.871,22.461,37.598,0
1556217372.434,14.648,53.711,116.211,29.297,63.477,0
1556217372.438,19.043,51.758,340.820,29.297,38.086,0
1556217372.442,13.184,45.410,319.824,25.879,34.180,0
1556217372.446,0.488,41.992,104.004,26.855,72.266,0
1556217372.450,0.488,49.316,106.934,23.926,83.984,0
1556217372.454,19.531,53.711,192.871,22.461,41.016,0
1556217372.458,23.926,51.270,162.109,29.785,30.273,0
1556217372.461,11.230,49.316,-139.648,35.645,-39.551,0
1556217372.465,22.949,68.848,-308.105,42.480,-61.035,0
1556217372.469,54.199,87.891,186.035,52.246,37.598,0
1556217372.473,66.406,79.590,308.105,59.570,31.250,0
1556217372.477,50.293,74.219,123.047,58.105,29.785,0
1556217372.479,36.133,76.660,100.098,53.223,47.852,0
1556217372.483,47.852,75.195,260.254,51.758,39.062,0
1556217372.487,59.082,70.312,309.082,53.223,-4.395,0
1556217372.491,38.086,72.754,123.535,44.922,-35.645,0
1556217372.495,19.043,73.730,77.637,45.898,35.645,0
1556217372.499,37.109,72.266,79.590,50.781,14.648,0
1556217372.503,52.734,73.730,95.703,49.805,-40.039,0
1556217372.506,40.039,67.383,-32.227,43.457,55.664,0
1556217372.510,20.996,70.801,-97.656,39.551,54.199,0
1556217372.514,22.949,78.125,146.973,42.480,-3.906,0
1556217372.518,38.574,73.242,231.445,37.109,-6.348,0
1556217372.522,40.527,69.824,225.098,38.086,0.488,0
1556217372.524,29.785,67.383,187.012,42.969,65.430,0
1556217372.528,29.297,63.965,100.098,41.992,90.332,0
1556217372.532,42.969,62.012,166.504,42.480,91.797,0
1556217372.536,48.340,62.988,242.676,44.434,69.336,0
1556217372.540,30.273,62.500,181.641,36.133,6.348,0
1556217372.544,21.973,62.988,-12.695,40.039,-15.137,0
1556217372.548,41.016,63.477,-50.293,46.875,62.988,0
1556217372.551,49.805,66.895,3.418,35.645,58.105,0
1556217372.555,38.086,75.195,193.848,41.504,41.504,0
1556217372.559,29.297,68.359,210.449,47.363,83.984,0
1556217372.563,41.992,62.988,113.770,34.668,25.391,0
1556217372.567,56.641,58.594,217.285,29.785,-22.949,0
1556217372.569,57.617,50.781,332.520,41.016,39.062,0
1556217372.573,41.016,45.898,165.039,41.992,48.340,0
1556217372.577,36.621,52.734,54.199,38.574,22.949,0
1556217372.581,56.152,59.082,168.457,41.992,33.203,0
1556217372.585,55.664,51.270,204.102,41.992,21.484,0
1556217372.589,30.762,43.945,36.133,40.039,7.812,0
1556217372.593,26.855,43.945,-293.457,41.504,11.230,0
1556217372.596,44.922,54.688,-76.660,39.551,30.762,0
1556217372.600,46.875,51.758,322.754,35.156,14.160,0
1556217372.604,31.738,45.898,128.418,36.133,-25.879,0
1556217372.608,21.973,53.711,-31.738,37.598,2.930,0
1556217372.612,29.785,53.223,165.039,32.715,26.855,0
1556217372.614,40.039,53.223,302.246,35.645,-6.348,0
1556217372.618,31.250,50.781,133.301,30.762,-21.973,0
1556217372.622,18.555,50.781,-14.648,23.438,23.926,0
1556217372.626,23.926,61.035,129.395,22.949,58.105,0
1556217372.630,37.598,57.129,320.312,24.414,58.105,0
1556217372.634,32.715,43.945,73.242,33.203,15.625,0
1556217372.638,18.066,49.805,-353.516,30.762,-17.578,0
1556217372.641,19.531,59.570,-163.086,27.344,-4.395,0
1556217372.645,37.598,59.570,199.219,32.715,-21.484,0
1556217372.649,41.504,59.082,260.254,34.180,10.254,0
1556217372.653,17.090,53.711,120.117,26.855,12.207,0
1556217372.657,4.883,51.270,78.613,21.973,0.488,0
1556217372.674,22.461,57.617,222.656,28.320,31.250,0
1556217372.678,33.203,59.082,271.484,30.273,36.621,0
1556217372.682,17.090,57.617,164.551,19.043,19.043,0
1556217372.686,0.977,55.176,79.102,8.301,17.578,0
1556217372.690,10.254,49.805,112.305,5.371,0.488,0
1556217372.694,19.043,41.992,85.938,5.371,-9.277,0
1556217372.698,5.371,41.992,37.598,1.953,6.348,0
1556217372.701,-7.812,48.828,68.848,4.395,19.043,0
1556217372.705,6.836,48.340,49.805,11.230,5.859,0
1556217372.709,25.879,51.270,-61.035,18.066,-7.812,0
1556217372.713,22.461,52.246,61.523,16.602,-2.441,0
1556217372.717,5.859,41.992,170.410,18.555,26.367,0
1556217372.719,6.348,47.363,76.172,20.020,75.684,0
1556217372.723,20.996,52.734,147.949,16.113,45.410,0
1556217372.727,22.461,49.316,278.809,14.160,16.602,0
1556217372.731,2.441,49.316,233.398,16.113,80.566,0
1556217372.735,-5.371,48.828,29.297,17.578,67.871,0
1556217372.739,15.625,49.316,-4.395,17.578,30.273,0
1556217372.743,25.879,44.922,126.953,14.160,75.195,0
1556217372.746,12.207,39.551,114.746,10.742,43.457,0
1556217372.750,1.465,37.598,-123.047,13.184,19.531,0
1556217372.754,12.695,47.363,-192.871,5.371,30.762,0
1556217372.758,27.344,57.617,236.328,9.277,36.133,0
1556217372.762,22.949,44.434,309.082,16.602,19.531,0
1556217372.764,9.277,39.062,17.578,18.066,3.418,0
1556217372.768,16.113,46.875,17.090,22.949,7.812,0
1556217372.772,36.133,49.805,287.109,22.949,20.996,0
1556217372.776,36.133,45.410,269.531,23.438,-14.160,0
1556217372.780,21.973,44.434,101.562,27.344,44.922,0
1556217372.784,18.066,44.922,-19.531,26.855,63.477,0
1556217372.788,31.738,52.246,55.664,21.973,37.598,0
1556217372.791,35.645,47.852,269.531,21.973,86.426,0
1556217372.795,19.043,39.062,-92.773,22.461,16.113,0
1556217372.799,5.859,51.758,-202.637,11.230,-10.254,0
1556217372.803,13.184,55.664,193.848,9.766,3.906,0
1556217372.807,24.414,43.945,286.133,19.043,41.992,0
1556217372.809,17.090,37.109,174.805,17.090,44.922,0
1556217372.813,2.441,46.387,116.211,17.578,38.574,0
1556217372.817,15.625,52.734,188.477,20.508,51.758,0
1556217372.821,35.645,55.176,182.129,20.508,-15.137,0
1556217372.825,30.273,52.734,133.789,25.879,-33.203,0
1556217372.829,15.625,46.875,-45.898,29.785,-16.113,0
1556217372.833,20.508,52.734,-53.223,24.902,-23.926,0
1556217372.836,41.016,47.852,45.898,24.902,-3.418,0
1556217372.840,42.969,50.293,-43.945,24.902,17.090,0
1556217372.844,21.973,59.082,84.961,23.926,20.508,0
1556217372.848,18.555,52.734,154.785,32.227,50.293,0
1556217372.852,36.133,49.316,222.168,25.879,72.754,0
1556217372.854,40.527,47.852,278.809,26.855,24.902,0
1556217372.858,22.949,50.293,215.332,39.062,3.906,0
1556217372.862,9.766,55.664,66.406,25.879,3.906,0
1556217372.866,20.508,54.688,94.238,20.508,22.949,0
1556217372.870,30.273,51.270,251.465,23.926,18.066,0
1556217372.874,18.555,49.805,116.699,20.020,-27.344,0
1556217372.878,9.277,47.363,-95.215,23.926,-1.465,0
1556217372.881,20.020,50.781,-274.902,25.391,-7.812,0
1556217372.885,33.691,62.012,-39.062,27.832,-18.066,0
1556217372.889,35.645,54.199,349.609,33.203,53.223,0
1556217372.893,19.043,42.480,156.738,36.621,81.543,0
1556217372.897,18.066,47.363,16.113,34.668,37.598,0
1556217372.899,36.133,47.852,235.352,34.180,11.719,0
1556217372.903,37.598,38.574,364.258,34.180,40.527,0
1556217372.907,18.555,38.574,75.684,31.738,-22.949,0
1556217372.911,4.883,46.387,-40.527,34.180,3.418,0
1556217372.915,19.531,45.410,182.129,29.785,35.156,0
1556217372.919,27.832,41.016,239.258,28.809,32.715,0
1556217372.923,5.371,30.762,-95.703,17.578,0.977,0
1556217372.926,-6.836,39.551,-392.578,7.324,-77.637,0
1556217372.930,9.277,50.781,0.977,12.207,-19.043,0
1556217372.934,25.879,40.039,280.762,21.484,62.988,0
1556217372.938,18.066,38.574,131.836,25.879,18.066,0
1556217372.942,-1.465,40.039,41.992,20.020,5.859,0
1556217372.944,6.348,43.457,106.934,24.414,14.648,0
1556217372.948,22.461,46.387,188.477,27.344,-4.395,0
1556217372.952,22.461,43.945,190.430,23.438,24.414,0
1556217372.956,5.859,47.363,83.984,28.809,25.391,0
1556217372.960,3.418,52.734,87.402,30.762,38.086,0
1556217372.964,25.391,46.387,184.082,27.832,91.309,0
1556217372.968,30.762,38.086,-31.250,23.926,74.219,0
1556217372.971,14.648,42.480,-105.957,17.090,50.293,0
1556217372.975,6.836,44.922,109.375,21.973,56.641,0
1556217372.979,20.020,41.504,149.902,30.273,40.527,0
1556217372.983,24.902,40.527,203.125,20.020,32.715,0
1556217372.987,6.836,37.598,211.914,17.578,38.086,0
1556217372.989,-9.766,35.645,-24.414,17.090,-17.578,0
1556217372.993,-2.930,40.039,-64.941,10.254,-38.086,0
1556217372.997,13.672,38.086,159.180,15.137,-3.906,0
1556217373.001,13.672,31.250,169.434,12.695,-60.059,0
1556217373.005,-1.465,30.273,108.887,10.254,-3.906,0
1556217373.009,9.277,37.109,-100.586,15.137,13.672,0
1556217373.013,29.785,47.852,-112.305,21.484,-28.320,0
1556217373.016,27.832,46.387,200.195,23.438,-11.719,0
1556217373.020,8.301,36.621,120.117,23.438,-34.668,0
1556217373.024,-2.930,35.645,-64.453,21.973,28.809,0
1556217373.028,16.113,41.016,17.090,14.160,5.371,0
1556217373.032,22.949,39.062,257.812,12.207,-16.602,0
1556217373.049,0.977,34.180,181.152,9.277,21.484,0
1556217373.053,-7.812,36.621,-2.930,10.742,26.855,0
1556217373.057,10.742,41.016,88.867,13.672,17.090,0
1556217373.061,21.973,40.527,223.633,18.555,40.039,0
1556217373.065,14.648,35.645,154.785,24.414,34.668,0
1556217373.069,-0.488,35.645,-120.605,21.973,-17.578,0
1556217373.073,8.301,44.434,-55.176,22.949,-4.395,0
1556217373.076,28.809,41.992,284.180,26.855,33.203,0
1556217373.080,22.461,27.832,244.629,25.391,53.711,0
1556217373.084,8.789,30.762,-148.926,24.414,44.922,0
1556217373.088,10.254,50.781,-78.125,14.648,50.293,0
1556217373.092,23.926,48.828,299.805,17.090,72.266,0
1556217373.094,18.555,42.969,235.840,16.602,49.316,0
1556217373.098,-2.441,47.852,71.777,12.695,68.848,0
1556217373.102,-7.812,45.410,78.613,12.695,65.430,0
1556217373.106,6.348,37.598,215.332,11.230,45.898,0
1556217373.110,12.695,32.227,234.863,16.113,55.176,0
1556217373.114,-4.395,34.180,-21.973,6.836,8.301,0
1556217373.118,-19.043,37.109,-145.508,-0.977,16.602,0
1556217373.121,-4.395,45.898,2.930,0.977,26.367,0
1556217373.125,16.602,43.945,62.988,1.465,44.434,0
1556217373.129,8.789,38.574,-91.309,3.418,41.504,0
1556217373.133,-12.695,41.992,-2.441,-3.906,17.578,0
1556217373.137,-1.953,42.969,73.242,-0.977,-38.086,0
1556217373.139,20.020,51.758,173.340,5.371,-18.555,0
1556217373.143,12.695,46.875,213.379,-0.488,-0.488,0
1556217373.147,-5.371,39.062,95.215,-3.418,-19.043,0
1556217373.151,-1.953,40.527,89.844,-0.977,54.688,0
1556217373.155,20.996,42.969,193.359,10.254,83.008,0
1556217373.159,24.902,42.969,138.672,12.695,31.738,0
1556217373.163,1.953,42.969,-40.527,6.836,-10.254,0
1556217373.166,-4.395,38.574,-46.875,9.277,27.832,0
1556217373.170,14.160,35.645,-118.652,6.836,53.223,0
1556217373.174,20.996,41.992,-52.246,0.977,-5.859,0
1556217373.178,4.395,41.992,192.383,1.953,17.090,0
1556217373.182,-3.906,42.480,83.984,5.859,68.848,0
1556217373.184,10.254,42.969,56.641,2.930,28.809,0
1556217373.188,24.902,40.527,263.672,0.000,0.977,0
1556217373.192,18.066,38.086,260.742,-1.465,8.301,0
1556217373.196,-2.441,40.527,24.902,4.395,13.184,0
1556217373.200,1.465,41.504,5.859,13.184,14.160,0
1556217373.204,16.113,32.715,125.000,19.043,31.250,0
1556217373.208,6.348,37.109,151.367,21.484,15.137,0
1556217373.211,-11.230,38.574,-39.062,17.090,40.039,0
1556217373.215,-5.859,42.969,-200.195,18.555,100.098,0
1556217373.219,13.672,46.387,151.367,24.902,53.711,0
1556217373.223,19.043,42.969,325.684,25.391,16.602,0
1556217373.227,1.465,38.086,158.691,13.184,67.871,0
1556217373.229,-8.789,36.133,-34.180,6.836,72.754,0
1556217373.233,6.348,41.504,123.535,11.230,35.156,0
1556217373.237,20.996,31.250,283.691,13.672,10.254,0
1556217373.241,5.371,26.367,130.371,11.719,9.766,0
1556217373.245,-10.742,34.668,10.254,4.395,18.066,0
1556217373.249,4.395,38.086,-11.230,9.277,-6.348,0
1556217373.253,22.461,41.504,126.953,17.090,59.570,0
1556217373.256,20.508,44.434,-64.453,6.836,54.688,0
1556217373.260,2.441,56.152,-204.102,-3.906,-3.906,0
1556217373.264,5.371,53.711,131.836,-1.953,52.246,0
1556217373.268,23.926,43.457,185.059,-3.418,2.441,0
1556217373.272,24.902,48.340,121.094,1.953,-49.805,0
1556217373.274,5.371,54.199,77.148,4.883,-33.203,0
1556217373.278,3.418,51.758,80.566,5.859,5.371,0
1556217373.282,22.949,51.270,150.391,14.160,56.641,0
1556217373.286,27.344,53.711,153.320,15.137,43.457,0
1556217373.290,9.766,52.734,143.066,13.672,31.250,0
1556217373.294,-4.883,39.062,-9.766,12.207,24.902,0
1556217373.298,6.348,30.762,-169.922,4.395,-12.695,0
1556217373.301,20.508,43.457,-109.375,5.371,8.301,0
1556217373.305,8.789,50.293,110.840,7.324,17.578,0
1556217373.309,-2.441,43.457,90.332,5.859,10.742,0
1556217373.313,14.648,46.875,35.645,1.465,0.977,0
1556217373.317,33.691,47.363,162.598,15.137,-21.973,0
1556217373.319,29.785,37.109,243.164,29.785,0.000,0
1556217373.323,20.508,35.156,96.680,31.738,14.648,0
1556217373.327,27.832,47.852,-46.387,34.180,-33.691,0
1556217373.331,38.574,58.105,125.977,30.762,-27.344,0
1556217373.335,36.621,54.199,297.363,30.762,44.922,0
1556217373.339,20.996,45.410,80.078,33.203,57.617,0
1556217373.343,13.184,46.387,-281.250,29.297,64.941,0
1556217373.346,29.297,61.523,-118.652,27.344,41.016,0
1556217373.350,40.039,61.035,305.664,35.156,29.785,0
1556217373.354,26.367,41.016,151.367,34.668,19.531,0
1556217373.358,16.602,41.992,-57.129,28.809,16.602,0
1556217373.362,29.297,54.688,106.445,30.273,3.418,0
1556217373.364,42.969,52.246,270.996,32.715,-6.836,0
1556217373.368,33.691,41.504,107.910,23.926,16.602,0
1556217373.372,11.719,36.621,-36.133,17.578,42.969,0
1556217373.376,17.578,43.945,86.426,13.672,38.086,0
1556217373.380,34.668,51.758,287.109,14.648,39.551,0
1556217373.384,27.344,38.574,120.605,13.184,69.336,0
1556217373.388,-3.906,25.391,-268.066,-5.859,33.203,0
1556217373.391,-17.578,20.996,-19.531,-13.184,55.664,0
1556217373.395,2.930,5.371,207.031,-15.137,52.734,0
1556217373.399,11.230,-2.930,122.070,-16.113,6.836,0
1556217373.403,-8.301,0.000,74.219,-15.625,10.742,0
1556217373.407,-18.066,5.371,57.617,-13.184,11.230,0
1556217373.424,-0.488,10.742,180.664,-7.812,33.203,0
1556217373.428,7.812,9.277,220.215,-9.766,23.926,0
1556217373.432,-4.883,8.301,151.367,-4.395,37.109,0
1556217373.436,-14.648,8.789,53.223,-0.977,12.695,0
1556217373.440,-6.348,9.277,123.047,-1.953,37.598,0
1556217373.444,8.301,9.766,130.859,0.488,62.500,0
1556217373.448,2.441,19.531,81.055,-5.371,31.250,0
1556217373.451,-11.719,20.996,76.172,-6.836,24.902,0
1556217373.455,-0.488,15.625,43.945,1.465,33.691,0
1556217373.459,23.438,24.414,-65.430,4.395,13.672,0
1556217373.463,21.484,32.715,80.566,2.930,37.109,0
1556217373.467,0.977,15.137,82.031,-1.953,26.855,0
1556217373.469,0.000,16.113,-145.508,0.000,7.812,0
1556217373.473,18.066,30.273,11.230,6.836,-13.672,0
1556217373.477,17.578,27.832,202.637,1.465,-34.180,0
1556217373.481,-2.441,18.066,115.234,0.488,-17.578,0
1556217373.485,-9.277,13.672,-66.406,5.371,3.906,0
1556217373.489,10.742,22.949,-88.379,11.230,-8.301,0
1556217373.493,20.020,28.809,15.137,6.836,-6.836,0
1556217373.496,1.465,25.391,123.047,6.348,27.344,0
1556217373.500,-11.719,10.254,-78.613,9.766,72.266,0
1556217373.504,1.465,16.113,-279.785,5.859,19.531,0
1556217373.508,16.113,32.227,141.113,7.324,7.324,0
1556217373.512,9.766,12.695,281.250,16.602,43.945,0
1556217373.514,-5.859,11.719,3.906,17.578,-0.977,0
1556217373.518,-3.418,29.785,33.691,10.254,32.715,0
1556217373.522,8.789,28.320,201.660,1.465,53.711,0
1556217373.526,3.906,18.066,200.684,-4.395,36.133,0
1556217373.530,-13.672,18.555,46.875,-6.836,34.180,0
1556217373.534,-16.602,20.508,-104.004,-10.742,37.109,0
1556217373.538,-4.395,23.926,-28.320,-7.324,3.906,0
1556217373.541,-6.348,27.344,126.465,-2.930,-24.414,0
1556217373.545,-20.508,23.438,-156.738,-1.953,15.625,0
1556217373.549,-22.461,33.203,-247.559,-2.441,22.461,0
1556217373.553,-3.418,37.109,160.645,1.465,41.992,0
1556217373.557,14.160,30.762,208.984,4.395,29.785,0
1556217373.559,11.230,33.203,82.031,10.254,18.555,0
1556217373.563,3.906,41.504,89.355,14.648,84.473,0
1556217373.567,16.113,39.062,113.281,18.555,41.504,0
1556217373.571,34.180,35.156,153.809,20.996,22.461,0
1556217373.575,28.320,36.133,147.949,15.137,54.199,0
1556217373.579,8.789,32.227,-26.855,12.695,59.570,1
1556217373.583,6.836,33.691,-121.582,14.160,35.645,0
1556217373.586,20.996,31.250,-116.211,15.137,2.930,0
1556217373.590,21.484,34.180,-119.629,17.578,16.113,0
1556217373.594,6.348,37.598,33.691,25.879,24.902,0
1556217373.598,6.348,32.715,60.059,34.668,17.090,0
1556217373.602,30.273,31.738,81.055,40.039,-12.695,0
1556217373.604,40.039,32.715,194.336,38.086,-10.254,0
1556217373.608,20.508,31.250,206.543,37.598,37.598,0
1556217373.612,11.230,29.297,57.617,39.551,45.898,0
1556217373.616,23.438,39.062,20.020,33.203,5.859,0
1556217373.620,35.156,40.527,198.730,26.855,14.648,0
1556217373.624,28.809,30.762,62.500,27.832,-16.113,0
1556217373.628,12.207,32.227,-115.723,23.926,-6.348,0
1556217373.631,20.020,40.527,-218.262,11.719,42.969,0
1556217373.635,38.086,50.781,-132.812,7.812,3.418,0
1556217373.639,28.320,50.293,224.609,4.883,23.926,0
1556217373.643,8.789,42.480,123.535,0.488,73.730,0
1556217373.647,10.742,42.480,4.883,5.371,66.406,0
1556217373.649,28.320,41.504,212.891,3.418,45.410,0
1556217373.653,28.320,36.621,269.043,2.441,-8.789,0
1556217373.657,11.230,34.668,50.781,9.766,-5.371,0
1556217373.661,9.766,39.551,-39.551,15.137,46.387,0
1556217373.665,23.438,40.527,154.785,19.043,53.223,0
1556217373.669,30.762,37.598,117.188,21.973,-42.480,0
1556217373.673,16.602,36.133,-160.156,18.066,-44.434,0
1556217373.676,3.418,37.598,-317.871,9.766,33.691,0
1556217373.680,14.160,45.410,4.395,17.578,42.480,0
1556217373.684,26.855,41.016,239.746,29.785,-14.160,0
1556217373.688,17.090,37.598,103.516,27.344,-40.039,0
1556217373.692,0.488,36.133,-39.062,21.973,44.922,0
1556217373.694,12.207,37.598,53.223,24.414,51.270,0
1556217373.698,29.785,37.109,205.566,24.902,-6.348,0
1556217373.702,25.879,31.250,193.359,23.926,29.785,0
1556217373.706,8.789,32.715,84.473,26.855,58.594,0
1556217373.710,6.348,34.180,44.434,18.066,27.832,0
1556217373.714,20.508,30.762,107.422,14.160,41.016,0
1556217373.718,28.320,28.809,-82.520,14.160,38.086,0
1556217373.721,10.254,26.855,-155.273,10.742,23.438,0
1556217373.725,-5.859,24.902,45.898,8.789,27.344,0
1556217373.729,7.812,27.832,120.605,8.301,49.805,0
1556217373.733,15.625,27.344,137.695,7.812,-4.395,0
1556217373.737,-3.418,28.809,106.445,0.977,-52.246,0
1556217373.754,-21.484,31.738,61.035,0.488,13.184,0
1556217373.758,-10.254,27.344,24.414,8.301,31.250,0
1556217373.762,10.254,34.668,66.406,7.324,24.414,0
1556217373.766,7.324,36.621,154.297,-0.977,19.531,0
1556217373.770,-5.371,30.273,69.824,-1.465,-9.277,0
1556217373.774,0.977,28.809,-144.531,8.301,9.766,0
1556217373.778,14.648,32.715,-201.660,6.836,-3.906,0
1556217373.781,12.695,39.551,108.398,7.324,0.000,0
1556217373.785,-3.418,30.273,124.512,11.230,-0.977,0
1556217373.789,-7.324,27.832,-37.598,9.277,-5.371,0
1556217373.793,15.625,33.203,123.047,21.484,35.156,0
1556217373.797,31.250,34.668,285.156,33.691,26.855,0
1556217373.799,18.555,27.832,176.270,33.203,39.062,0
1556217373.803,9.766,30.273,13.672,35.645,77.148,0
1556217373.807,26.367,33.691,106.445,43.457,65.918,0
1556217373.811,42.969,19.043,245.117,48.340,3.906,0
1556217373.815,31.250,15.137,182.129,42.969,24.902,0
1556217373.819,15.137,27.344,-67.383,27.832,49.805,0
1556217373.823,21.484,40.039,-137.695,21.484,12.207,0
1556217373.826,28.809,41.992,67.871,22.461,27.344,0
1556217373.830,18.555,30.273,188.477,21.484,69.824,0
1556217373.834,-3.418,22.949,-192.871,7.812,54.199,0
1556217373.838,-6.836,37.598,-232.422,7.324,11.230,0
1556217373.842,9.766,35.645,226.562,24.414,24.902,0
1556217373.844,14.160,19.043,241.699,27.344,50.781,0
1556217373.848,6.836,13.672,27.344,27.344,15.137,0
1556217373.852,8.789,23.438,29.297,24.414,25.879,0
1556217373.856,25.879,34.180,190.918,14.160,41.504,0
1556217373.860,33.691,32.227,212.402,17.090,30.273,0
1556217373.864,18.555,26.367,23.438,17.090,60.059,0
1556217373.868,9.277,31.250,-133.789,11.719,52.734,0
1556217373.871,20.020,37.598,-13.184,18.066,-0.488,0
1556217373.875,29.785,31.250,-18.555,21.484,-20.508,0
1556217373.879,20.996,30.273,-143.555,14.160,16.113,0
1556217373.883,5.371,36.133,-12.207,15.625,18.555,0
1556217373.887,15.137,32.715,121.582,25.879,29.297,0
1556217373.889,38.574,29.785,167.480,27.832,0.977,0
1556217373.893,35.156,33.203,238.281,20.996,53.223,0
1556217373.897,13.184,35.156,155.762,20.020,54.199,0
1556217373.901,15.625,38.086,49.805,29.297,13.672,0
1556217373.905,34.668,40.039,136.719,29.297,27.344,0
1556217373.909,37.109,35.645,140.625,24.902,56.152,0
1556217373.913,19.043,37.598,17.578,22.949,35.645,0
1556217373.916,8.301,39.551,22.949,17.090,33.203,0
1556217373.920,21.484,39.062,-139.160,8.789,25.879,0
1556217373.924,30.273,44.922,-20.996,9.277,8.301,0
1556217373.928,20.020,28.809,204.590,10.742,34.668,0
1556217373.932,9.766,24.414,-113.281,2.930,-21.973,0
1556217373.934,17.578,40.527,-48.340,2.441,12.207,0
1556217373.938,27.832,38.086,272.949,5.371,54.199,0
1556217373.942,17.578,25.879,240.234,5.371,18.555,0
1556217373.946,-0.488,20.996,21.973,8.789,52.734,0
1556217373.950,4.883,22.461,-32.715,14.160,35.645,0
1556217373.954,22.461,22.949,45.898,15.625,-24.414,0
1556217373.958,23.438,24.414,76.172,17.090,-7.812,0
1556217373.961,7.324,15.625,-133.301,16.602,22.949,0
1556217373.965,3.906,29.785,-359.863,16.113,-11.719,0
1556217373.969,20.508,45.898,66.406,17.578,23.926,0
1556217373.973,30.762,32.227,312.988,21.484,39.062,0
1556217373.977,20.996,30.762,62.500,28.320,-14.648,0
1556217373.979,14.648,35.645,-13.184,27.344,12.207,0
1556217373.983,26.367,35.645,121.582,19.531,47.852,0
1556217373.987,37.598,34.668,137.695,24.902,-8.789,0
1556217373.991,31.738,34.668,86.426,37.109,-17.578,0
1556217373.995,13.184,38.086,11.719,36.133,12.695,0
1556217373.999,18.066,32.227,44.434,36.621,65.430,0
1556217374.003,36.133,25.391,119.629,42.480,64.453,0
1556217374.006,24.902,30.762,-67.871,37.598,68.359,0
1556217374.010,3.906,40.527,-137.695,28.320,88.379,0
1556217374.014,3.906,44.434,110.840,29.297,38.086,0
1556217374.018,17.090,31.738,166.992,29.297,-6.348,0
1556217374.022,20.996,33.203,153.320,20.996,1.953,0
1556217374.024,2.930,38.086,135.254,12.695,40.527,0
1556217374.028,-1.953,33.691,53.711,12.695,0.000,0
1556217374.032,16.602,41.016,70.801,11.719,-14.160,0
1556217374.036,20.996,45.410,177.246,12.207,16.602,0
1556217374.040,6.836,40.527,78.125,16.602,-11.719,0
1556217374.044,-4.395,42.969,-141.113,19.531,-49.805,0
1556217374.048,8.301,35.645,-153.320,18.066,-8.789,0
1556217374.051,21.973,33.691,-117.676,17.578,-17.578,0
1556217374.055,10.254,46.875,124.023,14.160,11.719,0
1556217374.059,-5.859,43.457,156.738,9.766,50.781,0
1556217374.063,4.883,46.875,99.609,11.230,37.109,0
1556217374.067,20.508,48.828,224.609,18.555,0.000,0
1556217374.069,14.648,42.969,258.789,23.438,-46.875,0
1556217374.073,-3.418,37.598,123.047,21.484,-17.090,0
1556217374.077,-1.953,41.016,24.902,23.926,7.812,0
1556217374.081,16.113,46.387,218.750,27.832,39.062,0
1556217374.085,14.160,38.574,351.074,26.855,45.898,0
1556217374.089,-0.488,33.203,119.141,23.438,43.945,0
1556217374.093,-2.441,36.621,-240.234,19.531,46.875,0
1556217374.096,11.719,40.527,-147.949,14.648,36.133,0
1556217374.100,20.508,39.062,221.191,11.719,22.461,0
1556217374.104,9.277,35.156,190.918,12.207,27.832,0
1556217374.108,-3.906,32.227,42.480,13.672,47.852,0
1556217374.112,9.766,34.180,160.156,17.578,17.090,0
1556217374.129,25.879,40.527,332.520,22.461,-0.977,0
1556217374.133,9.766,36.133,249.023,19.043,42.480,0
1556217374.137,-9.766,34.180,71.289,11.719,67.871,0
1556217374.141,1.953,37.598,137.695,11.719,50.293,0
1556217374.145,19.043,38.574,287.598,19.043,1.953,0
1556217374.149,17.578,29.297,100.586,16.602,1.953,0
1556217374.153,1.953,31.738,-249.023,7.324,-2.930,0
1556217374.156,-5.859,42.969,-6.836,5.859,36.621,0
1556217374.160,13.672,36.133,358.398,14.648,112.305,0
1556217374.164,24.414,33.203,319.336,19.043,61.523,0
1556217374.168,5.859,37.598,107.910,18.066,31.738,0
1556217374.172,-6.348,40.527,41.504,14.160,16.113,0
1556217374.174,11.230,43.945,236.816,17.578,52.734,0
1556217374.178,22.461,36.133,269.531,19.043,24.414,0
1556217374.182,11.719,33.203,153.320,12.207,-7.324,0
1556217374.186,1.465,37.109,79.590,20.996,12.207,0
1556217374.190,7.812,36.133,125.977,23.926,7.812,0
1556217374.194,22.461,29.297,211.426,15.137,66.895,0
1556217374.198,13.184,30.762,97.168,8.301,44.434,0
1556217374.201,-13.672,37.598,49.316,10.742,29.297,0
1556217374.205,-11.230,31.250,54.688,6.836,-10.254,0
1556217374.209,8.301,30.273,-119.629,0.000,-47.852,0
1556217374.213,6.348,38.086,-11.230,4.395,-14.160,0
1556217374.217,-12.207,34.180,128.418,9.277,-28.809,0
1556217374.219,-13.184,27.832,30.762,11.719,20.508,0
1556217374.223,10.742,29.297,63.965,26.855,48.828,0
1556217374.227,19.043,36.133,218.750,29.297,2.930,0
1556217374.231,5.371,35.156,282.715,20.996,76.172,0
1556217374.235,-2.930,33.691,87.891,22.461,97.168,0
1556217374.239,8.301,34.668,29.297,17.090,65.430,0
1556217374.243,18.555,33.691,150.879,14.160,73.730,0
1556217374.246,9.766,35.645,135.254,18.555,2.930,0
1556217374.250,0.488,33.691,-124.023,13.672,-39.551,0
1556217374.254,12.695,37.598,-186.523,12.695,24.902,0
1556217374.258,32.227,41.504,257.812,21.973,65.918,0
1556217374.262,28.320,30.273,342.285,24.414,32.715,0
1556217374.264,6.836,29.785,86.914,23.926,6.836,0
1556217374.268,8.789,41.504,47.363,23.926,-15.625,0
1556217374.272,26.855,41.992,261.719,19.531,-13.184,0
1556217374.276,24.902,32.227,318.359,19.531,7.324,0
1556217374.280,8.301,28.809,67.871,20.508,-3.418,0
