timestamps,TP9,AF7,AF8,TP10,Right AUX,Marker0
1556031792.933,184.082,126.953,-83.496,-7.812,-7.812,0
1556031792.937,-4.883,48.340,-142.578,10.254,31.250,0
1556031792.941,-64.941,-137.207,-300.781,4.395,55.664,0
1556031792.945,110.840,-117.676,-306.152,-7.324,-10.254,0
1556031792.949,180.176,115.234,-103.027,-6.836,10.254,0
1556031792.953,22.461,-18.555,-202.637,-0.488,55.664,0
1556031792.957,-88.379,-429.688,-562.988,-2.930,23.438,0
1556031792.960,45.410,-439.453,-583.008,-15.625,59.082,0
1556031792.964,195.801,-36.133,-250.000,-11.230,30.762,0
1556031792.968,87.402,66.406,-154.785,-6.836,20.020,0
1556031792.972,-70.801,-186.523,-369.629,-9.277,29.785,0
1556031792.976,15.137,-184.570,-375.488,-24.902,44.434,0
1556031792.978,180.176,-24.414,-234.375,-31.250,64.453,0
1556031792.982,133.301,-51.270,-262.695,-39.062,13.672,0
1556031792.986,-41.504,-222.168,-415.039,-33.203,6.836,0
1556031792.990,-39.062,-236.816,-434.082,-31.250,59.082,0
1556031792.994,132.324,8.789,-220.703,-41.016,97.656,0
1556031792.998,166.016,-38.086,-250.000,-23.926,53.223,0
1556031793.002,-16.602,-530.762,-679.688,-21.484,-14.648,0
1556031793.005,-96.680,-550.781,-708.984,-27.344,32.227,0
1556031793.009,88.379,-105.957,-329.102,-12.207,23.926,0
1556031793.013,206.055,-38.574,-256.348,-6.348,-23.438,0
1556031793.017,40.039,-160.645,-350.098,-10.742,10.254,0
1556031793.021,-94.727,-175.293,-361.816,15.137,59.570,0
1556031793.038,46.387,-103.027,-308.105,11.230,20.020,0
1556031793.042,182.617,-24.902,-235.840,-16.113,23.926,0
1556031793.046,84.961,-56.152,-255.371,-11.719,52.246,0
1556031793.050,-66.406,-290.039,-475.098,-2.441,-25.879,0
1556031793.054,-2.441,-319.336,-514.160,5.859,-23.438,0
1556031793.058,169.434,-261.230,-454.590,5.859,-5.859,0
1556031793.062,151.855,-360.840,-534.180,4.883,14.160,0
1556031793.065,-21.484,-232.422,-428.223,19.531,42.969,0
1556031793.069,-25.391,-153.320,-356.445,26.855,22.461,0
1556031793.073,136.230,-123.047,-326.660,36.621,18.555,0
1556031793.077,168.945,17.090,-199.219,25.879,50.781,0
1556031793.081,5.371,45.410,-166.016,22.461,80.566,0
1556031793.083,-78.125,-125.000,-310.547,35.156,47.363,0
1556031793.087,85.938,-126.465,-322.754,14.160,18.066,0
1556031793.091,199.219,79.102,-140.625,10.254,53.223,0
1556031793.095,53.223,73.242,-135.254,30.762,37.598,0
1556031793.099,-101.562,-145.020,-325.684,39.062,2.930,0
1556031793.103,9.277,-254.883,-432.129,13.672,-19.043,0
1556031793.107,173.828,-167.480,-362.793,11.719,-21.484,0
1556031793.110,111.816,-62.500,-268.066,35.645,4.883,0
1556031793.114,-69.824,-116.699,-307.617,41.016,24.902,0
1556031793.118,-47.363,-358.398,-509.766,37.109,90.332,0
1556031793.122,160.645,-191.895,-387.207,25.391,57.129,0
1556031793.126,166.504,109.375,-136.230,18.555,-22.461,0
1556031793.128,-47.363,-74.707,-281.250,41.504,22.949,0
1556031793.132,-77.637,-200.195,-393.555,44.434,45.410,0
1556031793.136,127.441,26.367,-208.008,38.086,35.645,0
1556031793.140,181.152,182.129,-65.918,42.480,34.668,0
1556031793.144,-3.906,-24.414,-236.328,20.508,32.715,0
1556031793.148,-103.027,-324.707,-501.465,19.531,7.324,0
1556031793.152,56.152,-289.062,-490.234,20.020,-7.812,0
1556031793.155,201.172,47.363,-201.660,21.973,8.301,0
1556031793.159,75.684,-90.332,-298.828,21.973,9.766,0
1556031793.163,-89.355,-445.801,-601.562,26.367,44.434,0
1556031793.167,18.066,-112.793,-330.078,28.809,81.055,0
1556031793.171,187.500,154.297,-89.844,25.879,31.250,0
1556031793.173,124.023,33.203,-192.871,21.484,-18.066,0
1556031793.177,-54.688,-105.469,-312.988,35.156,22.461,0
1556031793.181,-10.742,-77.148,-291.504,38.574,36.133,0
1556031793.185,186.035,70.801,-166.016,13.184,28.809,0
1556031793.189,187.012,81.055,-150.391,15.625,20.508,0
1556031793.193,0.977,-198.730,-395.996,29.297,-3.418,0
1556031793.197,-47.363,-291.504,-484.863,42.969,26.855,0
1556031793.200,112.793,9.277,-218.750,43.945,82.031,0
1556031793.204,185.059,-95.215,-288.086,38.574,76.172,0
1556031793.208,31.738,-234.375,-422.852,33.203,29.785,0
1556031793.212,-83.496,-76.172,-295.410,35.645,27.344,0
1556031793.216,67.383,-81.543,-294.922,34.180,20.996,0
1556031793.218,199.707,-56.641,-275.879,27.344,5.859,0
1556031793.222,80.078,60.547,-165.527,24.902,54.688,0
1556031793.226,-68.359,-48.340,-259.766,33.691,0.977,0
1556031793.230,15.625,-181.152,-378.418,32.715,5.371,0
1556031793.234,193.359,39.062,-174.316,32.715,101.562,0
1556031793.238,147.461,57.617,-156.250,36.133,61.035,0
1556031793.242,-56.641,-131.348,-328.125,32.715,40.527,0
1556031793.245,-59.082,-262.207,-438.965,33.203,55.176,0
1556031793.249,124.023,-271.484,-449.707,29.297,55.664,0
1556031793.253,166.504,69.336,-159.180,22.461,39.551,0
1556031793.257,-5.371,28.320,-188.477,19.531,-11.230,0
1556031793.261,-71.289,-166.504,-360.352,26.367,-1.465,0
1556031793.263,101.562,-51.270,-262.695,20.020,2.930,0
1556031793.267,175.781,140.137,-94.238,25.879,-22.949,0
1556031793.271,25.391,93.262,-121.582,31.250,25.391,0
1556031793.275,-94.238,-142.090,-323.730,35.156,49.805,0
1556031793.279,43.945,-73.242,-271.484,26.855,49.316,0
1556031793.283,198.730,24.902,-184.082,26.367,15.625,0
1556031793.287,108.398,-31.738,-225.586,39.062,12.695,0
1556031793.290,-61.035,-362.305,-499.023,23.438,33.691,0
1556031793.294,4.883,-365.234,-517.578,17.578,37.109,0
1556031793.298,176.270,152.832,-72.266,31.250,47.363,0
1556031793.302,130.859,176.758,-27.832,20.996,49.805,0
1556031793.306,-67.383,-67.383,-238.770,11.230,33.203,0
1556031793.308,-79.102,-54.199,-238.281,0.977,47.852,0
1556031793.312,125.977,146.484,-65.430,4.883,59.082,0
1556031793.316,179.199,115.723,-89.355,30.762,4.395,0
1556031793.320,9.766,-18.066,-201.660,34.668,32.227,0
1556031793.324,-76.660,-48.340,-224.121,39.062,63.965,0
1556031793.328,73.730,-54.199,-240.234,33.691,13.184,0
1556031793.332,190.430,-58.594,-228.027,24.902,56.641,0
1556031793.335,56.641,-266.113,-402.832,36.621,38.086,0
1556031793.339,-88.867,-214.355,-381.348,43.457,-18.555,0
1556031793.343,33.203,-3.418,-193.848,31.738,3.906,0
1556031793.347,182.129,145.508,-45.410,26.855,60.059,0
1556031793.351,82.031,160.645,-18.066,36.621,73.730,0
1556031793.353,-86.914,12.695,-155.762,46.875,20.020,0
1556031793.357,-28.809,-13.184,-186.523,38.574,39.062,0
1556031793.361,156.250,62.988,-125.977,32.715,34.668,0
1556031793.365,145.996,173.828,-30.762,31.738,68.359,0
1556031793.369,-45.410,54.199,-130.371,29.785,50.781,0
1556031793.373,-81.543,-224.121,-385.742,33.691,-22.949,0
1556031793.377,111.816,-422.852,-570.312,29.785,-50.781,0
1556031793.380,177.734,-186.523,-367.676,27.832,-1.465,0
1556031793.384,-10.254,126.465,-79.590,20.020,83.496,0
1556031793.388,-106.934,-111.816,-270.996,22.461,97.168,0
1556031793.392,62.988,-136.230,-317.383,30.762,45.410,0
1556031793.396,205.566,199.219,-34.180,47.363,59.082,0
1556031793.414,83.496,131.348,-85.938,41.992,58.105,0
1556031793.418,-83.984,-156.250,-341.309,32.227,63.965,0
1556031793.422,23.438,-125.000,-328.613,37.109,72.754,0
1556031793.426,183.594,44.434,-202.148,17.090,-25.391,0
1556031793.430,83.496,170.410,-78.125,12.695,36.133,0
1556031793.434,-88.867,-202.637,-375.977,26.855,66.406,0
1556031793.438,-41.992,-528.320,-675.293,17.090,22.949,0
1556031793.441,152.832,-89.844,-310.547,23.438,35.645,0
1556031793.445,173.340,141.602,-94.238,42.969,1.465,0
1556031793.449,-24.414,-75.195,-264.160,40.039,14.160,0
1556031793.453,-82.520,-216.797,-392.578,26.367,-0.977,0
1556031793.457,113.770,14.648,-189.453,15.625,36.133,0
1556031793.458,193.359,100.098,-94.727,27.344,51.270,0
1556031793.462,26.367,-109.863,-281.738,39.062,-2.930,0
1556031793.466,-85.938,-187.988,-350.586,46.387,18.555,0
1556031793.470,53.711,-28.320,-207.520,34.180,49.805,0
1556031793.474,181.641,111.816,-80.566,-1.953,28.809,0
1556031793.478,59.570,-73.242,-232.910,-11.230,35.156,0
1556031793.482,-85.938,-282.227,-424.316,8.301,41.992,0
1556031793.485,-5.371,-132.812,-309.082,20.996,31.738,0
1556031793.489,160.156,86.914,-104.980,27.344,48.340,0
1556031793.493,114.746,-221.680,-362.793,4.395,24.414,0
1556031793.497,-51.758,-430.176,-574.219,4.883,-30.273,0
1556031793.501,-18.066,-206.543,-398.926,18.066,-45.410,0
1556031793.503,161.133,-33.691,-227.539,32.715,41.504,0
1556031793.507,160.645,95.215,-96.680,45.898,106.934,0
1556031793.511,-26.855,1.953,-185.059,35.156,53.223,0
1556031793.515,-79.590,-184.082,-356.934,30.273,37.109,0
1556031793.519,93.750,-164.062,-350.098,21.484,22.949,0
1556031793.523,180.664,-81.055,-276.367,17.578,20.996,0
1556031793.527,41.016,-143.066,-325.195,16.113,58.105,0
1556031793.530,-73.242,-220.215,-404.785,24.414,28.809,0
1556031793.534,52.734,-272.461,-451.660,27.832,16.113,0
1556031793.538,184.570,-316.406,-493.652,20.996,-26.855,0
1556031793.542,78.125,-70.312,-296.875,18.066,-33.691,0
1556031793.546,-89.844,-72.754,-289.551,13.672,-0.977,0
1556031793.548,-17.578,-199.707,-404.297,4.883,-12.695,0
1556031793.552,160.645,-16.602,-247.559,8.789,-2.930,0
1556031793.556,124.512,95.215,-146.973,7.812,-31.250,0
1556031793.560,-71.777,-50.781,-263.672,10.254,-1.953,0
1556031793.564,-67.871,-142.578,-329.102,23.438,66.895,0
1556031793.568,143.066,-68.359,-261.719,18.555,87.402,0
1556031793.572,171.875,-10.742,-213.867,14.648,74.707,0
1556031793.575,-12.207,-137.695,-326.660,29.297,42.969,0
1556031793.579,-81.543,-496.582,-638.672,29.297,7.812,0
1556031793.583,95.215,-279.785,-464.355,22.461,49.316,0
1556031793.587,224.121,267.090,20.508,27.832,108.398,0
1556031793.591,76.660,129.883,-76.660,27.344,82.520,0
1556031793.593,-69.824,-104.492,-280.762,39.062,75.195,0
1556031793.597,59.570,1.953,-204.590,53.711,56.641,0
1556031793.601,205.566,162.109,-72.754,57.129,10.254,0
1556031793.605,112.305,79.102,-135.254,46.387,25.391,0
1556031793.609,-63.477,-154.297,-345.703,36.621,3.906,0
1556031793.613,-17.090,-224.609,-412.109,34.180,25.879,0
1556031793.617,174.316,-37.109,-250.977,47.852,49.805,0
1556031793.620,178.223,-41.992,-243.652,40.039,9.766,0
1556031793.624,-23.926,-366.211,-511.719,28.809,37.109,0
1556031793.628,-83.008,-315.430,-489.258,28.809,16.602,0
1556031793.632,117.676,-11.230,-229.492,24.902,-14.160,0
1556031793.636,179.688,151.367,-62.988,33.691,41.992,0
1556031793.638,-6.836,41.504,-145.508,36.133,44.434,0
1556031793.642,-90.820,-77.637,-258.301,38.086,12.207,0
1556031793.646,71.777,30.273,-165.039,39.062,48.828,0
1556031793.650,193.848,132.324,-74.219,37.109,52.246,0
1556031793.654,83.984,113.281,-91.309,36.621,69.336,0
1556031793.658,-65.918,-127.930,-301.270,41.992,81.055,0
1556031793.662,6.836,-140.137,-320.312,30.273,100.586,0
1556031793.665,173.340,-129.395,-302.734,22.461,102.051,0
1556031793.669,133.789,-133.789,-314.453,27.344,62.012,0
1556031793.673,-33.691,22.949,-175.781,46.387,71.777,0
1556031793.677,-4.395,-96.680,-271.484,42.969,49.316,0
1556031793.681,182.129,-56.152,-239.746,34.180,18.555,0
1556031793.683,180.176,92.773,-100.586,37.598,62.012,0
1556031793.687,-20.020,68.359,-110.840,43.457,103.027,0
1556031793.691,-83.496,-116.699,-269.043,38.574,73.242,0
1556031793.695,85.938,-44.922,-212.891,35.156,69.824,0
1556031793.699,172.852,129.883,-64.453,27.832,27.832,0
1556031793.703,16.113,-60.547,-227.051,22.461,-3.906,0
1556031793.707,-104.004,-427.246,-542.969,41.504,-1.465,0
1556031793.710,45.410,-424.805,-545.898,32.715,47.363,0
1556031793.714,186.035,56.152,-126.465,16.602,88.867,0
1556031793.718,78.125,122.070,-58.594,14.648,38.086,0
1556031793.722,-73.730,-143.555,-293.945,23.438,30.762,0
1556031793.726,-8.301,-102.051,-266.602,21.484,67.871,0
1556031793.728,166.016,124.512,-71.289,29.297,47.852,0
1556031793.732,134.766,172.363,-19.043,24.414,41.016,0
1556031793.736,-56.641,-163.086,-313.477,12.695,9.766,0
1556031793.740,-54.688,-322.754,-470.703,22.949,7.812,0
1556031793.744,126.953,5.371,-188.477,24.902,40.527,0
1556031793.748,165.039,29.297,-158.203,26.367,1.953,0
1556031793.752,-12.695,-414.551,-541.992,23.926,-18.555,0
1556031793.755,-65.918,-454.102,-589.355,25.879,16.113,0
1556031793.759,127.441,-22.461,-228.516,23.926,3.906,0
1556031793.763,199.707,119.141,-87.402,32.715,10.254,0
1556031793.767,48.828,-40.527,-223.633,36.621,-5.371,0
1556031793.771,-77.148,-135.254,-322.266,31.250,-13.672,0
1556031793.788,38.574,-16.113,-222.656,16.602,12.695,0
1556031793.792,195.801,54.199,-155.273,16.602,0.488,0
1556031793.796,93.262,19.043,-177.734,20.996,26.367,0
1556031793.800,-71.289,-13.184,-205.078,21.484,73.730,0
1556031793.804,-11.230,12.695,-187.500,21.484,79.102,0
1556031793.808,166.992,-70.801,-255.371,13.672,53.711,0
1556031793.812,145.508,-218.262,-383.789,8.301,51.758,0
1556031793.815,-58.105,-267.578,-453.125,20.508,-22.461,0
1556031793.819,-76.172,-142.090,-348.633,17.578,7.324,0
1556031793.823,118.164,-68.848,-270.020,-10.742,59.082,0
1556031793.827,163.086,-39.551,-245.605,-11.230,34.668,0
1556031793.831,-10.742,34.180,-186.523,-8.789,38.086,0
1556031793.834,-93.750,-193.848,-385.254,-20.508,20.996,0
1556031793.838,62.500,-235.840,-434.570,-27.344,1.953,0
1556031793.842,172.852,8.789,-228.027,-23.438,2.930,0
1556031793.846,38.574,-0.488,-232.422,-21.973,-0.488,0
1556031793.850,-102.051,-255.859,-462.891,-16.113,-62.500,0
1556031793.854,2.441,-372.070,-571.777,-18.066,-67.871,0
1556031793.858,157.715,-193.359,-409.180,-17.090,25.879,0
1556031793.861,75.195,-42.969,-275.391,-31.250,25.879,0
1556031793.865,-102.051,-196.777,-403.809,-34.180,11.230,0
1556031793.869,-38.086,-564.941,-721.680,-32.715,6.836,0
1556031793.873,154.297,-375.977,-579.102,-25.391,-26.855,0
1556031793.877,146.484,24.902,-223.633,-7.324,-12.207,0
1556031793.879,-38.574,-204.590,-411.133,-11.230,-19.531,0
1556031793.883,-69.336,-388.184,-584.961,-26.855,-41.504,0
1556031793.887,102.051,-161.621,-396.484,-29.297,-47.852,0
1556031793.891,142.578,40.039,-210.938,-37.109,-22.461,0
1556031793.895,-24.414,-146.484,-365.234,-43.457,-9.277,0
1556031793.899,-111.816,-447.266,-627.930,-27.832,-23.438,0
1556031793.903,48.828,-378.906,-574.219,-17.578,-4.883,0
1556031793.906,179.199,-41.504,-273.926,-11.719,39.551,0
1556031793.910,50.781,-179.199,-373.535,-6.348,15.625,0
1556031793.914,-97.168,-616.699,-762.695,-1.465,-65.918,0
1556031793.918,13.672,-316.895,-530.273,-5.859,-45.898,0
1556031793.922,193.359,52.734,-188.477,-2.441,21.484,0
1556031793.924,124.023,-49.805,-263.184,5.371,-7.324,0
1556031793.928,-76.172,-209.473,-409.668,19.531,-27.344,0
1556031793.932,-44.434,-153.320,-359.863,21.973,1.465,0
1556031793.936,141.602,-47.852,-271.484,4.395,-39.062,0
1556031793.940,144.043,-70.312,-285.156,7.812,-68.359,0
1556031793.944,-29.785,-267.090,-446.777,15.137,-32.715,0
1556031793.948,-64.453,-347.168,-513.672,5.371,31.250,0
1556031793.951,109.863,-84.473,-281.738,0.977,57.129,0
1556031793.955,190.430,-167.969,-338.379,6.836,40.039,0
1556031793.959,23.926,-274.902,-435.547,4.883,40.527,0
1556031793.963,-92.285,-118.164,-304.688,-2.930,25.879,0
1556031793.967,37.598,-148.438,-332.520,-4.883,-12.695,0
1556031793.969,165.039,-39.551,-236.816,5.371,-4.883,0
1556031793.973,62.012,76.660,-130.859,-3.906,23.926,0
1556031793.977,-94.238,-160.645,-335.938,4.395,7.324,0
1556031793.981,-10.254,-344.238,-509.766,12.207,-8.301,0
1556031793.985,149.414,-71.289,-281.250,14.160,16.113,0
1556031793.989,104.492,-41.016,-241.699,13.184,18.066,0
1556031793.993,-60.547,-169.922,-350.098,8.301,41.016,0
1556031793.996,-66.406,-265.625,-423.828,10.742,61.523,0
1556031794.000,111.328,-335.938,-492.676,16.113,15.137,0
1556031794.004,150.391,-50.293,-262.207,25.879,-55.176,0
1556031794.008,-38.574,33.691,-169.434,35.156,11.230,0
1556031794.012,-104.004,-131.836,-302.734,39.062,60.547,0
1556031794.014,72.754,-74.219,-268.066,27.344,15.625,0
1556031794.018,192.871,166.016,-60.059,20.996,27.344,0
1556031794.022,40.039,91.797,-115.234,14.160,41.504,0
1556031794.026,-122.070,-131.836,-309.082,19.043,61.035,0
1556031794.030,16.113,-99.121,-294.434,17.578,41.992,0
1556031794.034,176.270,-26.855,-236.328,19.531,-9.766,0
1556031794.038,81.543,-65.918,-259.766,22.461,35.156,0
1556031794.041,-87.891,-396.973,-530.762,20.020,88.867,0
1556031794.045,-16.113,-425.293,-577.148,16.113,21.484,0
1556031794.049,167.969,53.223,-171.387,20.508,-15.625,0
1556031794.053,145.508,75.684,-129.883,15.137,-12.695,0
1556031794.057,-39.062,-162.109,-332.031,20.508,-20.508,0
1556031794.059,-48.340,-161.621,-340.820,29.785,-20.996,0
1556031794.063,152.832,42.480,-165.039,37.109,-13.672,0
1556031794.067,208.008,89.355,-105.469,49.316,16.113,0
1556031794.071,9.277,-43.457,-215.332,35.645,49.316,0
1556031794.075,-109.375,-127.930,-301.758,34.180,13.672,0
1556031794.079,55.664,-90.820,-273.926,48.340,29.297,0
1556031794.083,190.918,-68.359,-234.863,39.062,93.750,0
1556031794.086,42.969,-233.887,-380.859,18.066,68.359,0
1556031794.090,-111.816,-264.160,-427.734,31.250,27.344,0
1556031794.094,8.301,-130.859,-312.988,39.062,41.016,0
1556031794.098,168.457,80.566,-128.906,26.367,50.781,0
1556031794.102,65.918,115.723,-91.309,25.391,38.574,0
1556031794.104,-106.445,-13.184,-204.590,34.668,16.602,0
1556031794.108,-32.715,-81.055,-271.973,40.039,-9.277,0
1556031794.112,144.043,-57.617,-261.719,49.316,-72.754,0
1556031794.116,121.582,72.754,-141.602,60.059,-20.508,0
1556031794.120,-60.547,49.316,-143.555,53.711,46.387,0
1556031794.124,-83.984,-160.156,-322.266,50.781,40.039,0
1556031794.128,79.102,-290.039,-436.523,44.922,77.637,0
1556031794.131,140.625,-117.188,-294.922,42.969,66.895,0
1556031794.135,-18.066,79.590,-131.836,40.039,26.367,0
1556031794.139,-104.004,-83.496,-264.160,33.203,42.969,0
1556031794.143,46.875,-68.848,-259.766,38.574,37.109,0
1556031794.147,181.152,110.352,-105.957,40.527,42.480,0
1556031794.164,75.195,59.570,-141.602,39.551,53.223,0
1556031794.168,-82.031,-127.930,-306.641,48.828,30.762,0
1556031794.172,6.348,-137.695,-322.754,45.410,20.508,0
1556031794.176,168.457,85.938,-135.742,41.504,-14.648,0
1556031794.180,103.516,155.762,-68.359,37.109,-19.043,0
1556031794.184,-83.496,-213.867,-367.676,44.434,20.020,0
1556031794.188,-52.734,-400.879,-541.992,44.434,32.227,0
1556031794.191,129.395,29.297,-190.918,37.598,35.156,0
1556031794.195,143.555,229.980,-3.418,41.992,36.621,0
1556031794.199,-36.133,-125.488,-307.617,47.363,-1.465,0
1556031794.203,-72.754,-291.504,-468.262,46.387,4.883,0
1556031794.207,103.027,66.895,-159.668,45.410,63.965,0
1556031794.209,176.270,202.637,-28.320,41.016,41.504,0
1556031794.213,22.949,43.457,-164.062,47.852,40.039,0
1556031794.217,-80.566,-174.805,-354.492,48.828,59.082,0
1556031794.221,61.035,-163.574,-358.887,33.691,15.137,0
1556031794.225,196.777,75.195,-157.227,38.574,-11.719,0
1556031794.229,87.891,-1.953,-209.473,26.855,25.879,0
1556031794.233,-88.867,-262.207,-435.059,34.668,44.922,0
1556031794.236,-1.465,-170.898,-374.023,43.457,11.230,0
1556031794.240,181.641,97.168,-131.836,31.738,18.066,0
1556031794.244,129.395,-145.020,-318.848,24.902,41.992,0
1556031794.248,-52.246,-264.160,-431.152,23.926,74.219,0
1556031794.252,-43.945,-12.695,-217.773,29.785,80.566,0
1556031794.254,138.672,17.578,-181.641,35.645,48.828,0
1556031794.258,178.223,28.809,-169.434,31.738,15.625,0
1556031794.262,-8.789,-5.859,-204.590,24.414,-3.906,0
1556031794.266,-76.172,-87.402,-276.367,33.203,5.371,0
1556031794.270,105.957,-29.297,-221.680,31.250,51.758,0
1556031794.274,194.824,-40.527,-233.398,21.973,24.902,0
1556031794.278,28.320,-183.594,-367.676,26.367,3.418,0
1556031794.281,-110.352,-225.586,-412.598,40.527,36.133,0
1556031794.285,23.926,-242.676,-429.688,36.621,31.738,0
1556031794.289,184.082,-215.332,-405.273,23.926,41.504,0
1556031794.293,76.660,4.883,-221.680,7.812,17.578,0
1556031794.297,-92.285,-47.363,-259.277,17.578,3.418,0
1556031794.299,-13.184,-63.477,-261.719,19.531,85.449,0
1556031794.303,180.176,110.840,-108.398,16.602,77.148,0
1556031794.307,140.137,205.078,-17.090,18.555,49.316,0
1556031794.311,-57.617,31.250,-160.156,9.766,47.852,0
1556031794.315,-73.242,-167.969,-341.797,5.371,13.184,0
1556031794.319,109.375,-101.562,-290.039,8.789,32.227,0
1556031794.323,155.273,15.625,-182.129,3.418,61.523,0
1556031794.326,-23.926,-47.852,-240.234,11.230,12.207,0
1556031794.330,-100.098,-424.805,-564.941,24.414,12.695,0
1556031794.334,74.707,-301.758,-471.191,20.020,58.105,0
1556031794.338,183.594,153.320,-83.984,10.742,4.883,0
1556031794.342,16.602,40.039,-164.551,17.090,5.859,0
1556031794.344,-119.629,-168.945,-343.262,35.156,38.086,0
1556031794.348,1.953,-26.855,-231.445,20.996,56.152,0
1556031794.352,146.973,164.062,-67.383,11.719,30.273,0
1556031794.356,69.824,60.547,-149.414,14.160,15.625,0
1556031794.360,-104.980,-114.258,-298.828,20.996,51.270,0
1556031794.364,-43.945,-193.359,-371.582,28.320,69.336,0
1556031794.368,144.043,7.812,-201.660,23.438,91.309,0
1556031794.371,134.766,-8.301,-209.473,12.207,40.527,0
1556031794.375,-42.969,-371.582,-526.367,24.902,17.090,0
1556031794.379,-70.312,-207.031,-404.297,30.273,51.758,0
1556031794.383,108.398,99.121,-136.230,17.578,62.012,0
1556031794.387,162.109,78.613,-145.020,17.090,27.344,0
1556031794.389,-6.836,-67.871,-275.391,16.602,6.836,0
1556031794.393,-101.074,-108.398,-316.895,23.438,11.230,0
1556031794.397,44.922,-45.898,-269.043,11.230,2.441,0
1556031794.401,169.922,32.227,-198.242,12.695,-7.812,0
1556031794.405,52.246,44.434,-175.781,22.949,36.133,0
1556031794.409,-83.984,-145.508,-332.031,28.320,84.961,0
1556031794.413,1.953,-197.754,-388.672,18.555,48.340,0
1556031794.416,136.719,-222.656,-407.715,0.977,15.137,0
1556031794.420,87.402,-161.621,-354.980,-17.090,52.734,0
1556031794.424,-105.469,-19.043,-233.398,-19.043,39.062,0
1556031794.428,-110.352,-134.277,-328.613,-17.578,18.555,0
1556031794.432,71.289,-2.930,-209.961,-31.250,62.988,0
1556031794.433,85.449,145.996,-82.031,-39.062,40.527,2
1556031794.437,-109.375,13.672,-200.195,-38.086,8.301,0
1556031794.441,-171.387,-214.844,-392.090,-41.504,31.250,0
1556031794.445,-2.441,-122.559,-313.965,-56.152,65.918,0
1556031794.449,73.242,119.629,-105.469,-64.453,44.922,0
1556031794.453,-96.191,-50.781,-250.488,-70.801,12.207,0
1556031794.457,-235.352,-402.344,-551.758,-87.891,32.227,0
1556031794.460,-91.797,-449.219,-601.074,-102.539,52.734,0
1556031794.464,63.477,-2.441,-225.098,-108.398,53.223,0
1556031794.468,-62.988,104.980,-125.000,-113.770,18.555,0
1556031794.472,-247.070,-132.812,-323.242,-118.652,41.504,0
1556031794.476,-165.527,-176.270,-374.512,-125.488,14.160,0
1556031794.478,10.254,53.711,-177.734,-121.582,1.953,0
1556031794.482,-25.391,133.789,-90.820,-127.441,29.297,0
1556031794.486,-227.051,-85.938,-273.438,-131.836,50.293,0
1556031794.490,-225.586,-166.016,-352.051,-138.672,48.828,0
1556031794.494,-29.297,-4.883,-220.703,-152.832,8.789,0
1556031794.498,6.348,14.648,-190.430,-152.832,13.672,0
1556031794.502,-171.387,-409.668,-546.875,-129.395,20.508,0
1556031794.505,-231.934,-509.766,-647.949,-118.164,22.461,0
1556031794.509,-44.434,-75.684,-286.621,-109.375,-8.301,0
1556031794.513,75.684,73.242,-131.348,-101.562,0.488,0
1556031794.517,-75.195,-41.992,-213.867,-101.562,35.156,0
1556031794.521,-199.707,-127.930,-296.875,-97.656,33.691,0
1556031794.538,-53.711,-20.508,-208.984,-97.168,36.133,0
1556031794.542,90.332,43.945,-146.973,-84.961,15.137,0
1556031794.546,-6.836,-40.039,-217.285,-73.242,2.441,0
1556031794.550,-161.133,-113.770,-285.156,-59.082,19.531,0
1556031794.554,-81.543,-68.359,-250.000,-45.898,32.715,0
1556031794.558,118.652,-124.023,-286.621,-32.227,25.879,0
1556031794.562,112.305,-315.430,-453.125,-13.184,9.277,0
1556031794.565,-65.918,-177.734,-348.633,-6.348,24.414,0
1556031794.569,-88.867,-154.785,-320.801,5.859,28.809,0
1556031794.573,99.121,-149.902,-318.848,14.648,15.625,0
1556031794.577,169.434,86.914,-109.375,19.043,41.992,0
1556031794.581,6.348,75.684,-111.816,23.438,52.734,0
1556031794.583,-55.176,-78.613,-252.441,30.273,41.992,0
1556031794.587,106.934,-115.723,-300.781,27.832,-6.836,0
1556031794.591,199.707,52.246,-155.762,47.852,8.789,0
1556031794.595,75.195,105.957,-99.121,53.223,47.852,0
1556031794.599,-65.430,-100.586,-284.668,50.293,16.602,0
1556031794.603,41.016,-167.969,-347.168,66.406,58.105,0
1556031794.607,214.355,-74.707,-267.090,72.754,68.848,0
1556031794.610,144.531,46.387,-163.574,65.918,42.480,0
1556031794.614,-39.551,-73.242,-263.184,63.965,9.766,0
1556031794.618,13.184,-455.078,-592.773,61.523,-15.625,0
1556031794.622,198.242,-269.531,-444.336,64.941,-9.766,0
1556031794.626,208.008,78.125,-131.836,78.613,25.879,0
1556031794.628,24.414,-138.672,-310.059,81.055,24.902,0
1556031794.632,-37.109,-214.844,-391.113,71.777,28.809,0
1556031794.636,134.277,5.371,-216.309,62.988,23.438,0
1556031794.640,196.289,161.133,-78.125,65.430,13.184,0
1556031794.644,26.855,-33.203,-234.375,71.777,26.367,0
1556031794.648,-74.707,-324.707,-489.258,62.988,19.531,0
1556031794.652,85.449,-281.250,-459.961,46.387,16.602,0
1556031794.655,217.285,35.156,-187.012,54.688,6.348,0
1556031794.659,90.820,-84.961,-271.484,52.734,8.301,0
1556031794.663,-65.430,-480.957,-610.840,57.617,12.207,0
1556031794.667,42.969,-211.426,-400.879,68.848,4.395,0
1556031794.671,212.402,70.801,-154.297,68.359,-30.273,0
1556031794.673,164.062,11.719,-191.406,81.055,-17.578,0
1556031794.677,-24.902,-119.141,-302.734,81.055,17.578,0
1556031794.681,-14.648,-197.266,-382.812,64.941,8.301,0
1556031794.685,194.824,-40.527,-250.488,71.777,16.602,0
1556031794.689,223.633,46.875,-164.551,71.289,-2.441,0
1556031794.693,21.973,-138.672,-311.523,73.242,62.500,0
1556031794.697,-47.852,-203.125,-367.188,77.148,102.539,0
1556031794.700,152.344,10.742,-188.477,72.754,55.664,0
1556031794.704,247.559,-112.305,-271.973,78.125,50.293,0
1556031794.708,62.988,-248.047,-394.043,64.941,35.645,0
1556031794.712,-62.012,-65.918,-239.746,71.777,48.828,0
1556031794.716,96.680,-56.152,-220.703,68.359,51.758,0
1556031794.719,243.652,9.277,-162.109,65.430,21.973,0
1556031794.723,119.629,0.000,-182.617,79.590,-45.898,0
1556031794.727,-55.176,-99.121,-268.555,77.148,-11.719,0
1556031794.731,25.879,-150.391,-309.570,68.848,31.738,0
1556031794.735,212.402,-27.344,-204.590,65.918,23.438,0
1556031794.739,169.434,10.254,-164.062,63.965,50.781,0
1556031794.743,-20.996,-175.293,-326.172,63.477,69.336,0
1556031794.746,-16.602,-407.227,-535.156,61.035,20.996,0
1556031794.750,174.805,-331.543,-470.215,59.082,49.805,0
1556031794.754,204.590,49.316,-143.066,49.805,58.594,0
1556031794.758,26.855,68.359,-116.699,53.711,55.176,0
1556031794.762,-42.969,-109.863,-267.578,73.242,70.801,0
1556031794.764,125.488,-41.992,-220.215,68.359,40.039,0
1556031794.768,215.820,68.848,-138.184,62.988,-54.199,0
1556031794.772,54.688,-0.488,-194.336,55.176,-31.738,0
1556031794.776,-58.594,-189.941,-356.934,58.594,16.602,0
1556031794.780,85.449,-119.629,-303.223,65.430,25.879,0
1556031794.784,228.027,20.508,-169.434,62.500,36.621,0
1556031794.788,115.234,-14.648,-193.848,66.406,61.523,0
1556031794.791,-62.012,-379.883,-505.371,60.059,72.266,0
1556031794.795,8.301,-578.613,-704.590,62.500,7.324,0
1556031794.799,185.059,-46.875,-263.672,69.824,-0.977,0
1556031794.803,151.367,110.352,-102.539,52.246,14.160,0
1556031794.807,-36.133,-152.344,-326.660,56.152,15.625,0
1556031794.809,-46.875,-122.559,-313.965,57.617,34.180,0
1556031794.813,147.461,68.848,-147.461,53.223,20.508,0
1556031794.817,189.453,70.312,-139.648,54.199,-1.465,0
1556031794.821,10.254,-50.781,-242.188,48.340,38.086,0
1556031794.825,-70.801,-96.680,-286.133,49.316,53.223,0
1556031794.829,99.121,-115.234,-310.059,36.133,24.414,0
1556031794.833,201.172,-137.695,-321.777,34.668,27.832,0
1556031794.836,53.223,-350.586,-511.719,32.227,-13.672,0
1556031794.840,-80.566,-218.262,-409.180,40.039,48.340,0
1556031794.844,25.879,37.109,-178.711,49.805,98.633,0
1556031794.848,177.734,38.086,-176.758,44.922,16.602,0
1556031794.852,98.633,-2.441,-206.543,38.574,44.922,0
1556031794.853,-79.590,-53.711,-249.023,57.129,79.590,0
1556031794.857,-39.062,-112.305,-312.012,52.734,15.137,0
1556031794.861,155.762,-20.020,-234.375,27.344,19.043,0
1556031794.865,157.227,74.707,-146.484,25.879,31.250,0
1556031794.869,-44.434,-46.875,-255.371,22.949,-0.488,0
1556031794.873,-76.172,-215.820,-401.855,16.113,19.043,0
1556031794.877,108.398,-376.953,-534.668,19.043,30.273,0
1556031794.880,167.480,-215.820,-396.484,22.461,20.020,0
1556031794.884,22.461,-14.160,-226.074,36.621,-5.859,0
1556031794.888,-71.289,-181.641,-360.352,46.387,-1.953,0
1556031794.892,76.660,-142.578,-324.219,33.203,21.973,0
1556031794.896,202.148,98.633,-114.258,30.273,13.672,0
1556031794.913,56.641,123.047,-82.520,28.809,21.484,0
1556031794.917,-122.559,-132.812,-294.434,21.484,35.156,0
1556031794.921,-37.109,-249.512,-400.879,20.020,41.504,0
1556031794.925,157.715,50.293,-147.949,19.531,55.664,0
1556031794.929,99.609,182.617,-26.367,23.926,47.852,0
1556031794.933,-95.703,-259.277,-406.738,38.086,13.672,0
1556031794.937,-68.359,-541.504,-667.480,20.508,32.227,0
1556031794.940,129.395,-110.840,-315.918,10.254,42.969,0
1556031794.944,159.668,144.531,-84.961,21.484,13.672,0
1556031794.948,-30.273,-89.355,-279.297,29.297,6.348,0
1556031794.952,-103.027,-229.004,-408.691,31.250,-3.418,0
1556031794.956,74.219,-69.824,-278.320,16.113,-29.785,0
1556031794.958,180.664,119.141,-94.238,14.648,5.859,0
1556031794.962,31.250,-52.734,-231.445,29.785,-13.184,0
1556031794.966,-96.191,-222.656,-383.301,25.879,-15.137,0
1556031794.970,36.621,-47.363,-229.004,18.066,27.344,0
1556031794.974,172.852,111.816,-79.590,17.090,19.531,0
1556031794.978,58.594,-28.320,-193.359,12.695,25.879,0
1556031794.982,-100.098,-310.547,-441.895,29.785,38.086,0
1556031794.985,-19.531,-274.902,-430.176,34.180,12.695,0
1556031794.989,146.973,50.781,-146.484,37.598,28.320,0
1556031794.993,113.281,-147.461,-296.875,38.086,52.734,0
1556031794.997,-66.895,-381.836,-530.762,30.762,-1.953,0
1556031795.001,-66.406,-123.047,-327.637,20.020,5.859,0
1556031795.003,112.793,-10.254,-216.797,9.277,16.602,0
1556031795.007,144.531,18.555,-191.406,7.324,-3.418,0
1556031795.011,-51.758,4.395,-206.543,-6.836,22.461,0
1556031795.015,-113.770,-79.102,-279.785,0.000,32.227,0
1556031795.019,60.059,-61.523,-264.648,9.766,31.250,0
1556031795.023,143.066,-80.566,-284.668,2.930,-4.395,0
1556031795.027,3.418,-175.781,-370.117,-2.441,0.000,0
1556031795.030,-122.070,-247.559,-437.500,-2.930,0.488,0
1556031795.034,2.930,-303.711,-480.469,-3.906,13.672,0
1556031795.038,150.879,-261.719,-441.406,-1.953,32.715,0
1556031795.042,69.336,10.742,-214.844,0.000,27.344,0
1556031795.046,-92.773,-35.645,-246.582,2.930,21.484,0
1556031795.048,-37.598,-191.895,-390.625,-2.441,-3.906,0
1556031795.052,147.949,2.930,-224.609,-0.977,18.555,0
1556031795.056,112.793,127.930,-110.352,-3.418,5.371,0
1556031795.060,-104.492,-44.434,-257.812,0.977,10.254,0
1556031795.064,-103.516,-163.086,-362.305,6.836,55.664,0
1556031795.068,91.309,-141.113,-351.562,2.441,35.645,0
1556031795.072,126.953,-38.574,-264.160,-14.160,21.484,0
1556031795.075,-35.645,-26.855,-247.070,-2.441,34.668,0
1556031795.079,-125.000,-431.152,-586.426,-3.906,22.461,0
1556031795.083,33.691,-389.648,-572.754,-25.391,-2.930,0
1556031795.087,162.598,137.207,-112.305,-7.324,34.180,0
1556031795.091,17.578,-21.484,-226.074,9.277,37.598,0
1556031795.094,-123.047,-292.480,-468.262,17.578,19.531,0
1556031795.098,0.488,-145.508,-355.957,1.465,3.418,0
1556031795.102,163.574,93.262,-143.555,-1.465,-11.719,0
1556031795.106,84.473,60.059,-149.902,0.977,35.645,0
1556031795.110,-86.426,-156.250,-334.961,6.836,35.156,0
1556031795.114,-38.574,-294.434,-468.262,13.184,-12.207,0
1556031795.118,133.789,-142.090,-350.586,12.207,-43.945,0
1556031795.121,129.883,-43.945,-242.188,17.578,15.137,0
1556031795.125,-62.012,-320.801,-466.309,2.930,82.031,0
1556031795.129,-94.727,-263.672,-454.590,-12.695,11.719,0
1556031795.133,82.031,27.344,-211.426,0.977,-0.488,0
1556031795.137,147.461,104.492,-131.348,6.348,19.043,0
1556031795.139,-7.812,-30.762,-253.418,10.742,-7.324,0
1556031795.143,-100.586,-89.355,-304.199,20.020,18.066,0
1556031795.147,49.316,-126.953,-341.797,7.324,-13.672,0
1556031795.151,181.641,-12.695,-242.188,2.441,-14.160,0
1556031795.155,63.477,70.312,-159.180,6.348,28.320,0
1556031795.159,-92.773,-145.996,-337.891,27.344,38.574,0
1556031795.163,12.207,-217.773,-404.785,35.645,35.156,0
1556031795.166,166.016,-217.773,-400.879,31.250,42.969,0
1556031795.170,99.609,-105.957,-301.758,25.879,76.660,0
1556031795.174,-87.402,41.016,-176.758,8.301,58.594,0
1556031795.178,-65.430,-65.918,-259.766,3.906,41.504,0
1556031795.182,116.699,11.230,-189.453,8.789,39.062,0
1556031795.184,125.000,184.082,-37.598,12.695,30.273,0
1556031795.188,-47.363,94.238,-112.793,23.926,26.855,0
1556031795.192,-94.238,-128.418,-304.199,25.879,26.855,0
1556031795.196,84.961,-55.664,-247.070,25.391,33.691,0
1556031795.200,173.828,196.777,-21.973,28.809,46.875,0
1556031795.204,3.906,46.875,-144.531,22.461,40.527,0
1556031795.208,-130.859,-372.559,-511.719,29.297,6.836,0
1556031795.211,8.301,-479.004,-625.977,13.184,-34.668,0
1556031795.215,158.203,30.273,-185.547,3.418,33.691,0
1556031795.219,59.082,146.484,-67.871,7.812,10.254,0
1556031795.223,-107.422,-128.418,-306.152,14.648,-2.930,0
1556031795.227,-24.414,-111.816,-299.805,33.203,24.414,0
1556031795.228,167.969,91.797,-128.906,33.691,-26.855,0
1556031795.232,140.625,179.688,-38.574,35.645,3.906,0
1556031795.236,-54.199,-11.230,-191.895,23.438,62.012,0
1556031795.240,-86.914,-93.262,-275.391,0.977,57.129,0
1556031795.244,98.633,88.867,-114.258,11.719,22.461,0
1556031795.248,162.598,60.547,-115.234,23.438,-11.230,0
1556031795.252,-12.695,-363.770,-478.516,31.250,-9.277,0
1556031795.255,-86.914,-446.289,-566.406,32.227,10.254,0
1556031795.259,75.684,-56.641,-237.305,15.137,41.016,0
1556031795.263,172.363,95.215,-94.727,12.695,31.250,0
1556031795.267,18.555,11.230,-164.062,29.785,14.648,0
1556031795.271,-106.934,-49.316,-222.168,36.133,47.852,0
1556031795.289,31.738,43.457,-146.973,21.973,48.340,0
1556031795.293,176.758,105.957,-85.449,23.438,26.855,0
1556031795.297,84.961,14.160,-168.457,26.855,0.977,0
1556031795.301,-80.566,-50.293,-227.539,39.062,23.438,0
1556031795.305,-13.184,-28.320,-208.984,52.734,22.949,0
1556031795.309,170.410,-94.727,-260.742,38.086,7.324,0
1556031795.313,132.812,-199.707,-342.773,32.715,71.289,0
1556031795.316,-55.664,-77.637,-245.117,52.734,90.332,0
1556031795.320,-80.566,-71.777,-252.930,40.039,7.812,0
1556031795.324,105.469,2.930,-191.895,28.320,18.066,0
1556031795.328,168.457,124.512,-72.266,22.461,56.152,0
1556031795.332,-15.625,-13.184,-192.871,19.043,43.945,0
1556031795.333,-113.770,-105.469,-286.133,19.043,41.992,0
1556031795.337,42.969,-63.965,-258.789,5.859,6.348,0
1556031795.341,168.457,37.598,-173.828,16.113,-36.133,0
1556031795.345,43.457,72.754,-133.301,21.484,-5.371,0
1556031795.349,-102.539,-44.922,-223.145,29.785,45.898,0
1556031795.353,10.254,-162.109,-328.613,32.227,25.391,0
1556031795.357,168.457,-67.383,-245.605,39.062,28.809,0
1556031795.360,90.820,82.031,-109.863,32.715,33.203,0
1556031795.364,-90.332,9.766,-157.715,32.227,47.852,0
1556031795.368,-68.848,-374.023,-486.816,22.461,21.973,0
1556031795.372,124.023,-233.398,-386.719,19.531,-0.488,0
1556031795.376,131.348,197.266,-8.301,29.297,26.855,0
1556031795.378,-64.453,-2.930,-170.898,29.297,38.574,0
1556031795.382,-112.305,-186.523,-340.820,28.809,40.039,0
1556031795.386,66.406,7.812,-178.711,19.531,77.637,0
1556031795.390,141.602,190.430,-18.066,28.320,55.664,0
1556031795.394,-21.973,-38.574,-217.285,43.457,-26.367,0
1556031795.398,-121.094,-304.688,-452.148,41.504,3.418,0
1556031795.402,40.527,-207.031,-371.582,26.855,61.035,0
1556031795.405,158.691,64.941,-136.719,34.668,38.086,0
1556031795.409,32.227,-50.293,-223.145,40.527,-0.488,0
1556031795.413,-103.027,-392.090,-517.578,26.855,30.273,0
1556031795.417,-16.113,-98.145,-283.691,17.090,67.383,0
1556031795.421,145.996,215.332,-3.418,13.672,57.617,0
1556031795.423,101.074,116.211,-86.914,24.414,13.184,0
1556031795.427,-94.727,-58.594,-246.094,27.344,12.207,0
1556031795.431,-69.824,-0.488,-199.707,23.438,60.547,0
1556031795.435,129.395,180.664,-36.621,26.855,76.660,0
1556031795.439,147.949,95.703,-107.422,18.066,6.348,0
1556031795.443,-41.504,-201.172,-374.023,8.789,-19.531,0
1556031795.447,-105.469,-289.062,-457.031,11.719,15.137,0
1556031795.450,66.895,-6.836,-208.984,19.043,34.668,0
1556031795.454,155.762,-81.055,-246.094,23.926,32.715,0
1556031795.458,4.395,-213.379,-364.746,11.230,36.133,0
1556031795.462,-109.863,-8.301,-192.383,15.625,65.430,0
1556031795.466,38.086,22.461,-151.855,32.715,69.336,0
1556031795.468,166.016,143.555,-40.039,27.344,78.125,0
1556031795.472,45.410,187.500,-6.348,2.930,62.012,0
1556031795.476,-115.723,-12.695,-187.988,4.395,20.996,0
1556031795.480,-25.391,-117.188,-282.227,19.043,27.344,0
1556031795.484,145.996,29.785,-154.785,21.973,27.832,0
1556031795.488,89.355,2.930,-178.223,14.160,5.859,0
1556031795.492,-95.703,-159.180,-331.543,20.020,2.441,0
1556031795.495,-90.820,-223.633,-378.906,12.695,59.570,0
1556031795.499,97.168,-265.625,-414.062,5.859,57.129,0
1556031795.503,125.488,-11.230,-218.262,11.719,-25.391,0
1556031795.507,-53.711,19.043,-186.523,7.324,-20.996,0
1556031795.511,-122.070,-136.230,-312.012,14.648,22.461,0
1556031795.513,53.223,-119.141,-303.711,20.020,5.371,0
1556031795.517,155.273,72.266,-138.184,22.949,-11.230,0
1556031795.521,-4.395,66.406,-138.184,20.996,-11.719,0
1556031795.525,-139.648,-130.859,-304.688,27.344,27.344,0
1556031795.529,-19.043,-58.105,-246.094,27.344,50.781,0
1556031795.533,129.395,44.922,-147.461,9.277,49.316,0
1556031795.537,37.109,22.461,-162.598,0.977,52.734,0
1556031795.540,-117.188,-304.688,-440.918,16.113,62.988,0
1556031795.544,-50.781,-351.074,-496.094,8.301,63.477,0
1556031795.548,136.230,173.828,-45.410,8.301,77.637,1
1556031795.552,124.512,189.453,-4.883,20.508,72.754,0
1556031795.556,-98.145,-149.902,-308.594,21.973,2.930,0
1556031795.558,-133.789,-119.141,-293.457,19.531,28.320,0
1556031795.562,84.473,157.715,-38.574,-0.488,86.426,0
1556031795.566,145.020,159.668,-22.949,-8.789,60.059,0
1556031795.570,-36.133,9.766,-148.438,-5.371,78.613,0
1556031795.574,-121.094,-71.777,-227.051,8.301,62.988,0
1556031795.578,48.828,-55.664,-217.285,9.277,57.617,0
1556031795.582,168.945,-83.984,-232.910,19.043,50.781,0
1556031795.585,40.039,-275.391,-397.461,27.344,27.344,0
1556031795.589,-110.352,-221.680,-365.723,21.484,26.855,0
1556031795.593,5.859,10.254,-160.645,28.320,56.152,0
1556031795.597,170.410,124.023,-47.363,20.508,61.523,0
1556031795.601,80.566,83.496,-83.008,7.324,27.344,0
1556031795.603,-99.609,21.973,-137.207,20.996,59.570,0
1556031795.607,-66.895,-18.066,-170.410,19.043,72.266,0
1556031795.611,125.488,27.344,-130.859,15.625,59.082,0
1556031795.615,128.906,88.867,-80.078,8.789,22.949,0
1556031795.619,-61.035,-48.340,-205.566,-0.977,-24.902,0
1556031795.623,-96.680,-238.770,-374.023,19.043,-1.465,0
1556031795.627,87.402,-335.938,-446.289,23.438,46.875,0
1556031795.630,166.992,-187.012,-318.359,25.879,21.484,0
1556031795.634,1.465,30.762,-132.324,22.461,5.859,0
1556031795.638,-123.047,-182.617,-314.941,10.742,-34.180,0
1556031795.642,22.949,-168.457,-309.082,7.324,-15.137,0
1556031795.646,162.598,167.480,-1.953,14.648,62.500,0
1556031795.663,41.016,142.090,-16.602,23.438,19.043,0
1556031795.667,-113.281,-174.316,-297.363,21.484,-20.020,0
1556031795.671,-11.230,-220.215,-347.656,7.324,-7.324,0
1556031795.675,148.438,69.824,-100.098,10.254,0.977,0
1556031795.679,82.031,122.070,-38.574,20.508,32.715,0
1556031795.683,-90.332,-270.508,-373.047,23.438,44.434,0
1556031795.687,-61.523,-573.242,-665.039,14.648,-18.555,0
1556031795.690,130.859,-213.867,-386.230,14.160,-54.199,0
1556031795.694,146.484,160.156,-37.109,18.066,15.625,0
1556031795.698,-55.176,-36.133,-190.918,19.531,30.762,0
1556031795.702,-117.188,-198.730,-346.191,6.348,4.883,0
1556031795.706,87.402,31.738,-145.020,19.531,21.973,0
1556031795.709,166.016,137.695,-45.898,41.016,-19.043,0
1556031795.713,-9.277,-31.250,-189.941,20.020,-16.602,0
1556031795.717,-113.770,-159.668,-300.293,8.301,23.438,0
1556031795.721,17.578,-10.742,-173.340,8.301,43.945,0
1556031795.725,162.598,143.066,-33.203,10.254,23.926,0
1556031795.729,62.012,-75.195,-226.562,10.742,-31.738,0
1556031795.733,-104.004,-307.129,-431.152,24.414,5.859,0
1556031795.736,-22.461,-288.086,-420.410,21.973,17.578,0
1556031795.740,147.949,-63.477,-224.121,16.602,15.625,0
1556031795.744,104.980,-160.645,-291.016,21.973,42.480,0
1556031795.748,-83.008,-250.977,-370.605,20.996,83.496,0
1556031795.752,-71.289,-68.359,-229.492,25.879,38.086,0
1556031795.753,128.418,12.695,-152.344,31.250,26.367,0
1556031795.757,161.621,89.844,-74.219,35.645,47.363,0
1556031795.761,-32.227,10.254,-154.785,40.527,8.301,0
1556031795.765,-111.328,-101.074,-262.695,34.668,0.000,0
1556031795.769,53.223,-87.891,-253.418,20.020,3.906,0
1556031795.773,150.879,-74.707,-237.305,22.949,11.230,0
1556031795.777,6.836,-208.496,-362.793,29.297,-11.230,0
1556031795.780,-118.164,-204.590,-367.676,33.691,-1.465,0
1556031795.784,2.930,-205.566,-359.863,23.438,20.020,0
1556031795.788,149.414,-229.492,-379.395,16.602,19.043,0
1556031795.792,58.105,-50.781,-230.957,18.066,34.668,0
1556031795.796,-122.070,-141.113,-302.734,27.832,48.828,0
1556031795.798,-55.176,-187.500,-354.980,27.832,12.695,0
1556031795.802,124.512,15.137,-186.523,31.738,-1.953,0
1556031795.806,116.699,188.965,-24.902,40.039,33.691,0
1556031795.810,-63.477,2.441,-186.035,33.691,16.113,0
1556031795.814,-103.027,-190.918,-364.258,19.531,-1.953,0
1556031795.818,73.730,-151.855,-336.426,7.324,6.836,0
1556031795.822,127.930,38.086,-161.133,6.348,66.895,0
1556031795.825,-24.414,51.270,-142.090,15.625,57.129,0
1556031795.829,-121.094,-410.645,-543.945,22.461,-4.395,0
1556031795.833,29.785,-320.801,-479.004,15.625,29.785,0
1556031795.837,153.320,180.176,-44.922,33.203,26.855,0
1556031795.841,32.227,107.422,-80.566,29.297,54.688,0
1556031795.844,-93.262,-106.445,-261.719,25.879,67.383,0
1556031795.848,4.883,-117.188,-287.598,22.949,23.926,0
1556031795.852,149.902,31.250,-161.133,11.719,7.324,0
1556031795.856,89.844,49.805,-139.160,23.438,13.184,0
1556031795.860,-89.355,-120.605,-280.762,33.691,30.273,0
1556031795.864,-60.059,-232.422,-384.277,34.180,18.066,0
1556031795.868,131.348,-17.090,-197.266,24.414,47.852,0
1556031795.871,131.836,31.738,-139.648,9.277,39.062,0
1556031795.875,-56.152,-308.105,-432.129,16.113,40.039,0
1556031795.879,-105.469,-205.566,-370.605,22.949,30.762,0
1556031795.883,73.730,99.609,-102.051,23.438,37.109,0
1556031795.887,144.531,210.938,18.066,23.926,85.938,0
1556031795.889,-22.461,90.820,-87.402,14.648,69.824,0
1556031795.893,-122.559,-68.359,-243.652,9.277,6.836,0
1556031795.897,19.043,-20.508,-215.332,7.812,-7.812,0
1556031795.901,158.691,127.441,-79.590,17.578,25.879,0
1556031795.905,44.434,12.695,-173.828,14.648,10.742,0
1556031795.909,-128.906,-258.789,-411.621,13.672,13.184,0
1556031795.913,-25.391,-182.129,-354.492,22.949,37.109,0
1556031795.916,149.902,-159.668,-324.707,22.949,34.668,0
1556031795.920,84.961,-144.531,-306.641,9.277,47.363,0
1556031795.924,-97.168,-36.133,-229.492,12.695,10.742,0
1556031795.928,-82.031,-111.816,-290.527,20.508,13.672,0
1556031795.932,117.188,-31.250,-223.145,27.344,-12.695,0
1556031795.934,133.789,73.730,-137.695,9.766,-19.531,0
1556031795.938,-51.270,-36.133,-232.910,-6.836,-12.695,0
1556031795.942,-103.516,-225.586,-401.855,12.695,-39.551,0
1556031795.946,54.688,-125.977,-318.848,26.367,-20.508,0
1556031795.950,152.344,148.926,-71.289,20.020,7.812,0
1556031795.954,15.625,10.742,-181.641,23.926,22.461,0
1556031795.958,-125.977,-336.426,-483.398,19.043,21.484,0
1556031795.961,-13.184,-444.336,-590.820,0.977,12.207,0
1556031795.965,135.742,-18.555,-229.492,9.766,30.273,0
1556031795.969,44.922,199.707,-21.484,25.879,41.016,0
1556031795.973,-113.770,-96.191,-279.297,31.738,10.742,0
1556031795.977,-41.016,-166.992,-356.934,26.855,-18.555,0
1556031795.979,147.949,118.164,-102.539,31.250,15.625,0
1556031795.983,103.516,236.328,18.555,30.273,62.988,0
1556031795.987,-92.773,-21.973,-204.102,18.066,51.270,0
1556031795.991,-94.238,-154.297,-334.473,14.160,14.648,0
1556031795.995,87.891,48.828,-161.621,9.766,14.160,0
1556031795.999,132.812,93.262,-107.910,22.461,30.273,0
1556031796.003,-48.340,-378.418,-513.184,18.066,-9.766,0
1556031796.006,-126.465,-509.766,-647.949,16.113,-20.508,0
1556031796.010,49.805,-34.668,-252.441,22.949,-4.395,0
1556031796.014,165.039,166.992,-54.688,19.531,23.926,0
1556031796.018,10.742,-29.297,-212.402,15.137,33.203,0
1556031796.022,-118.652,-163.086,-345.703,19.531,18.555,0
1556031796.038,12.695,33.203,-179.688,21.484,48.828,0
1556031796.042,147.949,132.324,-80.078,21.484,43.457,0
1556031796.046,64.941,31.738,-165.527,15.137,17.578,0
1556031796.050,-111.328,-55.176,-248.535,3.906,34.180,0
1556031796.054,-77.148,-26.367,-231.445,10.254,40.527,0
1556031796.058,102.051,-50.781,-240.723,23.926,41.016,0
1556031796.062,98.145,-237.305,-403.809,19.043,24.414,0
1556031796.065,-88.867,-215.332,-412.598,14.160,-14.648,0
1556031796.069,-101.074,-105.957,-320.312,19.043,10.742,0
1556031796.073,95.703,-8.301,-230.957,19.531,37.598,0
1556031796.077,154.785,76.660,-155.273,29.297,0.977,0
1556031796.081,-11.719,68.848,-152.344,29.785,28.809,0
1556031796.083,-109.863,-23.438,-225.586,34.668,65.430,0
1556031796.087,50.781,-94.727,-299.805,31.738,27.832,0
1556031796.091,166.504,63.965,-163.574,11.719,41.504,0
1556031796.095,16.113,99.609,-127.930,-0.977,23.926,0
1556031796.099,-116.699,-91.797,-293.945,19.531,11.230,0
1556031796.103,6.348,-171.387,-360.352,28.320,39.551,0
1556031796.107,160.645,-107.910,-308.105,18.555,30.762,0
1556031796.110,85.938,40.039,-176.270,19.043,35.156,0
1556031796.114,-96.191,-62.500,-266.113,25.391,6.348,0
1556031796.118,-61.035,-356.934,-511.719,22.949,57.617,0
1556031796.122,134.277,-150.391,-334.961,15.137,100.586,0
1556031796.126,142.578,234.863,-0.488,26.367,75.684,0
1556031796.128,-44.434,-24.902,-216.797,38.086,25.391,0
1556031796.132,-96.680,-262.207,-441.406,29.297,-20.508,0
1556031796.136,79.102,-36.621,-261.230,5.859,-12.207,0
1556031796.140,146.484,153.320,-85.449,-18.066,-3.906,0
1556031796.144,-29.297,-56.152,-255.371,-6.348,-6.836,0
1556031796.148,-126.465,-290.527,-452.637,19.531,37.598,0
1556031796.152,24.414,-140.625,-318.359,19.043,104.492,0
1556031796.155,158.691,40.527,-166.016,16.113,54.688,0
1556031796.159,36.133,-133.301,-312.012,19.043,-1.953,0
1556031796.163,-126.953,-393.066,-528.809,18.555,54.199,0
1556031796.167,-20.020,-158.203,-343.262,13.184,41.016,0
1556031796.171,146.484,148.926,-65.918,11.230,12.695,0
1556031796.173,82.520,190.430,2.930,1.953,90.820,0
1556031796.177,-90.820,-0.977,-160.645,11.230,74.219,0
1556031796.181,-65.430,-92.773,-254.883,10.742,-4.395,0
1556031796.185,108.887,85.449,-91.309,5.859,8.789,0
1556031796.189,131.348,114.746,-41.992,20.020,0.000,0
1556031796.193,-52.246,-144.531,-250.977,27.344,-3.418,0
1556031796.197,-122.070,-198.242,-285.645,23.926,54.199,0
1556031796.200,50.293,13.672,-93.750,9.277,49.316,0
1556031796.204,128.906,-125.488,-196.289,7.812,4.395,0
1556031796.208,-27.344,-219.238,-286.133,5.859,-5.371,0
1556031796.212,-161.133,11.719,-89.844,20.508,51.270,0
1556031796.216,-26.855,48.828,-42.969,25.879,66.406,0
1556031796.219,129.395,132.812,37.109,22.461,50.781,0
1556031796.223,26.367,148.926,41.504,19.043,0.977,0
1556031796.227,-136.230,-4.883,-92.285,15.137,-9.766,0
1556031796.231,-48.828,-81.543,-150.879,10.742,19.531,0
1556031796.235,129.395,105.469,20.508,10.254,61.035,0
1556031796.239,83.984,155.273,78.125,8.301,79.102,0
1556031796.243,-120.605,-107.910,-164.062,16.113,35.156,0
1556031796.246,-114.746,-243.164,-291.504,24.414,49.805,0
1556031796.250,83.008,-246.582,-308.105,33.203,27.832,0
1556031796.254,113.281,68.359,-53.711,18.066,-0.977,0
1556031796.258,-57.129,77.637,-32.227,-0.488,47.363,0
1556031796.262,-132.812,-146.973,-236.816,14.648,58.105,0
1556031796.264,46.875,17.578,-110.840,16.602,42.969,0
1556031796.268,158.203,265.625,111.328,16.602,51.758,0
1556031796.272,-2.441,164.551,29.297,19.043,40.039,0
1556031796.276,-135.742,-115.234,-225.586,20.508,17.090,0
1556031796.280,-7.324,-34.180,-164.551,2.930,48.828,0
1556031796.284,136.230,41.504,-98.145,-2.441,21.484,0
1556031796.288,45.898,32.227,-104.980,8.301,30.273,0
1556031796.291,-120.605,-274.902,-359.863,16.113,67.871,0
1556031796.295,-69.824,-406.738,-498.535,-0.488,10.742,0
1556031796.299,106.934,85.938,-89.355,0.977,-3.906,0
1556031796.303,92.773,211.914,48.828,16.113,60.547,0
1556031796.307,-91.309,-25.879,-154.297,24.414,63.477,0
1556031796.309,-116.211,-97.656,-243.164,27.832,6.348,0
1556031796.313,65.430,-16.602,-186.035,18.555,-23.926,0
1556031796.317,124.023,-30.762,-192.871,16.113,-1.953,0
1556031796.321,-35.645,-110.352,-271.973,13.672,-11.230,0
1556031796.325,-124.512,-170.898,-341.797,8.301,-42.480,0
1556031796.329,24.414,-108.398,-289.062,7.324,10.742,0
1556031796.333,137.695,-107.422,-274.902,19.043,27.832,0
1556031796.336,6.348,-304.199,-449.707,20.996,-2.441,0
1556031796.340,-140.625,-211.914,-388.184,30.273,18.555,0
1556031796.344,-30.762,7.812,-196.289,29.297,31.250,0
1556031796.348,133.789,57.129,-154.297,19.043,-6.836,0
1556031796.352,70.312,37.598,-175.293,10.742,-29.297,0
1556031796.353,-114.258,-139.648,-334.961,15.137,-42.969,0
1556031796.357,-91.797,-165.527,-362.793,20.996,-17.578,0
1556031796.361,98.633,37.598,-182.129,26.367,20.020,0
1556031796.365,112.305,119.141,-106.445,27.832,11.230,0
1556031796.369,-86.426,-46.387,-253.418,26.855,15.625,0
1556031796.373,-119.141,-263.184,-451.660,33.203,9.277,0
1556031796.377,75.195,-347.168,-529.785,31.250,10.742,0
1556031796.380,133.789,-143.555,-354.980,12.695,45.410,0
1556031796.384,-25.391,43.457,-204.102,12.695,5.371,0
1556031796.388,-137.207,-153.809,-376.465,26.367,-23.438,0
1556031796.392,28.809,-137.207,-371.582,22.949,-1.953,0
1556031796.396,151.367,111.816,-160.156,12.207,-0.488,0
1556031796.413,6.348,155.273,-106.934,-13.672,19.043,0
1556031796.417,-137.695,-55.176,-272.461,-13.672,76.172,0
1556031796.421,-48.340,-180.664,-398.926,-0.488,18.555,0
1556031796.425,122.559,28.809,-231.934,0.488,-29.785,0
1556031796.429,72.754,180.664,-74.219,5.371,29.785,0
1556031796.433,-113.281,-176.758,-361.328,17.090,54.688,0
1556031796.437,-81.055,-447.266,-601.074,19.043,81.055,0
1556031796.440,111.816,-148.926,-359.863,21.484,45.410,0
1556031796.444,141.113,36.133,-196.777,38.574,-6.348,0
1556031796.448,-26.855,-68.359,-276.855,40.039,21.484,0
1556031796.452,-94.238,-143.066,-336.914,24.414,44.434,0
1556031796.456,73.242,9.766,-214.844,8.789,12.695,0
1556031796.458,167.480,158.691,-77.148,21.973,2.930,0
1556031796.462,15.137,64.453,-140.625,31.250,55.664,0
1556031796.466,-129.883,-89.355,-276.367,22.461,71.289,0
1556031796.470,-8.301,-8.301,-219.238,25.391,34.668,0
1556031796.474,157.715,185.059,-41.016,30.762,53.223,0
1556031796.478,54.688,7.812,-178.223,35.156,51.270,0
1556031796.482,-124.512,-256.836,-423.828,31.250,20.996,0
1556031796.485,-36.621,-112.793,-311.035,14.648,29.297,0
1556031796.489,151.367,74.707,-143.555,16.602,-8.789,0
1556031796.493,100.098,-176.758,-341.797,9.766,-6.348,0
1556031796.497,-101.562,-416.016,-553.223,11.719,18.066,0
1556031796.501,-94.727,-181.152,-363.281,20.996,11.719,0
1556031796.518,91.309,-15.625,-204.590,7.812,3.906,0
1556031796.522,126.465,78.125,-109.375,-1.465,39.062,0
1556031796.526,-32.227,48.340,-135.742,11.230,45.410,0
1556031796.530,-104.980,-109.863,-287.109,30.762,-9.277,0
1556031796.534,48.828,-90.820,-275.879,25.391,2.930,0
1556031796.538,160.156,-56.641,-245.605,13.672,16.113,0
1556031796.542,11.230,-146.973,-330.078,19.531,25.391,0
1556031796.545,-127.441,-145.508,-337.402,38.086,52.734,0
1556031796.549,4.395,-168.457,-352.051,31.250,53.711,0
1556031796.553,149.902,-215.820,-390.625,17.090,40.527,0
1556031796.557,58.105,32.227,-181.152,9.766,44.922,0
1556031796.561,-110.352,-28.809,-228.027,13.672,14.648,0
1556031796.548,-56.641,-180.664,-367.676,9.766,-23.438,0
1556031796.552,137.695,-76.660,-279.297,4.395,-14.160,0
1556031796.556,126.953,46.387,-160.645,10.742,24.414,0
1556031796.560,-71.289,-39.551,-232.910,17.578,12.207,0
1556031796.564,-85.449,-188.477,-365.234,24.902,4.395,0
1556031796.568,103.027,-104.492,-291.016,24.414,64.941,0
1556031796.572,156.250,40.039,-168.457,21.484,73.730,0
1556031796.575,-22.949,-8.301,-210.938,30.762,56.641,0
1556031796.579,-102.051,-219.238,-399.414,28.809,36.133,0
1556031796.583,52.734,-119.141,-334.961,8.789,7.812,0
1556031796.587,158.203,165.039,-83.496,9.766,39.062,0
1556031796.591,33.203,23.438,-198.730,12.207,4.395,0
1556031796.593,-125.000,-479.980,-638.672,27.832,-17.578,0
1556031796.597,-2.441,-413.086,-611.816,13.672,-16.113,0
1556031796.601,145.996,32.227,-233.398,1.953,-32.715,0
1556031796.605,65.918,-40.039,-279.297,9.277,-39.062,0
1556031796.609,-107.422,-277.344,-477.051,14.648,14.648,0
1556031796.613,-74.219,-316.406,-520.020,7.812,28.320,0
1556031796.617,125.488,-94.727,-324.707,2.930,64.453,0
1556031796.620,117.188,-94.238,-308.594,9.766,40.527,0
1556031796.624,-71.289,-427.246,-604.004,9.766,-9.277,0
1556031796.628,-99.121,-291.016,-501.953,5.859,24.902,0
1556031796.632,88.867,-13.184,-262.207,-0.977,-7.812,0
1556031796.636,147.461,46.875,-195.801,11.230,-8.789,0
1556031796.638,-23.438,-2.441,-225.098,25.391,48.828,0
1556031796.642,-121.582,-76.660,-288.086,28.320,58.105,0
1556031796.646,37.109,-19.531,-241.699,12.207,45.410,0
1556031796.650,165.527,61.523,-167.969,9.766,20.996,0
1556031796.654,33.691,49.316,-167.480,23.438,37.598,1
1556031796.658,-102.051,-209.961,-387.695,32.227,31.250,0
1556031796.662,0.977,-242.188,-428.711,15.625,18.555,0
1556031796.665,143.555,-240.723,-418.457,12.207,14.160,0
1556031796.669,75.195,-280.273,-458.008,31.250,-28.809,0
1556031796.673,-103.516,-70.312,-279.297,38.086,3.906,0
1556031796.677,-72.266,-94.238,-281.250,29.785,54.688,0
1556031796.681,122.070,-28.320,-225.098,13.672,38.086,0
1556031796.683,134.277,153.809,-65.430,14.160,36.621,0
1556031796.687,-44.922,74.219,-125.488,20.996,33.203,0
1556031796.691,-93.750,-169.922,-335.449,15.137,9.766,0
1556031796.695,92.773,-108.887,-286.621,28.320,12.207,0
1556031796.699,187.012,111.328,-88.379,49.316,-8.789,0
1556031796.703,14.160,-7.812,-177.734,38.574,12.695,0
1556031796.707,-122.070,-339.355,-451.172,41.016,45.898,0
1556031796.710,12.695,-418.945,-523.438,32.715,39.062,0
1556031796.714,166.016,-11.719,-181.152,20.508,21.973,0
1556031796.718,68.848,153.320,-11.719,13.184,34.180,0
1556031796.722,-106.445,-102.051,-214.844,11.719,79.102,0
1556031796.726,-39.062,-132.324,-250.977,16.602,53.711,0
1556031796.728,140.137,65.430,-81.055,30.762,-22.461,0
1556031796.732,113.770,84.473,-55.664,37.109,-53.223,0
1556031796.736,-77.148,-137.207,-242.188,11.719,-25.879,0
1556031796.740,-88.379,-172.852,-273.438,11.719,28.320,0
1556031796.744,111.328,39.551,-83.984,39.062,20.508,0
1556031796.748,164.062,52.734,-56.152,40.527,7.812,0
1556031796.752,-22.461,-367.188,-410.645,31.738,5.371,0
1556031796.755,-99.609,-498.047,-541.992,24.414,-2.930,0
1556031796.759,55.664,-39.062,-155.273,8.301,14.648,0
1556031796.763,154.785,170.898,53.223,15.137,46.387,0
1556031796.767,17.578,39.062,-45.898,23.926,59.082,0
1556031796.771,-118.652,-99.609,-179.688,28.320,15.137,0
1556031796.773,4.883,-70.801,-161.621,19.531,15.137,0
1556031796.777,156.738,-27.832,-115.723,14.648,32.227,0
1556031796.781,65.918,0.977,-86.426,29.297,39.062,0
1556031796.785,-87.891,-53.223,-140.137,39.062,24.902,0
1556031796.789,-30.762,-49.805,-145.508,29.785,17.578,0
1556031796.793,130.371,-61.523,-144.043,22.949,38.574,0
1556031796.797,124.512,-259.277,-315.430,16.602,17.090,0
1556031796.800,-55.664,-177.734,-264.160,28.809,16.602,0
1556031796.804,-86.914,-85.938,-187.988,39.062,3.906,0
1556031796.808,85.449,-30.762,-136.230,44.922,7.812,0
1556031796.812,166.016,100.098,-18.066,41.016,23.926,0
1556031796.816,2.930,49.316,-65.430,39.062,5.371,0
1556031796.833,-113.770,-104.492,-206.543,39.062,-8.301,0
1556031796.837,30.762,-102.539,-219.238,11.719,-15.137,0
1556031796.841,159.180,62.500,-77.637,15.625,-6.836,0
1556031796.845,36.133,128.906,-4.883,20.508,37.598,0
1556031796.849,-122.559,-151.855,-242.676,6.836,38.574,0
1556031796.853,-13.672,-348.145,-432.129,5.371,13.184,0
1556031796.857,154.297,-114.258,-239.746,22.461,12.207,0
1556031796.860,103.027,127.441,-21.484,37.109,33.203,0
1556031796.864,-62.988,-12.695,-132.812,39.062,53.711,0
1556031796.868,-51.270,-270.996,-365.723,19.531,46.387,0
1556031796.872,122.070,-70.312,-209.473,9.277,30.273,0
1556031796.876,134.277,199.219,31.738,18.555,28.320,0
1556031796.878,-55.664,20.508,-108.398,28.809,72.754,0
1556031796.882,-78.613,-143.066,-254.883,38.086,91.309,0
1556031796.886,111.816,-37.598,-188.477,30.762,-6.836,0
1556031796.890,158.203,121.094,-55.176,22.949,-36.133,0
1556031796.894,-9.277,-31.250,-171.875,32.227,4.883,0
1556031796.898,-109.863,-314.453,-418.945,42.480,19.531,0
1556031796.902,25.879,-190.430,-318.848,21.484,73.242,0
1556031796.905,157.227,23.438,-134.277,21.484,43.945,0
1556031796.909,47.852,-144.043,-275.879,38.086,-7.812,0
1556031796.913,-117.188,-456.543,-550.293,37.598,4.395,0
1556031796.917,-20.508,-203.613,-352.051,36.621,15.625,0
1556031796.921,169.434,144.531,-42.969,32.227,19.043,0
1556031796.923,104.980,75.684,-96.191,23.926,-1.953,0
1556031796.927,-91.797,-96.680,-245.605,24.902,1.953,0
1556031796.931,-75.195,-83.496,-241.699,16.113,13.672,0
1556031796.935,107.910,126.953,-55.176,20.508,58.594,0
1556031796.939,137.695,186.523,12.207,27.344,78.613,0
1556031796.943,-60.547,-81.055,-221.680,19.531,54.688,0
1556031796.947,-116.211,-245.117,-378.418,26.367,55.664,0
1556031796.950,79.590,-33.203,-206.055,36.133,25.879,0
1556031796.954,150.391,-96.680,-247.070,31.738,24.902,0
1556031796.958,-20.020,-181.152,-316.895,15.625,86.426,0
1556031796.962,-137.695,-71.289,-229.492,11.719,92.773,0
1556031796.966,-7.324,-16.113,-179.199,7.324,100.586,0
1556031796.969,131.348,112.305,-68.848,5.371,56.641,0
1556031796.973,43.945,87.402,-102.051,21.973,-25.391,0
1556031796.977,-122.559,-3.906,-180.176,26.855,19.531,0
1556031796.981,-65.918,-124.512,-283.203,10.742,32.715,0
1556031796.985,120.605,-35.645,-209.961,4.395,13.672,0
1556031796.989,101.074,86.426,-92.285,13.672,64.941,0
1556031796.993,-80.078,-129.395,-280.273,34.668,45.410,0
1556031796.996,-80.078,-316.406,-448.730,36.133,17.578,0
1556031797.000,81.543,-320.312,-459.961,6.348,-6.836,0
1556031797.004,98.145,28.320,-167.480,8.301,-6.348,0
1556031797.008,-66.895,134.277,-55.176,21.973,48.828,0
1556031797.012,-133.789,-87.402,-247.070,21.973,43.457,0
1556031797.014,25.391,-9.277,-187.988,16.113,40.527,0
1556031797.018,128.906,160.645,-29.785,12.695,55.664,0
1556031797.022,-2.930,98.633,-78.125,23.926,39.551,0
1556031797.026,-143.066,-106.445,-264.160,33.203,14.648,0
1556031797.030,-18.066,-43.945,-215.332,42.969,43.457,0
1556031797.034,150.391,123.535,-55.664,47.363,97.168,0
1556031797.038,63.965,109.863,-62.500,15.137,90.332,0
1556031797.041,-126.953,-264.648,-385.742,-12.207,56.641,0
1556031797.045,-70.312,-356.934,-481.934,-0.488,34.180,0
1556031797.049,136.719,129.395,-67.383,19.531,6.836,0
1556031797.053,125.000,220.703,46.875,14.160,35.156,0
1556031797.057,-71.777,22.461,-103.027,29.297,66.406,0
1556031797.059,-111.328,-25.879,-149.902,29.297,32.715,0
1556031797.063,75.195,128.418,-18.066,6.348,-4.395,0
1556031797.067,137.207,198.242,58.594,2.930,21.973,0
1556031797.071,-39.062,52.246,-60.059,5.859,48.828,0
1556031797.075,-130.859,-119.629,-219.727,17.578,25.879,0
1556031797.079,27.832,-83.008,-196.777,25.391,15.625,0
1556031797.083,144.531,-22.461,-127.930,23.438,26.855,0
1556031797.086,22.461,-232.422,-304.688,14.648,5.859,0
1556031797.090,-120.605,-166.016,-262.695,12.695,15.137,0
1556031797.094,-20.996,71.289,-48.828,18.555,43.945,0
1556031797.098,145.508,177.734,54.199,28.320,41.504,0
1556031797.102,81.055,142.090,21.484,36.133,2.930,0
1556031797.103,-103.516,-9.766,-121.582,27.344,-36.621,0
1556031797.107,-81.543,-47.363,-158.203,1.953,-9.277,0
1556031797.111,98.633,17.090,-104.492,-12.207,-19.531,0
1556031797.115,106.445,130.859,-1.953,4.395,15.625,0
1556031797.119,-71.777,43.457,-79.590,13.672,19.043,0
1556031797.123,-106.934,-148.926,-250.000,27.344,40.527,0
1556031797.127,72.266,-325.684,-406.250,24.414,44.922,0
1556031797.130,148.438,-204.590,-316.895,8.301,35.645,0
1556031797.134,-9.277,66.406,-92.773,11.230,47.363,0
1556031797.138,-123.047,-100.586,-237.793,12.207,12.207,0
1556031797.142,30.273,-123.047,-266.602,19.531,12.207,0
1556031797.146,149.414,161.133,-15.137,9.766,65.430,0
1556031797.163,20.996,188.477,16.602,-4.395,65.430,0
1556031797.167,-131.348,-99.609,-234.375,6.348,38.574,0
1556031797.171,-46.387,-193.359,-328.125,3.418,17.578,0
1556031797.175,131.348,55.176,-121.094,9.766,8.301,0
1556031797.179,91.309,189.453,5.371,19.043,52.246,0
1556031797.183,-80.566,-194.824,-318.848,20.020,36.133,0
1556031797.187,-78.125,-521.484,-615.723,19.043,29.785,0
1556031797.190,105.957,-145.020,-316.406,19.531,12.207,0
1556031797.194,134.277,137.695,-68.848,23.438,-22.949,0
1556031797.198,-58.594,-88.867,-255.371,26.367,7.324,0
1556031797.202,-112.793,-277.344,-428.711,38.574,16.113,0
1556031797.206,65.918,-80.078,-279.785,22.949,-33.691,0
1556031797.208,148.438,36.621,-178.223,-2.441,-55.176,0
1556031797.212,9.766,-82.031,-271.973,16.602,-2.441,0
1556031797.216,-112.305,-181.641,-361.328,36.133,15.625,0
1556031797.220,-1.465,-71.289,-276.855,16.602,-4.395,0
1556031797.224,160.645,116.211,-109.375,8.301,0.488,0
1556031797.228,66.895,9.277,-186.035,26.367,36.621,0
1556031797.232,-123.535,-225.098,-386.230,41.016,67.383,0
1556031797.235,-48.340,-177.246,-367.188,36.133,16.602,0
1556031797.239,143.555,86.426,-141.113,26.367,0.000,0
1556031797.243,110.352,-149.902,-326.660,16.113,12.207,0
1556031797.247,-80.078,-352.051,-513.672,29.785,10.254,0
1556031797.251,-78.613,-41.016,-250.977,49.316,67.383,0
1556031797.253,102.051,48.828,-165.039,45.898,54.199,0
1556031797.257,147.949,82.520,-129.395,29.785,58.594,0
1556031797.261,-18.066,64.941,-148.438,20.508,61.035,0
1556031797.265,-121.582,-76.172,-285.645,23.926,-1.465,0
1556031797.269,14.160,-36.133,-246.582,14.648,37.109,0
1556031797.273,129.883,-9.766,-210.449,20.020,50.781,0
1556031797.277,13.672,-116.699,-305.664,43.457,22.949,0
1556031797.280,-119.629,-92.773,-286.133,51.758,50.781,0
1556031797.284,-9.766,-156.250,-336.426,38.574,28.809,0
1556031797.288,150.391,-245.117,-415.527,37.598,2.930,0
1556031797.292,70.801,15.137,-196.777,35.645,31.738,0
1556031797.296,-104.980,-23.438,-226.562,44.434,8.301,0
1556031797.298,-44.922,-120.605,-312.012,28.320,30.762,0
1556031797.302,137.695,81.055,-133.789,13.672,65.430,0
1556031797.306,109.375,202.148,-24.414,28.809,34.180,0
1556031797.310,-79.102,-72.266,-260.254,29.297,-14.160,0
1556031797.314,-107.910,-272.461,-437.988,31.250,-7.324,0
1556031797.318,71.777,-108.887,-291.016,33.691,61.523,0
1556031797.322,144.531,18.555,-174.805,31.250,52.246,0
1556031797.325,-21.484,46.387,-146.973,28.809,44.922,0
1556031797.329,-126.953,-363.770,-494.629,25.391,33.691,0
1556031797.333,32.227,-364.258,-513.184,20.996,15.625,0
1556031797.337,153.809,137.207,-83.496,25.391,4.883,0
1556031797.341,19.531,88.379,-97.656,37.109,36.133,0
1556031797.344,-133.301,-156.738,-304.688,42.969,43.457,0
1556031797.348,-17.578,-81.543,-256.348,26.855,23.926,0
1556031797.352,177.246,143.555,-57.129,36.621,16.602,0
1556031797.356,93.750,70.801,-106.934,31.738,9.766,0
1556031797.360,-107.910,-182.617,-328.125,21.973,-11.719,0
1556031797.364,-62.500,-263.184,-403.809,30.762,8.301,0
1556031797.368,125.977,-23.438,-190.430,41.016,73.242,0
1556031797.371,136.230,-0.977,-152.832,36.133,70.312,0
1556031797.375,-71.289,-361.328,-473.633,20.508,30.762,0
1556031797.379,-134.766,-230.469,-387.207,18.066,31.250,0
1556031797.383,64.941,61.523,-136.719,23.438,21.973,0
1556031797.387,146.484,82.031,-113.281,22.949,0.488,0
1556031797.389,-22.461,-25.391,-210.938,17.090,3.418,0
1556031797.393,-122.070,-69.824,-252.441,31.250,35.645,0
1556031797.397,20.020,2.441,-188.477,20.996,39.551,0
1556031797.401,159.180,92.285,-102.539,20.996,31.250,0
1556031797.405,48.340,22.949,-156.250,22.461,3.418,0
1556031797.409,-116.699,-218.750,-362.793,23.926,3.418,0
1556031797.413,-31.738,-247.070,-385.254,19.043,32.715,0
1556031797.416,141.602,-242.676,-373.047,6.348,33.691,0
1556031797.420,114.258,-187.012,-330.566,14.160,20.996,0
1556031797.424,-73.730,-100.586,-256.836,21.484,18.555,0
1556031797.428,-81.543,-214.844,-347.168,17.578,31.250,0
1556031797.432,105.469,-58.105,-217.773,28.809,10.254,0
1556031797.434,154.297,146.973,-36.621,28.320,15.625,0
1556031797.438,-15.625,68.359,-101.074,34.180,24.414,0
1556031797.442,-103.027,-151.855,-292.480,37.598,27.344,0
1556031797.446,51.758,-99.609,-259.277,14.160,18.066,0
1556031797.450,154.785,125.000,-67.383,20.996,0.977,0
1556031797.454,1.953,-2.441,-165.039,29.297,27.832,0
1556031797.458,-150.879,-352.051,-463.867,21.484,25.879,0
1556031797.461,-14.160,-454.102,-568.848,20.996,3.418,0
1556031797.465,145.508,-77.637,-258.789,35.645,-22.461,0
1556031797.469,58.594,142.090,-46.875,54.688,13.672,0
1556031797.473,-109.375,-89.355,-233.398,51.758,49.316,0
1556031797.477,-52.246,-145.996,-300.293,28.320,12.695,0
1556031797.478,124.512,102.539,-77.148,22.949,61.035,0
1556031797.482,106.934,127.441,-41.016,25.391,82.031,0
1556031797.486,-70.801,-116.211,-266.113,32.227,0.977,0
1556031797.490,-75.195,-250.488,-402.832,34.668,-63.965,0
1556031797.494,104.004,22.949,-159.180,27.344,5.371,0
1556031797.498,125.488,40.039,-132.812,11.230,-4.883,0
1556031797.502,-57.617,-387.695,-506.836,3.906,-26.367,0
1556031797.505,-122.070,-399.414,-518.066,28.809,51.758,0
1556031797.509,45.410,4.883,-178.711,23.926,29.785,0
1556031797.513,153.320,96.191,-89.355,18.555,-24.414,0
1556031797.517,16.113,-73.730,-229.980,16.602,-17.578,0
1556031797.521,-136.230,-123.047,-278.809,3.906,33.691,0
1556031797.523,-20.508,11.230,-165.039,6.348,46.387,0
1556031797.527,150.391,97.168,-80.078,15.625,38.086,0
1556031797.531,70.312,61.035,-101.562,17.578,46.875,0
1556031797.535,-104.980,-110.840,-255.371,38.574,49.805,0
1556031797.539,-62.012,-163.086,-310.059,47.852,56.152,0
1556031797.543,96.680,-92.285,-243.652,25.879,40.039,0
1556031797.547,101.074,-245.605,-375.000,11.719,18.066,0
1556031797.550,-56.641,-162.598,-320.312,19.531,39.062,0
1556031797.554,-83.008,-40.527,-213.379,28.809,52.734,0
1556031797.558,90.332,-10.254,-187.012,27.832,29.785,0
1556031797.562,152.344,54.688,-131.836,25.879,-18.555,0
1556031797.566,-26.855,46.875,-134.766,37.598,2.930,0
1556031797.583,-139.648,-29.785,-191.895,45.410,68.359,0
1556031797.587,24.414,-20.508,-187.988,17.578,73.242,0
1556031797.591,159.180,121.094,-70.801,12.207,53.711,0
1556031797.595,12.207,124.023,-67.871,10.742,37.109,0
1556031797.599,-149.414,-66.895,-235.352,11.230,33.203,0
1556031797.603,-46.387,-196.777,-354.980,10.254,28.809,0
1556031797.607,135.254,-153.320,-323.242,19.531,0.977,0
1556031797.610,86.426,-67.383,-245.117,31.250,26.855,0
1556031797.614,-108.887,-137.695,-304.199,19.531,13.184,0
1556031797.618,-80.566,-378.906,-513.672,10.254,-7.812,0
1556031797.622,108.398,-175.293,-346.191,14.160,24.414,0
1556031797.626,120.117,174.805,-37.598,22.949,17.090,0
1556031797.628,-54.688,-60.059,-227.539,34.180,23.926,0
1556031797.632,-104.980,-263.184,-415.039,27.832,6.836,0
1556031797.636,75.195,-36.621,-232.910,26.855,-8.301,0
1556031797.640,158.203,182.617,-29.785,25.879,22.949,0
1556031797.644,-11.719,-23.438,-199.219,9.277,6.348,0
1556031797.648,-125.000,-360.352,-501.953,15.137,-19.531,0
1556031797.652,8.789,-275.879,-441.406,16.113,7.812,0
1556031797.655,142.090,88.867,-121.582,13.184,30.762,0
1556031797.659,40.527,-32.715,-207.520,8.301,14.160,0
1556031797.663,-124.512,-461.914,-578.125,-1.953,45.898,0
1556031797.667,-36.133,-241.211,-413.574,-1.953,51.270,0
1556031797.671,143.066,53.711,-165.527,6.836,-41.016,0
1556031797.673,84.961,-26.855,-232.422,1.465,-75.195,0
1556031797.677,-113.281,-182.129,-368.652,8.301,-43.945,0
1556031797.681,-103.516,-104.492,-292.969,-10.254,37.109,0
1556031797.685,103.027,124.023,-82.031,-12.207,94.238,0
1556031797.689,149.414,156.250,-41.016,25.391,89.844,0
1556031797.693,-42.480,-157.227,-321.777,33.691,21.484,0
1556031797.697,-129.395,-390.137,-543.945,12.207,-19.531,0
1556031797.700,54.199,-124.023,-316.895,-7.324,17.090,0
1556031797.704,155.273,-166.504,-337.402,3.418,4.395,0
1556031797.708,5.371,-341.797,-497.559,26.855,-23.926,1
1556031797.712,-112.793,-128.906,-318.848,14.648,20.508,0
1556031797.716,-6.348,-64.453,-250.488,-8.301,44.434,0
1556031797.718,133.301,-25.879,-211.914,-3.418,38.086,0
1556031797.722,41.016,15.625,-175.781,-1.953,28.809,0
1556031797.726,-141.113,-76.172,-258.789,13.184,3.418,0
1556031797.730,-58.594,-137.207,-308.594,16.602,50.781,0
1556031797.734,133.301,8.789,-174.805,1.953,68.848,0
1556031797.738,100.098,-51.758,-228.027,0.000,-8.301,0
1556031797.742,-90.820,-266.602,-426.270,7.324,-22.949,0
1556031797.745,-89.844,-337.402,-482.422,21.484,21.973,0
1556031797.749,108.398,-368.652,-511.230,9.277,-2.441,0
1556031797.753,151.367,-82.520,-278.809,-2.441,-40.527,0
1556031797.757,-23.926,48.340,-145.020,16.602,31.250,0
1556031797.761,-109.375,-122.070,-282.227,18.555,75.684,0
1556031797.763,49.316,-79.102,-263.184,10.742,18.555,0
1556031797.767,149.902,115.723,-100.098,13.184,-23.926,0
1556031797.771,10.742,69.336,-129.883,14.648,-4.395,0
1556031797.775,-123.535,-172.852,-334.961,25.879,39.551,0
1556031797.779,-24.414,-184.082,-359.375,19.043,4.395,0
1556031797.783,120.605,-42.480,-233.887,3.418,-5.859,0
1556031797.787,39.551,-22.949,-209.961,0.977,14.160,0
1556031797.790,-134.766,-390.137,-525.391,-1.953,-7.812,0
1556031797.794,-74.707,-481.934,-619.629,-2.441,-4.883,0
1556031797.798,117.676,36.133,-178.711,7.812,-7.324,0
1556031797.802,110.352,141.602,-62.500,11.230,13.184,0
1556031797.806,-81.055,-24.414,-192.383,15.625,77.637,0
1556031797.808,-96.680,-67.871,-242.676,20.508,65.430,0
1556031797.812,93.750,99.609,-104.004,32.227,39.551,0
1556031797.816,146.973,134.766,-60.059,39.062,29.785,0
1556031797.820,-28.809,-63.965,-236.328,27.832,0.977,0
1556031797.824,-133.301,-123.047,-297.852,19.043,8.789,0
1556031797.828,38.086,-120.605,-300.293,19.531,-1.465,0
1556031797.832,148.926,-164.551,-333.984,19.531,-19.043,0
1556031797.835,13.672,-316.406,-462.402,20.508,0.977,0
1556031797.839,-120.117,-218.750,-389.160,27.832,26.855,0
1556031797.843,-16.602,16.602,-180.176,12.695,49.316,0
1556031797.847,146.484,130.371,-70.801,22.461,65.918,0
1556031797.851,85.449,89.844,-110.840,17.578,15.625,0
1556031797.853,-88.379,-41.016,-230.957,-4.395,-20.020,0
1556031797.857,-55.176,-63.477,-250.000,12.207,6.836,0
1556031797.861,128.906,34.668,-163.574,19.043,18.555,0
1556031797.865,133.789,134.766,-69.824,9.766,35.156,0
1556031797.869,-54.688,-11.719,-200.684,16.602,-21.973,0
1556031797.873,-96.680,-236.328,-401.367,39.551,-35.156,0
1556031797.877,77.637,-302.734,-446.289,41.992,57.129,0
1556031797.880,150.391,-154.297,-315.918,26.367,49.316,0
1556031797.884,-14.160,71.289,-126.465,22.461,22.461,0
1556031797.888,-122.559,-146.973,-308.594,25.391,6.348,0
1556031797.892,32.227,-217.285,-380.371,25.391,-33.203,0
1556031797.896,164.062,189.453,-13.184,38.574,75.195,0
1556031797.898,48.340,231.445,40.039,42.969,78.125,0
1556031797.902,-97.656,-128.418,-283.203,52.246,-15.137,0
1556031797.906,-11.230,-150.391,-309.570,51.270,46.875,0
1556031797.910,157.227,132.324,-65.918,28.320,62.988,0
1556031797.914,100.098,200.195,0.488,24.902,33.203,0
1556031797.918,-95.215,-175.781,-314.941,41.504,37.598,0
1556031797.922,-83.008,-474.609,-583.008,30.762,68.359,0
1556031797.925,106.445,-83.496,-261.719,32.227,69.336,0
1556031797.929,140.137,218.262,12.207,34.180,45.410,0
1556031797.933,-46.387,-46.387,-210.449,29.785,5.371,0
1556031797.937,-114.258,-201.172,-350.586,33.691,10.742,0
1556031797.941,60.059,43.457,-138.184,28.320,31.250,0
1556031797.959,161.621,61.523,-117.676,30.273,-31.250,0
1556031797.963,13.672,-176.270,-328.125,30.273,-57.129,0
1556031797.967,-118.652,-175.293,-326.660,48.340,20.508,0
1556031797.971,28.809,-41.992,-217.285,53.711,16.602,0
1556031797.975,164.062,150.391,-44.922,37.598,35.645,0
1556031797.979,59.082,-1.465,-166.016,29.785,46.387,0
1556031797.983,-87.402,-358.887,-496.582,42.969,-31.250,0
1556031797.986,-45.898,-163.086,-337.402,37.109,34.668,0
1556031797.990,116.699,165.039,-38.086,22.949,75.195,0
1556031797.994,102.539,-126.953,-281.738,14.648,-7.812,0
1556031797.998,-84.961,-333.496,-478.027,19.531,-36.133,0
1556031798.002,-91.797,-88.867,-262.207,31.250,23.926,0
1556031798.003,103.027,62.012,-115.723,22.461,73.730,0
1556031798.007,139.648,86.426,-90.332,22.461,55.176,0
1556031798.011,-41.504,34.180,-136.719,30.762,32.715,0
1556031798.015,-121.094,-139.648,-290.039,23.926,29.297,0
1556031798.019,55.176,-218.262,-368.164,29.297,10.254,0
1556031798.023,172.363,-100.098,-266.113,39.551,7.812,0
1556031798.027,9.766,-149.902,-309.570,38.574,-2.441,0
1556031798.030,-129.883,-150.879,-318.848,31.738,16.113,0
1556031798.034,7.324,-185.547,-343.262,21.484,25.391,0
1556031798.038,159.180,-261.230,-408.203,15.625,10.742,0
1556031798.042,68.848,10.742,-179.199,16.602,43.457,0
1556031798.046,-105.469,27.832,-149.902,41.504,64.453,0
1556031798.048,-55.664,-140.137,-299.805,31.250,31.250,0
1556031798.052,141.602,-32.227,-218.750,28.320,-19.043,0
1556031798.056,135.742,139.160,-59.082,41.016,-3.906,0
1556031798.060,-64.453,35.645,-135.254,40.039,41.504,0
1556031798.064,-97.168,-124.023,-274.902,37.109,59.570,0
1556031798.068,67.871,-122.559,-280.273,11.230,37.109,0
1556031798.072,131.836,-73.242,-243.652,8.301,-3.418,0
1556031798.075,-24.414,-144.043,-295.898,25.879,19.531,0
1556031798.079,-121.094,-465.820,-562.988,23.926,41.504,0
1556031798.083,39.551,-362.305,-489.746,22.461,26.855,0
1556031798.087,156.250,172.363,-24.902,28.320,56.152,0
1556031798.091,39.551,118.164,-48.828,21.973,68.359,0
1556031798.099,-111.816,-170.898,-307.129,33.691,27.344,0
1556031798.103,-32.715,-85.938,-255.859,24.414,17.578,0
1556031798.107,140.137,167.969,-31.250,13.184,45.410,0
1556031798.111,81.543,80.078,-97.656,19.531,30.762,0
1556031798.115,-114.258,-139.648,-291.504,27.832,37.598,0
1556031798.119,-89.355,-243.164,-391.602,34.180,33.691,0
1556031798.123,122.559,-84.473,-269.043,22.949,12.695,0
1556031798.126,131.348,17.578,-163.574,25.879,46.387,0
1556031798.130,-78.125,-307.617,-435.059,24.414,60.059,0
1556031798.134,-118.652,-273.926,-427.734,12.207,71.777,0
1556031798.138,62.500,-7.812,-202.148,11.230,78.613,0
1556031798.142,139.160,82.520,-122.070,11.719,25.879,0
1556031798.138,-24.414,-4.883,-197.754,16.113,10.742,0
1556031798.142,-146.973,-58.105,-242.676,20.508,45.898,0
1556031798.146,10.742,3.906,-193.359,25.879,39.062,0
1556031798.150,166.016,99.609,-107.422,36.621,24.414,0
1556031798.154,39.551,55.176,-139.160,43.945,19.043,0
1556031798.158,-112.793,-167.480,-331.543,43.945,25.391,0
1556031798.162,-38.086,-203.613,-371.582,13.672,51.758,0
1556031798.165,114.258,-205.078,-361.328,9.277,67.871,0
1556031798.169,74.219,-182.129,-333.984,20.996,72.266,0
1556031798.173,-110.352,-12.695,-196.777,21.973,60.059,0
1556031798.177,-81.055,-65.430,-237.793,40.527,54.688,0
1556031798.181,109.375,21.484,-157.227,29.297,64.453,0
1556031798.183,117.676,87.402,-103.516,8.301,35.156,0
1556031798.187,-45.410,-13.184,-191.406,25.879,15.137,0
1556031798.191,-101.074,-164.062,-320.312,26.855,12.207,0
1556031798.195,51.270,-67.871,-239.258,20.508,49.316,0
1556031798.199,144.043,192.383,-2.441,24.902,76.172,0
1556031798.203,-1.953,12.695,-151.855,20.020,36.133,0
1556031798.207,-126.465,-337.402,-458.984,29.785,9.766,0
1556031798.210,-3.906,-446.289,-564.941,25.879,-3.418,0
1556031798.214,140.625,-47.852,-227.539,26.855,8.301,0
1556031798.218,37.109,150.391,-35.645,20.996,24.902,0
1556031798.222,-144.531,-165.039,-311.035,12.695,-20.508,0
1556031798.226,-44.434,-202.148,-355.957,33.691,-26.367,0
1556031798.228,136.230,119.141,-66.406,38.086,29.785,0
1556031798.232,82.520,211.914,29.785,15.625,51.758,0
1556031798.236,-94.727,-51.270,-198.242,15.625,27.344,0
1556031798.240,-101.074,-227.051,-364.258,13.672,21.973,0
1556031798.244,84.961,-48.340,-215.820,11.230,-8.789,0
1556031798.248,131.836,9.766,-155.762,15.137,-46.387,0
1556031798.252,-53.711,-347.656,-452.148,17.578,4.395,0
1556031798.255,-131.836,-416.016,-515.137,13.184,63.477,0
1556031798.259,38.574,-16.113,-182.129,6.836,21.973,0
1556031798.263,145.996,141.602,-32.227,11.230,-8.789,0
1556031798.267,5.371,1.953,-148.438,15.137,-0.977,0
1556031798.271,-135.742,-104.980,-251.465,21.484,8.789,0
1556031798.274,-9.766,-63.965,-234.375,20.020,-33.691,0
1556031798.278,145.020,12.695,-169.922,27.344,-48.828,0
1556031798.282,56.641,25.879,-148.926,15.137,19.531,0
1556031798.286,-106.445,-27.832,-193.359,23.438,55.664,0
1556031798.290,-46.387,-53.223,-222.656,28.320,15.137,0
1556031798.294,123.047,-72.754,-229.492,10.742,22.461,0
1556031798.298,114.258,-245.117,-370.605,17.578,40.527,0
1556031798.301,-77.148,-172.363,-319.824,27.344,39.551,0
1556031798.305,-114.746,-41.992,-201.172,22.949,41.992,0
1556031798.309,66.895,-7.812,-168.945,24.414,28.320,0
1556031798.313,134.766,89.844,-80.566,25.391,19.043,0
1556031798.317,-20.508,50.781,-113.770,28.809,5.859,0
1556031798.334,-121.094,-35.156,-186.523,33.203,49.316,0
1556031798.338,28.809,-3.906,-160.156,16.113,76.172,0
1556031798.342,142.090,88.379,-85.449,17.090,23.438,0
1556031798.346,8.301,161.133,-12.695,10.254,79.590,0
1556031798.350,-141.602,-36.621,-187.988,16.602,57.617,0
1556031798.354,-33.691,-202.637,-348.145,26.855,16.113,0
1556031798.358,138.672,-112.793,-276.855,20.020,25.879,0
1556031798.361,72.266,53.223,-132.324,23.438,26.855,0
1556031798.365,-109.863,3.906,-164.062,29.785,58.105,0
1556031798.369,-60.547,-409.668,-532.715,35.156,-28.320,0
1556031798.373,133.301,-259.277,-424.805,29.785,-41.992,0
1556031798.377,127.930,253.418,42.480,27.344,99.609,0
1556031798.379,-66.895,26.855,-138.184,38.086,66.406,0
1556031798.383,-115.234,-216.797,-368.164,32.715,23.926,0
1556031798.387,72.754,-9.766,-207.031,23.438,27.344,0
1556031798.391,142.090,193.359,-25.879,28.320,25.391,0
1556031798.395,-21.973,68.359,-115.723,35.156,77.148,0
1556031798.399,-124.512,-271.484,-419.922,42.480,40.527,0
1556031798.403,26.855,-242.676,-416.992,25.879,28.320,0
1556031798.406,167.969,83.984,-138.672,19.531,23.438,0
1556031798.410,41.504,10.254,-182.617,32.227,39.062,0
1556031798.414,-115.723,-440.430,-578.613,38.574,7.812,0
1556031798.418,-24.414,-239.746,-437.012,29.785,-4.395,0
1556031798.422,139.160,157.715,-78.125,30.762,47.852,0
1556031798.424,83.008,59.082,-154.297,27.344,13.672,0
1556031798.428,-108.887,-83.984,-280.762,24.414,27.344,0
1556031798.432,-89.355,-57.617,-260.254,25.391,28.809,0
1556031798.436,100.586,78.613,-146.973,23.926,7.324,0
1556031798.440,129.883,168.945,-54.199,20.996,56.641,0
1556031798.444,-58.105,-61.523,-244.629,10.254,68.848,0
1556031798.448,-123.535,-270.996,-444.336,26.367,30.762,0
1556031798.451,77.637,-17.090,-234.375,44.434,27.344,0
1556031798.455,181.152,-84.961,-269.531,37.598,16.113,0
1556031798.459,-4.395,-261.230,-429.688,7.812,7.324,0
1556031798.463,-145.996,-75.195,-281.250,7.324,18.555,0
1556031798.467,-1.953,-32.715,-235.840,12.207,5.859,0
1556031798.469,142.578,-8.301,-208.984,22.461,-11.719,0
1556031798.473,44.922,62.012,-145.020,39.062,6.348,0
1556031798.477,-125.488,34.180,-158.691,33.691,54.199,0
1556031798.481,-48.340,-129.883,-298.828,25.879,55.664,0
1556031798.485,153.809,-30.762,-226.074,36.621,6.348,0
1556031798.489,98.145,-1.465,-197.754,43.457,-16.602,0
1556031798.493,-98.145,-72.754,-249.512,38.574,61.035,0
1556031798.496,-101.562,-147.461,-305.664,28.809,83.984,0
1556031798.500,96.680,-310.059,-457.520,26.367,-12.207,0
1556031798.504,163.086,-8.789,-208.008,49.805,-27.344,0
1556031798.508,-19.043,98.633,-99.121,49.316,15.137,0
1556031798.512,-120.117,-119.629,-284.180,19.043,27.344,0
1556031798.513,39.062,-21.973,-205.078,5.371,44.434,0
1556031798.517,150.391,242.676,35.645,9.277,63.477,0
1556031798.521,20.996,165.527,-23.438,30.762,46.387,0
1556031798.525,-123.535,-75.684,-235.352,46.387,51.758,0
1556031798.529,-24.902,-69.824,-239.258,44.922,41.016,0
1556031798.533,140.137,15.625,-165.039,43.945,20.508,0
1556031798.537,61.523,-77.637,-246.094,25.391,-13.672,0
1556031798.540,-127.930,-456.055,-569.824,12.207,-31.250,0
1556031798.544,-84.961,-472.168,-600.098,4.395,-9.766,0
1556031798.548,119.629,78.613,-126.953,27.832,21.484,0
1556031798.552,123.047,197.266,6.836,45.410,55.176,0
1556031798.556,-77.637,-60.547,-213.867,34.180,40.039,0
1556031798.558,-115.234,-80.566,-243.164,26.855,50.293,0
1556031798.562,75.195,104.980,-90.820,15.137,37.109,0
1556031798.566,149.414,76.172,-115.723,17.090,-20.508,0
1556031798.570,-2.930,-80.566,-249.023,26.367,0.488,0
1556031798.574,-121.094,-104.980,-267.578,27.344,37.109,0
1556031798.578,12.207,-105.957,-270.020,27.344,22.461,0
1556031798.582,145.020,-101.562,-260.254,30.273,29.785,0
1556031798.585,23.926,-253.906,-384.766,16.113,45.410,0
1556031798.589,-130.859,-228.516,-376.465,13.184,35.156,0
1556031798.593,-35.156,-117.188,-290.527,17.578,7.812,0
1556031798.597,136.719,16.113,-169.434,12.695,24.414,0
1556031798.601,75.684,121.094,-62.988,30.762,53.223,0
1556031798.603,-109.375,7.324,-162.109,30.762,38.574,0
1556031798.607,-80.566,-58.594,-225.098,20.020,26.367,0
1556031798.611,110.352,20.020,-156.250,5.371,23.438,0
1556031798.615,114.258,118.164,-66.406,5.859,30.762,0
1556031798.619,-69.336,15.625,-153.320,31.250,12.695,0
1556031798.623,-102.539,-230.469,-371.094,35.645,-18.066,0
1556031798.627,57.129,-322.754,-440.430,20.508,51.758,0
1556031798.630,130.371,-181.641,-323.730,17.090,45.898,0
1556031798.634,-25.879,36.621,-145.996,17.090,16.113,0
1556031798.638,-143.555,-54.688,-208.984,26.367,57.129,0
1556031798.642,21.973,-111.816,-266.602,38.086,22.949,0
1556031798.646,159.180,89.844,-98.633,28.320,3.906,0
1556031798.648,48.828,37.598,-137.695,21.484,-1.953,0
1556031798.652,-108.398,-199.707,-343.750,32.715,1.953,0
1556031798.656,-36.621,-180.664,-330.078,24.902,23.438,0
1556031798.660,138.672,57.617,-129.395,27.832,13.184,0
1556031798.664,76.172,178.711,-17.578,20.996,25.879,0
1556031798.668,-117.188,-164.551,-300.781,18.555,30.762,0
1556031798.672,-91.797,-528.809,-629.883,24.414,11.719,0
1556031798.675,105.469,-125.488,-295.410,13.184,38.086,0
1556031798.679,131.348,213.379,14.648,18.555,45.898,0
1556031798.683,-53.711,39.062,-118.164,27.344,95.215,0
1556031798.687,-120.117,-166.016,-311.523,20.996,42.969,0
1556031798.691,48.340,-3.418,-187.012,14.648,8.301,0
1556031798.708,156.250,192.383,-1.953,20.996,40.039,0
1556031798.712,-8.789,32.227,-134.277,23.926,34.668,0
1556031798.716,-147.949,-98.145,-243.164,12.695,87.891,0
1556031798.720,-3.418,-88.867,-243.164,0.000,59.082,0
1556031798.724,132.812,75.195,-104.492,9.277,30.273,0
1556031798.728,30.762,18.066,-139.160,28.809,62.500,0
1556031798.732,-122.070,-300.293,-424.805,32.227,29.785,0
1556031798.735,-57.617,-161.133,-315.918,20.020,55.664,0
1556031798.739,122.070,102.051,-78.125,22.949,41.016,0
1556031798.743,93.262,-166.504,-312.500,32.715,-35.645,0
1556031798.747,-99.609,-309.570,-448.730,26.855,-6.348,0
1556031798.751,-93.750,-146.973,-314.941,13.672,-17.578,0
1556031798.753,101.562,-43.457,-216.309,36.621,-3.418,0
1556031798.757,150.879,61.035,-112.793,44.434,46.875,0
1556031798.761,-35.156,2.930,-170.410,29.785,24.414,0
1556031798.765,-132.812,-92.285,-256.348,18.066,20.020,0
1556031798.769,37.109,-83.984,-247.070,10.742,23.438,0
1556031798.773,143.066,-35.156,-195.801,9.277,45.410,0
1556031798.777,-5.859,-88.867,-236.328,20.020,71.289,0
1556031798.780,-145.996,-164.551,-309.570,21.484,60.547,0
1556031798.784,-25.879,-219.238,-363.281,-0.488,21.484,0
1556031798.788,150.391,-284.180,-425.293,4.883,-6.348,0
1556031798.792,72.754,-40.039,-219.238,-2.930,20.996,0
1556031798.796,-102.051,-79.590,-250.977,3.906,-11.719,0
1556031798.798,-45.898,-158.203,-316.895,29.297,23.926,0
1556031798.802,120.605,43.945,-137.695,29.785,54.688,0
1556031798.806,115.234,153.320,-40.527,17.578,19.531,0
1556031798.810,-77.148,47.363,-125.977,12.695,65.918,0
1556031798.814,-105.957,-122.070,-275.391,12.695,64.453,0
1556031798.818,78.613,-137.695,-297.852,9.766,40.527,0
1556031798.822,149.414,-23.438,-196.289,19.043,37.598,0
1556031798.825,-8.789,-9.766,-186.035,21.973,-0.488,0
1556031798.829,-124.512,-354.004,-467.773,8.301,34.180,0
1556031798.833,20.996,-443.848,-560.059,0.000,22.949,0
1556031798.837,143.555,36.621,-156.250,12.695,0.488,0
1556031798.841,12.695,71.777,-103.027,34.668,15.625,0
1556031798.843,-125.977,-145.996,-288.086,45.410,44.922,0
1556031798.847,-7.324,-33.691,-199.707,21.484,73.730,0
1556031798.851,153.320,179.199,-10.742,5.371,57.617,0
1556031798.855,80.566,91.797,-75.684,9.277,33.203,0
1556031798.859,-108.398,-122.559,-263.672,13.672,43.457,0
1556031798.863,-78.125,-252.930,-388.672,9.277,24.902,0
1556031798.867,111.328,-109.863,-278.320,10.742,-1.465,0
1556031798.870,119.141,3.906,-161.621,26.367,20.020,0
1556031798.874,-57.129,-346.191,-454.590,27.344,17.090,0
1556031798.878,-95.703,-249.023,-388.184,12.695,37.109,0
1556031798.882,88.379,86.914,-92.773,6.348,49.805,0
1556031798.886,161.133,98.145,-72.266,10.742,17.090,0
1556031798.888,-9.766,-95.215,-240.723,5.859,24.414,2
1556031798.892,-136.230,-128.906,-283.203,11.719,49.805,0
1556031798.896,5.859,20.996,-160.156,18.555,48.340,0
1556031798.900,152.344,128.418,-57.129,24.902,60.547,0
1556031798.904,21.484,63.477,-113.281,20.020,33.691,0
1556031798.908,-149.902,-200.684,-350.098,3.906,-4.395,0
1556031798.912,-48.340,-270.996,-418.457,17.090,2.441,0
1556031798.915,143.066,-267.578,-403.320,29.785,7.812,0
1556031798.919,93.262,-195.801,-334.961,17.578,30.273,0
1556031798.923,-100.586,-17.578,-186.035,16.113,45.898,0
1556031798.927,-86.914,-122.559,-275.391,22.461,2.441,0
1556031798.931,99.121,-82.520,-243.652,28.320,-28.809,0
1556031798.933,129.883,108.398,-75.684,43.457,0.000,0
1556031798.937,-53.711,75.684,-99.609,46.387,33.203,0
1556031798.941,-115.234,-177.734,-321.777,37.598,12.207,0
1556031798.945,78.125,-157.715,-316.406,44.434,13.184,0
1556031798.949,166.504,71.777,-126.465,36.621,-2.930,0
1556031798.953,14.648,-46.387,-223.633,31.738,-2.930,0
1556031798.957,-111.816,-375.977,-504.395,27.344,-2.930,0
1556031798.960,-2.930,-523.926,-651.855,7.812,-42.480,0
1556031798.964,132.812,-105.957,-299.805,28.320,-17.578,0
1556031798.968,27.832,146.484,-56.641,15.137,26.855,0
1556031798.972,-132.812,-117.676,-273.438,10.742,23.438,0
1556031798.976,-52.246,-174.805,-332.031,14.648,11.230,0
1556031798.978,123.535,67.871,-124.512,0.000,10.254,0
1556031798.982,100.586,145.020,-44.434,7.324,15.137,0
1556031798.986,-68.359,-81.543,-232.910,26.367,21.484,0
1556031798.990,-75.684,-199.219,-345.703,28.809,4.883,0
1556031798.994,103.027,51.758,-125.977,18.555,42.969,0
1556031798.998,155.273,117.188,-44.922,22.949,81.055,0
1556031799.002,-23.438,-323.730,-416.992,29.785,55.176,0
1556031799.005,-123.535,-492.676,-587.402,39.551,21.973,0
1556031799.009,47.363,-60.059,-233.887,33.203,8.789,0
1556031799.013,167.969,141.113,-35.645,32.715,20.996,0
1556031799.017,22.461,-23.438,-168.457,27.344,10.254,0
1556031799.021,-118.652,-153.809,-299.316,23.438,-2.930,0
1556031799.023,-11.230,-22.949,-187.500,34.180,28.809,0
1556031799.027,161.621,74.219,-95.703,43.457,17.578,0
1556031799.031,90.332,31.738,-125.488,49.805,35.645,0
1556031799.035,-112.305,-20.996,-169.922,38.086,80.078,0
1556031799.039,-62.012,-61.035,-220.215,27.344,28.320,0
1556031799.043,135.254,-92.773,-245.605,35.156,17.090,0
1556031799.047,120.605,-237.793,-368.164,26.367,46.875,0
1556031799.050,-65.430,-178.223,-338.379,20.508,25.391,0
1556031799.054,-81.543,-130.859,-295.410,37.598,28.809,0
1556031799.058,87.402,-140.137,-303.223,26.855,29.297,0
1556031799.062,140.625,83.496,-109.863,1.465,41.992,0
1556031799.066,-15.137,104.004,-85.938,2.441,54.199,0
1556031799.083,-130.371,-85.938,-258.789,10.254,16.113,0
1556031799.087,12.207,-92.285,-274.902,8.301,17.090,0
1556031799.091,163.574,111.328,-93.750,22.461,59.570,0
1556031799.095,62.012,137.207,-62.012,31.250,49.316,0
1556031799.099,-120.605,-73.242,-247.070,22.949,19.043,0
1556031799.103,-40.527,-230.469,-397.949,19.043,-2.930,0
1556031799.107,133.789,-164.551,-347.656,20.508,-4.883,0
1556031799.110,78.125,-26.367,-230.469,21.484,-24.414,0
1556031799.114,-94.238,-72.754,-263.672,28.320,-4.883,0
1556031799.118,-60.059,-386.719,-530.273,38.086,6.348,0
1556031799.122,124.023,-257.324,-438.477,24.902,-19.531,0
1556031799.126,127.441,97.656,-129.883,4.883,-15.137,0
1556031799.128,-59.570,-140.625,-317.871,19.043,23.438,0
1556031799.132,-105.957,-294.434,-461.426,27.344,21.973,0
1556031799.136,74.707,8.789,-207.031,21.484,48.340,0
1556031799.140,142.090,231.934,0.488,14.648,72.754,0
1556031799.144,-28.809,-5.371,-202.148,11.230,20.508,0
1556031799.148,-141.602,-268.555,-432.129,17.578,60.059,0
1556031799.152,22.461,-213.867,-399.902,27.832,57.617,0
1556031799.155,169.922,25.391,-208.496,48.828,-28.809,0
1556031799.159,39.551,-25.879,-227.051,29.785,15.625,0
1556031799.163,-145.996,-406.250,-549.805,4.395,56.641,0
1556031799.167,-68.359,-238.281,-436.035,9.766,16.113,0
1556031799.171,123.535,88.867,-155.273,13.672,-7.812,0
1556031799.173,83.008,69.824,-153.809,17.090,22.461,0
1556031799.177,-104.980,-48.828,-247.070,33.691,59.082,0
1556031799.181,-92.285,-124.023,-315.918,18.555,56.152,0
1556031799.185,104.004,-49.316,-256.348,14.648,24.414,0
1556031799.189,130.859,78.613,-139.160,23.438,20.020,0
1556031799.193,-65.430,-155.273,-339.355,20.996,1.953,0
1556031799.197,-135.742,-335.938,-501.465,28.809,17.578,0
1556031799.200,49.805,-56.152,-255.859,22.949,54.199,0
1556031799.204,163.086,-81.543,-261.719,26.855,41.992,0
1556031799.208,-11.230,-268.066,-437.012,15.137,21.484,0
1556031799.212,-147.461,-88.867,-300.293,14.160,31.250,0
1556031799.216,0.488,-67.383,-282.715,24.414,19.531,0
1556031799.219,126.465,12.207,-215.820,18.555,12.695,0
1556031799.223,27.344,95.703,-141.602,17.578,24.902,0
1556031799.227,-125.000,-18.066,-235.840,34.668,28.809,0
1556031799.231,-54.688,-154.297,-357.422,30.762,9.766,0
1556031799.235,128.418,-25.391,-245.605,26.367,22.949,0
1556031799.239,111.816,47.852,-166.016,30.273,57.129,0
1556031799.243,-83.496,-181.152,-367.188,42.480,23.926,0
1556031799.246,-95.703,-340.820,-506.836,41.504,27.832,0
1556031799.250,100.098,-312.500,-484.375,24.902,47.363,0
1556031799.254,151.367,45.898,-180.176,34.668,56.641,0
1556031799.258,-40.039,85.938,-136.719,32.715,33.691,0
1556031799.262,-117.676,-133.301,-327.148,33.203,38.574,0
1556031799.264,43.457,-59.082,-272.461,19.531,27.344,0
1556031799.268,130.371,187.500,-58.594,-1.953,36.133,0
1556031799.272,11.230,226.074,-6.348,21.484,127.930,0
1556031799.276,-123.535,-62.988,-263.184,40.527,83.496,0
1556031799.280,-7.324,-129.883,-345.215,22.461,4.395,0
1556031799.284,148.438,-2.930,-228.516,16.113,2.930,0
1556031799.288,66.406,-64.453,-273.438,26.855,-0.488,0
1556031799.291,-117.188,-421.387,-579.102,22.461,-5.859,0
1556031799.295,-75.684,-526.855,-680.664,0.977,5.859,0
1556031799.299,124.512,-59.570,-285.156,11.230,33.203,0
1556031799.303,129.883,145.020,-88.867,36.621,45.898,0
1556031799.307,-49.316,-37.598,-238.281,41.992,46.387,0
1556031799.309,-96.191,-132.812,-333.008,26.367,41.016,0
1556031799.313,71.777,53.223,-177.734,1.465,38.574,0
1556031799.317,152.344,127.441,-102.539,3.906,22.461,0
1556031799.321,-27.344,-52.734,-259.766,21.973,6.348,0
1556031799.325,-133.301,-107.422,-313.965,22.461,21.973,0
1556031799.329,27.344,-102.539,-314.453,1.465,8.301,0
1556031799.333,140.137,-106.934,-308.594,-8.301,5.371,0
1556031799.336,22.949,-295.898,-467.773,4.883,12.695,0
1556031799.340,-117.188,-234.863,-432.617,28.320,28.320,0
1556031799.344,-7.324,-25.391,-252.930,39.062,18.555,0
1556031799.348,183.594,41.016,-192.871,47.363,-20.508,0
1556031799.352,124.023,-20.020,-237.793,41.504,-12.207,0
1556031799.353,-98.633,-195.801,-395.508,14.160,-19.531,0
1556031799.357,-84.473,-77.637,-297.363,11.719,34.668,0
1556031799.361,111.816,119.629,-111.328,23.438,92.773,0
1556031799.365,115.234,176.270,-57.129,7.812,72.266,0
1556031799.369,-72.754,57.129,-166.992,3.906,45.410,0
1556031799.373,-99.609,-193.848,-395.020,33.691,12.207,0
1556031799.377,92.285,-336.426,-518.555,35.645,20.996,0
1556031799.380,151.367,-166.992,-369.141,22.461,41.504,0
1556031799.384,-10.742,51.758,-183.105,29.785,22.949,0
1556031799.388,-114.258,-58.105,-264.648,33.203,47.852,0
1556031799.392,21.973,-56.152,-264.648,18.066,61.035,0
1556031799.396,141.113,112.305,-130.371,20.508,2.441,0
1556031799.398,21.484,150.391,-89.844,23.438,14.160,0
1556031799.402,-132.324,-89.355,-294.922,22.461,17.578,0
1556031799.406,-36.621,-302.734,-496.094,26.855,-36.133,0
1556031799.410,127.930,-52.246,-278.809,22.461,21.973,0
1556031799.414,64.941,187.012,-55.176,16.602,60.547,0
1556031799.418,-108.398,-158.691,-345.215,20.020,34.180,0
1556031799.422,-91.797,-497.070,-650.879,17.578,39.062,0
1556031799.425,102.051,-136.230,-359.375,20.996,29.785,0
1556031799.429,127.930,201.660,-52.734,23.926,32.227,0
1556031799.433,-68.848,-37.109,-251.953,14.648,12.695,0
1556031799.437,-122.070,-205.078,-409.180,21.484,0.977,0
1556031799.441,56.641,49.316,-185.547,21.484,58.105,0
1556031799.459,167.969,151.367,-95.215,9.277,3.906,0
1556031799.463,13.672,-55.664,-278.809,21.973,-33.691,0
1556031799.467,-133.789,-163.574,-369.141,32.715,33.691,0
1556031799.471,-1.465,-22.461,-250.488,21.484,42.480,0
1556031799.475,164.062,121.094,-121.094,28.320,13.184,0
1556031799.479,63.477,-79.590,-290.039,35.156,-12.207,0
1556031799.483,-113.281,-382.324,-566.895,34.180,-15.137,0
1556031799.486,-54.199,-258.789,-473.633,15.137,-11.719,0
1556031799.490,116.211,45.898,-197.266,5.371,-10.254,0
1556031799.494,93.262,-146.484,-345.215,11.719,-2.930,0
1556031799.498,-97.168,-295.410,-478.516,27.344,31.250,0
1556031799.502,-97.168,-64.453,-280.273,16.113,68.848,0
1556031799.504,87.402,-1.465,-221.680,2.930,20.996,0
1556031799.508,116.699,0.000,-219.727,3.418,-19.043,0
1556031799.512,-53.711,-15.137,-228.516,12.695,21.484,0
1556031799.516,-124.512,-70.312,-269.043,31.738,53.223,0
1556031799.520,37.598,-58.105,-253.906,18.555,54.199,0
1556031799.524,143.555,-71.289,-262.207,19.531,20.020,0
1556031799.528,11.230,-200.684,-379.395,35.645,-9.766,0
1556031799.531,-125.488,-255.859,-442.383,40.039,-38.086,0
1556031799.535,3.418,-226.562,-405.273,35.645,5.371,0
1556031799.539,169.922,-249.512,-409.180,20.996,43.457,0
1556031799.543,66.895,-66.895,-270.020,19.531,-3.906,0
1556031799.547,-129.395,-77.637,-278.809,24.902,-18.066,0
1556031799.549,-64.941,-157.715,-344.238,34.668,32.227,0
1556031799.553,130.371,59.570,-149.414,36.133,86.426,0
1556031799.557,103.516,196.777,-20.508,24.414,70.801,0
1556031799.561,-88.379,37.109,-158.691,14.648,57.617,0
1556031799.565,-115.234,-177.246,-356.445,3.418,28.809,0
1556031799.569,70.801,-188.965,-375.000,18.066,-8.301,0
1556031799.573,135.742,-71.777,-267.090,12.695,24.414,0
1556031799.576,-30.762,-49.805,-239.258,4.395,65.430,0
1556031799.580,-131.836,-403.320,-541.992,16.113,31.250,0
1556031799.584,9.277,-375.488,-533.203,13.184,41.504,0
1556031799.588,153.809,110.840,-115.723,22.949,21.484,0
1556031799.592,37.598,-38.086,-230.957,27.832,-25.879,0
1556031799.594,-114.746,-259.277,-422.852,24.414,12.695,0
1556031799.598,-14.160,-136.719,-330.566,13.672,-4.395,0
1556031799.602,140.625,116.699,-104.980,1.465,8.301,0
1556031799.606,79.590,167.969,-28.320,2.930,108.887,0
1556031799.610,-100.098,-130.371,-292.480,12.695,46.875,0
1556031799.614,-66.406,-349.121,-509.766,26.367,-50.293,0
1556031799.618,116.211,-148.438,-341.309,20.020,-36.621,0
1556031799.621,125.000,-47.852,-237.305,11.230,-29.785,0
1556031799.625,-63.965,-363.770,-495.605,2.930,12.695,0
1556031799.629,-115.234,-293.945,-453.613,5.859,11.719,0
1556031799.633,68.848,5.859,-197.754,4.883,-15.137,0
1556031799.637,148.926,101.074,-95.215,9.766,19.531,0
1556031799.639,-26.367,-44.922,-224.609,5.371,-12.695,0
1556031799.643,-146.973,-96.680,-276.855,9.766,3.906,0
1556031799.647,1.953,-37.598,-209.961,3.906,77.637,0
1556031799.651,133.301,1.953,-173.828,-3.906,52.734,0
1556031799.655,26.367,42.969,-141.113,5.371,27.344,0
1556031799.659,-134.766,-192.383,-345.703,16.602,7.812,0
1556031799.663,-61.523,-243.652,-395.020,12.207,27.832,0
1556031799.666,118.164,-289.062,-432.129,26.855,-9.277,0
1556031799.670,98.633,-278.320,-426.758,48.340,-34.668,0
1556031799.674,-79.102,-76.660,-255.371,43.945,-4.883,0
1556031799.678,-84.473,-156.250,-321.777,33.691,-24.902,0
1556031799.682,103.027,-111.816,-288.086,23.926,-44.922,0
1556031799.684,125.000,130.859,-68.359,16.113,23.438,0
1556031799.688,-60.547,67.871,-116.211,16.113,23.926,0
1556031799.692,-109.375,-153.320,-308.105,30.273,15.625,0
1556031799.696,41.504,-94.727,-265.137,20.996,26.367,0
1556031799.700,124.512,101.074,-101.074,6.348,-6.836,0
1556031799.704,-20.996,-32.227,-207.520,6.836,5.859,0
1556031799.708,-150.391,-374.023,-505.371,34.180,-0.488,0
1556031799.711,-13.184,-563.965,-681.641,30.762,-31.250,0
1556031799.715,142.578,-182.129,-359.375,3.418,-18.555,0
1556031799.719,50.293,135.742,-64.941,21.973,21.484,0
1556031799.723,-116.699,-127.441,-282.715,23.926,12.695,0
1556031799.727,-45.410,-232.422,-394.043,8.301,-51.270,0
1556031799.729,122.070,-25.391,-217.285,9.277,-42.480,0
1556031799.733,81.543,140.625,-47.852,6.348,54.199,0
1556031799.737,-104.980,-14.160,-172.363,15.625,73.730,0
1556031799.741,-110.352,-110.840,-262.695,19.531,78.613,0
1556031799.745,97.168,86.426,-93.262,30.273,63.477,0
1556031799.749,139.648,50.781,-119.141,33.203,1.465,0
1556031799.753,-30.273,-325.684,-435.059,28.320,29.785,0
1556031799.756,-117.676,-445.801,-550.293,36.621,47.363,0
1556031799.760,23.926,-135.742,-300.293,24.414,-2.441,0
1556031799.764,156.250,48.340,-125.000,27.344,-9.277,0
1556031799.768,-7.812,18.555,-133.789,17.578,30.273,0
1556031799.772,-160.645,-101.562,-240.723,10.254,37.109,0
1556031799.774,-26.367,20.020,-135.254,20.508,69.824,0
1556031799.778,134.766,147.461,-9.766,11.719,90.820,0
1556031799.782,63.965,36.621,-108.398,9.277,55.176,0
1556031799.786,-106.934,-67.383,-209.473,30.762,63.965,0
1556031799.790,-54.199,-55.176,-206.543,44.434,73.730,0
1556031799.794,140.137,-94.727,-237.793,34.180,52.246,0
1556031799.798,117.188,-316.895,-433.594,29.297,28.320,0
1556031799.801,-86.914,-269.043,-412.109,23.438,28.320,0
1556031799.805,-105.957,-103.516,-262.207,14.648,61.523,0
1556031799.809,83.496,-39.062,-190.430,18.555,74.219,0
1556031799.813,142.578,84.473,-69.336,2.930,72.754,0
1556031799.817,-33.691,-65.430,-196.777,-2.930,33.203,0
1556031799.833,-137.695,-284.668,-400.391,18.555,-19.043,0
1556031799.837,18.066,-159.180,-294.922,12.695,24.414,0
1556031799.841,151.855,30.762,-121.094,4.395,54.688,0
1556031799.845,17.090,37.109,-114.258,-7.812,33.691,0
1556031799.849,-125.000,-110.840,-238.770,1.465,57.129,0
1556031799.853,-27.832,-253.906,-369.141,5.859,45.898,0
1556031799.857,121.094,-172.852,-303.711,6.836,38.574,0
1556031799.860,76.660,35.645,-113.770,6.348,68.359,0
1556031799.864,-105.957,-36.621,-164.551,-1.953,63.965,0
1556031799.868,-76.660,-427.734,-508.301,2.441,-1.465,0
1556031799.872,114.746,-308.594,-425.293,7.812,-23.438,0
1556031799.876,116.211,94.727,-71.777,13.672,3.418,0
1556031799.878,-71.777,-64.941,-190.918,16.113,33.691,0
1556031799.882,-126.953,-226.074,-333.496,12.695,45.898,0
1556031799.886,53.223,-141.113,-273.926,2.441,14.160,0
1556031799.890,137.207,-25.391,-170.898,9.277,-2.930,0
1556031799.894,-26.855,-76.660,-204.102,8.789,22.461,0
1556031799.898,-144.043,-321.777,-413.574,7.324,44.922,0
1556031799.902,-9.277,-235.840,-347.656,1.465,81.055,0
1556031799.905,136.719,127.441,-26.367,-3.418,96.680,0
1556031799.909,27.344,-17.578,-133.301,15.137,32.715,0
1556031799.913,-140.625,-466.309,-524.902,23.438,18.066,0
1556031799.917,-53.223,-237.305,-351.074,17.578,42.969,0
1556031799.921,129.883,102.051,-43.457,13.672,20.020,0
1556031799.923,90.820,62.500,-58.105,11.719,23.438,0
1556031799.927,-106.445,-111.816,-211.426,36.133,19.043,0
1556031799.931,-93.262,-145.508,-249.512,21.973,-8.301,0
1556031799.935,90.820,-0.977,-130.371,7.324,-25.391,0
1556031799.939,116.211,60.059,-62.012,15.625,1.953,0
1556031799.943,-72.754,-167.969,-253.906,5.859,19.043,0
1556031799.947,-155.762,-348.145,-425.293,-0.977,-7.324,0
1556031799.950,30.273,-243.164,-344.727,9.277,-28.320,0
1556031799.954,141.113,-246.094,-325.684,26.855,8.301,0
1556031799.958,-13.184,-278.809,-351.562,22.949,27.344,0
1556031799.962,-127.930,-101.074,-213.867,22.461,32.715,0
1556031799.966,8.789,-39.551,-154.785,19.043,35.156,0
1556031799.968,132.812,12.207,-111.816,14.160,-8.301,0
1556031799.972,35.645,83.008,-48.828,14.160,2.930,0
1556031799.976,-117.676,-11.230,-124.023,17.090,33.691,0
1556031799.980,-64.453,-134.277,-231.445,3.906,25.879,0
1556031799.984,112.793,-15.137,-125.000,-0.977,20.508,0
1556031799.988,104.980,49.805,-57.617,17.578,56.152,0
1556031799.992,-76.660,-142.090,-229.980,21.973,54.199,0
1556031799.995,-95.703,-273.438,-348.145,13.184,38.574,0
1556031799.999,102.051,-301.270,-371.582,34.180,48.828,0
1556031800.003,142.090,-18.555,-137.207,34.180,20.508,0
1556031800.007,-37.598,58.594,-66.406,1.953,5.859,0
1556031800.011,-103.027,-165.527,-259.277,29.297,19.043,0
1556031800.013,33.203,-104.492,-219.727,32.227,7.324,0
1556031800.017,132.324,180.664,29.785,-3.418,47.363,0
1556031800.021,0.488,187.500,52.246,11.719,96.191,0
1556031800.025,-153.320,-111.328,-216.797,13.672,44.922,0
1556031800.029,-15.137,-129.883,-248.047,-13.672,21.973,0
1556031800.033,166.992,-16.113,-144.043,1.953,33.691,0
1556031800.037,62.988,-15.625,-143.066,18.066,24.902,0
1556031800.040,-118.652,-349.609,-425.781,24.414,27.832,0
1556031800.044,-64.453,-495.117,-565.918,17.578,6.836,0
1556031800.048,122.070,5.859,-143.555,17.578,-0.977,0
1556031800.052,123.047,139.160,-2.930,20.508,22.949,0
1556031800.056,-69.336,-171.387,-266.602,16.602,15.625,0
1556031800.058,-102.051,-217.285,-322.266,29.785,27.344,0
1556031800.062,113.281,60.547,-83.984,37.109,37.109,0
1556031800.066,163.086,92.285,-40.039,22.461,7.812,0
1556031800.070,-43.457,-128.906,-237.793,-1.953,-25.879,0
1556031800.074,-141.602,-207.520,-321.777,3.418,-23.926,0
1556031800.078,18.066,-155.762,-274.902,1.953,5.371,0
1556031800.082,135.254,-111.328,-222.168,-6.348,29.785,0
1556031800.085,9.277,-290.039,-372.070,-10.742,26.367,2
1556031800.089,-124.023,-271.973,-373.047,-8.789,28.809,0
1556031800.093,-12.207,-45.410,-179.688,-6.836,30.273,0
1556031800.097,160.645,41.992,-92.285,19.043,15.137,0
1556031800.101,92.285,58.594,-69.824,24.902,20.996,0
1556031800.103,-106.934,-11.230,-128.418,16.602,38.574,0
1556031800.107,-70.801,-16.602,-124.512,18.555,89.844,0
1556031800.111,129.883,28.809,-87.402,10.742,70.801,0
1556031800.115,122.070,112.793,-17.090,-3.906,53.223,0
1556031800.119,-58.594,24.414,-89.844,0.977,37.598,0
1556031800.123,-103.516,-207.520,-291.504,13.672,21.973,0
1556031800.127,48.340,-342.285,-401.855,5.859,43.457,0
1556031800.130,130.371,-242.676,-322.754,10.742,11.230,0
1556031800.134,-23.438,9.766,-113.281,0.488,20.996,0
1556031800.138,-149.902,-124.023,-227.539,-2.441,12.695,0
1556031800.142,-13.672,-161.133,-270.508,0.000,1.953,0
1556031800.146,142.578,94.238,-48.828,-7.812,25.391,0
1556031800.148,35.645,81.055,-52.734,11.230,38.574,0
1556031800.152,-129.395,-180.176,-275.879,32.227,40.527,0
1556031800.156,-48.340,-216.309,-320.312,13.184,15.137,0
1556031800.160,138.672,19.043,-124.512,10.254,-2.930,0
1556031800.164,98.145,146.484,1.953,20.508,21.973,0
1556031800.168,-105.957,-172.852,-260.254,9.766,37.598,0
1556031800.172,-75.684,-541.016,-590.820,16.113,26.855,0
1556031800.175,121.582,-196.289,-313.965,25.391,15.137,0
1556031800.179,125.000,139.648,-12.207,10.742,-2.930,0
1556031800.183,-53.223,-44.434,-153.809,9.766,41.504,0
1556031800.187,-123.535,-166.992,-261.230,20.020,75.684,0
1556031800.191,50.781,-4.395,-135.742,13.672,29.297,0
1556031800.208,132.324,143.066,-8.789,13.672,9.766,0
1556031800.212,-20.020,-14.160,-139.648,17.578,17.578,0
1556031800.216,-136.230,-220.703,-330.566,15.137,10.254,0
1556031800.220,4.883,-68.359,-207.031,29.785,43.457,0
1556031800.224,169.434,124.512,-31.250,41.016,34.668,0
1556031800.228,77.637,-79.590,-203.125,31.738,-11.719,0
1556031800.232,-104.492,-339.844,-435.547,32.715,11.719,0
1556031800.235,-63.477,-207.031,-334.473,21.973,25.391,0
1556031800.239,100.586,77.148,-69.336,12.695,110.840,0
1556031800.243,87.402,-105.957,-213.379,12.695,104.980,0
1556031800.247,-92.285,-299.316,-408.691,14.160,16.602,0
1556031800.251,-107.422,-116.699,-263.184,19.531,20.996,0
1556031800.253,75.684,-62.500,-217.773,6.348,-24.902,0
1556031800.257,130.371,-21.484,-180.176,2.930,-31.250,0
1556031800.261,-43.945,-31.250,-188.477,8.301,0.000,0
1556031800.265,-126.953,-73.242,-223.145,6.836,41.504,0
1556031800.269,52.246,-26.855,-173.340,27.344,73.242,0
1556031800.273,169.922,-61.523,-201.660,41.504,33.203,0
1556031800.277,26.367,-180.664,-321.289,15.137,-27.344,0
1556031800.280,-121.094,-184.570,-336.426,7.812,-14.648,0
1556031800.284,-16.602,-196.777,-336.426,9.277,20.996,0
1556031800.288,120.117,-240.723,-368.652,5.859,36.621,0
1556031800.292,58.594,2.930,-158.691,16.602,72.754,0
1556031800.296,-103.516,-56.641,-199.219,30.273,75.684,0
1556031800.298,-68.848,-201.172,-334.473,26.367,45.898,0
1556031800.302,109.863,8.789,-160.156,29.297,28.809,0
1556031800.306,104.492,176.270,-2.441,38.086,40.527,0
1556031800.310,-76.172,19.043,-138.672,20.996,32.227,0
1556031800.314,-108.398,-195.312,-331.543,0.977,38.086,0
1556031800.318,69.824,-201.172,-342.285,-6.348,9.766,0
1556031800.322,155.273,-99.609,-255.371,14.160,-7.324,0
1556031800.325,-23.438,-92.285,-253.418,29.297,-26.367,0
1556031800.329,-160.645,-392.090,-501.953,9.277,6.836,0
1556031800.333,0.000,-364.746,-481.445,0.488,46.387,0
1556031800.337,134.766,132.324,-59.570,3.906,17.090,0
1556031800.341,17.578,94.727,-73.730,-2.930,14.160,0
1556031800.343,-136.719,-159.180,-297.852,2.441,20.508,0
1556031800.347,-39.062,-42.480,-200.195,12.695,67.871,0
1556031800.351,135.254,104.492,-66.895,5.859,51.758,0
1556031800.355,66.895,25.879,-137.207,4.395,12.207,0
1556031800.359,-116.699,-168.457,-311.035,24.414,-9.277,0
1556031800.363,-92.285,-247.559,-388.184,27.344,1.953,0
1556031800.367,104.980,-80.566,-243.652,2.441,36.133,0
1556031800.370,120.605,-97.656,-249.512,-15.625,-11.230,0
1556031800.374,-64.453,-326.172,-446.289,11.230,16.113,0
1556031800.378,-92.285,-196.777,-348.633,42.480,49.805,0
1556031800.382,63.477,70.801,-122.559,19.043,2.441,0
1556031800.386,125.977,55.176,-119.629,1.465,15.137,0
1556031800.388,-9.277,-90.820,-237.793,11.719,31.738,0
1556031800.392,-142.578,-121.094,-283.203,8.789,-20.020,0
1556031800.396,-20.996,-32.715,-212.402,15.137,-14.648,0
1556031800.400,141.113,117.676,-66.406,36.133,32.227,0
1556031800.404,23.926,113.281,-64.941,15.137,49.316,0
1556031800.408,-145.020,-89.355,-237.793,26.367,74.219,0
1556031800.412,-52.734,-202.637,-348.145,40.039,58.105,0
1556031800.415,123.535,-240.234,-381.836,21.973,21.973,0
1556031800.419,65.918,-200.195,-353.516,-2.441,15.137,0
1556031800.423,-116.699,-20.020,-206.543,-2.930,34.180,0
1556031800.427,-96.680,-91.309,-262.695,9.277,13.184,0
1556031800.431,87.402,-16.602,-200.684,11.719,4.395,0
1556031800.435,114.258,180.664,-21.484,20.020,33.691,0
1556031800.439,-58.105,96.191,-89.355,35.156,22.461,0
1556031800.443,-117.188,-167.969,-329.102,28.320,-10.254,0
1556031800.447,41.992,-83.008,-259.766,17.090,33.203,0
1556031800.451,141.113,157.227,-47.363,13.672,25.391,0
1556031800.455,-0.977,-10.742,-194.336,14.648,10.742,0
1556031800.459,-135.254,-302.246,-448.730,36.133,41.992,0
1556031800.462,-12.207,-440.430,-576.172,22.949,6.348,0
1556031800.466,138.184,-131.348,-315.430,22.949,11.230,0
1556031800.470,41.504,145.020,-62.500,25.391,49.805,0
1556031800.474,-135.254,-93.262,-271.484,15.137,15.625,0
1556031800.478,-71.777,-152.832,-338.379,16.602,9.277,0
1556031800.478,116.211,114.746,-106.445,12.695,20.508,0
1556031800.482,103.516,151.855,-70.312,16.113,-12.695,0
1556031800.486,-83.496,-83.008,-273.438,22.461,-3.418,0
1556031800.490,-112.305,-152.344,-337.402,12.207,33.203,0
1556031800.494,65.430,34.180,-181.152,0.977,9.766,0
1556031800.498,126.465,84.961,-124.512,6.348,29.785,0
1556031800.502,-49.316,-287.109,-433.105,19.531,50.781,0
1556031800.505,-129.395,-502.930,-642.578,16.602,-6.348,0
1556031800.509,38.086,-70.801,-286.133,17.090,3.906,0
1556031800.513,162.109,171.387,-51.758,42.969,23.438,0
1556031800.517,27.344,15.137,-177.734,48.340,20.020,0
1556031800.521,-139.648,-130.859,-304.199,34.668,75.684,0
1556031800.523,-33.691,-8.789,-208.008,21.973,81.543,0
1556031800.527,132.812,129.883,-85.938,6.348,38.574,0
1556031800.531,63.477,-29.785,-230.957,6.836,-41.016,0
1556031800.535,-121.094,-75.195,-273.926,13.184,29.297,0
1556031800.539,-85.938,-2.441,-206.055,10.254,81.055,0
1556031800.543,107.422,-58.105,-252.441,25.879,31.738,0
1556031800.547,113.770,-240.723,-406.250,41.504,37.109,0
1556031800.550,-74.219,-201.172,-389.160,44.922,29.785,0
1556031800.554,-116.211,-75.684,-284.668,31.738,31.738,0
1556031800.558,81.543,-30.762,-242.188,21.973,30.273,0
1556031800.562,145.508,137.207,-84.961,11.230,78.613,0
1556031800.566,-33.203,153.320,-62.988,1.953,95.215,0
1556031800.583,-128.418,-118.652,-313.965,36.133,28.320,0
1556031800.587,16.113,-122.070,-322.754,33.203,55.664,0
1556031800.591,149.902,50.293,-166.016,21.484,74.707,0
1556031800.595,27.832,71.777,-151.367,30.273,42.969,0
1556031800.599,-143.066,-39.551,-251.465,35.156,42.480,0
1556031800.603,-45.898,-169.434,-369.141,21.973,52.246,0
1556031800.607,128.906,-132.812,-349.121,-21.973,15.137,0
1556031800.610,71.777,20.996,-218.750,-19.043,3.906,0
1556031800.614,-100.586,-6.348,-230.469,14.648,29.785,0
1556031800.618,-75.195,-359.375,-537.598,18.555,-1.465,0
1556031800.622,102.051,-229.980,-442.383,12.695,0.977,0
1556031800.626,117.676,153.320,-107.910,12.207,10.742,0
1556031800.628,-63.477,16.602,-208.984,14.648,51.270,0
1556031800.632,-112.305,-178.223,-382.812,4.883,48.340,0
1556031800.636,65.918,-38.086,-278.320,7.812,0.000,0
1556031800.640,152.344,199.707,-60.547,17.578,37.598,0
1556031800.644,3.418,85.449,-139.648,26.367,87.891,0
1556031800.648,-125.488,-273.438,-458.496,30.762,36.621,0
1556031800.652,17.578,-277.832,-481.934,18.066,10.742,0
1556031800.655,169.434,77.637,-162.598,2.930,69.336,0
1556031800.659,44.922,10.254,-205.078,-17.578,43.945,0
1556031800.663,-128.906,-464.355,-624.512,2.441,-19.531,0
1556031800.667,-41.992,-225.098,-430.664,11.719,35.156,0
1556031800.671,131.348,186.035,-56.152,9.766,55.176,0
1556031800.674,79.102,120.117,-93.750,3.906,26.855,0
1556031800.678,-113.770,-90.332,-275.879,-9.277,1.953,0
1556031800.682,-111.328,-111.328,-298.828,3.906,-9.766,0
1556031800.686,87.402,111.328,-89.355,20.508,35.645,0
1556031800.690,127.441,175.293,-4.395,21.973,44.434,0
1556031800.694,-60.547,-125.977,-258.301,9.277,-11.719,0
1556031800.698,-132.324,-328.613,-440.430,4.883,-18.555,0
1556031800.701,48.828,-33.203,-177.246,6.348,31.738,0
1556031800.705,148.926,-56.152,-167.480,12.695,20.020,0
1556031800.709,-13.672,-264.648,-346.191,12.695,-11.719,0
1556031800.713,-150.879,-53.223,-173.340,17.578,19.531,0
1556031800.717,2.930,34.668,-82.520,29.785,49.316,0
1556031800.718,149.902,102.051,-18.066,15.137,25.879,0
1556031800.722,36.133,176.758,48.828,4.883,41.504,0
1556031800.726,-130.859,48.828,-59.570,14.160,33.203,0
1556031800.730,-53.711,-81.543,-178.223,-0.977,20.996,0
1556031800.734,118.652,26.367,-88.379,-0.977,17.090,0
1556031800.738,80.078,-8.301,-116.211,-16.602,-10.742,0
1556031800.742,-102.539,-109.375,-204.102,-27.832,37.598,0
1556031800.745,-143.066,-169.922,-252.930,-28.809,51.758,0
1556031800.749,27.344,-249.023,-319.336,-45.410,58.594,0
1556031800.753,70.801,53.223,-71.777,-61.523,42.480,0
1556031800.757,-120.117,30.273,-86.914,-64.941,-5.859,0
1556031800.761,-217.773,-233.887,-314.453,-69.824,35.645,0
1556031800.763,-75.195,-45.410,-165.039,-95.215,60.547,0
1556031800.767,32.715,210.449,55.664,-112.793,42.969,0
1556031800.771,-115.234,129.395,-15.625,-128.906,28.320,0
1556031800.775,-262.207,-108.887,-227.051,-127.441,46.387,0
1556031800.779,-154.297,-95.703,-228.027,-122.559,43.945,0
1556031800.783,-2.441,21.973,-118.652,-125.000,47.363,0
1556031800.787,-79.590,-19.531,-154.297,-139.160,9.766,0
1556031800.790,-260.254,-333.008,-419.922,-132.812,30.762,0
1556031800.794,-228.027,-439.453,-522.461,-139.160,51.270,0
1556031800.798,-28.809,-35.156,-201.660,-149.902,-47.852,0
1556031800.802,-21.484,61.523,-104.492,-132.324,-59.082,0
1556031800.806,-221.680,-132.324,-260.742,-135.742,-1.465,0
1556031800.808,-266.113,-163.574,-303.223,-158.691,12.695,0
1556031800.812,-76.660,12.695,-156.250,-165.527,10.254,0
1556031800.816,9.766,-22.949,-174.805,-136.719,0.000,0
1556031800.820,-148.926,-184.570,-327.148,-97.656,-24.902,0
1556031800.824,-251.465,-184.082,-333.984,-81.543,1.465,0
1556031800.828,-89.355,-158.203,-303.711,-93.750,5.859,0
1556031800.832,66.406,-145.996,-285.645,-92.285,0.977,0
1556031800.835,-60.059,-323.242,-437.988,-88.867,26.367,0
1556031800.839,-223.145,-303.223,-436.035,-62.988,23.438,0
1556031800.843,-117.676,-73.730,-244.629,-57.129,20.996,0
1556031800.847,63.965,-13.184,-189.941,-53.223,-10.742,0
1556031800.851,27.832,-60.547,-229.980,-36.133,-53.711,0
1556031800.853,-131.836,-91.797,-250.977,-6.348,0.488,0
1556031800.857,-104.004,-98.145,-251.953,1.465,31.738,0
1556031800.861,90.332,-27.832,-192.383,0.000,23.926,0
1556031800.865,123.047,77.637,-94.727,18.555,38.574,0
1556031800.869,-51.270,-60.059,-206.055,19.531,39.062,0
1556031800.873,-110.352,-319.824,-442.383,25.391,14.648,0
1556031800.877,70.801,-374.023,-492.676,35.645,56.152,0
1556031800.880,168.945,-274.414,-415.039,45.410,21.484,0
1556031800.884,27.344,-50.781,-236.328,48.828,4.395,0
1556031800.888,-97.656,-95.215,-256.348,52.246,75.195,0
1556031800.892,31.250,-185.547,-347.656,35.645,8.301,0
1556031800.896,191.895,6.836,-192.871,41.016,-17.578,0
1556031800.898,85.938,114.746,-83.984,65.430,46.387,0
1556031800.902,-83.496,-107.422,-264.648,77.148,63.965,0
1556031800.906,-7.812,-246.094,-399.414,69.824,19.531,0
1556031800.910,169.922,1.953,-197.754,61.523,16.602,0
1556031800.914,145.508,104.004,-97.656,66.895,8.789,0
1556031800.918,-41.504,-257.324,-397.949,86.426,5.859,0
1556031800.922,-27.832,-600.098,-707.520,99.609,3.418,0
1556031800.925,171.875,-266.113,-438.965,92.285,-2.930,0
1556031800.929,186.035,86.426,-117.676,83.496,62.988,0
1556031800.933,-9.766,-46.875,-220.703,69.824,105.469,0
1556031800.937,-76.660,-195.312,-364.258,65.918,55.176,0
1556031800.941,105.469,-58.594,-265.137,86.426,1.465,0
1556031800.958,202.148,135.742,-88.379,84.473,17.578,0
1556031800.962,53.223,-57.129,-250.488,70.312,19.043,0
1556031800.966,-75.195,-241.699,-416.016,79.590,35.645,0
1556031800.970,53.711,-119.629,-322.754,75.684,-3.418,0
1556031800.974,197.266,50.781,-173.828,66.895,-19.043,0
1556031800.978,98.145,-108.887,-304.199,61.035,-17.578,0
1556031800.982,-93.750,-372.559,-535.156,62.988,-3.906,0
1556031800.985,-41.016,-201.172,-391.113,51.270,44.922,0
1556031800.989,156.738,39.551,-183.594,38.574,-0.488,0
1556031800.993,131.836,-159.180,-344.727,48.828,-20.996,0
1556031800.997,-40.039,-419.434,-577.148,63.477,-0.977,0
1556031801.001,-51.758,-284.180,-470.215,65.918,17.090,0
1556031801.003,122.559,-152.832,-360.840,60.059,-24.414,0
1556031801.007,184.570,-37.109,-248.047,77.637,5.371,0
1556031801.011,5.371,-8.789,-215.820,81.543,41.016,0
1556031801.015,-95.703,-136.719,-333.008,67.383,2.441,0
1556031801.019,68.359,-102.539,-300.781,64.941,20.996,0
1556031801.023,179.688,-59.570,-253.906,63.965,38.086,0
1556031801.027,43.945,-125.977,-312.988,63.965,48.340,0
1556031801.030,-85.938,-130.371,-317.871,87.891,62.988,0
1556031801.034,35.156,-187.500,-364.258,81.543,35.645,0
1556031801.038,189.941,-251.465,-416.504,63.965,41.992,0
1556031801.042,102.051,-54.199,-259.277,68.359,25.879,0
1556031801.046,-69.824,-31.250,-234.863,63.965,40.527,0
1556031801.048,-35.156,-169.434,-357.422,61.523,20.996,0
1556031801.052,144.043,-85.938,-290.039,43.945,-7.324,0
1556031801.056,152.344,18.066,-186.523,46.387,11.230,0
1556031801.060,-29.297,-75.684,-268.555,60.547,-11.719,0
1556031801.064,-60.059,-195.312,-372.559,40.039,1.465,0
1556031801.068,114.258,-130.859,-310.547,28.320,41.016,0
1556031801.072,164.551,-56.152,-239.258,30.762,28.809,0
1556031801.075,1.465,-84.473,-277.344,44.922,-30.273,0
1556031801.079,-96.680,-334.961,-484.863,67.871,40.527,0
1556031801.083,44.922,-356.445,-517.578,53.223,49.316,0
1556031801.087,168.457,71.777,-168.945,51.270,-29.785,0
1556031801.091,46.875,46.875,-175.781,45.410,-16.602,0
1556031801.093,-95.215,-144.043,-333.984,56.641,50.293,0
1556031801.097,-0.488,-96.680,-307.129,61.035,20.996,0
1556031801.101,166.992,127.930,-110.840,54.199,9.766,0
1556031801.105,94.727,85.449,-133.789,56.641,9.766,0
1556031801.109,-105.469,-196.289,-375.000,48.828,20.508,0
1556031801.113,-57.617,-269.043,-439.941,47.363,67.871,0
1556031801.117,137.207,-69.824,-279.297,60.059,59.570,0
1556031801.120,136.719,28.320,-184.570,58.105,51.758,0
1556031801.124,-37.109,-292.480,-454.102,45.410,57.129,0
1556031801.128,-91.797,-245.605,-439.941,49.805,52.734,0
1556031801.132,79.590,116.211,-126.953,52.246,69.824,0
1556031801.136,163.086,152.344,-82.031,44.434,46.875,0
1556031801.138,-3.906,-2.930,-223.633,36.621,5.859,0
1556031801.142,-110.840,-83.984,-304.199,45.410,7.324,2
1556031801.146,21.973,-26.855,-263.672,29.297,2.441,0
1556031801.150,147.949,68.359,-181.641,29.785,-2.441,0
1556031801.154,49.805,40.039,-201.172,39.551,2.441,0
1556031801.158,-103.027,-168.945,-376.465,42.969,48.340,0
1556031801.162,-32.227,-120.605,-337.402,50.781,97.656,0
1556031801.165,128.906,-179.688,-391.602,35.645,14.160,0
1556031801.169,98.145,-225.098,-432.129,27.344,23.926,0
1556031801.173,-87.402,-29.785,-273.438,39.062,39.551,0
1556031801.177,-96.680,-109.863,-344.238,31.250,0.977,0
1556031801.181,87.891,-62.500,-306.152,24.414,-17.090,0
1556031801.183,139.648,99.609,-165.039,45.410,-15.625,0
1556031801.187,-27.344,85.449,-166.992,54.688,33.691,0
1556031801.191,-104.980,-118.164,-342.773,46.387,37.109,0
1556031801.195,62.500,-134.277,-378.418,36.133,-18.066,0
1556031801.199,144.531,103.027,-170.410,24.902,-5.371,0
1556031801.203,-5.859,-7.324,-252.930,24.902,21.484,0
1556031801.207,-131.836,-315.918,-516.602,43.457,49.316,0
1556031801.210,-15.137,-405.273,-603.027,23.926,65.918,0
1556031801.214,134.766,-53.711,-316.406,6.836,22.461,0
1556031801.218,59.570,181.641,-98.633,20.508,29.785,0
1556031801.222,-98.633,-100.586,-333.008,27.832,39.062,0
1556031801.226,-40.527,-252.441,-486.328,13.184,-10.742,0
1556031801.228,132.324,62.988,-220.215,8.789,0.488,0
1556031801.232,113.770,164.551,-121.582,22.461,-12.695,0
1556031801.236,-60.547,-28.320,-278.320,36.133,47.363,0
1556031801.240,-101.562,-137.695,-379.395,29.297,46.387,0
1556031801.244,55.664,-11.719,-285.156,10.742,-33.203,0
1556031801.248,117.676,73.242,-198.242,34.668,13.184,0
1556031801.252,-34.180,-314.453,-521.484,49.805,17.090,0
1556031801.255,-123.535,-493.164,-692.383,25.391,11.719,0
1556031801.259,47.363,-32.227,-304.688,20.996,47.852,0
1556031801.263,164.551,160.156,-121.582,29.785,9.277,0
1556031801.267,27.832,19.043,-234.375,29.785,10.742,0
1556031801.271,-130.371,-66.895,-310.059,27.832,59.082,0
1556031801.273,-39.062,52.734,-205.566,15.625,78.613,0
1556031801.277,137.207,101.562,-154.297,27.832,56.641,0
1556031801.281,77.148,0.488,-240.723,38.086,33.203,0
1556031801.285,-101.074,-56.152,-293.457,41.016,44.922,0
1556031801.289,-66.895,-70.801,-312.988,25.391,16.113,0
1556031801.293,109.375,-105.957,-341.309,25.391,-11.230,0
1556031801.297,95.703,-264.160,-466.797,17.578,25.391,0
1556031801.300,-85.938,-216.309,-436.523,4.395,25.879,0
1556031801.304,-114.258,-66.895,-305.664,17.090,35.156,0
1556031801.308,62.012,26.367,-208.984,16.602,78.613,0
1556031801.312,136.719,114.746,-129.395,24.414,58.594,0
1556031801.316,-29.785,73.730,-172.852,27.344,33.691,0
