timestamps,TP9,AF7,AF8,TP10,Right AUX,Marker0
1556046918.116,72.266,119.629,924.805,48.828,180.664,0
1556046918.120,128.418,329.102,-986.816,32.227,185.547,0
1556046918.124,98.633,295.898,994.629,57.617,203.125,0
1556046918.128,9.766,140.137,994.629,66.406,226.074,0
1556046918.132,36.133,131.836,998.535,58.594,219.727,0
1556046918.136,136.719,136.719,990.723,71.777,187.988,0
1556046918.140,114.258,191.406,-973.633,74.707,205.566,0
1556046918.143,28.809,10.254,883.789,90.332,230.957,0
1556046918.147,12.695,-81.543,826.660,80.078,230.957,0
1556046918.151,92.773,262.207,-993.652,52.246,215.332,0
1556046918.155,125.488,310.059,-996.094,56.641,210.938,0
1556046918.159,29.785,146.484,989.746,60.059,230.469,0
1556046918.161,-17.090,125.000,999.023,65.430,251.465,0
1556046918.165,65.918,104.980,984.863,62.988,224.121,0
1556046918.169,131.348,46.875,969.238,63.477,218.262,0
1556046918.173,59.082,52.246,966.309,72.266,249.512,0
1556046918.177,-26.855,21.484,938.965,69.336,270.996,0
1556046918.181,22.461,-48.340,856.934,58.594,262.695,0
1556046918.185,117.188,-69.336,828.125,66.895,244.141,0
1556046918.188,99.609,-260.742,615.723,87.891,225.098,0
1556046918.192,-37.109,-217.285,558.594,47.363,241.699,0
1556046918.196,-35.156,16.602,737.793,25.391,251.465,0
1556046918.200,52.734,56.641,807.617,32.227,270.020,0
1556046918.204,35.645,14.648,772.949,19.043,253.906,0
1556046918.206,-36.621,-34.180,678.223,30.273,238.281,0
1556046918.210,-61.523,-49.316,623.047,27.344,265.137,0
1556046918.214,-7.812,-27.344,612.793,-1.465,263.672,0
1556046918.218,7.812,63.477,672.852,-18.555,271.973,0
1556046918.222,-40.527,-66.895,503.906,0.488,254.883,0
1556046918.226,-99.609,-287.109,191.406,-8.789,233.398,0
1556046918.230,-39.062,-385.742,3.418,-29.785,208.984,0
1556046918.233,-1.953,-269.531,46.875,-47.852,202.148,0
1556046918.237,-102.051,-2.930,279.785,-83.496,231.445,0
1556046918.241,-192.383,-125.977,151.855,-79.590,217.773,0
1556046918.245,-182.129,-213.379,10.742,-104.004,196.289,0
1556046918.249,-108.398,-65.430,125.000,-110.840,192.383,0
1556046918.250,-144.043,2.930,190.430,-119.141,199.219,0
1556046918.254,-252.930,-172.363,-9.277,-136.719,191.895,0
1556046918.258,-222.656,-224.609,-122.070,-137.695,196.777,0
1556046918.262,-134.277,-6.348,49.805,-162.109,200.195,0
1556046918.266,-149.414,151.855,240.234,-169.922,231.445,0
1556046918.270,-220.703,-135.254,-20.996,-144.043,212.891,0
1556046918.274,-261.230,-461.426,-455.566,-162.109,159.668,0
1556046918.277,-212.402,-189.941,-282.227,-207.031,181.152,0
1556046918.281,-165.527,82.031,24.902,-204.102,206.055,0
1556046918.285,-211.914,-45.898,-81.055,-181.152,182.617,0
1556046918.289,-268.066,-206.055,-279.785,-173.340,155.273,0
1556046918.293,-223.145,-89.844,-188.965,-195.801,152.344,0
1556046918.311,-128.906,31.738,-47.852,-185.059,157.715,0
1556046918.315,-146.973,-94.238,-161.621,-150.879,150.879,0
1556046918.319,-238.770,-269.531,-394.531,-145.508,129.883,0
1556046918.323,-230.469,-211.914,-411.621,-162.109,121.582,0
1556046918.327,-128.418,-69.336,-272.949,-156.250,139.160,0
1556046918.331,-118.652,-232.422,-441.406,-133.789,121.094,0
1556046918.335,-225.586,-482.422,-804.199,-116.699,64.941,0
1556046918.338,-228.516,-337.891,-768.555,-119.629,81.543,0
1556046918.342,-99.121,-223.633,-669.922,-113.770,72.266,0
1556046918.346,-62.500,-383.301,-866.211,-100.098,-8.789,0
1556046918.350,-139.160,-553.711,-987.305,-89.355,-27.832,0
1556046918.354,-166.504,-598.145,-964.844,-89.355,-25.879,0
1556046918.356,-87.891,-548.340,-971.191,-95.215,-76.172,0
1556046918.360,-20.508,-718.262,-972.656,-70.312,-129.395,0
1556046918.364,-99.121,-743.652,-972.168,-78.125,-139.160,0
1556046918.368,-172.363,-727.539,-972.168,-103.027,-175.293,0
1556046918.372,-113.281,-804.688,-972.168,-114.746,-220.703,0
1556046918.376,-37.598,-829.102,-972.168,-110.352,-243.652,0
1556046918.380,-89.844,-910.156,-972.168,-123.047,-286.133,0
1556046918.383,-202.637,-975.098,-972.168,-144.531,-351.074,0
1556046918.387,-183.105,-971.191,-972.168,-149.414,-406.738,0
1556046918.391,-112.793,-971.191,-972.168,-179.199,-475.098,0
1556046918.395,-161.133,-972.168,-972.168,-219.238,-534.180,0
1556046918.399,-265.625,-972.168,-972.168,-215.820,-543.945,0
1556046918.401,-264.160,-972.168,-972.168,-217.773,-585.938,0
1556046918.405,-134.766,-972.168,-972.168,-210.938,-625.000,0
1556046918.409,-107.422,-972.656,-972.168,-210.938,-626.953,0
1556046918.413,-195.801,-970.215,-972.168,-202.148,-645.508,0
1556046918.417,-194.336,-971.680,-972.168,-173.828,-670.898,0
1556046918.421,-110.840,-967.773,-972.168,-169.434,-650.879,0
1556046918.425,-55.664,-867.676,-972.168,-175.293,-604.004,0
1556046918.428,-104.492,-761.230,-972.168,-162.598,-599.121,0
1556046918.432,-159.180,-913.574,-972.168,-119.629,-627.930,0
1556046918.436,-100.586,-819.336,-972.168,-124.512,-600.098,0
1556046918.440,-20.996,-375.488,-972.168,-139.160,-558.105,0
1556046918.444,-34.668,-286.621,-972.168,-113.770,-519.531,0
1556046918.446,-85.449,-425.293,-972.168,-85.449,-503.906,0
1556046918.450,-65.430,-362.793,-972.168,-82.520,-500.488,0
1556046918.454,31.738,-147.461,-972.168,-85.938,-467.773,0
1556046918.458,50.293,-139.648,-972.168,-72.754,-443.848,0
1556046918.462,-51.270,-349.609,-972.168,-57.617,-435.547,0
1556046918.466,-57.617,-394.531,-972.168,-57.129,-405.273,0
1556046918.470,35.645,-250.977,-972.168,-64.453,-407.715,0
1556046918.473,69.824,-173.340,-972.168,-48.828,-405.762,0
1556046918.477,14.160,-371.094,-972.168,-23.926,-397.949,0
1556046918.481,-49.805,-247.559,-972.168,-35.156,-358.887,0
1556046918.485,34.668,15.625,-972.168,-26.855,-345.703,0
1556046918.489,108.887,95.703,-972.168,-17.578,-303.711,0
1556046918.491,49.316,59.570,-972.168,-10.254,-276.367,0
1556046918.495,-23.926,-28.320,-972.168,-1.953,-294.922,0
1556046918.499,15.625,18.555,-972.168,-11.719,-283.203,0
1556046918.503,92.773,128.906,-972.168,-20.508,-260.254,0
1556046918.507,73.730,182.129,-972.168,-0.488,-219.727,0
1556046918.511,-9.277,27.344,-972.168,27.832,-218.262,0
1556046918.515,-5.859,-7.812,-972.168,19.531,-201.660,0
1556046918.518,96.191,-4.883,-972.168,16.602,-186.035,0
1556046918.522,112.793,40.527,-972.168,14.160,-197.266,0
1556046918.526,18.066,198.730,-972.168,17.090,-214.844,0
1556046918.530,-16.113,159.668,-972.168,32.227,-186.035,0
1556046918.534,69.336,235.840,-972.168,28.809,-118.652,0
1556046918.536,118.164,310.547,-972.168,31.250,-149.414,0
1556046918.540,49.805,272.949,-972.168,28.320,-160.645,0
1556046918.544,-13.672,128.906,-972.168,34.180,-133.301,0
1556046918.548,35.156,119.629,-972.168,23.438,-139.648,0
1556046918.552,100.586,298.828,-972.168,6.348,-117.676,0
1556046918.556,67.871,196.289,-972.168,19.531,-100.098,0
1556046918.560,1.465,-81.543,-972.168,46.875,-115.234,0
1556046918.563,11.719,-162.109,-972.168,21.484,-113.281,0
1556046918.567,74.219,207.520,-972.168,-11.230,-66.406,0
1556046918.571,81.055,408.691,-972.168,16.602,-44.434,0
1556046918.575,-4.883,108.887,-972.168,35.645,-78.613,0
1556046918.579,-31.250,66.406,-972.168,25.391,-41.504,0
1556046918.581,66.895,221.680,-972.168,16.113,-75.684,0
1556046918.585,95.215,252.441,-972.168,22.949,-91.797,0
1556046918.589,-7.324,113.281,-972.168,30.762,-30.762,0
1556046918.593,-43.945,14.648,-972.168,34.180,-13.672,0
1556046918.597,52.734,137.207,-972.168,30.762,-33.691,0
1556046918.601,118.164,152.832,-972.656,34.668,-42.969,0
1556046918.605,71.777,-114.746,-968.262,56.641,-44.922,0
1556046918.608,-17.578,-195.312,-972.656,48.340,-33.203,0
1556046918.612,14.648,138.672,-972.656,19.531,-12.207,0
1556046918.616,94.727,265.137,-825.195,27.344,-16.602,0
1556046918.620,65.918,172.363,-767.578,47.852,3.418,0
1556046918.624,-17.090,56.641,-859.375,56.641,-0.488,0
1556046918.626,-8.789,85.449,-820.801,40.527,-15.625,0
1556046918.630,88.379,130.859,-716.797,29.785,0.488,0
1556046918.634,100.098,61.523,-733.887,36.133,-29.785,0
1556046918.638,4.883,24.902,-780.273,35.645,-56.152,0
1556046918.642,-23.926,38.086,-765.137,29.297,-37.109,0
1556046918.646,66.406,59.570,-705.078,28.320,0.488,0
1556046918.650,110.840,-60.547,-817.383,28.809,-10.254,0
1556046918.653,15.137,13.672,-781.250,21.484,-41.504,0
1556046918.657,-49.316,133.789,-637.695,26.367,-19.043,0
1556046918.661,34.180,99.121,-606.934,31.250,-7.324,0
1556046918.665,88.379,172.852,-449.219,24.902,20.020,0
1556046918.669,30.273,153.320,-404.297,32.227,7.324,0
1556046918.686,-32.715,-11.230,-558.105,48.828,-15.625,0
1556046918.690,5.859,-50.781,-604.492,47.852,2.441,0
1556046918.694,78.125,105.957,-424.805,44.434,38.574,0
1556046918.698,54.199,185.547,-290.527,51.758,49.805,0
1556046918.702,-20.020,-40.039,-505.859,65.430,16.602,0
1556046918.706,2.930,-296.387,-798.340,73.730,11.719,0
1556046918.710,69.336,-102.051,-637.695,38.574,34.668,0
1556046918.713,66.406,229.980,-275.391,22.461,35.645,0
1556046918.717,-13.672,93.750,-360.840,46.875,8.301,0
1556046918.721,-47.852,-80.566,-564.941,42.969,-2.441,0
1556046918.725,30.762,94.727,-413.574,27.832,18.555,0
1556046918.729,66.406,301.758,-146.973,25.879,54.199,0
1556046918.731,9.277,188.477,-208.496,53.711,70.312,0
1556046918.735,-39.551,-16.113,-445.312,67.871,54.199,0
1556046918.739,19.531,110.840,-372.559,40.527,65.430,0
1556046918.743,97.168,306.641,-143.555,30.273,90.820,0
1556046918.747,69.336,152.344,-268.066,45.898,57.129,0
1556046918.751,-22.461,-101.074,-575.684,58.105,49.805,0
1556046918.755,-8.789,-11.230,-544.922,38.086,99.609,0
1556046918.758,83.008,169.922,-358.887,20.508,70.801,0
1556046918.762,74.707,88.379,-393.066,39.062,48.340,0
1556046918.766,-13.184,-166.504,-678.711,49.805,40.039,0
1556046918.770,-33.203,-26.367,-616.211,19.531,21.484,0
1556046918.774,55.664,272.461,-261.230,3.906,34.180,0
1556046918.776,90.332,183.594,-259.766,25.391,6.348,0
1556046918.780,-9.277,31.250,-397.461,33.203,7.324,0
1556046918.784,-68.359,27.832,-432.617,10.254,3.418,0
1556046918.788,11.719,142.578,-297.852,-6.836,9.766,0
1556046918.792,62.988,208.984,-155.273,-6.836,48.828,0
1556046918.796,-5.371,9.277,-327.637,7.812,38.574,0
1556046918.800,-76.660,-117.188,-489.258,13.672,48.340,0
1556046918.803,-23.926,98.145,-273.438,-5.371,78.125,0
1556046918.807,78.613,26.855,-280.273,1.953,51.270,0
1556046918.811,41.016,-126.953,-460.449,3.906,16.113,0
1556046918.815,-66.406,11.230,-373.535,-1.465,64.453,0
1556046918.819,-24.414,27.832,-349.609,5.371,60.547,0
1556046918.821,74.219,99.609,-267.090,5.859,11.230,0
1556046918.825,75.684,158.203,-183.594,15.625,8.301,0
1556046918.829,-5.371,83.496,-261.230,31.738,11.719,0
1556046918.833,-19.043,13.672,-371.582,22.461,35.156,0
1556046918.837,60.547,100.586,-308.105,8.301,38.574,0
1556046918.841,84.473,85.938,-329.590,20.020,4.395,0
1556046918.845,5.371,20.020,-447.266,20.996,0.000,0
1556046918.848,-41.016,-28.809,-522.461,16.113,12.207,0
1556046918.852,34.668,-155.762,-666.016,14.648,-12.695,0
1556046918.856,71.777,97.656,-456.543,-5.371,-30.762,0
1556046918.860,15.137,289.062,-229.492,4.883,6.348,0
1556046918.864,-34.668,56.152,-442.871,26.367,19.531,0
1556046918.866,3.418,38.086,-487.305,8.301,14.648,0
1556046918.870,65.430,211.914,-296.387,-2.930,25.879,0
1556046918.874,47.852,215.820,-256.348,1.953,26.855,0
1556046918.878,-33.691,53.223,-426.270,5.859,10.742,0
1556046918.882,-20.020,-39.062,-567.871,4.883,-41.504,0
1556046918.886,73.730,96.680,-437.500,-8.789,-17.578,0
1556046918.890,87.891,114.258,-409.180,3.418,-7.812,0
1556046918.893,12.207,-159.668,-716.797,31.250,-47.363,0
1556046918.897,-34.668,-198.242,-842.285,4.395,-30.273,0
1556046918.901,27.832,189.941,-472.656,-28.809,-19.531,0
1556046918.905,76.660,291.016,-272.949,-10.742,0.488,0
1556046918.909,3.906,122.559,-397.461,5.859,18.555,0
1556046918.911,-55.664,32.227,-526.367,-1.953,-4.395,0
1556046918.915,15.137,156.250,-402.832,-19.043,0.000,0
1556046918.919,86.914,161.621,-352.051,-8.301,-32.715,0
1556046918.923,39.062,23.438,-484.375,3.418,-55.664,0
1556046918.927,-42.480,-28.320,-566.406,-5.371,12.207,0
1556046918.931,-3.418,-22.461,-580.078,-15.137,20.508,0
1556046918.935,83.496,29.297,-508.301,-14.648,-11.719,0
1556046918.938,67.383,-83.008,-615.234,-5.371,-15.625,0
1556046918.942,-38.086,-51.270,-640.137,-17.090,-29.297,0
1556046918.946,-43.945,140.137,-434.570,-26.367,1.953,0
1556046918.950,55.176,110.352,-398.926,-26.855,-39.062,0
1556046918.954,65.430,129.395,-341.797,-34.180,-27.832,0
1556046918.956,-17.090,103.027,-346.191,-26.367,-4.883,0
1556046918.960,-49.805,-32.715,-485.840,-28.809,-46.387,0
1556046918.964,29.785,-37.598,-481.934,-49.316,-57.617,0
1556046918.968,76.172,32.715,-379.395,-57.129,-75.195,0
1556046918.972,20.020,-31.738,-426.758,-40.527,-111.328,0
1556046918.976,-41.016,-180.664,-605.469,-29.297,-97.656,0
1556046918.980,20.996,-254.395,-715.332,-36.621,-41.504,0
1556046918.983,90.820,-197.754,-693.848,-41.016,-43.457,0
1556046918.987,30.273,26.367,-501.465,-43.945,-62.988,0
1556046918.991,-49.805,59.082,-438.477,-34.180,-1.953,0
1556046918.995,-12.207,-45.898,-531.738,-25.879,-54.199,0
1556046918.999,68.359,67.871,-416.016,-32.227,-111.816,0
1556046919.001,58.105,198.730,-217.773,-33.691,-47.852,0
1556046919.005,-26.855,26.855,-349.609,-17.090,-30.762,0
1556046919.009,-35.645,-53.223,-438.477,-16.602,7.324,0
1556046919.013,58.594,118.164,-252.441,-27.832,-10.254,0
1556046919.017,96.680,257.812,-39.062,-13.184,7.812,0
1556046919.021,35.156,23.438,-212.891,22.949,19.043,0
1556046919.025,-18.555,-326.172,-612.793,28.320,-22.949,0
1556046919.028,34.668,-60.547,-406.250,-13.184,-25.391,0
1556046919.032,90.820,237.305,-43.945,-22.461,-36.621,0
1556046919.036,34.180,45.410,-171.387,-4.883,-35.645,0
1556046919.040,-40.039,-152.344,-401.855,5.859,-19.043,0
1556046919.044,6.348,25.879,-246.094,-8.789,1.953,0
1556046919.061,94.238,231.445,46.875,-3.906,23.926,0
1556046919.065,66.406,118.652,14.160,23.438,21.484,0
1556046919.069,-24.414,-62.500,-178.711,25.879,-4.883,0
1556046919.073,-10.254,25.391,-100.586,7.324,25.391,0
1556046919.077,83.496,162.109,93.750,0.000,30.762,0
1556046919.081,93.262,17.090,-14.160,10.254,-28.320,0
1556046919.085,0.488,-184.570,-281.738,20.020,-52.734,0
1556046919.088,-38.086,-56.641,-233.887,7.324,9.277,0
1556046919.092,44.434,170.898,-7.812,4.395,23.926,0
1556046919.096,96.680,6.348,-139.648,32.715,12.207,0
1556046919.100,4.883,-110.840,-285.156,30.762,28.320,0
1556046919.104,-51.758,-12.207,-207.031,21.484,-41.504,0
1556046919.106,27.344,33.691,-118.164,24.902,-61.035,0
1556046919.110,87.891,88.867,-16.602,24.414,-3.906,0
1556046919.114,31.738,71.777,-50.293,30.762,-26.367,0
1556046919.118,-47.363,46.387,-127.930,42.480,-29.785,0
1556046919.122,3.906,72.266,-116.699,35.645,43.945,0
1556046919.126,89.355,91.797,-75.195,24.902,66.895,0
1556046919.130,57.129,59.082,-105.957,16.113,21.484,0
1556046919.133,-35.156,50.781,-138.184,23.438,3.418,0
1556046919.137,-19.531,6.836,-160.645,33.691,52.246,0
1556046919.141,73.242,-58.594,-215.332,36.621,79.102,0
1556046919.145,62.500,174.805,-0.977,27.832,78.125,0
1556046919.149,-11.719,196.289,51.758,36.133,61.035,0
1556046919.151,-28.809,-18.555,-165.527,41.992,50.781,0
1556046919.155,41.016,75.195,-82.520,25.879,23.926,0
1556046919.159,74.707,238.770,127.441,24.414,5.859,0
1556046919.163,8.789,129.883,64.941,39.062,9.277,0
1556046919.167,-43.945,-128.906,-236.816,39.062,-52.734,0
1556046919.171,11.719,-149.902,-333.496,30.762,-85.938,0
1556046919.175,73.730,61.035,-125.977,16.113,-16.113,0
1556046919.178,25.879,180.176,13.184,14.160,4.395,0
1556046919.182,-29.785,-110.840,-293.457,48.340,21.484,0
1556046919.186,12.207,-205.078,-480.957,37.109,-0.488,0
1556046919.190,74.707,222.656,-76.660,9.766,-23.926,0
1556046919.194,57.129,296.875,91.797,26.855,34.668,0
1556046919.196,-22.949,38.574,-145.020,46.875,22.461,0
1556046919.200,-32.715,12.695,-210.449,34.180,49.805,0
1556046919.204,56.641,210.449,-9.277,12.695,42.969,0
1556046919.208,84.961,217.773,38.574,28.809,21.484,0
1556046919.212,7.812,93.262,-85.449,46.387,93.750,0
1556046919.216,-31.250,-76.172,-321.289,54.199,39.551,0
1556046919.220,36.133,-39.062,-348.145,36.621,-27.344,0
1556046919.223,103.027,70.801,-208.008,34.180,1.465,0
1556046919.227,42.480,-101.074,-376.953,47.363,27.344,0
1556046919.231,-51.270,-22.949,-361.816,21.973,34.180,0
1556046919.235,2.441,199.707,-113.770,11.230,22.949,0
1556046919.239,91.797,217.773,-20.508,26.367,35.156,0
1556046919.241,55.176,128.418,-104.004,32.715,-3.906,0
1556046919.245,-33.691,54.688,-220.215,34.668,-24.414,0
1556046919.249,-12.207,117.188,-160.156,27.832,55.664,0
1556046919.253,77.637,192.871,-42.969,23.926,85.938,0
1556046919.257,75.684,121.094,-98.145,42.969,-12.695,0
1556046919.261,-17.090,-45.898,-301.270,55.176,-25.391,0
1556046919.265,-30.762,-91.797,-398.926,41.016,34.180,0
1556046919.268,68.359,-86.426,-404.785,40.039,34.180,0
1556046919.272,83.984,2.441,-329.102,34.668,40.039,0
1556046919.276,-3.906,169.434,-175.781,17.578,27.832,0
1556046919.280,-29.785,-4.395,-353.516,33.691,7.812,0
1556046919.284,34.180,35.156,-331.055,24.902,37.109,0
1556046919.286,82.520,288.086,-32.227,9.277,60.547,0
1556046919.290,18.555,277.344,18.555,16.602,58.105,0
1556046919.294,-41.992,16.113,-245.605,35.156,1.953,0
1556046919.298,5.859,-32.715,-346.191,26.855,-26.855,0
1556046919.302,68.848,211.914,-100.586,5.371,12.695,0
1556046919.306,49.805,167.480,-104.004,18.066,38.574,0
1556046919.310,-27.832,-97.168,-396.484,42.969,20.020,0
1556046919.313,-15.625,-189.941,-570.801,35.645,44.922,0
1556046919.317,52.734,145.996,-266.113,4.883,70.312,0
1556046919.321,64.941,339.844,16.602,17.578,28.809,0
1556046919.325,-12.207,75.195,-198.242,41.992,9.277,0
1556046919.329,-47.852,-2.441,-303.223,23.926,46.875,0
1556046919.331,43.945,131.348,-157.227,7.324,8.301,0
1556046919.335,84.961,99.609,-160.645,19.531,-52.734,0
1556046919.339,0.000,-4.883,-279.785,32.227,-11.719,0
1556046919.343,-61.035,-25.879,-340.332,27.832,27.832,0
1556046919.347,11.230,59.570,-265.625,17.090,-2.930,0
1556046919.351,73.242,153.320,-128.906,12.207,26.367,0
1556046919.355,37.598,-62.500,-311.523,28.320,63.477,0
1556046919.358,-34.180,-286.621,-618.652,40.527,-14.160,0
1556046919.362,-24.902,13.184,-391.113,10.254,-48.828,0
1556046919.366,65.430,225.586,-98.145,12.207,-8.301,0
1556046919.370,58.105,132.812,-125.000,27.344,-0.488,0
1556046919.374,-30.762,0.488,-270.996,36.621,-8.301,0
1556046919.376,-39.062,72.754,-218.262,32.715,44.922,0
1556046919.380,53.711,163.086,-96.191,13.672,61.035,0
1556046919.384,79.102,129.395,-99.121,14.160,40.527,0
1556046919.388,-6.348,95.703,-139.648,11.230,78.125,0
1556046919.392,-44.434,-10.742,-275.879,7.324,72.266,0
1556046919.396,29.785,-37.109,-324.707,9.766,42.480,0
1556046919.400,81.543,-148.438,-456.055,5.859,-14.648,0
1556046919.403,-11.230,-65.918,-433.105,-1.953,6.836,0
1556046919.407,-81.055,128.418,-230.957,0.000,86.914,0
1556046919.411,-5.371,90.332,-223.633,-0.977,75.684,0
1556046919.415,70.801,126.465,-168.457,1.953,12.207,0
1556046919.419,26.367,170.410,-107.910,14.160,0.000,0
1556046919.436,-53.711,68.359,-210.938,25.879,34.180,0
1556046919.440,-21.973,6.348,-293.945,21.973,53.711,0
1556046919.444,56.152,91.309,-207.031,6.836,20.020,0
1556046919.448,47.363,183.105,-85.938,4.883,16.113,0
1556046919.452,-32.715,51.270,-205.078,20.996,25.879,0
1556046919.456,-41.016,-132.324,-433.594,25.879,2.930,0
1556046919.460,44.434,-85.449,-438.477,24.414,9.277,0
1556046919.463,66.406,57.617,-321.777,17.090,8.301,0
1556046919.467,-14.648,109.863,-284.668,12.695,6.348,0
1556046919.471,-41.504,-189.941,-611.816,30.762,-31.738,0
1556046919.475,20.020,-93.262,-562.500,5.859,18.555,0
1556046919.479,64.453,255.859,-161.133,0.977,24.414,0
1556046919.481,13.184,98.145,-247.559,31.250,-28.809,0
1556046919.485,-61.523,-51.270,-415.039,33.691,15.137,0
1556046919.489,-12.207,67.383,-320.801,16.602,40.527,0
1556046919.493,69.824,263.184,-78.613,17.090,75.684,0
1556046919.497,50.293,174.316,-112.305,29.297,92.285,0
1556046919.501,-25.879,-136.230,-464.844,32.715,52.246,0
1556046919.505,-13.672,-170.898,-594.238,12.695,20.508,0
1556046919.508,58.594,110.352,-316.895,-9.277,12.695,2
1556046919.512,80.566,115.234,-225.586,17.090,26.367,0
1556046919.516,2.930,-223.145,-561.035,35.156,51.758,0
1556046919.520,-59.082,-183.594,-627.930,7.324,15.625,0
1556046919.524,30.273,177.734,-245.117,-9.766,52.734,0
1556046919.526,86.914,176.270,-150.879,4.395,36.621,0
1556046919.530,-3.906,35.156,-286.621,16.113,15.625,0
1556046919.534,-62.012,65.918,-261.719,8.789,93.262,0
1556046919.538,25.391,40.039,-287.598,7.324,-12.207,0
1556046919.542,89.355,43.945,-274.414,17.090,-67.871,0
1556046919.546,27.344,-34.668,-350.098,29.785,0.488,0
1556046919.550,-59.570,-127.930,-490.723,17.090,41.992,0
1556046919.553,-18.555,57.129,-318.359,-5.371,52.246,0
1556046919.557,86.914,1.953,-313.477,25.391,18.066,0
1556046919.561,62.988,-95.215,-418.457,40.039,1.465,0
1556046919.565,-42.480,98.145,-248.047,22.949,26.855,0
1556046919.569,-31.250,97.656,-206.055,15.625,36.621,0
1556046919.571,64.941,64.941,-196.777,18.555,14.648,0
1556046919.575,73.730,121.094,-125.000,19.531,28.809,0
1556046919.579,-11.230,156.250,-73.242,21.973,70.312,0
1556046919.583,-31.250,8.301,-221.680,33.203,41.016,0
1556046919.587,46.875,61.035,-170.410,16.113,51.758,0
1556046919.591,90.820,100.586,-97.168,12.695,52.246,0
1556046919.595,13.672,-8.789,-226.562,21.484,-9.766,0
1556046919.598,-44.922,-73.242,-307.129,28.809,2.930,0
1556046919.602,25.391,-165.039,-410.645,18.555,29.785,0
1556046919.606,80.078,101.074,-153.320,-0.488,20.020,0
1556046919.610,30.273,233.398,54.199,9.766,24.414,0
1556046919.614,-51.758,13.184,-153.809,26.367,36.133,0
1556046919.616,-19.531,-1.465,-200.684,19.043,36.621,0
1556046919.620,68.848,122.559,-73.242,3.418,1.465,0
1556046919.624,51.270,201.172,33.691,7.324,37.109,0
1556046919.628,-34.180,27.832,-134.277,24.902,57.129,0
1556046919.632,-28.320,-99.609,-317.871,18.555,4.883,0
1556046919.636,71.777,28.320,-211.914,11.719,13.672,0
1556046919.640,85.938,148.926,-79.590,10.254,14.160,0
1556046919.643,2.930,-16.602,-228.516,31.738,74.707,0
1556046919.647,-38.574,-193.848,-473.633,34.668,73.730,0
1556046919.651,22.461,171.387,-150.879,3.906,50.293,0
1556046919.655,80.566,337.891,118.652,7.324,99.609,0
1556046919.659,12.695,121.582,-56.641,23.926,62.500,0
1556046919.661,-55.664,-20.508,-251.953,23.926,15.625,0
1556046919.665,-7.812,46.875,-215.332,-5.859,-18.066,0
1556046919.669,61.035,124.023,-104.980,-11.230,-12.207,0
1556046919.673,26.367,89.355,-113.770,-3.906,33.691,0
1556046919.677,-54.199,6.348,-216.797,4.395,32.227,0
1556046919.681,-21.973,-46.387,-297.363,5.859,39.551,0
1556046919.685,66.406,-22.949,-274.902,2.930,38.086,0
1556046919.688,65.430,-139.648,-422.363,11.230,-9.277,0
1556046919.692,-43.457,-40.039,-400.391,-8.789,25.879,0
1556046919.696,-51.758,91.309,-275.391,-2.930,15.137,0
1556046919.700,51.758,82.520,-246.582,11.719,2.441,0
1556046919.704,82.031,134.277,-167.969,15.625,12.695,0
1556046919.706,-0.488,107.910,-193.359,26.367,9.277,0
1556046919.710,-56.641,19.531,-306.641,27.832,12.207,0
1556046919.714,20.020,32.715,-312.988,11.230,20.996,0
1556046919.718,75.684,134.277,-191.895,5.371,29.785,0
1556046919.722,14.160,99.609,-209.961,9.277,12.695,0
1556046919.726,-51.758,-41.992,-382.324,20.508,43.457,0
1556046919.730,9.277,-174.316,-551.758,29.297,60.547,0
1556046919.733,85.938,-107.910,-535.156,20.996,14.648,0
1556046919.737,33.691,198.730,-237.793,10.742,41.504,0
1556046919.741,-37.598,120.605,-270.020,24.902,74.707,0
1556046919.745,-24.414,-43.457,-460.449,20.996,33.203,0
1556046919.749,44.922,104.492,-325.684,-4.883,14.648,0
1556046919.751,54.688,234.863,-136.719,-1.953,45.898,0
1556046919.755,-20.996,56.641,-287.109,24.902,54.199,0
1556046919.759,-39.062,-125.000,-532.715,23.438,15.625,0
1556046919.763,33.691,60.059,-393.066,-12.695,22.461,0
1556046919.767,68.848,175.293,-236.328,-8.301,6.348,0
1556046919.771,15.137,-55.664,-440.918,25.879,8.301,0
1556046919.775,-39.062,-291.504,-729.492,35.156,74.219,0
1556046919.778,14.648,-79.102,-589.355,5.371,33.203,0
1556046919.782,84.473,251.953,-224.609,-14.160,22.461,0
1556046919.786,42.969,132.812,-290.527,13.672,37.109,0
1556046919.790,-26.855,-68.848,-539.062,32.715,6.348,0
1556046919.794,-5.371,90.332,-422.363,6.836,46.387,0
1556046919.811,70.312,183.594,-282.227,5.371,70.801,0
1556046919.815,67.871,-57.129,-525.879,26.367,8.301,0
1556046919.819,-31.250,-157.227,-711.426,30.762,-15.625,0
1556046919.823,-39.062,-44.922,-644.531,15.625,-2.441,0
1556046919.827,48.828,111.328,-451.172,6.836,26.367,0
1556046919.831,70.312,-4.883,-523.438,21.484,17.578,0
1556046919.835,-8.301,-225.098,-814.453,31.250,-27.832,0
1556046919.838,-46.875,-82.520,-749.023,21.973,-0.488,0
1556046919.842,28.809,167.969,-464.844,6.348,29.785,0
1556046919.846,75.195,105.469,-456.055,13.672,29.785,0
1556046919.850,2.441,7.324,-561.523,21.973,20.996,0
1556046919.854,-68.359,68.848,-517.090,21.484,20.508,0
1556046919.856,2.441,119.629,-425.781,12.207,54.688,0
1556046919.860,80.566,146.484,-343.262,13.184,53.711,0
1556046919.864,29.785,83.496,-396.973,25.391,2.441,0
1556046919.868,-51.270,-5.371,-500.000,27.344,12.695,0
1556046919.872,-21.973,-116.699,-637.207,25.391,2.441,0
1556046919.876,71.289,-44.434,-586.426,21.484,9.277,0
1556046919.880,52.246,76.660,-458.496,15.625,51.270,0
1556046919.883,-47.852,72.754,-480.469,19.043,39.062,0
1556046919.887,-30.273,-11.230,-557.617,37.109,42.480,0
1556046919.891,67.383,-135.254,-702.148,40.039,14.648,0
1556046919.895,66.406,122.070,-480.469,16.113,28.320,0
1556046919.899,-8.301,222.168,-332.031,28.320,63.477,0
1556046919.901,-34.180,-3.906,-556.641,46.875,41.992,0
1556046919.905,41.504,79.102,-494.141,31.250,52.734,0
1556046919.909,90.332,280.762,-232.422,25.391,87.891,0
1556046919.913,35.645,152.832,-318.359,37.598,52.246,0
1556046919.917,-24.902,-83.008,-598.633,43.457,13.672,0
1556046919.921,16.113,-75.684,-631.836,31.738,48.828,0
1556046919.925,72.754,109.375,-419.434,20.508,101.562,0
1556046919.928,38.086,117.188,-380.371,28.809,99.609,0
1556046919.932,-30.762,-166.016,-690.430,50.781,81.055,0
1556046919.936,-26.855,-157.715,-753.906,35.645,75.684,0
1556046919.940,46.875,253.418,-337.891,10.742,86.426,0
1556046919.944,66.406,275.879,-221.191,28.809,81.543,0
1556046919.946,-13.184,25.391,-467.285,48.828,49.805,0
1556046919.950,-36.133,-1.953,-539.551,41.504,51.270,0
1556046919.954,42.480,176.758,-326.660,29.297,78.125,0
1556046919.958,78.613,188.477,-250.488,32.227,81.055,0
1556046919.962,11.719,12.695,-424.316,37.598,66.406,0
1556046919.966,-43.457,-119.141,-610.840,31.250,72.754,0
1556046919.970,12.207,28.809,-496.582,2.930,91.309,0
1556046919.973,88.867,140.137,-332.520,8.301,82.520,0
1556046919.977,43.945,-133.789,-599.121,28.809,44.434,0
1556046919.981,-45.410,-204.590,-762.695,21.973,15.625,0
1556046919.985,-8.789,56.152,-507.812,9.766,70.801,0
1556046919.989,70.312,207.520,-280.273,4.395,100.098,0
1556046919.991,41.504,137.695,-297.852,8.789,72.266,0
1556046919.995,-45.410,61.035,-365.234,22.461,75.684,0
1556046919.999,-29.785,15.625,-410.156,18.555,72.754,0
1556046920.003,54.199,44.434,-373.535,1.953,52.246,0
1556046920.007,59.570,60.547,-336.426,11.230,32.715,0
1556046920.011,-22.949,-92.285,-494.629,26.367,23.438,0
1556046920.015,-49.805,-169.434,-628.418,26.367,37.109,0
1556046920.018,46.875,-165.039,-642.578,25.879,35.645,0
1556046920.022,80.566,-57.129,-554.688,11.719,35.645,0
1556046920.026,-9.277,197.754,-275.879,2.930,90.332,0
1556046920.030,-50.781,20.020,-423.340,21.484,44.434,0
1556046920.034,4.883,-1.953,-472.168,-1.953,30.273,0
1556046920.051,62.988,157.715,-267.090,-16.113,75.195,0
1556046920.055,15.625,46.875,-354.004,1.465,52.246,0
1556046920.059,-68.848,-61.035,-503.906,12.695,45.898,0
1556046920.063,-32.227,-11.719,-475.586,2.441,58.594,0
1556046920.067,47.363,187.500,-240.234,-9.277,83.496,0
1556046920.071,55.176,103.027,-276.367,19.043,58.105,0
1556046920.075,-18.555,-128.418,-529.785,47.363,55.176,0
1556046920.078,-28.809,-250.488,-727.539,38.086,55.176,0
1556046920.082,49.316,4.395,-531.250,11.719,23.926,0
1556046920.086,72.754,293.457,-175.781,13.672,55.664,0
1556046920.090,0.977,77.637,-345.703,37.598,45.410,0
1556046920.094,-47.363,-48.828,-515.625,35.156,33.203,0
1556046920.081,25.879,139.648,-329.590,3.418,49.805,0
1556046920.085,88.379,189.941,-231.934,-0.977,25.391,0
1556046920.089,25.391,29.297,-394.043,14.648,4.883,0
1556046920.093,-44.922,-148.438,-625.977,10.254,1.953,0
1556046920.097,4.883,-106.934,-638.184,3.906,-27.344,0
1556046920.101,81.543,34.180,-488.281,0.488,-3.906,0
1556046920.105,45.898,58.594,-441.895,5.371,43.457,0
1556046920.108,-41.504,39.551,-470.703,12.695,40.039,0
1556046920.112,-18.555,62.012,-449.219,1.953,32.715,0
1556046920.116,69.336,181.152,-286.133,-12.207,21.973,0
1556046920.120,90.332,-98.145,-535.645,20.996,-33.203,0
1556046920.124,-10.742,-246.582,-775.879,30.762,-26.855,0
1556046920.126,-54.688,81.543,-500.000,1.953,37.598,0
1556046920.130,48.828,169.434,-341.309,10.742,39.551,0
1556046920.134,89.355,124.512,-333.008,14.648,18.066,0
1556046920.138,0.977,89.844,-368.652,10.742,26.367,0
1556046920.142,-48.340,10.254,-467.773,13.672,15.137,0
1556046920.146,33.203,-20.508,-495.117,15.625,27.344,0
1556046920.150,100.098,-116.699,-590.820,22.461,27.832,0
1556046920.153,20.020,-63.965,-595.703,13.184,-11.230,0
1556046920.157,-56.152,62.012,-482.422,15.625,1.465,0
1556046920.161,-1.953,34.180,-479.492,12.207,19.531,0
1556046920.165,69.336,109.375,-372.070,-4.883,15.137,0
1556046920.169,36.133,116.699,-348.145,0.488,-20.996,0
1556046920.186,-51.270,-4.883,-498.535,16.113,-28.320,0
1556046920.190,-33.691,-45.410,-574.219,8.301,-2.441,0
1556046920.194,56.152,39.062,-497.070,-8.301,-17.578,0
1556046920.198,58.594,133.301,-381.836,-13.184,-18.555,0
1556046920.202,-18.066,35.156,-472.656,8.789,-18.555,0
1556046920.206,-34.668,-259.277,-796.387,20.996,-37.109,0
1556046920.210,32.715,-167.480,-752.930,-5.859,-27.344,0
1556046920.213,56.152,214.844,-349.609,-20.996,4.395,0
1556046920.217,-2.441,127.441,-380.371,4.395,-6.836,0
1556046920.221,-53.711,-177.246,-730.469,10.742,-30.273,0
1556046920.225,-0.488,-112.305,-749.023,-11.230,-48.340,0
1556046920.229,67.383,141.602,-481.934,-16.602,-54.688,0
1556046920.231,19.531,55.176,-518.555,-11.719,-50.293,0
1556046920.235,-49.316,-134.277,-720.703,-3.418,-36.621,0
1556046920.239,-15.137,-85.449,-701.172,-18.066,-45.410,0
1556046920.243,65.430,61.035,-532.227,-24.414,-80.078,0
1556046920.247,62.988,50.293,-498.535,-3.906,-57.617,0
1556046920.251,-16.602,-132.324,-684.570,7.812,-11.719,0
1556046920.255,-22.461,-208.008,-827.637,-2.930,-37.598,0
1556046920.258,52.246,43.457,-598.633,-23.926,-40.039,0
1556046920.262,84.473,105.469,-452.148,4.395,-33.691,0
1556046920.266,8.301,-224.121,-782.715,26.855,-49.316,0
1556046920.270,-56.641,-113.281,-761.719,-6.348,-23.438,0
1556046920.274,26.367,163.086,-450.195,-14.648,-20.996,0
1556046920.276,89.355,132.812,-406.738,0.000,-17.578,0
1556046920.280,12.695,12.695,-520.020,16.113,-2.441,0
1556046920.284,-60.059,-0.977,-566.895,12.695,-12.207,0
1556046920.288,13.184,93.750,-453.613,8.301,-5.859,0
1556046920.292,91.797,139.160,-342.285,17.578,-6.836,0
1556046920.296,57.617,-24.902,-479.492,39.551,-31.738,0
1556046920.300,-33.203,-142.090,-646.484,46.387,-17.090,0
1556046920.303,-17.578,46.875,-484.863,11.230,2.441,0
1556046920.307,87.402,25.391,-448.242,8.301,3.906,0
1556046920.311,71.777,-51.758,-518.066,22.461,18.066,0
1556046920.315,-27.832,72.266,-432.129,19.531,-4.395,0
1556046920.319,-28.320,26.367,-468.262,20.020,-21.973,0
1556046920.321,59.570,85.449,-382.812,22.461,-10.254,0
1556046920.325,87.402,182.129,-234.863,29.297,-0.488,0
1556046920.329,8.301,128.418,-261.719,28.320,11.230,0
1556046920.333,-27.832,-20.020,-405.762,30.762,49.805,0
1556046920.337,45.898,-41.992,-436.523,27.344,9.277,0
1556046920.341,97.656,55.176,-328.125,29.297,2.441,0
1556046920.345,33.691,56.641,-321.289,40.039,25.879,0
1556046920.348,-33.203,-51.270,-442.871,53.223,12.207,0
1556046920.352,24.414,-234.375,-671.875,45.410,-22.461,0
1556046920.356,73.242,54.688,-422.852,2.441,-13.184,0
1556046920.360,49.316,230.957,-179.688,10.254,-0.488,0
1556046920.364,-11.230,-36.621,-435.059,42.480,-24.414,0
1556046920.367,3.906,2.441,-433.105,34.668,30.762,0
1556046920.371,95.215,229.004,-170.410,22.949,54.199,0
1556046920.375,98.145,189.941,-160.156,39.551,0.977,0
1556046920.379,1.465,3.418,-362.793,57.129,10.254,0
1556046920.383,-23.926,-63.477,-483.887,47.363,14.160,0
1556046920.387,60.059,25.879,-411.621,25.879,19.531,0
1556046920.391,91.309,115.234,-290.527,25.879,57.617,0
1556046920.394,29.785,-134.766,-539.062,52.734,18.555,0
1556046920.398,-27.344,-250.977,-754.883,45.410,-10.254,0
1556046920.402,17.090,115.234,-431.152,15.137,-5.371,0
1556046920.406,87.891,251.953,-198.242,20.508,7.324,0
1556046920.410,41.504,126.953,-270.508,33.691,24.414,0
1556046920.411,-37.598,19.531,-406.250,40.039,22.461,0
1556046920.415,-3.418,121.582,-298.828,28.809,52.734,0
1556046920.419,80.566,177.734,-186.035,28.809,49.805,0
1556046920.423,59.570,95.703,-254.395,41.992,40.527,0
1556046920.427,-36.133,49.805,-328.125,43.457,72.266,0
1556046920.431,-16.113,-23.438,-429.688,46.875,70.312,0
1556046920.435,84.961,-4.395,-418.457,51.270,46.387,0
1556046920.438,94.727,-81.055,-488.281,59.082,69.824,0
1556046920.442,-2.930,-26.855,-477.051,45.410,93.262,0
1556046920.446,-36.621,62.500,-390.137,48.340,72.754,0
1556046920.450,49.316,12.207,-416.016,53.223,53.711,0
1556046920.454,84.961,205.566,-187.500,40.039,84.961,0
1556046920.456,15.137,212.402,-112.793,52.734,100.098,0
1556046920.460,-34.180,-46.387,-386.719,70.801,41.992,0
1556046920.464,13.672,6.348,-362.305,40.527,60.059,0
1556046920.468,69.336,191.895,-135.742,18.066,83.496,0
1556046920.472,27.832,179.688,-96.191,33.691,82.520,0
1556046920.476,-39.062,-41.016,-326.660,48.340,67.871,0
1556046920.480,0.977,-255.859,-604.492,41.504,30.762,0
1556046920.483,65.430,-84.961,-471.680,20.508,62.012,0
1556046920.487,44.434,233.398,-130.371,16.113,91.309,0
1556046920.491,-23.926,82.031,-235.840,41.504,58.594,0
1556046920.495,-32.715,-73.730,-412.598,32.715,38.086,0
1556046920.499,45.410,79.590,-252.441,12.695,43.457,0
1556046920.501,60.059,154.785,-117.676,10.742,65.430,0
1556046920.505,-11.230,-18.555,-291.992,29.297,38.574,0
1556046920.509,-48.340,-99.121,-439.453,39.062,17.090,0
1556046920.513,14.648,126.465,-237.793,2.441,57.617,0
1556046920.517,71.289,282.715,-29.297,-7.812,76.172,0
1556046920.521,32.715,8.301,-288.574,30.273,38.086,0
1556046920.525,-36.621,-343.262,-744.629,35.156,6.836,0
1556046920.528,-13.672,-96.680,-590.820,-6.836,28.320,0
1556046920.532,61.523,247.559,-191.895,-12.207,48.828,0
1556046920.536,41.992,80.566,-301.270,16.113,21.973,0
1556046920.540,-38.086,-89.844,-510.742,23.926,10.254,0
1556046920.544,-20.508,-3.418,-475.586,14.648,4.883,2
1556046920.561,74.707,145.996,-299.316,7.812,10.254,0
1556046920.565,74.707,119.629,-281.738,23.926,28.809,0
1556046920.569,-15.625,-19.531,-442.871,33.691,22.949,0
1556046920.573,-29.297,-81.055,-551.270,28.320,8.789,0
1556046920.577,40.527,76.172,-389.648,8.301,38.574,0
1556046920.581,79.590,46.387,-354.980,7.324,62.988,0
1556046920.585,-2.441,-135.742,-563.477,16.602,36.621,0
1556046920.588,-69.336,14.160,-469.727,5.371,34.668,0
1556046920.592,8.301,106.934,-339.844,-2.441,31.250,0
1556046920.596,62.500,110.840,-291.016,-4.883,22.461,0
1556046920.600,9.277,74.219,-323.730,9.766,24.414,0
1556046920.604,-55.664,17.090,-396.973,12.695,29.297,0
1556046920.606,-11.230,35.645,-369.629,2.441,48.340,0
1556046920.610,77.148,119.629,-250.977,5.371,65.918,0
1556046920.614,53.711,125.977,-224.609,12.695,57.129,0
1556046920.618,-43.945,-4.395,-382.812,13.184,30.762,0
1556046920.622,-18.066,-49.805,-455.566,15.137,44.434,0
1556046920.626,89.355,-49.316,-450.195,20.020,39.551,0
1556046920.630,87.402,-47.363,-461.426,20.996,26.855,0
1556046920.633,-16.602,-90.820,-538.086,22.461,28.809,0
1556046920.637,-32.715,-177.734,-663.086,25.879,2.441,0
1556046920.641,51.758,-172.363,-681.641,12.207,7.324,0
1556046920.645,65.430,78.125,-442.871,-6.836,26.367,0
1556046920.649,-8.301,140.137,-334.473,-1.465,24.902,0
1556046920.651,-50.781,-125.000,-611.816,2.441,-16.602,0
1556046920.655,13.672,-29.297,-547.363,-7.812,2.441,0
1556046920.659,67.871,191.895,-262.207,-8.301,38.086,0
1556046920.663,22.949,109.863,-279.297,10.254,31.250,0
1556046920.667,-44.434,-109.863,-514.160,19.531,20.508,0
1556046920.671,-6.348,-149.902,-589.844,11.719,34.668,0
1556046920.675,80.566,-34.180,-462.402,8.301,37.598,0
1556046920.678,63.965,39.062,-370.117,14.648,16.113,0
1556046920.682,-14.160,-202.637,-604.492,36.133,13.184,0
1556046920.686,-24.414,-366.211,-841.309,23.438,0.977,0
1556046920.690,44.922,43.457,-470.703,-14.160,6.836,0
1556046920.694,73.242,198.730,-215.820,2.930,26.855,0
1556046920.696,-21.973,22.461,-347.656,18.555,43.945,0
1556046920.700,-73.242,-40.527,-431.641,-1.465,48.340,0
1556046920.704,11.719,71.777,-293.945,-9.766,40.527,0
1556046920.708,75.684,110.352,-181.641,3.906,44.434,0
1556046920.712,11.719,-46.875,-320.801,20.020,27.344,0
1556046920.716,-46.875,-212.402,-547.852,28.809,20.996,0
1556046920.720,3.418,-89.355,-478.516,3.906,37.109,0
1556046920.723,87.891,45.410,-300.781,2.441,21.484,0
1556046920.727,67.383,-193.359,-531.738,34.668,1.465,0
1556046920.731,-36.133,-134.277,-547.363,27.344,32.715,0
1556046920.735,-2.930,6.348,-410.645,18.555,5.859,0
1556046920.739,98.145,29.785,-337.891,15.137,7.324,0
1556046920.741,80.566,30.273,-294.434,18.066,45.410,0
1556046920.745,-24.902,-20.020,-356.934,25.879,40.527,0
1556046920.749,-43.945,-20.020,-371.582,14.648,41.504,0
1556046920.753,48.340,-23.438,-363.770,3.418,35.156,0
1556046920.757,69.336,19.043,-310.547,-2.441,26.367,0
1556046920.761,-8.789,-111.328,-450.684,20.020,12.207,0
1556046920.765,-47.852,-211.914,-609.375,28.809,18.555,0
1556046920.768,33.203,-170.410,-583.008,11.230,35.156,0
1556046920.772,86.426,-72.754,-476.074,-4.395,43.945,0
1556046920.776,9.277,141.113,-254.883,-13.672,58.594,0
1556046920.780,-40.527,16.113,-360.840,15.625,39.062,0
1556046920.784,15.137,-23.926,-415.039,10.254,29.785,0
1556046920.786,79.590,171.875,-177.734,-4.395,61.523,0
1556046920.790,40.039,152.344,-136.719,5.371,50.781,0
1556046920.794,-30.762,-99.121,-397.949,16.113,22.949,0
1556046920.798,-14.648,-224.121,-590.820,2.930,12.695,0
1556046920.802,62.012,-15.137,-412.109,-15.625,19.043,0
1556046920.806,67.871,28.320,-343.262,-1.465,20.508,0
1556046920.810,-22.949,-166.016,-562.500,12.207,20.996,0
1556046920.813,-39.551,-252.441,-698.242,1.953,64.941,0
1556046920.817,34.668,6.348,-468.750,-22.949,74.707,0
1556046920.821,72.754,197.266,-217.285,-15.137,29.297,0
1556046920.825,7.324,-16.113,-386.230,11.719,15.137,0
1556046920.829,-44.434,-160.156,-579.102,6.348,3.906,0
1556046920.831,10.254,-11.719,-453.613,-23.926,3.906,0
1556046920.835,71.289,146.484,-239.746,-17.090,29.785,0
1556046920.839,27.832,-8.301,-369.141,13.184,8.789,0
1556046920.843,-54.199,-155.273,-568.359,12.207,-1.953,0
1556046920.847,-12.695,-53.711,-501.953,-7.812,0.488,0
1556046920.851,80.566,18.066,-403.320,-8.301,12.695,0
1556046920.855,58.105,-170.898,-580.566,12.207,12.207,0
1556046920.858,-38.086,-305.664,-808.105,11.230,-16.602,0
1556046920.862,-44.434,-8.789,-575.195,-9.277,10.254,0
1556046920.866,39.062,187.500,-299.316,-5.859,34.180,0
1556046920.870,52.246,150.391,-263.184,-0.488,44.922,0
1556046920.874,-30.762,16.113,-406.738,-1.465,26.367,0
1556046920.877,-61.035,-47.852,-505.371,-1.465,5.371,0
1556046920.881,25.391,1.953,-442.871,-8.789,16.602,0
1556046920.885,58.594,96.680,-312.012,-12.207,36.133,0
1556046920.889,-20.508,78.125,-328.613,-2.930,38.574,0
1556046920.893,-78.613,-24.414,-462.891,-10.254,26.367,0
1556046920.897,-0.488,-66.895,-519.043,-20.508,27.344,0
1556046920.901,70.312,-127.930,-594.727,-23.926,29.785,0
1556046920.904,5.371,2.930,-493.164,-29.785,34.668,0
1556046920.908,-62.500,46.387,-437.500,-15.625,20.020,0
1556046920.912,-9.277,-105.957,-587.402,-7.324,-6.348,0
1556046920.916,62.012,20.020,-474.121,-20.508,-8.301,0
1556046920.920,37.598,205.078,-245.117,-17.578,29.785,0
1556046920.936,-35.156,80.566,-340.820,9.766,26.367,0
1556046920.940,-38.086,-52.734,-499.023,-4.395,18.066,0
1556046920.944,38.574,67.383,-373.535,-21.484,33.691,0
1556046920.948,59.570,156.738,-245.605,-3.906,11.230,0
1556046920.952,-26.855,72.754,-312.500,2.441,18.555,0
1556046920.956,-54.688,-195.801,-600.586,12.695,30.762,0
1556046920.960,11.230,-130.371,-588.379,-9.766,48.340,0
1556046920.963,43.457,202.148,-245.605,-27.344,52.246,0
1556046920.967,-8.301,146.484,-235.352,3.906,43.945,0
1556046920.971,-60.547,-115.234,-517.090,11.719,33.691,0
1556046920.975,-18.555,-37.598,-489.258,-15.137,39.551,0
1556046920.979,48.340,223.633,-175.781,-28.320,63.965,0
1556046920.981,34.180,47.363,-307.129,-11.230,40.527,0
1556046920.985,-44.922,-150.391,-571.289,8.301,12.695,0
1556046920.989,-38.086,-35.156,-518.555,-8.301,13.184,0
1556046920.993,57.129,136.230,-325.684,-17.578,17.578,0
1556046920.997,69.824,108.398,-308.105,2.441,16.113,0
1556046921.001,-8.301,-120.605,-557.617,20.020,5.859,0
1556046921.005,-36.621,-194.824,-712.402,13.184,-3.418,0
1556046921.008,34.668,81.055,-448.730,-10.742,14.160,0
1556046921.012,89.844,120.117,-321.777,14.160,-6.836,0
1556046921.016,16.602,-194.824,-635.254,30.273,-11.719,0
1556046921.020,-56.641,-65.430,-577.637,6.836,35.645,0
1556046921.024,23.926,128.906,-346.680,7.324,-0.488,0
1556046921.026,89.355,119.629,-273.926,5.371,-2.441,0
1556046921.030,28.320,112.305,-231.934,2.441,48.828,0
1556046921.034,-44.434,45.410,-290.527,2.930,59.082,0
1556046921.038,2.930,17.578,-316.895,-2.930,59.570,0
1556046921.042,85.938,61.523,-259.277,2.441,31.250,0
1556046921.046,72.754,-17.090,-328.613,23.438,6.348,0
1556046921.050,-25.879,-171.875,-526.855,26.367,2.441,0
1556046921.053,-39.551,-55.664,-457.031,-4.883,7.324,0
1556046921.057,62.500,-33.203,-393.066,-3.906,20.508,0
1556046921.061,65.430,-121.582,-487.305,10.254,5.371,0
1556046921.065,-41.992,39.062,-361.816,5.371,22.949,0
1556046921.069,-56.152,8.789,-375.977,9.766,37.109,0
1556046921.071,32.227,29.785,-344.238,-2.441,36.133,0
1556046921.075,73.242,146.973,-198.730,-5.859,41.992,0
1556046921.079,-1.465,106.934,-219.727,8.789,40.039,0
1556046921.083,-60.059,-63.477,-406.250,14.648,30.762,0
1556046921.087,13.184,-50.293,-404.785,-0.488,27.832,0
1556046921.091,83.008,28.809,-315.430,4.395,29.297,0
1556046921.095,32.227,-55.664,-420.410,15.137,10.254,0
1556046921.098,-42.480,-199.707,-605.469,16.113,-6.348,0
1556046921.102,-3.906,-283.203,-748.047,7.324,-16.602,0
1556046921.106,62.988,-1.953,-496.582,-10.254,-17.090,0
1556046921.110,48.340,173.828,-239.746,-1.465,-1.953,0
1556046921.114,-28.320,-43.457,-414.062,20.508,12.207,0
1556046921.116,-30.273,-93.262,-491.699,20.020,12.207,0
1556046921.120,46.875,116.211,-250.977,2.441,26.367,0
1556046921.124,66.406,158.691,-129.883,20.020,36.621,0
1556046921.128,-7.324,-62.012,-339.844,33.203,26.855,0
1556046921.132,-46.875,-168.457,-493.164,18.066,20.020,0
1556046921.136,35.645,-104.004,-441.895,16.113,28.320,0
1556046921.140,78.125,4.883,-313.477,15.137,26.367,0
1556046921.143,17.090,-178.223,-480.957,31.738,4.395,0
1556046921.147,-41.992,-360.352,-727.539,32.715,9.766,0
1556046921.151,-2.930,-111.816,-541.992,-1.953,-0.488,0
1556046921.155,71.289,82.031,-293.945,11.719,7.812,0
1556046921.159,40.039,21.484,-296.387,32.227,16.113,0
1556046921.161,-47.363,-99.121,-446.777,34.668,12.695,0
1556046921.165,-22.461,-13.672,-378.906,28.320,34.180,0
1556046921.169,74.219,38.086,-287.109,21.973,20.020,0
1556046921.173,64.453,4.395,-304.688,21.973,17.578,0
1556046921.177,-28.320,-80.078,-416.016,26.855,10.254,0
1556046921.181,-40.039,-166.016,-546.875,18.555,0.488,0
1556046921.185,51.270,-97.656,-489.258,4.395,19.531,0
1556046921.188,81.055,-122.070,-518.555,7.812,20.996,0
1556046921.192,-17.578,-102.051,-558.105,3.906,-8.301,0
1556046921.196,-59.570,-13.672,-488.770,1.953,-15.625,0
1556046921.200,31.250,-13.672,-458.984,2.930,-16.113,0
1556046921.204,89.844,43.457,-367.188,3.418,-18.066,0
1556046921.206,21.484,51.270,-328.613,10.742,21.973,0
1556046921.210,-51.270,-63.965,-454.102,15.137,3.418,0
1556046921.214,4.395,-86.914,-492.676,6.836,-27.344,0
1556046921.218,78.125,56.152,-327.637,-1.465,-2.441,0
1556046921.222,37.109,173.828,-147.949,-0.488,48.828,0
1556046921.226,-33.203,-91.797,-426.758,28.809,1.465,0
1556046921.230,0.977,-331.055,-754.883,38.086,-32.227,0
1556046921.233,74.219,-162.598,-662.109,11.230,-23.438,0
1556046921.237,56.152,165.039,-338.867,-1.465,1.465,0
1556046921.241,-17.090,103.516,-341.309,18.555,28.809,0
1556046921.245,-14.648,-86.426,-543.945,22.949,-5.859,0
1556046921.249,57.617,47.852,-407.715,7.324,-7.324,0
1556046921.251,81.055,188.477,-194.824,13.672,11.719,0
1556046921.255,10.742,69.336,-268.066,36.621,23.438,0
1556046921.259,-39.551,-110.840,-475.586,31.250,23.926,0
1556046921.263,25.391,-50.293,-469.238,0.488,15.625,0
1556046921.267,86.426,178.223,-204.590,-0.977,53.223,0
1556046921.271,44.922,25.391,-296.875,27.344,49.316,0
1556046921.275,-25.391,-349.609,-746.094,37.598,11.719,0
1556046921.278,-12.207,-133.301,-626.465,-3.418,23.926,0
1556046921.282,60.547,215.332,-230.469,-16.113,29.785,0
1556046921.286,54.688,103.027,-274.414,10.254,17.090,0
1556046921.290,-31.738,-75.684,-483.398,18.066,7.324,0
1556046921.294,-41.504,-17.090,-487.305,-8.301,3.418,0
1556046921.311,46.875,143.555,-295.410,-18.066,34.668,0
1556046921.315,73.730,61.523,-331.543,7.324,26.367,0
1556046921.319,-19.531,-62.012,-491.211,17.090,13.184,0
1556046921.323,-54.199,-44.922,-517.090,7.812,16.113,0
1556046921.327,30.762,67.871,-409.180,-2.441,5.859,0
1556046921.331,92.773,-58.105,-505.859,9.277,-2.441,0
1556046921.335,19.043,-279.297,-782.715,11.719,-19.531,0
1556046921.338,-71.289,-141.113,-736.328,-2.441,-14.648,0
1556046921.342,-12.207,52.734,-534.668,-13.672,-3.906,0
1556046921.346,67.383,127.441,-398.438,-13.184,12.695,0
1556046921.350,10.742,110.840,-376.953,-5.859,34.668,0
1556046921.354,-77.148,30.762,-462.402,1.465,32.227,0
1556046921.356,-28.809,7.324,-491.211,-3.418,30.273,0
1556046921.360,64.941,78.613,-383.789,-14.648,39.062,0
1556046921.364,42.969,91.309,-339.844,-10.742,27.344,0
1556046921.368,-46.387,6.348,-421.875,-2.930,30.273,0
1556046921.372,-36.621,-57.129,-495.117,10.254,39.062,0
1556046921.376,57.617,-26.855,-461.426,7.812,36.133,0
1556046921.380,67.871,0.977,-431.641,0.000,38.574,0
1556046921.383,-17.578,16.113,-440.430,11.719,39.551,0
1556046921.387,-33.203,-69.336,-526.367,22.461,37.109,0
1556046921.391,43.457,-200.684,-679.688,23.438,21.484,0
1556046921.395,73.242,44.434,-472.656,1.953,10.254,0
1556046921.399,19.043,113.770,-379.395,14.160,-14.160,0
1556046921.401,-43.457,-88.867,-593.262,28.320,-13.672,0
1556046921.405,2.441,-5.859,-529.297,-5.859,20.508,0
1556046921.409,61.523,217.773,-256.348,-20.020,47.852,0
1556046921.413,25.391,182.617,-229.980,-1.465,41.504,0
1556046921.417,-42.969,-75.684,-506.836,13.184,2.441,0
1556046921.421,-10.742,-188.477,-681.641,13.184,-20.020,0
1556046921.425,62.012,-37.109,-558.594,-0.488,-13.672,0
1556046921.428,42.480,152.344,-343.262,1.465,0.977,0
1556046921.432,-17.578,-116.699,-589.355,29.785,-7.812,0
1556046921.436,-38.086,-242.676,-791.016,10.742,4.883,0
1556046921.440,16.602,238.281,-312.988,-25.391,68.359,0
1556046921.444,72.266,249.023,-177.734,-1.953,56.152,0
1556046921.446,-0.488,-5.371,-416.504,8.789,28.320,0
1556046921.450,-53.711,-48.828,-528.809,-0.977,7.812,0
1556046921.454,15.137,94.238,-384.766,-7.812,12.695,0
1556046921.458,70.312,154.785,-250.488,-12.695,28.320,0
1556046921.462,27.344,-30.273,-434.082,2.441,-17.090,0
1556046921.466,-44.922,-154.785,-618.164,9.766,3.418,0
1556046921.470,-11.230,-43.457,-539.551,-15.625,26.367,0
1556046921.473,74.219,115.723,-321.777,-10.254,24.902,0
1556046921.477,58.594,-107.422,-515.625,19.531,14.648,0
1556046921.481,-37.109,-115.234,-612.305,6.836,11.719,0
1556046921.485,-23.926,90.820,-413.086,0.000,27.344,0
1556046921.489,74.219,92.285,-356.934,10.254,11.719,0
1556046921.491,69.824,93.750,-320.801,7.324,10.742,0
1556046921.495,-27.344,120.605,-277.832,7.812,50.293,0
1556046921.499,-44.434,-7.324,-401.855,20.508,47.363,0
1556046921.503,41.992,-73.730,-498.047,7.812,5.859,0
1556046921.507,73.730,37.109,-408.203,-7.812,-20.996,0
1556046921.511,-5.371,-32.227,-480.469,4.395,-8.301,0
1556046921.515,-59.570,-103.027,-598.145,10.742,21.973,0
1556046921.518,24.414,-132.812,-643.555,5.371,18.555,0
1556046921.522,88.867,-39.062,-559.082,4.395,18.066,0
1556046921.526,23.926,194.824,-315.918,10.742,36.133,0
1556046921.530,-35.156,70.801,-421.387,24.414,20.020,0
1556046921.534,14.648,10.742,-501.953,16.602,17.578,0
1556046921.536,79.102,172.363,-316.895,6.348,28.809,0
1556046921.540,55.664,177.734,-269.531,14.648,5.859,0
1556046921.544,-22.461,-18.555,-467.773,24.902,-4.883,0
1556046921.548,-32.227,-51.758,-544.434,6.836,26.367,0
1556046921.552,48.828,150.879,-332.031,-11.230,42.969,0
1556046921.556,80.078,114.258,-317.871,4.883,31.250,0
1556046921.560,-0.488,-136.719,-599.609,22.461,10.254,0
1556046921.563,-39.062,-326.172,-887.695,20.020,-19.043,0
1556046921.567,20.508,-34.668,-667.480,-15.137,-3.906,0
1556046921.571,59.082,324.219,-224.609,-16.602,51.270,0
1556046921.575,6.836,92.773,-381.836,10.742,22.461,0
1556046921.579,-52.734,-106.934,-639.648,12.695,-16.602,0
1556046921.581,-3.418,92.773,-468.750,-5.371,19.531,0
1556046921.585,70.801,269.531,-220.215,-8.301,58.594,0
1556046921.589,33.691,92.773,-356.445,7.812,28.809,0
1556046921.593,-47.363,-86.914,-592.285,17.578,5.371,0
1556046921.597,-16.602,3.418,-549.805,7.812,15.137,0
1556046921.601,67.383,100.098,-438.477,-3.418,18.555,0
1556046921.605,64.453,-59.082,-562.988,16.113,18.555,0
1556046921.608,-27.344,-200.684,-759.277,24.902,9.277,0
1556046921.612,-54.199,-37.598,-656.250,-9.277,8.789,0
1556046921.616,38.574,134.766,-433.105,-15.625,30.762,0
1556046921.620,68.359,185.059,-326.660,-4.395,16.113,0
1556046921.624,-14.648,102.051,-397.461,8.789,16.602,0
1556046921.626,-59.082,71.777,-436.523,5.371,35.156,0
1556046921.630,21.973,69.824,-430.664,-5.371,6.348,0
1556046921.634,79.590,112.793,-360.840,-0.977,14.160,0
1556046921.638,5.859,90.332,-373.535,0.000,16.113,0
1556046921.642,-63.477,0.488,-476.074,-0.488,10.742,0
1556046921.646,2.441,-62.012,-530.762,-0.977,23.438,0
1556046921.650,82.031,-197.754,-679.688,-6.836,-23.926,0
1556046921.653,31.738,-64.941,-598.633,-7.812,-29.785,0
1556046921.657,-54.199,116.699,-399.414,3.906,28.320,1
1556046921.661,-24.902,22.949,-453.125,6.836,33.691,0
1556046921.665,62.500,94.727,-359.375,1.953,20.508,0
1556046921.669,58.105,123.047,-301.270,5.859,0.488,0
1556046921.686,-22.949,-58.105,-499.512,19.531,-15.137,0
1556046921.690,-43.457,-108.398,-607.910,9.766,-15.625,0
1556046921.694,35.645,52.734,-446.777,-10.254,3.906,0
1556046921.698,65.430,181.152,-267.090,-14.648,4.395,0
1556046921.702,-13.672,129.883,-273.926,0.977,22.461,0
1556046921.706,-48.828,-175.293,-586.914,20.508,14.648,0
1556046921.710,11.230,-173.340,-662.598,-3.906,-12.207,0
1556046921.713,50.293,246.582,-216.309,-22.949,29.297,0
1556046921.717,8.789,207.520,-160.645,-0.488,29.785,0
1556046921.721,-59.082,-119.629,-513.184,4.883,-7.812,0
1556046921.725,-18.555,-57.617,-502.441,-8.789,1.953,0
1556046921.729,69.336,193.848,-210.938,-6.836,7.812,0
1556046921.731,51.270,149.414,-195.801,8.789,4.883,0
1556046921.735,-26.855,-43.945,-401.367,23.926,-2.441,0
1556046921.739,-20.508,-80.078,-485.840,13.184,8.301,0
1556046921.743,55.176,69.336,-323.242,-6.348,20.020,0
1556046921.747,63.965,142.090,-199.219,-2.930,12.207,0
1556046921.751,-15.137,-26.855,-356.445,22.949,24.414,0
1556046921.755,-51.270,-147.461,-545.410,13.672,10.254,0
1556046921.758,14.160,80.566,-345.215,-16.113,32.715,0
1556046921.762,70.312,167.480,-187.500,1.465,29.785,0
1556046921.766,18.066,-165.039,-533.691,24.414,-17.578,0
1556046921.770,-60.059,-87.402,-567.383,3.418,5.859,0
1556046921.774,10.742,185.059,-279.297,-1.953,29.297,0
1556046921.776,84.473,180.664,-216.309,9.277,19.043,0
1556046921.780,36.621,99.121,-287.109,13.184,7.812,0
1556046921.784,-37.109,8.301,-411.621,25.879,-7.812,0
1556046921.788,-2.930,45.898,-396.973,14.648,2.441,0
1556046921.792,79.102,138.184,-270.508,0.488,24.902,0
1556046921.796,64.941,29.785,-370.117,17.090,-7.812,0
1556046921.800,-21.484,-131.348,-599.609,30.273,-26.367,0
1556046921.803,-31.250,-5.371,-529.785,22.949,14.160,0
1556046921.807,74.219,21.973,-471.680,21.973,7.812,0
1556046921.811,88.867,-25.391,-520.508,14.160,-10.742,0
1556046921.815,-16.113,189.941,-324.707,4.395,37.109,0
1556046921.819,-36.621,117.188,-373.535,21.973,26.855,0
1556046921.821,42.969,104.492,-376.465,16.113,12.207,0
1556046921.825,82.520,214.844,-248.047,8.789,6.836,0
1556046921.829,25.391,143.066,-310.547,24.414,-16.602,0
1556046921.833,-38.574,3.418,-469.727,21.484,1.953,0
1556046921.837,9.277,36.133,-461.914,12.695,20.508,0
1556046921.841,89.355,105.469,-377.930,21.484,21.484,0
1556046921.845,43.457,72.266,-416.992,20.508,-1.465,0
1556046921.848,-36.621,-36.621,-545.410,29.297,-19.043,0
1556046921.852,-6.348,-203.613,-750.000,27.344,-3.906,0
1556046921.856,62.500,59.570,-535.156,3.906,-1.953,0
1556046921.860,60.059,299.805,-235.352,16.602,6.348,0
1556046921.864,-22.461,99.121,-388.672,29.297,32.227,0
1556046921.866,-29.297,-12.207,-538.086,23.926,16.113,0
1556046921.870,59.082,147.949,-376.953,13.184,-2.441,0
1556046921.874,89.844,199.219,-268.555,17.090,-11.230,0
1556046921.878,17.090,38.574,-426.270,29.297,-7.324,0
1556046921.882,-36.621,-47.852,-559.570,27.344,-4.883,0
1556046921.886,29.785,22.461,-501.465,18.555,15.625,0
1556046921.890,84.473,182.129,-312.988,10.254,45.898,0
1556046921.893,46.875,-46.875,-516.602,32.227,-17.578,0
1556046921.897,-43.945,-253.906,-804.199,31.250,-24.902,0
1556046921.901,-16.113,99.609,-500.488,5.859,20.996,0
1556046921.905,80.078,267.090,-239.258,7.324,15.137,0
1556046921.909,46.387,136.719,-289.551,13.184,35.156,0
1556046921.911,-39.062,-32.227,-474.609,23.926,26.855,0
1556046921.915,-31.738,45.898,-427.734,10.254,1.953,0
1556046921.919,62.500,128.418,-300.781,6.836,-12.695,0
1556046921.923,72.266,84.961,-308.105,28.809,-28.809,0
1556046921.927,-20.508,43.945,-371.582,25.391,-12.207,0
1556046921.931,-41.992,-12.695,-455.078,21.484,17.090,0
1556046921.935,49.316,15.137,-431.641,22.949,14.160,0
1556046921.938,85.938,-48.340,-503.418,9.766,-2.441,0
1556046921.942,3.906,-11.719,-524.902,-9.766,-14.648,0
1556046921.946,-57.129,125.000,-395.508,-9.277,6.836,0
1556046921.950,14.160,144.531,-328.125,-8.301,30.273,0
1556046921.954,89.844,209.473,-211.914,-1.465,20.508,0
1556046921.956,36.621,217.773,-174.805,7.324,10.742,0
1556046921.960,-45.898,142.578,-249.023,14.160,47.363,0
1556046921.964,-3.906,45.898,-349.609,10.254,50.781,0
1556046921.968,71.777,49.316,-364.258,-4.395,3.418,0
1556046921.972,45.898,132.812,-286.621,-7.324,-7.812,0
1556046921.976,-23.926,-24.414,-458.496,10.254,-15.625,0
1556046921.980,-8.789,-221.680,-701.172,15.625,-11.719,0
1556046921.983,75.195,-90.820,-613.770,0.977,5.371,0
1556046921.987,67.383,247.559,-262.695,-10.742,19.043,0
1556046921.991,-14.160,174.316,-278.809,7.324,16.602,0
1556046921.995,-37.598,-19.531,-488.281,13.184,-0.488,0
1556046921.999,40.039,96.680,-378.418,-2.441,3.906,0
1556046922.001,80.078,249.023,-166.016,-9.277,21.484,0
1556046922.005,13.672,117.188,-262.695,5.859,11.230,0
1556046922.009,-43.945,-31.738,-440.430,12.695,36.133,0
1556046922.013,11.230,55.176,-382.324,-10.742,36.621,0
1556046922.017,83.496,166.504,-235.840,-9.277,6.836,0
1556046922.021,45.898,-9.766,-388.184,15.625,-9.277,0
1556046922.025,-35.156,-324.707,-778.320,29.297,-1.953,0
1556046922.028,-24.414,-127.441,-674.316,-0.488,13.672,0
1556046922.032,62.988,216.797,-287.598,-8.301,4.883,0
1556046922.036,62.500,92.773,-338.379,14.160,-20.996,0
1556046922.040,-29.785,-83.008,-544.922,18.066,-28.809,0
1556046922.044,-47.852,25.391,-476.074,11.230,18.555,0
1556046922.061,39.062,205.566,-240.234,2.930,62.012,0
1556046922.065,78.125,127.441,-254.395,14.648,29.785,0
1556046922.069,0.488,-45.410,-447.754,27.344,0.000,0
1556046922.073,-47.852,-77.148,-536.621,16.113,-1.465,0
1556046922.077,17.578,58.105,-407.227,-3.906,8.301,0
1556046922.081,92.773,-48.828,-470.215,14.160,-0.488,0
1556046922.085,23.438,-210.449,-680.176,18.066,-30.273,0
1556046922.088,-68.848,-31.250,-567.871,-5.371,-2.930,0
1556046922.092,-11.719,30.273,-470.215,-9.277,37.598,0
1556046922.096,67.871,-28.320,-506.348,-11.719,13.672,0
1556046922.100,24.414,29.785,-460.938,-12.695,1.953,0
1556046922.104,-69.824,52.734,-431.152,-1.953,34.180,0
1556046922.106,-43.457,-4.395,-483.398,-0.977,29.297,0
1556046922.110,54.199,37.109,-433.594,-9.766,9.766,0
1556046922.114,53.223,93.262,-356.934,-2.441,2.930,0
1556046922.118,-43.945,29.297,-415.527,3.418,12.207,0
1556046922.122,-50.781,-82.031,-548.340,-2.441,7.812,0
1556046922.126,45.898,-96.680,-573.242,-13.184,-14.160,0
1556046922.130,62.012,-35.645,-507.812,-22.461,-1.953,0
1556046922.133,-24.902,-14.160,-497.070,-19.043,13.184,0
1556046922.137,-61.523,-75.684,-559.570,-6.836,21.484,0
1556046922.141,5.859,-221.680,-722.656,-17.578,-0.488,0
1556046922.145,31.738,51.758,-477.539,-46.875,7.324,0
1556046922.149,-18.066,137.695,-334.961,-36.133,21.973,0
1556046922.151,-85.449,-178.711,-664.062,-23.926,-2.930,0
1556046922.155,-58.105,-117.188,-675.781,-40.039,-11.719,0
1556046922.159,13.672,146.484,-395.020,-57.129,-4.395,0
1556046922.163,-3.418,151.855,-332.520,-52.246,-1.953,0
1556046922.167,-102.539,-70.312,-569.336,-54.199,-1.953,0
1556046922.171,-112.305,-166.992,-733.887,-75.684,4.395,0
1556046922.175,-22.461,-54.688,-650.391,-84.473,0.000,0
1556046922.178,-32.715,47.852,-561.035,-104.004,-26.367,0
1556046922.182,-131.836,-183.105,-768.066,-104.492,-27.832,0
1556046922.186,-167.480,-290.527,-927.246,-106.934,-0.488,0
1556046922.190,-100.586,108.398,-630.859,-146.973,2.930,0
1556046922.194,-64.453,225.098,-437.500,-155.273,-0.977,0
1556046922.196,-145.020,35.156,-601.562,-145.996,-10.742,0
1556046922.200,-211.426,-29.785,-718.750,-151.367,-1.465,0
1556046922.204,-169.434,40.527,-654.785,-179.199,17.578,0
1556046922.208,-105.957,125.977,-527.832,-183.594,24.414,0
1556046922.212,-138.184,116.699,-506.836,-161.621,25.391,0
1556046922.216,-221.191,-85.449,-748.535,-156.738,0.977,0
1556046922.220,-199.707,-20.508,-739.258,-176.758,4.395,0
1556046922.223,-105.957,151.367,-528.320,-182.617,-5.859,0
1556046922.227,-105.957,-74.707,-726.074,-156.738,-36.621,0
1556046922.231,-203.613,-23.438,-728.516,-165.039,21.484,0
1556046922.235,-209.473,177.734,-519.043,-181.152,53.711,0
1556046922.239,-107.910,183.594,-450.195,-175.293,41.504,0
1556046922.241,-72.754,178.223,-409.180,-160.645,26.855,0
1556046922.245,-154.297,104.980,-487.305,-148.438,-2.441,0
1556046922.249,-189.941,38.574,-566.895,-138.184,4.395,0
1556046922.253,-102.539,65.918,-528.320,-133.789,10.254,0
1556046922.257,-49.316,161.621,-386.719,-126.465,23.926,0
1556046922.261,-95.703,84.473,-431.641,-99.609,42.969,0
1556046922.265,-139.648,-75.195,-632.812,-80.078,39.551,0
1556046922.268,-65.430,-169.434,-767.090,-63.477,-4.395,0
1556046922.272,20.996,-80.078,-708.984,-56.152,-43.945,0
1556046922.276,-24.902,198.242,-408.691,-58.594,1.465,0
1556046922.280,-83.984,128.418,-406.738,-29.785,38.086,0
1556046922.284,-43.457,18.555,-499.023,-17.578,30.762,0
1556046922.286,42.969,173.340,-301.758,-16.113,50.293,0
1556046922.290,60.059,203.613,-205.078,-1.953,25.391,0
1556046922.294,-3.906,-6.836,-401.855,27.344,8.789,0
1556046922.298,-8.301,-142.090,-583.984,39.551,-0.488,0
1556046922.302,76.172,5.859,-449.219,31.738,-17.090,0
1556046922.306,110.840,29.297,-389.648,46.387,-11.719,0
1556046922.310,45.898,-95.215,-515.137,69.824,28.320,0
1556046922.313,11.719,-301.270,-777.832,83.496,13.672,0
1556046922.317,81.055,-148.926,-688.477,67.871,5.371,0
1556046922.321,141.113,179.688,-308.594,76.172,13.184,0
1556046922.325,100.586,37.109,-387.695,105.469,-16.113,0
1556046922.329,35.156,-123.047,-580.078,119.629,-16.113,0
1556046922.331,72.754,72.266,-394.043,91.309,41.992,0
1556046922.335,160.645,199.219,-192.383,82.520,51.270,0
1556046922.339,138.672,36.133,-317.383,100.586,3.906,0
1556046922.343,42.480,-84.961,-471.680,100.586,18.066,0
1556046922.347,63.477,-25.879,-436.035,96.680,29.297,0
1556046922.351,156.738,62.988,-319.336,89.844,44.434,0
1556046922.355,164.551,-90.332,-451.660,100.098,44.922,0
1556046922.358,67.871,-239.258,-663.086,111.328,28.320,0
1556046922.362,26.855,-52.734,-547.363,90.332,13.184,0
1556046922.366,119.141,89.844,-362.305,87.402,-0.977,0
1556046922.370,156.738,37.109,-353.027,89.844,-2.930,0
1556046922.374,80.078,-104.004,-494.629,95.215,0.488,0
1556046922.376,21.973,-110.352,-532.227,97.168,16.113,0
1556046922.380,81.543,-30.762,-447.266,74.219,-10.254,0
1556046922.384,143.066,29.297,-348.145,67.383,-17.090,0
1556046922.388,79.102,60.059,-290.527,69.824,26.855,0
1556046922.392,6.836,-69.824,-426.758,75.195,-0.488,0
1556046922.396,70.312,-177.246,-555.664,76.660,-19.043,0
1556046922.400,151.367,-213.379,-601.562,69.336,4.883,0
1556046922.403,113.770,-34.180,-437.988,57.129,29.297,0
1556046922.407,37.109,41.016,-335.938,70.801,20.020,0
1556046922.411,54.688,-144.531,-510.254,81.055,-26.855,0
1556046922.415,130.371,1.953,-353.516,79.102,15.137,0
1556046922.419,142.578,188.965,-103.516,87.402,65.430,0
1556046922.436,64.941,37.598,-224.121,101.074,33.203,0
1556046922.440,30.762,-121.094,-410.645,95.215,34.668,0
1556046922.444,105.469,-107.910,-430.664,73.730,22.461,0
1556046922.448,137.207,59.570,-256.836,67.871,14.160,0
1556046922.452,66.406,51.270,-225.098,81.543,17.090,0
1556046922.456,15.137,-285.156,-585.938,87.891,12.695,0
1556046922.460,62.500,-246.582,-621.582,59.082,40.527,0
1556046922.463,112.793,105.957,-257.812,31.250,24.414,0
1556046922.467,83.496,96.191,-184.082,44.922,13.672,0
1556046922.471,14.160,-188.965,-466.309,64.941,-2.441,0
1556046922.475,30.273,-204.590,-540.039,45.898,-40.039,0
1556046922.479,110.840,84.473,-215.820,32.227,-16.602,0
1556046922.481,111.328,101.562,-119.629,44.922,7.324,0
1556046922.485,32.715,-101.562,-341.797,63.477,-10.742,0
1556046922.489,20.020,-78.125,-368.652,55.176,15.137,0
1556046922.493,95.703,85.449,-182.129,40.039,15.625,0
1556046922.497,126.465,108.887,-102.051,52.246,28.320,0
1556046922.501,48.340,-128.418,-345.215,68.848,14.648,0
1556046922.505,-8.301,-245.605,-540.527,62.012,2.930,0
1556046922.508,60.547,-51.758,-373.535,39.551,46.875,0
1556046922.512,117.188,81.055,-175.293,35.156,61.035,0
1556046922.516,57.617,-143.555,-378.418,48.828,52.734,0
1556046922.520,-38.574,-140.625,-460.938,25.879,48.340,0
1556046922.524,12.207,66.406,-253.906,7.324,17.090,0
1556046922.526,98.145,75.195,-180.664,8.301,6.348,0
1556046922.530,58.594,83.496,-137.695,9.277,54.199,0
1556046922.534,-20.020,43.457,-184.570,14.160,77.637,0
1556046922.538,4.395,-22.949,-280.273,15.625,26.855,0
1556046922.542,95.703,29.297,-228.516,21.973,12.207,0
1556046922.546,99.121,3.418,-236.816,43.457,41.992,0
1556046922.550,20.996,-158.203,-448.730,54.199,3.418,0
1556046922.553,-7.324,-70.312,-422.852,37.109,1.953,0
1556046922.557,83.984,-49.805,-369.141,41.016,48.340,0
1556046922.561,115.723,-114.258,-456.543,42.480,10.254,0
1556046922.565,19.043,67.871,-320.801,27.344,-0.488,0
1556046922.569,-36.621,9.277,-360.840,29.785,6.836,0
1556046922.571,20.020,-4.883,-368.164,11.719,8.789,0
1556046922.575,76.172,85.938,-257.812,5.371,5.371,0
1556046922.579,11.230,78.613,-251.953,15.137,-10.742,0
1556046922.583,-57.129,-25.879,-360.840,16.602,20.020,0
1556046922.587,-4.883,-47.852,-401.367,11.230,24.902,0
1556046922.591,76.172,-1.465,-364.258,8.789,-4.395,0
1556046922.595,48.828,50.293,-319.336,10.254,13.184,0
1556046922.598,-27.344,-14.648,-376.465,30.273,34.668,0
1556046922.602,-4.883,-267.090,-671.387,33.203,7.324,0
1556046922.606,64.453,-14.648,-485.352,4.883,6.348,0
1556046922.610,80.078,216.309,-196.289,16.113,-1.465,0
1556046922.614,1.953,-4.395,-381.348,31.250,32.715,0
1556046922.616,-49.316,-55.664,-481.934,27.832,50.293,0
1556046922.620,21.973,109.863,-330.566,13.184,5.859,0
1556046922.624,70.801,213.379,-167.480,9.277,21.973,0
1556046922.628,0.977,77.148,-265.137,21.484,54.688,0
1556046922.632,-61.523,-79.590,-469.238,23.438,31.250,0
1556046922.636,3.906,-41.504,-465.332,12.695,16.113,0
1556046922.640,72.754,42.480,-387.207,2.441,-12.207,0
1556046922.643,31.250,-67.383,-479.980,20.020,7.812,0
1556046922.647,-50.781,-209.473,-668.945,25.391,41.016,0
1556046922.651,-26.855,80.078,-430.176,-6.348,49.805,0
1556046922.655,65.430,252.930,-177.246,1.465,41.504,0
1556046922.659,50.781,121.582,-251.465,17.090,1.465,0
1556046922.661,-37.598,5.371,-393.555,20.508,4.883,0
1556046922.665,-32.227,32.227,-386.230,7.324,24.414,0
1556046922.669,59.570,19.531,-381.836,7.324,8.789,0
1556046922.673,68.848,21.973,-387.207,10.254,-17.090,0
1556046922.677,-18.066,32.227,-385.254,8.789,-13.184,0
1556046922.681,-51.758,-120.605,-557.617,19.531,-19.043,0
1556046922.685,29.297,-76.172,-520.508,20.020,-0.977,0
1556046922.688,93.750,-72.266,-495.605,22.461,5.859,0
1556046922.692,6.836,-7.812,-468.262,0.000,4.395,0
1556046922.696,-66.895,100.098,-358.887,6.348,13.184,0
1556046922.700,9.766,39.062,-382.324,15.625,6.836,0
1556046922.704,78.613,114.258,-287.598,1.465,9.766,0
1556046922.706,39.062,156.250,-233.887,8.789,3.906,0
1556046922.710,-41.992,27.832,-374.512,29.785,3.418,0
1556046922.714,-20.508,-54.688,-489.258,19.043,7.812,0
1556046922.718,62.012,63.965,-365.723,1.465,8.789,0
1556046922.722,60.059,154.297,-217.285,13.672,23.438,0
1556046922.726,-20.996,-15.625,-385.254,26.367,35.156,0
1556046922.730,-25.879,-249.512,-669.434,29.785,35.156,0
1556046922.733,46.387,-191.406,-671.875,7.812,21.973,0
1556046922.737,50.293,167.969,-316.406,-11.230,31.738,0
1556046922.741,-10.742,139.648,-282.227,12.695,20.996,0
1556046922.745,-45.410,-48.828,-480.957,18.555,16.602,0
1556046922.749,18.555,72.266,-364.258,1.953,34.668,0
1556046922.751,76.172,208.496,-164.551,-2.441,27.832,0
1556046922.755,30.762,72.754,-266.113,14.160,-3.906,0
1556046922.759,-40.527,-90.820,-466.797,18.555,37.109,0
1556046922.763,-9.766,9.277,-415.527,-6.836,47.852,0
1556046922.767,64.453,204.590,-181.152,-9.766,45.898,0
1556046922.771,46.875,60.547,-274.414,7.812,34.180,0
1556046922.775,-37.109,-331.055,-736.816,23.438,-10.742,0
1556046922.778,-41.016,-201.172,-713.867,4.395,10.742,1
1556046922.782,41.016,172.363,-315.918,-19.043,43.457,0
1556046922.786,59.570,136.719,-279.785,2.441,21.973,0
1556046922.790,-25.879,-1.465,-430.176,14.648,0.977,0
1556046922.794,-54.199,41.016,-427.734,3.418,29.785,0
1556046922.811,33.203,192.383,-241.211,-4.395,65.430,0
1556046922.815,81.055,149.902,-222.656,1.465,45.898,0
1556046922.819,10.742,-16.113,-400.879,18.066,3.906,0
1556046922.823,-62.012,-54.688,-486.328,8.789,-6.348,0
1556046922.827,9.766,17.090,-418.457,-2.930,-24.414,0
1556046922.831,92.773,-49.316,-449.219,9.766,-6.348,0
1556046922.835,24.414,-170.410,-601.562,12.207,6.836,0
1556046922.838,-66.406,-36.621,-534.180,7.812,14.160,0
1556046922.842,-23.926,145.996,-321.777,-11.719,79.102,0
1556046922.846,67.383,129.883,-278.809,-12.207,79.102,0
1556046922.850,62.012,69.824,-331.055,2.441,37.598,0
1556046922.854,-21.973,14.648,-406.738,6.348,44.922,0
1556046922.856,-24.414,-15.625,-459.473,1.953,48.340,0
1556046922.860,59.570,72.754,-355.957,-10.254,23.438,0
1556046922.864,71.777,158.691,-230.957,-6.348,32.227,0
1556046922.868,-15.137,98.145,-281.250,3.418,45.410,0
1556046922.872,-46.875,-44.922,-449.707,4.883,33.203,0
1556046922.876,37.109,-66.895,-490.723,7.812,9.766,0
1556046922.880,68.359,-17.578,-450.684,-3.906,1.465,0
1556046922.883,-9.277,49.805,-390.625,-5.371,19.043,0
1556046922.887,-53.223,-56.152,-484.863,15.625,18.066,0
1556046922.891,11.719,-251.953,-713.379,6.348,-9.277,0
1556046922.895,70.312,2.930,-504.883,-17.578,-17.578,0
1556046922.899,27.344,172.363,-283.203,1.465,-14.648,0
1556046922.916,-41.992,-34.180,-466.797,24.902,0.977,0
1556046922.920,-17.090,-0.488,-441.895,7.812,57.617,0
1556046922.924,66.895,118.164,-299.316,-5.371,37.109,0
1556046922.928,60.547,159.180,-220.703,4.883,35.156,0
1556046922.932,-29.297,33.203,-324.707,20.020,67.871,0
1556046922.936,-33.203,-146.973,-557.617,15.137,31.250,0
1556046922.940,55.176,-41.504,-485.352,0.000,33.203,0
1556046922.943,84.473,157.227,-265.625,1.953,28.809,0
1556046922.947,24.902,-56.641,-450.195,35.645,17.090,0
1556046922.951,-31.250,-294.922,-764.160,36.621,15.137,0
1556046922.955,20.996,56.641,-481.445,-0.977,-8.301,0
1556046922.959,85.449,225.098,-227.539,0.977,-13.184,0
1556046922.946,25.879,73.730,-327.148,16.602,17.090,0
1556046922.950,-48.828,-37.109,-481.445,16.113,1.465,0
1556046922.954,2.930,55.664,-409.180,-4.395,-21.484,0
1556046922.958,84.961,161.621,-249.512,4.883,12.207,0
1556046922.962,49.805,71.289,-307.129,19.531,13.672,0
1556046922.966,-32.715,-136.719,-569.824,26.855,-30.273,0
1556046922.970,-22.949,-135.742,-620.605,16.602,-14.160,0
1556046922.973,58.594,-38.086,-510.742,6.348,-20.996,0
1556046922.977,71.777,1.465,-458.984,10.742,-46.875,0
1556046922.981,-18.066,48.340,-421.875,9.766,-13.672,0
1556046922.985,-41.992,102.051,-357.910,10.742,41.992,0
1556046922.989,57.129,50.293,-374.023,18.555,-4.883,0
1556046922.991,104.980,-139.648,-579.102,30.762,-62.988,0
1556046922.995,10.254,-62.012,-573.730,20.996,-49.316,0
1556046922.999,-41.992,42.480,-478.516,17.090,-25.391,0
1556046923.003,28.809,70.312,-419.434,11.719,-8.789,0
1556046923.007,86.914,160.645,-278.809,18.555,-11.230,0
1556046923.011,40.527,41.016,-369.141,32.227,-10.742,0
1556046923.015,-41.992,-28.320,-477.051,26.855,16.602,0
1556046923.018,6.836,-76.172,-529.785,23.926,29.297,0
1556046923.022,82.031,-58.105,-519.531,18.555,26.367,0
1556046923.026,44.434,171.875,-292.480,15.625,-6.836,0
1556046923.030,-32.715,68.848,-369.629,24.414,-16.602,0
1556046923.034,-23.926,-24.902,-488.281,18.066,-5.371,0
1556046923.036,62.012,130.371,-322.754,5.859,1.465,0
1556046923.040,70.801,248.047,-144.043,8.301,22.461,0
1556046923.044,-13.672,54.688,-312.012,30.762,0.000,0
1556046923.048,-50.293,-112.793,-529.297,24.902,-18.555,0
1556046923.052,24.414,53.223,-386.719,4.883,-0.977,0
1556046923.056,81.055,117.188,-274.414,17.578,41.504,0
1556046923.060,30.762,-63.477,-463.867,38.574,28.809,0
1556046923.063,-23.926,-300.293,-791.992,42.969,-19.531,0
1556046923.067,6.836,-80.078,-652.344,3.418,-6.348,0
1556046923.071,66.406,290.527,-229.004,-9.277,17.578,0
1556046923.075,42.969,129.395,-308.594,25.879,7.812,0
1556046923.079,-47.363,-59.082,-511.719,28.809,52.734,0
1556046923.081,-33.203,54.199,-425.293,1.953,51.270,0
1556046923.085,57.617,172.852,-265.625,0.000,0.488,0
1556046923.089,50.293,82.031,-315.430,15.625,3.418,0
1556046923.093,-28.320,-62.500,-482.910,22.949,16.602,0
1556046923.097,-32.227,-30.762,-484.375,16.602,22.461,0
1556046923.101,52.246,66.895,-379.883,10.254,23.926,0
1556046923.105,82.520,-65.430,-488.770,28.320,1.465,0
1556046923.108,-10.742,-210.449,-696.777,26.855,-14.648,0
1556046923.112,-65.430,50.293,-488.281,0.488,62.012,0
1556046923.116,20.508,187.988,-279.785,0.488,60.547,0
1556046923.120,78.125,165.039,-247.559,4.883,29.297,0
1556046923.124,22.949,85.938,-320.312,19.531,25.879,0
1556046923.142,-50.293,-3.906,-434.570,29.785,0.488,0
1556046923.146,3.418,16.113,-404.297,21.973,26.367,0
1556046923.150,83.984,67.871,-316.406,20.508,34.668,0
1556046923.154,42.969,73.730,-305.176,16.113,-7.324,0
1556046923.158,-44.434,-17.578,-404.297,22.461,-1.953,0
1556046923.162,-21.484,-102.051,-507.812,18.066,14.160,0
1556046923.166,73.730,-211.426,-647.461,10.254,9.277,0
1556046923.169,50.781,-93.262,-593.750,-4.395,-13.672,0
1556046923.173,-47.852,98.145,-424.805,-9.277,-2.441,0
1556046923.177,-45.410,-43.945,-550.293,7.324,-14.160,0
1556046923.181,38.574,-5.859,-507.324,-7.324,-41.016,0
1556046923.185,59.082,195.312,-246.094,-5.859,16.602,0
1556046923.187,-10.742,120.117,-259.766,23.438,37.598,0
1556046923.191,-42.480,-101.562,-496.582,31.250,-4.395,0
1556046923.195,30.762,-74.219,-506.836,16.113,-41.992,0
1556046923.199,77.148,127.441,-291.504,7.812,-30.273,0
1556046923.203,20.996,31.738,-374.512,18.555,-39.551,0
1556046923.207,-41.016,-162.109,-609.375,22.461,-4.395,0
1556046923.211,3.418,-150.879,-637.695,4.395,12.207,0
1556046923.214,71.777,-11.719,-480.957,-3.906,5.371,0
1556046923.218,41.016,88.867,-328.613,6.348,-2.930,0
1556046923.222,-31.250,-183.105,-576.660,25.879,-8.789,0
1556046923.226,-28.809,-254.883,-723.633,6.836,18.555,0
1556046923.230,41.992,207.031,-268.555,-21.973,54.199,0
1556046923.231,61.035,256.348,-113.281,-8.789,56.152,0
1556046923.235,-26.367,-29.297,-400.391,12.207,-3.906,0
1556046923.239,-54.688,-90.332,-534.668,0.977,-20.996,0
1556046923.243,32.715,111.328,-319.824,-10.254,16.113,0
1556046923.247,75.195,161.133,-190.918,7.812,26.367,0
1556046923.251,-2.441,-34.180,-364.258,15.625,45.898,0
1556046923.255,-54.199,-190.430,-593.750,13.184,28.809,0
1556046923.258,9.277,-55.176,-505.859,0.488,10.742,0
1556046923.262,74.707,79.102,-308.105,12.207,25.391,0
1556046923.266,42.969,-223.633,-609.863,33.203,-41.016,0
1556046923.270,-60.547,-211.914,-703.613,11.719,-39.062,0
1556046923.274,-41.504,187.988,-283.691,-6.348,62.988,0
1556046923.276,61.523,228.027,-123.535,4.395,84.473,0
1556046923.280,48.828,113.770,-200.684,13.184,20.508,0
1556046923.284,-45.898,60.059,-266.113,17.578,28.809,0
1556046923.288,-44.434,36.621,-290.527,11.230,38.574,0
1556046923.292,50.293,56.641,-249.023,7.324,17.090,0
1556046923.296,81.055,0.000,-287.109,14.648,8.301,0
1556046923.300,-1.465,-130.859,-457.031,18.066,0.977,0
1556046923.303,-53.711,-28.320,-403.809,0.000,28.809,0
1556046923.307,36.133,-32.227,-375.000,1.465,36.133,0
1556046923.311,88.867,-74.707,-414.551,9.277,20.996,0
1556046923.315,4.395,91.797,-257.324,8.789,17.090,0
1556046923.319,-44.922,-50.781,-400.391,27.832,6.836,0
1556046923.321,19.043,-31.738,-417.480,18.555,1.953,0
1556046923.325,81.055,157.227,-195.312,14.160,2.930,0
1556046923.329,45.410,160.156,-143.555,25.879,4.395,0
1556046923.333,-28.809,-24.902,-335.938,30.762,1.953,0
1556046923.337,3.906,-91.309,-441.895,21.484,-9.277,0
1556046923.341,83.008,8.789,-350.586,9.766,5.859,0
1556046923.345,58.105,90.820,-253.906,8.301,33.203,0
1556046923.348,-25.879,13.184,-317.383,23.926,28.809,0
1556046923.352,-22.461,-231.934,-603.027,29.785,39.062,0
1556046923.356,42.969,-5.859,-437.988,2.930,33.691,0
1556046923.360,63.477,263.184,-115.723,-1.465,15.625,0
1556046923.364,6.348,48.828,-286.621,19.531,17.578,0
1556046923.366,-36.621,-38.574,-416.504,20.020,32.715,0
1556046923.370,39.062,60.059,-324.707,12.207,23.438,0
1556046923.374,97.656,92.285,-264.648,22.461,-5.371,0
1556046923.378,33.203,56.152,-289.062,25.879,10.254,0
1556046923.382,-36.133,-64.453,-439.941,25.391,3.418,0
1556046923.386,11.230,-42.480,-447.266,17.578,33.691,0
1556046923.390,82.031,121.094,-274.414,4.883,39.551,0
1556046923.393,53.223,-4.395,-372.070,19.531,7.812,0
1556046923.397,-41.016,-257.812,-689.941,27.832,-11.719,0
1556046923.401,-45.898,16.113,-494.141,-6.836,-3.906,0
1556046923.405,56.641,231.445,-209.961,-10.742,26.855,0
1556046923.409,66.895,160.156,-224.121,8.301,18.066,0
1556046923.411,-20.508,8.789,-386.230,21.484,-3.906,0
1556046923.415,-31.250,-34.180,-463.379,20.508,0.977,0
1556046923.419,48.828,100.586,-318.359,8.301,26.855,0
1556046923.423,78.613,145.508,-225.586,6.836,21.484,0
1556046923.427,2.930,45.410,-319.824,19.531,35.645,0
1556046923.431,-47.852,-72.266,-471.191,29.785,76.172,0
1556046923.435,24.414,-70.312,-502.930,19.531,27.832,0
1556046923.438,84.961,-118.652,-564.453,22.949,-16.602,0
1556046923.442,25.391,-0.977,-477.539,9.766,16.113,0
1556046923.446,-57.617,92.773,-388.184,6.348,15.137,0
1556046923.450,-18.066,25.879,-421.387,15.137,19.043,0
1556046923.454,68.359,72.266,-344.238,1.465,-4.395,0
1556046923.456,36.621,160.645,-223.145,-5.859,17.578,0
1556046923.460,-41.992,53.223,-308.105,14.648,41.016,0
1556046923.464,-25.879,-89.355,-476.562,17.578,20.020,0
1556046923.468,60.547,27.344,-367.676,1.465,12.695,0
1556046923.472,71.777,156.738,-183.594,7.324,29.297,0
1556046923.476,-6.836,-50.293,-365.723,24.414,38.574,0
1556046923.480,-32.227,-275.879,-627.930,17.090,56.152,0
1556046923.483,41.992,-227.051,-611.328,1.953,54.199,0
1556046923.487,69.336,33.691,-353.027,-6.836,6.348,0
1556046923.491,-2.441,74.707,-272.461,9.766,-19.043,0
1556046923.495,-56.152,-65.918,-417.969,19.043,-3.906,0
1556046923.499,4.395,20.020,-354.980,0.488,9.766,0
1556046923.501,63.965,211.426,-115.723,-7.324,39.062,0
1556046923.505,29.297,128.906,-141.602,14.648,45.898,0
1556046923.509,-41.016,-111.816,-417.969,23.926,14.160,0
1556046923.513,-12.695,-97.656,-472.168,6.836,-21.973,0
1556046923.517,68.359,96.191,-260.254,-0.488,-16.113,0
1556046923.521,62.988,45.410,-256.348,9.277,20.996,0
1556046923.525,-20.020,-302.734,-658.691,20.996,13.184,0
1556046923.528,-41.016,-176.270,-646.484,-2.930,27.344,0
1556046923.532,41.016,235.352,-195.312,-10.254,72.266,0
1556046923.536,76.172,154.297,-173.340,12.695,31.250,0
1556046923.540,5.371,-96.191,-419.922,27.344,5.371,0
1556046923.544,-43.945,-141.113,-524.414,17.090,9.766,0
1556046923.561,20.996,85.938,-298.828,-7.324,32.715,0
1556046923.565,80.566,129.883,-182.129,0.488,38.086,0
1556046923.569,18.555,-22.461,-327.148,14.160,10.254,0
1556046923.573,-55.664,-99.609,-465.820,13.184,-20.020,0
1556046923.577,-1.953,-3.418,-393.066,-0.977,-16.602,0
1556046923.581,84.473,-66.895,-417.969,8.301,-2.930,0
1556046923.585,43.945,-144.531,-523.438,12.207,2.930,0
1556046923.588,-57.617,-4.883,-426.758,6.348,22.461,0
1556046923.592,-35.645,54.688,-340.820,4.395,50.781,0
1556046923.596,66.406,14.160,-347.168,1.465,29.297,0
1556046923.600,57.129,23.438,-334.961,-5.371,25.391,0
1556046923.604,-36.621,26.367,-335.938,-2.930,33.691,0
1556046923.606,-42.480,-84.961,-468.262,0.488,-14.160,0
1556046923.610,45.410,-93.750,-488.281,-7.324,-21.973,0
1556046923.614,69.824,6.836,-378.906,-5.859,13.672,0
1556046923.618,-15.137,31.250,-352.539,9.277,9.766,0
1556046923.622,-56.152,-95.215,-490.723,16.113,-7.324,0
1556046923.626,21.484,-82.031,-482.910,3.906,18.066,0
1556046923.630,75.684,35.645,-345.215,3.418,62.012,0
1556046923.633,17.578,59.570,-315.430,8.789,73.730,0
1556046923.637,-41.992,-49.316,-429.688,21.484,59.082,0
1556046923.641,6.836,-205.078,-613.281,19.043,57.617,0
1556046923.645,60.059,31.738,-408.203,-10.254,43.457,0
1556046923.649,41.016,188.477,-196.777,-3.418,11.719,0
1556046923.651,-32.715,-34.668,-401.855,18.066,22.461,0
1556046923.655,-31.250,-49.316,-442.383,9.766,42.480,0
1556046923.659,54.688,104.004,-275.879,2.441,-7.812,0
1556046923.663,60.547,144.043,-193.848,6.836,-11.719,0
1556046923.667,-21.484,-21.484,-353.027,18.555,31.250,0
1556046923.671,-45.410,-164.551,-548.340,24.414,35.645,0
1556046923.675,33.203,-48.340,-465.332,11.719,29.297,0
1556046923.678,72.266,129.395,-261.719,8.301,18.555,0
1556046923.682,20.996,-96.680,-463.379,32.715,-9.766,0
1556046923.686,-42.969,-287.109,-728.027,30.273,-4.395,0
1556046923.690,-2.441,81.055,-403.320,0.000,12.207,0
1556046923.694,90.332,237.305,-158.203,7.812,9.766,0
1556046923.696,45.898,122.559,-222.168,23.926,36.133,0
1556046923.700,-41.016,-0.488,-368.164,26.367,40.039,0
1556046923.704,0.000,59.082,-321.777,10.254,39.062,0
1556046923.708,79.590,169.922,-158.691,3.418,58.594,0
1556046923.712,64.941,64.941,-217.773,20.996,23.438,0
1556046923.716,-21.973,-172.852,-505.371,29.297,-16.113,0
1556046923.720,-40.527,-134.766,-544.922,-0.488,3.418,0
1556046923.723,39.551,42.969,-350.098,-9.277,9.277,0
1556046923.727,77.148,-116.211,-483.398,10.254,9.277,0
1556046923.731,-15.137,-133.301,-571.777,-1.953,-5.859,0
1556046923.735,-62.500,38.086,-416.504,-7.324,15.137,0
1556046923.739,28.809,49.805,-359.375,-6.836,23.926,0
1556046923.741,82.520,78.613,-307.617,-8.301,-1.953,0
1556046923.745,13.184,102.539,-280.762,-1.465,8.301,0
1556046923.749,-55.176,11.230,-379.883,6.348,25.879,0
1556046923.753,8.301,-44.922,-446.289,-0.977,-3.418,0
1556046923.757,77.637,30.762,-356.445,-10.254,-24.414,0
1556046923.761,22.949,2.441,-355.957,0.000,17.090,0
1556046923.765,-53.223,-138.184,-531.250,14.648,45.898,0
1556046923.768,-10.254,-238.770,-686.035,15.137,15.137,0
1556046923.772,56.641,-96.680,-572.266,0.000,25.879,0
1556046923.776,32.227,213.867,-234.375,-10.742,39.062,0
1556046923.780,-30.273,19.043,-382.324,8.301,0.977,0
1556046923.784,-37.109,-104.980,-534.180,5.371,25.391,0
1556046923.786,41.016,83.008,-355.957,-9.277,-5.859,0
1556046923.790,65.430,200.195,-183.105,-4.883,0.488,0
1556046923.794,-7.812,58.105,-291.992,13.184,20.508,0
1556046923.798,-43.945,-102.539,-499.023,11.719,17.578,0
1556046923.802,23.438,39.551,-373.047,-7.324,27.344,0
1556046923.806,71.289,71.777,-306.641,-6.836,12.695,0
1556046923.810,-0.488,-49.316,-432.617,0.977,22.949,0
1556046923.813,-60.547,-285.645,-732.910,9.766,21.484,0
1556046923.817,-25.391,-136.230,-670.410,-17.578,0.977,0
1556046923.821,40.527,220.703,-271.484,-28.320,-11.719,0
1556046923.825,24.902,146.484,-242.188,-11.230,34.668,0
1556046923.829,-54.688,-67.383,-471.680,-3.418,15.137,0
1556046923.831,-39.062,-7.324,-463.867,-10.742,-3.906,0
1556046923.835,56.641,83.008,-333.008,-8.789,39.551,0
1556046923.839,61.523,5.859,-388.184,0.000,23.926,0
1556046923.843,-29.297,-40.039,-473.633,6.348,-4.395,0
1556046923.847,-47.852,-24.414,-486.328,0.488,-5.859,0
1556046923.851,41.504,89.844,-346.680,-3.906,53.223,0
1556046923.855,87.402,-14.648,-400.879,13.672,65.430,0
1556046923.858,-1.953,-198.242,-627.441,15.137,21.484,0
1556046923.862,-70.801,-30.762,-532.715,-3.418,14.648,0
1556046923.866,7.812,116.211,-347.656,-6.836,13.184,0
1556046923.870,73.730,161.621,-229.980,-7.324,40.039,0
1556046923.874,13.672,98.633,-271.484,-1.953,42.480,0
1556046923.876,-52.734,-10.254,-409.180,8.789,11.230,0
1556046923.880,5.859,3.418,-409.180,8.301,14.160,0
1556046923.884,86.914,65.430,-325.684,5.859,16.113,0
1556046923.888,54.688,76.172,-307.617,19.043,-1.465,0
1556046923.892,-38.574,-42.969,-444.824,26.855,12.695,0
1556046923.896,-30.762,-175.293,-619.141,20.508,0.977,0
1556046923.900,52.734,-199.707,-682.617,9.766,-1.465,2
1556046923.903,56.641,33.203,-461.914,-0.488,42.969,0
1556046923.907,-31.250,179.688,-281.250,12.695,60.059,0
1556046923.911,-51.758,3.418,-432.129,20.508,57.129,0
1556046923.915,40.039,38.574,-404.297,9.277,32.715,0
1556046923.919,84.961,203.613,-208.008,11.230,20.508,0
1556046923.936,16.113,140.137,-231.934,25.879,32.227,0
1556046923.940,-36.621,-56.152,-447.266,31.738,45.898,0
1556046923.944,24.414,-30.762,-463.379,11.719,29.785,0
1556046923.948,83.984,191.895,-221.191,-1.953,48.828,0
1556046923.952,35.645,184.570,-175.293,11.230,62.012,0
1556046923.956,-37.109,-203.125,-584.473,29.297,31.250,0
1556046923.960,-8.301,-229.492,-709.961,12.207,37.109,0
1556046923.963,68.359,117.676,-366.699,-4.883,54.199,0
1556046923.967,56.641,142.578,-282.227,8.301,21.484,0
1556046923.971,-29.785,-44.434,-471.680,22.949,31.738,0
1556046923.975,-42.969,-102.539,-587.402,6.348,11.719,0
1556046923.979,28.809,178.223,-292.480,-21.484,33.203,0
1556046923.981,64.941,205.078,-188.477,-1.953,35.156,0
1556046923.985,-10.742,-15.625,-421.387,14.160,-6.836,0
1556046923.989,-67.383,-31.250,-490.723,-1.465,29.785,0
1556046923.993,7.324,89.355,-373.047,-11.719,15.625,0
1556046923.997,64.453,121.582,-297.363,-11.719,-0.488,0
1556046924.001,11.230,-45.410,-454.102,5.371,15.625,0
1556046924.005,-55.664,-157.227,-620.605,20.508,54.199,0
1556046924.008,-14.160,-9.277,-511.719,1.465,40.527,0
1556046924.012,70.312,95.703,-360.840,-3.418,-13.184,0
1556046924.016,47.852,-119.141,-558.105,14.648,-2.930,0
1556046924.020,-51.758,-155.273,-682.617,0.977,10.254,0
1556046924.024,-39.062,57.617,-498.535,-15.625,-4.883,0
1556046924.026,62.988,166.504,-330.566,-7.812,12.207,0
1556046924.030,59.570,141.602,-309.082,2.930,5.859,0
1556046924.034,-40.527,51.270,-410.645,5.371,-18.066,0
1556046924.038,-49.316,-7.812,-505.859,-0.977,-29.785,0
1556046924.042,42.480,40.527,-451.660,-2.930,-20.996,0
1556046924.046,76.660,7.324,-466.797,6.348,-32.715,0
1556046924.050,-2.441,-60.059,-553.223,17.090,-12.207,0
1556046924.053,-48.828,-57.617,-570.312,10.742,23.438,0
1556046924.057,35.156,-125.000,-634.766,2.930,-21.484,0
1556046924.061,87.402,-55.176,-557.129,7.812,-27.832,0
1556046924.065,13.184,195.312,-278.809,-0.488,22.461,0
1556046924.069,-52.734,92.773,-334.961,12.207,16.602,0
1556046924.071,-15.625,30.762,-396.484,1.465,0.488,0
1556046924.075,67.383,153.809,-245.605,-6.348,46.387,0
1556046924.079,39.551,170.898,-187.988,8.301,37.598,0
1556046924.083,-45.410,45.410,-300.293,22.949,33.691,0
1556046924.087,-15.625,-26.855,-379.883,16.113,56.641,0
1556046924.091,74.707,17.578,-336.914,5.859,45.410,0
1556046924.095,79.590,53.711,-302.246,5.859,11.719,0
1556046924.098,-1.953,-29.297,-390.137,22.461,-23.926,0
1556046924.102,-24.902,-258.301,-666.992,32.227,1.953,0
1556046924.106,39.062,-22.949,-501.953,-8.789,20.508,0
1556046924.110,72.754,265.137,-162.109,-11.230,8.789,0
1556046924.114,12.207,51.758,-320.312,24.414,-3.418,0
1556046924.116,-45.898,-105.957,-527.344,25.879,-24.902,0
1556046924.120,8.301,90.820,-350.586,-0.488,11.230,0
1556046924.124,74.219,239.746,-133.301,0.000,44.922,0
1556046924.128,33.203,118.164,-217.773,10.742,52.734,0
1556046924.132,-46.875,-89.355,-465.820,15.137,33.691,0
1556046924.136,-3.418,-154.785,-593.262,5.859,-14.160,0
1556046924.140,67.871,75.195,-378.906,-14.648,-3.418,0
1556046924.143,54.199,63.477,-331.055,8.789,53.223,0
1556046924.147,-17.090,-158.691,-583.984,26.367,78.613,0
1556046924.151,-28.320,30.762,-471.680,1.953,37.598,0
1556046924.155,62.012,190.430,-263.672,1.953,8.301,0
1556046924.159,84.961,154.297,-240.723,15.137,6.348,0
1556046924.161,0.488,25.391,-382.812,24.902,-13.672,0
1556046924.165,-37.598,32.227,-402.344,19.531,22.461,0
1556046924.169,42.480,107.910,-303.711,11.230,39.551,0
1556046924.173,90.820,107.910,-269.531,19.043,9.277,0
1556046924.177,19.531,43.945,-343.750,29.297,-12.695,0
1556046924.181,-40.527,-107.910,-529.297,34.668,6.348,0
1556046924.185,14.160,-89.844,-543.457,18.555,23.926,0
1556046924.188,85.449,-55.664,-501.465,17.578,52.734,0
1556046924.192,34.180,30.762,-425.781,17.090,51.758,0
1556046924.196,-51.758,103.516,-357.422,11.719,20.508,0
1556046924.200,-11.230,0.488,-456.055,16.113,2.441,0
1556046924.204,76.172,113.770,-328.125,9.766,24.902,0
1556046924.206,58.594,239.258,-153.320,2.441,60.547,0
1556046924.210,-23.926,78.125,-308.105,19.043,21.484,0
1556046924.214,-28.320,-49.316,-466.309,20.020,28.320,0
1556046924.218,55.664,57.617,-363.281,2.441,33.691,0
1556046924.222,82.520,181.641,-197.266,5.371,27.832,0
1556046924.226,9.766,-0.977,-368.164,26.855,40.039,0
1556046924.230,-24.902,-288.086,-726.074,41.504,9.277,0
1556046924.233,43.945,-169.922,-688.965,19.531,13.672,0
1556046924.237,81.055,187.500,-328.613,-1.465,4.395,0
1556046924.241,20.508,161.621,-287.598,18.555,-12.695,0
1556046924.245,-41.504,-75.684,-540.039,29.297,-10.254,0
1556046924.249,5.371,-34.180,-544.434,2.930,-29.785,0
1556046924.252,81.055,158.691,-317.383,-2.441,-32.715,0
1556046924.256,62.012,85.449,-339.844,17.578,-20.020,0
1556046924.260,-28.809,-43.457,-481.445,18.066,12.695,0
1556046924.264,-20.508,29.297,-434.082,8.789,28.320,0
1556046924.268,69.824,172.852,-245.117,1.465,8.301,0
1556046924.272,79.590,87.891,-270.996,19.043,9.766,0
1556046924.276,-4.395,-234.863,-641.602,34.668,17.090,0
1556046924.279,-39.062,-153.809,-674.805,4.883,13.672,0
1556046924.283,44.434,248.047,-258.301,-11.230,53.223,0
1556046924.287,88.379,228.516,-183.594,12.695,54.688,0
1556046924.291,13.672,40.527,-370.117,23.438,28.809,0
1556046924.295,-42.969,47.852,-399.902,17.578,53.223,0
1556046924.296,30.762,110.352,-313.965,14.160,41.016,0
1556046924.300,89.355,51.270,-349.121,16.113,5.859,0
1556046924.304,35.645,15.137,-399.902,22.461,10.742,0
1556046924.308,-32.227,4.395,-430.176,25.879,19.531,0
1556046924.312,7.324,32.715,-417.480,23.438,-0.977,0
1556046924.316,98.145,-41.504,-456.543,31.738,-1.465,0
1556046924.320,63.965,-112.305,-538.086,28.809,30.762,0
1556046924.323,-30.762,10.254,-461.426,20.508,32.227,0
1556046924.327,-16.602,65.430,-397.461,12.207,24.414,0
1556046924.331,69.824,50.781,-385.254,2.930,21.973,0
1556046924.335,77.148,97.656,-325.195,0.488,34.668,0
1556046924.339,-14.160,135.254,-273.926,7.812,70.801,0
1556046924.356,-34.668,-21.973,-444.824,19.043,16.602,0
1556046924.360,44.434,6.836,-440.430,4.395,2.441,0
1556046924.364,77.148,137.695,-302.246,-0.977,8.301,0
1556046924.368,7.324,80.078,-355.469,15.137,-18.555,0
1556046924.372,-40.527,-106.934,-565.430,24.414,12.207,0
1556046924.376,24.414,-139.648,-644.043,21.484,17.090,0
1556046924.380,83.008,48.340,-462.891,11.230,14.648,0
1556046924.383,33.203,189.453,-281.250,11.719,52.734,0
1556046924.387,-24.902,-1.953,-444.824,31.250,41.016,0
1556046924.391,9.766,-197.266,-693.359,20.996,22.949,0
1556046924.395,74.219,99.121,-416.016,0.977,46.875,0
1556046924.399,68.359,225.098,-208.008,19.043,29.297,0
1556046924.401,-11.719,-24.902,-434.082,37.598,25.391,0
1556046924.405,-27.344,-101.562,-550.293,21.484,25.391,0
1556046924.409,45.898,89.844,-358.398,0.488,20.996,0
1556046924.413,74.219,172.363,-217.773,10.742,32.715,0
1556046924.417,2.930,-67.871,-456.543,30.762,-12.207,0
1556046924.421,-33.203,-232.910,-699.219,31.250,-18.066,0
1556046924.425,48.340,-70.312,-572.754,14.648,34.668,0
1556046924.428,91.309,132.324,-335.449,7.812,54.199,0
1556046924.432,31.250,-33.691,-461.426,31.738,59.082,0
1556046924.436,-34.180,-242.188,-733.398,44.434,37.598,0
1556046924.440,2.930,12.207,-551.758,17.578,-26.855,0
1556046924.444,82.520,214.844,-272.949,4.395,2.441,0
1556046924.446,50.293,110.840,-316.406,18.066,38.086,0
1556046924.450,-38.086,-8.789,-475.586,32.715,26.367,0
1556046924.454,-20.996,63.477,-425.293,17.578,25.391,0
1556046924.458,72.754,153.320,-288.086,10.254,35.156,0
1556046924.462,79.102,100.586,-299.805,20.996,31.738,0
1556046924.466,-7.324,-56.641,-487.793,29.297,41.992,0
1556046924.470,-32.715,-108.398,-591.797,22.949,60.547,0
1556046924.473,50.781,8.301,-473.145,17.578,35.645,0
1556046924.477,91.797,-70.312,-534.668,20.020,23.438,0
1556046924.481,-3.906,-52.246,-555.664,8.789,44.434,0
1556046924.485,-47.363,1.465,-526.855,14.160,28.809,0
1556046924.489,30.273,-0.488,-517.578,8.301,12.207,0
1556046924.491,76.172,130.371,-342.285,13.672,22.461,0
1556046924.495,25.879,118.652,-328.613,26.367,3.906,0
1556046924.499,-44.434,8.301,-444.336,19.043,23.926,0
1556046924.503,-3.906,-48.828,-521.973,10.742,14.648,0
1556046924.507,68.848,40.527,-433.105,1.953,-17.578,0
1556046924.511,41.016,19.531,-442.871,23.926,-10.254,0
1556046924.515,-44.434,-83.496,-587.402,23.926,21.484,0
1556046924.518,-21.484,-141.113,-663.574,8.789,57.617,0
1556046924.522,71.289,-97.168,-631.836,10.742,34.180,0
1556046924.526,62.988,181.152,-341.309,4.883,21.973,0
1556046924.530,-18.066,111.816,-358.887,27.344,15.137,0
1556046924.534,-38.574,-24.414,-508.789,31.250,26.367,0
1556046924.536,46.387,87.402,-399.414,10.742,32.227,0
1556046924.540,86.426,147.949,-309.570,11.719,21.973,0
1556046924.544,11.719,49.805,-406.250,26.367,26.855,0
1556046924.548,-40.527,-53.223,-539.062,22.461,34.180,0
1556046924.552,27.344,51.758,-437.988,12.207,33.691,0
1556046924.556,85.449,84.473,-363.281,15.137,20.996,0
1556046924.560,34.180,-41.992,-483.887,20.996,7.324,0
1556046924.563,-37.109,-275.391,-771.484,29.785,2.930,0
1556046924.567,-20.020,-97.168,-668.945,0.488,31.250,0
1556046924.571,65.918,290.039,-211.914,-0.977,54.688,0
1556046924.575,64.453,147.949,-259.277,21.484,31.250,0
1556046924.579,-19.043,-58.105,-490.723,24.414,12.695,0
1556046924.596,-25.879,16.602,-450.195,10.742,18.555,0
1556046924.600,51.270,165.039,-263.184,-6.348,29.297,0
1556046924.604,70.312,115.234,-255.371,4.395,24.414,0
1556046924.608,-14.160,-48.828,-440.918,5.859,4.883,0
1556046924.612,-62.988,-52.734,-480.957,-4.395,76.172,0
1556046924.616,18.066,72.266,-346.680,-13.672,125.977,0
1556046924.620,82.520,-22.949,-416.992,4.395,60.547,0
1556046924.623,6.348,-179.199,-634.277,13.672,20.996,0
1556046924.627,-73.242,-32.227,-577.148,-9.766,11.230,0
1556046924.631,-17.578,102.051,-421.875,-12.695,5.859,0
1556046924.635,59.082,179.199,-287.109,-8.789,32.715,0
1556046924.639,17.578,128.906,-311.035,0.977,24.414,0
1556046924.626,-62.012,9.277,-458.008,12.695,-2.930,0
1556046924.630,-22.949,7.324,-482.422,2.930,15.137,0
1556046924.634,56.641,107.422,-357.910,-2.930,54.199,0
1556046924.638,49.316,128.906,-313.477,3.906,30.273,0
1556046924.642,-28.809,-9.277,-468.750,9.277,-22.461,0
1556046924.646,-35.156,-178.711,-689.941,9.277,-24.902,0
1556046924.650,41.016,-97.168,-645.508,-2.930,-20.996,0
1556046924.653,52.734,70.312,-471.191,-6.836,-17.578,0
1556046924.657,-30.273,95.215,-431.152,5.371,17.090,0
1556046924.661,-49.316,-32.227,-538.574,24.902,20.508,0
1556046924.665,33.691,-213.379,-745.117,20.020,-13.184,0
1556046924.669,62.988,69.336,-484.375,-10.742,27.344,0
1556046924.686,7.812,175.781,-317.383,3.418,29.785,0
1556046924.690,-50.293,-90.332,-585.938,22.461,21.973,0
1556046924.694,-11.719,-5.859,-533.203,-1.953,45.410,0
1556046924.698,56.152,195.801,-287.109,-10.254,33.203,0
1556046924.702,28.809,155.273,-285.645,-0.977,2.930,0
1556046924.706,-40.039,-172.363,-625.977,18.066,16.113,0
1556046924.710,-26.855,-278.809,-830.078,14.160,-13.184,0
1556046924.713,39.062,125.488,-446.289,-15.625,-4.883,0
1556046924.717,54.688,238.770,-236.328,-1.953,25.391,0
1556046924.721,-14.648,-58.594,-520.996,19.043,12.695,0
1556046924.725,-42.480,-152.832,-687.500,5.371,22.461,0
1556046924.729,25.391,147.949,-381.348,-11.719,46.387,0
1556046924.731,70.312,239.746,-191.895,0.977,47.363,0
1556046924.735,0.977,49.316,-363.281,15.137,27.832,0
1556046924.739,-57.617,-14.160,-458.496,9.277,62.500,0
1556046924.743,14.160,57.129,-393.066,0.488,24.414,0
1556046924.747,80.566,98.633,-319.336,2.930,-10.254,0
1556046924.751,27.832,-20.508,-413.086,19.531,32.715,0
1556046924.755,-57.617,-178.711,-626.465,19.043,38.086,0
1556046924.758,-19.043,-55.176,-553.223,-8.789,30.762,0
1556046924.762,75.195,92.285,-354.980,-11.230,2.930,0
1556046924.766,54.688,-83.496,-500.977,8.789,25.391,0
1556046924.770,-45.410,-89.355,-572.266,3.906,45.410,0
1556046924.774,-40.527,68.359,-434.570,-3.418,2.441,0
1556046924.776,52.246,107.422,-339.844,-3.906,15.137,0
1556046924.780,65.430,56.641,-359.863,-0.977,11.230,0
1556046924.784,-30.762,52.734,-384.766,3.418,23.926,0
1556046924.788,-48.828,17.578,-455.078,9.277,4.395,0
1556046924.792,38.574,54.199,-430.176,7.812,0.977,0
1556046924.796,80.566,76.660,-366.211,14.648,62.988,0
1556046924.800,7.812,-30.273,-485.352,20.996,46.875,0
1556046924.803,-43.945,-10.742,-519.531,16.602,-10.742,0
1556046924.807,25.879,-58.105,-544.922,18.555,-0.977,0
1556046924.811,83.008,-58.594,-529.297,14.160,2.441,0
1556046924.815,30.273,137.207,-331.055,5.371,-18.555,0
1556046924.819,-49.805,64.941,-370.605,14.648,-10.742,0
1556046924.822,-17.090,-2.441,-436.035,9.277,-12.695,0
1556046924.826,61.035,159.180,-240.723,-2.930,9.277,0
1556046924.830,51.758,215.332,-112.793,2.930,21.973,0
1556046924.834,-25.391,41.016,-266.602,16.602,26.855,0
1556046924.838,-22.949,-88.867,-437.988,15.625,41.992,0
1556046924.842,66.406,-23.926,-407.715,7.812,15.625,0
1556046924.846,75.195,60.059,-323.730,13.672,-4.883,0
1556046924.849,-8.301,-19.531,-406.250,32.227,25.391,0
1556046924.853,-34.668,-189.941,-623.047,30.273,72.754,0
1556046924.857,20.508,33.203,-451.172,1.465,62.988,0
1556046924.861,77.148,314.453,-107.910,9.766,29.297,0
1556046924.865,33.203,121.094,-242.188,38.574,19.531,0
1556046924.866,-43.457,-37.598,-446.289,29.785,22.461,0
1556046924.870,8.301,86.914,-360.840,10.742,14.648,0
1556046924.874,79.102,215.820,-189.453,13.672,11.230,0
1556046924.878,48.828,96.191,-284.180,34.668,1.953,0
1556046924.882,-25.879,-44.922,-462.891,41.504,9.766,0
1556046924.886,-6.348,-94.727,-560.059,25.391,-20.508,0
1556046924.890,71.777,2.930,-481.445,6.836,-42.480,0
1556046924.893,74.707,-44.434,-500.977,17.578,-7.812,0
1556046924.897,-14.648,-189.453,-694.336,24.902,9.766,0
1556046924.901,-43.457,64.941,-486.816,1.465,39.551,0
1556046924.905,40.527,227.539,-254.883,3.418,34.180,0
1556046924.909,71.289,169.434,-247.070,10.254,9.766,0
1556046924.911,-4.883,64.453,-344.727,11.719,5.859,0
1556046924.915,-51.758,-1.465,-434.570,15.625,-10.254,0
1556046924.919,26.367,31.738,-395.020,7.324,-22.949,0
1556046924.923,79.102,108.887,-275.879,1.953,6.836,0
1556046924.927,14.160,111.328,-237.793,13.184,43.945,0
1556046924.931,-53.223,-69.824,-437.012,24.414,26.855,2
1556046924.935,-7.812,-129.395,-541.016,9.766,3.906,0
1556046924.938,77.637,-156.738,-580.566,7.812,-16.113,0
1556046924.942,31.250,-36.621,-488.281,-1.465,-11.719,0
1556046924.946,-60.059,89.844,-343.262,0.977,27.832,0
1556046924.950,-29.785,-93.262,-519.043,13.672,-0.977,0
1556046924.954,52.246,46.875,-394.531,-1.953,2.930,0
1556046924.956,45.410,267.090,-100.586,-10.254,66.406,0
1556046924.960,-30.273,95.215,-232.422,4.395,38.574,0
1556046924.964,-50.781,-64.941,-420.898,3.418,44.434,0
1556046924.968,32.227,34.180,-337.891,-8.301,47.852,0
1556046924.972,83.008,144.043,-202.637,7.324,7.812,0
1556046924.976,7.812,-3.906,-341.309,22.949,2.930,0
1556046924.980,-35.645,-256.348,-646.484,26.367,20.996,0
1556046924.983,29.785,-199.219,-651.367,10.742,39.551,0
1556046924.987,77.637,141.602,-313.965,-5.371,4.883,0
1556046924.991,35.156,126.953,-273.438,13.184,-31.738,0
1556046924.995,-46.387,-82.031,-509.766,17.578,-30.762,0
1556046924.999,-23.438,58.105,-390.625,-2.441,55.664,0
1556046925.001,58.105,261.719,-110.352,-6.836,96.680,0
1556046925.005,47.852,128.418,-187.988,11.719,59.570,0
1556046925.009,-43.457,-42.969,-381.836,17.090,59.570,0
1556046925.013,-38.574,-0.977,-365.234,2.441,62.012,0
1556046925.017,68.848,125.000,-201.172,1.953,36.621,0
1556046925.021,91.309,66.895,-197.266,14.160,39.062,0
1556046925.025,2.441,-283.691,-588.867,32.715,20.020,0
1556046925.028,-40.039,-232.422,-664.551,13.184,7.324,0
1556046925.032,32.227,191.406,-238.281,-5.859,46.875,0
1556046925.036,83.008,201.660,-135.254,12.695,51.758,0
1556046925.040,14.160,50.293,-280.273,24.414,55.176,0
1556046925.044,-55.664,-14.160,-405.273,12.207,36.133,0
1556046925.061,4.395,45.410,-363.770,-8.301,21.973,0
1556046925.065,85.449,71.289,-300.293,-0.488,20.508,0
1556046925.069,36.133,36.133,-329.590,5.859,24.414,0
1556046925.073,-41.016,-59.570,-450.684,8.789,31.250,0
1556046925.077,-6.836,-86.426,-512.207,5.371,6.836,0
1556046925.081,78.613,-90.332,-519.043,12.695,-18.555,0
1556046925.085,67.871,-144.043,-595.703,18.066,-21.973,0
1556046925.088,-27.832,-9.766,-510.742,8.789,-4.395,0
1556046925.092,-39.062,51.270,-441.895,8.301,13.672,0
1556046925.096,35.645,53.711,-409.668,-1.953,2.441,0
1556046925.100,55.664,149.902,-269.531,-3.418,38.086,0
1556046925.104,-22.949,104.492,-298.828,14.648,23.438,0
1556046925.106,-63.477,-23.926,-450.195,17.578,9.277,0
1556046925.110,26.367,-28.809,-474.609,4.883,32.227,0
1556046925.114,71.777,62.988,-396.484,2.441,-6.348,0
1556046925.118,6.348,143.066,-297.363,15.625,14.648,0
1556046925.122,-41.016,17.578,-408.203,24.902,45.410,0
1556046925.126,22.461,-82.520,-527.832,20.996,11.230,0
1556046925.130,91.797,-23.926,-479.980,19.043,4.883,0
1556046925.133,50.293,27.344,-430.664,20.996,2.441,0
1556046925.137,-29.785,-9.277,-470.703,33.691,29.297,0
1556046925.141,0.977,-191.895,-677.734,37.598,46.387,0
1556046925.145,81.055,-20.996,-560.059,15.625,-5.371,0
1556046925.149,76.172,240.723,-250.000,15.137,9.277,0
1556046925.151,-10.742,-1.953,-464.355,35.156,-5.371,0
1556046925.155,-34.180,-83.008,-598.633,29.297,-3.906,0
1556046925.159,41.504,135.742,-371.094,14.160,20.020,0
1556046925.163,71.289,213.379,-224.121,16.113,26.855,0
1556046925.167,8.301,0.488,-413.574,29.297,10.254,0
1556046925.171,-37.598,-198.730,-672.852,32.715,-8.301,0
1556046925.175,24.414,-93.750,-625.000,9.766,1.953,0
1556046925.178,76.660,159.668,-353.516,-2.930,5.859,0
1556046925.182,36.133,31.250,-425.293,26.855,17.578,0
1556046925.186,-30.762,-288.086,-807.129,37.598,15.137,0
1556046925.190,-9.766,-49.316,-668.945,-6.348,-0.977,0
1556046925.194,67.383,237.305,-329.102,-8.789,0.488,0
1556046925.197,44.434,169.922,-325.684,14.160,0.000,0
1556046925.201,-42.480,32.715,-488.770,17.578,-0.977,0
1556046925.205,-20.508,42.480,-509.766,16.113,-12.695,0
1556046925.209,65.918,155.762,-364.258,4.395,-1.465,0
1556046925.213,68.848,187.500,-268.066,13.672,43.457,0
1556046925.217,-9.277,-17.090,-470.215,32.715,42.969,0
1556046925.221,-41.504,-83.496,-601.562,26.855,22.949,0
1556046925.224,35.156,99.609,-413.086,12.695,30.273,0
1556046925.228,85.449,-9.766,-475.098,14.648,45.898,0
1556046925.232,-5.859,-67.383,-577.637,11.719,-1.465,0
1556046925.236,-77.637,36.133,-508.789,11.719,-19.043,0
1556046925.240,-7.324,72.754,-443.848,5.371,21.973,0
1556046925.241,72.754,120.117,-337.402,10.742,40.527,0
1556046925.245,32.715,109.863,-323.730,15.137,47.363,0
1556046925.249,-48.828,40.527,-404.785,16.602,35.645,0
1556046925.253,-4.395,-28.320,-486.328,16.602,6.348,0
1556046925.257,84.473,47.852,-404.785,6.348,-19.531,0
1556046925.261,66.895,41.504,-380.371,16.113,0.000,0
1556046925.265,-33.203,-47.852,-492.188,18.066,45.898,0
1556046925.268,-29.297,-154.297,-627.441,20.996,36.621,0
1556046925.272,51.270,-143.555,-643.555,4.395,-4.883,0
1556046925.276,49.316,184.570,-307.617,-14.160,14.160,0
1556046925.280,-21.484,125.488,-309.570,13.184,8.301,0
1556046925.284,-50.293,-65.918,-526.367,13.672,-13.184,0
1556046925.286,23.438,49.316,-431.152,-4.883,-11.719,0
1556046925.290,68.848,217.773,-210.938,-9.766,12.695,0
1556046925.294,9.766,124.512,-262.207,11.230,18.066,0
1556046925.298,-45.410,-143.555,-569.336,30.273,-8.789,0
1556046925.302,6.348,-74.219,-558.105,8.301,11.719,0
1556046925.306,81.543,107.422,-354.980,2.441,22.949,0
1556046925.310,51.758,16.602,-415.527,22.949,11.230,0
1556046925.313,-34.180,-241.211,-723.633,29.785,21.484,0
1556046925.317,-23.926,-109.375,-670.410,1.953,25.879,0
1556046925.321,60.547,250.000,-276.367,-12.695,10.742,0
1556046925.325,63.965,162.598,-272.949,11.719,-1.953,0
1556046925.329,-26.367,-28.320,-475.098,18.066,-7.812,0
1556046925.331,-45.898,56.641,-426.270,0.977,41.992,0
1556046925.335,41.504,214.355,-209.473,-9.277,80.078,0
1556046925.339,83.984,91.797,-284.180,9.766,4.395,0
1556046925.343,3.418,-51.758,-460.449,19.043,-19.531,0
1556046925.347,-57.129,-35.645,-477.539,6.836,13.184,0
1556046925.351,16.602,-36.133,-484.375,3.418,-4.883,0
1556046925.355,81.055,-106.445,-541.504,7.324,-3.418,0
1556046925.358,12.695,-172.852,-653.320,12.207,0.488,0
1556046925.362,-66.895,-13.184,-561.523,-0.977,5.371,0
1556046925.366,-6.348,92.285,-430.176,-2.930,-7.324,0
1556046925.370,72.754,125.977,-345.215,2.441,-9.766,0
1556046925.374,38.574,143.555,-297.363,2.930,26.367,0
1556046925.376,-42.480,45.410,-404.297,15.137,13.672,0
1556046925.380,-23.438,-22.949,-499.512,15.137,-21.973,0
1556046925.384,61.523,33.203,-441.895,0.488,-31.250,0
1556046925.388,60.059,110.840,-345.703,1.465,-21.973,0
1556046925.392,-29.785,73.730,-367.188,12.695,21.973,0
1556046925.396,-44.922,-70.312,-519.531,16.602,44.922,0
1556046925.400,43.945,-238.281,-735.840,10.254,-24.902,0
1556046925.403,57.617,-29.785,-569.824,-15.625,-27.344,0
1556046925.407,-24.902,191.406,-308.594,-12.207,32.715,0
1556046925.411,-58.105,-70.312,-555.176,10.254,-2.441,0
1556046925.415,0.977,-50.781,-571.777,-7.812,-6.836,0
1556046925.419,54.688,243.652,-234.375,-15.137,52.246,0
1556046925.436,19.043,176.270,-244.629,13.672,24.902,0
1556046925.440,-44.922,-78.613,-525.879,24.414,-3.418,0
1556046925.444,-12.695,-76.172,-579.102,4.395,-0.488,0
1556046925.448,58.594,155.762,-324.219,-5.859,13.672,0
1556046925.452,39.551,191.895,-213.379,11.230,32.715,0
1556046925.456,-35.645,-141.602,-536.621,41.016,49.316,0
1556046925.460,-36.133,-258.301,-749.023,24.902,22.461,0
1556046925.463,40.039,86.914,-442.871,-9.277,-8.789,0
1556046925.467,65.430,191.406,-272.461,-1.465,-26.367,0
1556046925.471,-15.137,-93.750,-540.039,16.602,-12.207,0
1556046925.475,-57.129,-174.805,-663.574,7.324,28.320,0
1556046925.479,14.648,120.605,-365.234,-13.184,10.254,0
1556046925.481,68.848,145.508,-263.672,0.977,18.555,0
1556046925.485,9.277,-54.199,-465.820,14.160,-13.184,0
1556046925.489,-70.312,-55.664,-529.297,0.977,-8.301,0
1556046925.493,-18.555,77.637,-388.672,-13.672,18.066,0
1556046925.497,63.965,129.395,-288.574,0.000,-12.695,0
1556046925.501,30.762,13.184,-382.324,11.230,25.879,0
1556046925.505,-56.641,-130.859,-574.219,11.230,59.570,0
1556046925.508,-30.273,-12.207,-500.977,-1.465,24.902,0
1556046925.512,69.824,137.695,-292.480,-1.953,21.973,0
1556046925.516,72.754,-86.914,-474.609,18.066,26.855,0
1556046925.520,-37.598,-134.766,-599.121,7.324,5.859,0
1556046925.524,-51.758,62.012,-416.992,-1.953,16.602,0
1556046925.526,55.176,62.988,-375.488,2.441,-1.465,0
1556046925.530,68.359,122.070,-287.598,-2.441,44.922,0
1556046925.534,-14.160,104.492,-303.223,7.812,37.598,0
1556046925.538,-40.039,-97.168,-543.457,23.926,-12.207,0
1556046925.542,30.762,-75.195,-537.109,13.672,31.738,0
1556046925.546,73.730,25.391,-408.203,7.324,23.926,0
1556046925.550,18.066,-93.750,-528.320,27.344,-33.203,0
1556046925.553,-57.617,-80.566,-564.941,23.926,-13.184,0
1556046925.557,6.836,-41.992,-511.719,14.160,53.223,0
1556046925.561,83.984,-57.617,-524.414,4.395,17.090,0
1556046925.565,36.133,166.504,-313.965,-2.441,5.859,0
1556046925.569,-28.809,113.281,-327.148,16.113,38.574,0
1556046925.572,-14.648,-8.301,-455.078,4.395,19.043,0
1556046925.576,58.594,130.859,-309.570,-10.254,23.438,0
1556046925.580,56.641,211.914,-175.293,-2.441,32.715,0
1556046925.584,-28.809,50.293,-315.430,6.836,41.992,0
1556046925.588,-46.387,-106.445,-516.602,5.859,14.648,0
1556046925.592,35.156,-29.297,-458.984,-8.789,21.484,0
1556046925.596,73.242,17.090,-391.113,0.000,7.812,0
1556046925.599,-7.812,-66.895,-466.797,13.184,9.766,0
1556046925.603,-48.340,-279.785,-721.191,18.066,12.207,0
1556046925.607,12.207,-102.539,-601.562,-8.301,-27.832,0
1556046925.611,52.734,268.066,-156.738,-20.020,0.977,0
1556046925.615,16.113,113.281,-213.379,8.301,14.160,0
1556046925.617,-40.527,-89.844,-440.918,21.973,-10.742,0
1556046925.621,-5.859,61.523,-316.895,5.859,15.625,0
1556046925.625,77.637,218.750,-98.145,1.953,41.992,0
1556046925.629,54.688,97.168,-180.664,15.625,24.414,0
1556046925.633,-33.691,-74.707,-390.625,26.855,13.184,0
1556046925.637,-12.695,-147.461,-517.578,28.320,2.930,0
1556046925.641,63.965,37.109,-354.492,7.812,7.324,0
1556046925.644,78.613,56.152,-281.250,18.555,38.086,0
1556046925.648,-3.906,-170.410,-533.203,28.320,37.109,0
1556046925.652,-47.363,-66.406,-506.836,11.719,26.855,0
1556046925.656,46.387,97.656,-315.430,7.812,52.734,0
1556046925.660,80.078,191.895,-168.945,10.254,56.152,0
1556046925.661,8.789,51.758,-309.082,26.855,-20.020,0
1556046925.665,-46.875,-22.461,-422.363,26.367,-23.926,0
1556046925.669,15.137,27.832,-365.234,18.555,-3.906,0
1556046925.673,88.867,104.492,-254.883,12.207,13.672,0
1556046925.677,38.574,115.723,-211.426,16.113,40.527,0
1556046925.681,-34.180,-92.773,-438.477,25.391,28.320,0
1556046925.685,6.836,-143.555,-547.363,16.602,18.555,0
1556046925.688,99.609,-135.742,-561.035,10.742,1.953,0
1556046925.692,64.941,8.789,-432.617,1.465,22.461,0
1556046925.696,-26.855,115.723,-308.594,8.301,18.066,0
1556046925.700,-10.254,-59.082,-465.820,14.648,-22.949,0
1556046925.704,56.641,54.199,-340.332,-1.465,2.441,0
1556046925.706,68.848,122.559,-225.586,5.859,2.930,0
1556046925.710,-7.812,-19.531,-373.535,15.625,-6.836,0
1556046925.714,-57.129,-87.402,-473.145,11.719,33.203,0
1556046925.718,14.160,-12.695,-409.180,5.371,20.020,0
1556046925.722,63.477,170.410,-181.152,6.836,15.137,0
1556046925.726,5.371,51.758,-255.859,16.602,39.551,0
1556046925.730,-47.363,-266.602,-626.465,26.855,24.414,0
1556046925.733,9.766,-244.141,-698.730,6.348,9.277,0
1556046925.737,68.848,191.895,-258.301,-20.996,41.016,0
1556046925.741,38.086,207.520,-153.809,5.371,20.996,0
1556046925.745,-38.574,-19.043,-382.324,16.113,18.066,0
1556046925.749,-20.020,-9.277,-408.691,4.395,19.043,0
1556046925.752,64.453,152.832,-215.820,4.395,5.371,0
1556046925.756,66.895,118.652,-206.055,26.855,-28.320,0
1556046925.760,-10.742,-48.828,-394.043,34.180,-12.207,0
1556046925.764,-35.645,-120.605,-534.668,9.277,0.000,0
1556046925.768,36.133,51.270,-375.977,-6.348,-10.254,0
1556046925.772,74.707,131.836,-225.098,7.324,32.227,0
1556046925.776,0.488,-223.145,-599.609,28.320,5.371,0
1556046925.779,-65.918,-181.641,-658.691,8.789,26.367,0
1556046925.783,-5.371,243.164,-196.289,-16.113,117.188,0
1556046925.787,66.406,216.309,-116.211,0.488,79.102,0
1556046925.791,8.301,51.758,-266.602,18.066,41.992,0
1556046925.795,-65.430,-0.488,-354.492,15.137,39.551,0
1556046925.811,-2.930,19.531,-355.957,-2.441,2.930,0
1556046925.815,81.055,66.406,-291.504,-3.418,5.371,0
1556046925.819,47.852,36.621,-302.734,8.789,12.695,0
1556046925.823,-30.762,-73.730,-443.359,14.648,-36.133,0
1556046925.827,-18.555,-71.777,-468.750,0.488,-56.641,0
1556046925.831,81.055,-125.000,-484.863,7.324,-35.645,0
1556046925.835,88.379,-214.355,-605.469,9.277,-26.367,0
1556046925.838,-19.531,8.301,-442.383,-0.488,20.996,0
1556046925.842,-29.785,91.797,-336.426,14.648,50.781,0
1556046925.846,55.176,115.234,-286.133,10.254,52.246,0
1556046925.850,81.055,162.598,-209.473,6.836,37.109,0
1556046925.854,1.465,90.820,-266.113,10.742,30.762,0
1556046925.871,-55.664,-49.316,-436.035,5.859,22.461,0
1556046925.875,7.812,-33.203,-450.195,-7.812,19.531,0
1556046925.879,65.430,69.336,-333.008,-8.301,-11.719,0
1556046925.883,20.508,72.754,-305.176,7.812,-3.906,0
1556046925.887,-48.340,-53.711,-444.824,22.949,17.090,0
1556046925.891,-1.953,-112.305,-539.551,23.926,24.902,0
1556046925.895,72.266,-13.672,-458.008,8.789,40.039,0
1556046925.898,43.457,73.242,-371.094,3.418,-3.418,0
1556046925.902,-30.273,-14.648,-447.754,18.555,-2.930,0
1556046925.906,-14.160,-229.004,-687.500,14.648,57.617,0
1556046925.910,51.758,-10.254,-518.066,-6.836,44.922,0
1556046925.914,58.594,260.254,-180.664,-1.465,32.227,0
1556046925.901,-12.695,43.457,-339.844,11.719,41.016,0
1556046925.905,-46.387,-79.590,-501.953,0.000,45.898,0
1556046925.909,21.484,114.746,-303.711,-22.949,61.523,0
1556046925.913,73.730,165.039,-203.613,-11.230,5.859,0
1556046925.917,18.555,-17.090,-374.023,16.113,-12.207,0
1556046925.921,-51.270,-187.500,-602.051,18.555,16.602,0
1556046925.925,9.277,-114.258,-585.449,0.977,11.230,0
1556046925.928,73.242,90.820,-355.957,-6.836,18.066,0
1556046925.932,20.020,71.289,-336.914,2.441,45.410,0
1556046925.936,-47.852,-84.473,-529.297,8.301,16.113,0
1556046925.940,-21.973,23.438,-452.148,-7.324,17.578,0
1556046925.944,55.176,199.707,-229.980,-12.695,30.762,0
1556046925.946,70.801,-77.637,-467.773,17.578,-17.578,0
1556046925.950,-20.020,-307.617,-790.039,28.320,-42.969,2
1556046925.954,-42.480,13.184,-542.480,1.465,9.277,0
1556046925.958,63.965,144.531,-348.145,-1.953,8.301,0
1556046925.962,84.961,146.973,-281.738,1.465,32.227,0
1556046925.966,3.906,3.418,-426.270,13.672,62.012,0
1556046925.970,-40.039,-86.426,-575.195,14.648,69.336,0
1556046925.973,36.133,29.297,-465.332,5.859,16.113,0
1556046925.977,97.656,-62.988,-522.949,19.043,3.418,0
1556046925.981,13.184,-39.551,-525.391,5.371,40.527,0
1556046925.985,-60.059,66.895,-437.500,1.953,19.531,0
1556046925.989,6.348,53.223,-423.828,12.207,40.527,0
1556046925.991,83.008,125.488,-310.547,3.906,40.527,0
1556046925.995,41.992,179.688,-230.957,1.953,36.621,0
1556046925.999,-44.922,69.336,-328.125,19.043,63.965,0
1556046926.003,-24.902,-80.566,-503.906,19.531,41.992,0
1556046926.007,54.199,47.363,-375.977,6.836,42.969,0
1556046926.011,64.453,47.852,-343.262,15.625,12.695,0
1556046926.015,-18.555,-66.895,-491.699,20.508,24.414,0
1556046926.018,-34.180,-162.109,-608.887,14.160,63.965,0
1556046926.022,55.664,-143.555,-610.352,6.348,46.387,0
1556046926.026,73.242,150.391,-312.500,-4.883,12.207,0
1556046926.030,-6.348,142.090,-261.230,5.859,23.438,0
1556046926.034,-57.129,-64.453,-479.004,15.625,31.250,0
1556046926.036,7.324,9.766,-421.387,-3.418,24.414,0
1556046926.040,74.219,219.238,-142.090,-8.301,49.805,0
1556046926.044,25.879,112.793,-186.523,17.578,40.039,0
1556046926.048,-52.246,-98.633,-429.688,32.227,15.137,0
1556046926.052,-10.742,-28.320,-384.277,20.508,24.414,0
1556046926.056,69.336,83.008,-225.586,4.883,41.504,0
1556046926.060,57.129,-27.832,-319.824,23.926,3.418,0
1556046926.063,-33.691,-280.273,-625.977,42.480,25.879,0
1556046926.067,-46.387,-162.598,-592.285,16.602,39.551,0
1556046926.071,49.805,180.176,-220.215,0.977,-8.301,0
1556046926.075,73.730,141.113,-160.156,16.602,1.465,0
1556046926.079,-11.719,-52.246,-346.680,27.344,-7.324,0
1556046926.081,-51.270,-34.180,-370.117,18.066,-8.301,0
1556046926.085,35.645,124.512,-176.270,9.766,19.531,0
1556046926.089,87.891,133.301,-89.355,20.020,37.598,0
1556046926.093,18.555,0.977,-209.473,25.879,25.879,0
1556046926.097,-43.457,-83.008,-333.496,24.414,-11.230,0
1556046926.101,21.484,-56.641,-328.613,22.461,-19.043,0
1556046926.105,101.562,-77.637,-312.500,25.879,3.418,0
1556046926.108,42.480,-188.965,-447.266,32.715,-21.484,0
1556046926.112,-57.617,-55.176,-370.605,24.902,-9.277,0
1556046926.116,-15.137,-8.301,-308.105,16.602,-4.883,0
1556046926.120,58.594,74.707,-203.125,6.836,-4.883,0
1556046926.124,38.086,176.758,-39.062,11.719,38.086,0
1556046926.126,-33.691,77.148,-111.328,26.367,41.016,0
1556046926.130,-33.691,2.441,-203.613,20.508,31.738,0
1556046926.134,44.922,62.012,-136.719,5.371,34.668,0
1556046926.138,65.430,131.836,-40.039,17.578,22.461,0
1556046926.142,-10.742,53.223,-105.469,30.762,24.902,0
1556046926.146,-34.180,-122.070,-309.570,32.715,39.551,0
1556046926.150,49.805,-267.578,-519.531,23.438,6.836,0
1556046926.153,83.984,-65.918,-371.582,4.395,15.137,0
1556046926.157,8.301,142.578,-150.879,9.766,10.742,0
1556046926.161,-42.969,-74.219,-367.188,36.133,-40.039,0
1556046926.165,8.301,-22.461,-344.238,24.414,5.859,0
1556046926.169,78.613,223.145,-51.270,10.742,58.105,0
1556046926.186,45.410,145.020,-76.660,30.273,64.453,0
1556046926.190,-30.273,-79.590,-338.379,50.781,41.016,0
1556046926.194,-15.137,-76.172,-396.484,28.320,9.766,0
1556046926.198,60.547,171.387,-132.324,8.789,56.152,0
1556046926.202,64.941,201.172,-44.434,19.531,43.457,0
1556046926.206,-6.836,-141.113,-404.297,37.598,32.715,0
1556046926.210,-28.809,-243.652,-607.910,27.832,61.035,0
1556046926.213,30.273,95.215,-309.082,0.000,18.555,0
1556046926.217,63.477,238.770,-90.332,7.324,28.809,0
1556046926.221,0.000,-51.758,-370.605,21.484,6.836,0
1556046926.225,-45.410,-174.805,-596.191,7.324,-17.578,0
1556046926.229,8.789,159.668,-270.020,-11.719,70.801,0
1556046926.231,76.172,199.707,-150.879,-1.953,33.203,0
1556046926.235,21.973,51.758,-296.387,5.859,19.043,0
1556046926.239,-64.453,-45.898,-438.965,10.254,41.016,0
1556046926.243,-20.508,-35.156,-464.355,1.465,19.531,0
1556046926.247,62.012,123.535,-285.156,0.488,41.016,0
1556046926.251,43.945,20.020,-354.492,17.090,24.902,0
1556046926.255,-47.363,-158.691,-600.098,23.438,4.395,0
1556046926.258,-46.387,-30.762,-536.133,-1.465,-7.324,0
1556046926.262,49.805,123.047,-335.938,-4.883,10.254,0
1556046926.266,75.684,-65.430,-488.281,16.113,37.109,0
1556046926.270,-20.020,-143.066,-652.832,7.324,-14.648,0
1556046926.274,-55.176,36.621,-519.531,-6.348,-20.508,0
1556046926.276,31.738,124.023,-371.094,-11.719,58.105,0
1556046926.280,65.430,105.469,-343.262,-8.789,17.090,0
1556046926.284,-8.789,31.250,-395.508,0.488,-15.137,0
1556046926.288,-55.664,-121.094,-507.324,6.348,-1.953,0
1556046926.292,17.578,-245.605,-544.922,-2.441,4.883,0
1556046926.296,81.055,-306.641,-504.883,-6.348,20.508,0
1556046926.300,29.785,-442.383,-588.379,3.418,0.488,0
1556046926.303,-48.828,-593.262,-698.730,9.766,0.000,0
1556046926.307,-3.906,-704.590,-778.320,8.789,-14.648,0
1556046926.311,80.078,-638.672,-714.844,2.930,-25.879,0
1556046926.315,45.898,-321.777,-411.133,-10.254,5.371,0
1556046926.319,-31.738,-321.289,-462.402,9.277,-15.625,0
1556046926.322,-27.344,-311.523,-575.684,8.789,3.418,0
1556046926.326,51.270,-212.891,-394.531,-10.254,52.246,0
1556046926.330,66.895,-322.754,-292.480,2.441,24.902,0
1556046926.334,-4.883,-596.680,-523.926,16.602,-36.621,0
1556046926.338,-36.621,-680.664,-695.801,5.859,-28.320,0
1556046926.342,36.133,-484.375,-549.805,-0.977,56.641,0
1556046926.346,77.148,-301.270,-380.859,-3.418,45.898,0
1556046926.349,16.113,-234.863,-361.328,7.324,21.973,0
1556046926.353,-37.109,-472.168,-715.332,23.926,30.273,0
1556046926.357,12.207,-317.383,-726.074,-3.906,31.250,0
1556046926.361,80.078,131.348,-312.012,-7.812,16.602,0
1556046926.365,52.734,52.246,-368.164,20.508,-24.414,0
1556046926.366,-25.391,-138.184,-632.324,28.809,-31.738,0
1556046926.370,-17.578,-7.812,-596.680,4.395,-16.113,0
1556046926.374,66.406,224.121,-367.676,-1.465,-7.812,0
1556046926.378,62.500,219.238,-332.520,10.254,7.812,0
1556046926.382,-26.855,62.988,-521.484,12.207,-2.441,0
1556046926.386,-35.156,30.273,-612.305,16.602,6.836,0
1556046926.390,47.363,176.758,-476.562,5.859,21.973,0
1556046926.393,85.938,162.109,-451.660,14.648,4.883,0
1556046926.397,4.883,-4.883,-638.184,24.902,10.254,0
1556046926.401,-50.293,145.508,-552.734,5.859,-0.977,0
1556046926.405,35.645,331.055,-317.383,10.254,10.742,0
1556046926.409,93.262,326.172,-247.559,16.113,3.906,0
1556046926.411,27.344,191.406,-382.324,14.648,-5.371,0
1556046926.415,-47.852,142.578,-468.262,12.207,-6.348,0
1556046926.419,5.371,230.957,-363.770,10.254,17.578,0
1556046926.423,81.543,261.719,-288.086,10.254,9.277,0
1556046926.427,41.016,237.793,-293.457,9.277,-16.113,0
1556046926.431,-35.156,114.258,-426.270,17.090,32.227,0
1556046926.435,-6.348,41.992,-528.809,17.578,41.016,0
1556046926.438,79.590,-13.184,-579.102,10.742,0.977,0
1556046926.442,65.430,121.094,-415.527,3.418,37.598,0
1556046926.446,-21.484,240.234,-251.953,9.766,62.012,0
1556046926.450,-31.738,98.633,-375.488,21.484,72.754,0
1556046926.454,50.293,158.203,-316.406,21.484,64.941,0
1556046926.456,85.449,269.043,-186.523,14.648,14.648,0
1556046926.460,14.160,214.355,-223.145,27.832,33.691,0
1556046926.464,-24.902,-9.766,-480.469,39.551,12.695,0
1556046926.468,31.738,21.973,-501.953,16.602,27.344,0
1556046926.472,75.684,237.305,-265.625,11.719,37.109,0
1556046926.476,35.645,139.648,-328.125,27.344,5.371,0
1556046926.480,-25.391,-123.535,-616.699,40.527,36.133,0
1556046926.483,10.742,-128.906,-689.453,21.973,49.316,0
1556046926.487,73.242,229.980,-340.332,-1.465,20.508,0
1556046926.491,54.688,315.918,-157.715,18.555,31.250,0
1556046926.495,-30.762,91.309,-366.211,28.809,36.133,0
1556046926.499,-27.344,74.707,-413.574,23.438,48.828,0
1556046926.501,63.965,256.836,-188.477,18.555,63.477,0
1556046926.505,76.172,261.719,-109.375,22.461,58.105,0
1556046926.509,-7.324,36.133,-340.820,31.738,27.832,0
1556046926.513,-43.457,3.906,-434.082,23.438,41.016,0
1556046926.517,39.062,155.762,-269.043,14.160,40.527,0
1556046926.521,85.449,153.809,-213.867,18.066,61.523,0
1556046926.525,19.531,-168.945,-555.176,29.297,58.105,0
1556046926.528,-51.270,-194.336,-694.824,15.137,21.484,0
1556046926.532,-2.441,186.035,-320.801,-0.977,49.805,0
1556046926.536,78.613,208.496,-208.496,14.648,24.414,0
1556046926.540,36.133,85.449,-305.176,18.555,16.602,0
1556046926.544,-50.293,41.504,-380.371,12.207,34.668,0
1556046926.561,-24.902,70.312,-365.723,2.441,14.160,0
1556046926.565,68.359,135.742,-263.184,0.488,31.738,0
1556046926.569,56.641,97.168,-272.949,9.766,24.902,0
1556046926.573,-39.062,30.273,-364.258,4.395,15.137,0
1556046926.577,-43.457,26.367,-391.113,-8.301,20.020,0
1556046926.581,54.199,-63.965,-464.844,3.418,2.930,0
1556046926.585,79.590,-73.730,-481.445,13.672,19.531,0
1556046926.588,-15.625,5.859,-448.730,9.766,-5.859,0
1556046926.592,-42.969,20.020,-451.172,10.742,5.859,0
1556046926.596,42.969,-12.695,-467.285,7.812,20.508,0
1556046926.600,87.402,42.969,-413.574,0.977,-24.414,0
1556046926.604,14.648,139.160,-305.176,8.789,-19.531,0
1556046926.606,-50.293,15.137,-413.086,16.602,1.465,0
1556046926.610,13.672,-31.738,-478.516,9.766,-24.414,0
