timestamps,TP9,AF7,AF8,TP10,Right AUX,Marker0
1581348048.199,29.785,11.23,32.715,21.484,0.0,0
1581348048.2029998,25.879,3.418,32.715,23.926,0.0,0
1581348048.207,27.832,-3.418,31.25,29.785,0.0,0
1581348048.211,28.809,-4.395,30.762,20.02,0.0,0
1581348048.215,38.574,-1.465,29.785,14.16,0.0,0
1581348048.219,32.227,-2.93,33.691,33.691,0.0,0
1581348048.2229998,41.504,-3.906,35.156,46.387,0.0,0
1581348048.226,46.875,-1.465,35.156,28.32,0.0,0
1581348048.23,41.992,7.812,35.156,30.762,0.0,0
1581348048.234,45.41,10.254,34.18,38.574,0.0,0
1581348048.238,42.969,6.836,33.203,27.344,0.0,0
1581348048.242,50.78100000000001,8.789,28.809,27.344,0.0,0
1581348048.244,42.969,12.207,27.832,29.785,0.0,0
1581348048.248,30.273000000000003,11.23,31.25,17.578,0.0,0
1581348048.252,34.668,9.277,35.156,20.508000000000006,0.0,0
1581348048.256,42.969,13.672,34.668,32.227,0.0,0
1581348048.26,46.387,19.043,38.574,21.484,0.0,0
1581348048.264,36.621,20.02,37.598,20.996,0.0,0
1581348048.268,28.32,17.578,33.203,31.25,0.0,0
1581348048.271,32.715,27.832,31.738000000000003,20.996,0.0,0
1581348048.275,33.203,33.691,31.738000000000003,22.461,0.0,0
1581348048.279,24.902,20.02,33.203,20.02,0.0,0
1581348048.283,12.695,14.648,30.762,11.719,0.0,0
1581348048.2870002,25.879,17.09,31.25,14.648,0.0,0
1581348048.304,32.715,21.973000000000006,32.227,17.09,0.0,0
1581348048.3079998,22.461,18.066,29.785,12.207,0.0,0
1581348048.312,31.25,12.207,29.297,9.277,0.0,0
1581348048.316,32.227,14.648,31.738000000000003,28.32,0.0,0
1581348048.32,37.109,12.695,32.227,26.855,0.0,0
1581348048.324,32.715,6.348,30.762,13.184,0.0,0
1581348048.3279998,28.32,10.254,31.25,18.066,0.0,0
1581348048.331,43.945,20.02,30.273000000000003,26.855,0.0,0
1581348048.335,45.898,20.508000000000006,27.344,30.762,0.0,0
1581348048.339,35.645,16.602,27.832,19.531,0.0,0
1581348048.343,30.762,21.973000000000006,28.809,22.949,0.0,0
1581348048.347,40.039,32.227,26.855,35.645,0.0,0
1581348048.349,43.457,24.414,27.344,37.598,0.0,0
1581348048.353,52.734,20.508000000000006,29.297,42.48,0.0,0
1581348048.357,41.992,23.438,32.227,40.527,0.0,0
1581348048.361,15.625,19.043,31.25,29.297,0.0,0
1581348048.365,17.09,17.09,26.367,21.484,0.0,0
1581348048.369,20.02,16.113,24.902,20.996,0.0,0
1581348048.373,16.113,16.113,28.32,17.09,0.0,0
1581348048.3760002,11.719,22.949,28.809,5.859,0.0,0
1581348048.38,30.762,23.438,29.785,13.184,0.0,0
1581348048.3839998,33.691,18.066,30.273000000000003,19.531,0.0,0
1581348048.3879998,12.695,27.832,28.32,12.695,0.0,0
1581348048.3920002,17.09,31.25,26.855,12.695,0.0,0
1581348048.394,22.461,20.508000000000006,28.809,1.465,0.0,0
1581348048.3979998,27.832,22.461,31.25,2.93,0.0,0
1581348048.4020002,32.715,31.25,31.25,11.719,0.0,0
1581348048.406,23.438,26.855,31.738000000000003,10.254,0.0,0
1581348048.41,13.184,17.09,31.25,17.09,0.0,0
1581348048.414,27.344,20.02,35.156,19.043,0.0,0
1581348048.418,49.805,31.738000000000003,28.32,20.996,0.0,0
1581348048.421,44.434,39.551,25.391,26.367,0.0,0
1581348048.425,15.625,27.832,33.203,20.996,0.0,0
1581348048.429,6.348,16.113,34.18,16.113,0.0,0
1581348048.4329998,19.531,25.391,30.762,7.324,0.0,0
1581348048.437,18.066,24.414,31.25,0.0,0.0,0
1581348048.439,9.277,20.996,32.715,1.465,0.0,0
1581348048.4429998,13.184,25.879,35.156,6.348,0.0,0
1581348048.447,18.066,26.367,35.645,11.23,0.0,0
1581348048.451,31.738000000000003,19.043,33.691,8.301,0.0,0
1581348048.455,30.273000000000003,17.578,34.18,13.672,0.0,0
1581348048.459,25.391,22.949,31.738000000000003,21.973000000000006,0.0,0
1581348048.4629998,34.18,24.902,30.273000000000003,16.602,0.0,0
1581348048.466,23.926,29.297,33.691,12.207,0.0,0
1581348048.47,0.0,24.414,34.18,-0.488,0.0,0
1581348048.474,6.836,28.809,31.738000000000003,1.953,0.0,0
1581348048.478,24.902,32.715,29.785,4.883,0.0,0
1581348048.482,20.996,25.879,31.738000000000003,5.371,0.0,0
1581348048.484,1.953,22.461,33.203,8.301,0.0,0
1581348048.488,-4.395,23.438,29.297,7.324,0.0,0
1581348048.492,20.508000000000006,23.926,29.297,20.508000000000006,0.0,0
1581348048.496,29.785,20.996,30.762,19.531,0.0,0
1581348048.5,24.414,22.461,31.25,14.16,0.0,0
1581348048.504,15.625,25.391,32.227,13.184,0.0,0
1581348048.508,18.555,26.855,32.715,7.812,0.0,0
1581348048.5110002,30.762,23.438,31.738000000000003,9.766,0.0,0
1581348048.515,27.344,25.879,33.203,12.695,0.0,0
1581348048.519,19.043,35.156,32.227,13.184,0.0,0
1581348048.5229998,14.648,37.598,27.344,5.859,0.0,0
1581348048.5270002,22.949,33.691,28.809,6.836,0.0,0
1581348048.529,32.715,31.25,31.738000000000003,13.184,0.0,0
1581348048.533,26.367,36.621,30.273000000000003,8.301,0.0,0
1581348048.5370002,20.508000000000006,36.621,27.344,11.23,0.0,0
1581348048.541,19.531,35.645,28.809,13.672,0.0,0
1581348048.545,25.391,38.086,29.297,11.23,0.0,0
1581348048.549,14.648,33.691,24.902,12.695,0.0,0
1581348048.553,10.254,33.203,24.414,16.113,0.0,0
1581348048.556,17.578,34.18,27.344,19.531,0.0,0
1581348048.56,20.508000000000006,39.062,32.227,24.414,0.0,0
1581348048.564,28.809,38.574,31.738000000000003,18.066,0.0,0
1581348048.5679998,24.902,30.273000000000003,30.762,19.531,0.0,0
1581348048.572,23.926,33.203,33.203,32.227,0.0,0
1581348048.574,22.461,35.156,32.227,29.297,0.0,0
1581348048.5779998,23.926,28.32,34.18,30.273000000000003,0.0,0
1581348048.582,33.203,28.32,38.086,39.551,0.0,0
1581348048.586,23.438,47.852,32.715,34.668,0.0,0
1581348048.59,23.438,55.664,25.879,25.879,0.0,0
1581348048.594,35.156,47.363,27.832,32.715,0.0,0
1581348048.5979998,30.762,47.363,30.273000000000003,24.414,0.0,0
1581348048.601,25.879,45.41,27.832,15.137,0.0,0
1581348048.605,40.039,48.828,25.879,25.391,0.0,0
1581348048.609,50.293,47.363,28.32,30.273000000000003,0.0,0
1581348048.613,42.969,41.992,27.344,25.879,0.0,0
1581348048.617,38.086,40.527,24.414,24.414,0.0,0
1581348048.619,38.574,38.574,24.902,28.809,0.0,0
1581348048.623,39.551,39.551,21.484,25.879,0.0,0
1581348048.627,33.203,39.551,18.555,18.555,0.0,0
1581348048.631,38.086,40.527,22.461,23.438,0.0,0
1581348048.635,41.992,40.527,23.438,20.996,0.0,0
1581348048.639,43.457,35.645,23.926,16.602,0.0,0
1581348048.643,44.922,35.645,25.879,19.043,0.0,0
1581348048.646,37.109,45.898,22.461,14.648,0.0,0
1581348048.65,36.133,49.316,23.438,20.02,0.0,0
1581348048.654,45.41,41.504,25.391,21.973000000000006,0.0,0
1581348048.658,40.039,37.598,23.926,9.277,0.0,0
1581348048.6620002,31.25,42.48,24.414,10.742,0.0,0
1581348048.664,26.855,43.945,24.414,7.812,0.0,0
1581348048.668,43.945,36.621,26.855,9.277,0.0,0
1581348048.6720002,45.41,34.668,27.832,9.766,0.0,0
1581348048.676,28.809,35.645,25.879,1.953,0.0,0
1581348048.68,31.25,32.227,24.902,10.254,0.0,0
1581348048.684,35.645,25.391,26.367,15.625,0.0,0
1581348048.688,31.738000000000003,27.832,27.344,16.602,0.0,0
1581348048.691,35.156,37.109,26.367,10.742,0.0,0
1581348048.695,29.785,31.738000000000003,26.855,5.859,0.0,0
1581348048.699,24.414,26.855,25.879,17.578,0.0,0
1581348048.7029998,30.762,30.762,23.926,21.484,0.0,0
1581348048.707,26.367,28.809,26.367,8.301,0.0,0
1581348048.725,22.949,21.973000000000006,25.879,0.977,0.0,0
1581348048.729,29.297,24.902,22.461,4.395,0.0,0
1581348048.7329998,32.227,28.32,21.973000000000006,13.672,0.0,0
1581348048.7370002,29.785,28.809,23.926,6.348,0.0,0
1581348048.7410002,37.598,29.297,26.855,-9.766,0.0,0
1581348048.745,26.367,26.855,27.344,-18.066,0.0,0
1581348048.7489998,9.766,26.367,24.902,-16.113,0.0,0
1581348048.752,18.066,30.762,24.902,-7.324,0.0,0
1581348048.756,25.391,32.227,26.367,0.977,0.0,0
1581348048.76,23.438,27.832,27.344,13.672,0.0,0
1581348048.764,17.578,31.25,27.832,16.602,0.0,0
1581348048.768,18.555,33.691,28.809,6.836,0.0,0
1581348048.77,19.531,24.902,28.809,0.488,0.0,0
1581348048.774,20.996,23.438,27.344,-9.766,0.0,0
1581348048.778,11.23,31.738000000000003,26.855,-8.789,0.0,0
1581348048.782,0.488,30.273000000000003,26.367,-14.648,0.0,0
1581348048.786,0.977,22.949,27.832,-16.113,0.0,0
1581348048.79,-1.953,21.973000000000006,25.879,0.488,0.0,0
1581348048.794,1.953,27.344,22.461,-0.488,0.0,0
1581348048.7970002,14.16,28.809,25.391,2.441,0.0,0
1581348048.801,10.742,22.949,27.344,2.441,0.0,0
1581348048.805,4.883,19.043,28.809,1.465,0.0,0
1581348048.809,2.441,25.391,31.25,17.09,0.0,0
1581348048.813,2.93,23.438,30.273000000000003,23.926,0.0,0
1581348048.815,10.254,18.555,27.344,28.32,0.0,0
1581348048.819,7.324,22.461,25.879,19.043,0.0,0
1581348048.823,-2.93,25.879,27.832,5.371,0.0,0
1581348048.827,-1.953,20.508000000000006,31.25,15.625,0.0,0
1581348048.831,6.836,22.949,30.762,24.902,0.0,0
1581348048.835,1.465,21.484,30.762,25.879,0.0,0
1581348048.839,0.488,16.113,31.25,18.555,0.0,0
1581348048.842,-8.301,21.973000000000006,30.273000000000003,19.531,0.0,0
1581348048.846,5.371,23.926,28.32,27.832,0.0,0
1581348048.85,21.484,30.762,30.273000000000003,24.902,0.0,0
1581348048.854,4.883,34.668,32.715,24.414,0.0,0
1581348048.8579998,-6.348,24.902,30.273000000000003,17.578,0.0,0
1581348048.86,3.418,20.996,28.809,15.137,0.0,0
1581348048.8639998,0.488,25.391,29.785,22.949,0.0,0
1581348048.8679998,2.93,25.391,31.738000000000003,19.531,0.0,0
1581348048.8720002,9.277,26.367,32.227,17.578,0.0,0
1581348048.8760002,9.277,28.32,30.762,26.367,0.0,0
1581348048.88,9.766,25.391,30.762,26.367,0.0,0
1581348048.8839998,-6.836,21.484,33.691,18.555,0.0,0
1581348048.887,-3.906,16.113,38.574,20.508000000000006,0.0,0
1581348048.891,0.977,20.508000000000006,34.668,18.555,0.0,0
1581348048.895,4.395,28.809,30.762,10.742,0.0,0
1581348048.899,3.906,22.949,32.715,10.742,0.0,0
1581348048.903,-1.465,19.531,33.691,19.531,0.0,0
1581348048.905,-14.648,6.348,21.973000000000006,10.742,0.0,0
1581348048.909,-14.16,-1.465,8.789,2.93,0.0,0
1581348048.913,-1.465,0.488,9.766,-9.766,0.0,0
1581348048.917,-15.137,2.93,11.23,-26.855,0.0,0
1581348048.921,-22.461,0.0,7.812,-18.066,0.0,0
1581348048.925,-15.625,-9.766,8.789,-10.254,0.0,0
1581348048.929,-7.324,-7.324,9.766,-9.277,0.0,0
1581348048.9320002,-4.395,-2.93,7.812,-15.137,0.0,0
1581348048.936,-11.23,4.395,11.23,-9.277,0.0,0
1581348048.94,-13.184,8.301,12.695,7.324,0.0,0
1581348048.944,-12.695,5.859,14.16,15.137,0.0,0
1581348048.948,-9.277,10.254,14.648,19.531,0.0,0
1581348048.95,-1.953,12.695,12.695,3.906,0.0,0
1581348048.954,-2.93,10.742,17.09,-0.488,0.0,0
1581348048.958,-1.953,6.836,20.508000000000006,5.859,0.0,0
1581348048.962,1.953,9.277,19.531,0.977,0.0,0
1581348048.966,-6.348,11.23,20.996,-1.465,0.0,0
1581348048.97,-6.348,7.324,20.996,-8.789,0.0,0
1581348048.974,2.441,10.742,21.973000000000006,-0.488,0.0,0
1581348048.9770002,4.395,9.766,24.414,8.789,0.0,0
1581348048.981,-4.395,15.137,23.926,2.93,0.0,0
1581348048.985,-13.672,16.602,22.461,6.836,0.0,0
1581348048.9889998,-2.441,10.254,21.973000000000006,1.953,0.0,0
1581348048.9929998,6.836,9.766,20.996,6.348,0.0,0
1581348048.995,7.324,11.23,22.461,12.695,0.0,0
1581348048.9989998,0.977,11.23,23.438,11.23,0.0,0
1581348049.0029998,0.977,4.883,22.461,13.672,0.0,0
1581348049.0070002,8.789,7.324,23.926,14.16,0.0,0
1581348049.0110002,5.859,12.207,26.855,21.973000000000006,0.0,0
1581348049.015,6.348,9.766,27.344,20.02,0.0,0
1581348049.019,-0.977,8.301,26.367,16.602,0.0,0
1581348049.022,6.836,20.508000000000006,28.32,23.438,0.0,0
1581348049.026,20.02,25.391,28.32,18.555,0.0,0
1581348049.03,0.977,17.578,27.344,14.648,0.0,0
1581348049.034,-6.348,24.902,29.785,22.949,0.0,0
1581348049.038,6.836,29.785,30.762,28.809,0.0,0
1581348049.04,15.137,31.25,31.738000000000003,31.738000000000003,0.0,0
1581348049.044,7.812,29.297,30.273000000000003,18.555,0.0,0
1581348049.048,1.465,28.32,26.855,18.066,0.0,0
1581348049.052,5.859,27.344,26.367,24.414,0.0,0
1581348049.056,17.578,21.484,26.367,14.16,0.0,0
1581348049.06,14.648,18.066,25.391,10.742,0.0,0
1581348049.064,0.977,20.02,26.855,9.766,0.0,0
1581348049.0670002,-0.977,26.855,24.414,21.973000000000006,0.0,0
1581348049.071,0.0,26.855,25.391,30.273000000000003,0.0,0
1581348049.075,-1.953,18.555,28.32,15.625,0.0,0
1581348049.079,7.324,16.602,26.367,13.672,0.0,0
1581348049.083,3.906,22.949,24.414,24.414,0.0,0
1581348049.1,1.953,28.32,22.461,19.531,0.0,0
1581348049.104,16.602,31.738000000000003,20.02,15.137,0.0,0
1581348049.1079998,16.113,27.344,23.438,20.996,0.0,0
1581348049.1120002,14.648,30.273000000000003,24.902,23.438,0.0,0
1581348049.1160002,15.137,31.25,22.949,24.414,0.0,0
1581348049.12,21.973000000000006,30.273000000000003,22.461,24.902,0.0,0
1581348049.1239998,18.066,36.621,21.973000000000006,24.414,0.0,0
1581348049.127,16.113,38.574,23.926,21.484,0.0,0
1581348049.131,26.855,30.273000000000003,25.879,18.555,0.0,0
1581348049.135,22.949,24.414,27.344,5.859,0.0,0
1581348049.139,20.996,27.344,30.273000000000003,11.719,0.0,0
1581348049.143,20.508000000000006,27.832,31.25,19.043,0.0,0
1581348049.144,24.414,27.832,30.762,21.973000000000006,0.0,0
1581348049.1479998,26.367,24.902,31.738000000000003,27.832,0.0,0
1581348049.1520002,31.25,22.949,29.785,17.578,0.0,0
1581348049.156,24.414,20.508000000000006,29.785,20.02,0.0,0
1581348049.16,19.531,18.555,30.762,26.855,0.0,0
1581348049.164,29.785,17.578,31.25,27.344,0.0,0
1581348049.168,27.832,21.484,30.273000000000003,21.484,0.0,0
1581348049.171,20.508000000000006,27.344,28.32,16.113,0.0,0
1581348049.175,31.738000000000003,21.484,30.273000000000003,26.855,0.0,0
1581348049.179,25.879,18.555,30.762,33.691,0.0,0
1581348049.1829998,21.484,32.227,29.785,26.367,0.0,0
1581348049.187,18.555,34.668,29.785,15.137,0.0,0
1581348049.189,10.742,27.832,32.227,15.625,0.0,0
1581348049.1929998,15.625,28.32,32.715,22.949,0.0,0
1581348049.197,20.02,26.855,32.227,28.809,0.0,0
1581348049.201,35.645,23.438,32.715,22.949,0.0,0
1581348049.205,30.762,27.832,33.203,18.555,0.0,0
1581348049.209,18.066,21.973000000000006,33.691,24.902,0.0,0
1581348049.2129998,28.32,17.578,34.18,27.832,0.0,0
1581348049.216,36.133,22.949,34.18,27.344,0.0,0
1581348049.22,38.574,18.555,33.691,27.832,0.0,0
1581348049.224,29.785,22.949,39.062,41.504,0.0,0
1581348049.228,41.01600000000001,32.227,44.434,56.152,0.0,0
1581348049.232,52.246,33.203,49.316,50.293,0.0,0
1581348049.234,48.828,34.18,52.734,41.01600000000001,0.0,0
1581348049.238,39.551,36.133,51.27,52.734,0.0,0
1581348049.242,37.109,36.133,49.316,53.71100000000001,0.0,0
1581348049.246,52.246,34.18,48.34,52.246,0.0,0
1581348049.25,48.34,32.227,50.293,53.223,0.0,0
1581348049.254,35.156,30.762,48.828,48.828,0.0,0
1581348049.258,39.062,31.738000000000003,48.34,50.293,0.0,0
1581348049.2610002,57.617,30.273000000000003,50.78100000000001,50.293,0.0,0
1581348049.265,54.688,24.414,48.828,44.434,0.0,0
1581348049.269,36.133,26.367,48.828,40.527,0.0,0
1581348049.2729998,40.527,28.809,49.316,44.922,0.0,0
1581348049.2770002,41.992,27.344,45.41,44.922,0.0,0
1581348049.279,34.18,24.902,42.969,41.992,0.0,0
1581348049.283,33.691,23.926,44.922,40.527,0.0,0
1581348049.2870002,33.203,25.879,44.434,43.457,0.0,0
1581348049.291,30.762,26.367,43.945,47.363,0.0,0
1581348049.295,35.645,24.902,43.945,49.316,0.0,0
1581348049.299,21.973000000000006,24.414,41.992,44.434,0.0,0
1581348049.303,33.203,27.344,41.992,35.156,0.0,0
1581348049.306,49.316,25.879,42.969,41.01600000000001,0.0,0
1581348049.31,26.367,28.809,40.527,41.992,0.0,0
1581348049.314,15.625,31.25,38.086,36.621,0.0,0
1581348049.3179998,24.414,22.949,35.156,30.273000000000003,0.0,0
1581348049.322,24.414,15.137,34.668,29.785,0.0,0
1581348049.324,22.949,22.461,36.621,40.039,0.0,0
1581348049.3279998,30.273000000000003,29.785,38.086,35.156,0.0,0
1581348049.332,23.438,24.414,37.109,22.949,0.0,0
1581348049.336,16.113,22.461,34.18,9.766,0.0,0
1581348049.34,13.184,21.973000000000006,32.715,10.254,0.0,0
1581348049.344,15.625,18.066,31.25,22.949,0.0,0
1581348049.3479998,14.16,9.277,28.809,16.602,0.0,1
1581348049.351,17.09,11.719,28.32,11.719,0.0,0
1581348049.355,35.156,20.508000000000006,28.809,18.555,0.0,0
1581348049.359,34.668,13.184,31.738000000000003,24.902,0.0,0
1581348049.363,21.973000000000006,11.719,34.668,28.809,0.0,0
1581348049.367,13.672,16.602,32.227,24.902,0.0,0
1581348049.369,17.09,18.555,29.297,18.555,0.0,0
1581348049.373,23.926,18.066,28.809,12.695,0.0,0
1581348049.377,21.484,12.695,29.297,14.648,0.0,0
1581348049.381,21.484,12.207,31.25,23.438,0.0,0
1581348049.385,22.949,19.531,34.18,28.32,0.0,0
1581348049.389,25.879,17.578,34.18,39.062,0.0,0
1581348049.393,24.414,13.184,33.691,37.598,0.0,0
1581348049.396,23.926,21.973000000000006,35.156,31.25,0.0,0
1581348049.4,20.996,28.32,33.203,39.551,0.0,0
1581348049.404,29.297,26.855,28.32,44.434,0.0,0
1581348049.408,41.01600000000001,21.973000000000006,26.855,41.01600000000001,0.0,0
1581348049.4120002,28.32,21.973000000000006,25.879,31.738000000000003,0.0,0
1581348049.429,14.16,23.926,25.391,35.156,0.0,0
1581348049.4329998,20.996,19.043,27.344,35.645,0.0,0
1581348049.437,24.902,15.625,28.809,28.32,0.0,0
1581348049.441,24.902,15.137,26.855,29.297,0.0,0
1581348049.445,18.066,15.625,24.902,25.391,0.0,0
1581348049.449,1.465,6.836,27.344,20.508000000000006,0.0,0
1581348049.4529998,13.672,5.371,29.297,22.949,0.0,0
1581348049.456,23.438,19.043,25.879,24.902,0.0,0
1581348049.46,12.207,14.648,25.391,24.902,0.0,0
1581348049.464,11.719,10.254,28.809,22.949,0.0,0
1581348049.468,28.809,8.301,29.785,25.879,0.0,0
1581348049.472,30.273000000000003,5.859,31.738000000000003,29.785,0.0,0
1581348049.474,22.949,6.348,34.18,27.832,0.0,0
1581348049.478,16.602,4.395,29.785,24.902,0.0,0
1581348049.482,13.184,4.395,28.809,13.184,0.0,0
1581348049.486,16.113,5.371,30.762,7.812,0.0,0
1581348049.49,2.93,4.883,30.273000000000003,9.766,0.0,0
1581348049.494,3.906,1.465,31.25,8.789,0.0,0
1581348049.498,16.113,4.883,31.738000000000003,11.23,0.0,0
1581348049.5010002,18.066,9.766,32.227,2.93,0.0,0
1581348049.505,19.531,5.859,33.691,5.371,0.0,0
1581348049.5089998,12.207,5.859,32.227,11.719,0.0,0
1581348049.5129998,9.766,14.16,31.25,16.113,0.0,0
1581348049.5170002,19.531,14.648,31.25,24.902,0.0,0
1581348049.519,21.973000000000006,2.441,32.715,11.23,0.0,0
1581348049.5229998,16.602,4.883,31.25,6.348,0.0,0
1581348049.5270002,15.625,14.16,28.809,11.719,0.0,0
1581348049.531,26.855,13.672,32.715,12.207,0.0,0
1581348049.535,34.18,7.324,34.18,18.555,0.0,0
1581348049.539,22.949,7.812,34.18,14.648,0.0,0
1581348049.543,21.484,14.648,37.598,16.113,0.0,0
1581348049.546,28.809,13.672,40.039,26.367,0.0,0
1581348049.55,27.832,9.277,37.598,26.367,0.0,0
1581348049.554,22.461,13.672,33.691,22.949,0.0,0
1581348049.5579998,16.602,21.484,31.25,12.207,0.0,0
1581348049.562,21.484,21.973000000000006,31.738000000000003,13.184,0.0,0
1581348049.565,19.043,20.996,30.273000000000003,21.484,0.0,0
1581348049.569,13.672,20.02,28.32,15.137,0.0,0
1581348049.573,13.672,19.531,31.25,15.625,0.0,0
1581348049.577,17.09,19.531,34.18,20.02,0.0,0
1581348049.581,20.02,17.09,33.691,19.531,0.0,0
1581348049.585,25.879,13.672,31.738000000000003,24.414,0.0,0
1581348049.589,25.879,16.113,31.738000000000003,27.832,0.0,0
1581348049.592,29.297,17.578,32.715,30.762,0.0,0
1581348049.596,29.297,9.766,31.25,24.902,0.0,0
1581348049.6,19.531,17.09,29.297,13.184,0.0,0
1581348049.604,21.484,25.879,28.809,7.812,0.0,0
1581348049.6079998,10.742,23.438,29.785,0.488,0.0,0
1581348049.61,10.742,20.02,28.32,10.742,0.0,0
1581348049.6139998,19.531,15.137,30.762,27.344,0.0,0
1581348049.6179998,11.23,15.137,33.691,31.738000000000003,0.0,0
1581348049.6220002,2.93,13.672,31.25,33.691,0.0,0
1581348049.6260002,12.207,8.301,28.809,35.645,0.0,0
1581348049.63,21.973000000000006,5.859,27.832,32.227,0.0,0
1581348049.6339998,22.949,8.301,30.273000000000003,22.461,0.0,0
1581348049.637,21.973000000000006,7.324,31.25,22.461,0.0,0
1581348049.641,22.949,4.883,28.809,27.344,0.0,0
1581348049.645,21.973000000000006,16.602,30.762,31.738000000000003,0.0,0
1581348049.649,21.484,14.648,32.715,19.531,0.0,0
1581348049.653,19.531,13.184,30.273000000000003,-2.441,0.0,0
1581348049.655,12.695,13.672,28.32,5.859,0.0,0
1581348049.659,15.625,8.301,24.902,15.137,0.0,0
1581348049.663,26.367,14.16,23.926,7.812,0.0,0
1581348049.667,22.949,17.578,29.297,12.695,0.0,0
1581348049.671,10.254,13.672,30.762,17.578,0.0,0
1581348049.675,14.16,13.184,32.715,29.785,0.0,0
1581348049.679,17.09,11.23,33.691,41.01600000000001,0.0,0
1581348049.6820002,6.836,3.418,36.133,30.762,0.0,0
1581348049.686,2.93,11.719,35.645,26.855,0.0,0
1581348049.69,13.672,16.602,30.273000000000003,28.809,0.0,0
1581348049.694,15.625,5.371,28.32,27.344,0.0,0
1581348049.698,13.184,6.348,25.879,25.879,0.0,0
1581348049.7,6.348,9.277,25.879,25.391,0.0,0
1581348049.704,0.0,6.348,29.785,29.785,0.0,0
1581348049.708,5.859,3.418,29.297,27.832,0.0,0
1581348049.712,9.277,-2.441,27.832,21.973000000000006,0.0,0
1581348049.716,2.441,0.977,28.809,24.414,0.0,0
1581348049.72,-5.371,2.93,30.273000000000003,32.715,0.0,0
1581348049.724,9.277,-1.953,32.715,41.504,0.0,0
1581348049.7270002,22.949,-1.465,33.203,36.133,0.0,0
1581348049.731,20.508000000000006,15.625,31.25,33.203,0.0,0
1581348049.735,20.996,22.949,29.785,32.715,0.0,0
1581348049.7389998,19.531,20.996,27.344,37.598,0.0,0
1581348049.7429998,25.391,18.066,29.785,43.945,0.0,0
1581348049.745,30.762,17.578,35.156,40.039,0.0,0
1581348049.7489998,23.438,17.578,35.645,36.133,0.0,0
1581348049.7529998,15.137,12.207,33.691,30.762,0.0,0
1581348049.7570002,15.625,13.672,31.25,35.645,0.0,0
1581348049.7610002,19.531,16.113,29.297,27.832,0.0,0
1581348049.765,11.23,10.742,30.273000000000003,16.113,0.0,0
1581348049.769,6.348,6.836,29.297,25.879,0.0,0
1581348049.772,7.812,14.16,28.809,27.344,0.0,0
1581348049.776,14.648,17.09,29.785,20.508000000000006,0.0,0
1581348049.78,9.277,13.184,30.762,21.973000000000006,0.0,0
1581348049.784,-5.859,10.254,31.25,19.531,0.0,0
1581348049.788,0.488,10.254,29.297,17.578,0.0,0
1581348049.79,10.742,16.602,27.344,17.578,0.0,0
1581348049.794,4.395,15.625,27.344,16.602,0.0,0
1581348049.798,-1.953,11.23,27.832,14.16,0.0,0
1581348049.802,4.395,6.348,27.344,9.277,0.0,0
1581348049.806,20.508000000000006,6.836,28.809,19.043,0.0,0
1581348049.81,21.484,4.395,28.32,26.855,0.0,0
1581348049.814,15.625,1.465,26.367,16.602,0.0,0
1581348049.8170002,23.438,9.277,25.879,22.461,0.0,0
1581348049.821,33.691,8.301,26.855,34.668,0.0,0
1581348049.825,25.879,3.418,25.879,28.809,0.0,0
1581348049.829,17.578,6.836,27.344,19.531,0.0,0
1581348049.833,15.137,8.789,25.879,22.461,0.0,0
1581348049.85,28.809,9.766,26.367,34.668,0.0,0
1581348049.854,27.832,8.301,29.297,28.32,0.0,0
1581348049.8579998,14.648,7.324,26.367,22.949,0.0,0
1581348049.8620002,10.742,20.508000000000006,25.879,37.598,0.0,0
1581348049.8660002,20.02,20.02,24.902,40.039,0.0,0
1581348049.87,31.738000000000003,12.207,23.926,35.156,0.0,0
1581348049.8739998,32.227,19.531,27.832,36.621,0.0,0
1581348049.877,24.902,29.297,25.879,29.297,0.0,0
1581348049.881,25.391,28.809,29.297,27.832,0.0,0
1581348049.885,17.09,7.324,26.367,13.672,0.0,0
1581348049.889,-15.137,-16.113,-9.277,-25.879,0.0,0
1581348049.893,-31.738000000000003,-31.738000000000003,-29.297,-45.898,0.0,0
1581348049.895,-38.086,-44.434,-27.832,-41.992,0.0,0
1581348049.899,-40.039,-44.434,-26.367,-35.645,0.0,0
1581348049.903,-36.621,-34.18,-24.414,-25.879,0.0,0
1581348049.907,-43.457,-28.809,-17.578,-26.855,0.0,0
1581348049.911,-34.18,-26.367,-12.695,-27.344,0.0,0
1581348049.915,-19.043,-26.367,-11.23,-21.484,0.0,0
1581348049.919,-25.879,-26.855,-12.207,-21.973000000000006,0.0,0
1581348049.9220002,-34.18,-22.949,-10.254,-21.973000000000006,0.0,0
1581348049.926,-33.203,-29.785,-7.812,-21.484,0.0,0
1581348049.93,-25.879,-29.785,-6.348,-15.625,0.0,0
1581348049.934,-24.414,-18.066,-1.465,-11.719,0.0,0
1581348049.938,-28.32,-19.531,-0.488,-17.09,0.0,0
1581348049.94,-24.902,-23.438,2.93,-11.23,0.0,0
1581348049.944,-24.902,-21.484,8.301,-3.906,0.0,0
1581348049.948,-13.672,-12.695,6.348,-1.953,0.0,0
1581348049.952,-2.93,-8.301,6.348,3.418,0.0,0
1581348049.956,-10.742,-8.789,8.789,2.441,0.0,0
1581348049.96,-2.441,-13.184,9.766,2.441,0.0,0
1581348049.964,6.348,-13.184,11.23,11.719,0.0,0
1581348049.967,-1.953,-9.277,12.695,6.836,0.0,0
1581348049.971,-0.977,-12.695,14.648,8.301,0.0,0
1581348049.975,0.977,-8.301,16.602,16.113,0.0,0
1581348049.979,3.418,-1.465,19.043,20.02,0.0,0
1581348049.9829998,12.695,-7.324,20.02,17.09,0.0,0
1581348049.984,1.953,-11.719,19.531,10.742,0.0,0
1581348049.988,-1.953,-9.766,18.555,11.23,0.0,0
1581348049.992,12.695,-7.812,18.555,6.348,0.0,0
1581348049.996,19.531,-5.859,19.531,7.812,0.0,0
1581348050.0,14.648,-3.418,20.508000000000006,11.719,0.0,0
1581348050.004,2.93,6.348,19.043,6.348,0.0,0
1581348050.008,5.859,12.695,19.043,18.555,0.0,0
1581348050.0110002,15.137,12.695,17.09,22.949,0.0,0
1581348050.015,16.113,13.184,17.578,21.484,0.0,0
1581348050.019,11.23,12.695,18.555,22.949,0.0,0
1581348050.0229998,20.996,8.301,20.996,19.043,0.0,0
1581348050.0270002,32.227,9.766,23.438,28.32,0.0,0
1581348050.03,32.227,11.719,22.461,31.738000000000003,0.0,0
1581348050.034,32.227,8.789,24.414,28.32,0.0,0
1581348050.038,22.461,7.812,23.926,22.461,0.0,0
1581348050.042,27.344,6.836,23.926,24.414,0.0,0
1581348050.046,31.738000000000003,3.906,24.902,30.762,0.0,0
1581348050.05,22.949,2.441,23.926,20.996,0.0,0
1581348050.054,7.812,1.953,22.949,18.555,0.0,0
1581348050.0570002,5.859,0.0,22.461,15.137,0.0,0
1581348050.061,10.742,11.719,20.508000000000006,19.043,0.0,0
1581348050.065,16.602,15.137,20.508000000000006,31.25,0.0,0
1581348050.069,15.625,3.906,23.926,21.484,0.0,0
1581348050.073,20.02,1.465,23.926,26.855,0.0,0
1581348050.075,25.391,6.836,21.973000000000006,31.738000000000003,0.0,0
1581348050.079,21.973000000000006,5.859,21.484,17.578,0.0,0
1581348050.083,15.625,5.371,22.461,13.184,0.0,0
1581348050.087,10.254,4.395,23.926,16.113,0.0,0
1581348050.091,12.207,-1.953,21.484,19.043,0.0,0
1581348050.095,22.461,0.488,20.508000000000006,18.555,0.0,0
1581348050.099,13.672,-0.977,23.438,6.836,0.0,0
1581348050.1020002,0.488,1.465,24.414,0.977,0.0,0
1581348050.106,6.348,12.207,23.438,7.812,0.0,0
1581348050.11,18.555,11.23,24.414,19.043,0.0,0
1581348050.1139998,22.949,8.301,28.32,10.254,0.0,0
1581348050.1179998,10.742,7.812,26.855,5.859,0.0,0
1581348050.119,12.207,6.836,26.855,17.09,0.0,0
1581348050.123,18.066,7.324,26.855,13.184,0.0,0
1581348050.127,15.137,8.301,26.367,20.996,0.0,0
1581348050.131,-2.441,9.766,29.297,20.02,0.0,0
1581348050.135,-10.254,9.766,27.344,3.418,0.0,0
1581348050.139,4.395,9.277,29.785,8.301,0.0,0
1581348050.143,7.324,12.207,30.762,3.418,0.0,0
1581348050.146,-2.441,17.09,29.785,-0.977,0.0,0
1581348050.15,-1.953,17.09,34.668,-1.953,0.0,0
1581348050.154,13.184,8.301,34.18,4.395,0.0,0
1581348050.158,17.578,2.93,30.273000000000003,5.859,0.0,0
1581348050.1620002,14.648,1.465,31.25,-0.488,0.0,0
1581348050.18,8.301,0.0,31.25,4.395,0.0,0
1581348050.184,7.324,-2.441,27.832,4.883,0.0,0
1581348050.188,18.066,2.441,28.32,7.812,0.0,0
1581348050.1920002,16.113,6.348,31.25,11.719,0.0,0
1581348050.196,3.418,8.789,32.227,6.348,0.0,0
1581348050.2,0.977,4.395,30.273000000000003,13.672,0.0,0
1581348050.204,8.301,2.441,30.762,13.184,0.0,0
1581348050.207,8.789,11.23,30.762,9.277,0.0,0
1581348050.211,-6.836,14.648,28.809,21.973000000000006,0.0,0
1581348050.215,-0.488,17.09,30.273000000000003,16.113,0.0,0
1581348050.219,15.625,14.648,31.25,14.648,0.0,0
1581348050.2229998,14.648,16.602,29.785,7.324,0.0,0
1581348050.225,6.348,13.672,27.344,2.93,0.0,0
1581348050.229,9.766,9.766,26.855,15.137,0.0,0
1581348050.2329998,19.043,13.184,25.391,11.23,0.0,0
1581348050.2370002,15.625,11.719,26.855,18.555,0.0,0
1581348050.2410002,12.695,10.254,27.832,12.207,0.0,0
1581348050.245,7.812,3.418,27.344,-1.953,0.0,0
1581348050.2489998,6.836,-2.441,27.344,9.766,0.0,0
1581348050.252,15.137,5.371,30.273000000000003,24.414,0.0,0
1581348050.256,5.859,6.348,31.738000000000003,27.344,0.0,0
1581348050.26,3.418,-2.93,34.18,22.461,0.0,0
1581348050.264,14.648,1.465,34.18,24.414,0.0,0
1581348050.268,23.438,14.16,31.738000000000003,28.809,0.0,0
1581348050.27,20.02,14.648,32.227,20.02,0.0,0
1581348050.274,3.906,17.09,30.273000000000003,5.859,0.0,0
1581348050.278,0.977,19.531,27.344,-1.953,0.0,0
1581348050.282,8.789,12.207,29.785,1.465,0.0,0
1581348050.286,4.395,8.301,29.785,3.418,0.0,0
1581348050.29,-5.859,3.906,28.32,-3.906,0.0,0
1581348050.294,-0.977,0.488,30.273000000000003,6.348,0.0,0
1581348050.2970002,10.254,10.742,30.273000000000003,15.137,0.0,0
1581348050.301,9.766,4.395,31.25,8.301,0.0,0
1581348050.305,-5.371,-6.836,34.668,11.23,0.0,0
1581348050.309,-5.859,3.418,34.668,15.625,0.0,0
1581348050.313,-0.977,6.836,32.227,12.207,0.0,0
1581348050.315,9.766,6.836,31.738000000000003,9.277,0.0,0
1581348050.319,4.395,8.789,31.738000000000003,13.672,0.0,0
1581348050.323,-4.395,13.184,29.785,16.113,0.0,0
1581348050.327,13.672,10.742,28.809,18.555,0.0,0
1581348050.331,23.926,8.301,27.832,23.438,0.0,0
1581348050.335,20.02,8.301,26.367,15.137,0.0,0
1581348050.339,9.277,12.207,28.32,9.766,0.0,0
1581348050.342,14.16,16.602,31.25,13.672,0.0,0
1581348050.346,23.438,4.883,29.297,14.648,0.0,0
1581348050.35,28.809,10.742,29.297,12.207,0.0,0
1581348050.354,31.25,23.926,32.227,9.766,0.0,0
1581348050.3579998,16.113,20.996,32.715,19.043,0.0,0
1581348050.36,20.996,23.438,32.715,22.949,0.0,0
1581348050.3639998,24.414,23.926,30.273000000000003,17.578,0.0,0
1581348050.3679998,12.695,20.996,32.227,19.531,0.0,0
1581348050.3720002,6.836,15.625,34.668,15.625,0.0,0
1581348050.3760002,7.324,11.719,32.715,14.16,0.0,0
1581348050.38,9.277,9.277,32.227,13.184,0.0,0
1581348050.3839998,10.254,10.742,30.273000000000003,3.418,0.0,0
1581348050.387,10.742,9.277,28.809,2.441,0.0,0
1581348050.391,11.23,2.93,29.785,-0.977,0.0,0
1581348050.395,18.555,9.277,31.25,4.883,0.0,0
1581348050.399,28.32,16.113,30.273000000000003,17.09,0.0,0
1581348050.403,26.367,11.719,29.785,14.16,0.0,0
1581348050.404,26.855,8.301,31.25,18.066,0.0,0
1581348050.408,20.02,11.719,31.738000000000003,19.043,0.0,0
1581348050.4120002,13.672,7.812,31.25,15.137,0.0,0
1581348050.416,14.16,5.371,31.738000000000003,22.949,0.0,0
1581348050.42,6.836,10.254,29.297,21.973000000000006,0.0,0
1581348050.424,5.371,10.742,26.855,25.391,0.0,0
1581348050.428,11.23,4.395,29.297,18.555,0.0,0
1581348050.431,7.812,5.859,31.25,0.977,0.0,0
1581348050.435,8.301,6.348,29.785,4.395,0.0,0
1581348050.439,12.695,6.348,28.32,13.672,0.0,0
1581348050.4429998,13.672,14.648,28.809,14.648,0.0,0
1581348050.447,8.789,17.09,27.832,9.766,0.0,0
1581348050.449,7.324,20.508000000000006,26.855,3.906,0.0,0
1581348050.4529998,10.254,22.949,26.855,7.324,0.0,0
1581348050.457,21.973000000000006,17.578,27.832,14.648,0.0,0
1581348050.461,21.484,16.113,26.367,12.695,0.0,0
1581348050.465,5.371,15.625,27.832,6.348,0.0,0
1581348050.469,2.441,5.371,31.25,12.207,0.0,0
1581348050.4729998,8.789,4.395,31.25,16.113,0.0,0
1581348050.476,8.301,10.254,28.809,13.184,0.0,0
1581348050.48,1.953,16.113,27.832,11.23,0.0,0
1581348050.484,1.953,7.812,30.762,16.602,0.0,0
1581348050.488,8.789,0.0,30.762,28.32,0.0,0
1581348050.492,11.23,2.441,29.785,26.367,0.0,0
1581348050.494,10.742,2.441,29.785,23.438,0.0,0
1581348050.498,9.766,-0.977,29.297,27.344,0.0,0
1581348050.502,6.836,-1.465,30.273000000000003,20.996,0.0,0
1581348050.506,12.207,8.301,31.25,20.02,0.0,0
1581348050.51,18.066,7.812,31.738000000000003,19.531,0.0,0
1581348050.514,4.395,0.0,30.762,8.789,0.0,0
1581348050.518,-3.418,-4.395,33.691,6.836,0.0,0
1581348050.521,16.602,0.488,35.156,16.602,0.0,0
1581348050.525,27.344,5.371,33.203,19.043,0.0,2
1581348050.529,23.926,7.324,33.691,19.043,0.0,0
1581348050.533,22.949,10.742,29.785,23.926,0.0,0
1581348050.5370002,25.879,4.883,27.832,23.438,0.0,0
1581348050.554,25.879,4.395,31.25,15.137,0.0,0
1581348050.5579998,9.277,9.766,33.691,20.02,0.0,0
1581348050.562,11.719,9.766,32.715,31.738000000000003,0.0,0
1581348050.566,18.066,11.719,30.762,32.715,0.0,0
1581348050.57,12.207,8.301,27.832,28.32,0.0,0
1581348050.574,11.719,-1.953,28.809,24.414,0.0,0
1581348050.5779998,2.93,1.953,31.738000000000003,25.391,0.0,0
1581348050.581,3.906,16.113,30.273000000000003,29.785,0.0,0
1581348050.585,24.414,12.207,30.762,36.133,0.0,0
1581348050.589,30.273000000000003,4.395,33.691,37.109,0.0,0
1581348050.593,23.926,6.348,32.227,34.18,0.0,0
1581348050.597,29.785,12.695,31.738000000000003,44.922,0.0,0
1581348050.599,36.133,13.184,33.203,46.387,0.0,0
1581348050.603,36.621,10.742,32.715,35.645,0.0,0
1581348050.607,32.715,7.324,32.227,32.715,0.0,0
1581348050.611,26.367,2.93,28.809,28.32,0.0,0
1581348050.615,21.973000000000006,7.812,26.855,26.367,0.0,0
1581348050.619,28.809,13.184,27.344,31.25,0.0,0
1581348050.623,30.762,13.184,29.297,30.273000000000003,0.0,0
1581348050.6260002,15.625,17.09,30.762,24.902,0.0,0
1581348050.63,26.367,15.137,31.738000000000003,24.414,0.0,0
1581348050.6339998,41.504,9.766,31.25,22.461,0.0,0
1581348050.6379998,35.156,18.555,27.832,17.09,0.0,0
1581348050.6420002,32.715,23.926,25.879,16.602,0.0,0
1581348050.644,29.297,22.461,27.832,21.484,0.0,0
1581348050.6479998,37.109,19.043,27.832,26.367,0.0,0
1581348050.6520002,40.527,18.555,29.785,26.855,0.0,0
1581348050.656,32.227,17.578,28.809,20.996,0.0,0
1581348050.66,31.738000000000003,12.695,27.832,21.484,0.0,0
1581348050.664,40.527,10.254,29.297,25.879,0.0,0
1581348050.668,31.25,14.648,28.809,20.508000000000006,0.0,0
1581348050.671,21.973000000000006,22.461,29.785,27.344,0.0,0
1581348050.675,20.02,15.625,31.25,35.645,0.0,0
1581348050.679,25.879,10.742,31.25,42.969,0.0,0
1581348050.6829998,37.109,19.043,30.273000000000003,37.109,0.0,0
1581348050.687,42.969,20.508000000000006,30.762,19.043,0.0,0
1581348050.689,43.457,15.625,32.227,22.461,0.0,0
1581348050.6929998,50.78100000000001,12.695,28.32,31.738000000000003,0.0,0
1581348050.697,48.828,18.555,28.809,31.25,0.0,0
1581348050.701,26.367,19.043,30.273000000000003,10.742,0.0,0
1581348050.705,20.02,19.043,27.832,8.301,0.0,0
1581348050.709,37.598,21.973000000000006,27.832,32.227,0.0,0
1581348050.7129998,44.922,25.879,28.809,38.086,0.0,0
1581348050.716,37.598,27.832,29.297,40.527,0.0,0
1581348050.72,21.973000000000006,19.043,27.344,35.645,0.0,0
1581348050.724,30.762,20.508000000000006,27.344,32.227,0.0,0
1581348050.728,38.574,24.902,30.273000000000003,47.852,0.0,0
1581348050.732,37.109,15.137,32.227,51.758,0.0,0
1581348050.735,29.785,13.184,32.227,41.504,0.0,0
1581348050.7389998,17.578,20.996,33.203,34.668,0.0,0
1581348050.7429998,28.32,16.602,32.715,40.527,0.0,0
1581348050.7470002,35.156,9.277,31.25,49.316,0.0,0
1581348050.7510002,30.762,12.207,30.762,41.504,0.0,0
1581348050.755,27.344,14.648,29.785,34.668,0.0,0
1581348050.7589998,32.227,16.602,31.738000000000003,37.598,0.0,0
1581348050.762,39.551,20.02,31.25,45.41,0.0,0
1581348050.766,26.367,16.602,29.785,45.41,0.0,0
1581348050.77,8.789,20.508000000000006,30.762,37.109,0.0,0
1581348050.774,11.23,20.508000000000006,30.762,41.992,0.0,0
1581348050.778,24.414,16.113,30.762,40.039,0.0,0
1581348050.795,23.438,10.742,31.738000000000003,32.227,0.0,0
1581348050.799,20.996,15.137,32.715,37.109,0.0,0
1581348050.803,23.926,14.648,35.156,38.574,0.0,0
1581348050.8070002,18.066,12.207,36.133,34.18,0.0,0
1581348050.811,20.508000000000006,11.719,32.715,14.648,0.0,0
1581348050.815,17.578,7.812,31.738000000000003,7.324,0.0,0
1581348050.819,10.742,4.883,32.715,17.578,0.0,0
1581348050.822,12.207,1.953,31.738000000000003,22.949,0.0,0
1581348050.826,17.09,14.16,31.738000000000003,30.762,0.0,0
1581348050.83,11.23,19.531,29.785,18.066,0.0,0
1581348050.834,9.277,16.113,27.832,11.719,0.0,0
1581348050.8379998,13.184,10.742,28.809,25.391,0.0,0
1581348050.825,15.137,8.789,31.25,29.297,0.0,0
1581348050.829,14.648,12.695,35.156,27.344,0.0,0
1581348050.833,7.324,10.742,36.621,16.602,0.0,0
1581348050.837,8.301,12.207,36.133,20.996,0.0,0
1581348050.841,31.25,10.742,33.691,28.809,0.0,0
1581348050.845,30.273000000000003,9.277,33.203,16.113,0.0,0
1581348050.849,6.348,8.301,34.668,12.207,0.0,0
1581348050.8520002,-3.418,6.836,33.691,6.348,0.0,0
1581348050.856,11.719,10.742,29.785,3.418,0.0,0
1581348050.86,11.23,14.648,33.203,14.648,0.0,0
1581348050.8639998,6.348,3.906,38.574,19.531,0.0,0
1581348050.8679998,9.277,1.953,36.133,19.531,0.0,0
1581348050.87,13.672,20.02,32.227,20.02,0.0,0
1581348050.8739998,23.438,22.949,30.762,19.043,0.0,0
1581348050.8779998,19.043,24.414,28.809,14.16,0.0,0
1581348050.8820002,6.348,19.043,32.715,13.672,0.0,0
1581348050.8860002,2.93,10.742,31.738000000000003,24.414,0.0,0
1581348050.89,17.09,8.789,28.32,21.973000000000006,0.0,0
1581348050.894,10.742,5.859,32.715,22.949,0.0,0
1581348050.897,4.883,8.789,35.645,26.367,0.0,0
1581348050.901,14.648,18.066,34.18,18.066,0.0,0
1581348050.905,17.578,19.043,34.668,19.043,0.0,0
1581348050.909,21.484,17.09,35.156,16.113,0.0,0
1581348050.913,13.672,17.09,33.203,13.184,0.0,0
1581348050.93,8.301,19.531,30.273000000000003,19.043,0.0,0
1581348050.934,15.625,11.23,28.809,10.254,0.0,0
1581348050.938,17.09,6.836,28.809,9.277,0.0,0
1581348050.9420002,9.277,15.137,30.762,9.766,0.0,0
1581348050.946,9.766,11.719,30.762,6.836,0.0,0
1581348050.95,-2.441,-3.418,31.25,22.949,0.0,0
1581348050.954,-2.93,-0.977,34.18,29.785,0.0,0
1581348050.957,14.16,11.23,33.691,20.02,0.0,0
1581348050.961,8.789,5.371,30.762,6.348,0.0,0
1581348050.965,6.836,0.488,30.762,16.113,0.0,0
1581348050.969,19.043,12.695,29.785,30.273000000000003,0.0,0
1581348050.9729998,14.16,16.113,30.762,15.625,0.0,0
1581348050.975,17.09,8.301,31.738000000000003,10.742,0.0,0
1581348050.979,21.484,6.836,29.785,8.789,0.0,0
1581348050.9829998,0.0,7.324,28.809,4.395,0.0,0
1581348050.9870002,3.418,4.883,31.738000000000003,16.113,0.0,0
1581348050.9910002,8.301,4.395,31.738000000000003,17.09,0.0,0
1581348050.995,0.0,1.953,24.414,9.277,0.0,0
1581348050.9989998,17.578,0.977,23.438,4.883,0.0,0
1581348051.002,26.367,7.324,26.367,9.766,0.0,0
1581348051.006,13.672,5.371,27.832,12.695,0.0,0
1581348051.01,13.672,-0.488,27.832,4.395,0.0,0
1581348051.014,16.113,7.812,29.785,10.742,0.0,0
1581348051.018,19.043,2.93,34.668,24.902,0.0,0
1581348051.02,18.555,-4.395,35.156,24.902,0.0,0
1581348051.024,10.742,-3.418,34.668,26.855,0.0,0
1581348051.028,17.09,-4.883,34.18,34.668,0.0,0
1581348051.032,23.926,1.953,32.715,26.367,0.0,0
1581348051.036,21.973000000000006,-3.418,31.25,15.137,0.0,0
1581348051.04,23.926,-11.719,33.203,24.414,0.0,0
1581348051.044,18.066,-3.906,34.18,36.621,0.0,0
1581348051.0470002,12.695,-1.953,31.25,34.18,0.0,0
1581348051.051,24.414,-17.09,30.273000000000003,34.18,0.0,0
1581348051.055,24.902,-15.137,33.203,29.297,0.0,0
1581348051.059,8.301,2.93,33.691,28.809,0.0,0
1581348051.063,13.184,4.395,31.738000000000003,36.621,0.0,0
1581348051.065,27.344,1.465,31.738000000000003,30.762,0.0,0
1581348051.069,16.113,-8.301,31.25,17.09,0.0,0
1581348051.073,12.207,-9.766,32.227,10.254,0.0,0
1581348051.077,20.02,-4.883,33.691,19.043,0.0,0
1581348051.081,24.902,0.488,31.25,23.438,0.0,0
1581348051.085,26.855,5.859,29.297,21.973000000000006,0.0,0
1581348051.089,17.578,6.348,29.297,18.066,0.0,0
1581348051.092,7.324,8.789,28.809,11.719,0.0,0
1581348051.096,15.137,1.465,31.738000000000003,20.02,0.0,0
1581348051.1,27.832,4.883,32.715,21.484,0.0,0
1581348051.104,22.949,12.207,31.738000000000003,17.578,0.0,0
1581348051.1079998,19.531,3.906,34.668,21.484,0.0,0
1581348051.11,16.113,3.418,33.203,21.973000000000006,0.0,0
1581348051.1139998,14.648,5.371,30.762,21.973000000000006,0.0,0
1581348051.1179998,20.02,3.418,30.762,18.555,0.0,0
1581348051.1220002,13.184,3.906,33.203,19.043,0.0,0
1581348051.1260002,10.742,5.859,32.227,25.879,0.0,0
1581348051.13,16.602,8.301,32.715,27.832,0.0,0
1581348051.1339998,22.461,11.23,34.18,27.832,0.0,0
1581348051.137,16.113,3.906,33.203,25.879,0.0,0
1581348051.141,2.441,0.0,33.203,16.602,0.0,0
1581348051.145,11.719,16.602,33.691,14.16,0.0,0
1581348051.149,20.02,13.184,35.156,14.648,0.0,0
1581348051.153,6.348,8.789,34.18,9.277,0.0,0
1581348051.155,7.324,14.16,28.809,10.254,0.0,0
1581348051.159,17.09,13.184,24.414,19.043,0.0,0
1581348051.163,16.602,7.812,26.367,22.949,0.0,0
1581348051.167,5.371,14.648,26.367,20.996,0.0,0
1581348051.171,-2.441,19.043,27.344,23.438,0.0,0
1581348051.175,8.301,8.301,26.855,21.484,0.0,0
1581348051.179,14.648,4.883,24.902,10.742,0.0,0
1581348051.1820002,7.812,8.301,27.344,2.441,0.0,0
1581348051.186,3.418,11.719,29.297,4.395,0.0,0
1581348051.19,9.766,14.648,30.273000000000003,11.23,0.0,0
1581348051.194,19.531,17.578,27.344,9.766,0.0,0
1581348051.198,13.672,11.23,26.367,6.836,0.0,0
1581348051.2,7.324,10.742,28.32,7.812,0.0,0
1581348051.204,3.906,13.672,28.809,8.301,0.0,0
1581348051.208,9.277,5.371,29.297,18.555,0.0,0
1581348051.212,11.719,7.812,31.25,23.438,0.0,0
1581348051.216,4.883,15.137,35.645,25.879,0.0,0
1581348051.22,4.395,11.23,34.668,28.32,0.0,0
1581348051.224,-3.418,6.836,31.738000000000003,17.578,0.0,0
1581348051.2270002,1.953,6.836,31.738000000000003,13.184,0.0,0
1581348051.231,11.23,12.695,31.25,9.277,0.0,0
1581348051.235,7.812,11.719,31.25,10.254,0.0,0
1581348051.2389998,-2.441,7.324,31.738000000000003,7.812,0.0,0
1581348051.2429998,-3.906,8.789,29.785,1.465,0.0,0
1581348051.245,4.883,14.16,31.738000000000003,12.695,0.0,0
1581348051.2489998,6.348,15.137,32.715,12.695,0.0,0
1581348051.2529998,3.906,7.324,33.691,3.906,0.0,0
1581348051.2570002,13.672,6.348,35.645,9.766,0.0,0
1581348051.2610002,11.719,10.254,33.691,12.695,0.0,0
1581348051.265,4.395,3.906,36.133,10.254,0.0,0
1581348051.269,4.883,-2.93,36.133,9.277,0.0,0
1581348051.272,3.906,4.395,33.691,12.695,0.0,0
1581348051.276,5.371,9.766,31.738000000000003,16.113,0.0,0
1581348051.28,3.906,0.0,33.691,9.766,0.0,0
1581348051.284,4.883,-0.977,35.156,10.742,0.0,0
1581348051.288,0.0,6.348,34.668,16.113,0.0,0
1581348051.29,-1.465,7.812,33.691,15.137,0.0,0
1581348051.294,4.883,7.324,33.691,11.719,0.0,0
1581348051.298,3.418,7.324,35.156,14.648,0.0,0
1581348051.302,14.648,12.695,34.18,19.043,0.0,0
1581348051.306,13.672,13.184,32.715,15.137,0.0,0
1581348051.31,17.578,3.418,33.203,18.066,0.0,0
1581348051.314,19.043,8.301,31.738000000000003,15.625,0.0,0
1581348051.3170002,3.906,20.996,31.738000000000003,19.531,0.0,0
1581348051.321,9.277,20.508000000000006,37.109,31.738000000000003,0.0,0
1581348051.325,16.113,13.184,36.621,23.926,0.0,0
1581348051.329,9.766,9.766,34.18,19.043,0.0,0
1581348051.333,2.441,8.789,35.645,14.648,0.0,0
1581348051.35,6.836,5.371,36.133,4.395,0.0,0
1581348051.354,9.277,9.766,33.691,11.23,0.0,0
1581348051.3579998,-0.977,14.648,30.762,9.766,0.0,0
1581348051.3620002,7.324,13.184,27.344,6.836,0.0,0
1581348051.3660002,7.324,10.254,25.879,10.254,0.0,0
1581348051.37,-1.465,6.836,27.344,8.301,0.0,0
1581348051.3739998,11.23,7.812,26.367,14.16,0.0,0
1581348051.377,9.277,6.348,28.809,13.184,0.0,0
1581348051.381,17.578,6.348,34.18,20.996,0.0,0
1581348051.385,17.09,10.742,34.18,23.926,0.0,0
1581348051.389,17.578,20.02,29.297,14.648,0.0,0
1581348051.393,7.812,21.484,25.879,18.555,0.0,0
1581348051.395,2.441,11.719,27.344,21.484,0.0,0
1581348051.399,21.484,10.254,28.32,31.738000000000003,0.0,0
1581348051.403,27.344,17.09,27.344,31.25,0.0,0
1581348051.407,14.16,9.277,28.32,24.902,0.0,0
1581348051.411,13.672,8.789,28.809,45.898,0.0,0
1581348051.415,26.367,14.16,28.32,41.01600000000001,0.0,0
1581348051.419,20.02,19.043,28.809,26.367,0.0,0
1581348051.4220002,13.672,29.785,31.738000000000003,25.391,0.0,0
1581348051.426,11.719,19.043,34.668,19.043,0.0,0
1581348051.43,28.32,14.16,36.133,29.297,0.0,0
1581348051.434,27.344,25.879,33.691,27.832,0.0,0
1581348051.438,7.812,19.531,34.18,17.578,0.0,0
1581348051.439,3.418,8.301,37.109,12.695,0.0,0
1581348051.4429998,13.184,11.719,32.715,18.066,0.0,0
1581348051.447,30.762,9.766,31.25,22.461,0.0,0
1581348051.451,24.414,6.348,31.738000000000003,13.184,0.0,0
1581348051.455,12.207,7.812,32.227,18.555,0.0,0
1581348051.459,16.602,5.371,31.738000000000003,25.391,0.0,0
1581348051.4629998,15.625,9.766,32.227,23.926,0.0,0
1581348051.466,17.578,9.766,36.133,27.832,0.0,0
1581348051.47,6.836,3.418,33.203,26.855,0.0,0
1581348051.474,1.465,6.836,30.273000000000003,20.996,0.0,0
1581348051.478,12.695,13.184,33.691,19.531,0.0,0
1581348051.482,17.578,11.719,32.715,23.926,0.0,0
1581348051.484,20.02,10.254,31.25,19.531,0.0,0
1581348051.488,21.484,9.277,34.18,18.066,0.0,0
1581348051.492,21.973000000000006,11.719,33.691,27.832,0.0,0
1581348051.496,12.207,15.625,30.762,12.695,0.0,0
1581348051.5,14.16,13.672,30.273000000000003,5.371,0.0,0
1581348051.504,20.508000000000006,17.578,28.809,13.184,0.0,0
1581348051.508,14.16,23.438,24.414,11.719,0.0,0
1581348051.5110002,28.32,13.184,24.414,20.02,0.0,0
1581348051.515,30.273000000000003,8.789,28.32,12.207,0.0,0
1581348051.519,13.184,20.508000000000006,29.297,14.16,0.0,0
1581348051.5229998,14.16,19.043,27.344,29.297,0.0,0
1581348051.5270002,29.297,14.648,28.809,31.738000000000003,0.0,0
1581348051.529,32.227,16.602,29.297,31.25,0.0,0
1581348051.533,14.16,13.672,30.273000000000003,20.508000000000006,0.0,0
1581348051.5370002,15.137,13.184,31.25,19.531,0.0,0
1581348051.541,15.625,19.043,31.25,24.414,0.0,0
1581348051.545,17.578,9.277,32.715,15.137,0.0,0
1581348051.549,16.113,0.0,31.738000000000003,23.926,0.0,0
1581348051.553,11.23,3.906,32.715,23.926,0.0,0
1581348051.556,12.695,6.836,32.227,11.719,0.0,0
1581348051.56,12.695,18.555,30.273000000000003,20.996,0.0,0
1581348051.564,19.043,24.414,31.25,23.926,0.0,0
1581348051.5679998,14.16,9.766,28.809,28.809,0.0,0
1581348051.572,27.832,4.395,28.809,26.855,0.0,0
1581348051.574,35.645,8.301,29.785,10.742,0.0,0
1581348051.5779998,20.996,15.625,29.785,5.859,0.0,0
1581348051.582,14.648,11.23,32.227,8.789,0.0,0
1581348051.586,8.301,11.23,28.32,18.066,0.0,0
1581348051.59,10.742,13.184,24.902,10.254,0.0,0
1581348051.594,15.625,3.418,30.273000000000003,12.207,0.0,0
1581348051.5979998,16.602,-1.953,28.32,19.043,0.0,0
1581348051.601,8.789,4.395,27.344,20.996,0.0,0
1581348051.605,21.484,17.578,27.832,32.715,0.0,0
1581348051.609,26.367,19.531,26.855,28.809,0.0,0
1581348051.613,5.371,16.602,29.297,27.832,0.0,0
1581348051.617,18.066,13.184,34.18,33.203,0.0,0
1581348051.619,16.602,15.625,33.691,27.832,0.0,0
1581348051.623,10.742,14.648,33.691,32.227,0.0,0
1581348051.627,23.926,7.812,35.645,32.227,0.0,0
1581348051.631,13.184,13.184,31.25,17.578,0.0,0
1581348051.635,23.926,16.113,25.879,20.02,0.0,0
1581348051.639,32.227,10.254,23.438,16.602,0.0,0
1581348051.643,0.977,4.883,26.367,7.324,0.0,0
1581348051.646,-7.812,8.301,28.32,-1.953,0.0,2
1581348051.65,-5.859,11.23,28.32,0.0,0.0,0
1581348051.654,8.301,9.766,29.297,20.996,0.0,0
1581348051.658,30.273000000000003,11.23,26.855,23.438,0.0,0
1581348051.6620002,20.996,14.648,23.926,21.484,0.0,0
1581348051.679,7.812,15.625,23.438,9.766,0.0,0
1581348051.6829998,22.461,11.23,25.391,8.789,0.0,0
1581348051.687,38.086,9.766,28.809,20.02,0.0,0
1581348051.691,29.785,13.672,31.25,12.695,0.0,0
1581348051.695,19.043,13.184,31.738000000000003,16.602,0.0,0
1581348051.699,20.02,7.324,29.297,15.137,0.0,0
1581348051.7029998,30.273000000000003,7.324,28.809,8.789,0.0,0
1581348051.706,18.066,18.066,27.832,7.324,0.0,0
1581348051.71,6.836,24.414,27.832,10.742,0.0,0
1581348051.714,31.25,21.973000000000006,31.738000000000003,13.184,0.0,0
1581348051.718,18.555,21.484,29.297,0.0,0.0,0
1581348051.722,0.0,25.879,28.32,2.93,0.0,0
1581348051.724,16.113,24.414,31.25,13.184,0.0,0
1581348051.728,8.789,18.555,32.715,10.742,0.0,0
1581348051.732,8.789,15.625,32.715,11.23,0.0,0
1581348051.736,18.066,22.949,33.691,11.719,0.0,0
1581348051.74,9.277,25.391,33.203,16.602,0.0,0
1581348051.744,1.465,15.625,32.715,21.484,0.0,0
1581348051.748,15.137,14.648,32.227,19.043,0.0,0
1581348051.7510002,23.438,14.648,32.715,19.531,0.0,0
1581348051.755,15.137,8.301,34.668,17.578,0.0,0
1581348051.7589998,9.277,3.418,35.156,19.043,0.0,0
1581348051.7629998,7.812,6.348,33.691,21.973000000000006,0.0,0
1581348051.7670002,20.508000000000006,17.578,29.785,15.625,0.0,0
1581348051.769,20.02,12.695,31.25,12.695,0.0,0
1581348051.7729998,-4.395,5.859,30.273000000000003,15.625,0.0,0
1581348051.7770002,-12.207,10.742,30.273000000000003,14.648,0.0,0
1581348051.781,8.301,15.137,36.133,23.438,0.0,0
1581348051.785,19.043,10.254,37.598,23.926,0.0,0
1581348051.789,2.93,9.277,39.551,15.137,0.0,0
1581348051.793,5.371,15.137,37.598,20.508000000000006,0.0,0
1581348051.796,25.391,18.555,37.598,20.02,0.0,0
1581348051.8,29.297,11.719,40.039,15.137,0.0,0
1581348051.804,19.531,5.859,38.574,13.184,0.0,0
1581348051.8079998,13.672,17.09,32.715,8.789,0.0,0
1581348051.812,17.09,19.531,31.25,12.695,0.0,0
1581348051.814,7.812,14.648,34.18,10.254,0.0,0
1581348051.8179998,-0.977,12.207,33.691,10.254,0.0,0
1581348051.822,11.719,11.719,29.785,14.16,0.0,0
1581348051.826,10.254,10.742,26.367,10.254,0.0,0
1581348051.83,7.812,11.23,26.367,10.254,0.0,0
1581348051.834,12.207,13.184,25.391,16.113,0.0,0
1581348051.8379998,14.16,12.207,26.855,19.531,0.0,0
1581348051.841,19.043,15.625,30.273000000000003,23.926,0.0,0
1581348051.845,27.832,15.137,27.344,25.879,0.0,0
1581348051.849,30.273000000000003,13.672,27.344,15.625,0.0,0
1581348051.853,12.695,12.695,29.785,12.695,0.0,0
1581348051.857,7.812,12.207,28.809,12.695,0.0,0
1581348051.86,18.555,13.184,31.25,8.301,0.0,0
1581348051.8639998,27.832,5.859,32.227,12.695,0.0,0
1581348051.8679998,23.438,8.789,29.785,11.23,0.0,0
1581348051.8720002,17.578,7.812,28.32,10.254,0.0,0
1581348051.8760002,24.414,3.906,28.32,19.531,0.0,0
1581348051.88,31.25,0.0,30.273000000000003,19.531,0.0,0
1581348051.8839998,26.367,-5.371,31.738000000000003,12.207,0.0,0
1581348051.887,13.672,-4.395,32.715,16.602,0.0,0
1581348051.891,13.184,2.93,31.25,29.297,0.0,0
1581348051.895,10.742,15.137,30.762,39.551,0.0,0
1581348051.899,9.277,12.695,35.156,44.434,0.0,0
1581348051.903,12.695,12.695,33.691,38.574,0.0,0
1581348051.905,12.695,19.531,31.738000000000003,37.109,0.0,0
1581348051.909,9.277,13.672,33.691,35.645,0.0,0
1581348051.913,4.395,13.184,35.156,25.391,0.0,0
1581348051.917,16.602,15.137,36.133,27.344,0.0,0
1581348051.921,18.066,11.23,36.133,24.902,0.0,0
1581348051.925,20.996,10.742,32.227,22.949,0.0,0
1581348051.929,20.508000000000006,9.766,31.738000000000003,29.785,0.0,0
1581348051.9320002,-5.371,9.766,33.691,22.461,0.0,0
1581348051.936,-6.348,20.996,32.227,15.625,0.0,0
1581348051.94,23.926,26.367,33.203,22.949,0.0,0
1581348051.944,32.227,21.973000000000006,33.203,25.879,0.0,0
1581348051.948,21.484,19.531,31.738000000000003,28.32,0.0,0
1581348051.95,12.695,17.09,29.297,26.367,0.0,0
1581348051.954,17.578,14.16,28.32,16.602,0.0,0
1581348051.958,28.809,10.254,28.32,20.02,0.0,0
1581348051.962,22.461,14.16,27.344,21.484,0.0,0
1581348051.966,13.672,23.926,27.344,22.949,0.0,0
1581348051.97,10.742,22.461,31.25,22.949,0.0,0
1581348051.974,16.602,17.578,31.25,26.367,0.0,0
1581348051.9770002,33.203,17.09,29.785,28.32,0.0,0
1581348051.981,32.227,20.996,30.273000000000003,24.414,0.0,0
1581348051.985,13.184,22.461,29.297,27.344,0.0,0
1581348051.9889998,15.137,23.438,28.32,28.809,0.0,0
1581348051.9929998,26.855,21.484,26.855,24.414,0.0,0
1581348051.995,26.367,18.066,28.809,24.414,0.0,0
1581348051.9989998,18.066,16.602,30.762,21.973000000000006,0.0,0
1581348052.0029998,25.879,20.508000000000006,29.297,25.391,0.0,0
1581348052.0070002,28.32,29.785,26.855,27.832,0.0,0
1581348052.0110002,15.137,30.273000000000003,27.344,27.344,0.0,0
1581348052.015,7.812,26.367,29.785,22.949,0.0,0
1581348052.019,19.531,17.09,32.227,16.113,0.0,0
1581348052.022,28.809,16.113,34.18,23.926,0.0,0
1581348052.026,27.344,19.043,33.203,32.715,0.0,0
1581348052.03,14.648,10.742,31.25,30.762,0.0,0
1581348052.034,21.484,8.789,31.25,24.902,0.0,0
1581348052.038,26.855,10.254,28.809,23.926,0.0,0
1581348052.04,23.926,11.23,25.391,28.809,0.0,0
1581348052.044,26.855,10.254,27.832,30.762,0.0,0
1581348052.048,27.344,7.324,32.715,30.273000000000003,0.0,0
1581348052.052,26.855,8.789,33.691,31.25,0.0,0
1581348052.056,40.527,4.883,30.762,29.297,0.0,0
1581348052.06,43.945,5.859,28.809,35.645,0.0,0
1581348052.064,19.531,9.766,29.297,36.621,0.0,0
1581348052.0670002,19.043,15.625,27.832,28.809,0.0,0
1581348052.071,31.738000000000003,14.648,29.785,20.508000000000006,0.0,0
1581348052.075,30.762,13.184,32.227,20.508000000000006,0.0,0
1581348052.079,23.438,18.066,34.668,30.762,0.0,0
1581348052.083,20.996,16.113,33.203,29.785,0.0,0
1581348052.1,27.832,10.254,29.297,25.879,0.0,0
1581348052.104,22.949,6.348,28.809,14.16,0.0,0
1581348052.1079998,26.367,5.859,31.25,11.23,0.0,0
1581348052.1120002,32.715,8.301,34.18,25.879,0.0,0
1581348052.1160002,36.133,10.254,31.738000000000003,24.902,0.0,0
1581348052.12,32.715,9.766,31.738000000000003,22.461,0.0,0
1581348052.1239998,14.648,15.625,33.691,14.16,0.0,0
1581348052.127,12.207,20.508000000000006,34.18,10.254,0.0,0
1581348052.131,17.09,19.043,35.645,22.949,0.0,0
1581348052.135,26.855,17.578,34.668,18.555,0.0,0
1581348052.139,29.785,17.578,33.203,14.648,0.0,0
1581348052.143,19.531,16.602,31.738000000000003,7.324,0.0,0
1581348052.145,17.578,14.648,31.25,-3.906,0.0,0
1581348052.149,25.879,20.02,33.203,7.324,0.0,0
1581348052.153,21.973000000000006,21.973000000000006,33.691,16.602,0.0,0
1581348052.157,16.113,17.09,33.691,21.484,0.0,0
1581348052.161,15.625,12.695,34.668,15.625,0.0,0
1581348052.165,13.672,10.254,34.668,13.672,0.0,0
1581348052.169,31.738000000000003,12.207,33.691,27.832,0.0,0
1581348052.1720002,35.156,16.602,36.133,35.156,0.0,0
1581348052.176,14.648,-0.977,38.086,37.598,0.0,0
1581348052.18,22.461,-7.812,35.156,26.855,0.0,0
1581348052.184,36.621,8.301,34.668,26.855,0.0,0
1581348052.188,24.902,11.23,38.574,40.039,0.0,0
1581348052.19,18.066,6.836,39.551,32.227,0.0,0
1581348052.194,21.973000000000006,2.93,34.668,22.949,0.0,0
1581348052.198,23.926,-1.953,33.691,18.066,0.0,0
1581348052.202,25.879,-2.93,33.691,12.207,0.0,0
1581348052.206,9.766,1.953,33.691,13.672,0.0,0
1581348052.21,20.508000000000006,0.0,35.156,15.137,0.0,0
1581348052.214,24.414,2.441,31.25,15.137,0.0,0
1581348052.217,8.301,10.742,28.32,6.836,0.0,0
1581348052.221,5.859,8.301,28.809,-0.488,0.0,0
1581348052.225,12.207,12.207,29.785,13.672,0.0,0
1581348052.229,18.555,14.648,29.785,19.531,0.0,0
1581348052.2329998,19.531,7.324,28.809,21.973000000000006,0.0,0
1581348052.235,11.719,1.953,28.32,16.113,0.0,0
1581348052.2389998,2.441,-1.465,29.297,6.348,0.0,0
1581348052.2429998,11.23,3.906,28.32,17.09,0.0,0
1581348052.2470002,9.277,2.93,28.32,15.625,0.0,0
1581348052.2510002,0.488,0.977,29.297,12.695,0.0,0
1581348052.255,0.0,4.883,28.32,13.672,0.0,0
1581348052.2589998,-3.906,5.859,28.32,14.16,0.0,0
1581348052.262,4.883,7.324,29.785,18.555,0.0,0
1581348052.266,7.324,4.395,30.273000000000003,9.277,0.0,0
1581348052.27,8.789,9.277,30.762,10.742,0.0,0
1581348052.274,19.043,4.883,30.762,13.184,0.0,0
1581348052.278,21.484,4.883,30.762,21.484,0.0,0
1581348052.28,28.32,16.113,33.691,32.227,0.0,0
1581348052.284,20.996,20.02,34.18,27.832,0.0,0
1581348052.288,4.395,17.578,32.715,32.227,0.0,0
1581348052.292,6.836,11.23,32.227,26.367,0.0,0
1581348052.296,6.348,8.789,33.203,18.066,0.0,0
1581348052.3,15.625,6.836,33.203,20.996,0.0,0
1581348052.304,19.531,8.789,31.25,20.508000000000006,0.0,0
1581348052.3070002,8.301,2.93,33.203,21.484,0.0,0
1581348052.311,18.066,5.371,31.25,11.719,0.0,0
1581348052.315,12.695,18.555,28.809,13.184,0.0,0
1581348052.319,-3.418,14.16,30.273000000000003,18.555,0.0,0
1581348052.323,-0.488,10.254,29.785,9.766,0.0,0
1581348052.325,4.395,11.719,27.832,14.648,0.0,0
1581348052.329,5.371,8.789,26.367,13.672,0.0,0
1581348052.333,6.836,4.883,27.832,15.625,0.0,0
1581348052.337,6.836,7.812,28.32,29.297,0.0,0
1581348052.341,21.973000000000006,13.184,26.367,35.645,0.0,0
1581348052.345,29.297,9.277,29.785,26.855,0.0,0
1581348052.349,21.973000000000006,0.977,31.25,8.789,0.0,0
1581348052.3520002,24.414,5.859,28.32,9.766,0.0,0
1581348052.356,17.09,18.066,30.273000000000003,11.23,0.0,0
1581348052.36,15.625,15.625,31.738000000000003,12.207,0.0,0
1581348052.3639998,22.949,11.719,31.25,16.113,0.0,0
1581348052.3679998,16.602,16.113,33.203,8.301,0.0,0
1581348052.37,18.066,20.02,30.273000000000003,14.16,0.0,0
1581348052.3739998,20.02,16.113,25.391,20.02,0.0,0
1581348052.3779998,9.277,13.672,24.414,19.531,0.0,0
1581348052.3820002,-0.488,16.602,25.391,18.555,0.0,0
1581348052.3860002,-3.418,20.02,24.902,9.766,0.0,0
1581348052.39,10.742,16.113,24.414,13.672,0.0,0
1581348052.394,15.137,9.766,23.926,20.508000000000006,0.0,0
1581348052.397,9.766,16.602,25.391,21.484,0.0,0
1581348052.401,12.695,22.461,25.879,21.973000000000006,0.0,0
1581348052.405,20.996,15.137,26.367,16.113,0.0,0
1581348052.409,23.438,14.16,24.414,16.113,0.0,0
1581348052.413,18.555,16.602,21.973000000000006,14.648,0.0,0
1581348052.415,18.066,12.695,23.438,14.16,0.0,0
1581348052.419,15.137,8.789,22.461,21.484,0.0,0
1581348052.423,12.207,4.883,21.484,18.066,0.0,0
1581348052.427,17.09,11.23,22.949,13.184,0.0,0
1581348052.431,19.043,14.648,24.902,19.531,0.0,0
1581348052.435,12.207,10.254,27.832,23.926,0.0,0
1581348052.439,21.973000000000006,16.113,27.344,25.879,0.0,0
1581348052.4420002,31.738000000000003,21.484,25.879,20.02,0.0,0
1581348052.446,12.207,14.648,28.809,14.648,0.0,0
1581348052.45,10.254,6.836,29.785,24.902,0.0,0
1581348052.454,22.949,3.906,28.809,27.344,0.0,0
1581348052.458,22.461,9.277,24.414,13.184,0.0,0
1581348052.475,14.648,8.301,25.391,9.766,0.0,0
1581348052.479,16.113,4.883,30.273000000000003,21.973000000000006,0.0,0
1581348052.4829998,18.066,7.812,30.762,24.414,0.0,0
1581348052.4870002,8.789,6.836,31.25,17.09,0.0,0
1581348052.4910002,5.371,5.859,28.809,9.277,0.0,0
1581348052.495,8.301,7.812,26.855,12.695,0.0,0
1581348052.4989998,11.719,10.254,32.715,18.066,0.0,0
1581348052.502,7.324,10.742,35.156,13.184,0.0,0
1581348052.506,0.977,7.812,34.18,19.043,0.0,0
1581348052.51,-4.883,3.418,34.668,18.555,0.0,0
1581348052.514,0.977,4.883,34.18,11.23,0.0,0
1581348052.518,9.277,7.324,31.738000000000003,13.672,0.0,0
1581348052.52,9.277,3.418,34.18,19.043,0.0,0
1581348052.524,-1.465,4.395,37.598,20.996,0.0,0
1581348052.528,2.441,10.254,35.156,21.484,0.0,0
1581348052.532,12.207,10.742,34.668,13.672,0.0,0
1581348052.536,8.789,10.742,36.621,13.672,0.0,0
1581348052.54,9.277,19.043,37.598,18.066,0.0,0
1581348052.544,3.418,22.461,36.133,11.719,0.0,0
1581348052.5470002,3.418,21.484,32.715,7.324,0.0,0
1581348052.551,12.695,15.625,30.762,7.812,0.0,0
1581348052.555,11.719,15.137,32.227,9.277,0.0,0
1581348052.559,1.465,23.926,32.715,11.23,0.0,0
1581348052.563,9.766,20.996,30.762,12.207,0.0,0
1581348052.565,18.555,17.578,29.785,11.23,0.0,0
1581348052.569,22.461,16.602,31.25,8.789,0.0,0
1581348052.573,19.043,18.066,30.762,9.277,0.0,0
1581348052.577,7.324,15.625,31.25,7.812,0.0,0
1581348052.581,7.812,14.16,32.227,1.465,0.0,0
1581348052.585,10.742,16.113,31.738000000000003,0.977,0.0,0
1581348052.589,13.184,17.09,34.668,5.371,0.0,0
1581348052.592,18.066,14.16,35.645,12.207,0.0,0
1581348052.596,17.09,8.301,35.645,19.043,0.0,0
1581348052.6,5.371,12.695,35.645,17.09,0.0,0
1581348052.604,5.371,13.184,36.621,12.207,0.0,0
1581348052.6079998,11.719,7.812,36.133,12.695,0.0,0
1581348052.609,0.977,9.766,34.668,18.555,0.0,0
1581348052.613,4.395,13.184,34.668,25.391,0.0,0
1581348052.617,14.16,14.16,33.691,21.973000000000006,0.0,0
1581348052.621,6.836,13.672,33.691,15.625,0.0,0
1581348052.625,12.695,17.578,32.715,15.137,0.0,0
1581348052.629,26.367,16.602,32.227,15.625,0.0,0
1581348052.633,22.461,18.066,33.203,19.043,0.0,0
1581348052.6360002,6.348,17.578,32.715,22.949,0.0,0
1581348052.64,7.812,13.672,32.227,18.555,0.0,0
1581348052.644,28.32,23.438,33.691,20.996,0.0,0
1581348052.6479998,26.855,24.902,33.203,28.32,0.0,0
1581348052.6520002,13.184,20.996,29.297,20.996,0.0,0
1581348052.654,8.789,20.508000000000006,31.25,20.508000000000006,0.0,0
1581348052.658,12.695,15.625,32.227,17.578,0.0,0
1581348052.6620002,13.672,13.184,29.785,13.184,0.0,0
1581348052.666,13.184,13.184,33.203,20.508000000000006,0.0,0
1581348052.67,7.324,10.742,34.668,20.02,0.0,0
1581348052.674,7.812,10.742,33.691,19.043,0.0,0
1581348052.678,20.508000000000006,8.789,34.18,11.719,0.0,0
1581348052.681,16.602,2.93,31.25,1.953,0.0,0
1581348052.685,-0.488,9.277,31.25,5.859,0.0,0
1581348052.689,0.488,20.508000000000006,30.273000000000003,15.625,0.0,0
1581348052.6929998,17.09,19.531,25.879,19.043,0.0,0
1581348052.697,27.832,20.996,28.809,10.254,0.0,0
1581348052.699,20.508000000000006,24.414,30.762,7.324,0.0,0
1581348052.7029998,14.648,27.344,28.32,19.531,0.0,0
1581348052.707,14.648,24.414,30.273000000000003,27.344,0.0,0
1581348052.711,14.648,20.02,33.203,31.25,0.0,0
1581348052.715,8.789,20.508000000000006,32.227,18.066,0.0,0
1581348052.719,9.766,15.137,31.738000000000003,8.301,0.0,0
1581348052.7229998,20.508000000000006,8.301,33.691,19.531,0.0,0
1581348052.726,13.184,8.789,32.227,15.625,0.0,0
1581348052.73,6.836,19.043,31.25,11.23,0.0,0
1581348052.734,19.043,19.531,30.762,13.184,0.0,0
1581348052.738,24.902,14.648,33.203,14.16,0.0,0
1581348052.742,26.855,15.625,34.18,26.855,0.0,0
1581348052.744,23.926,15.625,30.273000000000003,24.902,0.0,0
1581348052.748,19.531,19.531,30.273000000000003,21.973000000000006,0.0,0
1581348052.752,19.531,19.043,33.691,17.578,0.0,0
1581348052.756,30.762,15.625,33.691,11.719,0.0,0
1581348052.76,28.32,16.602,32.715,25.879,0.0,0
1581348052.764,4.395,12.695,33.203,25.391,0.0,0
1581348052.768,0.488,5.371,33.203,19.531,0.0,0
1581348052.771,24.414,11.23,33.203,19.043,0.0,0
1581348052.775,31.25,14.648,34.18,20.02,0.0,0
1581348052.779,13.184,11.719,34.668,17.578,0.0,0
1581348052.783,11.719,16.602,33.691,16.602,0.0,0
1581348052.7870002,22.949,20.996,31.25,24.414,0.0,0
1581348052.789,16.602,20.02,28.809,11.23,0.0,0
1581348052.793,14.16,11.719,29.297,6.836,0.0,0
1581348052.7970002,10.742,7.812,33.203,21.973000000000006,0.0,0
1581348052.801,1.465,8.789,36.133,20.02,0.0,0
1581348052.805,8.301,8.789,33.691,23.926,0.0,0
1581348052.809,7.324,8.301,31.25,15.137,0.0,2
1581348052.813,3.418,10.254,33.203,4.883,0.0,0
1581348052.816,7.812,20.02,35.156,20.02,0.0,0
1581348052.82,26.855,18.066,33.203,19.043,0.0,0
1581348052.824,21.973000000000006,12.695,32.715,13.672,0.0,0
1581348052.8279998,10.742,17.578,30.762,17.09,0.0,0
1581348052.832,22.461,23.438,28.809,25.391,0.0,0
1581348052.849,33.691,22.461,30.762,26.367,0.0,0
1581348052.853,23.438,21.484,30.273000000000003,14.16,0.0,0
1581348052.857,9.277,22.461,28.32,13.184,0.0,0
1581348052.861,8.789,17.09,29.297,9.277,0.0,0
1581348052.865,16.113,9.766,30.762,8.789,0.0,0
1581348052.869,22.949,12.695,27.832,19.043,0.0,0
1581348052.873,22.461,17.578,27.832,20.996,0.0,0
1581348052.8760002,19.043,19.531,29.297,20.02,0.0,0
1581348052.88,7.324,16.602,29.297,11.719,0.0,0
1581348052.8839998,3.906,10.254,28.32,9.277,0.0,0
1581348052.8879998,8.789,16.602,28.32,17.09,0.0,0
1581348052.8920002,12.207,20.02,28.32,6.836,0.0,0
1581348052.894,10.742,16.113,24.902,2.93,0.0,0
1581348052.8979998,6.348,13.672,27.344,-0.488,0.0,0
1581348052.9020002,19.531,10.742,29.785,-4.395,0.0,0
1581348052.906,9.766,10.254,31.738000000000003,-0.488,0.0,0
1581348052.91,-2.441,3.418,35.645,7.812,0.0,0
1581348052.914,7.812,-2.441,34.668,19.531,0.0,0
1581348052.918,6.836,1.465,29.297,14.648,0.0,0
1581348052.921,7.324,9.766,27.832,11.23,0.0,0
1581348052.925,3.906,9.766,29.297,17.578,0.0,0
1581348052.929,6.348,9.277,29.785,20.508000000000006,0.0,0
1581348052.9329998,18.555,15.625,29.785,20.996,0.0,0
1581348052.937,21.973000000000006,11.719,29.297,10.254,0.0,0
1581348052.939,5.859,2.441,26.367,7.812,0.0,0
1581348052.9429998,10.254,-3.418,23.926,16.602,0.0,0
1581348052.947,34.18,0.977,24.414,18.066,0.0,0
1581348052.951,38.086,4.883,25.879,26.367,0.0,0
1581348052.955,11.23,5.859,26.855,25.879,0.0,0
1581348052.959,5.371,7.812,26.367,29.297,0.0,0
1581348052.9629998,23.926,4.883,28.809,40.527,0.0,0
1581348052.966,21.973000000000006,4.395,29.297,32.715,0.0,0
1581348052.97,17.578,3.418,27.832,20.996,0.0,0
1581348052.974,18.066,3.906,26.367,13.672,0.0,0
1581348052.978,29.297,10.254,23.926,17.578,0.0,0
1581348052.982,28.32,13.672,23.438,18.066,0.0,0
1581348052.985,8.789,6.836,23.438,10.742,0.0,0
1581348052.9889998,-0.488,10.254,25.391,9.277,0.0,0
1581348052.9929998,11.719,15.625,26.367,8.789,0.0,0
1581348052.9970002,9.277,9.766,24.902,6.836,0.0,0
1581348053.0010002,-4.883,10.742,25.391,9.766,0.0,0
1581348053.005,5.371,6.836,27.344,13.184,0.0,0
1581348053.0089998,8.789,6.348,29.297,15.625,0.0,0
1581348053.012,4.395,8.789,33.691,16.113,0.0,0
1581348053.016,10.254,10.254,32.227,17.578,0.0,0
1581348053.02,14.648,18.555,28.32,15.625,0.0,0
1581348053.024,8.301,23.926,29.785,12.695,0.0,0
1581348053.028,10.742,23.438,30.273000000000003,17.09,0.0,0
1581348053.03,14.16,23.926,30.273000000000003,16.113,0.0,0
1581348053.034,10.742,23.926,30.273000000000003,14.648,0.0,0
1581348053.038,6.836,20.02,29.785,18.066,0.0,0
1581348053.042,10.742,20.996,31.25,23.438,0.0,0
1581348053.046,19.043,22.461,32.227,23.438,0.0,0
1581348053.05,12.207,24.902,29.297,16.113,0.0,0
1581348053.054,12.695,25.879,28.32,17.578,0.0,0
1581348053.0570002,23.438,22.949,28.809,24.414,0.0,0
1581348053.061,23.926,23.926,28.32,26.367,0.0,0
1581348053.065,16.113,26.855,27.832,25.879,0.0,0
1581348053.069,12.207,21.973000000000006,26.855,23.926,0.0,0
1581348053.073,12.695,18.555,27.344,32.715,0.0,0
1581348053.075,24.902,22.461,29.297,39.062,0.0,0
1581348053.079,27.344,19.531,32.227,36.621,0.0,0
1581348053.083,13.184,12.207,31.738000000000003,29.297,0.0,0
1581348053.087,14.648,10.254,30.273000000000003,22.461,0.0,0
1581348053.091,26.855,17.09,30.762,28.809,0.0,0
1581348053.095,32.227,14.648,28.32,26.367,0.0,0
1581348053.099,24.414,8.789,25.391,20.996,0.0,0
1581348053.1020002,19.043,13.184,27.344,21.973000000000006,0.0,0
1581348053.106,27.832,20.508000000000006,29.297,25.879,0.0,0
1581348053.11,24.414,21.484,29.785,29.785,0.0,0
1581348053.1139998,18.555,17.578,30.273000000000003,18.555,0.0,0
1581348053.1179998,21.484,20.508000000000006,31.25,16.113,0.0,0
1581348053.12,20.02,22.461,28.809,18.066,0.0,0
1581348053.1239998,20.996,20.508000000000006,28.32,11.719,0.0,0
1581348053.1279998,13.672,19.043,29.785,15.137,0.0,0
1581348053.1320002,3.418,17.578,29.785,11.23,0.0,0
1581348053.1360002,-2.93,11.719,30.762,8.301,0.0,0
1581348053.14,8.789,3.418,30.273000000000003,12.695,0.0,0
1581348053.144,19.531,1.953,29.785,11.719,0.0,0
1581348053.147,10.742,11.719,28.32,17.09,0.0,0
1581348053.151,-1.465,18.555,27.344,19.043,0.0,0
1581348053.155,2.441,15.137,26.855,18.066,0.0,0
1581348053.159,4.395,12.695,26.367,21.484,0.0,0
1581348053.163,-2.441,11.23,27.344,13.184,0.0,0
1581348053.165,8.301,19.043,27.344,13.672,0.0,0
1581348053.169,13.672,20.996,27.344,23.438,0.0,0
1581348053.173,13.672,17.578,28.809,23.926,0.0,0
1581348053.177,19.531,14.648,29.785,19.043,0.0,0
1581348053.181,15.137,9.277,28.809,7.324,0.0,0
1581348053.185,13.672,2.441,29.785,11.23,0.0,0
1581348053.189,21.484,5.371,28.809,21.484,0.0,0
1581348053.1920002,20.508000000000006,16.113,27.832,20.508000000000006,0.0,0
1581348053.196,2.441,18.066,28.809,22.949,0.0,0
1581348053.2,2.93,13.184,28.809,27.344,0.0,0
1581348053.204,17.09,13.672,26.855,34.668,0.0,0
1581348053.208,16.602,18.066,24.414,29.297,0.0,0
1581348053.225,8.789,16.113,25.879,16.602,0.0,0
1581348053.229,10.254,14.16,27.832,14.16,0.0,0
1581348053.2329998,26.367,8.789,28.32,19.531,0.0,0
1581348053.2370002,31.738000000000003,5.859,29.785,24.902,0.0,0
1581348053.2410002,30.273000000000003,7.812,32.227,28.32,0.0,0
1581348053.245,13.184,6.836,33.691,28.809,0.0,0
1581348053.2489998,7.324,12.695,31.25,26.367,0.0,0
1581348053.252,16.602,20.508000000000006,30.273000000000003,18.066,0.0,0
1581348053.256,12.207,20.508000000000006,29.297,14.16,0.0,0
1581348053.26,4.883,12.695,26.855,18.555,0.0,0
1581348053.264,12.207,14.648,29.297,18.555,0.0,0
1581348053.268,20.02,20.02,29.297,16.113,0.0,0
1581348053.27,20.02,12.207,25.391,13.184,0.0,0
1581348053.274,12.207,2.441,27.344,12.695,0.0,0
1581348053.278,19.043,6.836,28.32,14.648,0.0,0
1581348053.282,27.832,13.184,26.855,20.02,0.0,0
1581348053.286,17.09,8.301,26.367,19.043,0.0,0
1581348053.29,16.602,7.324,27.344,9.766,0.0,0
1581348053.294,27.344,15.137,29.297,13.184,0.0,0
1581348053.2970002,28.32,20.508000000000006,28.32,18.555,0.0,0
1581348053.301,26.855,16.113,27.832,10.742,0.0,0
1581348053.305,30.762,13.672,29.785,10.254,0.0,0
1581348053.309,21.973000000000006,21.973000000000006,30.273000000000003,17.578,0.0,0
1581348053.313,19.531,20.996,31.25,31.25,0.0,0
1581348053.315,29.785,18.066,32.227,35.645,0.0,0
1581348053.319,22.461,23.438,32.227,27.344,0.0,0
1581348053.323,16.113,26.367,29.297,24.902,0.0,0
1581348053.327,13.672,23.926,27.832,20.996,0.0,0
1581348053.331,12.207,21.973000000000006,29.785,25.391,0.0,0
1581348053.335,16.113,21.973000000000006,33.203,23.926,0.0,0
1581348053.339,13.672,20.996,32.715,19.531,0.0,0
1581348053.342,9.277,20.508000000000006,29.785,23.926,0.0,0
1581348053.346,11.719,13.672,31.738000000000003,24.902,0.0,0
1581348053.35,12.207,15.625,33.203,27.344,0.0,0
1581348053.354,5.859,18.066,33.203,22.949,0.0,0
1581348053.3579998,-6.836,8.301,34.668,26.367,0.0,0
1581348053.36,-4.395,3.906,34.18,24.902,0.0,0
1581348053.3639998,10.254,9.766,32.227,17.578,0.0,0
1581348053.3679998,9.766,16.113,31.738000000000003,23.926,0.0,0
1581348053.3720002,13.672,16.113,33.691,23.438,0.0,0
1581348053.3760002,20.02,17.09,33.691,28.32,0.0,0
1581348053.38,23.438,14.648,33.203,25.391,0.0,0
1581348053.3839998,19.043,13.184,33.691,24.414,0.0,0
1581348053.387,14.648,14.16,32.715,32.227,0.0,0
1581348053.391,20.508000000000006,8.789,33.691,23.926,0.0,0
1581348053.395,19.531,15.625,33.203,20.996,0.0,0
1581348053.399,11.23,19.531,32.715,18.066,0.0,0
1581348053.403,13.184,16.113,34.18,19.043,0.0,0
1581348053.405,12.695,20.508000000000006,32.227,26.855,0.0,0
1581348053.409,13.672,26.367,31.738000000000003,20.996,0.0,0
1581348053.413,19.531,24.902,32.227,16.602,0.0,0
1581348053.417,11.719,17.578,30.762,12.207,0.0,0
1581348053.421,0.977,12.695,31.738000000000003,14.16,0.0,0
1581348053.425,8.301,13.184,32.227,21.484,0.0,0
1581348053.429,14.16,15.137,30.762,24.414,0.0,0
1581348053.4320002,3.906,8.789,34.18,18.066,0.0,0
1581348053.436,11.719,11.23,34.668,1.953,0.0,0
1581348053.44,14.648,19.043,33.203,16.113,0.0,0
1581348053.444,21.484,19.531,34.668,41.01600000000001,0.0,0
1581348053.448,29.297,20.02,33.203,36.133,0.0,0
1581348053.45,20.508000000000006,20.996,31.738000000000003,23.438,0.0,0
1581348053.454,24.414,20.996,30.273000000000003,14.16,0.0,0
1581348053.458,34.18,17.578,30.762,12.207,0.0,0
1581348053.462,25.879,19.043,31.738000000000003,17.578,0.0,0
1581348053.466,22.461,26.855,31.738000000000003,20.508000000000006,0.0,0
1581348053.47,20.02,24.414,30.762,29.297,0.0,0
1581348053.474,15.625,14.16,29.785,25.879,0.0,0
1581348053.4770002,23.438,11.23,32.227,25.391,0.0,0
1581348053.481,24.414,14.648,31.738000000000003,32.715,0.0,0
1581348053.485,27.344,14.16,31.25,27.832,0.0,0
1581348053.4889998,30.762,12.207,32.715,26.855,0.0,0
1581348053.4929998,31.25,14.16,32.715,10.742,0.0,0
1581348053.494,28.32,20.508000000000006,31.25,6.348,0.0,0
1581348053.498,19.043,21.484,29.297,13.184,0.0,0
1581348053.502,20.508000000000006,21.484,33.203,16.602,0.0,0
1581348053.506,20.508000000000006,16.602,35.645,21.484,0.0,0
1581348053.51,16.113,11.23,34.18,14.648,0.0,0
1581348053.514,14.648,14.16,33.203,16.602,0.0,0
1581348053.518,17.578,11.719,31.25,17.578,0.0,0
1581348053.521,16.113,13.672,32.227,20.996,0.0,0
1581348053.525,19.531,20.508000000000006,33.691,25.391,0.0,0
1581348053.529,21.484,23.926,34.668,11.23,0.0,0
1581348053.533,17.578,25.391,36.621,8.789,0.0,0
1581348053.5370002,20.996,22.949,32.715,20.996,0.0,0
1581348053.54,27.832,20.02,32.227,20.996,0.0,0
1581348053.544,14.16,15.137,36.133,20.996,0.0,0
1581348053.548,2.93,15.625,34.668,19.531,0.0,0
1581348053.552,14.16,15.137,34.668,19.531,0.0,0
1581348053.556,22.461,13.672,34.668,21.484,0.0,0
1581348053.56,16.602,14.16,34.18,17.578,0.0,0
1581348053.564,9.766,18.066,33.691,18.066,0.0,0
1581348053.5670002,13.672,31.738000000000003,32.715,14.16,0.0,0
1581348053.571,30.273000000000003,27.832,34.668,14.648,0.0,0
1581348053.575,38.574,14.16,35.156,23.438,0.0,0
1581348053.579,19.043,6.836,32.715,21.973000000000006,0.0,0
1581348053.583,8.789,13.184,30.273000000000003,26.855,0.0,0
1581348053.6,14.648,18.066,29.785,20.508000000000006,0.0,0
1581348053.604,19.043,13.184,31.738000000000003,13.672,0.0,0
1581348053.6079998,17.09,12.695,34.18,20.996,0.0,0
1581348053.6120002,6.836,14.648,33.691,19.043,0.0,0
1581348053.6160002,5.859,14.16,29.785,20.508000000000006,0.0,0
1581348053.62,17.09,15.137,29.297,8.301,0.0,0
1581348053.6239998,7.812,20.508000000000006,28.809,1.465,0.0,0
1581348053.627,0.977,23.438,27.832,18.066,0.0,0
1581348053.631,11.719,20.02,28.809,27.344,0.0,0
1581348053.635,13.672,13.672,29.785,25.391,0.0,0
1581348053.639,6.348,12.207,30.762,12.695,0.0,0
1581348053.643,11.719,17.09,31.25,11.719,0.0,0
1581348053.646,15.625,20.996,28.809,9.766,0.0,0
1581348053.65,15.137,21.484,26.855,8.301,0.0,0
1581348053.654,16.602,22.461,28.32,18.555,0.0,0
1581348053.658,3.418,20.508000000000006,28.809,8.301,0.0,0
1581348053.6620002,1.953,16.113,27.832,4.883,0.0,0
1581348053.666,13.184,11.719,27.344,18.555,0.0,0
1581348053.67,20.996,12.695,23.926,16.602,0.0,0
1581348053.673,6.348,20.508000000000006,22.461,15.625,0.0,0
1581348053.677,-10.254,15.625,25.391,8.789,0.0,0
1581348053.681,4.395,15.625,23.438,4.883,0.0,0
1581348053.685,13.184,24.902,23.926,12.695,0.0,0
1581348053.689,2.441,21.484,26.367,9.766,0.0,0
1581348053.689,7.812,21.484,25.391,9.766,0.0,0
1581348053.6929998,15.137,15.625,25.879,9.766,0.0,0
1581348053.697,17.578,15.625,28.809,22.949,0.0,0
1581348053.701,19.043,21.973000000000006,29.297,29.297,0.0,0
1581348053.705,16.602,22.949,29.785,21.484,0.0,0
1581348053.709,20.996,26.855,31.738000000000003,30.273000000000003,0.0,0
1581348053.7129998,14.16,28.32,30.273000000000003,33.203,0.0,0
1581348053.716,20.996,32.715,30.762,20.996,0.0,0
1581348053.72,20.02,27.832,27.344,10.742,0.0,0
1581348053.724,10.254,24.902,24.414,14.648,0.0,0
1581348053.728,22.949,28.32,26.367,24.414,0.0,0
1581348053.732,19.043,20.996,30.273000000000003,19.043,0.0,0
1581348053.734,9.766,23.438,31.25,18.555,0.0,0
1581348053.738,10.254,29.785,28.32,20.02,0.0,0
1581348053.742,11.719,32.227,26.855,24.902,0.0,0
1581348053.746,25.879,23.438,28.32,33.203,0.0,0
1581348053.75,21.973000000000006,15.625,30.273000000000003,21.484,0.0,0
1581348053.754,8.301,21.973000000000006,29.297,14.16,0.0,0
1581348053.758,19.043,20.996,30.762,20.996,0.0,0
1581348053.7610002,18.066,14.648,32.715,20.996,0.0,0
1581348053.765,15.137,17.09,32.227,16.602,0.0,0
1581348053.769,12.695,22.461,32.227,9.766,0.0,0
1581348053.7729998,4.883,18.555,30.762,15.137,0.0,0
1581348053.7770002,12.207,17.09,31.738000000000003,21.973000000000006,0.0,0
1581348053.779,9.766,23.438,32.227,21.484,0.0,0
1581348053.783,2.441,20.996,31.25,24.414,0.0,0
1581348053.7870002,12.695,15.625,28.809,27.344,0.0,0
1581348053.791,22.461,12.695,28.809,23.438,0.0,0
1581348053.795,22.461,15.137,30.762,15.625,0.0,0
1581348053.799,23.438,12.207,32.227,13.184,0.0,0
1581348053.803,19.043,10.254,34.18,15.137,0.0,0
1581348053.806,21.973000000000006,8.789,32.227,11.719,0.0,0
1581348053.81,31.25,8.789,27.832,14.648,0.0,0
1581348053.814,26.855,15.137,30.273000000000003,27.344,0.0,0
1581348053.8179998,11.23,15.137,32.715,24.902,0.0,0
1581348053.822,2.93,18.066,30.762,18.555,0.0,0
1581348053.824,11.719,21.973000000000006,30.762,17.578,0.0,0
1581348053.8279998,24.414,16.602,32.715,14.16,0.0,0
1581348053.832,12.695,9.766,33.203,10.254,0.0,0
1581348053.836,0.0,10.742,30.762,14.648,0.0,2
1581348053.84,20.996,14.16,28.809,26.855,0.0,0
1581348053.844,28.809,16.602,29.297,23.438,0.0,0
1581348053.8479998,17.09,16.602,31.25,17.578,0.0,0
1581348053.851,18.555,20.02,32.227,24.902,0.0,0
1581348053.855,26.367,31.25,32.715,35.156,0.0,0
1581348053.859,22.949,22.461,36.133,37.598,0.0,0
1581348053.863,20.508000000000006,13.184,35.156,27.344,0.0,0
1581348053.867,12.207,24.902,29.785,16.113,0.0,0
1581348053.869,15.137,33.691,24.902,10.742,0.0,0
1581348053.873,20.996,29.297,25.879,9.766,0.0,0
1581348053.877,7.324,22.461,29.297,4.883,0.0,0
1581348053.881,-5.859,23.438,26.855,5.371,0.0,0
1581348053.885,3.906,20.508000000000006,27.832,13.184,0.0,0
1581348053.889,22.949,11.719,31.738000000000003,18.555,0.0,0
1581348053.893,14.648,8.789,30.273000000000003,23.926,0.0,0
1581348053.896,0.488,12.207,28.809,15.137,0.0,0
1581348053.9,13.184,20.02,30.762,7.324,0.0,0
1581348053.904,14.16,21.484,29.785,15.137,0.0,0
1581348053.908,9.766,17.09,30.762,22.949,0.0,0
1581348053.9120002,12.695,20.02,30.762,20.508000000000006,0.0,0
1581348053.914,-1.465,22.949,28.809,16.113,0.0,0
1581348053.918,-4.883,17.09,30.273000000000003,19.531,0.0,0
1581348053.9220002,2.93,11.23,32.715,22.461,0.0,0
1581348053.926,5.371,14.16,31.25,17.09,0.0,0
1581348053.93,7.324,24.414,30.762,16.113,0.0,0
1581348053.934,13.672,26.855,35.645,27.344,0.0,0
1581348053.938,16.113,20.508000000000006,37.109,27.344,0.0,0
1581348053.941,11.719,21.484,35.645,28.32,0.0,0
1581348053.945,3.906,23.438,32.227,27.832,0.0,0
1581348053.949,-0.488,20.02,30.762,21.484,0.0,0
1581348053.9529998,11.23,24.902,35.156,24.902,0.0,0
1581348053.957,21.484,24.902,35.156,21.484,0.0,0
1581348053.974,13.672,21.484,34.18,14.648,0.0,0
1581348053.978,8.301,25.391,35.156,21.973000000000006,0.0,0
1581348053.982,20.508000000000006,27.832,34.668,26.855,0.0,0
1581348053.986,31.25,32.227,36.133,24.902,0.0,0
1581348053.99,9.766,21.973000000000006,36.621,18.066,0.0,0
1581348053.994,-1.953,10.742,35.156,16.602,0.0,0
1581348053.998,8.301,19.043,35.156,23.926,0.0,0
1581348054.0010002,4.883,26.855,33.203,30.273000000000003,0.0,0
1581348054.005,10.742,24.902,32.227,27.344,0.0,0
1581348054.0089998,13.184,17.09,30.762,12.695,0.0,0
1581348054.0129998,15.137,20.02,28.809,13.672,0.0,0
1581348054.0170002,22.461,26.855,31.25,25.391,0.0,0
1581348054.019,24.902,22.949,31.25,20.508000000000006,0.0,0
1581348054.0229998,8.789,23.926,30.273000000000003,11.719,0.0,0
1581348054.0270002,7.324,30.273000000000003,31.25,16.113,0.0,0
1581348054.031,24.902,32.227,29.785,24.902,0.0,0
1581348054.035,16.113,32.227,29.785,22.461,0.0,0
1581348054.039,15.137,33.691,30.762,19.531,0.0,0
1581348054.043,21.484,38.574,28.809,17.578,0.0,0
1581348054.046,20.02,41.01600000000001,28.32,12.207,0.0,0
1581348054.05,25.391,35.645,26.855,16.602,0.0,0
1581348054.054,21.484,22.949,29.785,11.23,0.0,0
1581348054.0579998,11.719,31.738000000000003,32.227,8.301,0.0,0
1581348054.062,19.531,38.574,32.227,27.344,0.0,0
1581348054.065,17.578,31.738000000000003,31.738000000000003,33.691,0.0,0
1581348054.069,9.277,30.762,30.762,37.109,0.0,0
1581348054.073,1.953,27.832,37.109,39.062,0.0,0
1581348054.077,-2.441,21.973000000000006,37.109,30.762,0.0,0
1581348054.081,15.137,21.973000000000006,33.203,24.414,0.0,0
1581348054.085,18.555,19.043,34.668,19.531,0.0,0
1581348054.089,0.488,14.16,35.156,25.879,0.0,0
1581348054.092,-1.953,20.02,33.203,23.438,0.0,0
1581348054.096,3.906,20.996,32.715,12.695,0.0,0
1581348054.1,3.418,16.602,30.762,4.395,0.0,0
1581348054.104,5.371,20.02,29.785,5.371,0.0,0
1581348054.1079998,2.441,24.414,29.785,14.648,0.0,0
1581348054.11,-2.441,25.391,27.832,15.625,0.0,0
1581348054.1139998,6.348,26.855,28.32,19.043,0.0,0
1581348054.1179998,9.766,26.367,29.297,12.695,0.0,0
1581348054.1220002,-8.301,19.531,33.203,6.348,0.0,0
1581348054.1260002,-7.324,14.16,33.203,15.137,0.0,0
1581348054.13,0.488,15.137,33.691,20.508000000000006,0.0,0
1581348054.1339998,3.418,17.09,34.668,14.16,0.0,0
1581348054.137,-7.324,9.766,30.273000000000003,1.465,0.0,0
1581348054.141,-1.953,11.23,28.32,4.395,0.0,0
1581348054.145,10.254,20.996,29.297,19.531,0.0,0
1581348054.149,12.695,15.137,30.273000000000003,14.16,0.0,0
1581348054.153,14.648,14.648,30.762,12.207,0.0,0
1581348054.155,13.184,15.137,31.738000000000003,17.09,0.0,0
1581348054.159,17.09,13.184,33.691,12.207,0.0,0
1581348054.163,9.277,16.602,34.18,9.277,0.0,0
1581348054.167,-3.418,18.555,31.738000000000003,8.789,0.0,0
1581348054.171,11.719,18.555,31.25,16.602,0.0,0
1581348054.175,13.184,19.043,35.156,24.902,0.0,0
1581348054.179,7.324,25.879,34.668,25.879,0.0,0
1581348054.1820002,19.043,20.508000000000006,33.203,29.297,0.0,0
1581348054.186,16.602,13.672,33.203,24.414,0.0,0
1581348054.19,14.16,18.066,31.25,20.02,0.0,0
1581348054.194,19.531,18.555,31.25,15.137,0.0,0
1581348054.198,22.949,22.461,31.25,14.16,0.0,0
1581348054.2,17.578,25.879,32.227,21.973000000000006,0.0,0
1581348054.204,20.508000000000006,18.066,31.25,20.508000000000006,0.0,0
1581348054.208,31.25,14.648,32.227,19.043,0.0,0
1581348054.212,23.438,17.578,33.203,16.113,0.0,0
1581348054.216,12.695,18.066,29.297,12.207,0.0,0
1581348054.22,13.672,16.602,30.273000000000003,21.484,0.0,0
1581348054.224,27.344,14.16,31.738000000000003,24.902,0.0,0
1581348054.2270002,20.996,15.625,30.273000000000003,22.949,0.0,0
1581348054.231,15.625,23.926,30.762,18.555,0.0,0
1581348054.235,15.625,21.973000000000006,32.227,19.043,0.0,0
1581348054.2389998,13.672,20.996,33.691,27.832,0.0,0
1581348054.2429998,29.785,28.32,34.668,22.949,0.0,0
1581348054.245,30.762,30.273000000000003,32.227,23.438,0.0,0
1581348054.2489998,16.602,25.879,29.297,22.461,0.0,0
1581348054.2529998,27.344,22.949,31.25,17.09,0.0,0
1581348054.2570002,36.133,24.902,34.18,21.973000000000006,0.0,0
1581348054.2610002,28.32,24.414,33.691,20.996,0.0,0
1581348054.265,24.414,20.996,32.227,20.02,0.0,0
1581348054.269,19.531,14.648,34.668,14.648,0.0,0
1581348054.272,10.742,16.113,36.133,8.789,0.0,0
1581348054.276,21.484,26.367,32.227,13.672,0.0,0
1581348054.28,25.391,23.926,31.25,13.672,0.0,0
1581348054.284,19.531,22.949,32.715,11.719,0.0,0
1581348054.288,25.391,22.461,32.715,3.906,0.0,0
1581348054.29,24.902,20.508000000000006,31.25,4.395,0.0,0
1581348054.294,14.16,26.367,29.785,11.719,0.0,0
1581348054.298,8.789,26.367,32.715,11.23,0.0,0
1581348054.302,21.484,22.949,34.18,15.137,0.0,0
1581348054.306,23.926,21.484,32.227,11.23,0.0,0
1581348054.31,20.996,18.066,30.273000000000003,13.672,0.0,0
1581348054.314,18.066,15.625,29.297,23.926,0.0,0
1581348054.3170002,21.484,20.508000000000006,29.297,23.438,0.0,0
1581348054.321,27.832,23.438,26.855,30.762,0.0,0
1581348054.325,20.02,19.043,26.367,24.414,0.0,0
1581348054.329,30.762,17.09,26.367,15.137,0.0,0
1581348054.333,27.832,15.625,28.32,22.461,0.0,0
1581348054.35,22.949,16.113,29.785,23.926,0.0,0
1581348054.354,23.438,15.137,25.879,18.066,0.0,0
1581348054.3579998,7.324,12.695,25.879,12.695,0.0,0
1581348054.3620002,19.531,19.043,26.367,20.508000000000006,0.0,0
1581348054.3660002,27.832,16.602,24.902,15.625,0.0,0
1581348054.37,21.973000000000006,14.648,26.855,12.207,0.0,0
1581348054.3739998,19.043,18.555,26.367,21.484,0.0,0
1581348054.377,10.742,20.02,27.344,16.602,0.0,0
1581348054.381,13.672,19.043,30.273000000000003,16.602,0.0,0
1581348054.385,17.578,14.16,30.273000000000003,24.414,0.0,0
1581348054.389,18.555,13.672,30.762,23.438,0.0,0
1581348054.393,18.066,19.043,32.227,23.926,0.0,0
1581348054.395,20.02,20.508000000000006,32.715,21.484,0.0,0
1581348054.399,29.297,15.625,30.762,23.438,0.0,0
1581348054.403,16.113,18.555,33.203,14.16,0.0,0
1581348054.407,5.371,18.066,32.715,9.277,0.0,0
1581348054.411,11.719,8.789,33.691,20.996,0.0,0
1581348054.415,10.254,6.348,32.715,19.531,0.0,0
1581348054.419,16.113,10.254,31.738000000000003,19.043,0.0,0
1581348054.4220002,14.16,13.672,35.645,26.367,0.0,0
1581348054.426,20.508000000000006,4.395,35.645,32.715,0.0,0
1581348054.43,20.996,0.488,33.203,30.273000000000003,0.0,0
1581348054.434,14.648,11.719,30.762,22.461,0.0,0
1581348054.438,16.113,16.113,31.25,20.508000000000006,0.0,0
1581348054.44,0.977,13.672,33.203,19.043,0.0,0
1581348054.444,0.488,12.207,33.203,24.902,0.0,0
1581348054.448,9.766,11.23,35.645,30.762,0.0,0
1581348054.452,10.742,6.836,36.621,27.832,0.0,0
1581348054.456,8.301,9.277,35.645,26.367,0.0,0
1581348054.46,4.883,13.184,36.133,25.879,0.0,0
1581348054.464,19.043,10.254,38.574,34.18,0.0,0
1581348054.467,29.785,11.719,38.086,32.715,0.0,0
1581348054.471,23.926,7.812,36.621,21.484,0.0,0
1581348054.475,22.461,9.277,37.598,24.414,0.0,0
1581348054.479,28.809,17.09,36.133,27.344,0.0,0
1581348054.4829998,26.367,7.324,33.203,26.855,0.0,0
1581348054.485,18.555,-1.465,33.203,25.391,0.0,0
1581348054.4889998,27.344,0.0,37.109,27.344,0.0,0
1581348054.4929998,28.809,7.324,37.598,32.715,0.0,0
1581348054.4970002,26.367,11.23,34.18,30.762,0.0,0
1581348054.5010002,25.391,8.301,33.203,27.832,0.0,0
1581348054.505,24.902,10.742,36.133,38.086,0.0,0
1581348054.5089998,26.367,16.113,35.645,46.875,0.0,0
1581348054.512,30.762,12.695,31.738000000000003,36.621,0.0,0
1581348054.516,32.715,14.648,30.762,18.066,0.0,0
1581348054.52,19.531,23.438,30.762,15.137,0.0,0
1581348054.524,15.625,21.973000000000006,32.715,24.414,0.0,0
1581348054.528,24.414,22.461,32.715,26.367,0.0,0
1581348054.53,24.902,24.902,32.227,18.066,0.0,0
1581348054.534,14.16,23.926,34.668,14.16,0.0,0
1581348054.538,7.324,15.137,35.156,16.602,0.0,0
1581348054.542,20.508000000000006,9.277,34.18,20.996,0.0,0
1581348054.546,30.273000000000003,14.648,32.715,20.996,0.0,0
1581348054.55,18.555,18.555,32.227,18.555,0.0,0
1581348054.554,18.555,18.555,34.18,27.832,0.0,0
1581348054.5570002,30.762,12.695,36.621,36.621,0.0,0
1581348054.561,29.297,17.09,34.18,28.32,0.0,0
1581348054.565,26.855,22.949,32.715,14.16,0.0,0
1581348054.569,16.113,19.531,33.203,11.719,0.0,0
1581348054.573,10.254,17.09,33.203,19.531,0.0,0
1581348054.575,22.461,17.578,33.691,22.949,0.0,0
1581348054.579,29.297,20.02,34.18,26.367,0.0,0
1581348054.583,24.414,17.09,36.133,25.391,0.0,0
1581348054.587,19.043,17.578,37.109,27.832,0.0,0
1581348054.591,21.484,21.484,33.691,35.645,0.0,0
1581348054.595,15.625,20.02,32.227,32.715,0.0,0
1581348054.599,12.207,18.555,34.18,25.391,0.0,0
1581348054.6020002,10.742,19.043,33.691,17.09,0.0,0
1581348054.606,10.742,25.391,32.715,18.066,0.0,0
1581348054.61,19.531,28.809,31.738000000000003,21.484,0.0,0
1581348054.6139998,20.996,27.832,33.691,16.602,0.0,0
1581348054.6179998,10.254,21.973000000000006,31.25,20.02,0.0,0
1581348054.62,11.23,18.555,29.785,25.391,0.0,0
1581348054.6239998,16.113,23.438,31.738000000000003,24.414,0.0,0
1581348054.6279998,14.648,31.25,29.785,17.09,0.0,0
1581348054.6320002,8.301,25.879,30.273000000000003,20.508000000000006,0.0,0
1581348054.6360002,7.812,24.414,30.762,16.113,0.0,0
1581348054.64,12.207,27.344,30.762,5.371,0.0,0
1581348054.644,9.766,23.438,29.785,2.93,0.0,0
1581348054.647,5.859,26.367,28.32,3.418,0.0,0
1581348054.651,13.184,30.762,28.809,12.695,0.0,0
1581348054.655,19.043,25.391,24.902,19.043,0.0,0
1581348054.659,17.09,20.02,25.879,13.184,0.0,0
1581348054.663,15.625,18.066,25.391,10.254,0.0,0
1581348054.665,9.766,17.09,25.879,17.578,0.0,0
1581348054.669,13.184,15.137,32.227,26.367,0.0,0
1581348054.673,20.02,16.113,30.273000000000003,29.297,0.0,0
1581348054.677,13.672,15.625,27.344,13.184,0.0,0
1581348054.681,13.184,19.531,27.832,12.207,0.0,0
1581348054.685,19.043,14.648,26.367,12.207,0.0,0
1581348054.689,20.996,9.766,21.973000000000006,8.301,0.0,0
1581348054.6920002,20.02,21.973000000000006,22.949,16.602,0.0,0
1581348054.696,15.625,19.531,27.344,17.578,0.0,0
1581348054.7,17.09,12.207,25.879,17.09,0.0,0
1581348054.704,19.531,11.23,25.879,15.625,0.0,0
1581348054.708,17.09,13.184,28.809,16.113,0.0,0
1581348054.725,7.324,16.602,28.32,11.719,0.0,0
1581348054.729,5.859,14.16,26.367,9.766,0.0,0
1581348054.7329998,17.578,18.555,27.344,15.625,0.0,0
1581348054.7370002,14.16,24.902,27.344,7.812,0.0,0
1581348054.7410002,3.906,20.996,26.367,2.93,0.0,0
1581348054.745,7.324,16.602,24.902,0.488,0.0,0
1581348054.7489998,16.602,20.508000000000006,26.855,6.348,0.0,0
1581348054.752,23.438,26.855,30.762,20.02,0.0,0
1581348054.756,14.648,25.879,31.738000000000003,21.973000000000006,0.0,0
1581348054.76,9.766,22.949,30.273000000000003,25.879,0.0,0
1581348054.764,15.137,26.367,29.785,22.461,0.0,0
1581348054.768,22.949,27.832,32.715,13.184,0.0,0
1581348054.77,14.16,20.02,29.785,19.043,0.0,0
1581348054.774,6.348,16.602,26.367,20.02,0.0,0
1581348054.778,17.578,25.391,30.762,20.996,0.0,0
1581348054.782,23.438,26.855,34.18,22.461,0.0,0
1581348054.786,18.066,19.531,32.715,17.578,0.0,0
1581348054.79,12.695,15.137,34.18,23.926,0.0,0
1581348054.794,8.301,23.438,34.18,21.973000000000006,0.0,0
1581348054.7970002,8.789,29.785,32.227,27.344,0.0,0
1581348054.801,22.461,23.438,31.25,16.113,0.0,0
1581348054.805,26.855,23.438,31.25,-2.93,0.0,0
1581348054.809,21.973000000000006,31.738000000000003,29.785,8.301,0.0,0
1581348054.813,23.926,27.344,28.809,9.277,0.0,0
1581348054.814,30.762,20.02,29.785,1.465,0.0,0
1581348054.8179998,27.832,23.438,31.25,-0.977,0.0,0
1581348054.822,25.879,25.391,33.203,3.418,0.0,0
1581348054.826,26.367,23.438,32.715,24.902,0.0,0
1581348054.83,27.344,16.113,32.715,28.32,0.0,0
1581348054.834,32.227,15.137,34.18,31.25,0.0,0
1581348054.8379998,12.207,21.973000000000006,32.227,35.156,0.0,0
1581348054.841,5.859,22.949,34.18,32.227,0.0,0
1581348054.845,12.695,10.254,36.133,40.039,0.0,0
1581348054.849,10.742,11.23,33.203,30.762,0.0,0
1581348054.853,7.324,23.438,30.273000000000003,18.555,0.0,0
1581348054.857,4.395,14.16,29.785,16.602,0.0,0
1581348054.859,12.207,3.906,26.855,14.16,0.0,0
1581348054.863,19.531,6.348,24.902,16.602,0.0,0
1581348054.867,15.137,9.766,26.855,12.695,0.0,0
1581348054.871,9.277,0.488,31.25,19.043,0.0,0
1581348054.875,2.93,2.441,31.25,17.578,0.0,0
1581348054.879,3.906,13.184,28.32,9.766,0.0,0
1581348054.883,3.906,16.113,31.25,24.414,0.0,0
1581348054.8860002,5.859,9.766,32.715,25.879,0.0,0
1581348054.89,8.789,1.465,29.297,25.879,0.0,0
1581348054.894,18.066,7.812,29.297,27.344,0.0,0
1581348054.8979998,26.367,8.789,31.25,21.484,0.0,0
1581348054.9020002,23.926,3.906,29.785,20.508000000000006,0.0,0
1581348054.904,22.461,5.371,27.832,20.996,0.0,0
1581348054.908,25.391,13.184,28.809,18.066,0.0,0
1581348054.9120002,20.508000000000006,14.16,27.832,11.719,0.0,0
1581348054.916,14.16,7.324,25.391,8.301,0.0,0
1581348054.92,4.395,12.695,24.902,12.695,0.0,0
1581348054.924,7.324,15.625,27.832,13.184,0.0,0
1581348054.928,8.789,14.648,29.785,16.113,0.0,0
1581348054.931,6.348,15.137,29.785,11.23,0.0,0
1581348054.935,14.648,19.531,32.715,12.695,0.0,0
1581348054.939,24.414,20.508000000000006,35.156,25.879,0.0,0
1581348054.9429998,24.414,10.742,34.668,20.508000000000006,0.0,0
1581348054.947,23.926,13.672,32.227,20.02,0.0,0
1581348054.949,14.16,16.602,31.738000000000003,10.254,0.0,0
1581348054.9529998,2.441,20.508000000000006,32.227,6.348,0.0,0
1581348054.957,16.602,22.461,31.738000000000003,23.438,0.0,0
1581348054.961,17.578,20.02,31.25,20.508000000000006,0.0,0
1581348054.965,12.207,17.578,29.297,18.066,0.0,0
1581348054.969,14.16,14.16,30.273000000000003,25.391,0.0,1
1581348054.9729998,15.625,18.555,34.18,32.715,0.0,0
1581348054.976,13.672,21.484,31.738000000000003,29.297,0.0,0
1581348054.98,14.648,24.902,26.855,16.602,0.0,0
1581348054.984,16.602,22.949,25.879,21.484,0.0,0
1581348054.988,23.438,12.695,27.344,27.344,0.0,0
1581348054.992,22.461,6.348,28.809,27.832,0.0,0
1581348054.994,18.066,13.672,30.273000000000003,33.691,0.0,0
1581348054.998,22.949,15.625,30.762,36.621,0.0,0
1581348055.002,22.461,11.23,31.25,38.086,0.0,0
1581348055.006,19.531,10.742,29.785,19.531,0.0,0
1581348055.01,29.297,18.066,31.738000000000003,19.531,0.0,0
1581348055.014,29.297,22.461,32.227,32.715,0.0,0
1581348055.018,20.02,16.602,30.762,32.715,0.0,0
1581348055.021,27.832,16.602,33.203,31.738000000000003,0.0,0
1581348055.025,43.457,22.949,34.18,23.438,0.0,0
1581348055.029,28.32,24.414,36.133,23.926,0.0,0
1581348055.033,16.602,24.414,37.109,23.438,0.0,0
1581348055.0370002,17.09,26.367,37.598,27.344,0.0,0
1581348055.039,13.184,28.809,38.574,24.414,0.0,0
1581348055.043,21.484,21.484,35.645,7.812,0.0,0
1581348055.0470002,12.695,21.973000000000006,33.691,12.695,0.0,0
1581348055.051,11.23,29.297,34.18,23.438,0.0,0
1581348055.055,21.484,26.855,33.203,22.949,0.0,0
1581348055.059,14.648,16.602,35.645,25.391,0.0,0
1581348055.063,4.395,10.254,35.156,19.531,0.0,0
1581348055.066,12.695,19.531,32.227,22.461,0.0,0
1581348055.07,23.438,21.973000000000006,34.18,24.414,0.0,0
1581348055.074,20.996,14.16,33.203,15.137,0.0,0
1581348055.0779998,10.742,13.672,33.691,15.625,0.0,0
1581348055.082,0.0,19.531,31.738000000000003,15.137,0.0,0
1581348055.099,10.254,20.02,32.227,16.113,0.0,0
1581348055.103,15.137,21.973000000000006,35.156,14.648,0.0,0
1581348055.107,7.324,26.855,33.691,13.672,0.0,0
1581348055.111,3.906,27.344,33.203,19.531,0.0,0
1581348055.115,12.207,23.926,33.203,19.531,0.0,0
1581348055.119,18.066,15.137,32.715,20.508000000000006,0.0,0
1581348055.123,14.648,19.043,31.738000000000003,18.555,0.0,0
1581348055.1260002,11.23,28.809,29.785,17.09,0.0,0
1581348055.13,13.184,25.391,31.25,21.973000000000006,0.0,0
1581348055.1339998,17.09,18.066,30.762,20.996,0.0,0
1581348055.1379998,3.418,18.066,27.344,21.973000000000006,0.0,0
1581348055.1420002,2.441,23.438,28.809,26.855,0.0,0
1581348055.144,14.648,21.484,28.809,32.715,0.0,0
1581348055.1479998,15.625,20.508000000000006,31.25,22.461,0.0,0
1581348055.1520002,15.625,15.625,30.273000000000003,8.789,0.0,0
1581348055.156,3.906,5.371,29.297,9.766,0.0,0
1581348055.16,-9.766,-4.883,16.602,3.418,0.0,0
1581348055.164,-9.766,-13.184,1.465,-3.906,0.0,0
1581348055.168,-21.484,-12.695,2.441,-5.859,0.0,0
1581348055.171,-33.691,-10.742,3.906,-6.836,0.0,0
1581348055.175,-30.273000000000003,-11.719,6.348,-2.441,0.0,0
1581348055.179,-23.438,-13.184,11.23,-3.418,0.0,0
1581348055.1829998,-10.254,-1.465,11.23,-2.93,0.0,0
1581348055.187,-10.742,-1.953,10.254,-2.441,0.0,0
1581348055.19,-14.648,-9.766,13.184,-7.812,0.0,0
1581348055.194,-2.93,-2.441,12.695,0.977,0.0,0
1581348055.198,2.441,5.859,10.742,8.789,0.0,0
1581348055.202,-4.395,7.324,14.648,12.695,0.0,0
1581348055.206,-1.953,3.418,16.113,20.02,0.0,0
1581348055.21,4.883,-3.418,16.602,27.832,0.0,0
1581348055.214,3.418,-1.953,18.066,30.273000000000003,0.0,0
1581348055.217,10.742,2.93,16.602,27.832,0.0,0
1581348055.221,12.207,0.0,17.09,20.02,0.0,0
1581348055.225,8.301,5.371,19.531,12.207,0.0,0
1581348055.229,5.859,16.113,20.996,16.113,0.0,0
1581348055.2329998,6.836,11.719,21.484,21.484,0.0,0
1581348055.235,7.324,10.254,22.461,24.414,0.0,0
1581348055.2389998,5.859,10.742,22.949,24.902,0.0,0
1581348055.2429998,12.695,12.207,25.391,28.809,0.0,0
1581348055.2470002,28.809,13.672,26.855,22.949,0.0,0
1581348055.2510002,30.762,15.137,25.391,13.672,0.0,0
1581348055.255,6.348,19.531,25.879,11.23,0.0,0
1581348055.2589998,-4.883,19.531,26.367,13.184,0.0,0
1581348055.262,3.418,20.508000000000006,28.32,19.043,0.0,0
1581348055.266,11.23,21.973000000000006,28.32,18.555,0.0,0
1581348055.27,9.766,26.367,25.391,19.043,0.0,0
1581348055.274,0.0,25.879,22.949,21.484,0.0,0
1581348055.278,11.23,26.855,22.949,27.832,0.0,0
1581348055.28,21.484,29.297,23.926,27.344,0.0,0
1581348055.284,20.02,27.832,21.973000000000006,21.973000000000006,0.0,0
1581348055.288,8.301,29.297,27.344,25.879,0.0,0
1581348055.292,8.789,34.668,38.086,33.691,0.0,0
1581348055.296,32.715,42.48,47.363,44.922,0.0,0
1581348055.3,45.898,42.48,54.688,48.34,0.0,0
1581348055.304,37.109,48.828,51.758,39.551,0.0,0
1581348055.3070002,35.156,46.387,49.316,42.969,0.0,0
1581348055.311,44.434,43.945,50.78100000000001,37.598,0.0,0
1581348055.315,36.133,52.734,50.78100000000001,32.715,0.0,0
1581348055.319,26.855,44.434,55.176,39.062,0.0,0
1581348055.323,31.738000000000003,36.621,57.129,42.48,0.0,0
1581348055.325,42.48,34.668,55.664,42.48,0.0,0
1581348055.329,41.992,38.086,54.199,35.156,0.0,0
1581348055.333,42.48,39.062,53.223,31.738000000000003,0.0,0
1581348055.337,30.273000000000003,36.621,52.734,35.645,0.0,0
1581348055.341,35.156,41.504,52.246,33.691,0.0,0
1581348055.345,44.434,36.621,47.852,26.367,0.0,0
1581348055.349,25.391,35.156,46.387,25.879,0.0,0
1581348055.3520002,20.508000000000006,40.039,45.898,26.367,0.0,0
1581348055.356,28.809,41.504,41.504,29.785,0.0,0
1581348055.36,37.598,35.156,42.969,30.762,0.0,0
1581348055.3639998,40.527,24.414,44.922,29.297,0.0,0
1581348055.3679998,32.715,24.902,42.48,20.508000000000006,0.0,0
1581348055.37,31.25,29.297,39.551,20.996,0.0,0
1581348055.3739998,42.969,26.855,38.086,20.996,0.0,0
1581348055.3779998,38.574,25.391,38.574,11.719,0.0,0
1581348055.3820002,28.32,28.809,38.086,17.578,0.0,0
1581348055.3860002,34.18,31.25,37.598,13.672,0.0,0
1581348055.39,42.48,26.855,37.598,9.766,0.0,0
1581348055.394,34.18,19.043,37.598,7.324,0.0,0
1581348055.397,30.273000000000003,24.414,38.086,5.371,0.0,0
1581348055.401,36.133,30.762,39.062,19.043,0.0,0
1581348055.405,33.203,26.855,40.039,25.879,0.0,0
1581348055.409,33.691,22.949,40.527,23.926,0.0,0
1581348055.413,42.48,25.391,37.598,18.066,0.0,0
1581348055.415,36.621,23.438,36.133,19.043,0.0,0
1581348055.419,24.902,17.578,40.039,30.273000000000003,0.0,0
1581348055.423,27.344,20.996,39.551,29.785,0.0,0
1581348055.427,21.973000000000006,28.32,38.574,23.926,0.0,0
1581348055.431,14.648,25.879,41.01600000000001,14.16,0.0,0
1581348055.435,24.902,23.438,44.922,15.625,0.0,0
1581348055.439,43.457,24.414,44.434,26.855,0.0,0
1581348055.4420002,30.273000000000003,27.832,41.01600000000001,21.484,0.0,0
1581348055.446,16.602,32.715,44.434,29.297,0.0,0
1581348055.45,31.25,28.809,45.41,33.691,0.0,0
1581348055.454,38.574,28.32,43.457,38.574,0.0,0
1581348055.458,31.738000000000003,35.645,43.457,45.898,0.0,0
1581348055.475,28.809,34.18,44.922,33.203,0.0,0
1581348055.479,25.879,30.273000000000003,43.945,33.691,0.0,0
1581348055.4829998,23.438,31.738000000000003,41.992,32.715,0.0,0
1581348055.4870002,26.855,32.715,40.527,25.879,0.0,0
1581348055.4910002,29.297,26.855,39.062,34.18,0.0,0
1581348055.495,25.391,17.578,37.109,29.297,0.0,0
1581348055.4989998,19.043,22.949,34.668,30.273000000000003,0.0,0
1581348055.502,23.438,28.32,33.691,33.691,0.0,0
1581348055.506,23.926,22.949,35.645,23.926,0.0,0
1581348055.51,12.695,19.531,37.109,24.902,0.0,0
1581348055.514,20.996,23.926,34.668,34.18,0.0,0
1581348055.518,23.926,31.738000000000003,33.691,42.48,0.0,0
1581348055.52,24.414,28.32,37.598,36.621,0.0,0
1581348055.524,19.043,28.809,36.133,29.297,0.0,0
1581348055.528,16.602,36.621,32.227,35.645,0.0,0
1581348055.532,24.414,26.367,34.18,26.855,0.0,0
1581348055.536,18.555,25.391,35.156,27.832,0.0,0
1581348055.54,21.484,32.227,33.203,28.32,0.0,0
1581348055.544,23.438,33.691,34.18,24.902,0.0,0
1581348055.5470002,14.648,31.738000000000003,34.668,38.574,0.0,0
1581348055.551,18.066,27.344,34.668,35.156,0.0,0
1581348055.555,18.066,23.926,39.062,29.785,0.0,0
1581348055.559,18.066,21.484,38.086,22.949,0.0,0
1581348055.563,15.625,16.602,33.691,19.043,0.0,0
1581348055.565,9.766,19.043,35.645,26.855,0.0,0
1581348055.569,4.395,26.367,38.574,31.25,0.0,0
1581348055.573,13.672,26.367,38.574,33.203,0.0,0
1581348055.577,26.367,28.809,36.133,16.113,0.0,0
1581348055.581,22.949,28.809,33.203,16.602,0.0,0
1581348055.585,28.809,24.902,31.738000000000003,29.785,0.0,0
1581348055.589,38.086,27.344,31.25,26.855,0.0,0
1581348055.592,42.969,28.32,29.785,20.02,0.0,0
1581348055.596,40.527,21.484,30.762,14.16,0.0,0
1581348055.6,26.367,24.902,31.738000000000003,15.137,0.0,0
1581348055.604,26.855,34.18,28.809,19.043,0.0,0
1581348055.6079998,20.996,31.25,32.227,16.602,0.0,0
1581348055.61,10.742,24.902,35.156,20.996,0.0,0
1581348055.6139998,14.16,20.02,31.738000000000003,18.555,0.0,0
1581348055.6179998,12.207,18.555,32.715,19.043,0.0,0
1581348055.6220002,-0.977,16.602,34.668,26.367,0.0,0
1581348055.6260002,-4.395,15.625,32.227,22.461,0.0,0
1581348055.63,7.324,18.555,26.367,24.414,0.0,0
1581348055.6339998,11.23,23.438,25.879,19.531,0.0,0
1581348055.637,5.859,18.066,32.227,11.719,0.0,0
1581348055.641,1.953,15.137,35.645,19.531,0.0,0
1581348055.645,15.625,25.391,34.668,29.785,0.0,0
1581348055.649,26.367,28.32,35.645,33.691,0.0,0
1581348055.653,13.672,21.973000000000006,36.133,27.832,0.0,0
1581348055.655,0.977,15.625,32.715,29.785,0.0,0
1581348055.659,12.207,20.508000000000006,29.785,39.551,0.0,0
1581348055.663,17.09,23.926,29.297,26.367,0.0,0
1581348055.667,8.789,25.391,28.809,10.742,0.0,0
1581348055.671,6.836,28.809,29.297,6.836,0.0,0
1581348055.675,11.719,24.414,29.785,7.812,0.0,0
1581348055.679,28.32,22.949,31.25,8.789,0.0,0
1581348055.6820002,22.949,17.578,31.738000000000003,0.0,0.0,0
1581348055.686,5.371,19.531,30.273000000000003,2.93,0.0,0
1581348055.69,14.648,30.273000000000003,34.18,11.23,0.0,0
1581348055.694,23.926,29.785,35.645,15.625,0.0,0
1581348055.698,24.414,27.344,34.18,18.555,0.0,0
1581348055.7,23.438,21.973000000000006,34.18,17.09,0.0,0
1581348055.704,24.414,21.484,32.227,23.926,0.0,0
1581348055.708,24.414,23.926,29.297,10.742,0.0,0
1581348055.712,19.043,22.461,29.785,5.859,0.0,0
1581348055.716,17.578,26.367,26.855,9.766,0.0,0
1581348055.72,15.625,29.297,26.367,10.254,0.0,0
1581348055.724,14.648,29.785,30.762,17.09,0.0,0
1581348055.7270002,18.066,21.484,33.691,13.672,0.0,0
1581348055.731,22.461,23.926,33.203,7.812,0.0,0
1581348055.735,24.414,24.414,33.203,5.859,0.0,0
1581348055.7389998,29.785,17.578,29.297,11.719,0.0,0
1581348055.7429998,21.973000000000006,19.531,28.32,12.695,0.0,0
1581348055.745,23.926,26.855,30.762,6.348,0.0,0
1581348055.7489998,21.484,24.902,31.25,22.949,0.0,0
1581348055.7529998,17.578,15.625,32.227,30.762,0.0,0
1581348055.7570002,37.598,16.113,33.691,18.066,0.0,0
1581348055.7610002,26.367,19.531,32.715,16.602,0.0,0
1581348055.765,5.859,18.555,33.691,15.625,0.0,0
1581348055.769,8.789,13.184,32.715,23.438,0.0,0
1581348055.772,11.719,19.531,31.738000000000003,27.832,0.0,0
1581348055.776,18.066,31.738000000000003,29.297,28.32,0.0,0
1581348055.78,17.578,24.902,27.344,22.461,0.0,0
1581348055.784,13.672,14.16,26.855,15.137,0.0,0
1581348055.788,20.508000000000006,11.719,28.32,26.367,0.0,0
1581348055.79,23.926,20.02,30.762,30.273000000000003,0.0,0
1581348055.794,18.066,20.508000000000006,32.227,20.508000000000006,0.0,0
1581348055.798,18.555,12.695,33.203,15.137,0.0,0
1581348055.802,28.32,14.16,29.785,11.23,0.0,0
1581348055.806,30.762,17.578,27.832,15.137,0.0,0
1581348055.81,21.973000000000006,11.23,29.785,14.648,0.0,0
1581348055.814,19.043,11.719,30.762,9.277,0.0,0
1581348055.8170002,22.949,24.902,32.227,14.648,0.0,0
1581348055.821,25.391,28.32,31.738000000000003,18.066,0.0,0
1581348055.825,19.043,20.02,30.762,16.113,0.0,0
1581348055.829,12.695,20.508000000000006,32.227,18.555,0.0,0
1581348055.833,13.672,26.855,31.738000000000003,17.09,0.0,0
1581348055.85,16.602,27.344,31.25,17.09,0.0,0
1581348055.854,23.438,25.391,30.273000000000003,16.113,0.0,0
1581348055.8579998,16.113,23.926,31.738000000000003,18.555,0.0,0
1581348055.8620002,6.836,29.297,28.809,20.508000000000006,0.0,0
1581348055.8660002,10.742,28.809,27.344,6.836,0.0,0
1581348055.87,12.695,21.484,28.32,11.23,0.0,0
1581348055.8739998,4.883,20.02,27.344,9.766,0.0,0
1581348055.877,-0.488,20.508000000000006,28.32,4.395,0.0,0
1581348055.881,9.766,20.508000000000006,28.809,12.695,0.0,0
1581348055.885,16.113,24.414,29.297,10.254,0.0,0
1581348055.889,13.672,24.414,29.297,2.441,0.0,0
1581348055.893,8.789,21.484,28.809,3.418,0.0,0
1581348055.895,-2.441,20.508000000000006,27.832,12.207,0.0,0
1581348055.899,2.441,25.879,27.344,15.625,0.0,0
1581348055.903,12.207,35.645,28.809,17.578,0.0,0
1581348055.907,9.766,35.156,31.25,13.184,0.0,0
1581348055.911,5.859,26.855,33.691,8.789,0.0,0
1581348055.915,5.371,23.926,33.691,9.766,0.0,0
1581348055.919,8.301,22.461,31.738000000000003,8.789,0.0,0
1581348055.9220002,6.348,23.926,33.691,14.16,0.0,0
1581348055.926,1.953,19.531,32.227,15.625,0.0,0
1581348055.93,9.277,13.672,31.25,11.23,0.0,0
1581348055.934,21.484,25.879,33.203,17.578,0.0,0
1581348055.938,20.02,28.32,31.25,20.996,0.0,0
1581348055.939,3.906,23.926,28.32,18.555,0.0,0
1581348055.9429998,2.441,21.973000000000006,28.809,16.602,0.0,0
1581348055.947,13.184,16.602,27.344,7.812,0.0,0
1581348055.951,13.672,14.16,27.832,7.812,0.0,0
1581348055.955,9.277,13.672,32.715,15.625,0.0,0
1581348055.959,5.371,12.695,33.691,19.043,0.0,0
1581348055.9629998,8.789,12.695,31.25,20.02,0.0,0
1581348055.966,19.531,11.719,31.738000000000003,14.648,0.0,0
1581348055.97,13.672,9.277,34.18,11.719,0.0,0
1581348055.974,0.0,18.555,37.598,8.789,0.0,0
1581348055.978,4.395,29.785,37.598,9.277,0.0,0
1581348055.982,8.789,24.414,37.598,15.137,0.0,0
1581348055.984,11.719,17.09,36.621,13.184,0.0,0
1581348055.988,14.16,22.461,34.668,12.695,0.0,0
1581348055.992,29.785,27.344,35.645,25.879,0.0,0
1581348055.996,24.902,21.973000000000006,32.227,29.785,0.0,0
1581348056.0,14.648,18.555,32.715,32.227,0.0,0
1581348056.004,22.949,14.648,36.133,29.785,0.0,0
1581348056.008,17.09,16.602,34.18,26.367,0.0,0
1581348056.0110002,24.902,22.949,33.691,31.25,0.0,0
1581348056.015,28.32,23.438,33.691,27.344,0.0,0
1581348056.019,17.578,30.762,31.25,20.02,0.0,0
1581348056.0229998,18.066,27.344,32.715,20.996,0.0,0
1581348056.0270002,27.344,21.484,32.227,27.344,0.0,0
1581348056.029,25.391,28.32,31.25,23.926,0.0,0
1581348056.033,17.09,30.762,31.25,17.09,0.0,0
1581348056.0370002,12.207,27.832,29.785,17.09,0.0,0
1581348056.041,11.719,28.32,31.738000000000003,21.484,0.0,0
1581348056.045,11.719,31.25,31.738000000000003,15.137,0.0,0
1581348056.049,10.254,28.809,30.273000000000003,6.348,0.0,0
1581348056.053,8.789,30.273000000000003,30.762,12.207,0.0,0
1581348056.056,12.695,25.391,32.715,12.207,0.0,0
1581348056.06,12.695,20.508000000000006,34.668,15.137,0.0,0
1581348056.064,11.23,31.25,35.156,29.785,0.0,0
1581348056.0679998,9.766,35.645,34.668,28.809,0.0,0
1581348056.072,10.742,31.738000000000003,34.18,24.902,0.0,0
1581348056.074,17.578,29.297,33.691,25.391,0.0,0
1581348056.0779998,23.926,33.203,32.227,22.461,0.0,0
1581348056.082,19.043,36.621,27.832,22.949,0.0,0
1581348056.086,8.789,31.25,24.902,21.973000000000006,0.0,0
1581348056.09,15.625,30.273000000000003,26.855,20.508000000000006,0.0,0
1581348056.094,17.09,29.297,27.832,13.184,0.0,0
1581348056.0979998,15.137,22.949,29.785,10.742,0.0,0
1581348056.101,18.066,27.344,29.785,19.531,0.0,0
1581348056.105,18.066,34.18,30.762,22.949,0.0,0
1581348056.109,24.414,33.691,31.738000000000003,25.879,0.0,0
1581348056.113,19.043,25.879,29.297,18.555,0.0,0
1581348056.117,-0.977,18.066,26.855,12.695,0.0,0
1581348056.119,4.883,22.949,28.32,26.367,0.0,0
1581348056.123,25.391,28.809,29.297,31.738000000000003,0.0,0
1581348056.127,17.578,23.926,28.32,24.414,0.0,0
1581348056.131,0.977,22.949,26.855,11.23,0.0,0
1581348056.135,-1.953,28.32,27.832,7.324,0.0,0
1581348056.139,13.672,28.32,28.809,20.02,0.0,1
1581348056.143,19.043,25.391,30.762,23.438,0.0,0
1581348056.146,16.602,31.738000000000003,30.762,29.785,0.0,0
1581348056.15,18.555,35.645,30.273000000000003,25.391,0.0,0
1581348056.154,25.391,31.738000000000003,32.227,16.113,0.0,0
1581348056.158,23.926,29.297,30.762,19.043,0.0,0
1581348056.1620002,15.137,31.25,29.785,14.648,0.0,0
1581348056.164,16.113,30.762,27.832,19.531,0.0,0
1581348056.168,18.066,29.785,29.297,23.438,0.0,0
1581348056.1720002,24.902,39.551,26.855,21.484,0.0,0
1581348056.176,24.902,41.01600000000001,27.832,22.461,0.0,0
1581348056.18,16.602,35.156,33.691,20.508000000000006,0.0,0
1581348056.184,11.719,29.785,33.691,34.18,0.0,0
1581348056.188,20.996,26.367,33.203,28.32,0.0,0
1581348056.191,15.625,36.621,30.762,4.395,0.0,0
1581348056.195,8.301,35.645,30.273000000000003,8.301,0.0,0
1581348056.199,8.789,22.461,30.762,15.137,0.0,0
1581348056.2029998,15.137,17.578,29.785,16.602,0.0,0
1581348056.207,21.973000000000006,26.367,28.809,7.324,0.0,0
1581348056.224,17.578,35.156,24.902,4.395,0.0,0
1581348056.228,15.625,33.203,28.32,21.973000000000006,0.0,0
1581348056.232,21.973000000000006,33.691,30.762,19.043,0.0,0
1581348056.236,26.855,35.645,31.25,21.973000000000006,0.0,0
1581348056.24,30.762,33.691,32.715,19.043,0.0,0
1581348056.244,23.438,28.32,30.273000000000003,8.301,0.0,0
1581348056.248,24.902,29.297,33.203,21.484,0.0,0
1581348056.2510002,25.391,35.156,34.18,19.531,0.0,0
1581348056.255,21.484,31.25,31.25,20.508000000000006,0.0,0
1581348056.2589998,20.02,22.461,32.227,17.09,0.0,0
1581348056.2629998,13.184,26.367,32.227,17.09,0.0,0
1581348056.2670002,19.531,34.18,31.25,36.133,0.0,0
1581348056.269,27.344,41.992,30.273000000000003,27.344,0.0,0
1581348056.2729998,15.625,53.223,29.785,11.23,0.0,0
1581348056.2770002,8.789,59.082,27.832,9.277,0.0,0
1581348056.281,18.555,60.059,29.297,15.625,0.0,0
1581348056.285,21.484,56.64100000000001,28.809,15.625,0.0,0
1581348056.289,11.23,53.71100000000001,26.367,14.648,0.0,0
1581348056.293,12.695,52.734,27.832,23.926,0.0,0
1581348056.296,26.367,57.129,29.785,18.066,0.0,0
1581348056.3,22.461,59.082,31.738000000000003,18.066,0.0,0
1581348056.304,10.742,51.758,32.715,25.879,0.0,0
1581348056.3079998,12.207,60.059,31.738000000000003,20.996,0.0,0
1581348056.312,16.113,58.105,31.738000000000003,26.367,0.0,0
1581348056.314,21.484,48.34,30.762,17.578,0.0,0
1581348056.3179998,23.926,49.316,31.738000000000003,8.301,0.0,0
1581348056.322,19.043,50.293,34.18,25.391,0.0,0
1581348056.326,24.414,51.27,32.715,33.691,0.0,0
1581348056.33,30.762,42.969,28.809,29.297,0.0,0
1581348056.334,32.715,38.574,27.344,24.414,0.0,0
1581348056.3379998,28.809,46.387,26.855,21.484,0.0,0
1581348056.341,24.414,45.898,25.879,25.391,0.0,0
1581348056.345,38.086,32.227,26.855,29.785,0.0,0
1581348056.349,41.504,35.645,28.809,27.832,0.0,0
1581348056.353,29.785,47.363,31.25,20.508000000000006,0.0,0
1581348056.357,14.648,38.086,31.25,18.066,0.0,0
1581348056.359,4.883,35.645,28.809,25.879,0.0,0
1581348056.363,6.348,35.156,27.344,24.414,0.0,0
1581348056.367,4.395,35.156,26.367,23.926,0.0,0
1581348056.371,-2.441,33.691,24.414,8.301,0.0,0
1581348056.375,0.0,28.809,22.461,6.836,0.0,0
1581348056.379,5.859,28.809,23.438,16.602,0.0,0
1581348056.383,5.859,30.762,26.855,16.602,0.0,0
1581348056.3860002,-0.488,27.832,29.297,23.926,0.0,0
1581348056.39,0.488,21.973000000000006,31.25,22.461,0.0,0
1581348056.394,8.301,27.344,32.227,24.414,0.0,0
1581348056.3979998,18.555,25.391,30.273000000000003,25.391,0.0,0
1581348056.4020002,21.484,21.484,30.762,20.508000000000006,0.0,0
1581348056.404,15.625,24.902,32.715,23.926,0.0,0
1581348056.408,25.391,31.738000000000003,29.297,19.531,0.0,0
1581348056.4120002,31.738000000000003,27.832,28.32,19.531,0.0,0
1581348056.416,20.02,20.996,27.832,16.113,0.0,0
1581348056.42,6.836,21.973000000000006,26.367,12.695,0.0,0
1581348056.424,14.16,26.367,27.832,20.996,0.0,0
1581348056.428,31.25,30.762,28.32,17.578,0.0,0
1581348056.431,23.926,28.32,26.855,12.207,0.0,0
1581348056.435,10.742,29.785,25.391,6.836,0.0,0
1581348056.439,22.461,35.645,24.902,12.207,0.0,0
1581348056.4429998,30.762,37.109,23.926,17.578,0.0,0
1581348056.447,23.926,38.574,23.926,10.742,0.0,0
1581348056.449,14.16,38.574,25.391,12.207,0.0,0
1581348056.4529998,12.207,36.133,23.926,5.371,0.0,0
1581348056.457,11.719,36.133,22.461,0.0,0.0,0
1581348056.461,5.859,37.109,25.391,6.348,0.0,0
1581348056.465,9.277,35.156,31.738000000000003,1.953,0.0,0
1581348056.469,10.254,33.203,33.691,6.348,0.0,0
1581348056.4729998,13.672,26.367,30.273000000000003,15.625,0.0,0
1581348056.476,12.695,32.715,34.18,4.395,0.0,0
1581348056.48,0.977,52.246,41.01600000000001,-13.184,0.0,0
1581348056.484,-9.277,41.992,43.945,-20.508000000000006,0.0,0
1581348056.488,-15.137,34.18,36.133,-21.973000000000006,0.0,0
1581348056.492,-23.926,52.246,33.691,-30.273000000000003,0.0,0
1581348056.494,-34.668,65.918,37.598,-45.898,0.0,0
1581348056.498,-55.176,74.219,41.01600000000001,-65.43,0.0,0
1581348056.502,-68.848,84.473,42.48,-67.87100000000001,0.0,0
1581348056.506,-72.266,88.37899999999998,40.039,-67.383,0.0,0
1581348056.51,-83.984,93.75,43.457,-87.402,0.0,0
1581348056.514,-101.074,107.422,43.457,-104.004,0.0,0
1581348056.518,-114.258,121.094,41.992,-98.145,0.0,0
1581348056.521,-103.027,123.535,42.48,-101.562,0.0,0
1581348056.525,-119.629,125.977,38.086,-120.117,0.0,0
1581348056.529,-157.227,132.32399999999998,35.156,-136.719,0.0,0
1581348056.533,-152.344,137.695,38.574,-140.137,0.0,0
1581348056.5370002,-146.484,135.74200000000002,31.25,-141.113,0.0,0
1581348056.54,-157.227,136.23,22.461,-148.438,0.0,0
1581348056.544,-158.691,137.695,28.32,-144.043,0.0,0
1581348056.548,-156.738,135.74200000000002,32.715,-139.16,0.0,0
1581348056.552,-155.762,132.32399999999998,31.25,-133.789,0.0,0
1581348056.556,-143.066,126.953,33.691,-121.582,0.0,0
1581348056.56,-135.254,115.234,35.156,-119.629,0.0,0
1581348056.564,-143.066,108.887,34.668,-126.465,0.0,0
1581348056.5670002,-130.371,116.211,36.133,-116.699,0.0,0
1581348056.571,-108.398,114.258,37.109,-101.074,0.0,0
1581348056.575,-109.863,106.445,34.668,-95.703,0.0,0
1581348056.579,-107.91,102.539,31.25,-100.586,0.0,0
1581348056.583,-107.91,95.703,34.18,-95.215,0.0,0
1581348056.6,-103.516,91.797,34.668,-80.566,0.0,0
1581348056.604,-87.891,88.867,33.203,-72.75399999999998,0.0,0
1581348056.6079998,-83.984,83.008,37.109,-68.359,0.0,0
1581348056.6120002,-74.219,77.637,36.621,-64.941,0.0,0
1581348056.6160002,-53.223,74.707,35.156,-45.898,0.0,0
1581348056.62,-43.457,70.312,34.18,-27.344,0.0,0
1581348056.6239998,-37.109,62.988,32.715,-30.762,0.0,0
1581348056.627,-36.621,62.012,34.18,-30.762,0.0,0
1581348056.631,-24.414,54.688,35.645,-16.113,0.0,0
1581348056.635,-6.348,36.621,33.203,-2.93,0.0,0
1581348056.639,-19.043,32.715,31.738000000000003,-3.906,0.0,0
1581348056.643,-21.973000000000006,38.574,33.203,0.0,0.0,0
1581348056.645,-4.883,36.621,31.25,17.578,0.0,0
1581348056.649,4.883,33.203,27.344,15.625,0.0,0
1581348056.653,5.859,27.832,26.855,10.254,0.0,0
1581348056.657,9.277,22.461,25.391,14.16,0.0,0
1581348056.661,13.184,15.625,25.391,25.391,0.0,0
1581348056.665,16.113,8.789,21.973000000000006,25.879,0.0,0
1581348056.669,15.625,10.742,19.531,12.207,0.0,0
1581348056.6720002,24.902,17.09,22.949,20.508000000000006,0.0,0
1581348056.676,35.156,13.672,23.438,31.738000000000003,0.0,0
1581348056.68,40.527,7.324,20.996,42.969,0.0,0
1581348056.684,50.78100000000001,11.23,18.555,55.664,0.0,0
1581348056.688,48.828,10.254,20.02,53.223,0.0,0
1581348056.69,57.129,6.348,22.461,59.57,0.0,0
1581348056.694,63.477,8.301,22.461,76.172,0.0,0
1581348056.698,55.664,6.348,23.438,76.172,0.0,0
1581348056.702,62.5,2.93,22.949,72.266,0.0,0
1581348056.706,62.988,3.418,20.508000000000006,73.242,0.0,0
1581348056.71,58.105,4.395,22.461,72.75399999999998,0.0,0
1581348056.714,67.87100000000001,0.488,26.855,74.219,0.0,0
1581348056.717,79.59,1.465,28.809,83.49600000000002,0.0,0
1581348056.721,75.195,2.441,28.809,78.613,0.0,0
1581348056.725,78.613,0.0,27.344,71.777,0.0,0
1581348056.729,87.891,6.348,26.367,80.078,0.0,0
1581348056.7329998,82.031,0.0,25.391,88.867,0.0,0
1581348056.735,81.055,-7.324,23.438,95.703,0.0,0
1581348056.7389998,82.031,-5.371,23.438,91.797,0.0,0
1581348056.7429998,87.891,-9.277,24.902,98.633,0.0,0
1581348056.7470002,96.68,-14.16,26.367,104.004,0.0,0
1581348056.7510002,96.68,-10.742,24.902,95.215,0.0,0
1581348056.755,91.309,-7.812,25.879,94.727,0.0,0
1581348056.7589998,92.773,-1.953,25.879,95.215,0.0,0
1581348056.762,105.469,-2.93,21.973000000000006,92.773,0.0,0
1581348056.766,111.816,-9.766,22.949,98.145,0.0,0
1581348056.77,97.656,-5.371,24.414,104.492,0.0,0
1581348056.774,94.238,-7.812,24.902,114.746,0.0,0
1581348056.778,100.098,-16.602,26.855,112.305,0.0,0
1581348056.78,101.562,-14.648,26.367,96.68,0.0,0
1581348056.784,103.516,-6.348,25.879,92.285,0.0,0
1581348056.788,97.168,-8.301,25.879,104.98,0.0,0
1581348056.792,93.75,-9.766,24.902,112.305,0.0,0
1581348056.796,100.586,-10.742,25.879,101.562,0.0,0
1581348056.8,94.238,-16.113,25.879,85.449,0.0,0
1581348056.804,85.93799999999997,-15.137,26.367,81.055,0.0,0
1581348056.8070002,84.473,-17.578,27.832,80.078,0.0,0
1581348056.811,80.566,-15.137,24.902,80.078,0.0,0
1581348056.815,79.59,-7.324,24.902,72.266,0.0,0
1581348056.819,72.266,-11.23,28.32,69.336,0.0,0
1581348056.823,67.383,-15.625,30.273000000000003,79.102,0.0,0
1581348056.825,73.242,-11.719,28.32,79.59,0.0,0
1581348056.829,84.473,-8.789,28.809,78.125,0.0,0
1581348056.833,83.49600000000002,-10.742,31.25,76.172,0.0,0
1581348056.837,74.707,-5.371,30.273000000000003,76.66,0.0,0
1581348056.841,73.73,2.93,28.32,82.52,0.0,0
1581348056.845,81.543,-2.441,29.297,84.473,0.0,0
1581348056.849,87.402,-6.836,29.785,74.707,0.0,0
1581348056.8520002,82.031,-1.465,28.809,63.965,0.0,0
1581348056.856,69.824,-2.93,26.367,68.359,0.0,0
1581348056.86,67.383,-4.395,24.902,73.73,0.0,0
1581348056.8639998,82.031,-3.418,26.367,80.078,0.0,0
1581348056.8679998,71.777,-1.465,26.855,81.055,0.0,0
1581348056.87,59.57,2.441,29.297,68.848,0.0,0
1581348056.8739998,72.75399999999998,2.93,31.25,67.87100000000001,0.0,0
1581348056.8779998,69.336,-1.465,28.809,62.988,0.0,0
1581348056.8820002,57.129,1.953,25.879,54.199,0.0,0
1581348056.8860002,55.664,9.766,24.902,55.664,0.0,0
1581348056.89,49.805,8.789,25.391,44.922,0.0,0
1581348056.894,45.898,0.977,25.879,42.969,0.0,0
1581348056.897,42.969,-1.953,27.832,49.805,0.0,0
1581348056.901,40.039,7.812,28.32,41.992,0.0,0
1581348056.905,41.504,5.371,27.344,44.434,0.0,0
1581348056.909,45.41,-0.977,28.809,36.621,0.0,0
1581348056.913,50.78100000000001,3.418,31.738000000000003,27.344,0.0,0
1581348056.915,44.922,6.836,31.738000000000003,36.621,0.0,0
1581348056.919,27.832,3.418,32.715,38.086,0.0,0
1581348056.923,41.992,1.465,29.297,29.297,0.0,0
1581348056.927,50.293,9.766,27.832,18.066,0.0,0
1581348056.931,32.715,14.16,31.25,20.996,0.0,0
1581348056.935,20.996,9.766,31.738000000000003,40.039,0.0,0
1581348056.939,35.156,6.836,31.25,44.922,0.0,0
1581348056.9420002,48.828,10.254,31.25,40.527,0.0,0
1581348056.946,34.18,8.301,32.227,36.621,0.0,0
1581348056.95,21.973000000000006,0.977,30.273000000000003,36.621,0.0,0
1581348056.954,28.809,9.277,29.785,48.34,0.0,0
1581348056.958,46.875,16.602,29.785,48.34,0.0,0
1581348056.974,41.992,12.695,28.809,45.898,0.0,0
1581348056.978,27.832,9.277,28.809,31.25,0.0,0
1581348056.982,25.391,10.254,30.762,25.391,0.0,0
1581348056.986,35.645,20.02,33.691,36.621,0.0,0
1581348056.99,35.156,22.461,30.273000000000003,29.297,0.0,0
1581348056.994,26.855,12.695,27.344,23.926,0.0,0
1581348056.998,26.367,13.672,31.25,29.785,0.0,0
1581348057.0010002,27.344,16.602,32.715,32.715,0.0,0
1581348057.005,31.25,14.16,34.668,33.691,0.0,0
1581348057.0089998,25.879,6.348,32.715,32.715,0.0,0
1581348057.0129998,17.09,8.301,30.273000000000003,33.203,0.0,0
1581348057.0170002,22.949,13.184,32.227,30.762,0.0,0
1581348057.019,23.926,7.324,36.621,31.738000000000003,0.0,0
1581348057.0229998,18.555,13.672,38.086,39.062,0.0,0
1581348057.0270002,26.367,18.555,34.18,37.598,0.0,0
1581348057.031,17.09,20.02,32.227,36.621,0.0,0
1581348057.035,14.648,16.113,31.738000000000003,22.949,0.0,0
1581348057.039,24.902,9.277,32.227,13.184,0.0,0
1581348057.043,17.09,10.742,30.273000000000003,18.066,0.0,0
1581348057.046,13.672,13.672,27.344,16.113,0.0,0
1581348057.05,19.531,11.23,26.367,21.484,0.0,0
1581348057.054,18.555,10.742,31.738000000000003,13.184,0.0,0
1581348057.0579998,12.695,17.09,33.203,6.836,0.0,0
1581348057.062,15.625,15.137,30.762,17.578,0.0,0
1581348057.064,16.602,6.348,29.297,19.043,0.0,0
1581348057.0679998,17.578,8.789,30.273000000000003,20.508000000000006,0.0,0
1581348057.072,30.273000000000003,12.207,32.227,19.531,0.0,0
1581348057.076,23.926,13.184,29.297,16.113,0.0,0
1581348057.08,25.391,19.531,26.855,14.648,0.0,0
1581348057.084,40.039,19.043,28.32,24.414,0.0,0
1581348057.0879998,30.273000000000003,16.602,29.297,27.344,0.0,0
1581348057.091,22.461,17.09,32.227,22.949,0.0,0
1581348057.095,27.832,18.066,32.715,29.785,0.0,0
1581348057.099,27.344,21.973000000000006,31.25,43.457,0.0,0
1581348057.103,22.461,28.32,33.203,47.852,0.0,0
1581348057.107,22.949,33.203,36.621,50.78100000000001,0.0,0
1581348057.109,37.598,43.945,47.363,48.828,0.0,0
1581348057.113,51.758,47.363,53.223,38.086,0.0,0
1581348057.117,47.852,45.898,52.734,30.762,0.0,0
1581348057.121,44.922,42.969,51.758,28.32,0.0,0
1581348057.125,36.621,43.457,50.293,34.18,0.0,0
1581348057.129,25.391,49.316,50.293,38.574,0.0,0
1581348057.133,32.227,50.293,51.27,38.574,0.0,0
1581348057.1360002,35.645,47.852,49.805,34.18,0.0,0
1581348057.14,30.273000000000003,42.969,46.387,41.992,0.0,0
1581348057.144,33.203,43.457,51.27,45.41,0.0,0
1581348057.1479998,35.645,46.387,54.688,40.527,0.0,0
1581348057.1520002,31.738000000000003,41.992,50.293,42.48,0.0,0
1581348057.154,32.227,41.992,49.805,42.969,0.0,0
1581348057.158,43.457,46.387,49.316,44.434,0.0,0
1581348057.1620002,48.828,44.434,52.734,43.945,0.0,0
1581348057.166,30.762,42.48,53.71100000000001,32.715,0.0,0
1581348057.17,26.367,42.48,51.27,31.25,0.0,0
1581348057.174,39.062,37.598,55.176,42.48,0.0,0
1581348057.178,40.039,36.133,53.223,39.551,0.0,0
1581348057.181,36.621,35.645,49.316,31.738000000000003,0.0,1
1581348057.185,29.785,36.621,49.316,30.762,0.0,0
1581348057.189,23.438,46.875,45.41,36.133,0.0,0
1581348057.1929998,33.203,48.828,45.41,38.086,0.0,0
1581348057.197,44.922,39.551,47.363,33.203,0.0,0
1581348057.199,35.645,37.598,46.875,30.273000000000003,0.0,0
1581348057.2029998,33.203,38.086,47.852,27.832,0.0,0
1581348057.207,57.129,37.598,49.805,32.227,0.0,0
1581348057.211,49.805,34.18,48.828,37.598,0.0,0
1581348057.215,32.715,30.762,49.805,37.109,0.0,0
