timestamps,TP9,AF7,AF8,TP10,Marker0
1582565889.363,13.672,32.227,32.715,14.648,0
1582565889.367,22.461,11.719,35.645,11.230,0
1582565889.371,29.785,11.230,40.527,15.137,0
1582565889.375,18.066,19.043,36.621,5.859,0
1582565889.379,18.066,31.738,27.344,7.324,0
1582565889.383,21.973,52.734,17.578,8.301,0
1582565889.387,15.625,62.012,16.113,4.395,0
1582565889.390,12.695,62.500,18.066,10.254,0
1582565889.394,18.066,51.270,28.320,7.812,0
1582565889.398,14.160,32.715,34.180,-2.441,0
1582565889.402,8.301,24.902,37.598,-5.371,0
1582565889.406,6.836,22.461,40.527,0.488,0
1582565889.408,8.301,18.555,36.133,4.395,0
1582565889.412,9.766,27.344,28.320,-1.953,0
1582565889.416,7.812,31.738,24.902,-7.324,0
1582565889.420,19.531,30.762,15.137,5.859,0
1582565889.424,42.480,33.691,20.020,24.902,0
1582565889.428,25.879,42.480,35.156,17.090,0
1582565889.432,-10.254,40.527,39.062,-3.418,0
1582565889.435,-17.090,33.691,36.133,-13.184,0
1582565889.439,-8.789,29.297,33.203,-3.418,0
1582565889.443,-10.742,21.484,41.992,3.418,0
1582565889.447,-9.277,9.766,47.852,-2.441,0
1582565889.451,2.930,6.348,41.016,5.371,0
1582565889.453,4.395,15.625,39.551,6.348,0
1582565889.457,5.859,17.090,40.039,-0.488,0
1582565889.461,14.648,15.625,38.086,2.441,0
1582565889.465,12.207,7.812,35.645,-7.324,0
1582565889.469,9.277,12.207,37.598,-2.930,0
1582565889.473,9.766,23.926,34.180,13.672,0
1582565889.477,12.695,25.391,29.297,13.672,0
1582565889.480,15.137,41.016,32.715,16.113,0
1582565889.484,10.742,32.227,25.879,13.184,0
1582565889.488,16.113,19.043,25.879,12.695,0
1582565889.492,26.367,33.203,38.574,22.461,0
1582565889.496,27.832,33.203,32.227,24.902,0
1582565889.498,19.043,18.066,27.344,21.973,0
1582565889.502,7.812,4.883,46.875,20.020,0
1582565889.506,9.277,18.555,50.781,18.555,0
1582565889.510,15.137,37.598,40.527,14.160,0
1582565889.514,14.648,47.363,34.180,8.789,0
1582565889.518,17.090,44.922,24.902,19.531,0
1582565889.522,27.344,17.578,24.902,23.926,0
1582565889.525,21.484,11.719,33.203,15.625,0
1582565889.529,9.277,31.250,37.598,11.230,0
1582565889.533,0.977,43.945,37.109,10.254,0
1582565889.537,1.953,42.969,33.691,11.230,0
1582565889.541,20.508,30.762,23.438,14.648,0
1582565889.543,29.297,23.926,22.461,16.602,0
1582565889.547,30.762,28.809,33.691,13.184,0
1582565889.551,33.203,32.715,28.809,8.301,0
1582565889.555,44.922,41.504,25.879,17.578,0
1582565889.559,48.340,41.992,25.879,17.090,0
1582565889.563,27.832,21.973,20.508,7.812,0
1582565889.567,12.207,11.719,22.949,6.836,0
1582565889.570,11.230,16.113,23.438,7.324,0
1582565889.574,13.672,26.855,27.344,12.207,0
1582565889.578,13.184,41.504,32.715,14.160,0
1582565889.582,20.020,37.598,27.832,13.184,0
1582565889.586,25.391,38.574,26.367,14.648,0
1582565889.588,27.832,44.434,35.645,16.113,0
1582565889.592,18.555,39.551,36.133,18.066,0
1582565889.596,4.395,32.227,31.738,18.555,0
1582565889.600,9.277,29.785,33.203,15.137,0
1582565889.604,12.695,26.367,36.133,12.695,0
1582565889.608,12.207,22.949,34.180,10.742,0
1582565889.612,14.648,33.203,28.809,9.277,0
1582565889.615,9.766,31.738,19.531,4.883,0
1582565889.619,13.672,27.832,20.508,10.742,0
1582565889.623,16.113,37.109,25.391,19.531,0
1582565889.627,7.324,36.133,21.484,12.695,0
1582565889.631,8.301,39.551,27.832,11.230,0
1582565889.648,17.578,41.504,32.227,17.578,0
1582565889.652,22.949,35.645,32.715,16.602,0
1582565889.656,18.555,26.367,36.133,10.742,0
1582565889.660,14.648,20.508,31.250,11.719,0
1582565889.664,25.391,27.832,13.184,12.695,0
1582565889.668,30.273,34.180,9.766,11.719,0
1582565889.672,13.184,31.738,22.461,11.719,0
1582565889.675,7.812,32.715,34.180,11.230,0
1582565889.679,11.230,40.039,36.133,9.277,0
1582565889.683,15.137,34.668,36.621,11.230,0
1582565889.687,22.949,29.785,35.645,20.996,0
1582565889.691,24.902,30.273,32.715,20.508,0
1582565889.693,26.855,27.832,38.086,20.508,0
1582565889.697,24.902,23.438,38.574,19.043,0
1582565889.701,25.391,28.809,29.785,20.020,0
1582565889.705,29.785,41.504,26.855,18.066,0
1582565889.709,19.043,40.039,26.855,3.906,0
1582565889.713,9.277,38.086,34.180,1.953,0
1582565889.717,13.184,35.156,39.551,7.812,0
1582565889.720,10.742,21.484,34.668,5.371,0
1582565889.724,15.137,19.043,31.250,6.348,0
1582565889.728,26.367,28.809,31.738,16.113,0
1582565889.732,31.738,38.086,26.855,19.531,0
1582565889.736,36.133,39.062,26.855,22.949,0
1582565889.738,34.668,37.598,29.785,25.879,0
1582565889.742,21.973,43.945,24.414,14.160,0
1582565889.746,22.949,52.734,25.391,8.301,0
1582565889.750,29.297,40.039,26.855,10.254,0
1582565889.754,17.090,25.879,29.785,5.371,0
1582565889.758,19.531,29.785,34.180,5.859,0
1582565889.762,20.020,32.715,25.391,0.488,0
1582565889.765,20.020,31.738,22.949,2.930,0
1582565889.769,27.344,31.250,29.297,8.789,0
1582565889.773,24.414,37.109,35.156,11.230,0
1582565889.777,24.414,36.621,32.715,14.648,0
1582565889.781,29.297,41.992,24.414,17.578,0
1582565889.784,34.668,48.828,25.391,18.555,0
1582565889.788,29.297,32.715,21.973,16.113,0
1582565889.792,21.484,17.578,27.832,14.648,0
1582565889.796,21.484,21.973,36.133,9.766,0
1582565889.800,15.137,23.926,28.809,9.766,0
1582565889.804,13.672,13.672,32.227,15.625,0
1582565889.808,14.160,21.973,37.109,9.277,0
1582565889.811,21.484,39.062,27.832,4.883,0
1582565889.815,34.180,41.016,28.320,12.695,0
1582565889.819,32.715,42.969,20.996,19.531,0
1582565889.823,22.949,43.945,7.324,14.648,0
1582565889.827,18.555,41.016,12.207,9.277,0
1582565889.829,16.113,32.715,21.973,10.254,0
1582565889.833,14.160,25.391,36.133,8.301,0
1582565889.837,16.113,33.203,45.410,7.812,0
1582565889.841,15.137,34.180,28.320,3.906,0
1582565889.845,9.277,31.738,23.438,2.441,0
1582565889.849,12.695,22.949,32.715,5.371,0
1582565889.853,23.438,10.742,31.738,16.602,0
1582565889.856,23.926,22.461,30.273,19.043,0
1582565889.860,23.926,38.574,27.832,12.695,0
1582565889.864,20.020,41.992,20.996,14.648,0
1582565889.868,19.043,45.898,20.508,20.020,0
1582565889.872,19.531,44.434,30.762,18.066,0
1582565889.874,19.531,24.414,37.109,15.625,0
1582565889.878,20.508,14.160,37.598,13.184,0
1582565889.882,17.090,21.973,39.062,9.277,0
1582565889.886,16.113,28.809,35.645,7.324,0
1582565889.890,17.090,38.574,21.973,9.277,0
1582565889.894,17.578,45.410,15.625,12.695,0
1582565889.898,18.555,36.621,24.902,9.766,0
1582565889.901,13.672,24.414,34.180,5.371,0
1582565889.905,20.020,28.809,34.180,4.883,0
1582565889.909,24.414,31.738,29.785,7.324,0
1582565889.913,12.695,22.461,24.414,14.648,0
1582565889.917,13.184,19.531,32.715,17.090,0
1582565889.919,17.090,20.508,42.480,15.137,0
1582565889.923,12.695,23.926,28.809,0.000,0
1582565889.927,14.160,29.297,20.508,-5.371,0
1582565889.931,15.625,31.738,22.461,2.441,0
1582565889.935,16.113,41.992,26.855,-2.930,0
1582565889.939,12.695,40.039,25.879,4.395,0
1582565889.943,18.066,26.367,21.484,7.324,0
1582565889.946,20.996,16.602,25.391,3.418,0
1582565889.950,15.137,20.996,30.762,7.324,0
1582565889.954,23.438,35.645,31.250,7.324,0
1582565889.958,20.996,29.785,26.855,8.301,0
1582565889.962,7.812,27.832,25.391,8.301,0
1582565889.964,3.906,35.156,21.484,1.953,0
1582565889.968,7.812,27.344,27.832,2.930,0
1582565889.972,15.625,21.973,32.715,8.301,0
1582565889.976,17.090,24.902,24.414,6.348,0
1582565889.980,19.043,17.578,18.066,6.836,0
1582565889.984,20.996,16.113,23.438,17.090,0
1582565889.988,24.902,28.809,26.855,17.578,0
1582565889.991,28.320,35.645,18.555,14.160,0
1582565889.995,25.879,38.574,15.625,17.578,0
1582565889.999,30.273,42.969,22.949,9.766,0
1582565890.003,28.320,41.504,32.227,14.160,0
1582565890.007,29.297,35.156,41.016,25.879,0
1582565890.024,31.250,37.109,40.527,24.902,0
1582565890.028,27.344,36.133,32.715,22.949,0
1582565890.032,29.297,33.691,26.367,16.113,0
1582565890.036,23.438,31.738,26.367,11.719,0
1582565890.040,16.113,11.230,23.438,13.672,0
1582565890.044,14.648,11.719,21.484,13.672,0
1582565890.048,15.137,36.133,25.879,15.137,0
1582565890.051,9.277,42.480,25.879,9.277,0
1582565890.055,13.184,40.527,25.391,7.812,0
1582565890.059,23.438,36.621,28.320,12.207,0
1582565890.063,14.648,34.180,27.832,13.672,0
1582565890.067,14.648,28.809,25.879,13.184,0
1582565890.069,28.809,31.738,19.531,9.766,0
1582565890.073,16.602,29.785,17.090,3.906,0
1582565890.077,5.859,26.855,24.902,5.859,0
1582565890.081,9.766,23.438,33.691,9.766,0
1582565890.085,14.648,29.297,36.133,12.207,0
1582565890.089,10.742,38.574,29.297,12.207,0
1582565890.093,7.812,35.156,28.320,7.812,0
1582565890.096,13.672,35.156,30.762,7.324,0
1582565890.100,19.043,36.621,36.621,7.812,0
1582565890.104,19.531,40.527,27.832,6.348,0
1582565890.108,14.648,42.480,7.812,3.418,0
1582565890.112,8.789,38.574,12.695,2.441,0
1582565890.114,13.672,18.555,27.832,8.301,0
1582565890.118,22.949,-9.277,35.156,9.277,0
1582565890.122,12.695,-0.488,37.598,7.324,0
1582565890.126,-0.488,33.691,41.016,9.277,0
1582565890.130,3.906,42.969,39.062,6.836,0
1582565890.134,11.719,41.992,30.273,6.836,0
1582565890.138,16.602,49.805,26.367,12.695,0
1582565890.141,13.184,43.945,23.926,11.230,0
1582565890.145,16.113,34.180,27.344,4.883,0
1582565890.149,23.438,31.738,34.668,4.883,0
1582565890.153,26.367,19.043,29.785,4.883,0
1582565890.157,26.367,21.973,22.949,-2.930,0
1582565890.159,37.598,42.969,30.273,3.906,0
1582565890.163,47.363,52.246,37.598,17.090,0
1582565890.167,38.086,41.992,31.250,8.789,0
1582565890.171,27.344,23.438,21.484,-2.441,0
1582565890.175,21.973,25.391,12.695,1.953,0
1582565890.179,14.160,35.645,9.277,11.719,0
1582565890.183,6.348,26.367,19.531,4.395,0
1582565890.186,7.812,6.348,28.320,-6.836,0
1582565890.190,4.883,19.531,23.438,-4.883,0
1582565890.194,0.000,36.621,27.832,0.977,0
1582565890.198,6.836,39.551,35.156,5.371,0
1582565890.202,13.672,43.457,37.109,10.254,0
1582565890.204,8.789,45.410,31.738,5.859,0
1582565890.208,4.395,40.039,24.902,0.000,0
1582565890.212,0.977,20.020,25.391,-2.441,0
1582565890.216,2.441,10.254,23.926,-0.488,0
1582565890.220,0.000,7.812,22.461,6.348,0
1582565890.224,9.766,6.836,30.273,0.977,0
1582565890.228,22.461,24.902,41.992,-0.977,0
1582565890.231,12.207,51.270,37.109,3.906,0
1582565890.235,6.348,43.945,26.855,4.883,0
1582565890.239,5.371,30.762,20.508,4.395,0
1582565890.243,8.301,39.062,21.973,0.488,0
1582565890.247,13.184,37.109,31.738,3.418,0
1582565890.249,9.277,16.113,35.645,6.836,0
1582565890.253,3.906,18.555,23.438,-2.930,0
1582565890.257,7.324,38.086,18.066,1.465,0
1582565890.261,10.254,21.973,29.785,4.395,0
1582565890.265,15.625,18.555,30.273,-2.930,0
1582565890.269,21.973,42.969,29.785,5.859,0
1582565890.273,12.695,38.086,38.574,15.137,0
1582565890.276,10.254,25.391,34.180,13.672,0
1582565890.280,16.113,24.902,32.715,9.277,0
1582565890.284,19.531,30.762,35.645,7.812,0
1582565890.288,21.484,34.180,31.250,7.324,0
1582565890.292,25.391,34.668,27.344,8.301,0
1582565890.294,26.367,15.625,19.531,6.836,0
1582565890.298,17.090,18.066,22.461,3.906,0
1582565890.302,10.742,46.387,29.785,3.906,0
1582565890.306,17.578,44.434,23.438,1.465,0
1582565890.310,24.902,40.039,24.414,5.859,0
1582565890.314,20.996,34.180,28.320,10.742,0
1582565890.318,18.066,22.461,19.531,7.324,0
1582565890.321,28.320,23.926,25.391,3.418,0
1582565890.325,24.902,39.062,29.297,0.488,0
1582565890.329,14.160,34.180,25.391,-0.488,0
1582565890.333,12.207,19.531,23.926,-2.930,0
1582565890.337,12.695,19.531,23.438,-2.930,0
1582565890.339,15.137,29.297,32.227,1.953,0
1582565890.343,13.184,43.945,33.203,6.836,0
1582565890.347,20.996,52.734,29.785,8.789,0
1582565890.351,31.738,47.363,17.090,14.648,0
1582565890.355,33.691,37.598,9.277,20.020,0
1582565890.359,38.086,31.250,21.973,17.578,0
1582565890.363,33.203,21.484,35.645,15.137,0
1582565890.366,22.461,21.973,34.668,5.859,0
1582565890.370,14.648,19.531,29.297,1.465,0
1582565890.374,9.766,30.762,28.320,4.883,0
1582565890.378,14.648,52.246,24.902,2.441,0
1582565890.382,20.996,51.270,28.809,5.859,0
1582565890.398,22.949,41.504,36.621,18.555,0
1582565890.402,25.879,26.367,26.855,23.438,0
1582565890.406,19.531,17.578,20.996,10.742,0
1582565890.410,14.648,17.090,38.574,2.930,0
1582565890.414,20.020,27.832,41.504,7.812,0
1582565890.418,16.113,42.969,26.855,3.418,0
1582565890.422,14.648,39.551,30.762,0.000,0
1582565890.425,19.043,32.715,31.250,4.395,0
1582565890.429,20.508,41.992,27.344,8.789,0
1582565890.433,20.508,40.039,31.738,12.207,0
1582565890.437,26.855,26.367,34.180,19.043,0
1582565890.441,19.531,21.973,30.273,18.066,0
1582565890.443,13.672,30.273,17.090,18.066,0
1582565890.447,18.066,35.156,13.672,23.926,0
1582565890.451,25.879,30.762,34.180,30.273,0
1582565890.455,22.949,32.227,38.574,29.297,0
1582565890.459,9.277,43.945,29.297,20.020,0
1582565890.463,9.766,37.109,32.227,10.742,0
1582565890.467,12.695,22.949,31.250,3.418,0
1582565890.470,18.066,30.273,23.926,7.324,0
1582565890.474,20.020,24.414,25.879,19.531,0
1582565890.478,24.414,11.230,25.391,18.066,0
1582565890.482,26.367,24.414,22.949,11.230,0
1582565890.486,20.020,38.086,20.996,19.043,0
1582565890.488,15.625,41.504,19.531,21.484,0
1582565890.492,10.254,47.852,30.273,24.414,0
1582565890.496,12.695,41.016,37.598,20.996,0
1582565890.500,15.137,28.320,27.344,15.137,0
1582565890.504,21.484,31.738,18.066,19.043,0
1582565890.508,24.414,27.344,15.137,19.043,0
1582565890.512,23.438,30.762,13.184,15.625,0
1582565890.515,21.484,45.410,19.531,13.672,0
1582565890.519,10.742,39.062,33.691,13.672,0
1582565890.523,10.254,28.320,47.363,9.277,0
1582565890.527,15.625,33.691,46.875,9.277,0
1582565890.531,21.973,27.344,39.551,20.508,0
1582565890.533,23.926,27.832,42.969,23.926,0
1582565890.537,24.902,33.203,32.715,14.648,0
1582565890.541,18.066,33.203,16.113,2.441,0
1582565890.545,6.348,34.668,13.184,0.488,0
1582565890.549,11.230,28.809,13.672,4.395,0
1582565890.553,19.043,19.043,23.438,1.953,0
1582565890.557,14.160,24.902,35.156,0.488,0
1582565890.560,18.555,39.062,32.715,4.395,0
1582565890.564,29.785,34.180,35.156,13.672,0
1582565890.568,20.508,30.762,43.945,11.230,0
1582565890.572,16.602,32.715,38.086,5.859,0
1582565890.576,21.973,30.273,28.809,12.695,0
1582565890.578,23.438,32.227,22.461,10.742,0
1582565890.582,22.461,34.180,18.066,10.254,17050
1582565890.586,18.555,20.508,22.461,2.441,0
1582565890.590,11.719,13.672,27.344,-2.441,0
1582565890.594,16.602,18.555,24.902,7.324,0
1582565890.598,19.043,25.391,20.020,-1.465,0
1582565890.602,19.043,32.715,15.625,-1.465,0
1582565890.605,28.320,40.527,14.160,8.789,0
1582565890.609,26.855,40.527,19.531,1.465,0
1582565890.613,18.555,38.086,24.902,6.836,0
1582565890.617,18.555,38.574,25.391,11.230,0
1582565890.621,21.973,33.203,21.484,8.789,0
1582565890.638,21.973,27.832,28.320,2.930,0
1582565890.642,22.461,21.484,36.133,-0.488,0
1582565890.646,19.043,20.508,27.832,4.395,0
1582565890.650,13.184,25.879,27.832,4.395,0
1582565890.654,15.137,27.344,20.996,-2.930,0
1582565890.658,20.996,43.945,9.277,-2.441,0
1582565890.662,23.438,47.852,8.301,2.441,0
1582565890.665,21.973,35.645,19.531,2.441,0
1582565890.669,19.043,27.344,29.785,3.906,0
1582565890.673,23.926,21.973,25.391,11.719,0
1582565890.677,27.832,21.484,29.785,14.160,0
1582565890.681,20.996,23.438,33.203,7.812,0
1582565890.668,16.113,42.480,30.762,4.883,0
1582565890.672,18.066,46.387,30.762,6.836,0
1582565890.676,21.973,30.273,16.602,1.465,0
1582565890.680,9.766,18.066,2.930,-3.906,0
1582565890.684,1.465,18.555,17.578,-2.930,0
1582565890.688,8.789,27.832,35.156,6.348,0
1582565890.692,15.137,41.504,33.203,7.324,0
1582565890.695,17.090,42.969,20.508,3.418,0
1582565890.699,16.113,22.461,24.414,9.766,0
1582565890.703,14.160,20.508,30.273,11.230,0
1582565890.707,20.020,41.504,26.855,13.184,0
1582565890.711,22.949,46.875,26.855,11.230,0
1582565890.713,9.766,30.273,26.855,5.371,0
1582565890.717,11.230,26.855,33.203,10.254,0
1582565890.721,16.602,32.715,36.133,9.277,0
1582565890.725,10.254,32.715,33.203,12.695,0
1582565890.729,17.090,37.598,33.203,20.996,0
1582565890.733,13.184,37.109,26.855,19.043,0
1582565890.737,10.254,33.203,23.438,18.066,0
1582565890.740,17.090,36.133,28.320,15.137,0
1582565890.744,18.066,48.828,16.602,14.648,0
1582565890.748,16.602,45.410,12.695,11.719,0
1582565890.752,20.020,39.062,28.320,9.277,0
1582565890.756,25.391,36.133,34.180,12.695,0
1582565890.773,26.855,26.367,32.715,15.625,0
1582565890.777,32.715,10.742,25.879,17.578,0
1582565890.781,42.969,-5.371,24.414,12.207,0
1582565890.785,50.781,13.184,26.855,7.324,0
1582565890.789,44.434,42.969,34.668,1.465,0
1582565890.793,29.785,43.945,38.574,-2.930,0
1582565890.797,22.949,43.945,27.344,0.000,0
1582565890.800,17.090,46.875,34.180,3.418,0
1582565890.804,14.160,45.410,41.992,4.395,0
1582565890.808,11.719,38.574,30.273,1.953,0
1582565890.812,9.277,34.668,23.926,6.836,0
1582565890.816,18.555,45.410,29.785,20.508,0
1582565890.819,30.273,40.527,33.691,22.461,0
1582565890.823,22.949,33.691,28.809,18.555,0
1582565890.827,14.648,23.438,29.297,16.113,0
1582565890.831,10.742,7.324,30.762,16.602,0
1582565890.835,12.695,15.625,28.809,25.391,0
1582565890.839,13.184,30.762,22.949,20.508,0
1582565890.843,10.742,48.828,22.461,10.742,0
1582565890.846,15.625,54.688,33.691,18.066,0
1582565890.850,20.508,48.340,36.621,18.555,0
1582565890.854,28.809,44.922,31.250,20.020,0
1582565890.858,28.809,35.156,27.344,22.949,0
1582565890.862,22.949,23.926,25.391,18.555,0
1582565890.864,18.555,19.531,29.297,19.043,0
1582565890.868,20.996,14.160,32.715,20.020,0
1582565890.872,26.855,17.578,25.879,17.090,0
1582565890.876,20.020,26.855,21.484,6.836,0
1582565890.880,11.719,47.852,27.832,7.324,0
1582565890.884,19.531,65.430,37.598,15.625,0
1582565890.888,21.484,58.105,36.133,17.578,0
1582565890.891,19.531,40.527,36.621,23.438,0
1582565890.895,25.879,32.715,38.086,30.762,0
1582565890.899,32.227,39.551,31.738,27.344,0
1582565890.903,16.113,49.316,26.367,-5.859,0
1582565890.907,-2.441,41.504,17.578,-21.973,0
1582565890.909,3.906,16.113,21.973,-2.930,0
1582565890.913,12.207,26.367,28.809,2.441,0
1582565890.917,16.602,52.734,20.996,0.977,0
1582565890.921,10.254,55.176,17.578,-2.441,0
1582565890.925,3.418,47.852,10.742,-6.348,0
1582565890.929,15.137,41.016,9.766,3.906,0
1582565890.933,25.879,38.574,21.973,12.207,0
1582565890.936,16.113,29.785,28.320,8.301,0
1582565890.940,12.695,25.391,30.762,9.277,0
1582565890.944,16.602,23.438,25.391,9.277,0
1582565890.948,17.090,24.414,24.902,3.906,0
1582565890.952,20.996,39.551,32.715,5.859,0
1582565890.954,21.973,47.852,27.344,6.348,0
1582565890.958,21.973,42.480,20.996,5.859,0
1582565890.962,23.926,35.156,20.020,5.371,0
1582565890.966,22.461,28.809,12.207,3.418,0
1582565890.970,20.996,26.367,14.648,4.395,0
1582565890.974,19.531,26.367,29.785,4.883,0
1582565890.978,17.578,33.691,37.109,3.906,0
1582565890.981,19.043,33.691,37.598,2.930,0
1582565890.985,19.043,21.484,38.574,-0.488,0
1582565890.989,20.996,34.180,33.691,0.488,0
1582565890.993,26.855,48.340,27.832,9.766,0
1582565890.997,23.926,44.434,25.391,6.836,0
1582565890.999,17.090,39.062,20.508,5.371,0
1582565891.003,13.184,34.668,17.578,9.277,0
1582565891.007,14.160,34.180,17.578,2.930,0
1582565891.011,20.996,31.738,27.344,3.906,0
1582565891.015,22.461,42.480,38.574,9.277,0
1582565891.019,20.020,47.363,34.668,5.859,0
1582565891.023,21.484,40.527,29.297,5.859,0
1582565891.026,21.973,38.086,29.785,10.742,0
1582565891.030,19.531,33.691,31.250,11.230,0
1582565891.034,17.578,30.762,24.414,15.625,0
1582565891.038,26.855,36.133,23.438,19.531,0
1582565891.042,28.809,37.598,30.273,18.555,0
1582565891.044,27.832,21.484,35.645,21.973,0
1582565891.048,24.902,26.367,34.180,18.555,0
1582565891.052,22.461,48.340,32.227,14.648,0
1582565891.056,22.461,39.062,27.344,22.461,0
1582565891.060,19.531,27.344,25.879,22.461,0
1582565891.064,25.391,36.621,36.621,20.508,0
1582565891.068,25.879,48.340,35.156,13.184,0
1582565891.071,15.625,45.410,31.738,6.348,0
1582565891.075,20.020,33.203,33.203,10.742,0
1582565891.079,20.996,32.227,26.855,12.207,0
1582565891.083,19.531,36.133,15.137,16.602,0
1582565891.087,24.414,31.250,16.602,26.855,0
1582565891.089,18.555,16.113,19.043,21.973,0
1582565891.093,29.297,26.367,20.508,16.113,0
1582565891.097,31.250,34.668,33.691,21.484,0
1582565891.101,12.207,22.949,37.109,20.508,0
1582565891.105,18.066,24.902,34.668,20.020,0
1582565891.109,23.926,28.809,31.250,18.555,0
1582565891.113,24.414,33.203,21.484,18.066,0
1582565891.116,26.855,28.809,20.996,21.484,0
1582565891.120,26.367,14.648,24.414,22.949,0
1582565891.124,22.949,19.043,19.043,18.066,0
1582565891.128,21.973,36.133,17.090,18.555,0
1582565891.132,15.137,41.504,15.625,18.555,0
1582565891.149,15.137,41.992,20.020,18.555,0
1582565891.153,21.484,30.273,39.062,19.531,0
1582565891.157,21.973,19.043,48.828,13.184,0
1582565891.161,21.973,27.832,40.527,14.160,0
1582565891.165,21.484,35.156,38.574,14.648,0
1582565891.169,24.414,37.598,35.645,14.160,0
1582565891.173,29.297,22.949,25.391,17.090,0
1582565891.176,27.832,15.625,20.020,16.602,0
1582565891.180,13.672,39.551,11.719,15.625,0
1582565891.184,12.207,52.734,13.184,16.602,0
1582565891.188,15.625,43.457,36.133,15.137,0
1582565891.192,7.812,41.504,41.504,11.719,0
1582565891.194,12.695,46.875,37.598,12.207,0
1582565891.198,20.996,36.621,30.273,17.578,0
1582565891.202,26.855,19.531,25.391,19.531,0
1582565891.206,28.809,18.555,32.715,15.625,0
1582565891.210,19.531,29.785,29.785,16.113,0
1582565891.214,21.973,32.715,26.855,19.531,0
1582565891.218,30.762,37.598,14.160,19.043,0
1582565891.221,22.949,45.410,7.812,10.742,0
1582565891.225,17.090,39.551,18.555,4.395,0
1582565891.229,8.789,37.109,22.461,6.348,0
1582565891.233,19.043,49.805,29.785,12.695,0
1582565891.237,31.250,44.922,33.203,21.973,0
1582565891.239,9.766,12.695,24.902,7.812,0
1582565891.243,11.719,-0.977,18.066,0.488,0
1582565891.247,22.461,20.996,10.742,9.766,0
1582565891.251,21.973,47.852,9.766,17.090,0
1582565891.255,17.578,58.105,17.578,16.602,0
1582565891.259,9.277,58.594,27.344,9.277,0
1582565891.263,7.324,53.711,31.250,4.395,0
1582565891.266,10.254,32.227,34.668,5.371,0
1582565891.270,11.719,32.715,35.645,5.859,0
1582565891.274,15.137,16.113,38.574,10.254,0
1582565891.278,13.184,-4.883,36.133,17.090,0
1582565891.282,11.230,29.297,21.973,15.625,0
1582565891.284,18.555,58.105,14.648,14.160,0
1582565891.288,20.508,58.594,10.742,10.254,0
1582565891.292,9.277,41.504,17.578,5.859,0
1582565891.296,11.230,32.715,38.574,8.789,0
1582565891.300,14.648,21.484,48.340,6.836,0
1582565891.304,13.672,14.648,46.875,2.930,0
1582565891.308,17.578,32.227,41.992,8.301,0
1582565891.311,22.949,32.715,35.645,12.207,0
1582565891.315,21.973,28.809,33.203,10.742,0
1582565891.319,21.973,42.969,33.203,14.160,0
1582565891.323,23.438,47.852,31.738,21.973,0
1582565891.327,24.902,33.203,27.832,23.926,0
1582565891.329,32.227,28.809,26.367,21.484,0
1582565891.333,32.715,40.039,21.484,22.949,0
1582565891.337,28.320,41.504,25.879,14.648,0
1582565891.341,19.043,37.598,33.691,4.883,0
1582565891.345,15.137,46.387,31.738,0.977,0
1582565891.349,14.160,44.434,37.109,3.906,0
1582565891.353,7.324,30.273,39.062,8.789,0
1582565891.356,7.812,33.203,36.133,8.301,0
1582565891.360,15.625,38.086,34.668,6.836,0
1582565891.364,18.555,36.621,25.879,10.254,0
1582565891.368,12.207,32.715,18.555,13.184,0
1582565891.372,15.137,36.133,24.414,16.602,0
1582565891.374,21.484,49.316,24.414,20.508,0
1582565891.378,26.367,31.738,25.391,21.484,0
1582565891.382,23.438,20.020,29.297,22.949,0
1582565891.386,16.602,28.320,38.086,17.578,0
1582565891.390,20.508,41.504,42.480,12.207,0
1582565891.394,19.531,54.688,22.949,11.719,0
1582565891.398,17.090,56.641,16.113,6.836,0
1582565891.401,11.230,54.199,22.461,2.930,0
1582565891.405,12.207,43.945,26.855,10.254,0
1582565891.409,22.949,29.297,33.691,17.090,0
1582565891.413,21.484,11.230,37.598,22.949,0
1582565891.417,9.766,13.672,31.250,16.113,0
1582565891.419,16.602,29.297,30.273,11.719,0
1582565891.423,26.367,37.598,38.574,16.602,0
1582565891.427,27.344,38.574,27.344,15.137,0
1582565891.431,22.949,39.062,13.672,6.348,0
1582565891.435,21.484,35.645,28.320,7.812,0
1582565891.439,31.738,31.738,38.086,13.672,0
1582565891.443,42.969,47.363,28.320,10.254,0
1582565891.446,43.945,49.316,33.691,5.371,0
1582565891.450,39.551,40.039,42.969,5.859,0
1582565891.454,44.434,41.992,32.227,9.766,0
1582565891.458,33.203,36.133,23.438,15.625,0
1582565891.462,25.879,34.668,25.879,23.926,0
1582565891.464,24.902,31.250,31.250,24.902,0
1582565891.468,24.902,30.273,34.668,25.879,0
1582565891.472,25.879,51.758,39.062,27.832,0
1582565891.476,14.160,56.152,38.574,14.648,0
1582565891.480,7.324,49.316,47.852,9.277,0
1582565891.484,12.207,47.852,55.176,20.996,0
1582565891.488,16.602,33.203,41.992,21.973,0
1582565891.491,14.648,26.367,33.691,9.766,0
1582565891.495,14.648,33.691,40.039,3.418,0
1582565891.499,13.184,39.551,36.621,11.719,0
1582565891.503,18.555,43.457,34.668,18.066,0
1582565891.507,22.461,49.805,37.598,17.578,0
1582565891.523,15.625,48.828,34.668,14.648,0
1582565891.527,9.277,30.762,31.738,15.137,0
1582565891.531,22.461,12.695,31.738,20.996,0
1582565891.535,24.414,24.902,27.344,25.391,0
1582565891.539,13.184,30.762,30.273,24.902,0
1582565891.543,15.137,23.438,38.086,19.043,0
1582565891.547,16.113,36.621,40.527,13.672,0
1582565891.550,21.973,35.645,44.922,12.207,0
1582565891.554,24.414,33.691,39.551,10.742,0
1582565891.558,15.137,39.551,29.297,5.859,0
1582565891.562,11.230,37.598,24.902,4.395,0
1582565891.566,14.648,49.805,27.344,13.184,0
1582565891.568,15.625,34.180,27.832,16.113,0
1582565891.572,17.578,23.926,31.250,15.137,0
1582565891.576,26.855,35.156,40.527,23.438,0
1582565891.580,25.879,25.879,34.668,20.996,0
1582565891.584,29.297,24.902,26.855,20.508,0
1582565891.588,26.855,22.949,21.484,17.578,0
1582565891.592,16.113,19.531,16.602,2.930,0
1582565891.595,16.113,23.926,21.484,0.000,0
1582565891.599,16.113,35.645,15.625,3.906,0
1582565891.603,20.020,44.434,17.578,3.418,0
1582565891.607,15.137,41.992,34.180,1.953,0
1582565891.611,9.277,48.828,31.738,5.859,0
1582565891.613,21.973,39.551,27.832,15.137,0
1582565891.617,22.461,17.578,31.250,16.113,0
1582565891.621,15.137,17.578,30.762,15.625,0
1582565891.625,13.672,27.832,32.715,17.090,0
1582565891.629,12.695,39.062,22.461,15.137,0
1582565891.633,10.742,26.855,3.418,11.719,0
1582565891.637,10.254,20.996,14.160,6.348,0
1582565891.640,18.066,35.645,31.738,9.277,0
1582565891.644,25.879,30.273,40.039,17.578,0
1582565891.648,26.855,28.809,43.457,15.625,0
1582565891.652,22.461,44.434,34.180,12.207,0
1582565891.656,22.949,46.875,28.809,14.648,0
1582565891.658,28.320,33.691,26.855,21.973,0
1582565891.662,26.367,32.715,24.902,19.043,0
1582565891.666,28.320,27.344,27.832,17.578,0
1582565891.670,26.855,20.996,26.367,28.320,0
1582565891.674,24.902,37.598,14.160,27.832,0
1582565891.678,28.809,45.410,13.184,23.438,0
1582565891.682,31.738,42.969,28.809,20.508,0
1582565891.685,35.645,42.969,37.598,17.090,0
1582565891.689,31.250,38.574,39.062,13.184,0
1582565891.693,20.020,31.250,41.504,11.719,0
1582565891.697,20.020,18.066,34.668,15.137,0
1582565891.701,20.508,18.066,25.879,18.066,0
1582565891.718,19.531,27.344,29.297,21.484,0
1582565891.722,12.695,34.180,26.855,18.555,0
1582565891.726,12.695,49.316,18.555,19.043,0
1582565891.730,14.648,47.363,23.926,19.531,0
1582565891.734,9.277,41.992,27.832,8.789,0
1582565891.738,7.324,51.270,32.227,8.789,0
1582565891.742,12.207,49.316,44.434,12.207,0
1582565891.745,15.625,40.527,35.645,8.301,0
1582565891.749,11.719,23.926,25.879,5.371,0
1582565891.753,11.719,6.836,36.621,10.742,0
1582565891.757,16.113,20.996,40.527,23.438,0
1582565891.761,26.855,36.133,32.227,26.855,0
1582565891.748,23.926,36.621,22.949,24.414,0
1582565891.752,24.414,47.852,20.996,33.203,0
1582565891.756,26.855,49.805,24.902,30.762,17140
1582565891.760,24.414,34.180,22.461,22.949,0
1582565891.764,23.926,26.855,27.344,20.020,0
1582565891.768,15.625,22.949,35.156,16.602,0
1582565891.772,16.113,27.344,37.109,18.066,0
1582565891.775,19.043,33.691,38.574,16.113,0
1582565891.779,19.043,33.203,34.668,21.484,0
1582565891.783,23.438,37.598,32.715,32.227,0
1582565891.787,22.949,34.180,33.691,28.809,0
1582565891.791,21.973,36.133,34.180,25.879,0
1582565891.793,23.438,37.598,34.668,22.461,0
1582565891.797,23.926,38.574,29.297,17.090,0
1582565891.801,13.184,44.922,23.926,15.625,0
1582565891.805,13.672,29.785,29.297,18.555,0
1582565891.809,17.578,14.648,34.180,18.555,0
1582565891.813,4.395,24.902,33.691,11.719,0
1582565891.817,5.859,29.297,40.039,17.090,0
1582565891.820,14.160,34.180,43.945,20.508,0
1582565891.824,21.973,42.969,42.480,20.020,0
1582565891.828,22.461,45.410,37.598,18.555,0
1582565891.832,11.719,42.969,30.762,12.695,0
1582565891.836,15.625,39.062,31.738,18.066,0
1582565891.838,19.531,22.949,30.762,18.066,0
1582565891.842,29.297,20.020,31.738,22.949,0
1582565891.846,26.367,45.410,33.203,23.438,0
1582565891.850,11.230,41.992,35.156,15.625,0
1582565891.854,19.531,31.250,38.086,21.484,0
1582565891.858,17.578,37.598,36.133,17.090,0
1582565891.862,19.043,43.945,29.785,9.766,0
1582565891.865,29.297,41.504,23.438,16.113,0
1582565891.869,26.367,27.832,18.555,22.461,0
1582565891.873,30.273,28.320,26.855,23.926,0
1582565891.877,25.879,41.992,34.180,19.043,0
1582565891.881,17.090,41.504,28.320,14.648,0
1582565891.898,22.949,41.992,25.391,13.184,0
1582565891.902,27.344,42.969,26.367,17.578,0
1582565891.906,27.832,34.668,29.785,22.461,0
1582565891.910,25.391,42.969,30.273,20.508,0
1582565891.914,22.949,47.852,25.879,17.578,0
1582565891.918,29.297,37.109,26.367,24.414,0
1582565891.922,32.715,37.598,30.762,23.926,0
1582565891.925,28.320,40.527,32.227,13.672,0
1582565891.929,25.391,37.109,30.273,9.277,0
1582565891.933,26.367,35.645,38.086,12.695,0
1582565891.937,27.832,25.879,44.434,22.461,0
1582565891.941,28.809,12.695,37.109,24.414,0
1582565891.974,26.367,13.184,32.227,18.066,0
1582565891.978,25.879,24.902,31.738,13.184,0
1582565891.982,24.902,43.945,34.180,17.578,0
1582565891.986,21.484,53.223,31.250,23.926,0
1582565891.990,23.926,52.246,18.066,16.113,0
1582565891.994,24.902,39.062,21.484,15.625,0
1582565891.998,11.230,20.996,34.180,7.812,0
1582565892.001,12.695,20.996,35.645,0.000,0
1582565892.005,15.137,33.691,26.367,7.324,0
1582565892.009,6.348,35.156,15.137,5.371,0
1582565892.013,9.277,27.832,22.461,8.301,0
1582565892.017,14.648,37.109,33.203,14.160,0
1582565891.989,18.555,48.828,31.738,17.578,0
1582565891.993,20.508,42.480,35.645,21.484,0
1582565891.997,20.996,18.555,31.738,17.090,0
1582565892.001,26.367,9.277,24.902,15.137,0
1582565892.005,29.297,33.691,25.879,17.090,0
1582565892.009,20.996,49.316,29.297,14.648,0
1582565892.013,23.926,45.410,30.273,20.020,0
1582565892.016,35.645,39.062,28.320,23.438,0
1582565892.020,29.785,33.691,28.809,23.438,0
1582565892.024,22.949,37.598,31.250,20.996,0
1582565892.028,20.020,42.480,37.109,10.742,0
1582565892.032,27.832,29.785,36.133,11.230,0
1582565892.034,33.203,21.484,30.762,19.531,0
1582565892.038,20.996,24.414,28.809,15.625,0
1582565892.042,15.625,27.832,26.367,10.254,0
1582565892.046,27.344,38.086,26.855,14.648,0
1582565892.050,30.273,44.434,27.344,18.555,0
1582565892.054,27.832,27.344,26.855,21.484,0
1582565892.058,21.484,26.367,29.297,18.066,0
1582565892.061,16.602,43.945,35.645,14.160,0
1582565892.065,9.277,48.340,43.457,12.207,0
1582565892.069,4.395,30.273,41.992,7.324,0
1582565892.073,8.789,14.648,27.832,9.766,0
1582565892.077,18.066,22.949,24.414,16.113,0
1582565892.079,25.391,37.109,35.156,13.184,0
1582565892.083,26.367,48.340,32.227,12.207,0
1582565892.087,21.484,42.969,27.832,18.066,0
1582565892.091,25.879,45.410,33.203,19.043,0
1582565892.095,34.668,44.922,39.062,22.461,0
1582565892.099,22.461,30.273,40.527,18.555,0
1582565892.103,14.160,28.809,36.133,15.625,0
1582565892.106,12.207,32.227,35.156,15.625,0
1582565892.110,18.066,24.902,33.691,12.207,0
1582565892.114,18.066,26.855,35.645,15.625,0
1582565892.118,19.043,34.180,34.180,16.602,0
1582565892.122,22.461,44.922,31.738,13.184,0
1582565892.124,18.066,54.199,21.484,12.695,0
1582565892.128,21.484,46.387,22.949,19.043,0
1582565892.132,22.949,34.668,33.691,21.484,0
1582565892.136,14.648,26.367,35.156,19.043,0
1582565892.140,12.207,16.113,42.480,17.090,0
1582565892.144,20.508,21.484,48.340,25.391,0
1582565892.148,28.320,16.113,38.574,31.250,0
1582565892.151,22.949,9.277,26.855,23.438,0
1582565892.155,15.137,36.133,29.297,12.207,0
1582565892.159,15.137,54.199,37.598,8.789,0
1582565892.163,13.184,53.223,27.832,12.207,0
1582565892.167,6.836,44.922,18.066,10.742,0
1582565892.169,5.859,31.250,30.273,8.301,0
1582565892.173,15.137,21.484,35.156,10.742,0
1582565892.177,20.020,26.367,21.484,20.020,0
1582565892.181,19.043,39.551,17.578,20.996,0
1582565892.185,19.043,25.391,31.738,11.230,0
1582565892.189,17.578,26.855,46.387,9.277,0
1582565892.193,21.484,51.270,42.480,8.301,0
1582565892.196,17.578,40.527,25.391,6.348,0
1582565892.200,11.719,22.949,18.555,7.812,0
1582565892.204,18.066,32.715,27.344,12.695,0
1582565892.208,21.973,37.598,35.645,15.137,0
1582565892.212,17.578,41.992,26.367,9.766,0
1582565892.214,8.789,50.293,23.926,4.883,0
1582565892.218,8.789,34.668,29.297,5.859,0
1582565892.222,14.648,21.973,26.367,10.254,0
1582565892.226,12.207,7.812,26.367,7.812,0
1582565892.230,12.207,-2.441,18.066,6.348,0
1582565892.234,17.578,29.297,3.906,5.371,0
1582565892.238,24.902,49.805,14.648,3.418,0
1582565892.241,33.203,51.758,35.156,0.977,0
1582565892.245,39.551,59.082,37.598,0.488,0
1582565892.249,46.875,65.918,35.645,5.371,0
1582565892.253,44.922,49.316,31.250,3.906,0
1582565892.257,45.410,23.926,30.762,6.836,0
1582565892.274,36.133,13.184,30.762,12.207,0
1582565892.278,16.113,21.484,24.414,19.531,0
1582565892.282,18.555,38.086,11.719,22.461,0
1582565892.286,19.043,44.922,5.859,19.043,0
1582565892.290,16.602,52.734,21.973,20.996,0
1582565892.294,16.113,51.758,36.621,12.207,0
1582565892.298,9.277,42.969,41.016,2.441,0
1582565892.301,17.578,25.879,33.691,9.766,0
1582565892.305,20.996,17.090,24.414,20.508,0
1582565892.309,9.277,24.414,29.297,16.602,0
1582565892.313,5.371,32.227,29.297,6.348,0
1582565892.317,0.488,37.109,25.879,-2.441,0
1582565892.319,-1.465,41.992,23.926,-1.465,0
1582565892.323,6.348,42.480,22.461,0.977,0
1582565892.327,11.719,33.691,25.391,3.418,0
1582565892.331,14.160,24.902,27.832,11.230,0
1582565892.335,11.719,22.949,23.438,10.742,0
1582565892.339,4.883,16.113,20.020,8.789,0
1582565892.343,8.789,8.301,35.156,15.625,0
1582565892.346,22.949,21.973,52.734,25.879,0
1582565892.350,28.809,42.480,48.828,29.297,0
1582565892.354,24.414,52.246,32.715,24.414,0
1582565892.358,18.555,44.922,24.902,11.719,0
1582565892.362,13.184,19.043,17.578,8.789,0
1582565892.364,12.695,19.043,18.555,8.789,0
1582565892.368,13.672,28.809,23.926,7.812,0
1582565892.372,8.301,22.461,24.902,10.742,0
1582565892.376,-5.371,34.180,30.762,-6.836,0
1582565892.380,4.883,41.992,36.133,-3.906,0
1582565892.384,21.973,34.668,40.039,15.137,0
1582565892.388,21.973,38.574,37.598,10.254,0
1582565892.391,16.113,37.598,21.973,-1.953,0
1582565892.395,18.066,30.762,14.160,-4.883,0
1582565892.399,17.090,24.414,17.090,4.883,0
1582565892.403,12.207,21.973,15.137,7.812,0
1582565892.407,2.441,17.578,18.555,3.906,0
1582565892.409,10.254,18.555,24.414,7.324,0
1582565892.413,23.438,46.387,31.250,2.441,0
1582565892.417,21.973,54.199,29.297,-4.395,0
1582565892.421,13.184,44.434,32.715,6.348,0
1582565892.425,14.160,42.969,32.715,9.766,0
1582565892.429,24.414,42.969,20.508,3.418,0
1582565892.433,23.438,30.273,25.879,4.395,0
1582565892.436,24.414,23.926,35.645,14.648,0
1582565892.440,14.648,19.043,37.598,12.207,0
1582565892.444,17.578,15.625,34.668,18.555,0
1582565892.448,42.480,43.945,23.926,28.320,0
1582565892.452,44.434,54.199,18.555,19.531,0
1582565892.454,25.391,40.039,25.879,20.508,0
1582565892.458,36.133,38.086,39.062,34.668,0
1582565892.462,46.387,34.668,39.551,24.902,0
1582565892.466,37.109,32.227,41.016,17.090,0
1582565892.470,40.527,39.062,39.062,20.996,0
1582565892.474,35.645,38.086,30.762,15.137,0
1582565892.478,35.156,42.480,28.320,20.020,0
1582565892.481,35.645,44.922,33.203,25.391,0
1582565892.485,26.367,37.109,28.320,19.531,0
1582565892.489,28.809,31.738,21.973,12.695,0
1582565892.493,29.297,39.551,24.414,17.090,0
1582565892.497,33.203,46.875,29.785,24.902,0
1582565892.499,37.598,43.457,37.598,24.414,0
1582565892.503,25.879,23.438,36.621,15.625,0
1582565892.507,23.438,13.672,32.715,9.766,0
1582565892.511,35.645,26.855,32.227,25.391,0
1582565892.515,35.645,33.691,36.133,21.973,0
1582565892.519,13.184,38.574,35.156,3.418,0
1582565892.523,7.324,42.969,32.227,9.766,0
1582565892.526,28.320,49.316,35.156,12.695,0
1582565892.530,26.367,48.340,34.668,5.371,0
1582565892.534,10.254,40.039,35.156,14.648,0
1582565892.538,24.414,40.527,22.949,9.766,0
1582565892.542,26.855,26.367,18.066,8.789,0
1582565892.544,29.297,23.926,23.438,23.926,0
1582565892.548,33.691,40.527,24.414,30.762,0
1582565892.552,32.227,35.645,24.902,29.785,0
1582565892.556,38.574,16.602,21.484,22.461,0
1582565892.560,24.414,21.484,23.926,5.371,0
1582565892.564,29.785,41.504,33.203,5.371,0
1582565892.568,36.133,38.086,40.527,27.344,0
1582565892.571,19.043,35.156,37.109,24.414,0
1582565892.575,4.883,40.039,34.180,12.695,0
1582565892.579,7.324,37.598,28.320,23.438,0
1582565892.583,6.836,28.809,19.531,27.344,0
1582565892.587,14.648,27.832,19.043,1.953,0
1582565892.588,25.391,31.250,32.227,9.766,0
1582565892.592,17.578,38.574,34.668,33.203,0
1582565892.596,12.207,29.785,20.020,11.719,0
1582565892.600,10.254,9.277,24.414,-4.883,0
1582565892.604,13.184,23.926,34.668,14.160,0
1582565892.608,1.953,36.621,26.855,26.855,0
1582565892.612,-0.488,31.250,21.973,19.043,0
1582565892.615,14.648,30.273,23.438,10.254,0
1582565892.619,30.273,36.133,21.973,15.137,0
1582565892.623,35.645,38.086,35.156,29.297,0
1582565892.627,18.066,36.621,44.922,28.320,0
1582565892.631,4.883,21.973,36.621,12.207,0
1582565892.648,10.742,13.672,32.227,16.602,0
1582565892.652,11.230,25.391,35.156,21.973,0
1582565892.656,11.719,35.156,24.414,28.320,0
1582565892.660,19.043,42.969,15.625,25.391,0
1582565892.664,18.555,37.109,27.832,25.879,0
1582565892.668,7.812,38.086,31.738,24.902,0
1582565892.672,18.066,36.133,24.414,15.137,0
1582565892.675,26.855,36.133,19.043,19.043,0
1582565892.679,20.508,38.574,22.461,28.320,0
1582565892.683,12.207,27.832,34.180,27.344,0
1582565892.687,16.602,30.762,38.574,19.531,0
1582565892.691,30.273,40.527,36.621,18.066,0
1582565892.693,9.766,38.086,31.250,19.043,0
1582565892.697,9.277,27.344,26.855,15.625,0
1582565892.701,31.738,23.926,26.367,18.066,0
1582565892.705,20.996,36.621,28.320,16.602,0
1582565892.709,5.859,45.410,26.855,2.930,0
1582565892.713,10.742,48.340,32.227,3.418,0
1582565892.717,11.230,39.551,37.109,6.836,0
1582565892.720,4.395,32.715,40.527,17.578,0
1582565892.724,9.766,25.391,45.410,31.250,0
1582565892.728,5.859,20.020,39.062,29.297,0
1582565892.732,20.020,35.156,27.344,17.578,0
1582565892.736,40.527,41.504,28.809,17.578,0
1582565892.738,16.113,21.973,42.480,27.832,0
1582565892.742,-2.930,24.902,43.457,13.184,0
1582565892.746,9.766,39.062,38.086,22.461,0
1582565892.750,15.625,32.715,41.016,43.457,0
1582565892.754,3.906,31.738,41.992,11.230,0
1582565892.758,12.207,29.785,35.156,-22.949,0
1582565892.762,3.906,22.949,34.668,0.000,0
1582565892.765,1.953,27.832,32.227,-9.766,0
1582565892.769,8.789,38.574,31.250,-14.648,0
1582565892.773,-6.348,39.062,32.227,4.883,0
1582565892.777,-12.207,27.832,34.668,-5.371,0
1582565892.781,1.465,24.414,37.109,-4.883,0
1582565892.783,3.418,33.203,32.227,-17.578,0
1582565892.787,-9.766,20.996,28.320,-19.531,0
1582565892.791,-9.766,10.254,30.762,-14.648,0
1582565892.795,-7.324,28.320,39.062,-20.508,0
1582565892.799,-14.648,32.715,43.945,-13.672,0
1582565892.803,-20.996,34.180,41.504,-1.953,0
1582565892.807,-18.555,39.062,43.945,-3.906,0
1582565892.810,-21.973,26.367,43.945,-10.254,0
1582565892.814,-28.809,20.508,40.527,-3.418,28210
1582565892.818,-13.672,32.227,35.156,0.000,0
1582565892.822,-20.996,34.668,32.715,-4.883,0
1582565892.826,-31.738,27.832,32.715,7.324,0
1582565892.828,-21.484,21.973,36.621,-2.930,0
1582565892.832,-3.906,12.695,43.457,-10.254,0
1582565892.836,-2.930,29.785,39.551,3.418,0
1582565892.840,-17.090,33.203,41.016,25.879,0
1582565892.844,14.160,20.020,44.922,54.199,0
1582565892.848,36.133,27.344,30.762,62.988,0
1582565892.852,40.527,35.645,25.391,50.293,0
1582565892.855,17.090,44.922,26.855,27.832,0
1582565892.859,20.996,40.527,27.344,79.102,0
1582565892.863,32.715,36.621,27.344,70.801,0
1582565892.867,49.316,44.434,17.578,26.367,0
1582565892.871,54.199,38.574,18.066,35.645,0
1582565892.873,19.531,43.457,18.066,19.531,0
1582565892.877,-9.766,31.738,29.297,14.648,0
1582565892.881,8.789,22.461,24.902,11.230,0
1582565892.885,30.762,40.527,11.719,-21.973,0
1582565892.889,42.969,39.551,19.043,26.855,0
1582565892.893,45.410,23.926,22.949,25.391,0
1582565892.897,15.137,13.672,7.324,-17.090,0
1582565892.900,12.695,10.742,6.348,36.621,0
1582565892.904,4.395,3.418,42.969,34.668,0
1582565892.908,8.789,10.742,37.109,39.551,0
1582565892.912,39.551,34.180,12.695,35.645,0
1582565892.916,37.598,40.039,33.203,11.719,0
1582565892.918,27.832,40.039,37.109,31.738,0
1582565892.922,29.785,47.363,20.996,40.527,0
1582565892.926,26.367,40.527,40.527,32.227,0
1582565892.930,-10.742,35.156,58.105,-3.418,0
1582565892.934,-4.883,42.480,31.738,5.371,0
1582565892.938,5.859,40.527,13.672,22.949,0
1582565892.942,41.016,15.137,20.996,68.359,0
1582565892.945,48.828,11.719,24.902,53.223,0
1582565892.949,20.996,31.738,22.949,40.039,0
1582565892.953,22.949,22.461,47.852,47.852,0
1582565892.957,26.367,29.785,43.457,31.250,0
1582565892.961,59.570,42.480,15.137,38.086,0
1582565892.963,42.969,33.203,31.250,22.949,0
1582565892.967,20.508,38.574,23.438,18.066,0
1582565892.971,14.648,36.133,26.855,-1.465,0
1582565892.975,48.340,29.785,27.832,38.086,0
1582565892.979,51.270,40.527,19.043,52.246,0
1582565892.983,46.875,23.438,35.156,41.016,0
1582565892.987,48.340,28.320,33.203,47.852,0
1582565892.990,-2.441,45.410,35.645,-18.555,0
1582565892.994,-16.113,39.062,30.273,-54.688,0
1582565892.998,46.387,47.363,3.418,31.250,0
1582565893.002,64.941,52.734,10.742,61.035,0
1582565893.006,34.668,39.062,40.039,39.062,0
1582565893.024,29.297,30.762,36.621,52.734,0
1582565893.028,46.875,27.344,28.320,28.809,0
1582565893.032,40.039,19.043,37.598,-10.742,0
1582565893.036,33.691,26.855,34.668,34.180,0
1582565893.040,35.645,39.551,29.297,42.480,0
1582565893.044,48.340,39.551,20.020,32.715,0
1582565893.048,41.016,39.551,18.066,32.227,0
1582565893.051,39.062,38.574,20.020,43.457,0
1582565893.055,46.875,37.109,38.574,65.430,0
1582565893.059,37.109,30.762,43.457,10.742,0
1582565893.063,64.453,47.852,2.930,69.336,0
1582565893.067,35.645,44.434,28.809,36.133,0
1582565893.069,48.828,37.598,30.273,1.953,0
1582565893.073,31.250,50.781,10.254,27.832,0
1582565893.077,41.016,41.016,14.160,59.082,0
1582565893.081,91.797,23.438,25.391,93.262,0
1582565893.085,56.641,20.508,33.203,52.246,0
1582565893.089,29.785,18.555,43.945,5.371,0
1582565893.093,30.273,36.621,24.902,55.664,0
1582565893.096,56.641,45.410,29.297,57.617,0
1582565893.100,49.805,55.664,25.879,-3.906,0
1582565893.104,40.039,61.035,13.184,25.879,0
1582565893.108,58.105,57.129,14.648,40.039,0
1582565893.112,42.969,46.387,8.301,-0.488,0
1582565893.114,51.270,37.109,15.625,16.113,0
1582565893.118,74.219,45.898,15.137,78.613,0
1582565893.122,27.344,37.598,26.367,-10.254,0
1582565893.126,-2.930,32.715,25.879,-63.965,0
1582565893.130,30.762,35.156,13.672,44.922,0
1582565893.134,21.484,18.555,27.832,70.801,0
1582565893.138,-5.859,27.344,23.438,32.715,0
1582565893.141,-7.324,31.738,31.250,32.227,0
1582565893.145,-19.043,20.996,31.250,-17.578,0
1582565893.149,26.855,29.297,17.090,-10.254,0
1582565893.153,33.203,51.758,20.508,54.688,0
1582565893.157,1.953,41.016,38.574,46.387,0
1582565893.159,24.414,16.602,40.039,38.574,0
1582565893.163,40.039,25.879,31.738,35.156,0
1582565893.167,14.160,41.016,32.715,38.086,0
1582565893.171,-20.996,45.410,20.020,19.043,0
1582565893.175,-21.484,49.316,15.625,-5.859,0
1582565893.179,21.973,33.203,21.973,40.527,0
1582565893.183,38.574,6.348,36.621,49.805,0
1582565893.186,11.719,27.832,32.227,-8.789,0
1582565893.190,16.602,58.594,4.883,4.395,0
1582565893.194,14.648,46.875,22.949,-15.137,0
1582565893.198,11.719,20.508,43.457,-7.812,0
1582565893.202,20.508,21.484,26.855,89.355,0
1582565893.204,17.578,1.953,46.875,37.598,0
1582565893.208,31.250,11.719,26.855,21.973,0
1582565893.212,37.109,45.898,2.441,62.988,0
1582565893.216,23.926,28.809,28.320,32.227,0
1582565893.220,-7.324,31.250,17.578,-28.320,0
1582565893.224,2.441,48.340,13.184,-25.879,0
1582565893.228,37.598,55.176,18.066,34.180,0
1582565893.231,23.926,43.945,37.109,18.555,0
1582565893.235,10.742,35.156,35.156,-38.574,0
1582565893.239,12.207,40.039,11.230,24.902,0
1582565893.243,18.066,26.367,44.922,77.637,0
1582565893.247,-6.836,26.367,50.293,23.438,0
1582565893.249,-26.367,21.484,23.926,7.812,0
1582565893.253,75.684,12.695,22.949,66.406,0
1582565893.257,68.359,14.648,19.531,24.902,0
1582565893.261,42.969,25.391,25.879,-18.066,0
1582565893.265,64.941,52.734,20.508,54.688,0
1582565893.269,12.207,64.941,25.391,47.363,0
1582565893.273,-17.578,63.477,30.762,-78.125,0
1582565893.276,9.277,35.645,43.945,-87.891,0
1582565893.280,-4.395,27.344,37.109,-17.578,0
1582565893.284,30.273,51.270,-2.930,86.426,0
1582565893.288,-10.742,27.832,58.105,-11.230,0
1582565893.292,-30.273,37.598,28.320,-85.938,0
1582565893.294,41.504,53.711,-5.371,66.406,0
1582565893.298,65.430,31.250,37.598,33.691,0
1582565893.302,5.371,23.438,47.852,-18.555,0
1582565893.306,66.406,31.738,19.043,55.176,0
1582565893.310,71.289,25.879,13.672,23.438,0
1582565893.314,-13.672,18.555,31.250,12.207,0
1582565893.318,4.395,29.785,30.273,23.926,0
1582565893.321,13.184,44.434,39.062,-6.348,0
1582565893.325,39.062,70.801,1.465,0.000,0
1582565893.329,34.668,58.105,-7.324,59.082,0
1582565893.333,12.207,37.109,8.789,75.684,0
1582565893.337,22.949,31.250,-2.930,47.852,0
1582565893.339,-6.348,-1.953,31.250,30.273,0
1582565893.343,-14.160,8.301,38.574,30.273,0
1582565893.347,-3.906,38.574,14.160,-22.949,0
1582565893.351,-26.855,15.625,21.973,-62.988,0
1582565893.355,-12.207,28.809,34.180,4.395,0
1582565893.359,6.836,49.805,35.156,25.391,0
1582565893.363,35.645,19.531,37.109,7.812,0
1582565893.366,-4.883,19.043,46.875,-6.836,0
1582565893.370,17.090,50.781,11.719,10.742,0
1582565893.374,24.414,23.926,12.695,60.059,0
1582565893.378,-2.441,1.465,36.621,83.496,0
1582565893.382,45.898,40.527,16.113,28.320,0
1582565893.399,27.832,30.762,31.250,-0.977,0
1582565893.403,-23.438,20.508,28.809,-0.488,0
1582565893.407,-17.090,44.922,4.395,-21.484,0
1582565893.411,25.391,55.176,20.020,46.387,0
1582565893.415,17.090,53.711,34.180,28.809,0
1582565893.419,-20.020,46.875,35.645,-11.230,0
1582565893.423,-1.953,40.527,24.902,29.297,0
1582565893.426,-6.348,24.414,20.996,32.227,0
1582565893.430,-48.828,14.648,25.391,-29.297,0
1582565893.434,-51.270,35.645,20.020,-32.227,0
1582565893.438,20.508,45.898,13.672,-18.066,0
1582565893.442,-20.508,36.621,9.766,-17.090,0
1582565893.444,-50.293,37.598,15.137,17.090,0
1582565893.448,19.531,42.480,23.438,8.301,0
1582565893.452,9.766,41.504,43.457,46.387,0
1582565893.456,-15.137,35.156,41.504,-10.254,0
1582565893.460,-3.906,34.668,14.648,-23.926,0
1582565893.464,-37.109,36.621,37.598,0.977,0
1582565893.468,-31.738,41.504,48.340,-29.785,0
1582565893.471,-34.668,37.598,19.531,-49.316,0
1582565893.475,-106.934,17.090,45.410,-31.738,0
1582565893.479,-81.055,22.949,32.227,-33.691,0
1582565893.483,24.414,39.062,-10.742,7.324,0
1582565893.487,-18.066,30.273,14.160,20.996,0
1582565893.489,-35.645,19.043,38.086,-60.059,0
1582565893.493,-17.090,36.133,32.715,-73.242,0
1582565893.497,-28.320,59.082,34.180,22.461,0
1582565893.501,-7.324,73.242,43.457,35.156,0
1582565893.505,-65.430,53.711,26.855,-20.020,0
1582565893.509,-66.406,19.043,29.785,11.230,0
1582565893.513,-0.488,20.508,33.691,12.695,0
1582565893.516,-18.066,19.043,16.113,-25.879,0
1582565893.520,-45.898,29.297,5.859,-37.598,0
1582565893.524,-44.922,61.035,20.996,8.789,0
1582565893.528,-36.621,72.754,19.531,-61.035,0
1582565893.532,-45.898,65.430,20.508,-82.031,0
1582565893.534,-41.992,54.688,38.574,50.781,0
1582565893.538,-18.066,51.270,8.301,57.617,0
1582565893.542,-32.715,30.273,9.277,16.602,0
1582565893.546,-88.867,-4.883,29.785,-37.598,0
1582565893.550,-54.688,8.789,34.668,-7.324,0
1582565893.554,-36.133,46.387,20.020,1.953,0
1582565893.558,-79.102,40.039,12.695,-35.645,0
1582565893.561,-38.086,40.527,24.414,-6.348,0
1582565893.565,1.465,64.941,22.461,13.672,0
1582565893.569,-5.859,60.059,18.066,-0.977,0
1582565893.573,-50.781,38.574,18.555,10.254,0
1582565893.577,-57.617,19.531,32.227,12.695,0
1582565893.579,-17.578,21.973,24.902,-13.672,0
1582565893.583,-14.160,33.203,20.020,15.625,0
1582565893.587,-19.531,42.480,18.066,18.555,0
1582565893.591,-46.875,22.461,13.184,-17.578,0
1582565893.595,-67.383,14.648,13.672,-6.836,0
1582565893.599,-35.645,37.109,23.438,34.180,0
1582565893.603,-34.668,47.363,17.090,18.555,0
1582565893.606,-48.340,41.016,16.602,0.000,0
1582565893.610,-23.438,42.480,31.738,8.789,0
1582565893.614,-12.695,38.574,21.484,5.371,0
1582565893.618,-26.855,21.484,25.879,9.277,0
1582565893.622,-13.672,26.855,22.461,10.254,0
1582565893.624,-13.184,36.621,17.090,6.348,0
1582565893.628,-27.344,20.996,29.297,-16.602,0
1582565893.632,-20.020,25.391,26.855,8.789,0
1582565893.636,-20.020,45.898,26.367,35.645,0
1582565893.640,-25.879,47.852,33.691,13.184,0
1582565893.644,-17.090,32.227,35.645,14.160,0
1582565893.648,-28.320,28.809,29.785,2.441,0
1582565893.651,-56.152,32.715,33.691,-7.324,0
1582565893.655,-22.949,33.691,48.828,28.809,0
1582565893.659,2.930,49.805,41.992,30.762,0
1582565893.663,0.977,48.340,36.133,-0.977,0
1582565893.667,-27.344,41.504,41.992,-13.184,0
1582565893.669,-46.387,46.387,36.621,-21.973,0
1582565893.673,-61.523,43.945,40.039,-60.059,0
1582565893.677,-73.730,33.203,51.270,-75.195,0
1582565893.681,-78.613,39.062,57.129,-33.203,0
1582565893.685,-97.656,39.062,66.406,-70.312,0
1582565893.689,-105.957,30.273,67.383,-119.629,0
1582565893.693,-130.859,22.949,76.172,-125.488,0
1582565893.696,-159.180,22.949,82.520,-145.996,0
1582565893.700,-165.039,32.715,82.031,-151.855,0
1582565893.704,-166.992,39.551,83.984,-164.551,0
1582565893.708,-184.082,39.551,79.590,-214.844,0
1582565893.712,-202.148,27.344,71.777,-235.840,0
1582565893.714,-202.637,26.855,59.082,-194.824,0
1582565893.718,-200.684,29.297,69.336,-187.012,0
1582565893.722,-204.590,28.320,86.426,-217.773,0
1582565893.726,-198.730,27.832,85.449,-211.426,0
1582565893.730,-195.312,24.902,80.566,-190.918,0
1582565893.734,-199.707,35.156,79.590,-199.219,0
1582565893.738,-188.965,46.875,87.402,-194.824,0
1582565893.741,-158.691,59.082,85.938,-164.551,0
1582565893.745,-158.691,63.477,75.684,-171.387,0
1582565893.749,-168.457,50.293,68.848,-182.129,0
1582565893.753,-145.020,31.738,42.480,-138.672,0
1582565893.757,-110.352,30.273,37.598,-103.516,0
1582565893.774,-97.656,31.250,52.734,-112.305,0
1582565893.778,-86.914,29.297,47.363,-103.027,0
1582565893.782,-60.059,27.344,41.016,-56.641,0
1582565893.786,-41.992,34.180,36.621,-41.992,0
1582565893.790,-31.738,50.293,35.156,-53.223,0
1582565893.794,-20.996,44.434,36.621,-48.340,0
1582565893.798,-3.906,50.781,41.016,-5.371,0
1582565893.801,22.949,50.293,44.922,36.621,0
1582565893.805,35.156,21.484,38.574,30.273,0
1582565893.809,37.109,17.090,29.297,28.320,0
1582565893.813,36.621,25.391,22.461,37.598,0
1582565893.817,40.527,23.438,18.555,43.457,0
1582565893.818,51.758,22.461,20.020,26.367,0
1582565893.822,57.617,21.484,12.207,29.297,0
1582565893.826,61.523,13.184,13.184,69.824,0
1582565893.830,73.730,26.367,21.484,71.777,0
1582565893.834,80.566,50.293,16.602,80.078,0
1582565893.838,84.961,44.434,20.020,77.148,0
1582565893.842,83.008,26.367,19.531,43.945,0
1582565893.845,86.914,24.902,14.160,57.129,0
1582565893.849,102.539,27.832,6.348,94.727,0
1582565893.853,112.305,19.531,5.859,101.562,0
1582565893.857,102.539,21.973,19.531,110.352,0
1582565893.861,86.426,30.273,16.113,101.074,0
1582565893.864,87.402,26.367,1.465,62.500,0
1582565893.868,101.562,23.438,-2.930,51.758,0
1582565893.872,112.305,33.203,16.113,86.914,0
1582565893.876,141.602,46.875,13.672,120.117,0
1582565893.880,148.926,43.945,3.906,111.816,0
1582565893.884,121.582,35.156,11.719,92.773,0
1582565893.888,109.375,36.133,11.230,86.914,0
1582565893.891,120.117,32.715,12.207,96.191,0
1582565893.895,113.281,14.160,21.484,89.844,0
1582565893.899,104.004,17.578,20.020,87.891,0
1582565893.903,103.027,45.410,13.184,99.609,0
1582565893.907,100.098,43.945,9.766,97.656,0
1582565893.908,98.145,32.227,16.602,96.680,0
1582565893.912,115.723,41.504,18.066,104.492,0
1582565893.916,118.164,44.922,14.648,111.328,0
1582565893.920,105.957,40.527,19.043,97.168,0
1582565893.924,96.191,38.574,14.648,83.496,0
1582565893.928,83.008,45.410,13.184,78.125,0
1582565893.932,82.520,29.785,18.555,78.125,0
1582565893.935,78.613,18.555,17.578,83.984,0
1582565893.939,90.820,37.598,16.113,96.680,0
1582565893.943,96.191,34.668,22.461,87.402,0
1582565893.947,99.121,41.992,29.785,83.008,0
1582565893.951,90.820,50.781,35.156,94.727,0
1582565893.953,61.523,38.574,31.250,69.336,0
1582565893.957,58.594,35.156,12.695,51.758,0
1582565893.961,72.754,37.109,-1.465,71.289,0
1582565893.965,72.266,36.133,6.836,74.219,0
1582565893.969,64.941,30.273,13.672,63.965,0
1582565893.973,63.965,31.250,13.184,66.406,0
1582565893.977,72.266,27.832,22.949,74.707,0
1582565893.980,94.238,9.277,27.344,79.102,0
1582565893.984,82.520,20.508,17.090,57.617,0
1582565893.988,50.293,51.758,18.555,32.227,0
1582565893.992,39.062,50.293,13.184,36.133,28211
1582565893.996,43.945,34.180,7.324,47.852,0
1582565893.998,46.875,39.062,10.742,33.691,0
1582565894.002,48.340,37.109,5.859,39.062,0
1582565894.006,49.316,23.926,12.695,54.688,0
1582565894.010,47.363,35.156,27.832,41.504,0
1582565894.014,39.551,29.297,20.996,54.199,0
1582565894.018,50.293,17.090,19.043,56.152,0
1582565894.022,68.848,34.668,23.926,44.922,0
1582565894.025,68.848,50.781,20.996,45.410,0
1582565894.029,58.594,46.875,22.949,43.945,0
1582565894.033,46.387,32.227,24.414,38.086,0
1582565894.037,43.945,29.785,20.508,32.227,0
1582565894.041,56.641,43.457,19.531,42.480,0
1582565894.043,53.223,44.434,26.855,32.715,0
1582565894.047,43.945,34.668,15.625,25.391,0
1582565894.051,47.363,37.109,4.395,41.016,0
1582565894.055,49.316,35.156,22.949,38.574,0
1582565894.059,64.941,26.855,27.832,49.316,0
1582565894.063,43.945,18.555,26.367,33.203,0
1582565894.067,22.461,28.320,29.297,12.207,0
1582565894.070,43.945,38.574,27.344,42.969,0
1582565894.074,61.035,34.668,31.738,52.246,0
1582565894.078,54.199,36.133,35.156,32.715,0
1582565894.082,38.086,24.414,34.180,35.645,0
1582565894.086,32.227,24.902,23.926,27.832,0
1582565894.088,22.949,34.180,11.230,11.719,0
1582565894.092,33.203,36.133,13.184,26.855,0
1582565894.096,44.434,12.695,29.785,34.180,0
1582565894.100,31.250,6.836,20.996,16.602,0
1582565894.104,28.809,43.457,8.301,23.926,0
1582565894.108,29.785,44.434,30.762,35.645,0
1582565894.112,36.621,42.480,26.855,29.297,0
1582565894.115,41.504,48.340,14.648,30.273,0
1582565894.119,38.574,37.598,21.484,20.508,0
1582565894.123,41.016,36.133,22.461,30.273,0
1582565894.127,42.480,37.109,20.996,48.828,0
1582565894.131,16.602,27.832,30.273,22.461,0
1582565894.148,8.789,27.344,33.691,21.973,0
1582565894.152,31.250,28.320,31.738,32.715,0
1582565894.156,30.762,33.203,36.621,25.391,0
1582565894.160,15.137,36.621,29.785,19.531,0
1582565894.164,22.461,40.527,29.785,37.109,0
1582565894.168,41.504,44.434,20.996,47.363,0
1582565894.172,48.340,25.391,6.836,35.645,0
1582565894.175,34.180,8.789,20.020,21.973,0
1582565894.179,16.113,22.461,20.508,10.742,0
1582565894.183,24.414,49.805,12.207,28.320,0
1582565894.187,34.668,57.129,23.438,28.809,0
1582565894.191,17.578,43.945,34.180,14.648,0
1582565894.193,10.254,26.367,37.598,16.602,0
1582565894.197,16.113,36.133,23.438,15.625,0
1582565894.201,21.973,40.039,22.949,23.926,0
1582565894.205,39.551,12.695,44.434,33.203,0
1582565894.209,41.504,12.695,35.645,20.508,0
1582565894.213,34.668,44.434,20.508,22.461,0
1582565894.217,15.137,55.176,18.555,19.531,0
1582565894.220,10.742,43.457,5.859,0.488,0
1582565894.224,23.926,38.574,13.672,20.996,0
1582565894.228,26.855,27.344,28.320,33.691,0
1582565894.232,42.969,12.695,30.273,23.926,0
1582565894.236,37.598,16.113,35.156,25.879,0
1582565894.239,18.555,25.879,34.180,24.902,0
1582565894.243,32.227,52.734,24.902,27.832,0
1582565894.247,37.109,67.383,19.531,35.645,0
1582565894.251,31.738,55.664,21.973,41.016,0
1582565894.255,34.180,46.387,24.414,33.203,0
1582565894.259,19.531,44.922,18.066,25.391,0
1582565894.263,26.367,28.809,19.531,38.086,0
1582565894.266,25.879,17.090,25.879,36.621,0
1582565894.270,27.832,16.602,34.180,35.156,0
1582565894.274,33.203,27.832,45.898,26.855,0
1582565894.278,22.949,49.316,42.480,13.672,0
1582565894.282,44.434,52.734,33.203,36.621,0
1582565894.284,36.621,59.082,23.926,31.738,0
1582565894.288,12.207,53.223,17.578,15.625,0
1582565894.292,10.254,24.414,24.902,18.066,0
1582565894.296,8.301,6.836,37.598,27.832,0
1582565894.300,21.484,22.461,33.203,24.902,0
1582565894.304,39.062,37.109,25.391,17.090,0
1582565894.308,42.480,37.598,33.691,18.555,0
1582565894.311,33.203,40.039,36.621,29.785,0
1582565894.315,29.785,41.504,45.898,35.156,0
1582565894.319,26.367,40.039,37.598,43.945,0
1582565894.323,20.020,40.527,27.832,42.480,0
1582565894.327,27.832,48.340,40.527,34.668,0
1582565894.329,26.367,45.410,45.410,35.645,0
1582565894.333,26.855,39.551,28.320,32.715,0
1582565894.337,34.180,29.785,17.090,33.691,0
1582565894.341,38.574,21.973,23.438,36.621,0
1582565894.345,30.762,29.785,24.414,38.086,0
1582565894.349,27.344,46.387,25.879,43.457,0
1582565894.353,26.855,37.598,41.016,45.898,0
1582565894.356,23.926,36.133,43.945,27.344,0
1582565894.360,29.297,41.504,27.832,34.668,0
1582565894.364,19.043,36.133,20.020,43.457,0
1582565894.368,21.484,42.969,30.762,38.574,0
1582565894.372,18.555,43.945,37.109,25.391,0
1582565894.374,19.531,35.156,27.832,25.879,0
1582565894.378,39.062,19.043,21.973,35.645,0
1582565894.382,32.227,10.254,29.785,14.648,0
1582565894.386,12.207,22.949,38.086,7.812,0
1582565894.390,12.207,38.086,39.062,16.113,0
1582565894.394,24.902,39.551,43.945,19.531,0
1582565894.398,24.902,36.133,31.738,20.020,0
1582565894.401,20.508,40.039,24.902,20.508,0
1582565894.405,21.484,41.992,33.203,10.742,0
1582565894.409,37.109,41.504,22.461,21.973,0
1582565894.413,31.250,37.598,24.414,35.156,0
1582565894.417,20.996,34.180,50.293,29.785,0
1582565894.419,32.227,32.227,41.504,34.180,0
1582565894.423,26.367,28.320,29.785,24.902,0
1582565894.427,21.973,29.785,30.762,20.996,0
1582565894.431,25.879,36.621,23.438,26.367,0
1582565894.435,33.691,40.039,26.367,25.879,0
1582565894.439,44.922,35.645,22.949,33.203,0
1582565894.443,33.203,34.180,31.250,28.809,0
1582565894.446,21.973,22.461,37.109,20.508,0
1582565894.450,20.020,28.809,34.180,11.230,0
1582565894.454,24.902,41.016,35.645,9.277,0
1582565894.458,23.438,38.086,36.133,22.461,0
1582565894.462,15.137,35.156,30.762,20.508,0
1582565894.464,13.184,33.691,33.203,15.137,0
1582565894.468,19.043,36.133,43.945,19.531,0
1582565894.472,31.250,33.691,34.180,21.973,0
1582565894.476,32.227,32.227,16.113,22.461,0
1582565894.480,20.996,39.062,31.738,18.066,0
1582565894.484,23.438,43.945,40.527,18.555,0
1582565894.488,23.926,48.828,42.969,15.137,0
1582565894.491,18.555,40.039,37.598,20.996,0
1582565894.495,20.996,29.297,28.320,33.203,0
1582565894.499,16.602,20.508,28.809,27.832,0
1582565894.503,22.461,22.949,22.949,28.320,0
1582565894.507,30.762,25.391,31.250,29.297,0
1582565894.524,16.602,23.438,29.297,16.602,0
1582565894.528,10.254,30.762,22.949,18.555,0
1582565894.532,28.320,38.574,37.109,33.203,0
1582565894.536,28.320,44.434,36.621,30.273,0
1582565894.540,21.484,37.598,33.691,25.879,0
1582565894.544,18.066,38.086,41.504,24.902,0
1582565894.548,33.691,46.387,26.367,17.090,0
1582565894.551,33.203,31.738,14.648,9.766,0
1582565894.555,19.043,20.996,24.902,14.648,0
1582565894.559,10.742,23.438,37.109,10.742,0
1582565894.563,11.719,29.297,37.598,15.137,0
1582565894.567,30.762,37.109,32.227,20.508,0
1582565894.569,28.809,43.945,33.691,6.836,0
1582565894.573,20.996,41.504,36.133,18.066,0
1582565894.577,14.648,30.273,23.438,21.484,0
1582565894.581,10.742,23.926,16.602,12.207,0
1582565894.585,17.090,25.879,22.949,23.926,0
1582565894.589,19.043,19.531,31.250,17.578,0
1582565894.593,11.719,22.949,36.621,4.883,0
1582565894.596,19.531,41.992,36.621,0.977,0
1582565894.600,27.832,41.016,26.855,8.301,0
1582565894.604,28.320,41.992,20.996,7.812,0
1582565894.608,34.180,45.898,41.992,-6.348,0
1582565894.612,41.992,36.621,43.457,-2.441,0
1582565894.614,52.734,29.785,25.391,9.277,0
1582565894.618,43.945,34.180,27.832,23.438,0
1582565894.622,36.133,35.645,42.480,43.945,0
1582565894.626,32.227,21.973,37.598,34.668,0
1582565894.630,24.902,22.949,28.809,16.113,0
1582565894.634,20.996,34.180,25.879,16.113,0
1582565894.638,16.602,30.762,26.855,15.137,0
1582565894.641,20.020,34.180,23.438,11.719,0
1582565894.645,7.812,31.250,24.414,6.348,0
1582565894.649,9.766,33.203,24.414,13.672,0
1582565894.653,28.809,41.504,21.484,20.508,0
1582565894.657,21.484,34.668,33.203,15.625,0
1582565894.659,16.602,33.203,44.922,19.043,0
1582565894.663,9.277,41.992,44.434,20.996,0
1582565894.667,7.812,43.457,37.598,23.438,0
1582565894.671,17.578,38.574,40.039,29.785,0
1582565894.675,17.578,24.414,33.691,21.973,0
1582565894.679,18.555,15.625,16.113,21.484,0
1582565894.683,20.508,33.203,18.066,25.879,0
1582565894.686,19.531,42.480,30.762,20.508,0
1582565894.690,23.438,43.457,30.273,14.648,0
1582565894.694,18.066,43.945,36.621,12.207,0
1582565894.698,16.602,44.922,35.156,17.578,0
1582565894.702,23.438,39.551,32.715,23.926,0
1582565894.704,22.461,26.855,40.039,22.949,0
1582565894.708,22.949,15.137,24.414,14.648,0
1582565894.712,36.133,28.809,23.926,13.184,0
1582565894.716,22.461,49.805,43.457,21.484,0
1582565894.720,10.742,48.828,32.715,13.672,0
1582565894.724,5.859,36.133,21.484,1.953,0
1582565894.728,4.395,28.809,19.043,6.348,0
1582565894.731,27.344,28.809,24.414,10.254,0
1582565894.735,25.879,34.668,37.109,8.301,0
1582565894.739,10.742,27.344,33.203,5.371,0
1582565894.743,7.324,26.367,22.461,-6.348,0
1582565894.747,8.301,39.551,25.391,4.883,0
1582565894.749,19.531,48.340,35.156,20.996,0
1582565894.753,24.902,56.641,31.250,8.301,0
1582565894.757,31.250,41.016,21.484,10.742,0
1582565894.761,31.250,33.203,21.484,7.812,0
1582565894.765,19.043,38.086,33.203,-5.371,0
1582565894.769,0.488,36.133,18.066,4.883,0
1582565894.773,7.324,26.367,7.812,27.344,0
1582565894.776,27.344,25.879,27.344,26.855,0
1582565894.780,24.902,34.668,30.273,28.320,0
1582565894.784,16.602,31.250,34.668,26.367,0
1582565894.788,19.531,35.645,37.109,8.789,0
1582565894.792,30.273,47.852,27.344,11.719,0
1582565894.794,32.715,44.434,34.668,23.438,0
1582565894.798,22.949,36.133,30.273,15.625,0
1582565894.802,20.996,27.832,16.602,16.113,0
1582565894.806,27.832,29.297,22.949,21.973,0
1582565894.810,24.902,39.551,24.902,13.672,0
1582565894.814,20.508,30.762,29.785,10.254,0
1582565894.818,21.973,30.762,35.156,14.648,0
1582565894.821,21.973,37.598,30.762,-7.324,0
1582565894.825,26.367,43.945,22.949,-6.348,0
1582565894.829,28.320,53.711,29.785,25.391,0
1582565894.833,18.066,37.109,31.250,26.855,0
1582565894.837,11.230,28.809,31.738,14.648,0
1582565894.868,21.484,43.945,33.691,20.508,0
1582565894.872,17.090,42.480,25.879,13.184,0
1582565894.876,10.742,32.227,26.367,7.812,0
1582565894.880,20.996,26.855,27.832,20.996,0
1582565894.884,21.484,29.297,28.320,29.297,0
1582565894.888,25.391,37.598,30.762,28.320,0
1582565894.892,20.020,35.156,28.320,17.090,0
1582565894.895,20.508,30.762,34.180,25.879,0
1582565894.899,20.508,33.203,31.250,21.973,0
1582565894.903,7.812,24.414,25.879,6.348,0
1582565894.907,18.555,5.859,26.855,21.484,0
1582565894.911,26.855,15.137,11.719,27.344,0
1582565894.898,11.230,34.668,16.113,23.438,0
1582565894.902,7.324,40.527,31.250,17.578,0
1582565894.906,11.719,40.039,35.156,11.719,0
1582565894.910,23.438,45.410,41.016,20.508,0
1582565894.914,28.809,52.246,37.109,27.344,0
1582565894.918,28.809,44.434,29.785,28.320,0
1582565894.922,25.879,25.879,29.297,21.973,0
1582565894.925,24.902,21.484,26.855,17.578,0
1582565894.929,31.738,29.297,20.508,23.926,0
1582565894.933,28.809,36.621,25.391,11.719,0
1582565894.937,15.137,37.598,17.578,17.090,0
1582565894.941,17.578,40.039,20.508,27.344,0
1582565894.943,14.160,43.457,32.715,20.020,0
1582565894.947,13.184,37.109,29.297,16.602,0
1582565894.951,23.438,27.832,32.715,22.461,0
1582565894.955,26.855,27.344,35.645,30.762,0
1582565894.959,24.414,38.086,29.297,23.926,0
1582565894.963,24.902,40.527,26.367,17.090,0
1582565894.967,23.926,41.016,27.344,16.602,0
1582565894.970,22.949,41.992,32.715,18.066,0
1582565894.974,25.391,33.203,31.250,20.996,0
1582565894.978,29.785,33.203,29.785,20.020,0
1582565894.982,20.996,29.297,28.320,32.227,0
1582565894.986,24.414,25.879,30.273,31.738,0
1582565894.988,23.438,36.621,34.668,22.461,0
1582565894.992,7.324,30.273,29.785,14.160,0
1582565894.996,15.137,30.762,31.250,4.395,0
1582565895.000,24.414,39.062,33.691,16.113,0
1582565895.004,25.391,31.250,34.180,20.020,0
1582565895.008,27.344,36.621,32.715,13.184,0
1582565895.012,30.273,40.039,36.621,20.996,0
1582565895.015,39.551,32.715,33.203,35.645,0
1582565895.019,36.621,29.297,27.832,35.645,0
1582565895.023,36.621,28.809,29.785,22.461,0
1582565895.027,33.203,38.086,26.855,21.973,0
1582565895.031,33.691,27.832,25.879,29.785,28021
1582565895.048,40.527,15.625,27.344,26.367,0
1582565895.052,21.973,29.785,27.832,12.207,0
1582565895.056,12.695,36.621,31.250,4.883,0
1582565895.060,24.414,24.902,36.621,16.113,0
1582565895.064,28.320,24.902,37.109,22.949,0
1582565895.068,20.996,35.156,28.320,18.555,0
1582565895.072,19.531,41.504,22.461,17.090,0
1582565895.075,30.273,36.621,23.926,26.367,0
1582565895.079,34.180,32.227,26.367,27.344,0
1582565895.083,33.691,29.297,27.832,28.320,0
1582565895.087,44.922,6.348,30.762,28.320,0
1582565895.091,42.480,5.859,26.367,20.996,0
1582565895.078,20.996,23.438,45.898,17.578,0
1582565895.082,21.973,38.574,43.945,16.602,0
1582565895.086,34.668,44.922,26.367,21.484,0
1582565895.090,37.598,49.316,37.109,19.043,0
1582565895.094,32.715,48.828,41.016,22.949,0
1582565895.098,26.367,45.410,30.762,26.367,0
1582565895.102,30.762,48.340,21.484,17.090,0
1582565895.105,36.133,34.180,30.762,19.043,0
1582565895.109,35.645,24.902,32.715,23.438,0
1582565895.113,33.203,22.949,23.926,23.438,0
1582565895.117,22.949,23.438,21.973,16.113,0
1582565895.121,15.625,26.855,21.973,13.184,0
1582565895.123,20.020,41.016,33.691,13.184,0
1582565895.127,23.926,50.781,38.086,11.230,0
1582565895.131,15.625,37.598,35.156,19.043,0
1582565895.135,11.230,37.598,35.645,21.484,0
1582565895.139,25.879,44.922,28.320,24.902,0
1582565895.143,21.973,42.480,30.762,24.902,0
1582565895.147,15.625,42.969,39.062,19.531,0
1582565895.150,31.250,30.273,33.691,31.250,0
1582565895.154,25.879,22.461,26.855,20.996,0
1582565895.158,12.207,20.508,31.738,11.719,0
1582565895.162,38.086,20.508,35.156,26.855,0
1582565895.166,39.062,32.715,35.156,10.254,0
1582565895.168,20.996,46.875,28.809,16.602,0
1582565895.172,35.156,50.781,31.250,34.668,0
1582565895.176,46.387,45.410,27.344,28.320,0
1582565895.180,35.156,43.457,24.414,22.461,0
1582565895.184,20.508,40.039,32.227,14.160,0
1582565895.188,25.391,39.551,20.996,18.555,0
1582565895.192,22.949,35.156,13.184,13.672,0
1582565895.195,21.484,19.531,25.391,8.789,0
1582565895.199,34.668,-4.883,27.344,6.348,0
1582565895.203,29.785,-4.883,20.996,-1.465,0
1582565895.207,25.879,21.484,22.461,8.301,0
1582565895.211,21.973,43.945,30.273,11.230,0
1582565895.213,16.113,52.734,41.016,10.254,0
1582565895.217,11.719,55.664,37.109,3.418,0
1582565895.221,7.324,48.828,30.762,0.488,0
1582565895.225,10.254,34.668,29.297,12.695,0
1582565895.229,5.371,22.461,20.996,14.648,0
1582565895.233,19.531,16.602,11.719,13.672,0
1582565895.237,40.039,27.832,15.625,23.438,0
1582565895.240,30.273,18.555,29.297,26.855,0
1582565895.244,20.996,12.695,36.133,22.949,0
1582565895.248,21.484,34.180,35.645,29.297,0
1582565895.252,23.926,48.828,29.297,18.555,0
1582565895.256,32.715,43.945,33.203,20.020,0
1582565895.274,18.555,33.203,45.410,29.297,0
1582565895.278,10.742,41.992,47.852,15.625,0
1582565895.282,28.320,39.062,41.504,22.461,0
1582565895.286,32.227,28.320,19.531,25.879,0
1582565895.290,37.109,27.344,13.672,25.879,0
1582565895.294,42.480,32.715,18.066,42.480,0
1582565895.298,39.062,34.180,23.438,33.203,0
1582565895.301,36.133,31.250,34.668,28.320,0
1582565895.305,37.598,46.875,25.391,26.367,0
1582565895.309,33.691,46.387,28.320,16.602,0
1582565895.313,22.949,33.691,45.410,13.672,0
1582565895.317,26.367,35.156,34.180,13.672,0
1582565895.319,41.992,40.039,25.879,22.461,0
1582565895.323,30.762,41.016,29.297,21.484,0
1582565895.327,21.973,37.598,26.367,12.207,0
1582565895.331,22.949,35.645,28.320,4.395,0
1582565895.335,29.785,23.926,21.973,6.836,0
1582565895.339,43.945,29.785,19.043,11.719,0
1582565895.343,29.297,46.387,24.902,7.324,0
1582565895.346,39.062,50.293,23.438,11.719,0
1582565895.350,62.988,50.781,23.926,20.020,0
1582565895.354,67.871,39.062,25.879,21.484,0
1582565895.358,50.781,31.738,27.832,19.531,0
1582565895.362,23.438,25.391,28.320,24.902,0
1582565895.364,14.648,24.902,31.738,28.320,0
1582565895.368,17.578,36.133,31.738,20.020,0
1582565895.372,19.043,33.691,27.344,19.043,0
1582565895.376,26.855,23.438,31.250,23.438,0
1582565895.380,33.203,31.250,33.203,35.156,0
1582565895.384,27.832,29.297,39.551,38.574,0
1582565895.388,28.809,25.391,34.180,26.367,0
1582565895.391,17.578,35.645,11.719,8.789,0
1582565895.395,21.484,48.828,6.836,21.973,0
1582565895.399,19.531,42.969,32.715,22.949,0
1582565895.403,8.789,26.367,45.410,7.812,0
1582565895.407,17.090,24.414,26.855,15.137,0
1582565895.409,17.578,26.367,21.973,20.020,0
1582565895.413,20.020,24.902,35.156,12.207,0
1582565895.417,20.508,27.832,33.691,16.602,0
1582565895.421,11.719,32.715,36.133,21.484,0
1582565895.425,7.324,35.156,34.668,8.789,0
1582565895.429,13.672,40.039,29.785,6.836,0
1582565895.433,21.484,37.109,29.297,20.996,0
1582565895.436,26.367,38.574,20.996,19.531,0
1582565895.440,25.391,36.133,14.648,16.113,0
1582565895.444,33.691,30.273,26.367,24.414,0
1582565895.448,27.832,41.016,35.156,15.137,0
1582565895.452,15.137,31.250,37.109,12.695,0
1582565895.454,11.719,18.555,41.016,18.066,0
1582565895.458,-0.488,28.809,37.109,18.066,0
1582565895.462,7.812,37.598,33.691,21.484,0
1582565895.466,20.508,41.016,28.809,20.020,0
1582565895.470,20.996,41.992,26.367,14.160,0
1582565895.474,24.414,40.039,36.621,9.277,0
1582565895.478,27.344,28.320,41.504,11.719,0
1582565895.481,31.738,28.320,34.668,13.672,0
1582565895.485,28.809,44.434,33.203,17.578,0
1582565895.489,3.906,41.504,30.762,12.207,0
1582565895.493,9.766,31.738,22.949,8.789,0
1582565895.497,21.973,31.738,18.066,15.137,0
1582565895.499,13.672,39.062,19.531,15.137,0
1582565895.503,10.742,49.316,31.738,16.602,0
1582565895.507,21.484,34.668,33.203,26.367,0
1582565895.511,28.320,21.973,28.809,18.066,0
1582565895.515,26.367,33.203,29.785,13.184,0
1582565895.519,21.484,41.992,27.832,16.602,0
1582565895.523,23.926,47.363,23.926,19.043,0
1582565895.526,21.484,42.480,27.344,15.625,0
1582565895.530,23.438,28.809,32.715,9.277,0
1582565895.534,23.438,21.484,27.344,7.812,0
1582565895.538,11.230,15.625,20.020,11.719,0
1582565895.542,15.137,10.254,15.137,17.578,0
1582565895.544,23.438,32.715,19.043,21.973,0
1582565895.548,19.043,49.805,36.621,19.043,0
1582565895.552,12.695,41.992,41.504,13.672,0
1582565895.556,23.438,34.668,41.016,25.879,0
1582565895.560,41.504,41.016,40.527,28.809,0
1582565895.564,41.504,44.922,34.180,18.555,0
1582565895.568,36.133,46.875,33.691,16.602,0
1582565895.571,31.250,41.504,33.203,6.836,0
1582565895.575,26.855,35.645,28.809,0.488,0
1582565895.579,20.508,33.691,20.020,0.000,0
1582565895.583,15.625,17.090,26.855,7.324,0
1582565895.587,15.625,17.578,34.668,12.695,0
1582565895.589,20.020,29.785,31.250,13.184,0
1582565895.593,10.254,28.320,29.297,6.348,0
1582565895.597,9.277,42.969,24.902,1.953,0
1582565895.601,19.043,57.129,28.809,14.160,0
1582565895.605,26.367,49.316,34.668,22.461,0
1582565895.609,25.391,40.527,30.273,16.602,0
1582565895.613,3.906,34.180,25.879,3.906,0
1582565895.616,-4.395,20.508,25.879,1.465,0
1582565895.620,13.184,9.277,20.508,12.207,0
1582565895.624,20.996,19.531,20.020,22.461,0
1582565895.628,18.066,33.203,21.484,17.578,0
1582565895.632,12.695,42.480,21.484,9.766,0
1582565895.649,18.555,46.387,21.484,18.555,0
1582565895.653,20.996,43.457,25.391,10.742,0
1582565895.657,19.043,56.152,43.457,11.719,0
1582565895.661,17.578,43.945,51.758,18.555,0
1582565895.665,12.695,19.531,42.969,8.789,0
1582565895.669,15.625,14.648,30.762,13.672,0
1582565895.673,19.043,4.395,23.926,5.371,0
1582565895.676,20.020,4.883,27.832,0.977,0
1582565895.680,15.137,30.762,23.438,23.438,0
1582565895.684,17.090,62.500,17.090,21.484,0
1582565895.688,15.625,67.871,30.762,19.043,0
1582565895.692,19.043,54.199,29.297,25.391,0
1582565895.694,35.156,47.852,31.738,18.555,0
1582565895.698,33.203,41.016,50.781,7.324,0
1582565895.702,18.066,35.645,42.969,3.418,0
1582565895.706,21.973,26.367,21.973,16.113,0
1582565895.710,18.555,27.832,18.555,16.602,0
1582565895.714,15.625,24.414,26.855,12.207,0
1582565895.718,13.672,15.625,30.762,20.996,0
1582565895.721,3.906,22.949,36.621,12.207,0
1582565895.725,9.277,32.715,39.062,1.953,0
1582565895.729,17.090,50.293,30.273,6.836,0
1582565895.733,20.996,53.223,31.250,11.719,0
1582565895.737,22.949,41.992,29.297,11.719,0
1582565895.739,19.043,36.133,26.367,13.672,0
1582565895.743,24.414,38.574,27.344,20.508,0
1582565895.747,37.598,41.016,26.367,15.137,0
1582565895.751,27.832,29.785,24.902,11.719,0
1582565895.755,10.742,18.555,22.949,13.672,0
1582565895.759,11.719,26.367,28.320,9.277,0
1582565895.763,11.719,34.668,34.180,4.395,0
1582565895.766,11.230,45.410,28.320,2.441,0
1582565895.770,18.555,48.828,27.344,7.324,0
1582565895.774,5.859,37.598,33.691,-0.977,0
1582565895.778,-0.488,25.879,32.715,-0.488,0
1582565895.782,18.555,17.578,34.180,13.184,0
1582565895.784,16.602,30.762,41.504,11.230,0
1582565895.788,22.949,43.945,27.832,5.371,0
1582565895.792,27.344,41.504,17.090,9.277,0
1582565895.796,11.719,42.969,19.531,11.230,0
1582565895.800,9.277,48.340,17.090,13.184,0
1582565895.804,8.789,39.551,25.879,15.625,0
1582565895.808,8.301,22.461,38.086,12.207,0
1582565895.811,15.137,27.344,41.504,12.695,0
1582565895.815,23.926,22.949,41.992,16.602,0
1582565895.819,26.367,21.973,34.668,23.438,0
1582565895.823,30.273,38.574,25.391,24.902,0
1582565895.827,20.508,38.086,18.066,11.719,0
1582565895.829,18.066,33.691,18.555,11.230,0
1582565895.833,30.273,37.109,37.109,17.090,0
1582565895.837,23.438,39.062,41.016,17.090,0
1582565895.841,7.812,26.367,25.391,9.766,0
1582565895.845,11.230,15.625,25.391,7.324,0
1582565895.849,20.508,24.414,32.227,13.184,0
1582565895.853,23.926,39.062,34.668,21.484,0
1582565895.856,19.043,47.852,26.855,13.184,0
1582565895.860,13.184,53.711,23.438,-2.441,0
1582565895.864,19.531,45.410,20.020,7.812,0
1582565895.868,20.996,28.809,23.926,16.602,0
1582565895.872,12.207,26.855,33.691,9.766,0
1582565895.874,23.926,24.414,32.715,17.090,0
1582565895.878,33.691,29.785,36.133,29.785,0
1582565895.882,17.090,20.996,33.691,18.555,0
1582565895.886,10.254,17.090,16.113,8.789,0
1582565895.890,15.137,33.691,6.836,15.625,0
1582565895.894,22.949,48.340,15.137,23.926,0
1582565895.898,25.391,52.246,21.484,11.719,0
1582565895.901,14.160,42.480,34.668,6.836,0
1582565895.905,12.207,28.809,41.992,12.207,0
1582565895.909,20.996,23.438,25.391,16.602,0
1582565895.913,21.484,27.832,19.531,17.090,0
1582565895.917,17.578,24.414,23.926,14.648,0
1582565895.918,6.836,24.414,23.926,16.113,0
1582565895.922,3.418,32.227,21.973,13.672,0
1582565895.926,18.066,29.297,17.578,18.555,0
1582565895.930,20.020,24.902,13.672,14.648,0
1582565895.934,9.277,31.738,20.020,0.488,0
1582565895.938,15.625,34.180,26.367,5.859,0
1582565895.942,18.066,32.715,25.879,12.207,0
1582565895.945,6.836,28.809,30.273,13.672,0
1582565895.949,0.488,24.902,30.762,0.977,0
1582565895.953,15.137,16.113,23.926,5.859,0
1582565895.957,28.320,20.020,11.719,28.320,0
1582565895.961,25.879,36.133,4.883,24.414,0
1582565895.963,21.973,42.969,20.020,24.902,0
1582565895.967,12.207,25.391,38.086,17.090,0
1582565895.971,17.578,10.254,33.691,13.184,0
1582565895.975,25.879,17.090,24.902,17.578,0
1582565895.979,23.926,29.785,25.879,18.555,0
1582565895.983,27.832,38.574,31.250,24.414,0
1582565895.987,11.719,40.527,29.297,13.184,0
1582565895.990,4.395,39.551,20.508,11.719,0
1582565895.994,18.555,34.180,10.254,22.461,0
1582565895.998,13.672,26.367,16.602,21.973,0
1582565896.002,13.184,24.414,33.203,13.184,0
1582565896.006,19.043,25.391,37.109,3.906,0
1582565896.023,12.695,15.625,34.180,8.301,0
1582565896.027,9.277,12.207,32.227,18.066,0
1582565896.031,14.648,33.203,36.133,19.043,0
1582565896.035,23.926,35.645,33.691,23.438,0
1582565896.039,32.227,26.367,28.809,16.602,0
1582565896.043,29.297,35.156,20.020,5.859,0
1582565896.047,30.273,37.598,18.066,6.348,0
1582565896.050,48.828,41.992,23.438,15.625,0
1582565896.054,63.965,49.316,19.531,29.297,0
1582565896.058,50.293,34.180,24.902,29.297,0
1582565896.062,32.227,20.020,29.785,29.297,0
1582565896.066,24.414,28.320,25.879,30.762,0
1582565896.068,26.367,36.621,28.320,34.668,0
1582565896.072,34.180,34.668,33.203,39.062,0
1582565896.076,25.879,27.344,37.598,23.438,0
1582565896.080,14.160,36.133,33.691,6.348,0
1582565896.084,25.391,49.805,27.344,10.254,0
1582565896.088,22.949,50.781,26.855,12.695,0
1582565896.092,13.672,51.758,26.855,15.137,0
1582565896.095,15.625,41.504,25.879,19.043,0
1582565896.099,21.973,28.809,20.996,22.949,0
1582565896.103,21.973,30.762,19.043,17.578,0
1582565896.107,9.766,28.809,17.090,8.789,0
1582565896.111,9.766,35.156,11.719,4.395,0
1582565896.113,16.113,39.062,7.812,7.812,0
1582565896.117,17.578,37.598,18.066,8.789,0
1582565896.121,24.414,48.340,34.180,8.789,25626
1582565896.125,31.738,54.688,33.203,19.043,0
1582565896.129,29.785,50.781,32.227,24.902,0
1582565896.133,33.691,41.504,31.250,27.344,0
1582565896.137,40.527,35.645,25.391,23.926,0
1582565896.140,41.992,33.203,33.691,25.391,0
1582565896.144,26.855,25.879,31.250,20.996,0
1582565896.148,14.160,17.578,15.137,17.578,0
1582565896.152,19.043,20.996,11.719,16.602,0
1582565896.156,16.113,40.039,16.113,8.301,0
1582565896.158,20.996,54.688,7.812,11.230,0
1582565896.162,34.668,60.547,15.137,14.648,0
1582565896.166,31.250,59.082,32.715,12.207,0
1582565896.170,25.391,46.387,39.062,19.043,0
1582565896.174,33.203,42.969,34.180,22.949,0
1582565896.178,37.109,31.738,32.227,22.949,0
1582565896.182,26.367,4.395,31.250,20.996,0
1582565896.185,21.973,1.953,25.391,15.137,0
1582565896.189,33.691,23.438,20.508,15.625,0
1582565896.193,23.438,46.387,17.578,13.184,0
1582565896.197,19.043,55.176,22.461,10.742,0
1582565896.201,25.391,50.781,27.832,14.648,0
1582565896.203,21.484,53.223,27.344,21.484,0
1582565896.207,27.832,37.598,17.090,12.695,0
1582565896.211,31.250,21.484,22.949,5.859,0
1582565896.215,28.809,30.762,29.297,10.742,0
1582565896.219,17.090,30.273,26.855,8.789,0
1582565896.223,9.277,38.086,26.367,1.953,0
1582565896.227,21.484,44.922,25.879,4.395,0
1582565896.230,33.691,42.969,24.414,9.766,0
1582565896.234,30.762,48.828,18.555,14.160,0
1582565896.238,31.250,37.598,20.020,19.531,0
1582565896.242,33.691,25.391,22.949,16.602,0
1582565896.246,34.180,36.133,17.090,16.113,0
1582565896.248,26.855,40.039,24.414,8.301,0
1582565896.252,26.855,33.203,26.855,0.977,0
1582565896.256,25.879,33.203,23.438,1.953,0
1582565896.260,21.484,32.227,27.832,9.277,0
1582565896.264,25.879,32.715,23.438,21.973,0
1582565896.268,26.367,30.273,20.508,20.508,0
1582565896.272,27.832,27.344,28.320,15.137,0
1582565896.275,34.180,36.621,33.203,14.160,0
1582565896.279,38.086,36.621,31.250,15.137,0
1582565896.283,27.344,26.855,27.832,20.508,0
1582565896.287,20.996,33.691,26.855,19.043,0
1582565896.291,18.555,41.992,29.297,13.672,0
1582565896.293,17.090,34.668,25.391,15.625,0
1582565896.297,13.672,20.508,21.484,13.672,0
1582565896.301,16.602,26.855,26.855,18.066,0
1582565896.305,24.902,37.598,28.809,17.578,0
1582565896.309,35.156,31.738,22.949,19.531,0
1582565896.313,41.016,33.203,24.414,22.461,0
1582565896.317,26.367,38.574,35.156,15.625,0
1582565896.320,7.812,39.551,33.691,14.160,0
1582565896.324,9.766,45.410,28.809,11.230,0
1582565896.328,3.418,41.504,19.043,5.371,0
1582565896.332,2.930,30.273,11.719,9.766,0
1582565896.336,18.066,31.250,12.695,9.766,0
1582565896.354,27.832,34.180,20.996,9.766,0
1582565896.358,22.949,34.668,19.531,14.648,0
1582565896.362,17.578,28.320,13.672,19.043,0
1582565896.366,26.367,21.973,31.738,26.367,0
1582565896.370,30.762,29.785,41.504,29.297,0
1582565896.374,23.926,28.809,27.344,20.020,0
1582565896.378,20.996,34.668,28.809,7.324,0
1582565896.381,13.184,50.781,33.203,1.465,0
1582565896.385,16.113,46.387,25.879,-0.977,0
1582565896.389,26.855,32.715,22.461,2.930,0
1582565896.393,14.648,11.719,20.508,3.906,0
1582565896.397,13.672,5.371,13.184,10.254,0
1582565896.399,19.043,20.996,12.207,22.949,0
1582565896.403,19.043,34.668,24.414,27.344,0
1582565896.407,15.625,36.133,37.109,13.184,0
1582565896.411,15.625,33.203,36.621,13.672,0
1582565896.415,25.391,41.992,36.621,25.391,0
1582565896.419,23.926,41.992,26.855,15.137,0
1582565896.423,10.742,35.156,16.602,8.301,0
1582565896.426,9.766,28.809,15.137,8.301,0
1582565896.430,18.555,6.836,21.484,12.207,0
1582565896.434,18.555,8.301,27.344,15.137,0
1582565896.438,22.949,40.039,27.344,20.508,0
1582565896.442,15.137,56.641,29.297,20.020,0
1582565896.444,13.184,46.387,32.715,15.625,0
1582565896.448,18.066,25.391,41.992,22.949,0
1582565896.452,19.531,25.879,43.945,26.367,0
1582565896.456,23.438,36.133,34.180,20.020,0
1582565896.460,18.066,40.039,34.668,17.090,0
1582565896.464,20.020,36.133,30.273,20.508,0
1582565896.468,19.531,18.555,24.414,22.949,0
1582565896.471,24.414,20.020,20.996,26.367,0
1582565896.475,22.461,32.227,19.043,32.227,0
1582565896.479,12.207,38.086,19.531,21.973,0
1582565896.483,24.902,38.086,27.344,22.461,0
1582565896.487,27.344,39.062,34.180,25.879,0
1582565896.489,20.508,33.691,35.645,14.160,0
1582565896.493,20.508,24.902,39.062,12.695,0
1582565896.497,12.207,28.320,36.133,7.812,0
1582565896.501,13.184,41.992,26.367,4.883,0
1582565896.505,19.043,35.645,24.902,10.742,0
1582565896.509,15.625,23.926,34.668,8.301,0
1582565896.513,16.113,35.645,35.156,7.812,0
1582565896.516,21.484,46.387,24.902,16.602,0
1582565896.520,18.066,46.387,21.973,12.207,0
1582565896.524,10.254,34.180,21.484,7.812,0
1582565896.528,12.207,24.902,18.066,12.695,0
1582565896.532,23.926,21.973,27.344,20.508,0
1582565896.534,26.367,27.832,29.297,19.531,0
1582565896.538,18.555,32.715,29.297,7.812,0
1582565896.542,27.344,40.039,37.598,4.883,0
1582565896.546,32.715,42.480,35.156,13.184,0
1582565896.550,19.043,36.133,36.621,15.625,0
1582565896.554,17.578,42.969,39.062,17.090,0
1582565896.558,16.113,49.805,36.133,17.578,0
1582565896.561,18.555,46.875,33.691,20.020,0
1582565896.565,30.273,38.574,20.020,20.996,0
1582565896.569,28.809,32.715,16.113,16.602,0
1582565896.573,26.855,29.785,27.344,26.367,0
1582565896.577,30.762,24.902,29.297,32.227,0
1582565896.578,35.645,18.555,28.809,29.785,0
1582565896.582,37.109,22.949,33.203,27.344,0
1582565896.586,20.508,27.344,33.691,20.508,0
1582565896.590,14.160,34.668,30.762,20.508,0
1582565896.594,31.738,46.875,29.785,24.902,0
1582565896.598,30.273,57.617,27.344,24.414,0
1582565896.602,18.555,54.199,14.160,15.625,0
1582565896.605,14.648,39.062,12.207,7.812,0
1582565896.609,17.578,28.320,24.902,7.812,0
1582565896.613,7.324,20.508,24.414,6.836,0
1582565896.617,3.418,27.832,27.832,7.324,0
1582565896.621,12.207,38.086,30.762,9.277,0
1582565896.623,8.789,38.574,28.320,10.742,0
1582565896.627,0.488,26.855,26.367,5.859,0
1582565896.631,2.441,24.414,30.762,2.441,0
1582565896.635,12.695,31.250,32.227,7.812,0
1582565896.639,20.996,32.715,26.367,19.531,0
1582565896.643,25.391,33.691,21.484,31.250,0
1582565896.647,35.645,33.203,14.648,26.367,0
1582565896.650,29.297,29.297,17.090,18.555,0
1582565896.654,16.602,18.066,34.180,22.949,0
1582565896.658,28.809,29.297,36.621,32.715,0
1582565896.662,33.203,45.410,25.391,24.902,0
1582565896.666,27.344,46.387,26.367,16.602,0
1582565896.668,32.715,41.992,32.715,24.414,0
1582565896.672,53.711,41.504,31.250,38.086,0
1582565896.676,60.059,41.016,23.438,40.527,0
1582565896.680,60.059,39.062,20.996,47.852,0
1582565896.684,56.152,28.320,22.461,50.781,0
1582565896.688,39.062,9.277,15.625,39.551,0
1582565896.692,27.344,15.625,19.531,26.367,0
1582565896.695,16.113,42.480,26.367,10.254,0
1582565896.699,-1.465,47.363,32.227,0.488,0
1582565896.703,-13.672,39.062,35.156,-4.395,0
1582565896.707,-12.207,32.715,29.297,-4.883,0
1582565896.711,-8.789,27.344,25.879,-8.789,0
1582565896.713,-6.836,24.902,34.180,-5.859,0
1582565896.717,-5.859,27.832,35.645,0.000,0
1582565896.721,17.090,31.250,25.879,0.977,0
1582565896.725,25.391,25.391,24.414,-0.488,0
1582565896.729,22.461,22.949,26.367,-2.930,0
1582565896.733,24.414,32.227,25.879,-0.488,0
1582565896.737,27.344,38.574,20.020,10.742,0
1582565896.740,25.879,42.969,19.043,19.043,0
1582565896.744,22.461,44.434,30.273,21.484,0
1582565896.748,20.996,31.738,40.527,17.578,0
1582565896.752,29.297,28.809,40.527,15.625,0
1582565896.756,31.250,39.551,32.227,19.531,0
1582565896.773,22.949,43.945,26.367,20.508,0
1582565896.777,27.832,36.621,25.879,24.414,0
1582565896.781,34.180,33.203,32.715,29.297,0
1582565896.785,50.293,28.809,27.344,33.691,0
1582565896.789,44.434,21.973,10.742,35.156,0
1582565896.793,23.438,24.414,22.949,35.645,0
1582565896.797,25.391,23.926,35.645,38.574,0
1582565896.800,26.367,35.156,32.227,38.574,0
1582565896.804,19.531,48.340,34.180,33.203,0
1582565896.808,17.578,53.223,42.480,31.738,0
1582565896.812,13.184,51.270,36.621,29.785,0
1582565896.816,12.207,27.344,28.320,26.855,0
1582565896.818,12.695,19.531,33.691,20.020,0
1582565896.822,6.348,22.461,38.086,13.184,0
1582565896.826,-2.930,17.578,28.320,11.230,0
1582565896.830,1.465,22.949,23.926,5.859,0
1582565896.834,13.184,33.691,28.320,7.812,0
1582565896.838,11.230,35.156,28.809,9.766,0
1582565896.842,8.789,30.273,27.832,6.348,0
1582565896.845,13.672,39.551,20.508,10.254,0
1582565896.849,19.043,39.551,14.160,12.695,0
1582565896.853,18.555,30.273,20.020,9.766,0
1582565896.857,13.672,33.691,24.902,5.859,0
1582565896.861,10.742,36.621,22.949,3.418,0
1582565896.864,35.156,39.062,19.531,16.113,0
1582565896.868,56.641,45.898,21.973,30.273,0
1582565896.872,33.691,51.270,36.621,20.996,0
1582565896.876,-2.441,47.363,50.293,-0.977,0
1582565896.880,-0.488,30.273,49.805,2.441,0
1582565896.884,12.695,27.832,38.574,16.113,0
1582565896.888,9.766,31.738,43.945,12.695,0
1582565896.891,12.695,13.672,52.734,16.113,0
1582565896.895,16.113,10.254,49.805,21.484,0
1582565896.899,12.695,13.672,45.410,13.184,0
1582565896.903,7.812,12.695,44.922,6.348,0
1582565896.907,0.488,23.926,44.434,2.930,0
1582565896.909,-1.953,31.250,35.645,2.441,0
1582565896.913,2.441,34.180,25.879,6.836,0
1582565896.917,5.859,34.180,21.973,0.977,0
1582565896.921,7.324,24.902,21.973,-3.906,0
1582565896.925,5.371,18.066,26.855,-2.930,0
1582565896.929,10.254,21.484,26.367,0.000,0
1582565896.933,9.766,28.320,26.367,2.930,0
1582565896.936,3.906,32.227,32.227,0.000,0
1582565896.940,8.301,32.227,30.762,1.953,0
1582565896.944,8.301,35.645,31.738,0.977,0
1582565896.948,6.348,33.691,35.645,-6.348,0
1582565896.952,-1.953,34.180,31.250,-13.184,0
1582565896.954,-9.766,33.691,22.461,-16.602,0
1582565896.958,1.465,32.715,20.020,-14.160,0
1582565896.962,6.348,32.227,22.949,-6.836,0
1582565896.966,-1.465,18.555,25.391,-6.348,0
1582565896.970,-3.418,12.695,24.414,-8.789,0
1582565896.974,-9.766,20.020,26.855,-12.207,0
1582565896.978,1.953,40.527,44.434,-7.324,0
1582565896.981,11.230,57.617,54.688,2.441,0
1582565896.985,0.488,48.828,41.016,-3.906,0
1582565896.989,-11.719,36.621,33.203,-16.113,0
1582565896.993,-4.883,39.062,41.992,-11.230,0
1582565896.997,12.695,46.387,35.645,4.395,0
1582565896.999,4.395,28.809,20.996,0.977,0
1582565897.003,-5.859,22.461,26.855,-5.371,0
1582565897.007,-2.930,37.109,27.832,-3.906,0
1582565897.011,4.883,38.086,15.625,0.000,0
1582565897.015,8.789,37.598,26.367,5.859,0
1582565897.019,4.883,37.598,29.297,6.348,0
1582565897.023,1.953,40.039,20.508,3.418,0
1582565897.026,9.766,44.922,30.273,8.301,0
1582565897.030,17.578,34.180,33.203,15.137,0
1582565897.034,18.066,23.438,23.438,20.996,0
1582565897.038,23.926,20.508,19.531,20.996,0
1582565897.042,21.973,26.367,22.949,13.672,0
1582565897.043,13.184,35.645,32.227,11.719,0
1582565897.047,10.254,31.738,25.879,7.324,0
1582565897.051,11.719,32.715,22.461,9.277,0
1582565897.055,13.184,40.039,28.320,6.836,0
1582565897.059,18.066,41.016,30.273,6.348,0
1582565897.063,20.508,36.621,37.598,14.648,0
1582565897.067,14.160,39.062,35.645,17.578,0
1582565897.070,22.949,40.527,28.320,20.020,0
1582565897.074,31.250,23.926,26.855,19.043,0
1582565897.078,27.832,17.090,32.715,18.555,0
1582565897.082,25.391,29.297,35.156,17.090,0
1582565897.086,19.043,37.598,28.809,10.254,0
1582565897.088,20.020,36.621,22.949,11.719,0
1582565897.092,22.461,32.227,15.625,16.602,0
1582565897.096,18.066,28.320,19.043,14.160,0
1582565897.100,14.648,34.180,28.809,13.672,0
1582565897.104,12.207,38.086,29.785,6.836,0
1582565897.108,17.090,35.645,30.762,8.789,0
1582565897.112,26.855,32.715,28.809,7.324,0
1582565897.115,27.344,29.297,26.367,9.277,0
1582565897.119,14.648,24.414,30.762,16.113,0
1582565897.123,28.320,26.855,30.762,28.809,0
1582565897.127,33.203,40.527,30.762,33.691,0
1582565897.131,6.348,46.387,27.832,10.254,0
1582565897.148,15.625,41.504,20.020,6.836,0
1582565897.152,35.645,40.039,19.531,22.461,0
1582565897.156,39.551,55.176,23.438,28.809,0
1582565897.160,34.180,52.734,23.926,24.902,0
1582565897.164,28.320,26.855,20.020,17.578,0
1582565897.168,31.250,20.996,16.602,21.484,0
1582565897.172,31.250,21.484,25.391,26.855,0
1582565897.175,24.414,27.344,16.602,18.555,0
1582565897.179,32.227,42.969,11.230,21.484,0
1582565897.183,41.504,49.316,25.879,30.273,0
1582565897.187,42.480,46.387,24.902,25.391,0
1582565897.191,40.039,46.875,19.043,20.020,0
1582565897.193,28.809,51.758,18.066,16.113,0
1582565897.197,36.133,38.574,19.043,17.578,0
1582565897.201,34.668,26.855,19.531,19.531,0
1582565897.205,22.461,40.527,28.320,19.531,0
1582565897.209,24.902,41.992,32.715,24.902,0
1582565897.213,29.297,29.297,25.879,20.996,0
1582565897.217,31.250,23.438,22.461,20.508,0
1582565897.220,32.227,30.762,22.949,23.438,0
1582565897.224,40.527,40.039,20.020,23.926,17025
1582565897.228,40.527,40.527,19.531,27.832,0
1582565897.232,37.109,42.480,24.902,25.879,0
1582565897.236,35.645,41.016,18.066,25.879,0
1582565897.238,30.762,43.945,16.602,26.855,0
1582565897.242,30.762,38.086,25.391,21.484,0
1582565897.246,35.645,29.785,29.297,24.414,0
1582565897.250,36.621,39.551,23.926,25.879,0
1582565897.254,30.273,48.340,19.531,18.555,0
1582565897.258,25.391,39.062,28.809,18.066,0
1582565897.262,30.762,24.902,36.133,20.508,0
1582565897.265,33.691,14.648,34.180,21.973,0
1582565897.269,35.645,22.949,29.297,23.926,0
1582565897.273,36.621,44.434,22.461,23.926,0
1582565897.277,29.785,48.828,15.625,21.973,0
1582565897.281,24.902,41.504,19.043,21.484,0
1582565897.283,30.762,44.434,22.461,23.926,0
1582565897.287,36.621,50.293,21.973,22.949,0
1582565897.291,36.621,31.250,17.578,23.438,0
1582565897.295,34.668,13.672,24.902,29.297,0
1582565897.299,41.016,14.648,34.668,31.250,0
1582565897.303,35.156,26.367,35.156,28.809,0
1582565897.307,24.414,41.504,35.156,25.879,0
1582565897.310,27.344,52.246,29.297,23.926,0
1582565897.314,32.715,51.270,25.391,22.461,0
1582565897.318,33.203,38.086,23.438,25.391,0
1582565897.322,25.879,35.645,19.531,20.996,0
1582565897.326,25.879,37.598,28.809,20.020,0
1582565897.328,28.809,28.809,30.273,27.832,0
1582565897.332,24.902,34.180,19.043,29.785,0
1582565897.336,17.578,27.344,20.020,25.391,0
1582565897.340,19.531,21.484,28.809,22.461,0
1582565897.344,25.879,39.551,36.621,24.902,0
1582565897.348,24.414,43.945,37.109,25.391,0
1582565897.352,22.949,47.852,29.297,19.043,0
1582565897.355,17.090,47.852,18.555,12.207,0
1582565897.359,19.531,35.156,15.625,17.090,0
1582565897.363,24.902,27.344,28.320,22.949,0
1582565897.367,22.949,30.762,36.133,25.391,0
1582565897.371,19.043,31.738,29.785,19.043,0
1582565897.373,22.949,31.250,30.273,20.508,0
1582565897.377,30.273,29.297,29.297,24.902,0
1582565897.381,25.391,26.855,21.484,18.555,0
1582565897.385,21.973,36.621,24.414,13.184,0
1582565897.389,24.902,34.180,30.762,18.555,0
1582565897.393,26.367,21.973,36.133,18.555,0
1582565897.397,27.344,28.809,24.902,6.836,0
1582565897.400,34.180,41.016,16.602,3.906,0
1582565897.404,43.945,41.992,24.902,4.395,0
1582565897.408,45.898,40.527,22.949,6.836,0
1582565897.412,38.574,36.133,25.391,12.207,0
1582565897.416,33.203,36.133,28.809,17.578,0
1582565897.419,34.668,31.250,19.531,18.066,0
1582565897.423,30.273,27.344,17.578,25.879,0
1582565897.427,20.020,33.691,23.926,22.949,0
1582565897.431,16.602,36.133,32.715,11.230,0
1582565897.435,16.113,25.391,32.715,11.719,0
1582565897.439,13.672,27.832,24.902,17.090,0
1582565897.443,7.324,48.828,24.902,20.996,0
1582565897.446,6.348,45.898,20.996,17.578,0
1582565897.450,12.695,36.133,26.367,19.043,0
1582565897.454,12.695,33.203,40.039,20.996,0
1582565897.458,16.602,26.367,43.457,21.484,0
1582565897.462,20.996,24.902,41.016,26.367,0
1582565897.464,19.043,23.926,30.762,27.344,0
1582565897.468,19.531,31.250,20.996,30.762,0
1582565897.472,12.695,29.297,22.461,24.902,0
1582565897.476,13.184,18.555,29.297,18.555,0
1582565897.480,18.555,21.484,35.645,20.508,0
1582565897.484,22.461,36.621,39.551,15.625,0
1582565897.488,19.043,39.062,33.203,13.184,0
1582565897.491,12.695,35.156,28.809,13.672,0
1582565897.495,16.113,35.156,28.809,15.137,0
1582565897.499,21.973,20.996,19.043,17.578,0
1582565897.503,22.949,24.902,24.414,13.184,0
1582565897.507,18.555,36.133,29.785,11.230,0
1582565897.509,8.789,33.691,23.438,11.230,0
1582565897.513,8.789,28.809,20.020,8.301,0
1582565897.517,14.648,20.020,20.508,6.348,0
1582565897.521,12.695,26.367,25.879,1.953,0
1582565897.525,20.020,44.922,33.691,6.348,0
1582565897.529,20.508,49.316,33.203,11.719,0
1582565897.533,14.160,35.645,25.879,11.230,0
1582565897.536,18.555,33.691,28.320,13.672,0
1582565897.540,20.020,39.551,29.297,12.207,0
1582565897.544,7.812,38.574,22.461,8.789,0
1582565897.548,5.859,34.668,12.695,3.418,0
1582565897.552,16.602,26.855,16.113,4.883,0
1582565897.569,23.438,28.809,27.832,17.090,0
1582565897.573,32.227,34.180,35.645,26.367,0
1582565897.577,25.879,36.133,31.250,20.508,0
1582565897.581,20.020,44.922,31.250,11.719,0
1582565897.585,23.926,44.922,35.645,11.230,0
1582565897.589,16.113,36.133,33.691,4.883,0
1582565897.593,7.812,36.621,27.344,-1.465,0
1582565897.596,9.277,42.480,18.555,4.883,0
1582565897.600,5.859,46.875,5.371,0.000,0
1582565897.604,6.836,42.480,9.277,-2.441,0
1582565897.608,10.742,27.344,28.809,4.883,0
1582565897.612,22.949,25.879,34.668,11.230,0
1582565897.614,24.414,37.109,37.598,11.230,0
1582565897.618,19.531,47.363,42.480,10.742,0
1582565897.622,18.066,45.410,40.527,9.766,0
1582565897.626,2.441,38.574,30.762,-2.441,0
1582565897.630,-5.371,40.527,34.180,-9.277,0
1582565897.634,-6.836,39.551,40.039,-18.555,0
1582565897.638,-25.879,36.133,41.504,-35.645,0
1582565897.641,-38.086,50.781,51.270,-45.898,0
1582565897.645,-51.758,64.453,63.965,-64.453,0
1582565897.649,-65.918,74.219,73.730,-87.891,0
1582565897.653,-81.543,77.148,84.473,-97.656,0
1582565897.657,-113.770,68.359,95.703,-123.047,0
1582565897.659,-132.324,92.773,135.742,-145.996,0
1582565897.663,-136.230,77.148,140.625,-153.809,0
1582565897.667,-172.852,48.828,78.613,-191.406,0
1582565897.671,-217.285,56.641,63.477,-226.562,0
1582565897.675,-207.031,66.406,115.723,-220.215,0
1582565897.679,-190.430,93.262,133.301,-214.355,0
1582565897.683,-201.172,114.746,116.699,-223.633,0
1582565897.686,-208.496,115.723,124.023,-226.074,0
1582565897.690,-223.145,64.941,98.145,-238.770,0
1582565897.694,-231.445,48.340,85.938,-254.883,0
1582565897.698,-204.590,93.750,137.207,-231.445,0
1582565897.702,-192.383,122.559,162.109,-214.355,0
1582565897.704,-222.168,74.707,133.789,-243.164,0
1582565897.708,-219.727,62.988,154.785,-241.699,0
1582565897.712,-191.406,96.191,214.355,-212.891,0
1582565897.716,-197.754,121.094,244.141,-214.844,0
1582565897.720,-223.145,112.793,278.320,-241.211,0
1582565897.724,-221.680,63.477,389.160,-234.863,0
1582565897.728,-179.688,100.586,559.570,-191.406,0
1582565897.731,-196.289,100.586,691.895,-224.609,0
1582565897.735,-240.234,100.098,867.188,-270.508,0
1582565897.739,-258.789,187.012,-993.652,-286.621,0
1582565897.743,-252.930,302.246,995.605,-284.180,0
1582565897.747,-252.441,651.367,997.070,-290.039,0
1582565897.749,-293.945,972.656,-1000.000,-321.777,0
1582565897.753,-334.961,-999.512,999.512,-346.191,0
1582565897.757,-410.645,991.211,999.512,-428.711,0
1582565897.761,-457.520,-998.535,999.512,-469.727,0
1582565897.765,-552.246,999.512,999.512,-552.246,0
1582565897.769,-667.969,999.512,999.512,-664.062,0
1582565897.773,-723.145,999.512,999.512,-727.539,0
1582565897.776,-778.809,999.512,999.512,-784.668,0
1582565897.780,-872.559,999.512,999.512,-875.000,0
1582565897.784,-923.828,999.512,-992.676,-927.246,0
1582565897.788,-949.219,999.512,956.055,-950.195,0
1582565897.792,-973.633,999.512,-953.613,-973.145,0
1582565897.794,-971.191,999.512,810.547,-971.680,0
1582565897.798,-972.168,999.512,-381.348,-971.680,0
1582565897.802,-972.168,999.512,-823.242,-972.168,0
1582565897.806,-972.168,999.512,-507.812,-972.168,0
1582565897.810,-972.168,999.512,-423.828,-972.168,0
1582565897.814,-972.168,999.512,-474.609,-972.168,0
1582565897.818,-972.168,999.512,-475.098,-972.168,0
1582565897.821,-972.168,999.512,-474.121,-972.168,0
1582565897.825,-972.656,999.512,175.293,-972.656,0
1582565897.829,-968.750,999.512,958.496,-971.191,0
1582565897.833,-975.586,999.512,-998.535,-970.703,0
1582565897.837,-946.777,999.512,976.562,-971.191,0
1582565897.839,-842.773,999.512,994.629,-906.738,0
1582565897.843,-756.348,999.512,-988.281,-810.547,0
1582565897.847,-681.152,999.512,764.648,-732.910,0
1582565897.851,-593.750,999.512,347.168,-647.949,0
1582565897.855,-519.531,999.512,380.859,-568.359,0
1582565897.859,-434.570,999.512,261.719,-487.793,0
1582565897.863,-347.656,999.512,-212.402,-400.391,0
1582565897.866,-270.996,999.512,-593.262,-313.477,0
1582565897.870,-198.730,999.512,-926.758,-246.094,0
1582565897.874,-145.020,999.512,-977.051,-194.824,0
1582565897.878,-100.586,-998.047,-961.914,-142.578,0
1582565897.882,-54.688,987.305,-974.121,-91.797,0
1582565897.899,-13.184,998.535,-972.168,-43.457,0
1582565897.903,20.508,928.711,-972.168,-8.301,0
1582565897.907,49.316,398.438,-972.168,14.648,0
1582565897.911,77.148,-479.004,-972.168,42.480,0
1582565897.915,105.957,-966.797,-972.168,64.941,0
1582565897.919,149.902,-960.449,-972.168,93.750,0
1582565897.923,163.086,-962.891,-972.168,121.094,0
1582565897.926,150.391,-975.098,-972.168,124.512,0
1582565897.930,153.809,-972.168,-972.168,130.371,0
1582565897.934,167.969,-972.168,-972.168,137.695,0
1582565897.938,200.684,-972.168,-972.168,167.969,0
1582565897.942,239.258,-972.168,-972.656,196.289,0
1582565897.944,271.973,-972.168,-970.703,223.633,0
1582565897.948,317.383,-972.168,-976.562,268.066,0
1582565897.952,332.520,-972.168,-931.152,286.621,0
1582565897.956,315.918,-972.168,-934.082,298.828,0
1582565897.960,326.660,-972.168,-567.383,317.383,0
1582565897.964,340.820,-972.168,555.176,322.754,0
1582565897.968,342.773,-972.168,-948.730,328.125,0
1582565897.971,339.844,-972.168,962.891,327.148,0
1582565897.975,339.355,-972.168,998.535,330.566,0
1582565897.979,341.797,-972.168,-999.023,335.938,0
1582565897.983,349.609,-972.168,999.512,338.867,0
1582565897.987,341.309,-972.168,999.512,335.938,0
1582565897.989,387.695,-972.168,999.512,381.836,0
1582565897.993,494.629,-972.168,999.512,486.816,0
1582565897.997,542.480,-972.168,999.512,540.527,0
1582565898.001,543.457,-972.168,999.512,539.551,0
1582565898.005,529.297,-972.168,999.512,531.250,0
1582565898.009,513.184,-972.168,999.512,517.578,0
1582565898.013,494.629,-972.168,999.512,493.164,0
1582565898.016,492.676,-972.168,999.512,484.375,0
1582565898.020,479.492,-972.168,999.512,474.121,0
1582565898.024,445.801,-972.168,999.512,457.520,0
1582565898.028,431.641,-972.168,999.512,447.266,0
1582565898.032,428.711,-972.168,999.512,438.477,0
1582565898.034,417.969,-972.168,999.512,422.852,0
1582565898.038,400.879,-972.168,999.512,406.250,0
1582565898.042,385.742,-972.168,999.512,389.160,0
1582565898.046,373.047,-972.168,999.512,377.441,0
1582565898.050,355.469,-972.168,999.512,374.023,0
1582565898.054,344.238,-972.168,999.512,368.652,0
1582565898.058,337.891,-972.168,999.512,355.957,0
1582565898.061,318.848,-972.168,999.512,344.727,0
1582565898.065,306.152,-972.168,999.512,330.078,0
1582565898.069,296.875,-972.168,999.512,317.871,0
1582565898.073,282.715,-972.168,999.512,308.594,0
1582565898.077,272.949,-972.168,999.512,291.504,0
1582565898.078,264.160,-972.168,999.512,276.367,0
1582565898.082,255.371,-972.168,999.512,262.207,0
1582565898.086,248.535,-972.168,999.512,248.047,0
1582565898.090,246.094,-972.168,999.512,242.188,0
1582565898.094,251.465,-972.168,999.512,237.305,0
1582565898.098,241.699,-972.168,999.512,219.238,0
1582565898.102,218.750,-972.168,999.512,196.777,0
1582565898.105,205.078,-972.168,999.512,189.941,0
1582565898.109,201.660,-972.168,999.512,196.777,0
1582565898.113,195.801,-972.168,-1000.000,193.359,0
1582565898.117,179.199,-972.168,996.094,183.105,0
1582565898.121,167.480,-972.168,-999.023,180.664,0
1582565898.123,165.527,-972.168,979.980,176.758,0
1582565898.127,146.484,-972.168,869.629,162.598,0
1582565898.131,136.230,-972.168,711.426,159.180,0
1582565898.135,135.742,-972.168,580.566,149.414,0
1582565898.139,125.488,-972.168,559.082,132.324,0
1582565898.143,120.117,-972.168,531.738,128.418,0
1582565898.147,106.934,-972.168,471.680,125.488,0
1582565898.150,98.145,-972.168,416.016,123.047,0
1582565898.154,96.191,-972.168,381.348,116.211,0
1582565898.158,92.773,-972.168,368.652,106.934,0
1582565898.162,99.121,-972.168,343.262,106.934,0
1582565898.166,96.680,-972.168,323.242,98.633,0
1582565898.168,83.008,-972.168,297.363,96.191,0
1582565898.172,75.684,-972.168,327.637,98.145,0
1582565898.176,69.336,-972.168,338.379,86.426,0
1582565898.180,63.477,-972.168,332.520,75.195,0
1582565898.184,60.547,-972.168,334.961,77.148,0
1582565898.188,76.172,-972.168,271.973,83.984,0
1582565898.192,67.871,-972.168,172.363,68.848,0
1582565898.195,44.434,-971.680,109.863,48.340,0
1582565898.199,52.734,-970.703,63.477,56.641,0
1582565898.203,59.570,-974.609,7.324,63.965,0
1582565898.207,66.406,-947.754,-75.195,64.941,0
1582565898.211,79.590,-900.879,-144.043,76.172,0
1582565898.213,71.777,-869.629,-159.668,77.637,0
1582565898.217,58.594,-847.168,-151.367,75.195,0
1582565898.221,62.500,-828.125,-127.441,76.660,0
1582565898.225,79.102,-806.641,-124.023,77.148,0
1582565898.229,79.590,-790.039,-137.695,76.660,0
1582565898.233,70.312,-794.434,-243.652,70.801,0
1582565898.237,77.148,-787.598,-385.254,64.941,0
1582565898.240,72.266,-754.883,-420.898,60.059,0
1582565898.244,64.453,-731.934,-450.684,65.430,0
1582565898.248,63.965,-709.473,-512.207,70.801,0
1582565898.252,62.988,-692.383,-527.832,64.941,0
1582565898.256,69.336,-690.918,-536.621,64.453,0
1582565898.273,64.941,-678.223,-584.961,66.895,0
1582565898.277,68.359,-658.691,-602.539,69.824,0
1582565898.281,73.730,-641.113,-618.652,65.430,0
1582565898.285,71.777,-614.746,-645.508,64.453,0
1582565898.289,75.684,-598.145,-625.977,70.312,0
1582565898.293,75.195,-584.473,-585.938,69.824,0
1582565898.297,76.660,-568.359,-552.246,75.195,0
1582565898.300,79.590,-564.941,-531.250,80.566,0
1582565898.304,80.566,-561.035,-487.305,73.242,17224
1582565898.308,80.566,-552.734,-485.352,71.289,0
1582565898.312,77.637,-548.340,-502.930,76.660,0
1582565898.316,75.195,-547.852,-435.547,68.848,0
1582565898.318,93.750,-545.410,-362.793,68.848,0
1582565898.322,90.820,-532.715,-311.035,74.707,0
1582565898.326,68.359,-513.672,-260.254,67.871,0
1582565898.330,68.848,-502.930,-213.379,62.500,0
1582565898.334,70.312,-491.699,-199.707,63.477,0
1582565898.338,66.406,-473.145,-210.938,63.965,0
1582565898.342,64.453,-460.449,-187.500,62.500,0
1582565898.345,66.406,-447.754,-147.461,59.082,0
1582565898.349,62.988,-469.727,-120.117,50.293,0
1582565898.353,50.293,-481.445,-114.746,43.945,0
1582565898.357,43.945,-445.312,-139.648,45.898,0
1582565898.361,41.992,-423.828,-169.434,47.363,0
1582565898.363,43.457,-404.297,-166.504,49.805,0
1582565898.367,50.781,-391.602,-159.180,52.734,0
1582565898.371,53.711,-397.949,-172.363,53.223,0
1582565898.375,56.152,-390.137,-168.945,57.129,0
1582565898.379,61.035,-380.859,-147.461,62.012,0
1582565898.383,49.805,-387.695,-125.977,56.152,0
1582565898.387,38.574,-375.000,-116.699,48.828,0
1582565898.390,36.621,-359.863,-103.516,48.340,0
1582565898.394,39.551,-364.746,-83.984,49.805,0
1582565898.398,45.898,-362.305,-77.637,46.875,0
1582565898.402,53.223,-337.402,-65.918,49.316,0
1582565898.406,53.223,-315.918,-61.523,55.664,0
1582565898.408,45.410,-314.941,-66.406,52.246,0
1582565898.412,49.316,-310.547,-79.102,51.758,0
1582565898.416,51.758,-307.129,-96.680,53.223,0
1582565898.420,37.598,-309.570,-134.277,42.480,0
1582565898.424,35.156,-302.246,-175.781,37.598,0
1582565898.428,41.504,-283.691,-204.102,42.480,0
1582565898.432,39.551,-283.203,-213.379,40.527,0
1582565898.435,32.715,-290.039,-194.336,33.203,0
1582565898.439,36.621,-278.809,-197.266,35.156,0
1582565898.443,43.457,-270.020,-212.891,36.621,0
1582565898.447,38.086,-268.555,-213.379,32.715,0
1582565898.451,30.273,-267.578,-213.379,25.391,0
1582565898.453,28.809,-271.484,-220.703,24.902,0
1582565898.457,32.227,-277.832,-222.168,33.203,0
1582565898.461,30.762,-272.949,-218.262,29.297,0
1582565898.465,27.344,-264.648,-219.727,24.902,0
1582565898.469,21.484,-261.230,-215.332,25.391,0
1582565898.473,20.508,-262.207,-214.355,26.855,0
1582565898.477,29.785,-261.230,-204.590,37.109,0
1582565898.480,42.969,-259.277,-178.223,39.551,0
1582565898.484,40.527,-266.113,-146.973,33.691,0
1582565898.488,29.297,-252.930,-148.926,32.715,0
1582565898.492,36.133,-232.422,-179.199,38.086,0
1582565898.496,32.227,-227.539,-179.688,32.227,0
1582565898.499,17.578,-222.656,-143.066,17.090,0
1582565898.503,18.555,-220.215,-121.094,16.602,0
1582565898.507,22.949,-207.520,-94.238,22.461,0
1582565898.511,27.832,-200.195,-54.199,25.391,0
1582565898.515,27.832,-211.914,-33.691,23.926,0
1582565898.519,23.926,-208.984,4.395,23.438,0
1582565898.523,28.809,-204.590,63.965,32.227,0
1582565898.526,37.109,-213.379,121.582,44.922,0
1582565898.530,37.598,-208.496,145.020,43.457,0
1582565898.534,40.039,-196.289,166.504,48.828,0
1582565898.538,47.852,-197.266,184.570,50.293,0
1582565898.542,51.758,-194.336,161.621,47.363,0
1582565898.544,46.875,-179.199,124.512,47.852,0
1582565898.548,39.551,-177.734,161.133,40.527,0
1582565898.552,37.109,-180.176,244.629,39.062,0
1582565898.556,44.434,-174.316,293.457,41.992,0
1582565898.560,47.363,-179.688,305.176,40.527,0
1582565898.564,37.109,-191.406,305.664,35.156,0
1582565898.568,39.062,-179.688,291.016,40.039,0
1582565898.571,46.387,-174.316,269.531,49.316,0
1582565898.575,57.617,-184.082,255.859,44.434,0
1582565898.579,52.734,-169.922,217.285,33.203,0
1582565898.583,34.180,-149.902,188.477,33.691,0
1582565898.587,31.250,-144.531,140.137,35.156,0
1582565898.589,38.086,-149.902,91.797,37.598,0
1582565898.593,28.809,-155.762,79.102,29.785,0
1582565898.597,11.719,-151.855,78.125,17.578,0
1582565898.601,15.625,-155.762,79.590,22.949,0
1582565898.605,28.320,-160.645,66.895,26.855,0
1582565898.609,33.203,-163.574,42.969,29.785,0
1582565898.613,24.414,-184.082,82.520,22.461,0
1582565898.616,16.602,-186.035,161.621,15.137,0
1582565898.620,23.438,-163.086,188.477,23.438,0
1582565898.624,28.809,-161.133,181.152,27.344,0
1582565898.628,30.762,-170.410,173.340,34.668,0
1582565898.632,31.738,-159.668,181.641,39.551,0
1582565898.649,30.762,-148.926,172.852,31.250,0
1582565898.653,38.574,-152.832,129.883,33.203,0
1582565898.657,47.852,-150.879,74.219,36.133,0
1582565898.661,34.668,-142.578,37.598,31.250,0
1582565898.665,32.715,-141.602,24.902,36.133,0
1582565898.669,40.039,-145.996,-23.926,36.133,0
1582565898.673,36.621,-148.926,-94.238,37.598,0
1582565898.676,37.109,-146.484,-150.879,41.016,0
1582565898.680,36.133,-142.578,-190.430,34.180,0
1582565898.684,40.527,-133.789,-234.375,33.691,0
1582565898.688,42.969,-127.441,-255.371,37.598,0
1582565898.692,37.109,-125.977,-232.910,34.180,0
1582565898.694,33.203,-116.211,-213.379,32.227,0
1582565898.698,30.762,-110.352,-186.035,31.738,0
1582565898.702,27.832,-119.141,-172.852,23.438,0
1582565898.706,29.785,-131.836,-183.594,20.508,0
1582565898.710,21.973,-130.859,-159.180,19.043,0
1582565898.714,24.902,-117.676,-116.211,24.902,0
1582565898.718,40.039,-111.328,-70.801,34.180,0
1582565898.721,44.434,-100.586,-49.316,35.156,0
1582565898.725,37.598,-111.328,-85.938,27.832,0
1582565898.729,25.391,-125.000,-125.000,26.367,0
1582565898.733,19.531,-117.188,-117.188,26.367,0
1582565898.737,22.949,-113.770,-81.543,21.973,0
1582565898.739,21.973,-112.305,-64.453,22.461,0
1582565898.743,20.020,-112.305,-83.496,23.438,0
1582565898.747,25.391,-128.906,-87.891,25.879,0
1582565898.751,21.484,-132.812,-83.496,27.832,0
1582565898.755,26.367,-114.258,-75.684,25.879,0
1582565898.759,27.344,-116.211,-56.641,22.949,0
1582565898.763,20.996,-125.488,-32.227,25.391,0
1582565898.766,22.949,-112.305,6.348,26.855,0
1582565898.770,22.461,-94.238,28.320,28.320,0
1582565898.774,15.137,-98.633,27.832,17.090,0
1582565898.778,12.207,-106.934,7.324,11.230,0
1582565898.782,14.160,-103.027,0.488,13.672,0
1582565898.784,13.672,-108.887,-7.812,11.719,0
1582565898.788,10.254,-117.676,-46.875,5.859,0
1582565898.792,15.137,-109.863,-63.477,7.812,0
1582565898.796,18.066,-115.234,-48.340,13.184,0
1582565898.800,9.277,-122.070,-27.832,9.766,0
1582565898.804,11.230,-111.328,-0.488,13.184,0
1582565898.808,15.625,-94.238,19.043,15.137,0
1582565898.811,7.812,-99.609,15.625,11.719,0
1582565898.815,11.230,-116.699,15.625,5.371,0
1582565898.819,20.020,-106.934,27.344,2.441,0
1582565898.823,24.414,-99.121,37.109,-0.977,0
1582565898.827,42.480,-105.957,37.109,-6.836,0
1582565898.829,43.945,-107.422,22.949,-1.465,0
1582565898.833,31.738,-117.188,23.438,9.766,0
1582565898.837,31.738,-144.043,29.297,19.043,0
1582565898.841,33.691,-159.180,8.789,30.273,0
1582565898.845,30.762,-145.996,1.953,25.391,0
1582565898.849,26.367,-140.137,9.766,18.555,0
1582565898.853,24.414,-143.066,29.297,23.438,0
1582565898.856,22.949,-143.555,54.688,26.367,0
1582565898.860,15.625,-146.973,105.957,23.438,0
1582565898.864,14.160,-138.672,171.387,20.996,0
1582565898.868,16.602,-142.090,185.059,19.531,0
1582565898.872,7.324,-153.809,175.293,13.184,0
1582565898.874,11.230,-159.180,156.738,20.508,0
1582565898.878,23.926,-155.762,141.602,31.250,0
1582565898.882,21.973,-142.578,159.668,25.391,0
1582565898.886,13.184,-133.789,176.270,22.949,0
1582565898.890,18.555,-125.000,174.805,27.832,0
1582565898.894,20.508,-123.535,159.180,21.973,0
1582565898.898,15.625,-126.953,148.926,19.531,0
1582565898.901,7.324,-132.324,140.137,17.578,0
1582565898.905,3.906,-137.695,114.746,8.301,0
1582565898.909,14.648,-136.230,82.520,9.277,0
1582565898.913,17.578,-128.418,53.711,9.766,0
1582565898.917,12.695,-127.930,34.668,1.953,0
1582565898.919,9.766,-118.652,26.367,4.883,0
1582565898.923,14.648,-104.004,17.578,11.230,0
1582565898.927,12.695,-98.633,0.488,9.277,0
1582565898.931,0.488,-100.098,-2.930,6.348,0
1582565898.935,-2.930,-106.934,1.953,7.812,0
1582565898.939,-0.977,-114.746,2.441,8.789,0
1582565898.943,6.836,-111.816,5.859,10.742,0
1582565898.946,9.766,-99.609,0.000,5.859,0
1582565898.950,3.906,-106.445,19.043,-1.953,0
1582565898.954,9.277,-111.816,42.480,3.418,0
1582565898.958,7.324,-104.980,25.879,1.465,0
1582565898.962,0.977,-102.539,14.160,0.488,0
1582565898.964,2.930,-103.516,10.254,7.324,0
1582565898.968,1.953,-110.352,2.930,7.324,0
1582565898.972,2.930,-108.887,9.277,6.836,0
1582565898.976,7.812,-92.773,24.414,3.906,0
1582565898.980,8.789,-82.031,38.574,-0.488,0
1582565898.984,5.371,-83.496,48.340,-5.371,0
1582565898.988,9.277,-81.543,49.316,-1.953,0
1582565898.991,13.672,-82.520,36.133,0.488,0
1582565898.995,5.371,-88.867,24.902,-1.465,0
1582565898.999,6.348,-90.820,27.832,5.859,0
1582565899.003,5.859,-95.215,29.297,6.348,0
1582565899.007,4.883,-111.328,8.789,3.418,0
1582565899.024,5.859,-107.422,-2.441,4.883,0
1582565899.028,9.766,-83.984,5.371,-0.488,0
1582565899.032,18.066,-80.566,12.695,-1.465,0
1582565899.036,23.926,-77.637,30.762,6.348,0
1582565899.040,25.391,-73.730,54.688,13.672,0
1582565899.044,20.508,-73.730,56.641,9.766,0
1582565899.048,21.973,-73.242,57.129,3.906,0
1582565899.051,31.250,-76.172,72.266,10.254,0
1582565899.055,25.879,-74.707,93.262,18.555,0
1582565899.059,0.000,-68.848,104.004,4.883,0
1582565899.063,-6.836,-73.730,107.910,-5.371,0
1582565899.067,12.695,-69.824,100.098,-5.859,0
1582565899.069,12.695,-62.012,90.820,-10.254,0
1582565899.073,2.930,-74.707,105.469,-13.184,0
1582565899.077,1.465,-86.914,127.930,-6.836,0
1582565899.081,-4.395,-94.727,136.230,-0.488,0
1582565899.085,0.000,-90.332,130.859,-0.488,0
1582565899.089,0.977,-73.730,125.488,1.953,0
1582565899.093,7.812,-78.125,118.652,10.254,0
1582565899.096,12.207,-85.938,136.719,10.742,0
1582565899.100,8.789,-85.938,175.781,7.324,0
1582565899.104,13.672,-90.332,192.871,3.906,0
1582565899.108,15.137,-86.426,217.773,8.301,0
1582565899.112,15.137,-86.914,236.816,16.113,0
1582565899.114,11.230,-93.750,221.191,17.090,0
1582565899.118,10.254,-86.426,221.680,11.230,0
1582565899.122,4.883,-83.984,246.094,-0.977,0
1582565899.126,0.488,-90.820,242.188,3.418,0
1582565899.130,0.977,-94.238,229.492,9.766,0
1582565899.134,4.395,-86.426,238.770,7.812,0
1582565899.138,7.324,-82.031,238.770,2.930,0
1582565899.141,8.789,-79.102,227.051,-1.953,0
1582565899.145,17.090,-67.383,218.262,7.324,0
1582565899.149,20.020,-62.012,211.914,14.160,0
1582565899.153,14.648,-70.801,212.402,13.672,0
1582565899.157,4.883,-72.266,211.426,10.742,0
1582565899.158,2.930,-68.359,203.125,7.324,0
1582565899.162,0.488,-73.730,211.914,0.000,0
1582565899.166,6.348,-77.637,226.074,4.395,0
1582565899.170,14.160,-65.430,230.469,15.137,0
1582565899.174,15.137,-56.641,247.070,11.719,0
1582565899.178,16.602,-61.523,250.977,8.301,0
1582565899.182,13.672,-63.477,239.258,7.812,0
1582565899.185,8.789,-58.105,237.793,7.324,0
1582565899.189,11.719,-58.105,255.371,13.184,0
1582565899.193,18.555,-56.641,264.648,15.625,0
1582565899.197,14.160,-51.758,269.531,12.695,0
1582565899.201,7.324,-56.641,265.137,11.719,0
1582565899.203,4.883,-48.340,257.812,10.742,0
1582565899.207,12.695,-48.340,255.371,12.207,0
1582565899.211,13.184,-50.293,250.488,10.742,0
1582565899.215,10.254,-36.133,237.793,7.812,0
1582565899.219,9.766,-35.645,218.750,5.859,0
1582565899.223,7.812,-38.086,204.590,0.000,0
1582565899.227,17.578,-37.109,217.285,8.301,0
1582565899.230,19.531,-41.992,240.234,14.160,0
1582565899.234,9.766,-57.129,240.723,3.906,0
1582565899.238,5.859,-41.016,212.891,1.465,0
1582565899.242,11.230,-22.949,177.734,-3.906,0
1582565899.246,11.719,-30.273,166.504,-8.789,0
1582565899.248,9.277,-38.574,168.457,-2.930,0
1582565899.252,12.695,-40.039,170.898,1.953,0
1582565899.256,9.766,-39.062,167.969,2.441,0
1582565899.260,11.230,-34.668,165.039,4.883,0
1582565899.264,13.184,-45.410,126.465,3.906,0
1582565899.268,9.277,-49.805,43.945,1.465,0
1582565899.272,16.602,-34.180,-3.418,4.395,0
1582565899.275,24.414,-34.668,-28.320,6.836,0
1582565899.279,13.672,-34.668,-49.316,2.930,0
1582565899.283,10.254,-28.320,-52.734,6.348,0
1582565899.287,15.625,-24.902,-42.969,10.742,0
1582565899.291,17.090,-24.902,-33.691,9.766,0
1582565899.293,20.996,-23.926,-40.039,13.184,0
1582565899.297,15.137,-28.320,-59.082,15.625,0
1582565899.301,11.230,-40.527,-78.125,16.113,0
1582565899.305,16.602,-41.016,-80.566,15.137,0
1582565899.309,23.926,-21.973,-66.895,15.625,0
1582565899.313,18.066,-18.555,-47.363,18.555,0
1582565899.317,9.766,-30.762,-38.086,14.160,0
1582565899.320,13.184,-28.809,-42.969,8.301,0
1582565899.324,16.602,-23.438,-34.668,8.789,0
1582565899.328,20.020,-26.855,-10.742,15.137,0
1582565899.332,19.043,-25.391,3.906,24.902,0
1582565899.336,12.695,-26.367,17.090,12.695,0
1582565899.338,18.555,-38.574,36.133,2.441,0
1582565899.342,24.902,-33.691,42.480,7.324,0
1582565899.346,9.766,-23.926,39.551,-0.977,0
1582565899.350,9.766,-28.320,40.039,1.953,17010
1582565899.354,16.602,-45.410,45.410,11.719,0
1582565899.358,16.602,-55.664,42.480,14.160,0
1582565899.362,20.508,-49.805,41.016,24.414,0
1582565899.365,27.344,-40.039,42.969,24.902,0
1582565899.369,27.344,-42.480,21.484,15.625,0
1582565899.373,29.297,-58.105,10.742,20.996,0
1582565899.377,26.855,-62.012,14.648,20.508,0
1582565899.381,29.297,-67.871,11.719,16.602,0
1582565899.398,27.344,-58.105,1.953,15.625,0
1582565899.402,20.508,-38.574,-20.508,19.531,0
1582565899.406,22.949,-40.039,-30.273,20.508,0
1582565899.410,19.531,-40.039,-22.461,16.113,0
1582565899.414,24.902,-30.273,-17.090,16.602,0
1582565899.418,30.273,-32.715,-14.648,20.508,0
1582565899.422,22.949,-41.992,-10.742,23.926,0
1582565899.425,18.066,-40.039,-14.160,17.578,0
1582565899.429,19.043,-45.898,-13.184,17.090,0
1582565899.433,20.996,-45.410,-8.789,14.648,0
1582565899.437,25.391,-16.113,-1.465,13.672,0
1582565899.441,29.297,-0.977,9.766,20.020,0
1582565899.443,19.043,0.000,4.395,11.719,0
1582565899.447,12.207,-10.742,-9.766,8.301,0
1582565899.451,24.414,-26.367,-20.508,20.996,0
1582565899.455,36.621,-34.668,-22.949,32.715,0
1582565899.459,30.762,-39.062,-23.438,19.531,0
1582565899.463,22.949,-29.297,-28.320,9.766,0
1582565899.467,24.414,-22.461,-20.508,15.625,0
1582565899.470,19.531,-28.320,-11.230,14.160,0
1582565899.474,18.066,-15.625,-9.277,17.578,0
1582565899.478,26.855,-3.906,-3.906,20.508,0
1582565899.482,25.879,-11.230,5.859,20.996,0
1582565899.486,21.484,-11.719,15.137,25.879,0
1582565899.488,20.996,-22.461,13.184,19.043,0
1582565899.492,20.020,-36.621,-0.977,12.695,0
1582565899.496,25.879,-27.344,-12.695,21.484,0
1582565899.500,26.367,-31.738,-12.695,24.902,0
1582565899.504,22.949,-44.922,-17.090,19.043,0
1582565899.508,17.578,-29.297,-20.020,13.672,0
1582565899.512,13.184,-7.324,-18.555,14.648,0
1582565899.515,18.555,4.395,-26.367,20.508,0
1582565899.519,15.137,-1.465,-31.250,17.578,0
1582565899.523,12.207,-8.301,-30.273,13.672,0
1582565899.527,13.184,-18.066,-17.090,14.160,0
1582565899.531,16.602,-24.902,-10.254,11.230,0
1582565899.533,23.926,-35.156,-17.090,9.277,0
1582565899.537,9.277,-42.969,-18.555,5.371,0
1582565899.541,0.000,-30.273,-15.137,5.859,0
1582565899.545,6.836,-27.344,-26.367,2.930,0
1582565899.549,17.090,-13.184,-39.551,0.977,0
1582565899.553,26.367,-1.953,-26.855,6.348,0
1582565899.557,31.250,-5.371,-9.766,0.000,0
1582565899.560,38.574,-0.977,-6.836,-0.977,0
1582565899.564,46.875,-1.953,-8.301,7.324,0
1582565899.568,37.598,-12.695,-10.254,5.859,0
1582565899.572,24.902,-20.996,-4.883,10.254,0
1582565899.576,33.203,-19.531,-1.465,29.785,0
1582565899.579,38.574,-27.344,-14.160,48.828,0
1582565899.583,24.414,-25.391,-22.949,33.691,0
1582565899.587,22.461,2.930,-73.242,17.090,0
1582565899.591,35.645,-0.488,-138.184,22.949,0
1582565899.595,23.926,-9.277,-157.227,19.531,0
1582565899.599,14.648,0.000,-158.203,17.578,0
1582565899.603,19.043,2.930,-143.555,22.461,0
1582565899.606,14.648,-1.465,-139.160,18.555,0
1582565899.610,11.719,-8.789,-133.789,18.555,0
1582565899.614,13.184,-13.184,-110.840,20.996,0
1582565899.618,20.508,-18.066,-102.539,18.066,0
1582565899.622,25.391,-20.508,-114.746,20.020,0
1582565899.624,25.879,-12.695,-121.582,22.461,0
1582565899.628,27.344,-12.695,-114.258,29.785,0
1582565899.632,18.555,-28.320,-107.910,29.785,0
1582565899.636,13.672,-25.391,-97.656,26.855,0
1582565899.640,17.578,-12.207,-85.449,24.902,0
1582565899.644,17.578,-2.441,-84.961,18.066,0
1582565899.648,17.090,2.441,-82.031,21.484,0
1582565899.651,10.254,-3.418,-92.285,15.137,0
1582565899.655,10.742,-6.836,-104.980,12.207,0
1582565899.659,19.531,-6.836,-105.469,16.113,0
1582565899.663,25.879,-15.625,-106.445,17.090,0
1582565899.667,32.227,-15.137,-109.863,24.902,0
1582565899.669,25.879,-4.395,-117.188,22.949,0
1582565899.673,28.809,-10.254,-109.863,25.879,0
