timestamps,TP9,AF7,AF8,TP10,Right AUX,Marker0
1582059655.6020002,43.457,-85.449,33.203,33.691,0.0,0
1582059655.606,39.062,85.449,36.133,27.832,0.0,0
1582059655.61,28.809,87.402,35.156,20.508000000000006,0.0,0
1582059655.6139998,27.344,-78.613,32.715,22.461,0.0,0
1582059655.6179998,17.09,-96.68,34.668,21.973000000000006,0.0,0
1582059655.6220002,16.602,-187.5,35.156,18.066,0.0,0
1582059655.6260002,18.555,-190.918,37.109,20.02,0.0,0
1582059655.629,7.324,-338.379,38.086,17.09,0.0,0
1582059655.633,16.602,-518.555,33.691,27.832,0.0,0
1582059655.637,20.996,-290.527,28.809,22.949,0.0,0
1582059655.641,15.625,-149.414,22.461,1.465,0.0,0
1582059655.645,20.508000000000006,-158.691,20.996,-2.93,0.0,0
1582059655.647,15.137,-125.488,36.621,-17.578,0.0,0
1582059655.651,11.23,28.32,42.48,-6.836,0.0,0
1582059655.655,22.949,38.574,37.598,14.648,0.0,0
1582059655.659,24.902,-50.293,36.133,-0.977,0.0,0
1582059655.663,20.996,-13.184,30.762,-4.395,0.0,0
1582059655.667,31.25,-78.125,25.879,8.789,0.0,0
1582059655.671,36.621,-234.375,21.973000000000006,3.906,0.0,0
1582059655.674,26.367,-408.203,24.902,5.859,0.0,0
1582059655.678,6.836,-293.457,33.691,-9.277,0.0,0
1582059655.6820002,20.508000000000006,-84.961,32.715,-22.461,0.0,0
1582059655.686,35.156,-144.043,32.227,-8.789,0.0,0
1582059655.69,47.363,-71.289,31.738000000000003,6.836,0.0,0
1582059655.6920002,53.223,-26.855,25.391,14.16,0.0,0
1582059655.696,38.574,-54.688,25.879,6.348,0.0,0
1582059655.7,42.48,17.09,24.902,14.16,0.0,0
1582059655.704,66.895,49.805,28.32,35.645,0.0,0
1582059655.708,44.922,82.031,21.973000000000006,21.973000000000006,0.0,0
1582059655.712,0.488,-44.434,9.766,-5.859,0.0,0
1582059655.716,-18.066,-388.672,19.531,-31.738000000000003,0.0,0
1582059655.719,-16.113,-388.672,30.762,-43.457,0.0,0
1582059655.7229998,3.418,11.719,21.973000000000006,-31.25,0.0,0
1582059655.7270002,-23.438,105.957,9.277,-44.922,0.0,0
1582059655.731,-27.832,5.371,9.766,-76.172,0.0,0
1582059655.735,-16.602,75.684,14.16,-84.961,0.0,0
1582059655.738,-18.555,191.406,16.113,-57.617,0.0,0
1582059655.742,-8.789,133.30100000000002,14.16,-28.32,0.0,0
1582059655.746,-3.906,-53.223,4.883,-40.039,0.0,0
1582059655.75,0.0,-35.645,6.348,-44.434,0.0,0
1582059655.754,-2.93,113.77,8.789,-37.109,0.0,0
1582059655.758,10.254,-83.008,7.324,-36.621,0.0,0
1582059655.762,3.418,-426.758,8.789,-30.273000000000003,0.0,0
1582059655.765,5.859,-238.281,18.555,-28.32,0.0,0
1582059655.769,20.996,54.688,23.438,-25.391,0.0,0
1582059655.7729998,8.789,12.695,14.648,-24.414,0.0,0
1582059655.7770002,7.812,-37.598,12.695,-25.879,0.0,0
1582059655.781,5.371,30.273000000000003,19.043,-21.973000000000006,0.0,0
1582059655.7970002,23.926,158.691,24.902,-4.883,0.0,0
1582059655.801,37.598,39.062,24.414,-4.883,0.0,0
1582059655.805,17.578,-92.773,24.414,-7.812,0.0,0
1582059655.809,28.32,-39.551,23.926,-7.812,0.0,0
1582059655.813,18.555,-4.395,22.949,-5.371,0.0,0
1582059655.8170002,15.137,-145.02,17.09,-13.672,0.0,0
1582059655.821,9.766,-284.668,20.508000000000006,-24.902,0.0,0
1582059655.824,-6.836,-103.027,24.414,-11.719,0.0,0
1582059655.8279998,31.738000000000003,92.285,18.555,-10.742,0.0,0
1582059655.832,30.762,-107.91,21.973000000000006,-13.184,0.0,0
1582059655.836,5.859,-233.398,32.715,-13.184,0.0,0
1582059655.84,10.254,13.184,32.715,-18.555,0.0,0
1582059655.842,12.207,41.01600000000001,22.949,-7.812,0.0,0
1582059655.846,26.367,-21.484,24.414,5.371,0.0,0
1582059655.85,21.484,21.484,26.367,-3.418,0.0,0
1582059655.854,20.508000000000006,8.789,26.855,-1.465,0.0,0
1582059655.8579998,24.414,-77.148,25.391,0.488,0.0,0
1582059655.8620002,24.902,-84.473,23.926,-0.488,0.0,0
1582059655.8660002,28.809,-157.227,27.832,-17.09,0.0,0
1582059655.869,14.16,-108.398,26.367,-16.113,0.0,0
1582059655.873,12.695,-117.676,21.484,5.371,0.0,0
1582059655.877,20.996,-324.707,28.809,-19.043,0.0,0
1582059655.881,4.883,-76.172,40.039,-31.738000000000003,0.0,0
1582059655.885,-8.301,134.766,39.551,-8.789,0.0,0
1582059655.887,10.254,-10.742,28.32,-14.648,0.0,0
1582059655.891,19.531,2.441,27.344,-14.648,0.0,0
1582059655.895,22.949,155.273,33.203,-0.488,0.0,0
1582059655.899,25.879,62.5,29.297,1.953,0.0,0
1582059655.903,18.555,-90.82,22.949,-6.348,0.0,0
1582059655.907,16.113,-184.57,26.855,-4.883,0.0,0
1582059655.911,27.344,-188.965,36.133,-11.23,0.0,0
1582059655.914,22.461,19.531,40.527,-6.836,0.0,0
1582059655.918,4.395,-181.641,28.32,-1.953,0.0,0
1582059655.9220002,17.09,-353.027,29.785,-3.418,0.0,0
1582059655.926,32.715,49.316,40.527,3.906,0.0,0
1582059655.93,36.621,135.254,36.621,1.953,0.0,0
1582059655.9320002,44.434,-41.992,31.738000000000003,5.371,0.0,0
1582059655.936,46.387,-10.742,34.668,8.301,0.0,0
1582059655.94,44.434,127.93,34.668,2.441,0.0,0
1582059655.944,46.875,69.824,28.32,-2.441,0.0,0
1582059655.948,29.785,-20.996,30.762,1.953,0.0,0
1582059655.952,29.297,-157.227,37.598,9.277,0.0,0
1582059655.956,54.199,-181.152,35.645,17.09,0.0,0
1582059655.959,59.57,-17.578,32.227,8.789,0.0,0
1582059655.9629998,52.246,-209.961,34.668,0.977,0.0,0
1582059655.967,42.969,-148.92600000000004,38.574,9.277,0.0,0
1582059655.971,40.039,108.887,35.645,12.207,0.0,0
1582059655.975,32.715,92.285,34.668,-1.465,0.0,0
1582059655.978,21.973000000000006,44.434,40.039,-1.953,0.0,0
1582059655.982,32.715,86.426,42.48,19.043,0.0,0
1582059655.986,38.574,25.879,38.574,-0.977,0.0,0
1582059655.99,29.297,-37.598,32.227,-4.883,0.0,0
1582059655.994,23.438,32.715,37.598,19.043,0.0,0
1582059655.998,36.621,-122.559,39.062,0.0,0.0,0
1582059656.002,38.574,-137.695,38.086,-11.23,0.0,0
1582059656.005,33.203,-168.457,45.41,-9.766,0.0,0
1582059656.0089998,35.156,-263.672,45.898,-11.719,0.0,0
1582059656.0129998,41.01600000000001,12.207,38.574,-3.418,0.0,0
1582059656.0170002,38.574,86.426,36.621,-12.207,0.0,0
1582059656.021,31.25,16.602,36.621,4.883,0.0,0
1582059656.022,34.18,64.453,36.621,20.508000000000006,0.0,0
1582059656.026,42.969,127.93,38.086,-15.625,0.0,0
1582059656.03,27.344,53.223,39.551,-22.949,0.0,0
1582059656.034,12.695,-89.355,35.156,-7.812,0.0,0
1582059656.038,36.133,-78.613,34.18,-11.719,0.0,0
1582059656.042,34.668,-137.207,39.551,-23.438,0.0,0
1582059656.046,5.371,-342.773,40.039,-36.133,0.0,0
1582059656.049,-4.395,-542.969,36.621,-47.852,0.0,0
1582059656.053,-0.488,-373.047,31.738000000000003,-56.152,0.0,0
1582059656.0570002,-10.742,-42.969,33.203,-51.758,0.0,0
1582059656.061,-22.461,-79.102,33.203,-62.988,0.0,0
1582059656.065,-29.297,-162.59799999999996,34.18,-59.082,0.0,0
1582059656.0679998,-18.066,-70.801,36.133,-70.801,0.0,0
1582059656.072,-16.602,-58.594,28.809,-90.332,0.0,0
1582059656.076,-41.504,-229.004,23.926,-101.074,0.0,0
1582059656.08,-62.012,-361.816,24.414,-125.488,0.0,0
1582059656.084,-80.078,-331.055,23.926,-133.789,0.0,0
1582059656.0879998,-88.37899999999998,-312.5,20.02,-138.672,0.0,0
1582059656.092,-93.75,-581.543,-2.441,-147.461,0.0,0
1582059656.095,-106.445,-650.879,-12.695,-163.57399999999996,0.0,0
1582059656.099,-102.539,-293.457,12.207,-166.99200000000005,0.0,0
1582059656.103,-110.352,-268.555,20.02,-167.48,0.0,0
1582059656.107,-114.746,-257.324,12.695,-179.688,0.0,0
1582059656.111,-93.75,-195.312,11.23,-173.828,0.0,0
1582059656.113,-93.75,-85.93799999999997,10.742,-160.156,0.0,0
1582059656.117,-105.469,-12.207,7.812,-169.43400000000003,0.0,0
1582059656.121,-92.773,-67.87100000000001,6.836,-183.105,0.0,0
1582059656.125,-82.031,-42.969,12.695,-182.617,0.0,0
1582059656.129,-100.098,21.484,15.625,-166.50400000000005,0.0,0
1582059656.133,-94.238,-55.176,14.16,-148.438,0.0,0
1582059656.137,-76.172,-295.41,16.113,-160.645,0.0,0
1582059656.14,-82.031,-226.562,14.648,-163.57399999999996,0.0,0
1582059656.144,-71.289,17.578,8.789,-141.113,0.0,0
1582059656.1479998,-79.102,-7.812,12.207,-139.16,0.0,0
1582059656.1520002,-84.473,68.848,15.625,-139.16,0.0,0
1582059656.156,-61.523,58.594,13.672,-142.09,0.0,0
1582059656.173,-44.434,-89.844,9.766,-129.88299999999998,0.0,0
1582059656.177,-46.387,-22.461,2.93,-122.559,0.0,0
1582059656.181,-41.992,68.359,0.0,-126.465,0.0,0
1582059656.185,-36.621,190.918,11.23,-101.074,0.0,0
1582059656.189,-37.598,132.32399999999998,20.996,-80.566,0.0,0
1582059656.1929998,-35.645,-91.309,19.531,-72.75399999999998,0.0,0
1582059656.197,-37.109,-173.828,20.02,-76.172,0.0,0
1582059656.2,15.625,69.336,23.926,-64.941,0.0,0
1582059656.204,36.621,240.723,13.184,-38.086,0.0,0
1582059656.208,24.902,-54.199,13.184,-44.434,0.0,0
1582059656.212,41.504,-126.465,22.949,-43.457,0.0,0
1582059656.216,39.062,228.516,22.949,-46.387,0.0,0
1582059656.218,33.203,253.418,20.02,-49.316,0.0,0
1582059656.222,57.129,150.391,30.273000000000003,-6.836,0.0,0
1582059656.226,75.195,26.855,41.01600000000001,23.926,0.0,0
1582059656.23,73.242,61.523,29.297,14.648,0.0,0
1582059656.234,74.219,156.738,28.809,4.883,0.0,0
1582059656.238,69.824,-62.988,35.645,1.465,0.0,0
1582059656.242,60.547,-172.363,41.504,1.465,0.0,0
1582059656.245,66.406,89.844,38.086,15.137,0.0,0
1582059656.2489998,64.453,180.664,26.367,20.508000000000006,0.0,0
1582059656.2529998,71.777,-123.535,22.461,17.578,0.0,0
1582059656.2570002,80.566,-62.988,29.297,19.531,0.0,0
1582059656.2610002,81.543,221.191,32.227,18.066,0.0,0
1582059656.2629998,90.82,221.68,24.414,27.832,0.0,0
1582059656.2670002,85.93799999999997,93.262,22.461,34.668,0.0,0
1582059656.271,67.87100000000001,31.25,30.762,28.32,0.0,0
1582059656.275,67.87100000000001,122.07,27.832,26.367,0.0,0
1582059656.279,90.82,175.293,22.949,38.086,0.0,0
1582059656.283,90.332,-17.578,25.391,33.203,0.0,0
1582059656.2870002,71.777,-177.24599999999995,26.367,31.738000000000003,0.0,0
1582059656.29,72.75399999999998,-143.555,22.461,37.598,0.0,0
1582059656.294,83.49600000000002,-186.523,16.602,28.809,0.0,0
1582059656.298,76.172,-180.664,20.02,1.953,0.0,0
1582059656.302,72.266,84.473,29.297,8.301,0.0,0
1582059656.306,77.637,123.535,28.32,33.691,0.0,0
1582059656.3079998,81.055,67.87100000000001,20.996,18.066,0.0,0
1582059656.312,83.008,93.75,23.438,25.879,0.0,0
1582059656.316,68.359,97.656,24.902,40.527,0.0,0
1582059656.32,65.43,36.133,22.461,37.598,0.0,0
1582059656.324,76.66,-5.859,19.043,47.363,0.0,0
1582059656.3279998,69.824,-1.953,20.02,41.504,0.0,0
1582059656.332,76.66,-91.797,27.344,31.738000000000003,0.0,0
1582059656.335,58.105,-187.988,25.391,36.133,0.0,0
1582059656.339,64.941,-302.7340000000001,29.297,41.01600000000001,0.0,0
1582059656.343,89.355,-69.824,43.945,41.992,0.0,0
1582059656.347,72.75399999999998,203.125,41.01600000000001,30.762,0.0,0
1582059656.351,75.684,39.551,32.227,24.414,0.0,0
1582059656.353,62.012,-11.23,32.227,50.78100000000001,0.0,0
1582059656.357,60.059,168.945,34.18,57.129,0.0,0
1582059656.361,67.383,199.219,37.598,42.969,0.0,0
1582059656.365,57.129,24.414,28.809,39.062,0.0,0
1582059656.369,53.223,-14.648,19.531,36.621,0.0,0
1582059656.373,53.71100000000001,36.621,23.438,19.043,0.0,0
1582059656.377,49.805,27.832,30.273000000000003,18.555,0.0,0
1582059656.38,47.363,-191.895,35.156,17.578,0.0,0
1582059656.3839998,36.133,-414.062,29.785,5.859,0.0,0
1582059656.3879998,43.945,-101.074,21.973000000000006,18.555,0.0,0
1582059656.3920002,47.363,150.391,21.973000000000006,29.297,0.0,0
1582059656.396,28.809,9.766,15.137,23.438,0.0,0
1582059656.3979998,33.203,-103.027,27.344,6.348,0.0,0
1582059656.4020002,40.527,46.387,39.062,-12.695,0.0,0
1582059656.406,31.25,119.141,36.621,-4.883,0.0,0
1582059656.41,35.645,-8.789,39.062,8.301,0.0,0
1582059656.414,41.504,-35.645,35.156,-1.953,0.0,0
1582059656.418,14.16,-152.344,25.391,-12.695,0.0,0
1582059656.4220002,14.648,-270.996,24.902,-17.578,0.0,0
1582059656.425,38.574,-317.383,33.203,-8.301,0.0,0
1582059656.429,37.109,-210.938,31.25,-0.977,0.0,0
1582059656.4329998,22.461,13.672,22.949,-10.254,0.0,0
1582059656.437,20.996,-4.883,25.391,-19.043,0.0,0
1582059656.441,13.184,-36.133,26.855,-23.926,0.0,0
1582059656.4429998,0.488,25.879,20.996,-21.484,0.0,0
1582059656.447,27.344,50.293,18.066,-17.09,0.0,0
1582059656.451,41.992,-40.039,29.785,1.465,0.0,0
1582059656.455,33.203,-62.5,34.668,-5.371,0.0,0
1582059656.459,24.414,-36.621,22.949,-20.508000000000006,0.0,0
1582059656.4629998,6.348,-143.066,19.531,-20.02,0.0,0
1582059656.467,19.043,-383.301,21.484,-28.32,0.0,0
1582059656.47,31.25,-416.504,18.555,-25.391,0.0,0
1582059656.474,14.16,-109.863,19.043,-14.16,0.0,0
1582059656.478,9.277,-60.059,23.926,-21.973000000000006,0.0,0
1582059656.482,24.414,-122.07,23.926,-20.508000000000006,0.0,0
1582059656.486,29.785,-25.391,23.438,-2.441,0.0,0
1582059656.4889998,21.973000000000006,69.336,23.438,0.977,0.0,0
1582059656.4929998,34.668,34.18,19.531,-8.789,0.0,0
1582059656.4970002,50.293,-60.547,18.066,-12.207,0.0,0
1582059656.5010002,45.898,-58.594,13.184,7.812,0.0,0
1582059656.505,38.574,53.223,20.996,13.672,0.0,0
1582059656.5089998,29.297,-96.191,36.133,-4.395,0.0,0
1582059656.5129998,26.367,-415.527,32.227,-4.883,0.0,0
1582059656.516,30.762,-254.883,22.461,-2.441,0.0,0
1582059656.52,42.48,99.121,15.625,-11.23,0.0,0
1582059656.524,28.32,-65.918,20.02,-18.066,0.0,0
1582059656.528,12.207,-232.422,28.32,-1.953,0.0,0
1582059656.532,35.645,-47.852,28.32,0.0,0.0,0
1582059656.548,49.805,99.609,25.391,-7.324,0.0,0
1582059656.552,55.176,5.371,26.855,8.301,0.0,0
1582059656.556,50.293,-108.887,31.25,17.09,0.0,0
1582059656.56,39.551,24.902,22.949,20.508000000000006,0.0,0
1582059656.564,48.828,122.07,16.113,8.301,0.0,0
1582059656.5679998,41.504,-41.01600000000001,19.043,2.441,0.0,0
1582059656.572,36.133,-204.59,22.949,13.184,0.0,0
1582059656.575,32.227,-81.543,24.414,8.789,0.0,0
1582059656.579,28.809,30.273000000000003,20.508000000000006,-7.324,0.0,0
1582059656.583,35.645,-215.332,19.531,-16.602,0.0,0
1582059656.587,35.156,-239.258,23.438,-27.344,0.0,0
1582059656.591,27.344,32.227,24.902,-9.277,0.0,0
1582059656.593,27.832,79.102,16.113,6.348,0.0,0
1582059656.597,35.156,32.227,9.766,-0.977,0.0,0
1582059656.601,37.109,-18.555,17.09,-18.555,0.0,0
1582059656.605,46.875,-46.875,27.344,-22.461,0.0,0
1582059656.609,40.039,-39.062,28.32,-6.836,0.0,0
1582059656.613,29.297,-113.281,17.578,-2.93,0.0,0
1582059656.617,29.297,-192.871,16.602,-16.113,0.0,0
1582059656.62,32.715,-142.578,28.32,-25.879,0.0,0
1582059656.6239998,40.039,-77.637,30.762,-17.09,0.0,0
1582059656.6279998,42.48,-244.629,21.973000000000006,-20.996,0.0,0
1582059656.6320002,24.902,-64.453,24.902,-10.742,0.0,0
1582059656.6360002,31.25,56.64100000000001,24.414,1.465,0.0,0
1582059656.6379998,45.41,-173.34,20.996,-26.367,0.0,0
1582059656.6420002,36.133,-71.289,23.438,-29.297,0.0,0
1582059656.646,36.621,146.484,24.414,-3.906,0.0,0
1582059656.65,41.504,113.281,32.227,-11.23,0.0,0
1582059656.654,22.461,-23.438,28.809,-15.137,0.0,0
1582059656.658,20.996,-100.098,24.902,-6.348,0.0,0
1582059656.6620002,32.227,-124.512,26.367,-4.883,0.0,0
1582059656.665,33.691,-3.418,26.367,-6.348,0.0,0
1582059656.669,23.438,-172.363,29.297,-7.324,0.0,0
1582059656.673,17.09,-387.207,34.18,3.906,0.0,0
1582059656.677,21.973000000000006,3.906,33.203,0.977,0.0,0
1582059656.681,22.949,138.672,25.879,-16.113,0.0,0
1582059656.6829998,19.043,-29.297,17.578,-5.371,0.0,0
1582059656.687,23.438,0.977,21.973000000000006,-4.395,0.0,0
1582059656.691,16.113,48.828,26.855,-2.441,0.0,0
1582059656.695,-13.672,19.531,23.438,6.348,0.0,0
1582059656.699,0.488,-7.812,21.973000000000006,-12.695,0.0,0
1582059656.7029998,32.715,-136.23,26.367,-25.879,0.0,0
1582059656.707,33.691,-144.043,26.855,-21.973000000000006,0.0,0
1582059656.71,33.203,-25.879,19.043,-14.16,0.0,0
1582059656.714,30.273000000000003,-208.984,23.926,-12.695,0.0,0
1582059656.718,32.715,-139.648,33.691,0.0,0.0,0
1582059656.722,29.297,107.91,32.715,-4.395,0.0,0
1582059656.726,13.672,94.727,32.715,-20.996,0.0,0
1582059656.728,19.531,56.64100000000001,27.832,-12.695,0.0,0
1582059656.732,28.32,85.93799999999997,17.578,-7.812,0.0,0
1582059656.736,19.531,60.059,15.625,-12.207,0.0,0
1582059656.74,26.855,45.898,18.066,-7.812,0.0,0
1582059656.744,46.875,73.73,16.602,15.625,0.0,0
1582059656.748,56.152,-50.293,23.926,23.438,0.0,0
1582059656.752,34.668,-170.898,36.133,-7.812,0.0,0
1582059656.755,20.508000000000006,-307.129,30.273000000000003,-31.738000000000003,0.0,0
1582059656.7589998,23.926,-260.254,18.555,-31.738000000000003,0.0,0
1582059656.7629998,18.066,33.691,24.414,-27.832,0.0,0
1582059656.7670002,21.973000000000006,93.262,26.855,-25.391,0.0,0
1582059656.771,27.832,28.32,28.809,-28.32,0.0,0
1582059656.7729998,26.855,13.184,33.691,-24.902,0.0,0
1582059656.7770002,18.066,115.723,29.785,-17.578,0.0,0
1582059656.781,15.137,103.027,28.809,-14.648,0.0,0
1582059656.785,13.184,60.059,20.508000000000006,-19.531,0.0,0
1582059656.789,20.02,131.34799999999998,25.391,-22.949,0.0,0
1582059656.793,21.973000000000006,57.617,30.762,-6.348,0.0,0
1582059656.7970002,5.371,-158.691,21.484,-19.531,0.0,0
1582059656.8,30.762,-330.566,25.391,-40.039,0.0,0
1582059656.804,42.969,-255.859,32.715,-19.043,0.0,0
1582059656.8079998,25.391,-9.766,28.809,-15.625,0.0,0
1582059656.812,23.438,17.578,26.855,-26.367,0.0,0
1582059656.816,34.668,-26.855,27.832,-12.207,0.0,0
1582059656.8179998,38.086,170.898,23.438,-9.766,0.0,0
1582059656.822,33.691,259.766,18.555,-22.461,0.0,0
1582059656.826,26.367,80.566,18.555,-22.949,0.0,0
1582059656.83,23.926,14.648,22.461,-19.531,0.0,0
1582059656.834,29.297,107.91,25.391,-27.344,0.0,0
1582059656.8379998,23.926,65.43,24.414,-16.602,0.0,0
1582059656.842,30.762,-226.562,26.367,-13.672,0.0,0
1582059656.845,25.879,-364.746,20.508000000000006,-20.02,0.0,0
1582059656.849,25.879,-50.293,14.648,-6.348,0.0,0
1582059656.853,46.875,92.285,23.438,2.441,0.0,0
1582059656.857,38.086,42.48,23.926,-9.277,0.0,0
1582059656.861,33.691,-98.633,16.602,-14.648,0.0,0
1582059656.8639998,37.598,-105.957,17.578,-6.348,0.0,0
1582059656.8679998,33.203,-1.465,27.832,-1.465,0.0,0
1582059656.8720002,33.691,22.949,24.902,-9.766,0.0,0
1582059656.8760002,28.809,61.035,12.207,-30.273000000000003,0.0,0
1582059656.88,29.785,78.125,13.184,-24.414,0.0,0
1582059656.8839998,26.367,-99.609,25.391,-21.973000000000006,0.0,0
1582059656.8879998,8.789,-267.09,35.156,-16.113,0.0,0
1582059656.891,25.391,-73.73,34.668,-15.137,0.0,0
1582059656.895,48.34,138.672,27.832,-18.066,0.0,0
1582059656.899,46.387,89.355,21.973000000000006,-8.301,0.0,0
1582059656.903,41.504,96.191,20.996,-7.324,0.0,0
1582059656.907,25.879,134.27700000000002,24.902,-21.484,0.0,0
1582059656.923,12.695,116.211,32.715,-21.484,0.0,0
1582059656.927,12.207,-8.789,28.809,-29.785,0.0,0
1582059656.931,6.348,-135.74200000000002,20.996,-31.25,0.0,0
1582059656.935,-1.465,15.137,21.973000000000006,-11.23,0.0,0
1582059656.939,0.977,85.449,23.926,-19.043,0.0,0
1582059656.9429998,14.648,-140.625,20.02,-10.742,0.0,0
1582059656.947,20.996,-232.91,26.855,-16.602,0.0,0
1582059656.95,16.602,-36.621,24.414,-33.203,0.0,0
1582059656.954,17.578,69.336,13.672,-20.02,0.0,0
1582059656.958,13.672,-212.402,13.672,-21.973000000000006,0.0,0
1582059656.962,6.836,-243.164,13.672,-32.227,0.0,0
1582059656.966,3.418,114.258,20.996,-33.203,0.0,0
1582059656.968,18.066,117.188,25.879,-28.32,0.0,0
1582059656.972,36.621,-10.742,21.973000000000006,-14.648,0.0,0
1582059656.976,38.086,22.949,25.391,-10.254,0.0,0
1582059656.98,26.855,145.50799999999995,32.715,-11.23,0.0,0
1582059656.984,16.113,90.82,36.621,-4.395,0.0,0
1582059656.988,20.996,-138.184,36.621,7.324,0.0,0
1582059656.992,13.672,-228.516,27.832,7.324,0.0,0
1582059656.995,0.0,-150.391,20.996,-12.695,0.0,0
1582059656.9989998,28.32,-92.773,20.996,-18.066,0.0,0
1582059657.0029998,22.949,-280.273,22.461,-18.066,0.0,0
1582059657.0070002,13.184,-198.73,22.461,-17.578,0.0,0
1582059657.0110002,27.832,87.402,19.043,0.977,0.0,0
1582059657.0129998,37.109,67.87100000000001,21.973000000000006,-6.836,0.0,0
1582059657.0170002,20.996,-62.012,25.391,-9.277,0.0,0
1582059657.021,21.973000000000006,-20.02,26.855,0.0,0.0,0
1582059657.025,38.086,72.266,31.738000000000003,-23.926,0.0,0
1582059657.029,24.902,99.121,27.832,-40.527,0.0,0
1582059657.033,36.621,-87.891,26.855,-31.25,0.0,0
1582059657.0370002,43.457,-262.207,25.391,-15.137,0.0,1
1582059657.04,25.879,-107.91,22.949,-27.344,0.0,0
1582059657.044,7.812,-172.363,22.461,-43.945,0.0,0
1582059657.048,12.695,-293.945,20.508000000000006,-45.898,0.0,0
1582059657.052,19.531,-19.531,24.902,-35.645,0.0,0
1582059657.056,31.738000000000003,66.895,27.832,-22.461,0.0,0
1582059657.0579998,32.715,29.297,28.32,-38.086,0.0,0
1582059657.062,25.879,59.57,31.25,-25.391,0.0,0
1582059657.066,14.16,66.406,29.785,-25.391,0.0,0
1582059657.07,21.973000000000006,-68.848,22.461,-35.645,0.0,0
1582059657.074,19.531,-69.336,22.461,-32.227,0.0,0
1582059657.0779998,0.0,-78.613,27.344,-36.133,0.0,0
1582059657.082,8.789,-206.543,24.902,-34.668,0.0,0
1582059657.085,15.625,-162.59799999999996,17.578,-53.71100000000001,0.0,0
1582059657.089,11.23,-327.637,20.508000000000006,-60.059,0.0,0
1582059657.093,11.23,-202.637,32.227,-33.203,0.0,0
1582059657.097,31.25,97.656,29.785,-25.879,0.0,0
1582059657.101,39.551,-89.844,19.531,-13.672,0.0,0
1582059657.103,25.879,-162.109,16.113,-3.906,0.0,0
1582059657.107,12.207,60.547,17.578,-42.48,0.0,0
1582059657.111,9.766,137.207,19.531,-49.316,0.0,0
1582059657.115,12.695,-4.395,18.555,-27.344,0.0,0
1582059657.119,19.531,-51.27,19.043,-29.785,0.0,0
1582059657.123,30.762,-43.945,21.973000000000006,-27.832,0.0,0
1582059657.127,25.391,0.977,24.414,-32.715,0.0,0
1582059657.13,16.113,-173.34,26.367,-41.504,0.0,0
1582059657.1339998,22.461,-376.465,21.973000000000006,-24.902,0.0,0
1582059657.1379998,21.973000000000006,-34.18,22.949,-8.789,0.0,0
1582059657.1420002,26.367,151.855,23.438,-11.719,0.0,0
1582059657.146,30.273000000000003,65.43,22.461,-26.855,0.0,0
1582059657.1479998,43.945,18.066,23.438,-18.066,0.0,0
1582059657.1520002,52.246,184.082,21.484,-11.23,0.0,0
1582059657.156,41.992,164.551,21.973000000000006,-10.254,0.0,0
1582059657.16,48.34,-59.082,23.438,-12.207,0.0,0
1582059657.164,31.738000000000003,-27.832,23.926,-22.461,0.0,0
1582059657.168,29.785,-16.602,21.484,-25.391,0.0,0
1582059657.1720002,44.434,-58.105,22.461,-31.25,0.0,0
1582059657.175,29.297,-209.473,23.926,-26.367,0.0,0
1582059657.179,20.02,-179.688,23.438,-10.742,0.0,0
1582059657.1829998,26.367,62.012,24.902,-20.508000000000006,0.0,0
1582059657.187,26.367,51.27,30.762,-20.508000000000006,0.0,0
1582059657.191,39.551,53.71100000000001,25.879,-15.137,0.0,0
1582059657.1929998,19.531,97.656,19.531,-32.227,0.0,0
1582059657.197,8.301,86.426,19.531,-32.715,0.0,0
1582059657.201,26.367,26.855,18.555,-14.648,0.0,0
1582059657.205,28.32,24.414,21.484,-20.02,0.0,0
1582059657.209,27.832,42.969,26.367,-20.996,0.0,0
1582059657.2129998,18.555,-153.32,25.879,-29.297,0.0,0
1582059657.217,16.602,-420.898,25.879,-43.457,0.0,0
1582059657.22,41.992,-347.656,29.297,-16.602,0.0,0
1582059657.224,60.547,71.777,26.367,-0.488,0.0,0
1582059657.228,51.758,116.699,24.414,-20.02,0.0,0
1582059657.232,42.48,1.953,17.578,-17.09,0.0,0
1582059657.236,46.875,47.852,19.531,-4.883,0.0,0
1582059657.238,42.48,74.219,26.855,-13.672,0.0,0
1582059657.242,37.109,32.227,30.273000000000003,-2.93,0.0,0
1582059657.246,26.367,-15.625,31.25,-5.371,0.0,0
1582059657.25,22.461,31.25,22.461,-25.879,0.0,0
1582059657.254,37.109,134.27700000000002,19.531,-3.906,0.0,0
1582059657.258,36.621,-55.176,31.25,-3.418,0.0,0
1582059657.262,27.344,-445.312,32.227,-8.789,0.0,0
1582059657.265,22.949,-297.363,24.414,-6.348,0.0,0
1582059657.269,32.227,-60.547,23.438,-12.695,0.0,0
1582059657.2729998,32.227,-81.055,25.391,-9.277,0.0,0
1582059657.2770002,31.25,-89.844,29.785,-12.207,0.0,0
1582059657.281,31.25,10.254,30.762,-11.719,0.0,0
1582059657.299,30.273000000000003,224.609,27.344,-15.137,0.0,0
1582059657.303,27.832,103.516,26.855,-19.043,0.0,0
1582059657.3070002,11.23,-32.227,27.344,-13.672,0.0,0
1582059657.311,-0.488,121.094,26.855,-18.066,0.0,0
1582059657.315,10.254,166.50400000000005,28.809,-29.785,0.0,0
1582059657.319,-2.441,-64.453,24.902,-42.969,0.0,0
1582059657.323,-9.766,-174.805,18.066,-36.133,0.0,0
1582059657.326,29.297,-26.367,20.508000000000006,-10.742,0.0,0
1582059657.33,37.109,171.387,20.996,10.742,0.0,0
1582059657.334,31.738000000000003,-17.09,28.32,9.277,0.0,0
1582059657.3379998,36.133,-252.441,29.785,-3.906,0.0,0
1582059657.342,21.484,-90.332,17.578,-7.812,0.0,0
1582059657.343,15.625,20.508000000000006,14.648,-10.254,0.0,0
1582059657.347,27.344,33.691,25.879,-16.602,0.0,0
1582059657.351,16.113,14.648,39.551,-12.207,0.0,0
1582059657.355,9.277,75.684,38.574,-9.277,0.0,0
1582059657.359,30.762,39.551,32.715,-7.324,0.0,0
1582059657.363,36.133,-83.984,28.809,-7.324,0.0,0
1582059657.367,30.273000000000003,-149.90200000000004,27.832,-7.812,0.0,0
1582059657.37,31.25,-91.797,26.367,-2.441,0.0,0
1582059657.3739998,19.043,-31.25,21.973000000000006,-17.09,0.0,0
1582059657.3779998,7.812,-253.418,25.879,-40.039,0.0,0
1582059657.3820002,18.555,-137.207,28.809,-49.316,0.0,0
1582059657.3860002,10.742,122.559,30.273000000000003,-46.875,0.0,0
1582059657.389,-7.812,32.227,34.668,-32.227,0.0,0
1582059657.393,18.555,20.508000000000006,29.297,-31.738000000000003,0.0,0
1582059657.397,23.438,83.008,20.996,-8.301,0.0,0
1582059657.401,23.926,74.219,26.367,8.301,0.0,0
1582059657.405,50.78100000000001,-12.207,28.32,-19.043,0.0,0
1582059657.409,38.086,-101.562,26.855,-17.09,0.0,0
1582059657.413,35.645,-64.941,32.227,-5.859,0.0,0
1582059657.416,29.785,136.719,32.715,-10.742,0.0,0
1582059657.42,32.227,-53.223,25.879,-23.926,0.0,0
1582059657.424,40.527,-244.141,19.531,-28.809,0.0,0
1582059657.428,40.039,138.672,24.414,-44.922,0.0,0
1582059657.4320002,37.109,268.066,20.508000000000006,-38.574,0.0,0
1582059657.4329998,37.109,83.49600000000002,8.789,-14.16,0.0,0
1582059657.437,34.18,32.715,13.672,-27.344,0.0,0
1582059657.441,37.598,226.562,27.344,-17.09,0.0,0
1582059657.445,39.062,204.102,29.297,-19.043,0.0,0
1582059657.449,30.273000000000003,62.5,22.949,-23.926,0.0,0
1582059657.4529998,36.621,-71.289,17.578,-13.184,0.0,0
1582059657.457,32.227,-162.109,15.137,-13.672,0.0,0
1582059657.46,31.25,-151.855,23.438,-20.508000000000006,0.0,0
1582059657.464,35.645,-310.547,30.762,-24.902,0.0,0
1582059657.468,33.691,-182.129,33.691,-21.973000000000006,0.0,0
1582059657.472,12.695,131.34799999999998,31.738000000000003,-18.555,0.0,0
1582059657.476,8.789,71.777,31.25,-17.09,0.0,0
1582059657.478,26.855,28.32,30.273000000000003,-22.461,0.0,0
1582059657.482,34.18,50.293,23.438,-12.207,0.0,0
1582059657.486,32.227,10.254,22.461,-1.953,0.0,0
1582059657.49,30.273000000000003,-43.457,23.438,-11.23,0.0,0
1582059657.494,39.551,-20.508000000000006,20.02,-22.949,0.0,0
1582059657.498,28.809,-52.246,19.531,-20.02,0.0,0
1582059657.502,24.414,-124.023,25.391,-10.254,0.0,0
1582059657.505,30.273000000000003,-239.746,28.32,-30.273000000000003,0.0,0
1582059657.5089998,18.066,-316.406,27.344,-42.48,0.0,0
1582059657.5129998,11.719,-43.945,24.414,-17.09,0.0,0
1582059657.5170002,21.973000000000006,7.324,28.809,-16.113,0.0,0
1582059657.521,26.367,11.719,33.203,-11.23,0.0,0
1582059657.5229998,11.23,145.02,24.414,-23.926,0.0,0
1582059657.5270002,14.16,155.762,26.855,-31.738000000000003,0.0,0
1582059657.531,20.996,84.473,32.715,-11.23,0.0,0
1582059657.535,27.344,-14.16,29.785,-16.602,0.0,0
1582059657.539,23.438,33.203,20.508000000000006,-18.555,0.0,0
1582059657.543,12.695,17.578,24.414,-11.23,0.0,0
1582059657.5470002,32.227,-164.551,34.668,-18.066,0.0,0
1582059657.55,42.48,-342.285,31.25,-22.461,0.0,0
1582059657.554,24.414,-156.738,31.25,-9.277,0.0,0
1582059657.5579998,22.949,147.94899999999996,33.203,-5.859,0.0,0
1582059657.562,19.043,30.762,21.973000000000006,-11.719,0.0,0
1582059657.566,8.301,-116.211,17.578,-10.254,0.0,0
1582059657.5679998,12.207,13.184,22.949,-13.184,0.0,0
1582059657.572,19.531,162.59799999999996,28.809,-9.277,0.0,0
1582059657.576,35.156,46.875,31.738000000000003,-6.836,0.0,0
1582059657.58,28.32,-106.445,33.691,-20.508000000000006,0.0,0
1582059657.584,12.695,-62.012,31.738000000000003,-25.879,0.0,0
1582059657.5879998,14.648,10.254,27.344,-9.277,0.0,0
1582059657.592,33.203,-218.262,27.344,-3.906,0.0,0
1582059657.595,36.133,-297.363,26.367,-14.16,0.0,0
1582059657.599,28.809,30.273000000000003,19.043,-9.766,0.0,0
1582059657.603,24.414,134.766,20.508000000000006,-13.184,0.0,0
1582059657.607,16.602,101.074,22.949,-27.832,0.0,0
1582059657.611,9.766,30.273000000000003,17.578,-30.762,0.0,0
1582059657.629,22.461,82.52,19.043,-20.996,0.0,0
1582059657.633,34.668,152.832,20.996,-17.578,0.0,0
1582059657.637,22.461,36.133,24.902,-26.367,0.0,0
1582059657.641,20.02,25.879,22.461,-28.32,0.0,0
1582059657.645,12.207,68.359,11.719,-30.762,0.0,0
1582059657.649,14.648,-83.984,17.09,-35.645,0.0,0
1582059657.653,22.949,-333.496,23.438,-47.852,0.0,0
1582059657.656,16.113,-230.957,27.344,-42.969,0.0,0
1582059657.66,5.371,12.207,26.855,-33.691,0.0,0
1582059657.664,12.207,-22.461,26.367,-45.41,0.0,0
1582059657.668,30.273000000000003,-14.648,27.832,-40.039,0.0,0
1582059657.6720002,32.715,61.523,26.855,-43.945,0.0,0
1582059657.673,31.25,40.039,32.715,-48.34,0.0,0
1582059657.677,22.949,-50.293,30.273000000000003,-40.039,0.0,0
1582059657.681,25.879,-50.293,27.832,-41.992,0.0,0
1582059657.685,26.367,98.633,29.785,-50.293,0.0,0
1582059657.689,21.973000000000006,59.57,27.832,-49.316,0.0,0
1582059657.6929998,30.273000000000003,-166.016,31.25,-43.457,0.0,0
1582059657.697,17.09,-215.82,29.297,-53.223,0.0,0
1582059657.7,8.301,-46.875,24.902,-55.664,0.0,0
1582059657.704,4.883,53.223,21.973000000000006,-62.988,0.0,0
1582059657.708,0.488,-200.68400000000003,20.996,-71.777,0.0,0
1582059657.712,8.789,-310.547,30.762,-75.684,0.0,0
1582059657.716,-3.418,73.73,28.809,-73.73,0.0,0
1582059657.719,-12.695,175.78099999999995,22.949,-59.57,0.0,0
1582059657.7229998,-4.883,37.598,23.926,-62.012,0.0,0
1582059657.7270002,11.23,43.457,25.391,-65.43,0.0,0
1582059657.731,26.367,145.50799999999995,22.461,-53.71100000000001,0.0,0
1582059657.735,23.926,144.043,27.344,-32.715,0.0,0
1582059657.7389998,16.113,-5.859,25.391,-33.691,0.0,0
1582059657.7429998,20.02,-184.57,20.02,-50.293,0.0,0
1582059657.746,19.043,-82.52,23.438,-60.059,0.0,0
1582059657.75,21.973000000000006,-9.277,21.484,-61.035,0.0,0
1582059657.754,16.602,-249.023,19.531,-51.27,0.0,0
1582059657.758,6.348,-148.438,19.043,-46.875,0.0,0
1582059657.762,6.836,98.633,18.555,-50.78100000000001,0.0,0
1582059657.7629998,13.672,11.23,15.625,-60.059,0.0,0
1582059657.7670002,30.762,-73.242,15.625,-43.457,0.0,0
1582059657.771,26.367,24.902,19.043,-16.113,0.0,0
1582059657.775,10.254,94.238,20.996,-29.785,0.0,0
1582059657.779,31.738000000000003,41.504,27.832,-42.969,0.0,0
1582059657.783,30.762,-111.816,31.25,-42.48,0.0,0
1582059657.7870002,31.25,-200.68400000000003,26.855,-38.574,0.0,0
1582059657.79,35.645,4.395,25.391,-36.621,0.0,0
1582059657.794,32.715,-73.242,22.461,-35.156,0.0,0
1582059657.798,30.273000000000003,-332.52,20.996,-27.344,0.0,0
1582059657.802,18.066,-135.254,24.414,-16.602,0.0,0
1582059657.806,15.625,-59.082,22.949,-20.996,0.0,0
1582059657.809,16.113,11.719,22.949,-24.902,0.0,0
1582059657.813,18.066,168.457,27.344,-16.113,0.0,0
1582059657.8170002,13.672,235.352,28.809,-25.879,0.0,0
1582059657.821,9.766,141.602,22.461,-28.32,0.0,0
1582059657.825,34.18,24.902,17.09,-11.23,0.0,0
1582059657.829,41.01600000000001,-15.137,23.438,-15.625,0.0,0
1582059657.833,24.902,-73.242,27.344,-15.137,0.0,0
1582059657.836,28.32,-199.707,28.32,-2.93,0.0,0
1582059657.84,31.738000000000003,-355.469,26.855,-8.301,0.0,0
1582059657.844,30.273000000000003,-138.184,21.484,-10.254,0.0,0
1582059657.8479998,19.043,149.90200000000004,23.438,-6.348,0.0,0
1582059657.8520002,16.602,33.691,29.297,-15.137,0.0,0
1582059657.853,20.508000000000006,-57.129,27.832,-19.043,0.0,0
1582059657.857,21.484,82.52,23.438,-18.555,0.0,0
1582059657.861,17.09,8.789,21.973000000000006,-9.277,0.0,0
1582059657.865,7.812,-130.859,21.484,-18.555,0.0,0
1582059657.869,17.578,-49.805,18.555,-14.648,0.0,0
1582059657.873,22.461,-57.617,15.625,10.254,0.0,0
1582059657.877,20.508000000000006,-45.898,22.949,-1.953,0.0,0
1582059657.88,12.695,-173.828,24.902,-21.973000000000006,0.0,0
1582059657.8839998,9.277,-308.105,24.414,-16.113,0.0,0
1582059657.8879998,9.766,56.64100000000001,27.344,-7.324,0.0,0
1582059657.8920002,14.16,204.102,21.973000000000006,-10.254,0.0,0
1582059657.896,14.648,53.71100000000001,21.973000000000006,-11.23,0.0,0
1582059657.899,17.578,1.953,31.25,0.977,0.0,0
1582059657.903,20.02,103.516,31.25,0.977,0.0,0
1582059657.907,26.855,97.656,25.391,-2.441,0.0,0
1582059657.911,17.09,16.113,22.949,6.348,0.0,0
1582059657.915,7.812,-51.758,26.367,-0.977,0.0,0
1582059657.919,19.043,-149.414,27.832,-11.23,0.0,0
1582059657.923,21.973000000000006,-180.176,29.785,-5.371,0.0,0
1582059657.926,33.691,-366.211,28.32,4.395,0.0,0
1582059657.93,38.086,-261.719,20.02,3.418,0.0,0
1582059657.934,18.066,26.855,19.531,-19.043,0.0,0
1582059657.938,11.23,1.953,26.855,-32.227,0.0,0
1582059657.9420002,20.996,70.312,27.832,-20.02,0.0,0
1582059657.9429998,13.184,127.441,25.391,-30.762,0.0,0
1582059657.947,4.883,0.488,28.809,-24.902,0.0,0
1582059657.951,8.301,-98.633,28.809,-33.691,0.0,0
1582059657.955,20.02,-40.527,25.391,-47.363,0.0,0
1582059657.959,24.414,77.637,29.785,-23.926,0.0,0
1582059657.9629998,31.738000000000003,-54.199,28.32,-21.973000000000006,0.0,0
1582059657.967,38.086,-340.332,21.484,-32.715,0.0,0
1582059657.97,25.391,-390.625,25.391,-37.109,0.0,0
1582059657.974,21.973000000000006,-56.64100000000001,24.414,-28.32,0.0,0
1582059657.978,20.02,76.172,20.996,-31.25,0.0,0
1582059657.982,17.09,9.766,20.02,-37.109,0.0,0
1582059657.986,31.738000000000003,31.738000000000003,18.555,-38.086,0.0,0
1582059657.988,22.461,99.609,18.555,-37.598,0.0,0
1582059657.992,10.254,60.059,22.949,-28.32,0.0,0
1582059657.996,15.625,-26.855,31.738000000000003,-32.715,0.0,0
1582059658.0,24.414,-28.32,24.902,-35.156,0.0,0
1582059658.004,21.973000000000006,59.57,20.508000000000006,-32.227,0.0,0
1582059658.008,20.996,-91.309,30.273000000000003,-39.062,0.0,0
1582059658.012,13.672,-396.973,34.668,-38.574,0.0,0
1582059658.015,16.113,-208.008,31.25,-32.715,0.0,0
1582059658.019,35.645,99.121,27.832,-29.297,0.0,0
1582059658.0229998,35.645,89.844,23.926,-30.762,0.0,0
1582059658.0270002,30.273000000000003,-78.613,18.066,-21.973000000000006,0.0,0
1582059658.031,27.832,-100.098,24.902,-21.973000000000006,0.0,0
1582059658.048,32.715,118.652,32.227,-26.855,0.0,0
1582059658.052,33.691,78.125,29.297,-38.574,0.0,0
1582059658.056,17.09,2.441,23.926,-51.758,0.0,0
1582059658.06,9.277,87.891,24.902,-43.457,0.0,0
1582059658.064,17.578,110.84,25.879,-39.062,0.0,0
1582059658.0679998,28.32,-42.48,22.949,-42.969,0.0,0
1582059658.072,33.691,-247.55900000000003,20.508000000000006,-40.527,0.0,0
1582059658.075,25.879,-132.32399999999998,21.973000000000006,-39.062,0.0,0
1582059658.079,32.227,90.332,25.879,-36.133,0.0,0
1582059658.083,39.062,-57.129,23.438,-32.227,0.0,0
1582059658.087,30.762,-206.543,16.113,-33.691,0.0,0
1582059658.091,33.203,-24.902,19.531,-30.273000000000003,0.0,0
1582059658.093,25.879,82.031,29.297,-24.414,0.0,0
1582059658.097,27.344,-53.71100000000001,27.344,-23.438,0.0,0
1582059658.101,41.01600000000001,-115.234,26.367,-18.555,0.0,0
1582059658.105,33.203,83.008,25.879,-9.766,0.0,0
1582059658.109,21.973000000000006,92.773,19.043,-11.719,0.0,0
1582059658.113,27.344,-44.922,18.066,-22.461,0.0,0
1582059658.117,26.367,-136.719,18.066,-30.762,0.0,0
1582059658.12,14.648,-120.117,22.461,-28.809,0.0,0
1582059658.1239998,20.02,-91.309,24.414,-31.738000000000003,0.0,0
1582059658.1279998,15.625,-270.02,13.672,-42.48,0.0,0
1582059658.1320002,8.301,-96.68,14.648,-41.504,0.0,0
1582059658.1360002,18.555,111.328,24.902,-45.898,0.0,0
1582059658.1379998,8.301,-76.66,22.461,-49.805,0.0,0
1582059658.1420002,8.301,-115.234,18.066,-42.48,0.0,0
1582059658.146,20.996,71.289,16.602,-38.574,0.0,0
1582059658.15,19.043,64.941,15.625,-45.898,0.0,0
1582059658.154,17.09,-101.562,17.09,-53.71100000000001,0.0,0
1582059658.158,22.461,-195.312,19.531,-48.828,0.0,0
1582059658.1620002,31.25,-183.105,27.832,-36.133,0.0,0
1582059658.165,27.344,-50.293,32.227,-34.18,0.0,0
1582059658.169,16.113,-232.91,21.973000000000006,-37.109,0.0,0
1582059658.173,12.695,-370.117,24.414,-39.551,0.0,0
1582059658.177,17.578,40.039,30.273000000000003,-48.828,0.0,0
1582059658.181,27.832,182.129,26.367,-54.199,0.0,0
1582059658.1829998,20.02,2.441,20.508000000000006,-42.969,0.0,0
1582059658.187,18.555,-63.477,20.508000000000006,-30.762,0.0,0
1582059658.191,33.203,76.66,21.973000000000006,-21.973000000000006,0.0,0
1582059658.195,27.344,105.469,18.555,-27.832,0.0,0
1582059658.199,21.484,-20.02,23.438,-32.227,0.0,0
1582059658.2029998,36.133,-145.50799999999995,30.762,-19.043,0.0,0
1582059658.207,28.809,-121.094,27.832,-12.207,0.0,0
1582059658.21,21.973000000000006,-44.434,29.785,-13.184,0.0,0
1582059658.214,33.691,-298.828,31.738000000000003,-20.02,0.0,0
1582059658.218,25.391,-312.012,21.484,-34.18,0.0,0
1582059658.222,19.531,-19.043,19.043,-32.227,0.0,2
1582059658.226,29.297,98.145,21.973000000000006,-38.086,0.0,0
1582059658.228,27.832,46.875,17.578,-54.688,0.0,0
1582059658.232,19.531,33.203,20.996,-43.457,0.0,0
1582059658.236,3.418,43.945,24.902,-40.527,0.0,0
1582059658.24,12.207,-16.113,25.879,-46.875,0.0,0
1582059658.244,25.879,26.855,25.391,-41.01600000000001,0.0,0
1582059658.248,23.926,-37.109,25.391,-33.691,0.0,0
1582059658.252,25.879,-249.512,31.25,-40.039,0.0,0
1582059658.255,10.742,-373.535,23.438,-63.477,0.0,0
1582059658.2589998,9.277,-267.09,11.23,-59.082,0.0,0
1582059658.2629998,20.996,38.574,15.137,-51.27,0.0,0
1582059658.2670002,12.207,-17.578,18.555,-55.664,0.0,0
1582059658.271,16.113,-77.148,22.949,-51.27,0.0,0
1582059658.2729998,24.414,49.805,25.391,-57.617,0.0,0
1582059658.2770002,18.066,128.906,23.438,-63.965,0.0,0
1582059658.281,19.043,100.586,25.391,-51.27,0.0,0
1582059658.285,25.391,3.906,21.484,-41.01600000000001,0.0,0
1582059658.289,25.879,40.527,19.043,-43.945,0.0,0
1582059658.293,26.367,-45.898,27.344,-50.78100000000001,0.0,0
1582059658.2970002,27.832,-158.203,31.738000000000003,-50.78100000000001,0.0,0
1582059658.3,19.531,-324.707,32.715,-57.129,0.0,0
1582059658.304,20.02,-193.359,30.273000000000003,-45.41,0.0,0
1582059658.3079998,26.855,107.422,25.391,-34.668,0.0,0
1582059658.312,2.93,-6.836,22.949,-38.086,0.0,0
1582059658.316,0.488,-109.863,19.531,-35.156,0.0,0
1582059658.3179998,15.625,72.266,18.555,-34.668,0.0,0
1582059658.322,19.043,91.797,23.438,-29.785,0.0,0
1582059658.326,32.227,-155.762,31.25,-23.926,0.0,0
1582059658.33,26.855,-145.996,34.18,-23.438,0.0,0
1582059658.334,22.949,38.574,24.902,-26.855,0.0,0
1582059658.3379998,30.273000000000003,69.824,21.484,-20.02,0.0,0
1582059658.342,20.508000000000006,-206.055,25.391,-29.785,0.0,0
1582059658.345,12.207,-312.012,22.949,-38.086,0.0,0
1582059658.349,19.531,-33.691,20.02,-20.02,0.0,0
1582059658.353,26.367,102.051,23.926,-19.043,0.0,0
1582059658.357,21.973000000000006,42.48,30.762,-25.879,0.0,0
1582059658.361,8.301,-43.457,27.344,-26.855,0.0,0
1582059658.363,2.441,36.133,19.043,-41.01600000000001,0.0,0
1582059658.367,16.113,123.047,24.902,-49.316,0.0,0
1582059658.371,20.02,73.73,20.508000000000006,-28.809,0.0,0
1582059658.375,15.137,73.242,11.23,-31.738000000000003,0.0,0
1582059658.379,12.695,31.25,20.02,-43.457,0.0,0
1582059658.383,23.438,-103.516,24.414,-42.969,0.0,0
1582059658.387,29.785,-214.844,18.555,-40.527,0.0,0
1582059658.39,19.531,-96.191,20.02,-34.18,0.0,0
1582059658.394,18.066,95.215,28.32,-36.133,0.0,0
1582059658.3979998,25.391,1.465,23.926,-40.039,0.0,0
1582059658.4020002,25.391,-34.18,19.531,-41.992,0.0,0
1582059658.406,4.883,84.961,25.391,-53.223,0.0,0
1582059658.423,8.789,50.78100000000001,27.344,-56.152,0.0,0
1582059658.427,26.367,-46.875,24.902,-52.734,0.0,0
1582059658.431,19.531,-11.719,20.02,-57.617,0.0,0
1582059658.435,21.973000000000006,26.367,24.902,-60.547,0.0,0
1582059658.439,20.508000000000006,-9.766,22.461,-50.78100000000001,0.0,0
1582059658.4429998,22.461,-171.875,24.902,-44.434,0.0,0
1582059658.447,46.387,-272.949,38.086,-29.297,0.0,0
1582059658.45,45.41,-103.516,27.344,-28.809,0.0,0
1582059658.454,31.25,-42.969,20.508000000000006,-40.039,0.0,0
1582059658.458,26.855,-225.098,25.391,-37.598,0.0,0
1582059658.462,32.227,-238.77,24.414,-35.645,0.0,0
1582059658.466,38.574,54.199,23.926,-42.48,0.0,0
1582059658.468,36.133,87.891,24.902,-46.387,0.0,0
1582059658.472,37.598,59.57,20.02,-42.969,0.0,0
1582059658.476,36.133,75.195,16.602,-43.457,0.0,0
1582059658.48,30.762,129.395,18.066,-52.246,0.0,0
1582059658.484,28.809,132.32399999999998,18.066,-54.199,0.0,0
1582059658.488,24.414,-129.88299999999998,19.531,-27.832,0.0,0
1582059658.492,15.625,-279.297,23.438,-26.367,0.0,0
1582059658.495,21.973000000000006,-11.719,24.414,-41.01600000000001,0.0,0
1582059658.4989998,19.531,46.875,27.832,-53.223,0.0,0
1582059658.5029998,6.348,-239.258,27.344,-61.523,0.0,0
1582059658.5070002,11.23,-261.719,24.902,-60.547,0.0,0
1582059658.5110002,15.137,-22.949,27.344,-61.523,0.0,0
1582059658.5129998,17.09,7.324,27.344,-63.965,0.0,0
1582059658.5170002,23.926,-49.805,30.273000000000003,-45.41,0.0,0
1582059658.521,14.16,71.777,20.02,-27.344,0.0,0
1582059658.525,7.324,135.74200000000002,12.207,-34.18,0.0,0
1582059658.529,19.043,60.547,31.25,-37.109,0.0,0
1582059658.533,19.043,-77.148,37.109,-29.785,0.0,0
1582059658.5370002,7.812,-200.195,30.762,-30.762,0.0,0
1582059658.54,8.301,-107.91,23.438,-40.039,0.0,0
1582059658.544,23.438,-145.50799999999995,14.648,-43.457,0.0,0
1582059658.548,36.133,-308.594,16.602,-43.457,0.0,0
1582059658.552,23.926,-93.75,27.344,-49.805,0.0,0
1582059658.556,18.066,11.719,30.273000000000003,-50.293,0.0,0
1582059658.5579998,28.809,49.805,26.855,-40.039,0.0,0
1582059658.562,30.762,46.387,28.809,-38.574,0.0,0
1582059658.566,27.832,-37.109,29.785,-44.922,0.0,0
1582059658.57,14.648,-25.879,23.438,-51.758,0.0,0
1582059658.574,22.461,-6.836,20.996,-48.34,0.0,0
1582059658.5779998,26.855,-20.02,26.367,-48.828,0.0,0
1582059658.582,28.809,-121.582,30.273000000000003,-55.664,0.0,0
1582059658.585,27.832,-91.797,27.344,-38.086,0.0,0
1582059658.589,28.32,-207.031,20.996,-23.926,0.0,0
1582059658.593,45.898,-125.977,16.113,-32.715,0.0,0
1582059658.597,49.805,181.152,20.996,-40.527,0.0,0
1582059658.601,41.01600000000001,71.289,23.438,-46.875,0.0,0
1582059658.603,38.086,-32.227,18.066,-51.758,0.0,0
1582059658.607,44.434,115.234,20.508000000000006,-59.57,0.0,0
1582059658.611,40.527,154.785,25.879,-59.082,0.0,0
1582059658.615,37.109,30.762,26.367,-56.152,0.0,0
1582059658.619,30.273000000000003,-77.148,27.832,-43.457,0.0,0
1582059658.623,20.996,-104.98,21.484,-49.805,0.0,0
1582059658.627,20.02,-23.926,17.09,-66.895,0.0,0
1582059658.63,19.531,-198.242,21.973000000000006,-59.082,0.0,0
1582059658.6339998,20.508000000000006,-379.883,23.438,-53.223,0.0,0
1582059658.6379998,16.113,-95.215,32.227,-65.43,0.0,0
1582059658.6420002,17.09,93.75,36.133,-58.105,0.0,0
1582059658.646,18.555,9.766,30.762,-56.64100000000001,0.0,0
1582059658.6479998,27.344,-72.75399999999998,27.832,-67.383,0.0,0
1582059658.6520002,39.551,59.082,32.227,-76.172,0.0,0
1582059658.656,28.32,74.707,30.762,-70.801,0.0,0
1582059658.66,18.555,-33.203,20.508000000000006,-59.57,0.0,0
1582059658.664,16.113,-36.133,18.555,-66.406,0.0,0
1582059658.668,16.602,-107.422,22.949,-81.055,0.0,0
1582059658.6720002,25.879,-113.77,25.391,-87.402,0.0,0
1582059658.675,27.832,-228.027,22.461,-81.055,0.0,0
1582059658.679,12.695,-189.453,22.949,-67.87100000000001,0.0,0
1582059658.6829998,2.441,85.93799999999997,20.996,-60.059,0.0,0
1582059658.687,18.555,28.809,17.578,-61.035,0.0,0
1582059658.691,22.949,-26.367,20.996,-64.941,0.0,0
1582059658.6929998,18.066,53.223,18.066,-60.547,0.0,0
1582059658.697,27.344,48.34,25.879,-50.293,0.0,0
1582059658.701,31.25,21.973000000000006,29.785,-53.223,0.0,0
1582059658.705,30.762,71.777,18.066,-47.852,0.0,0
1582059658.709,24.414,194.824,17.09,-48.34,0.0,0
1582059658.7129998,27.344,60.547,28.809,-40.527,0.0,0
1582059658.717,26.367,-228.516,33.203,-31.25,0.0,0
1582059658.72,30.762,-215.332,36.133,-39.551,0.0,0
1582059658.724,29.297,25.879,34.18,-52.734,0.0,0
1582059658.728,22.949,89.355,32.227,-47.852,0.0,0
1582059658.732,10.254,-39.551,27.344,-43.457,0.0,0
1582059658.736,14.16,-27.344,14.16,-52.246,0.0,0
1582059658.738,20.508000000000006,119.629,19.531,-59.57,0.0,0
1582059658.742,10.742,58.105,27.832,-62.012,0.0,0
1582059658.746,2.93,-99.121,32.227,-52.246,0.0,0
1582059658.75,19.043,-26.855,34.668,-51.758,0.0,0
1582059658.754,32.227,144.043,32.227,-55.176,0.0,0
1582059658.758,18.066,-81.543,25.879,-60.547,0.0,0
1582059658.762,6.348,-398.926,20.996,-70.801,0.0,0
1582059658.765,12.207,-271.973,24.902,-63.477,0.0,0
1582059658.769,26.855,21.484,26.855,-62.012,0.0,0
1582059658.7729998,25.391,27.832,25.879,-63.965,0.0,0
1582059658.7770002,8.301,-65.43,24.902,-65.918,0.0,0
1582059658.781,6.836,51.27,25.879,-71.289,0.0,0
1582059658.798,27.344,134.766,28.32,-64.941,0.0,0
1582059658.802,36.621,-0.977,30.273000000000003,-58.594,0.0,0
1582059658.806,33.691,-148.438,29.785,-61.523,0.0,0
1582059658.81,35.645,-48.828,26.855,-56.64100000000001,0.0,0
1582059658.814,23.926,44.434,26.367,-55.664,0.0,0
1582059658.8179998,20.996,-103.027,25.879,-64.941,0.0,0
1582059658.822,35.156,-216.30900000000003,27.344,-70.801,0.0,0
1582059658.825,14.648,-103.027,29.785,-68.848,0.0,0
1582059658.829,16.113,67.87100000000001,30.762,-63.965,0.0,0
1582059658.833,35.645,-43.945,19.531,-72.266,0.0,0
1582059658.837,25.391,-213.867,19.043,-81.543,0.0,0
1582059658.841,12.207,-45.41,29.785,-83.49600000000002,0.0,0
1582059658.843,6.348,57.617,28.809,-82.031,0.0,0
1582059658.847,10.742,7.324,22.461,-66.406,0.0,0
1582059658.851,30.273000000000003,46.875,21.973000000000006,-56.64100000000001,0.0,0
1582059658.855,9.277,93.75,21.973000000000006,-56.152,0.0,0
1582059658.859,9.766,-64.941,20.508000000000006,-67.87100000000001,0.0,0
1582059658.863,32.227,-158.691,20.02,-69.336,0.0,0
1582059658.867,23.438,-129.395,17.09,-45.898,0.0,0
1582059658.87,18.066,-71.289,20.02,-47.852,0.0,0
1582059658.8739998,24.902,-83.49600000000002,19.043,-65.43,0.0,0
1582059658.8779998,32.227,-269.531,16.113,-61.035,0.0,0
1582059658.8820002,26.855,-136.23,22.461,-44.434,0.0,0
1582059658.8860002,25.879,140.137,25.391,-58.594,0.0,0
1582059658.889,27.344,87.402,27.344,-65.43,0.0,0
1582059658.893,18.555,-2.93,28.32,-58.594,0.0,0
1582059658.897,18.066,14.16,23.926,-59.082,0.0,0
1582059658.901,28.32,61.035,20.508000000000006,-50.78100000000001,0.0,0
1582059658.905,34.18,-22.461,21.973000000000006,-53.71100000000001,0.0,0
1582059658.909,12.207,-187.5,21.484,-63.477,0.0,0
1582059658.913,9.766,-121.094,23.926,-61.035,0.0,0
1582059658.916,19.043,-93.75,21.973000000000006,-51.758,0.0,0
1582059658.92,16.113,-309.57,21.484,-37.598,0.0,0
1582059658.924,11.23,-289.062,22.949,-44.922,0.0,0
1582059658.928,7.812,103.516,21.484,-53.223,0.0,0
1582059658.9320002,13.672,197.266,23.926,-56.64100000000001,0.0,0
1582059658.936,9.277,-69.336,30.762,-56.64100000000001,0.0,0
1582059658.94,11.23,-125.488,33.203,-51.758,0.0,0
1582059658.944,10.254,111.816,25.391,-55.664,0.0,0
1582059658.948,18.066,135.254,21.973000000000006,-47.852,0.0,0
1582059658.952,15.625,-15.625,27.344,-42.969,0.0,0
1582059658.956,11.719,-172.852,26.855,-46.387,0.0,0
1582059658.96,22.461,-184.082,23.926,-41.01600000000001,0.0,0
1582059658.9629998,27.832,12.207,21.484,-43.457,0.0,0
1582059658.967,20.508000000000006,-261.23,21.973000000000006,-36.133,0.0,0
1582059658.971,12.695,-352.539,21.973000000000006,-44.434,0.0,0
1582059658.975,6.348,-75.195,18.555,-58.594,0.0,0
1582059658.979,8.301,-42.969,17.578,-42.969,0.0,0
1582059658.978,8.789,27.344,20.02,-36.133,0.0,0
1582059658.982,11.23,101.562,17.578,-25.391,0.0,0
1582059658.986,27.832,135.74200000000002,15.625,-24.902,0.0,0
1582059658.99,11.23,54.688,17.578,-38.574,0.0,0
1582059658.994,0.0,24.414,20.02,-38.086,0.0,0
1582059658.998,19.043,-95.703,30.273000000000003,-28.809,0.0,0
1582059659.002,10.254,-189.941,33.203,-37.109,0.0,0
1582059659.005,16.113,-141.602,24.902,-36.133,0.0,0
1582059659.0089998,43.945,-207.52,23.438,-24.414,0.0,0
1582059659.0129998,32.227,17.578,22.949,-21.973000000000006,0.0,0
1582059659.0170002,19.531,74.707,20.508000000000006,-22.949,0.0,0
1582059659.021,19.043,-8.301,20.996,-34.18,0.0,0
1582059659.024,5.859,126.465,23.438,-42.48,0.0,0
1582059659.028,13.672,135.254,27.832,-53.223,0.0,0
1582059659.032,19.043,43.457,24.414,-54.199,0.0,0
1582059659.036,7.812,-65.43,17.578,-55.664,0.0,0
1582059659.04,10.254,-12.695,15.625,-59.082,0.0,0
1582059659.044,15.625,24.902,22.461,-40.527,0.0,0
1582059659.048,15.625,-138.672,25.391,-43.945,0.0,0
1582059659.051,5.859,-328.125,17.578,-44.434,0.0,0
1582059659.055,12.695,-157.227,23.438,-21.484,0.0,0
1582059659.059,25.391,123.535,26.367,-33.203,0.0,0
1582059659.063,24.414,16.113,23.926,-44.434,0.0,0
1582059659.0670002,21.973000000000006,-69.824,32.227,-46.387,0.0,0
1582059659.0679998,22.949,81.543,34.668,-49.316,0.0,0
1582059659.072,24.414,184.57,25.391,-47.852,0.0,0
1582059659.076,16.113,23.438,20.02,-54.199,0.0,0
1582059659.08,16.602,-82.52,16.113,-52.246,0.0,0
1582059659.084,18.066,-94.727,19.531,-35.156,0.0,0
1582059659.0879998,20.996,-64.453,21.484,-44.434,0.0,0
1582059659.092,21.973000000000006,-278.32,20.508000000000006,-71.289,0.0,0
1582059659.095,16.602,-377.441,21.973000000000006,-70.312,0.0,0
1582059659.099,9.277,-12.207,24.414,-63.477,0.0,0
1582059659.103,18.066,144.531,23.926,-51.27,0.0,0
1582059659.107,27.832,113.77,22.461,-37.109,0.0,0
1582059659.111,21.973000000000006,39.551,20.996,-45.898,0.0,0
1582059659.113,19.043,57.129,15.625,-36.621,0.0,0
1582059659.117,37.109,74.219,22.461,-26.855,0.0,0
1582059659.121,36.133,8.301,19.531,-35.645,0.0,0
1582059659.125,23.926,30.762,12.695,-41.01600000000001,0.0,0
1582059659.129,23.438,93.75,21.973000000000006,-45.41,0.0,0
1582059659.133,30.273000000000003,-48.34,24.902,-36.621,0.0,0
1582059659.137,34.18,-300.293,24.414,-33.691,0.0,0
1582059659.14,24.414,-271.973,25.879,-28.809,0.0,0
1582059659.144,23.438,-48.828,26.855,-18.555,0.0,0
1582059659.1479998,25.391,7.324,25.879,-31.25,0.0,0
1582059659.1520002,28.809,-7.812,24.902,-33.203,0.0,0
1582059659.156,36.621,110.352,24.414,-27.344,0.0,0
1582059659.173,20.02,152.832,25.879,-22.461,0.0,0
1582059659.177,11.23,-9.766,23.438,-35.156,0.0,0
1582059659.181,21.973000000000006,-28.809,20.02,-42.969,0.0,0
1582059659.185,22.461,134.27700000000002,25.879,-35.645,0.0,0
1582059659.189,10.254,122.559,27.832,-49.316,0.0,0
1582059659.1929998,13.184,-105.469,27.832,-47.363,0.0,0
1582059659.197,20.508000000000006,-219.238,27.344,-36.133,0.0,0
1582059659.2,17.09,-7.324,21.484,-33.203,0.0,0
1582059659.204,27.344,65.43,21.484,-33.203,0.0,0
1582059659.208,24.414,-217.773,11.719,-33.691,0.0,0
1582059659.212,26.367,-334.961,6.348,-26.367,0.0,0
1582059659.216,35.156,-10.254,24.902,-19.531,0.0,0
1582059659.218,16.602,118.652,30.273000000000003,-30.762,0.0,0
1582059659.222,14.648,10.742,25.391,-45.898,0.0,0
1582059659.226,26.855,-13.184,24.414,-38.086,0.0,0
1582059659.23,17.578,114.258,24.902,-31.738000000000003,0.0,0
1582059659.234,15.137,196.777,20.02,-39.551,0.0,0
1582059659.238,16.602,-56.152,20.02,-52.246,0.0,0
1582059659.242,24.902,-271.48400000000004,23.438,-43.457,0.0,0
1582059659.245,31.738000000000003,-44.434,23.926,-17.09,0.0,0
1582059659.2489998,29.785,139.16,30.762,-12.695,0.0,0
1582059659.2529998,29.297,-188.477,29.785,-20.996,0.0,0
1582059659.2570002,23.438,-202.148,21.973000000000006,-29.297,0.0,0
1582059659.2610002,21.973000000000006,161.13299999999995,18.066,-39.551,0.0,0
1582059659.2629998,30.273000000000003,156.25,22.949,-27.344,0.0,0
1582059659.2670002,30.273000000000003,-79.59,20.996,-30.273000000000003,0.0,0
1582059659.271,20.996,-56.152,19.043,-26.367,0.0,0
1582059659.275,24.902,26.367,26.855,-4.395,0.0,0
1582059659.279,29.297,-14.648,24.414,-12.207,0.0,0
1582059659.283,20.996,-135.74200000000002,20.508000000000006,-34.18,0.0,0
1582059659.2870002,18.066,-224.609,25.391,-32.715,0.0,0
1582059659.29,18.555,-62.5,28.32,-19.531,0.0,0
1582059659.294,20.02,-124.023,25.879,-20.996,0.0,0
1582059659.298,25.391,-274.902,21.973000000000006,-21.484,0.0,0
1582059659.302,22.949,72.75399999999998,10.742,-21.484,0.0,0
1582059659.306,26.855,121.094,8.789,-14.16,0.0,0
1582059659.3079998,32.715,59.57,19.043,-5.859,0.0,0
1582059659.312,30.762,100.586,28.32,-4.395,0.0,0
1582059659.316,29.785,117.188,29.297,-10.254,0.0,0
1582059659.32,20.996,105.469,21.484,-18.555,0.0,0
1582059659.324,15.137,-41.01600000000001,20.508000000000006,-20.996,0.0,0
1582059659.3279998,37.109,-167.96900000000005,23.438,-15.625,0.0,0
1582059659.332,43.457,-192.383,23.438,-10.254,0.0,0
1582059659.335,25.391,-88.37899999999998,16.113,-20.508000000000006,0.0,0
1582059659.339,31.25,-229.004,13.672,-24.414,0.0,0
1582059659.343,41.504,-170.41,22.461,-0.488,0.0,0
1582059659.347,22.949,127.441,21.484,8.789,0.0,1
1582059659.351,14.16,26.367,19.043,0.0,0.0,0
1582059659.353,24.414,-76.66,25.391,-2.93,0.0,0
1582059659.357,29.785,62.012,30.273000000000003,-4.883,0.0,0
1582059659.361,21.484,129.395,25.879,-0.488,0.0,0
1582059659.365,14.648,-15.137,16.602,3.418,0.0,0
1582059659.369,20.996,-50.293,20.02,-1.465,0.0,0
1582059659.373,26.367,-67.87100000000001,27.832,8.301,0.0,0
1582059659.377,24.902,-78.613,30.273000000000003,19.531,0.0,0
1582059659.38,23.926,-234.863,30.762,18.555,0.0,0
1582059659.3839998,18.066,-395.996,31.738000000000003,14.16,0.0,0
1582059659.3879998,13.672,-18.066,35.156,20.996,0.0,0
1582059659.3920002,19.043,195.801,39.062,19.531,0.0,0
1582059659.396,12.207,69.824,32.227,4.883,0.0,0
1582059659.3979998,14.648,37.598,28.809,23.926,0.0,0
1582059659.4020002,24.902,150.879,33.691,31.738000000000003,0.0,0
1582059659.406,16.113,189.941,26.367,9.766,0.0,0
1582059659.41,19.043,114.258,20.508000000000006,15.625,0.0,0
1582059659.414,22.949,36.621,26.367,26.367,0.0,0
1582059659.418,26.367,-108.398,23.926,26.367,0.0,0
1582059659.4220002,33.691,-187.012,18.555,22.461,0.0,0
1582059659.425,33.203,-341.797,21.973000000000006,20.996,0.0,0
1582059659.429,34.668,-249.512,27.832,30.762,0.0,0
1582059659.4329998,32.227,46.387,32.715,26.855,0.0,0
1582059659.437,30.273000000000003,-40.039,31.738000000000003,39.551,0.0,0
1582059659.441,26.367,-77.637,24.902,51.758,0.0,0
1582059659.4429998,34.668,51.758,23.926,28.32,0.0,0
1582059659.447,41.992,37.109,27.832,39.062,0.0,0
1582059659.451,24.902,-72.266,24.414,50.293,0.0,0
1582059659.455,23.926,-55.176,23.438,33.691,0.0,0
1582059659.459,25.391,92.773,27.344,36.133,0.0,0
1582059659.4629998,12.695,-30.273000000000003,28.809,41.992,0.0,0
1582059659.467,29.785,-315.43,30.762,41.01600000000001,0.0,0
1582059659.47,40.039,-359.375,31.25,43.457,0.0,0
1582059659.474,40.527,-16.602,27.344,44.922,0.0,0
1582059659.478,34.18,-4.883,26.367,43.457,0.0,0
1582059659.482,22.461,-167.48,25.391,37.598,0.0,0
1582059659.486,29.297,61.523,20.508000000000006,34.18,0.0,0
1582059659.488,30.273000000000003,166.50400000000005,20.02,41.504,0.0,0
1582059659.492,35.645,-34.668,22.461,48.828,0.0,0
1582059659.496,38.086,-81.543,25.879,55.664,0.0,0
1582059659.5,33.203,85.449,26.367,45.41,0.0,0
1582059659.504,26.855,221.191,21.973000000000006,41.504,0.0,0
1582059659.508,32.227,11.719,20.996,40.527,0.0,0
1582059659.512,34.18,-367.1880000000001,28.809,44.434,0.0,0
1582059659.515,27.344,-210.938,34.668,56.64100000000001,0.0,0
1582059659.519,18.066,141.113,35.156,45.898,0.0,0
1582059659.5229998,31.738000000000003,104.98,39.551,52.246,0.0,0
1582059659.5270002,35.156,4.883,38.574,62.988,0.0,0
1582059659.531,33.203,15.625,34.668,44.434,0.0,0
1582059659.548,40.039,82.52,38.086,52.246,0.0,0
1582059659.552,25.879,57.617,41.504,68.848,0.0,0
1582059659.556,42.48,-5.859,35.645,68.359,0.0,0
1582059659.56,50.78100000000001,6.836,31.738000000000003,74.707,0.0,0
1582059659.564,42.969,-7.812,38.574,69.824,0.0,0
1582059659.5679998,51.758,-133.30100000000002,44.434,65.43,0.0,0
1582059659.572,48.828,-171.387,43.945,71.289,0.0,0
1582059659.575,41.992,18.066,45.898,76.66,0.0,0
1582059659.579,40.527,164.551,43.945,56.152,0.0,0
1582059659.583,45.41,-33.691,37.109,47.363,0.0,0
1582059659.587,50.78100000000001,-207.031,38.574,62.012,0.0,0
1582059659.591,43.945,-17.09,40.039,62.988,0.0,0
1582059659.593,34.18,46.387,33.203,52.734,0.0,0
1582059659.597,37.598,-3.906,30.273000000000003,55.176,0.0,0
1582059659.601,38.574,17.09,30.762,60.059,0.0,0
1582059659.605,39.062,26.855,28.809,58.105,0.0,0
1582059659.609,39.062,-41.504,32.715,68.359,0.0,0
1582059659.613,55.176,-103.027,36.133,72.266,0.0,0
1582059659.617,42.48,-235.352,34.668,56.152,0.0,0
1582059659.62,20.508000000000006,-237.793,35.645,55.664,0.0,0
1582059659.6239998,25.391,-101.562,36.621,59.57,0.0,0
1582059659.6279998,33.691,-249.023,38.086,55.176,0.0,0
1582059659.6320002,47.363,-104.98,39.551,69.824,0.0,0
1582059659.6360002,30.273000000000003,158.691,25.879,67.87100000000001,0.0,0
1582059659.6379998,17.09,49.316,26.855,63.477,0.0,0
1582059659.6420002,34.668,-31.25,34.18,68.848,0.0,0
1582059659.646,44.922,85.449,33.203,71.289,0.0,0
1582059659.65,28.809,130.371,33.203,70.801,0.0,0
1582059659.654,17.578,1.465,30.273000000000003,69.336,0.0,0
1582059659.658,29.297,-137.695,21.973000000000006,66.895,0.0,0
1582059659.6620002,24.414,-130.371,26.367,53.71100000000001,0.0,0
1582059659.665,20.996,98.145,35.645,61.523,0.0,0
1582059659.669,38.086,-37.109,32.715,77.148,0.0,0
1582059659.673,24.414,-376.953,27.832,68.848,0.0,0
1582059659.677,30.273000000000003,-187.012,29.297,66.406,0.0,0
1582059659.681,51.27,68.359,22.949,80.566,0.0,0
1582059659.6829998,43.945,41.992,18.555,90.82,0.0,0
1582059659.687,31.738000000000003,6.348,26.855,80.566,0.0,0
1582059659.691,40.527,161.621,29.785,71.289,0.0,0
1582059659.695,40.039,98.145,27.344,58.105,0.0,0
1582059659.699,20.508000000000006,-101.074,30.762,56.152,0.0,0
1582059659.7029998,22.461,-203.125,36.133,76.172,0.0,0
1582059659.707,40.039,-174.805,41.504,74.707,0.0,0
1582059659.71,27.832,-62.988,34.18,44.922,0.0,0
1582059659.714,12.207,-232.422,21.973000000000006,34.18,0.0,0
1582059659.718,11.23,-186.035,23.926,44.922,0.0,0
1582059659.722,20.02,117.188,23.438,39.062,0.0,0
1582059659.726,36.621,114.258,28.809,44.922,0.0,0
1582059659.728,29.297,15.137,34.18,51.758,0.0,0
1582059659.732,15.625,-38.574,29.297,50.78100000000001,0.0,0
1582059659.736,23.926,24.414,30.273000000000003,66.406,0.0,0
1582059659.74,20.02,44.434,33.691,59.082,0.0,0
1582059659.744,16.602,44.922,33.203,48.828,0.0,0
1582059659.748,23.926,-76.66,34.18,57.617,0.0,0
1582059659.752,8.789,-196.289,26.367,32.227,0.0,0
1582059659.755,14.16,-237.305,20.02,36.133,0.0,0
1582059659.7589998,37.109,-280.273,25.879,62.5,0.0,0
1582059659.7629998,35.645,-1.953,32.227,49.316,0.0,0
1582059659.7670002,26.367,41.992,35.156,43.945,0.0,0
1582059659.771,22.461,-19.531,29.785,40.527,0.0,0
1582059659.7729998,21.484,142.578,23.438,34.668,0.0,0
1582059659.7770002,24.414,210.938,19.043,38.086,0.0,0
1582059659.781,20.996,148.92600000000004,22.949,36.621,0.0,0
1582059659.785,20.02,-17.578,27.344,36.621,0.0,0
1582059659.789,11.23,-107.422,22.461,33.203,0.0,0
1582059659.793,1.953,-21.484,19.531,25.391,0.0,0
1582059659.7970002,3.906,-171.875,24.414,22.949,0.0,0
1582059659.8,15.625,-402.832,28.809,29.297,0.0,0
1582059659.804,25.391,-217.285,25.879,31.738000000000003,0.0,0
1582059659.8079998,19.043,163.086,28.809,38.574,0.0,0
1582059659.812,14.648,94.727,35.156,44.434,0.0,0
1582059659.816,14.648,-36.133,30.762,39.551,0.0,0
1582059659.8179998,23.926,57.129,26.855,53.223,0.0,0
1582059659.822,18.555,163.086,28.809,58.594,0.0,0
1582059659.826,6.348,86.426,24.902,39.551,0.0,0
1582059659.83,3.906,-13.672,20.508000000000006,33.203,0.0,0
1582059659.834,15.137,83.49600000000002,27.344,49.805,0.0,0
1582059659.8379998,33.203,29.785,38.574,60.059,0.0,0
1582059659.842,31.25,-244.141,28.809,47.363,0.0,0
1582059659.845,18.555,-368.164,17.09,39.062,0.0,0
1582059659.849,20.02,-115.723,27.344,54.688,0.0,0
1582059659.853,23.926,84.961,27.832,58.105,0.0,0
1582059659.857,23.438,38.086,24.902,50.293,0.0,0
1582059659.861,13.672,-29.785,27.832,51.27,0.0,0
1582059659.879,2.441,29.785,23.926,51.27,0.0,0
1582059659.883,24.902,50.78100000000001,19.531,40.527,0.0,0
1582059659.887,29.785,0.488,20.996,39.062,0.0,0
1582059659.891,15.625,19.531,26.367,41.992,0.0,0
1582059659.895,23.926,1.465,27.832,29.297,0.0,0
1582059659.899,32.715,-128.418,18.555,34.18,0.0,0
1582059659.903,32.227,-328.61300000000006,11.23,40.039,0.0,0
1582059659.906,25.879,-188.965,17.09,31.25,0.0,0
1582059659.91,25.391,137.695,23.438,22.949,0.0,0
1582059659.914,23.926,25.879,25.879,25.879,0.0,0
1582059659.918,21.973000000000006,-106.445,25.879,39.551,0.0,0
1582059659.9220002,19.531,-4.395,23.926,42.48,0.0,0
1582059659.923,27.344,25.879,24.902,50.78100000000001,0.0,0
1582059659.927,36.133,-134.27700000000002,26.855,44.922,0.0,0
1582059659.931,41.01600000000001,-64.453,27.832,35.156,0.0,0
1582059659.935,38.086,158.203,26.855,39.062,0.0,0
1582059659.939,28.32,132.812,25.879,54.199,0.0,0
1582059659.9429998,25.879,-160.156,23.926,69.336,0.0,0
1582059659.947,20.996,-282.715,19.531,53.71100000000001,0.0,0
1582059659.95,17.578,21.973000000000006,19.043,32.715,0.0,0
1582059659.954,15.625,174.31599999999997,22.949,26.855,0.0,0
1582059659.958,5.859,-200.68400000000003,28.809,31.25,0.0,0
1582059659.962,-10.254,-392.09,22.461,21.973000000000006,0.0,0
1582059659.966,-0.977,10.742,15.625,11.719,0.0,0
1582059659.968,24.414,59.082,24.902,21.973000000000006,0.0,0
1582059659.972,24.414,-119.141,24.902,22.949,0.0,0
1582059659.976,26.367,-119.629,22.949,33.203,0.0,0
1582059659.98,35.645,105.957,27.344,37.598,0.0,0
1582059659.984,37.109,166.99200000000005,29.297,39.062,0.0,0
1582059659.988,31.25,-82.52,27.344,34.668,0.0,0
1582059659.992,20.996,-237.793,20.02,26.855,0.0,0
1582059659.995,26.855,-62.5,20.996,30.762,0.0,0
1582059659.9989998,39.551,84.473,24.902,48.828,0.0,0
1582059660.0029998,31.25,-187.012,24.414,45.898,0.0,0
1582059660.0070002,23.438,-163.086,31.738000000000003,28.809,0.0,0
1582059660.0110002,15.625,108.398,33.203,19.043,0.0,0
1582059660.0129998,28.809,104.492,20.508000000000006,13.184,0.0,0
1582059660.0170002,23.438,5.859,13.672,-0.488,0.0,0
1582059660.021,8.789,64.453,20.02,7.812,0.0,0
1582059660.025,30.273000000000003,2.441,23.926,18.555,0.0,0
1582059660.029,34.668,-113.77,23.926,10.742,0.0,0
1582059660.033,25.879,-103.027,25.391,6.348,0.0,0
1582059660.0370002,20.508000000000006,-180.176,27.344,5.371,0.0,0
1582059660.04,22.461,-93.262,27.832,10.742,0.0,0
1582059660.044,23.926,-181.152,25.391,12.207,0.0,0
1582059660.048,23.926,-334.961,24.414,13.672,0.0,0
1582059660.052,21.484,-37.598,23.926,10.742,0.0,0
1582059660.056,26.855,60.547,24.414,16.113,0.0,0
1582059660.059,28.32,96.68,26.367,24.902,0.0,0
1582059660.063,13.672,181.152,28.809,10.742,0.0,0
1582059660.0670002,12.207,216.797,26.367,12.207,0.0,0
1582059660.071,11.719,160.156,21.973000000000006,9.766,0.0,0
1582059660.075,15.137,15.137,21.973000000000006,3.418,0.0,0
1582059660.079,19.043,-71.777,23.926,20.996,0.0,0
1582059660.083,28.32,-136.23,32.715,37.109,0.0,0
1582059660.086,24.902,-267.09,35.156,28.32,0.0,0
1582059660.09,23.438,-411.133,24.902,11.719,0.0,0
1582059660.094,31.25,-195.801,26.855,20.996,0.0,0
1582059660.0979998,27.344,117.676,33.203,23.438,0.0,0
1582059660.1020002,26.367,9.766,37.109,13.672,0.0,0
1582059660.103,29.297,-108.398,31.738000000000003,11.719,0.0,0
1582059660.107,21.484,60.059,22.949,8.301,0.0,0
1582059660.111,20.02,151.855,21.973000000000006,3.418,0.0,0
1582059660.115,21.484,-63.965,25.391,-1.465,0.0,0
1582059660.119,8.301,-149.414,28.32,4.395,0.0,0
1582059660.123,22.949,-57.129,27.344,0.488,0.0,0
1582059660.127,26.855,10.254,24.414,-5.371,0.0,0
1582059660.13,13.184,-154.785,24.414,1.953,0.0,0
1582059660.1339998,10.254,-332.031,25.391,13.184,0.0,0
1582059660.1379998,13.672,-110.84,25.391,10.254,0.0,0
1582059660.1420002,24.414,-27.832,25.391,-7.812,0.0,0
1582059660.146,19.531,32.715,23.926,-15.137,0.0,0
1582059660.1479998,0.488,7.812,17.09,-20.02,0.0,0
1582059660.1520002,0.488,90.82,17.578,-18.066,0.0,0
1582059660.156,13.672,177.734,27.344,-19.043,0.0,0
1582059660.16,13.184,63.477,28.32,-8.789,0.0,0
1582059660.164,7.812,24.414,25.879,-3.418,0.0,0
1582059660.168,3.906,21.484,26.367,-12.695,0.0,0
1582059660.1720002,10.254,-73.73,27.832,-5.371,0.0,0
1582059660.175,21.973000000000006,-310.059,29.785,-1.953,0.0,0
1582059660.179,20.02,-228.027,30.762,-8.301,0.0,0
1582059660.1829998,11.23,6.836,25.879,-5.859,0.0,0
1582059660.187,12.695,-49.805,23.438,-4.395,0.0,0
1582059660.191,10.742,7.324,19.043,-9.766,0.0,0
1582059660.1929998,18.066,29.785,14.648,-5.859,0.0,0
1582059660.197,23.438,-15.137,23.438,9.766,0.0,0
1582059660.201,20.02,-30.273000000000003,25.391,-1.465,0.0,0
1582059660.205,28.32,-22.949,25.879,-2.93,0.0,0
1582059660.209,23.926,100.586,29.297,6.348,0.0,0
1582059660.2129998,15.137,-30.273000000000003,27.344,7.324,0.0,0
1582059660.217,26.367,-322.266,27.832,18.066,0.0,0
1582059660.22,24.902,-326.66,32.227,15.137,0.0,0
1582059660.224,20.508000000000006,51.758,28.32,1.953,0.0,0
1582059660.228,27.832,131.836,24.414,10.742,0.0,0
1582059660.232,21.484,-8.789,22.949,23.438,0.0,0
1582059660.236,23.926,39.062,24.414,23.438,0.0,0
1582059660.238,31.738000000000003,197.266,25.391,18.555,0.0,0
1582059660.242,27.344,173.34,20.02,6.836,0.0,0
1582059660.246,21.484,55.664,19.531,-2.93,0.0,0
1582059660.25,15.625,-22.949,18.066,5.859,0.0,0
1582059660.254,5.859,44.922,15.137,15.137,0.0,0
1582059660.258,18.555,-16.602,23.438,18.555,0.0,0
1582059660.262,24.414,-346.68,31.738000000000003,19.531,0.0,0
1582059660.265,26.367,-240.723,31.25,15.137,0.0,0
1582059660.269,32.227,104.492,25.391,19.043,0.0,0
1582059660.2729998,30.273000000000003,102.539,20.508000000000006,12.695,0.0,0
1582059660.2770002,29.297,-101.074,20.02,12.695,0.0,0
1582059660.281,25.879,-66.406,22.949,24.902,0.0,0
1582059660.298,30.762,144.531,20.508000000000006,34.668,0.0,0
1582059660.302,33.203,64.453,21.484,41.01600000000001,0.0,0
1582059660.306,31.738000000000003,-84.473,21.484,24.414,0.0,0
1582059660.31,25.391,-4.883,17.09,35.645,0.0,0
1582059660.314,26.855,97.168,23.926,54.688,0.0,0
1582059660.3179998,29.785,-94.727,31.738000000000003,26.855,0.0,0
1582059660.322,24.414,-315.43,35.645,12.207,0.0,0
1582059660.325,13.672,-133.30100000000002,34.668,27.344,0.0,0
1582059660.329,30.273000000000003,83.984,37.109,41.01600000000001,0.0,0
1582059660.333,48.828,-0.977,39.062,42.969,0.0,0
1582059660.337,39.062,-60.547,30.273000000000003,40.527,0.0,0
1582059660.341,28.809,25.391,28.809,41.992,0.0,0
1582059660.343,19.043,8.301,29.297,34.668,0.0,0
1582059660.347,20.996,-31.25,38.086,28.32,0.0,0
1582059660.351,23.438,22.949,46.387,35.156,0.0,0
1582059660.355,25.879,70.801,41.992,33.691,0.0,0
1582059660.359,37.109,37.598,43.945,45.41,0.0,0
1582059660.363,40.039,-57.617,42.969,51.758,0.0,0
1582059660.367,37.598,-198.73,35.156,38.086,0.0,0
1582059660.37,30.273000000000003,-108.398,39.062,33.203,0.0,0
1582059660.3739998,15.625,-30.273000000000003,41.992,36.621,0.0,0
1582059660.3779998,19.531,-286.621,38.086,36.621,0.0,0
1582059660.3820002,39.062,-173.34,41.01600000000001,33.691,0.0,0
1582059660.3860002,46.387,140.137,41.992,29.297,0.0,0
1582059660.3879998,58.594,40.527,40.039,44.922,0.0,0
1582059660.3920002,56.152,-24.902,40.527,46.387,0.0,0
1582059660.396,57.617,115.234,38.574,12.207,0.0,1
1582059660.4,57.617,116.211,38.086,7.324,0.0,0
1582059660.404,45.898,-12.207,38.574,33.691,0.0,0
1582059660.408,41.992,-176.75799999999995,36.133,28.32,0.0,0
1582059660.4120002,54.199,-208.496,32.715,17.578,0.0,0
1582059660.415,63.965,-12.207,32.715,25.879,0.0,0
1582059660.419,59.082,-145.02,38.086,35.645,0.0,0
1582059660.423,57.129,-369.141,39.062,21.973000000000006,0.0,0
1582059660.427,68.848,-10.742,38.574,22.461,0.0,0
1582059660.431,74.707,165.03900000000004,43.945,31.738000000000003,0.0,0
1582059660.4329998,59.082,-1.953,48.34,27.832,0.0,0
1582059660.437,41.992,-35.156,41.01600000000001,21.973000000000006,0.0,0
1582059660.441,43.945,129.395,35.645,21.484,0.0,0
1582059660.445,44.922,152.832,40.527,29.297,0.0,0
1582059660.449,35.156,-1.465,37.598,26.367,0.0,0
1582059660.4529998,29.297,-126.465,34.668,26.367,0.0,0
1582059660.457,35.645,-195.312,41.504,28.32,0.0,0
1582059660.46,36.621,-112.793,42.969,12.207,0.0,0
1582059660.464,33.203,-247.55900000000003,41.992,18.066,0.0,0
1582059660.468,34.668,-249.512,34.668,37.109,0.0,0
1582059660.472,36.621,69.336,29.297,34.668,0.0,0
1582059660.476,43.457,79.102,36.621,30.762,0.0,0
1582059660.478,37.598,16.113,48.34,28.32,0.0,0
1582059660.482,34.18,65.918,50.78100000000001,29.785,0.0,0
1582059660.486,40.527,138.184,44.434,35.645,0.0,0
1582059660.49,41.504,5.371,38.574,27.832,0.0,0
1582059660.494,42.969,-1.953,35.156,32.227,0.0,0
1582059660.498,41.01600000000001,-7.324,34.18,37.109,0.0,0
1582059660.502,43.457,-102.539,40.039,33.203,0.0,0
1582059660.505,37.109,-147.461,44.434,31.738000000000003,0.0,0
1582059660.5089998,21.484,-269.043,42.48,26.367,0.0,0
1582059660.5129998,34.668,-11.719,36.133,27.344,0.0,0
1582059660.5170002,40.527,55.176,35.156,27.344,0.0,0
1582059660.521,43.945,-54.199,34.668,18.555,0.0,0
1582059660.5229998,58.105,46.875,36.133,20.996,0.0,0
1582059660.5270002,51.27,137.695,36.621,34.18,0.0,0
1582059660.531,47.363,86.426,33.203,32.227,0.0,0
1582059660.535,50.293,-43.457,38.086,34.668,0.0,0
1582059660.539,45.41,-7.812,40.527,28.809,0.0,0
1582059660.543,46.875,17.09,40.039,24.902,0.0,0
1582059660.5470002,44.434,-109.863,41.504,29.297,0.0,0
1582059660.55,23.438,-316.895,38.574,25.879,0.0,0
1582059660.554,21.484,-219.238,37.598,19.043,0.0,0
1582059660.5579998,29.297,121.582,36.621,19.531,0.0,0
1582059660.562,33.691,68.359,35.156,23.926,0.0,0
1582059660.566,41.992,-73.73,36.133,30.273000000000003,0.0,0
1582059660.5679998,44.922,58.105,32.715,34.668,0.0,0
1582059660.572,34.668,213.867,32.715,30.762,0.0,0
1582059660.576,35.645,73.73,40.039,20.02,0.0,0
1582059660.58,40.039,-59.57,38.086,7.324,0.0,0
1582059660.584,32.227,29.297,31.738000000000003,17.578,0.0,0
1582059660.5879998,35.645,8.301,31.25,28.809,0.0,0
1582059660.592,30.273000000000003,-195.312,33.691,16.113,0.0,0
1582059660.595,22.949,-333.0080000000001,35.156,4.883,0.0,0
1582059660.599,29.297,-35.645,31.25,24.414,0.0,0
1582059660.603,31.738000000000003,37.109,36.133,35.156,0.0,0
1582059660.607,29.297,-111.328,40.527,18.066,0.0,0
1582059660.611,32.227,-69.824,36.621,22.949,0.0,0
1582059660.613,34.18,30.273000000000003,36.621,42.969,0.0,0
1582059660.617,38.574,87.891,34.668,49.805,0.0,0
1582059660.621,45.41,71.777,36.621,41.01600000000001,0.0,0
1582059660.625,37.598,37.109,38.574,38.574,0.0,0
1582059660.629,34.668,51.758,38.086,38.574,0.0,0
1582059660.633,37.109,-37.598,35.645,30.762,0.0,0
1582059660.637,26.367,-282.715,30.762,22.461,0.0,0
1582059660.64,36.621,-209.961,29.297,24.414,0.0,0
1582059660.644,39.551,40.527,29.297,14.648,0.0,0
1582059660.6479998,28.32,-26.367,34.668,21.484,0.0,0
1582059660.6520002,38.574,-23.438,34.18,47.852,0.0,0
1582059660.656,47.852,94.727,30.273000000000003,37.598,0.0,0
1582059660.673,44.434,5.859,29.785,15.137,0.0,0
1582059660.677,45.898,-148.438,27.344,21.484,0.0,0
1582059660.681,45.41,-93.75,27.344,26.367,0.0,0
1582059660.685,42.48,83.984,32.715,28.32,0.0,0
1582059660.689,41.01600000000001,134.766,35.156,26.855,0.0,0
1582059660.6929998,38.086,-77.148,35.645,31.738000000000003,0.0,0
1582059660.697,33.203,-264.16,35.645,22.949,0.0,0
1582059660.7,33.691,-64.941,30.762,5.859,0.0,0
1582059660.704,27.344,151.855,27.344,14.648,0.0,0
1582059660.708,32.715,-150.391,33.691,17.09,0.0,0
1582059660.712,47.363,-330.0780000000001,45.898,31.25,0.0,0
1582059660.716,26.367,3.418,39.551,16.602,0.0,0
1582059660.719,27.344,83.008,29.785,11.23,0.0,0
1582059660.7229998,25.391,-63.477,33.203,26.367,0.0,0
1582059660.7270002,16.602,-66.895,29.785,10.254,0.0,0
1582059660.731,26.367,-5.371,29.785,1.953,0.0,0
1582059660.735,25.391,63.965,36.133,2.93,0.0,0
1582059660.7389998,21.973000000000006,-54.199,36.621,-0.488,0.0,0
1582059660.7429998,20.02,-226.074,34.18,10.254,0.0,0
1582059660.746,13.672,-11.719,33.203,8.301,0.0,0
1582059660.75,14.16,101.074,36.133,-0.488,0.0,0
1582059660.754,8.789,-240.234,36.621,4.883,0.0,0
1582059660.758,9.766,-165.03900000000004,37.109,13.184,0.0,0
1582059660.762,21.484,199.219,37.109,7.324,0.0,0
1582059660.764,32.715,100.098,35.645,-1.953,0.0,0
1582059660.768,39.551,-6.836,34.668,7.812,0.0,0
1582059660.772,20.02,56.152,28.32,10.742,0.0,0
1582059660.776,31.25,96.191,28.809,21.973000000000006,0.0,0
1582059660.78,47.363,107.91,24.414,17.09,0.0,0
1582059660.784,36.621,-55.176,21.484,1.465,0.0,0
1582059660.788,32.227,-250.488,20.508000000000006,6.348,0.0,0
1582059660.791,28.809,-210.938,25.879,15.625,0.0,0
1582059660.795,34.18,-158.203,29.297,21.973000000000006,0.0,0
1582059660.799,32.227,-207.031,29.785,16.602,0.0,0
1582059660.803,11.23,-7.324,33.203,-3.418,0.0,0
1582059660.8070002,16.113,83.984,34.18,1.465,0.0,0
1582059660.8079998,27.344,51.758,36.133,10.254,0.0,0
1582059660.812,34.668,135.74200000000002,31.25,9.277,0.0,0
1582059660.816,36.133,173.828,25.391,15.625,0.0,0
1582059660.82,31.25,100.098,24.414,13.672,0.0,0
1582059660.824,38.574,26.855,25.391,13.184,0.0,0
1582059660.8279998,45.41,-34.18,27.832,16.113,0.0,0
1582059660.832,44.434,-108.887,27.832,11.719,0.0,0
1582059660.835,47.363,-86.914,28.32,15.137,0.0,0
1582059660.839,42.969,-212.891,28.809,15.137,0.0,0
1582059660.843,34.668,-214.355,28.32,24.414,0.0,0
1582059660.847,27.344,118.652,28.809,23.926,0.0,0
1582059660.851,23.926,80.566,30.273000000000003,11.23,0.0,0
1582059660.853,28.32,-44.434,22.461,16.113,0.0,0
1582059660.857,41.992,128.906,18.555,29.785,0.0,0
1582059660.861,37.598,239.746,28.32,27.344,0.0,0
1582059660.865,28.32,80.078,29.785,27.832,0.0,0
1582059660.869,20.508000000000006,-63.477,23.926,20.996,0.0,0
1582059660.873,20.996,-65.43,23.926,5.371,0.0,0
1582059660.877,29.785,-19.531,30.762,8.789,0.0,0
1582059660.88,33.691,-192.871,32.227,13.184,0.0,0
1582059660.8839998,33.203,-389.648,27.344,14.648,0.0,0
1582059660.8879998,37.598,-115.723,28.32,6.348,0.0,0
1582059660.8920002,45.41,118.164,33.691,18.066,0.0,0
1582059660.896,43.457,89.355,28.32,31.25,0.0,0
1582059660.8979998,43.457,-81.055,24.902,22.949,0.0,0
1582059660.9020002,38.574,-28.32,34.668,32.715,0.0,0
1582059660.906,41.504,137.207,33.691,40.527,0.0,0
1582059660.91,48.828,95.703,28.32,29.785,0.0,0
1582059660.914,38.086,93.262,29.297,20.508000000000006,0.0,0
1582059660.918,27.832,-27.832,29.785,29.297,0.0,0
1582059660.9220002,24.902,-174.31599999999997,30.273000000000003,23.438,0.0,0
1582059660.925,35.156,-239.258,29.785,21.484,0.0,0
1582059660.929,31.738000000000003,-184.57,34.668,30.762,0.0,0
1582059660.9329998,21.973000000000006,84.961,35.156,15.625,0.0,0
1582059660.937,26.367,65.918,34.668,18.555,0.0,0
1582059660.941,25.879,5.371,36.133,29.297,0.0,0
1582059660.9429998,32.227,123.047,40.527,34.18,0.0,0
1582059660.947,34.18,97.656,41.504,41.504,0.0,0
1582059660.951,25.879,-18.066,35.156,31.738000000000003,0.0,0
1582059660.955,37.598,-43.945,32.227,33.203,0.0,0
1582059660.959,39.062,-3.418,31.738000000000003,32.715,0.0,0
1582059660.9629998,19.043,-122.07,31.738000000000003,29.785,0.0,0
1582059660.967,18.066,-375.0,29.297,31.25,0.0,0
1582059660.97,34.18,-390.137,34.18,27.344,0.0,0
1582059660.974,27.344,-19.043,38.574,35.645,0.0,0
1582059660.978,18.555,141.602,28.809,28.32,0.0,0
1582059660.982,27.832,9.277,28.809,30.273000000000003,0.0,0
1582059660.986,30.762,54.688,30.762,45.41,0.0,0
1582059660.9910002,27.344,219.727,27.344,36.621,0.0,0
1582059660.995,21.973000000000006,98.633,28.809,32.227,0.0,0
1582059660.9989998,19.043,-66.895,30.273000000000003,28.809,0.0,0
1582059661.0029998,19.531,-3.418,26.367,22.949,0.0,0
1582059661.0070002,29.785,135.74200000000002,26.367,25.391,0.0,0
1582059661.0110002,25.391,-10.742,30.762,25.879,0.0,0
1582059661.015,11.23,-361.816,27.344,23.926,0.0,0
1582059661.018,17.578,-312.012,20.02,24.414,0.0,0
1582059661.022,24.902,85.93799999999997,20.996,29.297,0.0,0
1582059661.026,23.438,111.328,28.32,45.41,0.0,0
1582059661.03,13.184,-44.922,32.715,50.78100000000001,0.0,0
1582059661.034,25.879,-32.227,34.18,32.227,0.0,0
1582059661.048,39.551,78.125,36.621,19.531,0.0,0
1582059661.052,30.762,55.176,43.945,24.902,0.0,0
1582059661.056,23.926,-77.637,40.527,25.391,0.0,0
1582059661.06,19.531,-25.879,30.273000000000003,21.484,0.0,0
1582059661.064,20.996,94.238,25.391,21.484,0.0,0
1582059661.0679998,29.785,-74.219,25.391,15.137,0.0,0
1582059661.072,24.902,-273.926,26.855,8.301,0.0,0
1582059661.075,19.531,-44.434,32.715,18.066,0.0,0
1582059661.079,14.648,78.125,35.645,16.602,0.0,0
1582059661.083,10.254,-4.395,34.18,7.324,0.0,0
1582059661.087,6.348,1.953,28.809,10.742,0.0,0
1582059661.091,2.441,62.012,24.414,31.25,0.0,0
1582059661.093,13.672,108.887,29.297,38.574,0.0,0
1582059661.097,10.254,82.031,39.062,23.438,0.0,0
1582059661.101,7.812,71.289,42.48,28.32,0.0,0
1582059661.105,16.602,52.246,40.527,41.992,0.0,0
1582059661.109,21.484,-31.738000000000003,39.062,41.504,0.0,0
1582059661.113,22.949,-92.285,33.691,51.758,0.0,0
1582059661.117,19.531,-27.344,26.367,49.316,0.0,0
1582059661.12,13.184,72.266,26.367,25.879,0.0,0
1582059661.1239998,14.16,-6.836,29.297,25.391,0.0,0
1582059661.1279998,19.043,-292.969,29.297,22.949,0.0,0
1582059661.1320002,9.766,-180.176,30.273000000000003,5.859,0.0,0
1582059661.1360002,1.465,87.402,20.996,3.418,0.0,0
1582059661.1379998,10.742,-142.09,13.184,3.906,0.0,0
1582059661.1420002,20.508000000000006,-176.27,22.461,14.16,0.0,0
1582059661.146,29.297,44.434,30.762,25.879,0.0,0
1582059661.15,28.32,74.707,26.367,27.832,0.0,0
1582059661.154,24.902,-10.742,30.273000000000003,30.273000000000003,0.0,0
1582059661.158,31.25,-151.855,31.738000000000003,25.391,0.0,0
1582059661.1620002,40.039,-186.523,27.344,27.344,0.0,0
1582059661.165,36.621,37.109,30.762,40.039,0.0,0
1582059661.169,32.227,-70.312,28.809,36.621,0.0,0
1582059661.173,28.32,-381.348,22.461,29.785,0.0,0
1582059661.177,28.809,-147.461,20.508000000000006,34.18,0.0,0
1582059661.181,38.574,78.125,25.391,39.062,0.0,0
1582059661.1829998,38.574,4.395,30.762,42.969,0.0,0
1582059661.187,41.01600000000001,-38.574,33.203,41.992,0.0,0
1582059661.191,28.32,21.973000000000006,34.18,40.527,0.0,0
1582059661.195,20.996,-6.348,24.902,32.227,0.0,0
1582059661.199,33.691,-47.852,27.344,30.273000000000003,0.0,0
1582059661.2029998,37.109,-157.715,29.297,44.434,0.0,0
1582059661.207,33.691,-184.082,22.461,60.059,0.0,0
1582059661.21,32.715,18.555,27.344,43.457,0.0,0
1582059661.214,31.25,-143.555,28.32,32.227,0.0,0
1582059661.218,25.391,-219.238,20.02,36.621,0.0,0
1582059661.222,24.414,57.617,20.996,43.457,0.0,0
1582059661.226,35.645,75.684,25.391,47.852,0.0,0
1582059661.228,39.062,33.203,27.344,34.668,0.0,0
1582059661.232,30.762,72.266,28.809,37.598,0.0,0
1582059661.236,30.273000000000003,76.66,22.949,43.457,0.0,0
1582059661.24,36.621,24.414,21.973000000000006,30.762,0.0,0
1582059661.244,34.18,-33.203,23.926,29.297,0.0,0
1582059661.248,34.18,-107.91,21.484,42.48,0.0,0
1582059661.252,46.387,-168.457,22.949,47.363,0.0,0
1582059661.255,47.852,-264.16,28.809,43.457,0.0,0
1582059661.2589998,39.062,-349.6090000000001,27.344,41.992,0.0,0
1582059661.2629998,43.945,-82.031,23.438,42.48,0.0,0
1582059661.2670002,45.898,96.68,22.949,39.551,0.0,0
1582059661.271,33.691,-30.762,22.461,35.645,0.0,0
1582059661.274,35.156,-8.789,22.461,32.715,0.0,0
1582059661.278,27.832,160.645,24.902,32.227,0.0,0
1582059661.282,15.137,111.328,25.879,23.926,0.0,0
1582059661.286,23.438,15.137,28.809,30.273000000000003,0.0,0
1582059661.29,32.715,44.434,24.902,29.785,0.0,0
1582059661.294,18.555,-7.324,21.973000000000006,16.113,0.0,0
1582059661.298,26.855,-125.0,24.902,14.648,0.0,0
1582059661.301,36.133,-279.785,23.926,11.719,0.0,0
1582059661.305,23.926,-279.297,19.043,4.883,0.0,0
1582059661.309,25.879,-48.34,14.648,4.883,0.0,0
1582059661.313,33.203,-0.488,20.508000000000006,20.996,0.0,0
1582059661.3170002,27.344,3.906,27.832,22.461,0.0,0
1582059661.3179998,23.926,76.172,26.367,3.906,0.0,0
1582059661.322,31.738000000000003,136.23,31.738000000000003,16.113,0.0,0
1582059661.326,17.09,89.844,32.227,12.207,0.0,0
1582059661.33,21.973000000000006,-51.758,25.391,-1.953,0.0,0
1582059661.334,43.457,1.953,26.855,6.348,0.0,0
1582059661.3379998,32.715,16.602,29.785,4.883,0.0,0
1582059661.342,29.297,-206.543,29.297,5.371,0.0,0
1582059661.345,31.738000000000003,-360.352,26.367,-3.906,0.0,0
1582059661.349,25.879,-128.906,23.438,-0.977,0.0,0
1582059661.353,31.738000000000003,44.922,24.902,12.207,0.0,0
1582059661.357,37.109,72.75399999999998,27.344,7.812,0.0,0
1582059661.361,26.367,20.508000000000006,22.949,2.93,0.0,0
1582059661.363,27.832,-74.707,17.578,1.465,0.0,0
1582059661.367,26.855,-34.668,25.391,-1.953,0.0,0
1582059661.371,24.902,80.078,35.645,10.742,0.0,0
1582059661.375,23.926,35.156,40.527,0.977,0.0,0
1582059661.379,17.09,-19.531,37.109,-17.578,0.0,0
1582059661.383,27.344,-71.289,30.762,-10.254,0.0,0
1582059661.387,39.062,-287.1090000000001,28.32,-5.859,0.0,0
1582059661.39,35.156,-179.199,25.391,-5.371,0.0,0
1582059661.394,28.809,98.145,25.391,-0.488,0.0,0
1582059661.3979998,20.996,13.672,26.367,-5.371,0.0,0
1582059661.4020002,28.32,32.715,26.367,-11.23,0.0,0
1582059661.406,38.574,152.344,30.762,-3.418,0.0,0
1582059661.423,31.25,110.84,33.203,-1.465,0.0,0
1582059661.427,29.297,2.93,34.18,-2.441,0.0,0
1582059661.431,26.367,-50.78100000000001,36.133,-7.324,0.0,0
1582059661.435,39.551,-2.93,33.691,-9.766,0.0,0
1582059661.439,43.945,67.383,28.809,-10.742,0.0,0
1582059661.4429998,35.645,-190.918,24.902,-19.043,0.0,0
1582059661.447,40.527,-291.504,28.809,-15.625,0.0,0
1582059661.45,37.109,39.062,34.668,-14.648,0.0,0
1582059661.454,37.598,187.988,30.762,-11.23,0.0,0
1582059661.458,28.809,-42.969,22.461,-11.719,0.0,0
1582059661.462,28.32,-199.707,24.902,-20.996,0.0,0
1582059661.466,37.598,52.734,31.25,-25.879,0.0,0
1582059661.468,27.832,178.22299999999996,31.738000000000003,-27.832,0.0,0
1582059661.472,20.996,17.578,29.785,-27.832,0.0,0
1582059661.476,27.344,-0.488,33.203,-10.742,0.0,0
1582059661.48,38.086,98.633,37.109,-5.859,0.0,0
1582059661.484,36.133,122.07,35.645,-15.625,0.0,0
1582059661.488,32.715,-86.426,35.156,-14.16,0.0,0
1582059661.492,31.738000000000003,-290.039,38.574,-9.277,0.0,0
1582059661.495,30.762,-90.82,32.715,-11.719,0.0,0
1582059661.4989998,31.25,82.031,29.297,-9.277,0.0,0
1582059661.5029998,27.344,-227.539,29.785,-10.254,0.0,0
1582059661.5070002,19.531,-316.895,26.367,-7.812,0.0,0
1582059661.5110002,24.414,-25.879,27.344,-7.812,0.0,0
1582059661.5129998,34.18,31.25,32.227,-17.09,0.0,0
1582059661.5170002,33.691,26.855,39.551,-14.16,0.0,0
1582059661.521,25.391,120.117,30.273000000000003,-9.766,0.0,0
1582059661.525,22.461,136.719,22.949,-9.766,0.0,0
1582059661.529,15.137,12.695,25.391,-20.508000000000006,0.0,0
1582059661.533,18.066,-119.629,23.926,-18.066,0.0,0
1582059661.5370002,32.715,-215.82,30.762,-1.953,0.0,0
1582059661.54,29.297,-137.695,37.109,6.348,0.0,0
1582059661.544,20.996,-142.09,32.227,-2.93,0.0,0
1582059661.548,24.414,-296.387,30.273000000000003,-9.277,0.0,0
1582059661.552,16.602,-41.992,35.645,-10.254,0.0,0
1582059661.556,11.23,49.805,32.227,-14.16,0.0,0
1582059661.5579998,12.695,13.184,27.832,-14.16,0.0,0
1582059661.562,17.09,80.566,30.762,-8.301,0.0,0
1582059661.566,29.297,117.676,32.715,-7.812,0.0,0
1582059661.57,25.879,61.035,35.645,-4.395,0.0,0
1582059661.574,18.066,-38.574,35.156,-4.395,0.0,0
1582059661.5779998,20.996,-112.305,29.785,-8.789,0.0,0
1582059661.582,25.391,-118.164,30.273000000000003,-2.441,0.0,0
1582059661.585,28.32,-125.0,29.785,1.953,0.0,0
1582059661.589,31.25,-343.75,25.879,5.371,0.0,1
1582059661.593,30.273000000000003,-259.277,30.273000000000003,7.812,0.0,0
1582059661.597,34.668,50.293,33.203,6.348,0.0,0
1582059661.601,40.527,13.672,27.832,11.719,0.0,0
1582059661.6179998,35.645,-80.566,29.785,19.043,0.0,0
1582059661.6220002,33.691,30.762,32.227,21.973000000000006,0.0,0
1582059661.6260002,34.668,110.84,36.621,25.391,0.0,0
1582059661.63,23.438,4.395,39.062,32.715,0.0,0
1582059661.6339998,25.391,-41.992,31.25,35.156,0.0,0
1582059661.6379998,38.086,-61.035,32.227,28.809,0.0,0
1582059661.6420002,40.527,-87.402,39.062,29.297,0.0,0
1582059661.645,41.992,-181.152,36.621,29.297,0.0,0
1582059661.649,36.621,-330.566,30.273000000000003,31.738000000000003,0.0,0
1582059661.653,35.645,-43.945,31.25,36.133,0.0,0
1582059661.657,38.574,119.141,32.227,31.738000000000003,0.0,0
1582059661.661,34.668,22.949,24.414,29.785,0.0,0
1582059661.6479998,27.344,8.789,26.367,32.227,0.0,0
1582059661.6520002,12.207,105.469,26.367,25.879,0.0,0
1582059661.656,10.742,0.488,27.344,29.785,0.0,0
1582059661.66,29.785,-116.699,29.785,29.297,0.0,0
1582059661.664,36.133,-1.953,26.855,26.367,0.0,0
1582059661.668,27.344,-81.543,23.438,31.738000000000003,0.0,0
1582059661.6720002,38.574,-208.984,27.344,28.32,0.0,0
1582059661.675,47.852,-126.953,34.18,17.578,0.0,0
1582059661.679,42.969,-1.953,32.715,18.555,0.0,0
1582059661.6829998,41.992,73.242,33.691,20.02,0.0,0
1582059661.687,35.645,35.645,35.645,17.09,0.0,0
1582059661.691,30.762,-193.359,35.645,18.555,0.0,0
1582059661.6929998,25.879,-97.656,32.227,7.324,0.0,0
1582059661.697,21.973000000000006,97.168,27.344,4.395,0.0,0
1582059661.701,23.438,23.438,21.484,11.23,0.0,0
1582059661.705,24.414,-1.953,24.902,0.488,0.0,0
1582059661.709,24.902,102.051,31.25,-7.324,0.0,0
1582059661.7129998,25.391,20.996,28.32,0.977,0.0,0
1582059661.717,25.879,-298.34,29.297,13.184,0.0,0
1582059661.72,33.203,-375.48800000000006,30.273000000000003,20.508000000000006,0.0,0
1582059661.724,31.25,-95.703,24.902,21.484,0.0,0
1582059661.728,25.391,79.102,26.367,16.113,0.0,0
1582059661.732,20.508000000000006,55.176,31.738000000000003,17.578,0.0,0
1582059661.736,22.949,43.457,34.668,30.273000000000003,0.0,0
1582059661.738,32.715,186.035,38.086,42.48,0.0,0
1582059661.742,24.414,203.125,35.156,38.086,0.0,0
1582059661.746,20.02,-3.418,22.949,23.438,0.0,0
1582059661.75,21.973000000000006,-35.156,21.973000000000006,22.461,0.0,0
1582059661.754,20.996,84.473,26.855,23.438,0.0,0
1582059661.758,36.133,-54.199,25.391,23.438,0.0,0
1582059661.762,29.297,-439.941,33.203,16.602,0.0,0
1582059661.765,22.461,-332.031,34.668,20.508000000000006,0.0,0
1582059661.769,33.691,-13.184,32.715,28.32,0.0,0
1582059661.7729998,35.156,-123.047,33.691,10.742,0.0,0
1582059661.7770002,25.391,-110.84,28.32,0.977,0.0,0
1582059661.781,21.973000000000006,34.18,28.32,-1.465,0.0,0
1582059661.798,20.02,126.465,34.668,-4.395,0.0,0
1582059661.802,20.02,61.523,32.715,-0.488,0.0,0
1582059661.806,23.926,-30.762,32.715,7.324,0.0,0
1582059661.81,19.043,-52.246,35.156,13.184,0.0,0
1582059661.814,22.461,31.738000000000003,35.645,12.695,0.0,0
1582059661.8179998,29.297,-93.262,32.715,6.348,0.0,0
1582059661.822,16.602,-268.066,27.344,5.371,0.0,0
1582059661.825,26.855,-69.336,35.156,15.137,0.0,0
1582059661.829,34.668,36.133,31.25,7.812,0.0,0
1582059661.833,26.855,-85.93799999999997,15.625,-1.465,0.0,0
1582059661.837,24.902,-151.855,20.02,-0.977,0.0,0
1582059661.841,23.926,-111.816,22.461,1.953,0.0,0
1582059661.843,31.738000000000003,-146.97299999999996,22.461,7.324,0.0,0
1582059661.847,32.715,-27.832,22.461,11.23,0.0,0
1582059661.851,27.344,47.852,25.391,4.395,0.0,0
1582059661.855,24.902,98.633,25.391,0.977,0.0,0
1582059661.859,28.809,58.594,20.508000000000006,2.441,0.0,0
1582059661.863,37.598,-108.398,28.32,9.766,0.0,0
1582059661.867,37.109,-141.113,31.738000000000003,12.695,0.0,0
1582059661.87,22.461,53.71100000000001,24.902,8.301,0.0,0
1582059661.8739998,19.043,53.71100000000001,23.438,21.484,0.0,0
1582059661.8779998,23.438,-270.508,27.344,22.461,0.0,0
1582059661.8820002,32.227,-184.082,32.227,11.719,0.0,0
1582059661.8860002,39.551,104.98,25.391,9.277,0.0,0
1582059661.8879998,27.344,-61.523,19.043,1.953,0.0,0
1582059661.8920002,23.926,-79.102,30.273000000000003,-0.488,0.0,0
1582059661.896,35.156,36.133,33.203,1.465,0.0,0
1582059661.9,31.25,-8.789,30.273000000000003,4.883,0.0,0
1582059661.904,19.531,-55.176,28.809,3.418,0.0,0
1582059661.908,14.16,-215.332,20.996,-8.789,0.0,0
1582059661.9120002,15.625,-231.93400000000003,22.461,-9.277,0.0,0
1582059661.915,20.508000000000006,-35.645,27.832,-9.277,0.0,0
1582059661.919,14.16,-137.207,33.691,-8.301,0.0,0
1582059661.923,11.23,-372.559,32.715,-9.277,0.0,0
1582059661.927,32.715,-85.449,16.602,-8.301,0.0,0
1582059661.931,39.551,82.52,20.02,4.883,0.0,0
1582059661.9329998,38.574,26.855,34.18,13.184,0.0,0
1582059661.937,35.156,21.973000000000006,31.738000000000003,5.859,0.0,0
1582059661.941,24.414,76.172,22.949,-3.418,0.0,0
1582059661.945,27.344,85.449,20.02,0.0,0.0,0
1582059661.949,25.391,40.527,26.367,0.0,0.0,0
1582059661.9529998,24.902,-124.023,35.156,-2.441,0.0,0
1582059661.957,20.996,-193.848,30.273000000000003,-3.418,0.0,0
1582059661.96,19.043,-154.297,21.973000000000006,-2.441,0.0,0
1582059661.964,23.438,-290.527,24.414,0.488,0.0,0
1582059661.968,16.602,-195.801,26.855,-6.836,0.0,0
1582059661.972,18.555,102.051,31.738000000000003,-2.93,0.0,0
1582059661.976,28.32,119.629,33.203,6.836,0.0,0
1582059661.978,33.691,42.48,31.25,8.789,0.0,0
1582059661.982,24.414,81.055,31.738000000000003,5.859,0.0,0
1582059661.986,25.391,100.098,33.203,-2.441,0.0,0
1582059661.99,30.273000000000003,-3.906,33.203,-5.859,0.0,0
1582059661.994,18.555,44.434,30.762,-4.883,0.0,0
1582059661.998,16.113,-17.09,27.832,-1.953,0.0,0
1582059662.002,15.137,-162.59799999999996,24.414,-5.859,0.0,0
1582059662.005,24.902,-186.523,26.855,4.395,0.0,0
1582059662.0089998,41.01600000000001,-268.066,38.574,4.883,0.0,0
1582059662.0129998,23.438,-180.664,41.504,-9.766,0.0,0
1582059662.0170002,15.625,-91.797,34.668,-23.438,0.0,0
1582059662.021,20.508000000000006,-44.434,30.762,-26.855,0.0,0
1582059662.0229998,29.297,115.234,22.461,-12.207,0.0,0
1582059662.0270002,35.645,226.562,25.391,-16.113,0.0,0
1582059662.031,27.832,146.484,36.133,-17.578,0.0,0
1582059662.035,24.902,3.418,32.715,-10.254,0.0,0
1582059662.039,20.508000000000006,44.922,33.691,-13.672,0.0,0
1582059662.043,16.602,91.797,37.109,-3.906,0.0,0
1582059662.0470002,20.02,19.043,27.832,-7.812,0.0,0
1582059662.05,16.602,-207.031,22.461,-17.09,0.0,0
1582059662.054,14.648,-215.82,19.043,-7.812,0.0,0
1582059662.0579998,23.926,84.473,20.996,-5.371,0.0,0
1582059662.062,22.949,107.91,35.156,-5.371,0.0,0
1582059662.066,29.297,-52.246,37.598,-1.465,0.0,0
1582059662.0679998,44.434,-94.238,34.668,-0.977,0.0,0
1582059662.072,44.922,111.328,31.738000000000003,-3.906,0.0,0
1582059662.076,26.855,95.215,28.32,-7.324,0.0,0
1582059662.08,20.508000000000006,-32.227,30.273000000000003,-4.395,0.0,0
1582059662.084,36.133,62.012,31.738000000000003,0.488,0.0,0
1582059662.0879998,37.109,23.438,31.738000000000003,-0.488,0.0,0
1582059662.092,30.762,-166.99200000000005,28.809,-8.301,0.0,0
1582059662.095,28.32,-277.832,23.926,-9.766,0.0,0
1582059662.099,35.645,-78.613,23.926,1.953,0.0,0
1582059662.103,37.598,89.844,33.691,9.766,0.0,0
1582059662.107,24.414,105.469,34.668,-1.953,0.0,0
1582059662.111,27.832,65.918,32.715,-8.789,0.0,0
1582059662.113,39.551,76.66,31.738000000000003,0.977,0.0,0
1582059662.117,37.109,159.668,33.691,8.301,0.0,0
1582059662.121,24.414,93.262,31.25,7.812,0.0,0
1582059662.125,22.949,23.926,25.879,2.441,0.0,0
1582059662.129,22.949,-20.508000000000006,29.297,-6.348,0.0,0
1582059662.133,18.066,-125.977,25.879,-7.324,0.0,0
1582059662.137,20.02,-312.988,25.879,-7.812,0.0,0
1582059662.14,26.855,-271.48400000000004,29.785,1.953,0.0,0
1582059662.144,22.461,7.324,29.297,7.812,0.0,0
1582059662.1479998,19.043,-30.762,31.738000000000003,-3.906,0.0,0
1582059662.1520002,21.973000000000006,-7.812,28.809,-10.254,0.0,0
1582059662.156,20.996,102.051,25.391,-3.906,0.0,0
1582059662.173,13.184,96.191,25.879,5.371,0.0,0
1582059662.177,13.672,-34.18,30.273000000000003,14.648,0.0,0
1582059662.181,20.996,-84.473,32.715,18.555,0.0,0
1582059662.185,18.066,61.035,31.738000000000003,15.137,0.0,0
1582059662.189,23.438,62.5,31.738000000000003,15.625,0.0,0
1582059662.1929998,23.926,-206.543,29.297,9.766,0.0,0
1582059662.197,17.578,-415.527,29.297,16.602,0.0,0
1582059662.2,22.949,-154.785,40.039,32.227,0.0,0
1582059662.204,24.414,41.01600000000001,41.504,23.926,0.0,0
1582059662.208,15.625,-143.555,31.738000000000003,16.113,0.0,0
1582059662.212,19.531,-155.273,22.949,21.484,0.0,0
1582059662.216,23.926,124.512,21.973000000000006,18.555,0.0,0
1582059662.219,33.203,138.184,22.461,16.602,0.0,0
1582059662.2229998,40.039,-23.438,25.391,22.949,0.0,0
1582059662.2270002,38.574,-18.066,30.273000000000003,32.227,0.0,0
1582059662.231,31.25,30.762,31.738000000000003,40.039,0.0,0
1582059662.235,20.508000000000006,53.223,33.203,33.691,0.0,0
1582059662.2389998,27.832,-130.859,30.273000000000003,26.367,0.0,0
1582059662.2429998,22.461,-217.773,29.297,26.855,0.0,0
1582059662.246,27.832,31.25,34.668,25.391,0.0,0
1582059662.25,36.133,13.184,34.668,20.02,0.0,0
1582059662.254,20.508000000000006,-302.246,34.18,17.09,0.0,0
1582059662.258,20.02,-201.172,34.668,20.508000000000006,0.0,0
1582059662.262,31.25,146.97299999999996,38.086,30.762,0.0,0
1582059662.264,42.48,120.117,41.01600000000001,34.668,0.0,0
1582059662.268,41.01600000000001,37.598,32.715,34.18,0.0,0
1582059662.272,27.344,114.746,25.391,35.645,0.0,0
1582059662.276,25.391,86.426,25.391,35.156,0.0,0
1582059662.28,18.066,-40.527,20.508000000000006,33.203,0.0,0
1582059662.284,21.484,-184.082,21.484,30.273000000000003,0.0,0
1582059662.288,39.551,-246.094,25.391,32.715,0.0,0
1582059662.291,33.691,-110.84,26.855,29.297,0.0,0
1582059662.295,26.855,-138.672,28.809,22.461,0.0,0
1582059662.299,23.926,-265.137,26.855,29.785,0.0,0
1582059662.303,26.367,31.25,23.438,29.785,0.0,0
1582059662.3070002,22.461,17.09,20.02,21.484,0.0,0
1582059662.3079998,19.531,-139.648,19.043,19.531,0.0,0
1582059662.312,27.344,4.883,20.996,17.578,0.0,0
1582059662.316,30.273000000000003,92.285,19.531,18.066,0.0,0
1582059662.32,24.902,66.406,19.531,18.555,0.0,0
1582059662.324,27.832,15.137,24.902,14.648,0.0,0
1582059662.3279998,35.645,-68.848,30.273000000000003,20.508000000000006,0.0,0
1582059662.332,24.902,-128.418,36.133,19.531,0.0,0
1582059662.335,15.625,-42.969,33.691,9.766,0.0,0
1582059662.339,31.25,-289.551,22.949,7.324,0.0,0
1582059662.343,36.133,-230.957,23.438,11.719,0.0,0
1582059662.347,34.668,110.84,34.668,23.926,0.0,0
1582059662.351,29.785,34.18,36.621,24.902,0.0,0
1582059662.353,29.297,-59.57,25.879,17.578,0.0,0
1582059662.357,34.668,86.914,21.973000000000006,15.625,0.0,0
1582059662.361,26.367,100.586,27.832,21.973000000000006,0.0,0
1582059662.365,18.066,-97.656,30.762,5.371,0.0,0
1582059662.369,16.113,-88.867,26.855,-1.953,0.0,0
1582059662.373,13.672,-92.773,24.414,10.254,0.0,0
1582059662.377,22.949,7.812,27.832,15.137,0.0,0
1582059662.38,22.949,-35.645,32.227,21.973000000000006,0.0,0
1582059662.3839998,20.508000000000006,-348.6330000000001,31.25,22.461,0.0,0
1582059662.3879998,27.344,-113.77,26.367,27.832,0.0,0
1582059662.3920002,36.621,127.441,25.879,30.762,0.0,0
1582059662.396,32.715,85.449,20.996,8.301,0.0,0
1582059662.3979998,13.184,47.363,17.578,-7.812,0.0,0
1582059662.4020002,15.625,103.027,32.227,-7.812,0.0,0
1582059662.406,27.344,119.629,38.086,-9.766,0.0,0
1582059662.41,11.23,53.223,24.414,-14.648,0.0,0
1582059662.414,-3.906,17.578,19.531,-32.715,0.0,0
1582059662.418,4.395,-87.891,24.414,-22.949,0.0,0
1582059662.4220002,15.137,-227.051,24.414,-3.906,0.0,0
1582059662.425,27.832,-295.41,20.02,-12.695,0.0,0
1582059662.429,24.414,-169.922,23.926,-13.184,0.0,0
1582059662.4329998,25.879,-52.246,31.738000000000003,-0.488,0.0,0
1582059662.437,35.156,-94.238,33.203,18.555,0.0,0
1582059662.441,35.645,11.23,33.203,20.996,0.0,0
1582059662.4429998,31.25,93.75,27.832,13.672,0.0,0
1582059662.447,25.391,97.168,20.02,20.996,0.0,0
1582059662.451,25.879,12.695,28.32,29.785,0.0,0
1582059662.455,25.879,-0.488,35.156,18.066,0.0,0
1582059662.459,24.902,106.445,34.18,2.93,0.0,0
1582059662.4629998,33.203,0.977,35.156,4.395,0.0,0
1582059662.467,36.621,-304.688,28.32,6.348,0.0,0
1582059662.47,29.785,-348.145,26.855,-4.883,0.0,0
1582059662.474,20.508000000000006,-71.777,33.691,-12.207,0.0,0
1582059662.478,13.184,28.32,29.297,-5.371,0.0,0
1582059662.482,9.766,23.926,23.926,-4.395,0.0,0
1582059662.486,12.207,1.953,26.367,-4.395,0.0,0
1582059662.488,8.301,138.184,30.273000000000003,-2.441,0.0,0
1582059662.492,7.324,149.414,27.832,-4.883,0.0,0
1582059662.496,5.859,-16.113,26.855,0.0,0.0,0
1582059662.5,8.301,-23.926,24.902,-9.766,0.0,0
1582059662.504,22.949,76.66,30.762,-6.348,0.0,0
1582059662.508,21.484,-32.715,38.574,8.301,0.0,0
1582059662.512,16.113,-355.957,29.785,7.324,0.0,0
1582059662.515,4.883,-280.762,23.926,-6.836,0.0,0
1582059662.519,5.859,63.477,26.367,-13.184,0.0,0
1582059662.5229998,16.113,96.68,25.879,-7.324,0.0,0
1582059662.5270002,13.184,-27.344,28.809,-4.395,0.0,0
1582059662.531,2.93,-109.375,30.273000000000003,-2.441,0.0,0
1582059662.548,6.348,-6.348,27.832,-6.348,0.0,0
1582059662.552,25.391,69.824,29.785,-2.441,0.0,0
1582059662.556,19.043,20.996,36.621,2.441,0.0,0
1582059662.56,16.113,40.527,38.574,-1.953,0.0,0
1582059662.564,25.391,109.375,31.738000000000003,-3.418,0.0,0
1582059662.5679998,25.391,-84.473,22.461,9.766,0.0,0
1582059662.572,32.715,-358.88699999999994,20.996,18.066,0.0,0
1582059662.575,33.203,-180.176,25.391,21.484,0.0,0
1582059662.579,34.668,3.418,26.367,26.367,0.0,0
1582059662.583,50.293,-44.922,30.762,24.414,0.0,0
1582059662.587,43.457,-12.695,35.645,26.367,0.0,0
1582059662.591,34.18,89.844,41.504,25.391,0.0,0
1582059662.593,29.297,7.812,33.691,17.09,0.0,0
1582059662.597,27.832,-6.836,21.973000000000006,15.625,0.0,0
1582059662.601,23.926,-100.098,23.926,7.812,0.0,0
1582059662.605,29.297,-114.746,28.809,11.719,0.0,0
1582059662.609,35.645,13.184,32.227,11.719,0.0,0
1582059662.613,37.109,-70.312,33.203,12.207,0.0,0
1582059662.617,35.156,-139.16,28.32,10.254,0.0,0
1582059662.62,21.484,-49.805,32.227,-4.883,0.0,0
1582059662.6239998,23.926,-12.207,37.598,6.836,0.0,0
1582059662.6279998,33.691,-272.461,31.738000000000003,11.23,0.0,0
1582059662.6320002,28.809,-204.102,28.809,5.371,0.0,0
1582059662.6360002,15.625,92.285,23.926,5.371,0.0,0
1582059662.6379998,10.742,-20.02,20.508000000000006,8.789,0.0,0
1582059662.6420002,8.301,-113.77,26.367,13.184,0.0,0
1582059662.646,6.348,66.406,21.484,2.441,0.0,0
1582059662.65,9.277,23.926,20.02,-5.859,0.0,0
1582059662.654,9.766,-122.07,25.879,-4.883,0.0,0
1582059662.658,23.926,-181.152,24.902,-4.883,0.0,0
1582059662.6620002,32.227,-196.777,23.438,1.953,0.0,0
1582059662.665,23.438,52.734,21.973000000000006,8.301,0.0,0
1582059662.669,5.371,-41.01600000000001,19.531,1.953,0.0,1
1582059662.673,1.953,-298.828,22.461,10.742,0.0,0
1582059662.677,20.996,4.883,27.344,33.203,0.0,0
1582059662.681,17.09,166.50400000000005,25.391,27.344,0.0,0
1582059662.6829998,15.137,64.941,25.879,26.367,0.0,0
1582059662.687,17.09,-13.672,36.133,36.621,0.0,0
1582059662.691,17.578,68.848,31.25,28.809,0.0,0
1582059662.695,20.02,154.297,19.531,28.32,0.0,0
1582059662.699,20.508000000000006,42.48,22.949,32.227,0.0,0
1582059662.7029998,14.648,-143.066,26.367,35.645,0.0,0
1582059662.707,19.531,-165.03900000000004,26.855,37.109,0.0,0
1582059662.71,18.555,7.324,30.762,31.738000000000003,0.0,0
1582059662.714,14.16,-166.99200000000005,27.832,11.719,0.0,0
1582059662.718,25.391,-193.359,27.344,5.859,0.0,0
1582059662.722,26.855,96.191,28.32,22.461,0.0,0
1582059662.726,35.645,64.453,29.297,24.902,0.0,0
1582059662.7270002,39.062,61.035,27.832,18.066,0.0,0
1582059662.731,35.156,134.27700000000002,24.902,15.137,0.0,0
1582059662.735,38.574,140.625,27.832,22.949,0.0,0
1582059662.7389998,46.387,16.602,24.414,28.32,0.0,0
1582059662.7429998,43.945,20.02,19.531,27.344,0.0,0
1582059662.7470002,41.504,-36.621,29.785,24.414,0.0,0
1582059662.7510002,38.086,-102.539,33.691,24.902,0.0,0
1582059662.754,29.785,-125.977,30.762,20.996,0.0,0
1582059662.758,31.25,-290.039,29.785,7.812,0.0,0
1582059662.762,25.879,-28.809,26.367,16.602,0.0,0
1582059662.766,16.602,74.707,26.367,22.949,0.0,0
1582059662.77,26.855,-55.664,25.879,7.324,0.0,0
1582059662.7729998,30.273000000000003,48.34,21.973000000000006,8.789,0.0,0
1582059662.7770002,22.949,190.918,23.926,12.695,0.0,0
1582059662.781,14.16,91.797,28.809,5.859,0.0,0
1582059662.785,7.812,-86.914,30.273000000000003,7.812,0.0,0
1582059662.789,14.648,-20.996,28.809,8.789,0.0,0
1582059662.793,17.578,-22.949,27.832,13.672,0.0,0
1582059662.7970002,17.578,-118.652,35.645,24.902,0.0,0
1582059662.8,20.996,-309.082,33.691,16.602,0.0,0
1582059662.804,18.555,-270.02,29.297,14.648,0.0,0
1582059662.8079998,29.297,117.188,34.668,21.973000000000006,0.0,0
1582059662.812,31.25,66.895,28.809,18.555,0.0,0
1582059662.816,19.043,-32.715,19.531,17.578,0.0,0
1582059662.8179998,29.297,98.633,18.066,19.531,0.0,0
1582059662.822,37.109,149.90200000000004,18.066,20.996,0.0,0
1582059662.826,21.484,-18.066,22.949,16.113,0.0,0
1582059662.83,18.555,-130.859,22.949,6.348,0.0,0
1582059662.834,30.762,-31.25,20.996,8.301,0.0,0
1582059662.8379998,29.785,-49.805,20.996,6.348,0.0,0
1582059662.842,28.32,-235.84,24.902,8.301,0.0,0
1582059662.845,20.02,-375.977,32.227,9.277,0.0,0
1582059662.849,13.672,-127.441,32.227,3.418,0.0,0
1582059662.853,23.438,-20.508000000000006,20.996,4.883,0.0,0
1582059662.857,28.809,-71.777,18.555,6.348,0.0,0
1582059662.861,28.32,-27.832,29.297,5.371,0.0,0
1582059662.863,22.949,57.617,29.785,3.906,0.0,0
1582059662.867,22.461,99.609,29.785,3.906,0.0,0
1582059662.871,25.879,31.25,26.855,6.836,0.0,0
1582059662.875,24.902,59.57,23.438,7.812,0.0,0
1582059662.879,33.691,131.836,33.203,7.324,0.0,0
1582059662.883,35.156,-1.953,29.297,10.254,0.0,0
1582059662.887,28.32,-334.473,20.02,12.695,0.0,0
1582059662.89,28.32,-226.562,27.344,13.184,0.0,0
1582059662.894,24.414,57.617,32.227,1.953,0.0,0
1582059662.8979998,25.391,11.719,25.391,-1.465,0.0,0
1582059662.9020002,42.969,-30.762,26.367,12.695,0.0,0
1582059662.906,51.27,63.965,32.715,5.371,0.0,0
1582059662.923,44.434,133.30100000000002,28.32,-2.93,0.0,0
1582059662.927,41.992,-12.207,26.855,9.277,0.0,0
1582059662.931,55.176,-20.02,24.902,17.578,0.0,0
1582059662.935,53.223,90.332,21.973000000000006,6.348,0.0,0
1582059662.939,40.527,80.566,23.438,-1.465,0.0,0
1582059662.9429998,37.109,-179.199,28.32,-0.488,0.0,0
1582059662.947,38.574,-300.781,31.25,13.672,0.0,0
1582059662.95,38.574,36.133,27.344,28.809,0.0,0
1582059662.954,38.574,62.012,23.438,15.137,0.0,0
1582059662.958,34.18,-134.766,26.855,20.02,0.0,0
1582059662.962,26.855,-96.191,37.598,40.039,0.0,0
1582059662.966,38.574,93.75,40.039,23.926,0.0,0
1582059662.969,37.109,120.605,25.879,6.836,0.0,0
1582059662.9729998,26.855,-92.773,19.531,4.883,0.0,0
1582059662.9770002,31.25,-117.676,23.438,11.719,0.0,0
1582059662.981,36.133,83.49600000000002,27.344,16.113,0.0,0
1582059662.985,32.227,204.59,21.484,19.043,0.0,0
1582059662.9889998,24.902,-24.902,20.02,18.555,0.0,0
1582059662.9929998,25.879,-225.098,25.879,10.742,0.0,0
1582059662.996,34.668,8.789,30.273000000000003,20.02,0.0,0
1582059663.0,37.598,65.43,28.809,21.973000000000006,0.0,0
1582059663.004,14.648,-252.93,26.367,11.23,0.0,0
1582059663.008,10.742,-269.043,23.438,9.766,0.0,0
1582059663.012,25.391,-84.961,23.926,9.766,0.0,0
1582059663.0129998,18.066,-62.988,31.25,13.184,0.0,0
1582059663.0170002,16.602,-27.344,30.762,22.461,0.0,0
1582059663.021,21.973000000000006,79.102,34.18,22.949,0.0,0
1582059663.025,20.508000000000006,132.32399999999998,32.715,16.602,0.0,0
1582059663.029,23.438,63.477,25.391,18.066,0.0,0
1582059663.033,25.391,-51.758,29.297,17.09,0.0,0
1582059663.0370002,18.555,-138.184,22.461,18.066,0.0,0
1582059663.04,18.066,-40.039,15.625,23.926,0.0,0
1582059663.044,20.02,-111.816,22.949,27.832,0.0,0
1582059663.048,14.16,-252.93,24.902,26.855,0.0,0
1582059663.052,19.531,5.859,28.32,19.043,0.0,0
1582059663.056,21.973000000000006,40.039,29.297,12.207,0.0,0
1582059663.0579998,23.438,-4.395,28.32,12.207,0.0,0
1582059663.062,32.715,-22.461,29.785,12.695,0.0,0
1582059663.066,21.484,21.484,30.273000000000003,11.719,0.0,0
1582059663.07,15.137,0.977,24.902,19.531,0.0,0
1582059663.074,27.344,-50.78100000000001,24.902,9.277,0.0,0
1582059663.0779998,33.691,-44.434,27.832,-8.301,0.0,0
1582059663.082,28.32,-73.242,24.902,-7.812,0.0,0
1582059663.085,27.344,-68.359,26.367,2.93,0.0,0
1582059663.089,30.762,-309.57,29.785,10.742,0.0,0
1582059663.093,34.18,-222.168,36.621,2.441,0.0,0
1582059663.097,27.344,191.895,31.25,-10.742,0.0,0
1582059663.101,24.414,149.90200000000004,23.926,-1.465,0.0,0
1582059663.103,25.879,-25.879,23.438,16.602,0.0,0
1582059663.107,21.484,93.262,26.855,9.277,0.0,0
1582059663.111,22.461,227.051,29.785,10.254,0.0,0
1582059663.115,21.484,63.477,30.762,14.16,0.0,0
1582059663.119,27.344,-19.043,32.227,0.977,0.0,0
1582059663.123,20.996,-29.785,28.32,-5.371,0.0,0
1582059663.127,15.625,-85.93799999999997,24.414,-11.719,0.0,0
1582059663.13,18.555,-168.457,18.555,-9.766,0.0,0
1582059663.1339998,22.949,-370.117,22.461,-16.113,0.0,0
1582059663.1379998,34.668,-112.793,30.273000000000003,-16.113,0.0,0
1582059663.1420002,38.086,149.414,29.297,-10.254,0.0,0
1582059663.146,37.109,50.293,31.738000000000003,-10.254,0.0,0
1582059663.1479998,33.203,-9.766,30.762,-15.137,0.0,0
1582059663.1520002,26.855,65.43,22.461,-17.578,0.0,0
1582059663.156,32.227,98.145,30.273000000000003,-13.672,0.0,0
1582059663.16,36.621,61.523,43.457,-2.441,0.0,0
1582059663.164,26.855,23.926,41.992,-20.996,0.0,0
1582059663.168,17.578,-111.328,38.574,-19.043,0.0,0
1582059663.1720002,25.391,-114.746,38.574,-0.488,0.0,0
1582059663.175,37.598,-209.961,36.133,-21.484,0.0,0
1582059663.179,34.18,-265.625,31.738000000000003,-20.508000000000006,0.0,0
1582059663.1829998,26.367,-8.789,28.809,-20.508000000000006,0.0,0
1582059663.187,21.484,26.367,27.344,-29.297,0.0,0
1582059663.191,16.602,29.297,25.391,-21.973000000000006,0.0,0
1582059663.1929998,16.602,132.32399999999998,28.32,-21.973000000000006,0.0,0
1582059663.197,13.184,115.723,30.762,-25.391,0.0,0
1582059663.201,8.789,-50.293,28.809,-26.367,0.0,0
1582059663.205,8.789,-54.688,27.832,-22.461,0.0,0
1582059663.209,9.277,88.867,27.344,-19.043,0.0,0
1582059663.2129998,5.859,-70.312,29.785,-21.484,0.0,0
1582059663.217,15.137,-362.793,26.367,-13.184,0.0,0
1582059663.22,31.25,-445.801,24.414,-8.301,0.0,0
1582059663.224,26.855,-100.098,29.297,-11.23,0.0,0
1582059663.228,33.691,103.027,33.691,1.465,0.0,0
1582059663.232,32.227,-15.137,32.227,-0.488,0.0,0
1582059663.236,27.344,-51.27,30.762,-9.277,0.0,0
1582059663.238,37.109,94.238,33.691,0.488,0.0,0
1582059663.242,35.645,214.355,29.297,1.465,0.0,0
1582059663.246,28.809,68.359,23.438,-7.324,0.0,0
1582059663.25,30.762,6.836,29.785,-13.184,0.0,0
1582059663.254,33.691,92.285,36.621,-12.695,0.0,0
1582059663.258,16.602,-59.57,31.25,-7.324,0.0,0
1582059663.262,11.719,-411.621,26.855,-1.465,0.0,0
1582059663.265,22.949,-331.543,30.273000000000003,7.324,0.0,0
1582059663.269,19.043,97.168,34.18,12.207,0.0,0
1582059663.2729998,24.902,67.383,26.855,13.672,0.0,0
1582059663.2770002,37.598,-93.75,23.926,16.113,0.0,0
1582059663.281,35.156,2.441,24.902,15.625,0.0,0
1582059663.298,41.992,133.30100000000002,20.996,12.695,0.0,0
1582059663.302,41.01600000000001,72.266,26.367,11.719,0.0,0
1582059663.306,29.785,-91.309,34.18,17.09,0.0,0
1582059663.31,30.762,16.113,31.738000000000003,20.996,0.0,0
1582059663.314,30.762,149.90200000000004,22.461,16.113,0.0,0
1582059663.3179998,27.832,-38.086,24.414,14.16,0.0,0
1582059663.322,22.949,-289.551,30.273000000000003,16.113,0.0,0
1582059663.325,25.879,-135.74200000000002,34.18,15.137,0.0,0
1582059663.329,32.227,75.684,36.133,21.973000000000006,0.0,0
1582059663.333,25.879,66.406,36.621,30.762,0.0,0
1582059663.337,12.695,27.344,31.25,13.672,0.0,0
1582059663.341,21.484,123.047,28.32,11.719,0.0,0
1582059663.343,40.527,122.07,31.25,33.203,0.0,0
1582059663.347,46.387,15.625,29.297,30.762,0.0,0
1582059663.351,36.621,23.926,25.879,6.836,0.0,0
1582059663.355,26.855,71.289,30.762,-4.883,0.0,0
1582059663.359,22.461,-75.195,37.109,1.953,0.0,0
1582059663.363,21.973000000000006,-223.145,32.227,10.742,0.0,0
1582059663.367,21.973000000000006,-203.125,25.879,11.719,0.0,0
1582059663.37,16.602,-67.383,28.809,15.137,0.0,0
1582059663.3739998,16.113,-23.438,30.762,17.578,0.0,0
1582059663.3779998,12.695,-286.621,27.832,19.531,0.0,0
1582059663.3820002,15.625,-173.828,31.738000000000003,18.555,0.0,0
1582059663.3860002,13.184,216.30900000000003,34.18,13.672,0.0,0
1582059663.3879998,7.812,96.191,32.715,10.254,0.0,0
1582059663.3920002,31.25,-32.227,33.691,16.602,0.0,0
1582059663.396,41.01600000000001,101.074,31.25,20.996,0.0,0
1582059663.4,35.156,179.199,27.832,12.207,0.0,0
1582059663.404,25.879,-19.043,24.902,5.371,0.0,0
1582059663.408,13.672,-275.391,22.461,-4.883,0.0,0
1582059663.4120002,13.184,-200.68400000000003,25.879,-12.207,0.0,0
1582059663.415,18.555,-59.57,31.25,-4.395,0.0,0
1582059663.419,15.625,-248.535,33.203,0.977,0.0,0
1582059663.423,8.789,-400.879,34.668,0.0,0.0,0
1582059663.427,27.344,-101.074,32.227,-2.441,0.0,0
1582059663.431,29.297,132.812,28.32,-6.348,0.0,0
1582059663.4329998,9.766,85.449,31.25,-4.883,0.0,0
1582059663.437,17.578,17.578,32.227,-4.883,0.0,0
1582059663.441,34.668,49.316,31.25,1.953,0.0,0
1582059663.445,41.504,126.953,38.574,13.672,0.0,0
1582059663.449,36.133,41.992,43.945,7.324,0.0,0
1582059663.4529998,34.668,-168.945,42.48,0.977,0.0,0
1582059663.457,25.391,-202.148,29.785,-0.488,0.0,0
1582059663.46,20.996,-62.988,25.391,-1.465,0.0,0
1582059663.464,26.367,-252.441,36.133,-6.348,0.0,0
1582059663.468,28.809,-216.797,31.738000000000003,-7.324,0.0,0
1582059663.472,30.762,-4.395,23.926,-0.977,0.0,0
1582059663.476,37.109,-105.469,28.32,-1.465,0.0,0
1582059663.478,34.668,17.578,32.715,-2.441,0.0,0
1582059663.482,35.645,131.836,30.273000000000003,4.395,0.0,0
1582059663.486,31.25,102.051,30.273000000000003,-2.441,0.0,0
1582059663.49,16.113,27.832,31.25,-3.418,0.0,0
1582059663.494,23.438,22.461,34.668,4.883,0.0,0
1582059663.498,33.203,-60.547,34.18,4.395,0.0,0
1582059663.502,36.133,-107.91,24.414,4.883,0.0,0
1582059663.505,41.01600000000001,-170.898,21.973000000000006,4.395,0.0,0
1582059663.5089998,37.109,-288.574,27.344,2.93,0.0,0
1582059663.5129998,32.715,31.25,28.32,4.395,0.0,0
1582059663.5170002,36.621,123.535,33.691,1.953,0.0,0
1582059663.521,38.086,-16.602,40.039,10.742,0.0,0
1582059663.5229998,26.367,68.359,30.273000000000003,3.418,0.0,0
1582059663.5270002,17.09,103.516,23.438,-16.113,0.0,0
1582059663.531,15.625,-33.203,21.973000000000006,-12.695,0.0,0
1582059663.535,10.742,-77.148,20.02,-7.812,0.0,0
1582059663.539,16.113,4.395,22.949,-2.441,0.0,0
1582059663.543,28.809,-10.254,23.926,-6.836,0.0,0
1582059663.5470002,18.066,-129.88299999999998,28.809,-13.184,0.0,0
1582059663.55,12.695,-333.0080000000001,28.809,-14.648,0.0,0
1582059663.554,12.695,-272.949,26.367,-19.043,0.0,0
1582059663.5579998,15.137,116.211,22.461,-1.465,0.0,0
1582059663.562,24.902,83.984,17.578,14.16,0.0,0
1582059663.566,16.113,-81.543,20.02,0.0,0.0,0
1582059663.569,17.09,24.414,23.438,-2.93,0.0,0
1582059663.573,31.25,193.848,22.949,6.348,0.0,0
1582059663.577,36.621,72.75399999999998,23.438,7.324,0.0,0
1582059663.581,38.086,-41.992,29.785,13.184,0.0,0
1582059663.585,33.691,-44.922,29.297,16.113,0.0,0
1582059663.589,29.785,-98.633,27.832,17.578,0.0,0
1582059663.593,26.855,-191.406,32.715,12.695,0.0,0
1582059663.596,24.902,-290.039,31.738000000000003,9.277,0.0,0
1582059663.6,30.762,-81.055,35.156,7.324,0.0,0
1582059663.604,32.227,85.93799999999997,32.715,-4.883,0.0,0
1582059663.6079998,26.367,31.738000000000003,25.391,0.977,0.0,0
1582059663.6120002,32.715,4.883,31.25,5.859,0.0,0
1582059663.613,37.109,59.082,24.902,-2.93,0.0,0
1582059663.617,29.785,68.848,16.113,7.324,0.0,0
1582059663.621,37.109,37.598,20.508000000000006,26.367,0.0,0
1582059663.625,32.715,20.996,26.367,18.555,0.0,0
1582059663.629,22.461,47.852,35.156,17.09,0.0,0
1582059663.633,32.715,-119.629,39.062,37.598,0.0,0
1582059663.637,35.645,-334.961,35.645,29.297,0.0,0
1582059663.64,37.109,-315.918,37.598,19.531,0.0,0
1582059663.644,38.574,-83.008,35.645,29.297,0.0,0
1582059663.6479998,19.531,-11.719,29.785,30.273000000000003,0.0,0
1582059663.6520002,9.277,-52.246,21.973000000000006,23.438,0.0,0
1582059663.656,25.391,103.027,20.996,11.23,0.0,0
1582059663.673,34.668,171.875,21.484,8.789,0.0,0
1582059663.677,27.344,-18.066,20.508000000000006,10.742,0.0,0
1582059663.681,26.367,-83.008,24.414,4.883,0.0,0
1582059663.685,33.203,37.109,27.344,15.625,0.0,0
1582059663.689,25.391,110.84,31.738000000000003,33.691,0.0,0
1582059663.6929998,24.902,-129.88299999999998,33.691,33.203,0.0,0
1582059663.697,30.762,-314.453,32.227,23.438,0.0,0
1582059663.7,29.297,-41.01600000000001,29.785,17.578,0.0,0
1582059663.704,24.414,89.844,32.715,18.066,0.0,0
1582059663.708,25.879,-214.355,35.645,22.949,0.0,0
1582059663.712,33.203,-427.246,36.621,30.273000000000003,0.0,0
1582059663.716,25.879,-135.254,27.344,26.855,0.0,0
1582059663.718,26.367,166.99200000000005,20.02,10.254,0.0,0
1582059663.722,38.086,41.992,22.461,16.113,0.0,0
1582059663.726,33.691,-49.316,20.508000000000006,23.926,0.0,0
1582059663.73,32.715,65.918,22.461,21.973000000000006,0.0,0
1582059663.734,33.203,92.285,28.32,24.414,0.0,0
1582059663.738,30.273000000000003,-60.059,28.32,20.508000000000006,0.0,0
1582059663.742,29.785,-199.219,21.484,22.949,0.0,0
1582059663.745,26.367,-42.48,15.625,22.461,0.0,0
1582059663.7489998,33.203,45.41,21.973000000000006,17.09,0.0,0
1582059663.7529998,31.25,-193.848,28.809,9.277,0.0,0
1582059663.7570002,26.855,-220.703,31.25,9.766,0.0,0
1582059663.7610002,32.227,79.59,39.062,17.09,0.0,0
1582059663.7629998,32.715,134.766,39.551,25.391,0.0,0
1582059663.7670002,17.578,-31.25,36.621,18.555,0.0,0
1582059663.771,26.855,-38.574,40.527,22.461,0.0,0
1582059663.775,28.809,13.184,38.086,24.902,0.0,0
1582059663.779,22.461,-34.18,29.785,15.625,0.0,0
1582059663.783,34.668,-120.117,27.832,13.672,0.0,0
1582059663.7870002,33.203,-157.227,31.738000000000003,10.742,0.0,0
1582059663.79,25.391,-62.5,30.762,27.832,0.0,0
1582059663.794,23.438,-112.793,31.25,36.621,0.0,0
1582059663.798,27.832,-214.355,29.785,17.09,0.0,0
1582059663.802,26.855,39.062,31.25,8.789,0.0,0
1582059663.806,22.949,117.676,38.086,18.555,0.0,0
1582059663.8079998,24.902,45.898,32.227,20.508000000000006,0.0,0
1582059663.812,27.344,122.07,26.367,7.324,0.0,0
1582059663.816,22.461,210.938,27.344,8.789,0.0,0
1582059663.82,22.949,114.746,29.785,9.277,0.0,0
1582059663.824,30.762,-102.051,34.18,18.555,0.0,0
1582059663.8279998,32.227,-224.609,34.668,28.32,0.0,0
1582059663.832,35.156,-163.086,34.668,30.762,0.0,2
1582059663.835,32.227,-48.34,30.273000000000003,35.645,0.0,0
1582059663.839,38.574,-196.289,30.273000000000003,19.043,0.0,0
1582059663.843,46.875,-114.746,31.738000000000003,9.277,0.0,0
1582059663.847,41.01600000000001,197.754,27.832,20.02,0.0,0
1582059663.851,31.738000000000003,62.988,22.949,13.184,0.0,0
1582059663.853,28.32,-77.148,24.414,9.277,0.0,0
1582059663.857,27.832,69.824,23.438,8.789,0.0,0
1582059663.861,28.32,174.31599999999997,23.438,4.395,0.0,0
1582059663.865,27.832,25.879,22.461,8.301,0.0,0
1582059663.869,25.879,-100.098,20.996,11.23,0.0,0
1582059663.873,22.949,-93.75,28.32,-0.488,0.0,0
1582059663.877,25.391,-28.809,30.273000000000003,-0.977,0.0,0
1582059663.88,19.531,-116.211,33.203,4.395,0.0,0
1582059663.8839998,16.602,-319.336,31.25,-2.441,0.0,0
1582059663.8879998,32.715,-82.031,28.32,-0.488,0.0,0
1582059663.8920002,42.48,144.531,25.879,2.93,0.0,0
1582059663.896,35.645,125.977,20.508000000000006,6.348,0.0,0
1582059663.8979998,27.832,38.086,24.902,0.977,0.0,0
1582059663.9020002,38.574,61.035,31.25,3.906,0.0,0
1582059663.906,42.969,110.84,20.508000000000006,15.137,0.0,0
1582059663.91,29.297,15.625,10.742,13.184,0.0,0
1582059663.914,25.391,-64.941,16.602,14.648,0.0,0
1582059663.918,20.508000000000006,-157.715,24.414,17.09,0.0,0
1582059663.9220002,12.207,-207.031,26.367,6.348,0.0,0
1582059663.925,22.461,-339.355,29.785,12.695,0.0,0
1582059663.929,23.438,-299.316,27.344,15.625,0.0,0
1582059663.9329998,22.461,63.477,22.461,9.277,0.0,0
1582059663.937,36.621,57.129,26.367,12.695,0.0,0
1582059663.941,35.645,-35.645,24.902,16.602,0.0,0
1582059663.9429998,30.762,75.195,23.438,19.531,0.0,0
1582059663.947,40.039,112.793,28.32,26.367,0.0,0
1582059663.951,34.668,19.531,32.715,24.414,0.0,0
1582059663.955,32.715,-15.625,29.297,19.531,0.0,0
1582059663.959,34.668,124.512,32.715,31.25,0.0,0
1582059663.9629998,25.391,11.23,29.297,37.109,0.0,0
1582059663.967,24.902,-324.219,21.973000000000006,29.785,0.0,0
1582059663.97,28.809,-333.496,25.391,15.625,0.0,0
1582059663.974,24.902,38.086,28.809,14.16,0.0,0
1582059663.978,14.16,150.391,28.32,11.23,0.0,0
1582059663.982,13.184,-2.93,26.855,6.348,0.0,0
1582059663.986,25.391,-25.879,25.879,8.789,0.0,0
1582059663.988,28.32,161.621,23.438,12.695,0.0,0
1582059663.992,37.109,47.852,24.902,12.695,0.0,0
1582059663.996,36.133,-191.406,28.32,10.742,0.0,0
1582059664.0,23.926,-119.141,27.832,8.301,0.0,0
1582059664.004,27.832,72.75399999999998,24.414,13.672,0.0,0
1582059664.008,34.18,21.484,29.297,17.09,0.0,0
1582059664.012,28.809,-351.074,36.621,15.625,0.0,0
1582059664.015,18.555,-301.27,33.691,2.93,0.0,0
1582059664.019,17.09,94.727,27.832,-1.953,0.0,0
1582059664.0229998,10.254,98.633,22.461,-7.324,0.0,0
1582059664.0270002,0.0,-27.344,23.926,-16.602,0.0,0
1582059664.031,-3.418,51.758,28.32,-8.301,0.0,0
1582059664.048,8.301,188.965,33.203,1.465,0.0,0
1582059664.052,20.508000000000006,145.996,28.32,-5.859,0.0,0
1582059664.056,17.09,17.578,21.973000000000006,-18.066,0.0,0
1582059664.06,21.484,25.391,27.344,-5.859,0.0,0
1582059664.064,25.391,-37.109,27.344,-0.488,0.0,0
1582059664.0679998,23.438,-203.613,20.02,-15.137,0.0,0
1582059664.072,26.855,-306.152,25.391,-4.883,0.0,0
1582059664.075,25.879,-149.414,27.344,-0.977,0.0,0
1582059664.079,20.02,112.305,14.16,-5.371,0.0,0
1582059664.083,19.043,-0.488,20.02,-4.395,0.0,0
1582059664.087,19.043,-134.27700000000002,28.32,-1.953,0.0,0
1582059664.091,18.066,40.527,23.438,-1.465,0.0,0
1582059664.093,13.672,65.918,23.438,-5.859,0.0,0
1582059664.097,7.324,0.0,22.949,-14.16,0.0,0
1582059664.101,15.625,17.09,22.949,-2.93,0.0,0
1582059664.105,25.391,63.477,25.391,2.441,0.0,0
1582059664.109,20.02,64.941,26.855,-5.859,0.0,0
1582059664.113,33.203,-57.617,25.879,-6.348,0.0,0
1582059664.117,33.203,-141.113,24.414,-0.977,0.0,0
1582059664.12,21.973000000000006,-176.27,27.344,-2.441,0.0,0
1582059664.1239998,28.32,-124.512,28.32,-0.977,0.0,0
1582059664.1279998,36.133,-351.074,30.762,8.301,0.0,0
1582059664.1320002,33.203,-348.145,22.949,8.789,0.0,0
1582059664.1360002,32.227,57.617,21.484,9.277,0.0,0
1582059664.1379998,29.297,44.922,27.832,16.602,0.0,0
1582059664.1420002,36.133,-58.105,27.832,27.832,0.0,0
1582059664.146,49.316,40.039,22.461,37.109,0.0,0
1582059664.15,37.598,154.785,13.672,32.227,0.0,0
1582059664.154,21.973000000000006,67.87100000000001,20.996,15.137,0.0,0
1582059664.158,30.762,-134.27700000000002,33.203,9.277,0.0,0
1582059664.1620002,31.738000000000003,-162.109,29.785,15.625,0.0,0
1582059664.165,29.297,64.941,23.926,22.461,0.0,0
1582059664.169,32.227,-83.008,25.391,16.113,0.0,0
1582059664.173,31.25,-348.145,31.25,17.09,0.0,0
1582059664.177,28.32,-86.914,34.18,22.461,0.0,0
1582059664.181,36.133,90.82,30.273000000000003,33.691,0.0,0
1582059664.1829998,39.062,74.707,24.902,43.457,0.0,0
1582059664.187,39.062,30.762,24.902,35.156,0.0,0
1582059664.191,39.551,68.359,21.484,29.297,0.0,0
1582059664.195,39.551,79.102,21.973000000000006,36.621,0.0,0
1582059664.199,36.133,22.949,28.32,35.645,0.0,0
1582059664.2029998,29.297,-114.746,27.832,33.691,0.0,0
1582059664.207,37.109,-191.406,31.25,46.387,0.0,0
1582059664.21,42.969,-26.367,32.227,46.875,0.0,0
1582059664.214,41.01600000000001,-171.875,30.762,31.25,0.0,0
1582059664.218,36.621,-263.672,31.738000000000003,38.086,0.0,0
1582059664.222,32.227,34.18,28.809,52.734,0.0,0
1582059664.226,26.855,84.473,21.973000000000006,48.34,0.0,0
1582059664.228,30.273000000000003,66.406,20.02,41.504,0.0,0
1582059664.232,32.227,38.574,22.461,29.297,0.0,0
1582059664.236,32.715,7.812,28.809,24.902,0.0,0
1582059664.24,31.25,-10.254,38.086,21.484,0.0,0
1582059664.244,26.367,66.895,38.574,16.602,0.0,0
1582059664.248,13.672,20.02,33.691,20.508000000000006,0.0,0
1582059664.252,4.395,-67.87100000000001,22.949,7.324,0.0,0
1582059664.255,14.648,-141.113,20.02,-6.836,0.0,0
1582059664.2589998,22.461,-265.137,30.273000000000003,1.953,0.0,0
1582059664.2629998,20.996,-10.742,29.785,14.16,0.0,0
1582059664.2670002,24.414,118.164,25.879,22.461,0.0,0
1582059664.271,19.531,-6.348,23.438,22.461,0.0,0
1582059664.2729998,18.066,14.16,17.578,10.254,0.0,0
1582059664.2770002,25.391,124.512,17.09,11.719,0.0,0
1582059664.281,29.785,45.41,29.297,19.043,0.0,0
1582059664.285,22.949,-44.922,24.414,8.301,0.0,0
1582059664.289,21.973000000000006,-96.68,18.555,0.0,0.0,0
