timestamps,TP9,AF7,AF8,TP10,Right AUX,Marker0
1556048314.528,54.688,-203.613,47.852,-23.926,-178.223,0
1556048314.532,-53.711,-459.961,45.410,-16.602,-208.008,0
1556048314.536,-5.371,-587.891,41.992,-19.043,-211.914,0
1556048314.540,112.793,-379.883,43.457,-19.043,-210.938,0
1556048314.544,96.680,-203.125,45.898,-7.324,-166.504,0
1556048314.548,-24.414,-491.699,42.480,-5.859,-150.391,0
1556048314.552,-25.879,-927.734,40.039,-6.348,-138.184,0
1556048314.555,97.656,-707.031,46.387,-1.465,-112.793,0
1556048314.559,118.164,-175.293,45.898,5.371,-142.578,0
1556048314.563,-3.906,-299.805,38.574,9.766,-143.066,0
1556048314.567,-62.012,-566.406,39.551,2.441,-132.324,0
1556048314.571,55.176,-313.965,44.922,2.930,-88.867,0
1556048314.573,127.930,-45.898,45.898,12.207,-111.328,0
1556048314.577,30.273,-208.008,42.969,12.695,-111.328,0
1556048314.581,-62.012,-481.934,42.969,14.648,-104.492,0
1556048314.585,20.020,-310.547,45.410,14.648,-74.219,0
1556048314.589,122.070,-25.879,47.363,18.066,-77.637,0
1556048314.593,63.965,-252.441,43.945,22.949,-94.727,0
1556048314.597,-51.270,-693.848,43.945,12.207,-50.293,0
1556048314.600,-13.184,-466.797,49.316,11.230,-62.988,0
1556048314.604,108.398,-53.711,48.828,20.996,-82.031,0
1556048314.608,97.168,-51.758,45.898,22.949,-42.480,0
1556048314.612,-29.785,-234.863,37.598,12.207,-64.941,0
1556048314.616,-49.316,-232.422,34.668,8.789,-62.012,0
1556048314.633,71.777,-77.148,36.621,18.555,-37.598,0
1556048314.637,108.398,-8.789,36.621,11.719,-41.016,0
1556048314.641,1.953,-79.590,36.621,7.812,-27.832,0
1556048314.645,-56.152,-119.141,40.039,16.113,33.203,0
1556048314.649,44.434,-36.621,39.551,17.578,5.371,0
1556048314.653,118.164,-82.520,35.645,17.578,-65.430,0
1556048314.657,27.832,-131.836,37.598,15.625,-8.789,0
1556048314.660,-71.777,-141.113,40.527,14.160,-1.465,0
1556048314.664,5.859,-104.980,38.086,20.020,-19.531,0
1556048314.668,115.723,-222.168,33.203,22.949,-40.039,0
1556048314.672,64.453,-138.672,32.715,20.020,-27.832,0
1556048314.676,-36.621,-25.879,26.367,32.715,1.953,0
1556048314.678,0.977,-248.047,30.762,49.805,11.719,0
1556048314.682,94.727,-9.277,45.410,41.016,72.266,0
1556048314.686,84.473,257.324,45.898,32.715,41.016,0
1556048314.690,-18.555,110.352,44.922,44.434,13.672,0
1556048314.694,-37.598,-150.879,45.898,49.805,20.508,0
1556048314.698,76.172,-208.984,45.410,55.664,-28.320,0
1556048314.702,120.605,42.969,47.852,65.918,45.898,0
1556048314.705,14.648,130.859,50.781,60.059,38.574,0
1556048314.709,-56.152,-272.461,48.828,53.711,-50.781,0
1556048314.713,48.340,-476.562,46.875,57.129,-38.086,0
1556048314.717,134.277,86.914,52.246,64.453,9.277,0
1556048314.721,52.246,247.070,55.176,69.824,-9.766,0
1556048314.723,-53.223,-92.285,56.641,70.801,-23.438,0
1556048314.727,0.977,-50.781,55.664,68.359,20.020,0
1556048314.731,116.699,150.879,53.223,62.988,-19.043,0
1556048314.735,86.426,118.652,47.852,62.500,-23.926,0
1556048314.739,-42.480,-34.180,41.992,57.617,21.484,0
1556048314.743,-30.273,-186.523,38.574,55.664,21.484,0
1556048314.747,95.703,-35.645,39.551,59.082,44.922,0
1556048314.750,107.422,217.285,38.086,57.129,21.973,0
1556048314.754,-9.766,-219.238,30.273,53.223,-27.832,0
1556048314.758,-51.270,-428.711,33.203,49.316,-9.766,0
1556048314.762,68.848,127.930,40.527,52.246,-3.906,0
1556048314.766,126.465,299.316,39.551,59.570,13.672,0
1556048314.768,26.855,175.293,37.109,57.129,61.035,0
1556048314.772,-56.641,66.406,37.598,55.664,53.223,0
1556048314.776,25.879,145.020,39.551,53.223,13.672,0
1556048314.780,126.465,223.633,36.621,48.340,20.508,0
1556048314.784,64.941,140.137,37.109,54.688,40.527,0
1556048314.788,-48.340,-48.828,41.016,57.129,40.039,0
1556048314.792,-5.371,-86.914,40.039,50.293,55.176,0
1556048314.795,110.352,-7.812,38.574,56.152,52.734,0
1556048314.799,91.797,-141.113,43.457,62.500,-6.836,0
1556048314.803,-29.785,11.230,51.270,54.688,30.762,0
1556048314.807,-34.668,110.840,51.758,58.594,51.758,0
1556048314.811,85.938,178.223,53.223,70.312,42.969,0
1556048314.813,113.770,340.332,56.152,73.730,58.105,0
1556048314.817,9.766,280.762,54.199,70.312,49.316,0
1556048314.821,-41.016,43.457,47.852,68.848,4.883,0
1556048314.825,61.523,80.078,47.852,71.777,24.902,0
1556048314.829,132.324,272.949,48.340,79.102,26.367,0
1556048314.833,39.551,108.887,46.875,73.242,0.488,0
1556048314.837,-57.129,-141.602,48.828,64.941,20.020,0
1556048314.840,20.508,-289.062,46.875,65.918,33.691,0
1556048314.844,124.023,-142.578,43.945,70.312,46.387,0
1556048314.848,68.359,234.863,45.410,73.730,73.242,0
1556048314.852,-49.316,160.645,44.922,66.406,95.703,0
1556048314.856,-20.508,61.523,40.527,58.594,94.727,0
1556048314.858,104.004,312.500,42.969,66.895,82.520,0
1556048314.862,109.375,440.918,46.387,77.148,73.242,0
1556048314.866,-15.137,164.551,42.480,67.871,73.730,0
1556048314.870,-46.387,-20.508,37.598,41.992,71.289,0
1556048314.874,73.242,215.332,39.062,35.645,62.500,0
1556048314.878,110.352,289.551,41.016,41.016,71.777,0
1556048314.882,-3.418,-30.762,40.527,31.738,70.801,0
1556048314.885,-69.824,-394.043,37.109,22.949,34.180,0
1556048314.889,33.203,-68.359,41.016,26.367,24.902,0
1556048314.893,120.605,385.742,43.457,44.922,76.660,0
1556048314.897,40.039,291.504,40.527,46.875,89.844,0
1556048314.901,-60.547,-20.996,41.992,33.691,73.730,0
1556048314.903,3.418,-78.613,43.945,36.133,31.250,0
1556048314.907,106.445,238.770,45.410,36.621,42.480,0
1556048314.911,68.848,302.734,44.434,42.969,81.543,0
1556048314.915,-49.805,87.891,43.457,41.504,65.430,0
1556048314.919,-34.180,60.059,41.016,35.156,56.641,0
1556048314.923,91.309,138.672,40.527,47.363,66.895,0
1556048314.927,103.027,-91.309,40.527,48.340,59.082,0
1556048314.930,-15.625,-177.734,41.016,37.109,78.125,0
1556048314.934,-50.293,50.293,39.551,41.992,69.824,0
1556048314.938,69.824,119.141,40.527,59.570,36.133,0
1556048314.942,130.859,226.562,49.805,65.430,60.547,0
1556048314.946,25.391,211.426,52.734,60.547,57.617,0
1556048314.963,-56.641,77.637,52.246,51.758,42.969,0
1556048314.967,37.109,43.457,49.316,51.758,36.621,0
1556048314.971,122.559,58.594,41.992,56.641,36.133,0
1556048314.975,52.246,137.207,43.945,50.293,48.340,0
1556048314.979,-52.734,64.453,44.922,39.551,27.832,0
1556048314.983,-0.977,-194.336,38.574,41.016,11.719,0
1556048314.987,107.910,-206.055,38.086,41.992,56.152,0
1556048314.990,80.078,158.203,40.039,39.062,83.984,0
1556048314.994,-33.691,146.484,38.574,35.156,44.922,0
1556048314.998,-30.273,-135.742,37.598,36.621,-6.348,0
1556048315.002,86.914,62.500,40.039,48.828,29.297,0
1556048315.006,104.004,327.148,41.504,51.758,62.500,0
1556048315.009,-15.625,165.039,47.363,40.039,41.992,0
1556048315.013,-60.547,-71.777,46.387,32.715,39.062,0
1556048315.017,57.617,69.824,40.527,38.574,63.965,0
1556048315.021,118.164,333.984,39.551,40.039,82.520,0
1556048315.025,19.043,253.906,40.527,34.668,79.590,0
1556048315.029,-62.012,-116.211,44.922,28.809,47.363,0
1556048315.033,24.414,-179.199,47.363,28.809,48.828,0
1556048315.036,121.582,128.906,49.805,36.621,104.492,0
1556048315.040,65.918,207.031,51.758,38.086,70.312,0
1556048315.044,-41.016,-312.012,47.852,22.461,18.555,0
1556048315.048,-3.906,-404.785,43.457,14.160,6.836,0
1556048315.052,117.188,194.336,47.363,33.691,33.203,0
1556048315.054,98.633,243.652,50.293,38.574,62.988,0
1556048315.058,-34.668,-48.828,48.828,32.227,26.367,0
1556048315.062,-43.457,-41.992,54.199,33.691,22.949,0
1556048315.066,80.566,153.320,58.594,42.969,24.414,0
1556048315.070,103.516,190.430,62.988,49.316,25.391,0
1556048315.074,-14.648,-75.195,60.059,46.387,24.414,0
1556048315.078,-64.453,-274.414,50.293,47.363,8.789,0
1556048315.081,43.457,34.180,52.734,42.480,32.227,0
1556048315.085,119.141,90.332,50.293,38.086,25.391,0
1556048315.089,36.133,-246.094,46.387,39.551,15.137,0
1556048315.093,-61.523,-105.469,50.293,36.621,39.551,0
1556048315.097,7.812,104.980,48.828,38.574,39.551,0
1556048315.099,112.305,173.340,45.898,47.363,37.109,0
1556048315.103,77.637,144.531,43.945,61.035,15.625,0
1556048315.107,-30.762,-0.977,39.551,50.781,-9.766,0
1556048315.111,-20.996,-22.461,34.668,21.973,17.578,0
1556048315.115,92.285,119.141,35.156,28.320,42.969,0
1556048315.119,92.285,125.000,32.227,35.156,68.359,0
1556048315.123,-29.785,-57.617,32.715,28.320,57.129,0
1556048315.126,-54.199,-96.191,33.691,25.879,12.207,0
1556048315.130,59.570,-235.352,28.320,25.391,2.441,0
1556048315.134,104.980,-134.766,30.762,27.832,15.137,0
1556048315.138,1.465,179.199,37.109,23.438,41.016,0
1556048315.142,-59.082,-89.844,36.133,29.297,41.504,0
1556048315.144,43.457,-143.555,36.621,33.203,0.000,0
1556048315.148,121.582,267.090,46.387,37.109,46.387,0
1556048315.152,43.457,275.391,49.805,47.363,41.016,0
1556048315.156,-62.012,-81.543,46.875,35.645,3.418,0
1556048315.160,4.883,-102.051,52.246,33.691,20.020,0
1556048315.164,118.164,62.988,58.105,54.199,35.156,0
1556048315.168,74.219,134.277,55.176,47.852,39.551,0
1556048315.171,-47.363,-100.098,53.223,40.527,22.949,0
1556048315.175,-31.738,-440.430,51.758,34.180,9.766,0
1556048315.179,94.238,-2.441,54.688,38.574,31.250,0
1556048315.183,105.469,328.613,52.246,47.852,42.480,0
1556048315.187,-17.578,71.289,50.781,49.316,28.320,0
1556048315.189,-58.594,-77.148,49.316,49.805,20.020,0
1556048315.193,62.988,145.508,45.410,39.062,32.227,0
1556048315.197,127.930,212.402,44.922,38.574,36.621,0
1556048315.201,27.344,60.547,48.340,47.363,30.273,0
1556048315.205,-63.477,-26.855,47.363,47.363,35.645,0
1556048315.209,30.273,-55.176,44.434,46.387,23.926,0
1556048315.213,125.488,55.176,43.945,41.992,28.809,0
1556048315.216,54.688,-158.203,36.621,41.992,25.391,0
1556048315.220,-49.805,-345.215,38.086,33.203,5.859,0
1556048315.224,-0.977,-8.789,45.898,29.785,-5.859,0
1556048315.228,118.652,174.316,43.945,42.480,-2.441,0
1556048315.232,98.633,198.730,41.992,42.480,37.598,0
1556048315.233,-24.414,82.520,45.410,32.715,23.438,0
1556048315.237,-26.367,22.461,45.410,39.062,-2.441,0
1556048315.241,96.191,140.625,43.457,50.293,30.762,0
1556048315.245,118.652,190.918,45.898,50.781,28.809,0
1556048315.249,3.906,103.516,44.434,46.387,-1.953,0
1556048315.253,-50.293,-111.816,42.480,39.062,-6.836,0
1556048315.257,56.152,-242.188,41.016,37.109,-9.277,0
1556048315.260,116.211,-205.566,40.527,36.133,11.719,0
1556048315.264,23.438,60.059,40.527,24.902,33.203,0
1556048315.268,-65.918,63.965,34.180,18.066,20.508,0
1556048315.272,10.254,-31.250,33.691,21.973,5.859,0
1556048315.276,112.305,128.418,36.621,26.367,-4.395,0
1556048315.278,54.688,208.008,36.133,28.320,-11.230,0
1556048315.282,-57.129,35.645,38.574,28.320,-12.207,0
1556048315.286,-20.996,-115.723,41.016,30.762,-17.090,0
1556048315.290,100.098,100.098,42.480,29.297,15.625,0
1556048315.294,89.355,256.348,37.109,23.926,20.508,0
1556048315.298,-30.273,-90.820,32.227,21.973,-27.832,0
1556048315.302,-44.434,-527.832,33.691,23.926,-34.180,0
1556048315.305,71.289,-336.426,33.691,25.391,-14.160,0
1556048315.309,112.305,129.883,38.086,29.297,2.441,0
1556048315.313,10.742,57.617,36.133,37.598,0.488,0
1556048315.317,-45.410,-189.941,35.645,40.527,-36.621,0
1556048315.321,53.223,-58.594,41.016,41.992,-44.922,0
1556048315.323,131.836,299.805,43.945,43.457,28.809,0
1556048315.327,52.734,197.266,41.992,46.875,41.504,0
1556048315.331,-45.898,-128.418,38.086,46.875,-3.418,0
1556048315.335,22.949,-40.527,37.109,42.480,-13.184,0
1556048315.339,120.117,262.695,40.527,44.922,20.020,0
1556048315.343,74.707,113.281,41.016,47.852,41.016,0
1556048315.347,-33.691,-471.191,33.203,45.898,3.906,0
1556048315.350,-6.836,-360.840,32.227,44.434,-34.180,0
1556048315.354,98.633,164.062,36.133,34.180,1.465,0
1556048315.358,91.797,237.793,39.551,29.297,26.367,0
1556048315.362,-28.809,2.930,42.480,25.879,20.996,0
1556048315.366,-63.965,-149.414,42.480,18.555,-8.301,0
1556048315.384,56.152,110.840,43.457,24.414,3.906,0
1556048315.388,111.328,237.793,45.898,28.320,21.484,0
1556048315.392,9.277,46.387,43.945,23.926,-20.996,0
1556048315.396,-67.383,-91.797,43.457,26.367,-41.016,0
1556048315.400,32.227,19.531,44.434,33.203,-22.949,0
1556048315.404,119.141,27.344,39.551,34.180,7.324,0
1556048315.408,40.527,-39.551,41.504,31.738,23.438,0
1556048315.411,-63.477,17.090,46.387,37.109,29.785,0
1556048315.415,-7.324,14.648,46.875,33.691,20.020,0
1556048315.419,108.398,-36.133,41.992,31.738,15.137,0
1556048315.423,78.613,41.992,41.504,38.086,5.371,0
1556048315.427,-38.574,65.918,45.410,38.574,0.000,0
1556048315.429,-30.762,-91.309,43.457,41.016,-9.277,0
1556048315.433,90.332,-92.285,42.969,48.340,-11.719,0
1556048315.437,101.562,37.109,44.434,43.945,-2.930,0
1556048315.441,-12.695,52.246,45.898,39.551,-14.648,0
1556048315.445,-50.293,-187.500,42.969,43.945,-40.039,0
1556048315.449,54.688,-170.898,41.992,41.992,5.859,0
1556048315.453,115.234,3.418,38.574,40.527,15.137,0
1556048315.456,22.461,61.035,38.574,38.086,-18.066,0
1556048315.460,-61.523,-266.113,36.621,36.621,-51.270,0
1556048315.464,18.066,-442.871,37.109,35.156,-17.090,0
1556048315.468,106.934,72.754,44.922,34.180,24.414,0
1556048315.472,55.176,256.836,45.898,33.691,24.414,0
1556048315.474,-58.105,-68.848,46.387,30.273,1.465,0
1556048315.478,-29.297,-143.555,46.387,22.461,-23.438,0
1556048315.482,88.867,139.648,46.875,30.762,-14.160,0
1556048315.486,70.801,260.254,45.410,40.039,15.137,0
1556048315.490,-51.758,-49.805,39.551,34.180,14.648,0
1556048315.494,-46.875,-367.676,39.062,32.715,-13.672,0
1556048315.498,83.008,-151.855,43.457,40.039,-9.277,0
1556048315.501,106.445,184.082,42.480,41.504,-3.418,0
1556048315.505,-9.766,-238.770,36.621,36.621,-15.137,0
1556048315.509,-67.383,-490.723,37.109,38.086,-6.348,0
1556048315.513,41.992,32.227,45.410,44.434,4.883,0
1556048315.517,116.211,200.684,45.410,54.199,11.719,0
1556048315.519,29.297,13.184,39.551,51.270,14.160,0
1556048315.523,-62.988,-109.375,38.574,38.086,-6.836,0
1556048315.527,15.625,-34.668,39.551,36.621,-25.879,0
1556048315.531,123.047,81.543,39.551,44.922,0.977,0
1556048315.535,70.801,80.566,43.457,48.828,19.043,0
1556048315.539,-41.016,-172.852,48.828,46.875,11.719,0
1556048315.543,-12.207,-188.477,52.734,46.875,30.273,0
1556048315.546,107.910,-72.266,52.246,54.688,6.348,0
1556048315.550,115.723,-217.773,50.781,56.152,9.766,0
1556048315.554,-9.277,-74.707,54.199,51.758,44.922,0
1556048315.558,-36.133,-10.254,52.734,47.363,30.762,0
1556048315.562,86.914,-27.344,51.758,51.270,-11.230,0
1556048315.564,126.953,99.121,51.758,54.688,-10.742,0
1556048315.568,19.043,107.910,47.852,49.805,4.883,0
1556048315.572,-46.875,-97.656,48.340,46.387,-22.949,0
1556048315.576,46.387,-84.961,50.293,48.828,-8.789,0
1556048315.580,126.465,163.574,51.270,50.781,38.574,0
1556048315.584,53.711,12.695,46.875,45.898,7.324,0
1556048315.588,-54.199,-255.859,37.598,38.574,25.879,0
1556048315.591,2.930,-483.887,33.203,30.762,-0.977,0
1556048315.595,108.887,-288.574,35.156,27.832,-22.949,0
1556048315.599,67.383,169.434,40.527,34.180,-7.812,0
1556048315.603,-55.176,-48.340,41.016,34.668,26.855,0
1556048315.607,-37.109,-224.609,39.062,31.250,27.832,0
1556048315.609,90.820,38.086,43.457,36.621,-24.902,0
1556048315.613,100.586,257.324,46.875,37.598,6.348,0
1556048315.617,-22.949,46.387,41.992,32.715,51.270,0
1556048315.621,-59.082,-222.656,40.527,28.809,16.113,0
1556048315.625,56.641,-2.441,44.922,31.250,1.465,0
1556048315.629,116.699,135.742,46.387,41.504,26.367,0
1556048315.633,8.301,-236.328,41.992,33.691,-34.668,0
1556048315.636,-80.078,-600.098,36.133,18.066,-33.691,0
1556048315.640,19.531,-242.676,41.992,20.020,-7.812,0
1556048315.644,115.723,187.500,50.293,32.227,-14.648,0
1556048315.648,44.434,84.473,48.828,36.133,-5.371,0
1556048315.652,-68.359,-141.602,49.316,27.344,0.000,0
1556048315.654,-12.695,-81.055,49.316,22.949,-25.391,0
1556048315.658,111.816,75.195,47.363,37.598,1.465,0
1556048315.662,88.379,50.781,46.387,48.340,35.156,0
1556048315.666,-38.086,-77.637,46.387,41.992,0.977,0
1556048315.670,-34.180,-104.492,46.387,40.527,5.859,0
1556048315.674,91.309,-0.977,45.410,47.852,29.785,0
1556048315.678,112.793,-188.477,42.969,42.480,43.457,0
1556048315.681,-5.371,-364.258,43.945,34.668,11.230,0
1556048315.685,-49.805,-181.152,44.922,34.668,-39.062,0
1556048315.689,63.965,8.301,42.969,37.598,4.883,0
1556048315.693,126.953,136.719,45.898,47.363,41.504,0
1556048315.697,30.762,87.891,46.875,42.480,4.883,0
1556048315.714,-60.059,-86.426,43.457,39.551,-29.785,0
1556048315.718,23.926,-152.832,40.527,47.363,-38.574,0
1556048315.722,120.605,8.789,43.457,51.270,-6.348,0
1556048315.726,54.688,104.004,49.805,49.805,-19.531,0
1556048315.730,-63.477,-122.559,49.316,44.922,-29.785,0
1556048315.734,-19.043,-417.969,45.898,45.898,-35.645,0
1556048315.738,95.215,-394.043,47.363,42.480,-46.387,0
1556048315.741,82.520,15.625,51.758,42.480,0.000,0
1556048315.745,-29.785,89.844,46.875,42.480,27.832,0
1556048315.749,-46.387,-273.438,36.133,38.574,-5.371,0
1556048315.753,76.660,-164.062,35.645,43.457,21.973,0
1556048315.757,109.863,234.375,39.062,40.527,36.133,0
1556048315.758,-1.953,85.449,41.016,41.016,-20.020,0
1556048315.762,-60.547,-153.320,42.969,41.992,29.297,0
1556048315.766,42.969,-72.266,40.527,30.762,23.438,0
1556048315.770,112.793,157.715,40.527,29.785,-31.738,0
1556048315.774,24.414,134.766,39.551,31.250,-0.488,0
1556048315.778,-71.777,-217.773,36.133,33.691,13.184,0
1556048315.782,-1.953,-260.254,38.086,30.762,8.789,0
1556048315.785,103.516,1.953,43.457,27.832,-14.648,0
1556048315.789,54.199,98.145,44.922,32.715,-30.762,0
1556048315.793,-55.176,-359.863,43.457,25.391,7.812,0
1556048315.797,-32.715,-459.961,42.480,19.043,31.738,0
1556048315.801,73.730,117.676,42.480,20.508,16.113,0
1556048315.803,69.336,169.922,46.387,20.996,1.953,0
1556048315.807,-50.293,-85.449,46.387,16.602,-5.371,0
1556048315.811,-86.914,-108.887,47.363,-1.465,15.137,0
1556048315.815,7.324,106.445,43.945,-23.438,20.020,0
1556048315.819,36.133,193.848,38.086,-34.180,40.039,0
1556048315.823,-86.914,-50.293,39.062,-52.246,66.895,0
1556048315.827,-185.059,-274.902,45.898,-87.402,45.898,0
1556048315.830,-110.840,16.602,51.758,-117.188,56.152,0
1556048315.834,-50.293,154.785,41.992,-140.137,66.895,0
1556048315.838,-153.809,-229.004,38.574,-169.922,10.742,0
1556048315.842,-284.180,-313.477,38.086,-197.754,-37.598,0
1556048315.846,-237.305,-83.984,32.227,-210.938,-19.531,0
1556048315.848,-128.906,131.348,31.738,-214.355,11.719,0
1556048315.852,-171.875,206.543,28.809,-221.191,43.945,0
1556048315.856,-303.711,82.520,24.902,-233.398,41.504,0
1556048315.860,-285.645,-17.578,22.461,-231.934,36.621,0
1556048315.864,-145.020,98.633,19.531,-213.379,47.852,0
1556048315.868,-121.582,95.703,21.973,-192.871,35.645,0
1556048315.872,-221.680,-140.625,28.809,-181.152,18.555,1
1556048315.875,-244.141,-174.805,26.367,-166.992,19.531,0
1556048315.879,-118.652,-269.531,18.066,-146.973,13.672,0
1556048315.883,-47.363,-165.527,16.113,-125.488,13.184,0
1556048315.887,-122.559,165.527,16.602,-100.098,33.691,0
1556048315.891,-181.641,-63.965,9.766,-77.148,22.461,0
1556048315.893,-71.777,-174.805,7.324,-53.223,11.719,0
1556048315.897,41.504,-7.324,11.230,-37.598,-8.789,0
1556048315.901,-6.348,109.375,4.883,-21.484,-11.230,0
1556048315.905,-92.285,-157.227,0.488,0.488,-53.223,0
1556048315.909,-29.785,-271.973,0.488,15.137,-69.336,0
1556048315.913,98.633,31.738,-1.953,41.504,63.965,0
1556048315.917,93.750,176.758,0.000,59.570,98.145,0
1556048315.920,-13.672,-163.086,-3.418,62.988,-14.160,0
1556048315.924,-4.883,-544.434,-4.883,74.219,-29.785,0
1556048315.928,128.906,-104.492,2.930,87.402,-8.301,0
1556048315.932,165.527,301.270,1.465,95.215,35.645,0
1556048315.936,58.105,87.891,-5.371,98.145,69.824,0
1556048315.938,8.789,-136.230,-4.395,105.957,32.227,0
1556048315.942,130.371,-17.090,-5.371,116.699,-45.898,0
1556048315.946,210.449,158.691,-7.324,124.512,-61.035,0
1556048315.950,115.234,82.520,-4.883,125.488,19.043,0
1556048315.954,21.484,-213.867,-6.836,119.141,25.391,0
1556048315.958,105.957,-212.402,-6.348,123.535,29.297,0
1556048315.962,207.031,39.551,-2.930,138.672,56.641,0
1556048315.965,150.391,-193.848,-5.859,135.254,37.598,0
1556048315.969,39.551,-464.355,-6.836,128.418,-10.254,0
1556048315.973,75.195,-116.699,0.488,133.789,-11.719,0
1556048315.977,199.219,153.320,-0.488,149.902,31.250,0
1556048315.981,197.266,110.352,-3.906,153.809,-13.184,0
1556048315.983,70.312,-2.930,-1.465,141.602,-14.648,0
1556048315.987,49.805,-54.199,0.000,132.324,8.789,0
1556048315.991,182.129,43.457,5.371,137.695,45.898,0
1556048315.995,225.098,165.527,6.836,145.508,65.430,0
1556048315.999,114.746,102.539,4.883,140.625,29.297,0
1556048316.003,45.898,-179.688,2.930,130.371,16.602,0
1556048316.007,147.949,-348.145,1.465,127.930,-20.020,0
1556048316.010,221.191,-288.574,5.371,131.348,4.883,0
1556048316.014,133.301,-15.625,7.812,127.930,38.574,0
1556048316.018,28.809,28.320,5.371,123.535,55.176,0
1556048316.022,87.402,-88.867,5.371,122.070,39.062,0
1556048316.026,194.824,36.133,6.836,125.488,-22.461,0
1556048316.028,152.832,186.035,8.789,124.023,-12.207,0
1556048316.032,35.156,27.344,10.254,109.375,17.090,0
1556048316.036,59.082,-147.949,9.277,105.469,14.160,0
1556048316.040,171.875,32.227,12.207,109.863,10.742,0
1556048316.044,171.387,219.238,16.113,113.770,23.438,0
1556048316.048,50.781,-48.340,11.719,111.328,19.531,0
1556048316.052,15.137,-538.086,4.395,100.098,19.043,0
1556048316.055,128.906,-437.988,4.395,98.633,-22.461,0
1556048316.059,177.246,165.527,10.254,100.098,0.977,0
1556048316.063,73.242,149.902,12.207,93.262,44.922,0
1556048316.067,-11.230,-270.996,15.137,90.820,-8.301,0
1556048316.071,81.055,-126.465,22.461,89.844,15.137,0
1556048316.073,173.340,267.578,21.973,91.309,47.363,0
1556048316.077,95.703,143.555,16.602,87.402,33.691,0
1556048316.081,-12.207,-173.828,17.578,80.566,22.949,0
1556048316.085,41.016,-96.680,20.020,80.566,19.043,0
1556048316.089,153.320,179.688,18.555,85.449,13.672,0
1556048316.093,124.023,-3.418,13.184,83.984,-7.812,0
1556048316.097,-1.953,-495.117,7.812,66.895,3.906,0
1556048316.100,1.953,-323.730,12.695,59.570,21.973,0
1556048316.104,116.699,106.445,9.766,64.941,0.488,0
1556048316.108,134.277,181.641,5.859,67.383,37.109,0
1556048316.112,19.043,-0.977,11.719,64.941,32.227,0
1556048316.116,-22.949,-27.832,19.043,62.012,52.246,0
1556048316.133,96.191,49.316,19.531,64.941,72.266,0
1556048316.137,145.020,31.250,14.160,59.570,8.301,0
1556048316.141,38.086,16.113,12.207,53.711,-14.648,0
1556048316.145,-44.434,-69.336,17.578,52.734,10.254,0
1556048316.149,36.621,25.391,22.461,53.223,47.363,0
1556048316.153,130.371,21.484,21.484,55.664,32.227,0
1556048316.157,70.801,-148.438,16.602,52.734,-13.672,0
1556048316.160,-37.109,-136.719,14.648,53.711,-2.930,0
1556048316.164,13.184,-99.121,11.719,57.617,-22.949,0
1556048316.168,128.418,-173.828,15.137,59.570,-61.523,0
1556048316.172,107.910,-31.250,20.020,59.570,-26.855,0
1556048316.176,-3.418,3.418,19.043,60.059,-41.016,0
1556048316.179,2.930,-201.172,20.996,68.848,-52.246,0
1556048316.183,103.516,-87.402,27.832,59.570,-28.809,0
1556048316.187,105.469,258.301,31.250,40.527,54.199,0
1556048316.191,-2.441,58.594,29.297,42.480,4.395,0
1556048316.195,-57.129,-293.457,23.926,41.992,-31.250,0
1556048316.199,41.016,-229.980,24.414,38.574,9.277,0
1556048316.203,109.375,-59.082,31.738,39.551,-6.836,0
1556048316.206,22.949,147.461,37.109,41.504,72.754,0
1556048316.210,-70.801,-175.293,30.762,41.016,50.293,0
1556048316.214,1.465,-491.699,26.855,42.969,6.348,0
1556048316.218,104.004,7.324,32.715,41.016,14.160,0
1556048316.222,55.176,254.883,33.691,40.527,22.461,0
1556048316.224,-56.641,-35.156,29.785,40.527,52.246,0
1556048316.228,-27.344,-151.367,31.250,38.086,17.090,0
1556048316.232,89.844,114.746,32.227,40.039,-1.465,0
1556048316.236,86.914,230.469,28.809,41.504,3.906,0
1556048316.240,-32.227,-21.484,26.367,40.527,17.090,0
1556048316.244,-58.594,-275.391,26.855,41.016,43.945,0
1556048316.248,73.730,-151.855,31.738,48.340,63.965,0
1556048316.251,124.023,14.160,32.715,54.688,17.090,0
1556048316.255,9.277,-355.957,33.691,49.805,-18.066,0
1556048316.259,-59.570,-515.625,33.691,45.410,-0.488,0
1556048316.263,45.410,13.672,35.645,46.875,32.227,0
1556048316.267,127.930,189.453,38.086,53.711,10.254,0
1556048316.269,40.039,22.461,33.203,52.734,-24.902,0
1556048316.273,-57.129,-71.777,33.691,47.852,7.324,0
1556048316.277,14.160,39.551,36.621,46.387,52.734,0
1556048316.281,121.582,133.789,34.180,46.875,40.039,0
1556048316.285,84.473,56.641,34.668,46.387,-12.695,0
1556048316.289,-37.109,-165.527,34.668,43.457,21.484,0
1556048316.293,-28.809,-201.172,35.645,40.039,41.504,0
1556048316.296,97.168,-41.016,35.156,41.992,25.879,0
1556048316.300,109.375,-165.527,31.738,42.969,24.414,0
1556048316.304,-18.066,-176.270,34.668,39.062,16.113,0
1556048316.308,-55.664,-93.750,38.086,37.109,47.363,0
1556048316.312,64.941,38.574,38.574,40.039,43.945,0
1556048316.329,119.629,119.141,37.109,42.969,23.438,0
1556048316.333,13.184,115.234,39.062,35.156,47.363,0
1556048316.337,-62.988,-6.348,41.016,34.668,52.734,0
1556048316.341,38.086,-54.199,43.945,42.969,18.555,0
1556048316.345,125.977,171.875,38.574,41.992,33.691,0
1556048316.349,53.711,83.008,32.715,43.457,50.781,0
1556048316.353,-53.223,-174.805,33.691,39.062,20.020,0
1556048316.356,-6.836,-395.020,30.762,33.203,9.766,0
1556048316.360,109.375,-270.508,30.762,36.621,-0.977,0
1556048316.364,91.309,201.172,35.156,42.969,-3.906,0
1556048316.368,-32.227,25.391,34.180,44.922,-0.488,0
1556048316.372,-27.832,-171.387,32.715,44.922,4.883,0
1556048316.359,91.797,-3.906,33.691,46.875,6.348,0
1556048316.363,113.770,209.961,30.273,51.270,11.230,0
1556048316.367,9.766,3.418,25.879,50.293,-31.738,0
1556048316.371,-37.109,-308.105,25.879,47.363,-84.961,0
1556048316.375,80.566,-33.203,30.762,43.945,-36.621,0
1556048316.379,135.254,114.746,34.180,50.293,7.812,0
1556048316.383,32.227,-101.562,37.109,60.547,40.527,0
1556048316.386,-48.828,-200.195,41.992,51.758,67.871,0
1556048316.390,31.738,-12.207,44.434,45.898,30.273,0
1556048316.394,129.883,306.641,45.410,52.246,49.805,0
1556048316.398,73.730,137.207,40.527,50.293,92.773,0
1556048316.402,-37.598,-412.598,36.133,39.551,26.855,0
1556048316.404,-1.953,-195.312,44.922,42.480,4.395,0
1556048316.408,108.398,239.746,49.316,51.758,53.223,0
1556048316.412,93.262,211.914,47.363,51.270,41.016,0
1556048316.416,-24.902,-70.801,49.316,47.852,31.250,0
1556048316.420,-34.180,-127.930,50.293,46.875,20.996,0
1556048316.424,90.820,49.316,47.852,52.246,47.852,0
1556048316.428,121.582,-89.355,42.480,49.316,72.266,0
1556048316.431,7.324,-178.711,42.480,40.039,86.426,0
1556048316.435,-50.781,-3.906,44.434,39.551,70.801,0
1556048316.439,54.688,55.176,43.945,42.969,15.625,0
1556048316.443,124.023,133.301,44.434,45.898,20.508,0
1556048316.447,30.273,165.527,44.922,34.180,41.992,0
1556048316.449,-73.242,24.414,41.992,21.973,27.832,0
1556048316.453,2.441,-116.211,38.574,32.227,-28.320,0
1556048316.457,112.793,65.918,44.922,39.551,16.113,0
1556048316.461,61.523,261.230,46.387,40.527,78.613,0
1556048316.465,-52.246,102.051,39.551,42.969,62.988,0
1556048316.469,-20.996,-254.395,35.645,34.668,8.789,0
1556048316.473,93.262,-368.164,36.621,26.367,13.184,0
1556048316.476,93.750,0.488,44.922,30.762,12.207,0
1556048316.480,-22.949,115.234,45.898,31.250,23.438,0
1556048316.484,-45.898,-137.695,37.598,29.297,22.949,0
1556048316.488,75.684,-57.129,37.109,30.762,-14.160,0
1556048316.492,120.117,243.652,41.992,39.551,13.672,0
1556048316.509,7.812,114.746,39.062,39.551,-31.738,0
1556048316.513,-72.754,-178.223,36.621,28.809,-33.691,0
1556048316.517,29.297,-51.270,40.039,37.598,36.621,0
1556048316.521,117.676,254.883,38.086,36.621,52.734,0
1556048316.525,36.621,197.754,33.691,29.785,13.184,0
1556048316.529,-60.547,-250.000,33.203,37.598,-1.953,0
1556048316.533,8.789,-337.891,34.180,43.945,45.898,0
1556048316.536,115.723,87.402,32.227,39.551,25.879,0
1556048316.540,68.848,218.750,25.391,22.461,2.441,0
1556048316.544,-45.410,-223.145,25.391,14.648,12.695,0
1556048316.548,-23.926,-251.953,32.227,27.832,41.992,0
1556048316.552,98.633,174.805,30.762,36.133,28.809,0
1556048316.554,114.746,165.039,25.879,35.156,-36.133,0
1556048316.558,-8.789,-91.309,22.461,24.414,-35.156,0
1556048316.562,-49.805,-124.023,26.855,18.555,10.742,0
1556048316.566,72.266,89.844,33.691,29.785,16.113,0
1556048316.570,129.395,164.551,28.809,37.598,7.324,0
1556048316.574,23.926,-118.652,22.461,41.504,-11.230,0
1556048316.578,-61.523,-333.496,21.973,30.762,4.395,0
1556048316.581,20.508,-61.035,22.949,27.832,27.344,0
1556048316.585,117.188,124.512,20.996,38.086,60.547,0
1556048316.589,52.734,-177.734,17.578,30.762,59.570,0
1556048316.593,-56.641,-178.711,19.531,23.438,17.090,0
1556048316.597,-11.230,20.020,25.391,22.461,50.293,0
1556048316.599,101.074,108.398,24.414,26.855,63.965,0
1556048316.603,80.078,161.133,21.484,30.762,22.949,0
1556048316.607,-34.668,88.867,20.996,22.461,33.203,0
1556048316.611,-35.645,-62.988,22.949,21.484,5.371,0
1556048316.615,77.637,16.113,24.414,28.320,-10.254,0
1556048316.619,105.957,59.570,20.020,30.273,9.766,0
1556048316.623,-8.301,-137.695,20.020,28.809,-0.488,0
1556048316.626,-59.082,-131.836,26.367,30.273,12.695,0
1556048316.630,54.688,-267.090,24.414,33.691,6.836,0
1556048316.634,122.559,-208.008,25.391,31.738,-10.742,0
1556048316.638,27.832,143.555,30.273,32.227,0.488,0
1556048316.642,-64.453,-49.805,28.320,33.691,10.742,0
1556048316.644,21.973,-93.750,30.273,39.551,26.367,0
1556048316.648,124.512,252.441,34.180,44.434,66.406,0
1556048316.652,69.824,331.543,35.645,40.039,78.613,0
1556048316.656,-44.922,-98.145,31.738,34.668,34.668,0
1556048316.660,-12.207,-236.816,26.855,33.691,-6.836,0
1556048316.664,105.469,-47.852,27.832,37.598,-12.695,0
1556048316.668,96.191,99.609,34.668,37.109,15.137,0
1556048316.671,-27.344,-105.957,34.180,34.668,1.465,0
1556048316.675,-41.504,-499.512,29.297,41.992,8.301,0
1556048316.679,83.008,-122.559,35.156,41.016,-12.207,0
1556048316.683,121.582,293.457,36.621,41.992,0.488,0
1556048316.687,12.695,114.258,32.715,40.039,42.969,0
1556048316.689,-56.152,-108.398,33.691,31.738,33.203,0
1556048316.693,41.504,49.316,33.203,37.598,6.348,0
1556048316.697,113.770,235.840,32.227,35.156,-10.254,0
1556048316.701,22.461,137.695,33.203,34.668,20.508,0
1556048316.705,-74.707,-61.523,30.762,32.227,39.551,0
1556048316.709,-0.488,-127.930,23.926,20.996,29.297,0
1556048316.713,110.840,3.906,20.508,33.203,25.879,0
1556048316.716,70.801,-217.773,18.066,36.621,-7.812,0
1556048316.720,-42.480,-425.293,20.996,26.367,-15.625,0
1556048316.724,-16.602,-46.387,27.344,25.879,23.926,0
1556048316.728,104.492,185.059,26.367,29.297,42.969,0
1556048316.732,106.445,223.633,25.391,37.109,50.293,0
1556048316.734,-19.043,51.270,26.855,37.109,37.598,0
1556048316.738,-50.293,-59.570,27.832,37.109,25.879,0
1556048316.742,74.219,46.387,28.320,47.363,15.137,0
1556048316.746,125.488,148.438,34.668,49.316,19.043,0
1556048316.750,24.414,140.625,39.551,41.992,15.137,0
1556048316.754,-50.781,-141.602,36.133,37.109,9.766,0
1556048316.758,39.551,-272.949,35.156,37.109,8.789,0
1556048316.761,125.488,-208.008,38.574,38.086,13.184,0
1556048316.765,45.898,-81.543,39.551,29.297,-16.113,0
1556048316.769,-58.105,-120.117,33.691,23.438,-10.742,0
1556048316.773,-3.418,-112.793,26.855,27.832,15.137,0
1556048316.777,110.352,151.855,26.367,32.227,27.344,0
1556048316.779,83.496,312.500,30.273,32.227,32.715,0
1556048316.783,-37.109,104.492,28.320,30.273,16.113,0
1556048316.787,-26.855,-40.039,31.250,37.598,64.941,0
1556048316.791,101.074,162.598,39.551,44.434,86.426,0
1556048316.795,116.699,307.129,43.457,36.621,34.668,0
1556048316.799,-6.348,43.945,40.527,31.738,27.344,0
1556048316.803,-43.945,-468.750,36.133,28.809,26.367,0
1556048316.806,71.777,-377.930,41.016,30.273,55.176,0
1556048316.810,124.023,236.328,43.457,38.086,50.781,0
1556048316.814,23.438,194.824,36.621,33.203,8.301,0
1556048316.818,-60.059,-72.266,38.086,30.762,35.645,0
1556048316.822,26.367,-54.688,39.062,33.691,15.625,0
1556048316.824,117.676,120.117,36.133,32.227,-22.949,0
1556048316.828,53.711,150.391,38.574,35.156,-0.977,0
1556048316.832,-58.105,-94.727,41.992,31.250,8.301,0
1556048316.836,-16.602,-52.734,44.434,26.367,2.930,0
1556048316.840,102.051,203.125,43.945,31.250,-10.254,0
1556048316.844,86.426,70.801,42.969,36.621,-3.906,0
1556048316.848,-31.250,-402.832,41.016,25.391,14.160,0
1556048316.851,-37.598,-286.621,44.922,19.531,-2.930,0
1556048316.855,83.984,145.508,45.898,31.738,-8.301,0
1556048316.859,110.840,224.121,41.504,32.227,33.691,0
1556048316.863,-0.488,80.078,42.969,25.879,41.992,0
1556048316.867,-57.617,-6.836,43.457,22.949,36.133,0
1556048316.898,44.922,26.367,41.016,20.020,-31.250,0
1556048316.902,114.746,156.738,44.434,23.438,-23.438,0
1556048316.906,24.902,41.992,42.969,22.461,29.785,0
1556048316.910,-57.129,-124.512,39.062,26.855,61.035,0
1556048316.914,20.508,18.066,41.504,27.832,54.688,0
1556048316.918,107.910,71.777,39.062,24.414,22.461,0
1556048316.922,53.711,-19.531,38.086,21.484,27.832,0
1556048316.925,-64.453,-95.215,39.551,20.020,2.930,0
1556048316.929,-36.133,-22.461,36.133,20.508,-5.371,0
1556048316.933,87.891,-136.230,30.273,12.695,30.762,0
1556048316.937,84.473,-141.113,35.156,11.719,11.230,0
1556048316.941,-30.762,56.152,39.551,17.090,-10.254,0
1556048316.928,-45.410,-98.145,38.086,16.602,1.465,0
1556048316.932,74.707,-15.137,38.574,25.391,12.695,0
1556048316.936,115.234,257.812,36.621,31.250,26.367,0
1556048316.940,10.254,177.734,30.762,27.832,4.395,0
1556048316.944,-62.988,-93.262,30.762,26.855,30.273,0
1556048316.948,34.180,-187.500,32.715,35.645,28.809,0
1556048316.952,120.117,-15.625,30.273,41.016,2.930,0
1556048316.955,40.527,13.184,28.809,34.668,19.531,0
1556048316.959,-57.617,-267.090,28.809,31.738,18.066,0
1556048316.963,7.812,-215.332,33.691,32.227,2.441,0
1556048316.967,116.699,171.387,36.133,29.785,0.488,0
1556048316.971,78.125,328.613,35.156,27.832,22.949,0
1556048316.973,-47.363,-129.395,29.297,25.391,14.160,0
1556048316.977,-29.785,-482.910,29.297,19.531,9.766,0
1556048316.981,96.191,54.688,38.086,20.996,41.016,0
1556048316.985,103.027,336.426,35.156,20.996,45.898,0
1556048316.989,-20.508,43.945,28.809,15.625,7.324,0
1556048316.993,-44.922,-267.090,26.855,16.113,-27.832,0
1556048316.997,81.055,-149.414,30.273,26.855,2.441,0
1556048317.000,125.977,200.195,35.156,36.621,60.547,0
1556048317.004,22.949,-114.746,27.344,26.367,59.570,0
1556048317.008,-54.199,-483.887,26.367,20.508,-29.297,0
1556048317.012,35.156,-17.578,35.156,25.391,-31.738,0
1556048317.016,126.953,240.723,37.109,35.156,10.742,0
1556048317.018,54.688,126.953,36.133,38.574,11.719,0
1556048317.022,-59.570,-14.160,34.668,33.691,10.742,0
1556048317.026,-5.371,41.016,35.156,40.039,18.555,0
1556048317.030,111.328,151.855,35.645,49.805,18.066,0
1556048317.034,83.008,136.719,34.180,43.945,6.348,0
1556048317.038,-37.109,-136.719,34.668,43.457,-3.906,0
1556048317.042,-30.273,-222.656,38.086,47.363,1.953,0
1556048317.045,93.262,-31.738,35.645,49.316,8.789,2
1556048317.049,112.305,-125.977,37.109,48.828,28.809,0
1556048317.053,-4.883,-55.176,42.969,38.574,27.832,0
1556048317.057,-53.711,-11.719,37.598,30.762,6.348,0
1556048317.061,60.059,-1.465,30.762,31.738,27.344,0
1556048317.063,117.188,120.605,29.785,35.156,31.250,0
1556048317.067,15.137,162.109,30.273,29.785,15.137,0
1556048317.071,-69.336,22.949,27.832,27.344,35.645,0
1556048317.075,15.137,-23.926,28.320,24.414,43.457,0
1556048317.079,113.770,148.438,28.320,21.484,20.020,0
1556048317.083,61.035,145.508,27.344,28.809,38.574,0
1556048317.087,-56.152,-100.586,26.855,26.367,73.242,0
1556048317.090,-18.066,-414.062,24.902,19.043,42.969,0
1556048317.094,104.980,-279.785,29.785,20.020,-11.719,0
1556048317.098,86.914,200.195,32.715,28.320,-9.766,0
1556048317.102,-32.227,38.574,31.250,32.227,-20.996,0
1556048317.106,-38.574,-179.688,34.668,34.180,-14.648,0
1556048317.108,83.008,82.520,39.062,41.504,2.441,0
1556048317.112,110.840,320.312,33.691,29.297,13.672,0
1556048317.116,2.930,13.184,27.344,21.484,9.277,0
1556048317.120,-56.152,-219.238,32.227,25.879,17.090,0
1556048317.124,41.016,34.668,33.203,30.273,7.812,0
1556048317.128,123.535,186.035,32.715,39.062,5.859,0
1556048317.132,38.574,-70.312,32.227,33.203,27.832,0
1556048317.135,-67.871,-331.543,30.762,27.832,24.414,0
1556048317.139,11.230,-24.902,34.180,36.133,50.781,0
1556048317.143,124.512,348.633,38.574,43.457,65.918,0
1556048317.147,77.637,111.816,35.645,37.109,26.367,0
1556048317.151,-40.527,-359.375,29.785,23.438,-13.672,0
1556048317.153,-24.414,-226.074,33.691,22.949,-24.902,0
1556048317.157,94.238,130.859,35.156,30.762,3.906,0
1556048317.161,95.703,195.312,32.715,29.297,19.531,0
1556048317.165,-20.996,-7.812,34.180,30.762,0.000,0
1556048317.169,-45.410,-62.500,33.691,25.879,-13.672,0
1556048317.173,72.754,51.758,32.715,27.344,29.785,0
1556048317.177,114.746,-102.051,33.203,33.203,47.852,0
1556048317.180,4.395,-261.230,34.180,20.996,16.602,0
1556048317.184,-61.035,-66.406,39.551,20.020,1.953,0
1556048317.188,32.227,70.801,43.457,25.391,22.461,0
1556048317.192,110.352,195.312,44.434,30.762,43.945,0
1556048317.196,34.668,217.773,42.480,33.203,31.738,0
1556048317.198,-67.871,50.781,38.086,25.879,6.836,0
1556048317.202,-2.441,-19.531,37.598,28.320,33.203,0
1556048317.206,112.793,120.605,40.039,37.109,54.688,0
1556048317.210,85.938,217.773,38.574,35.645,16.113,0
1556048317.214,-35.645,34.668,31.738,31.738,-29.785,0
1556048317.218,-20.020,-235.352,31.738,35.645,9.766,0
1556048317.222,108.398,-314.453,33.203,45.410,48.828,0
1556048317.225,116.699,-1.953,39.551,43.945,2.930,0
1556048317.229,0.977,45.410,40.039,41.992,6.348,0
1556048317.233,-35.645,-213.867,38.086,43.457,-0.488,0
1556048317.237,78.613,-97.168,43.945,48.340,-53.711,0
1556048317.241,135.742,241.211,44.922,45.898,-8.789,0
1556048317.259,31.250,198.242,42.969,36.621,21.484,0
1556048317.263,-52.734,-96.680,41.016,30.762,29.785,0
1556048317.267,35.156,-71.289,37.109,27.344,16.113,0
1556048317.271,124.512,210.449,33.691,26.367,-0.977,0
1556048317.275,52.734,249.512,33.691,22.461,43.457,0
1556048317.279,-55.176,-119.141,32.715,13.184,63.477,0
1556048317.283,-8.789,-291.504,34.180,7.812,6.836,0
1556048317.286,110.352,73.242,39.551,19.531,-9.277,0
1556048317.290,89.355,257.324,41.992,24.902,3.906,0
1556048317.294,-41.016,-265.137,36.133,22.949,-15.625,0
1556048317.298,-42.969,-394.531,32.715,21.484,6.348,0
1556048317.302,80.566,24.414,36.621,25.391,7.812,0
1556048317.304,109.375,128.418,38.574,34.180,-6.348,0
1556048317.308,-2.441,0.000,37.598,33.691,10.254,0
1556048317.312,-50.293,-71.777,35.645,30.762,30.762,0
1556048317.316,62.012,105.957,36.621,28.809,32.715,0
1556048317.320,131.836,180.176,39.062,37.109,9.277,0
1556048317.324,37.598,-85.449,37.598,42.969,-20.020,0
1556048317.328,-47.852,-305.664,35.645,37.109,-14.648,0
1556048317.331,29.297,-79.102,38.086,38.086,-12.695,0
1556048317.335,124.512,121.094,38.574,43.457,45.410,0
1556048317.339,75.684,-121.582,38.086,43.457,82.031,0
1556048317.343,-37.598,-151.367,41.504,41.016,15.625,0
1556048317.347,-0.977,-0.488,43.457,39.551,6.836,0
1556048317.349,115.234,142.090,41.992,40.527,32.227,0
1556048317.353,97.168,121.582,38.574,42.480,-0.488,0
1556048317.357,-20.508,-77.148,33.203,39.551,-21.973,0
1556048317.361,-33.691,-64.941,35.156,34.180,19.043,0
1556048317.365,81.055,74.707,41.504,39.062,26.855,0
1556048317.369,117.188,59.082,41.016,43.945,8.301,0
1556048317.373,9.766,-86.914,39.551,35.645,24.414,0
1556048317.376,-52.734,-68.848,43.945,27.344,34.180,0
1556048317.380,54.199,-199.219,41.016,29.785,39.062,0
1556048317.384,133.789,-150.879,39.062,40.527,7.324,0
1556048317.388,46.387,230.957,45.410,39.062,28.320,0
1556048317.392,-58.594,13.672,44.434,29.297,28.809,0
1556048317.394,11.719,-102.539,42.969,32.227,3.906,0
1556048317.398,125.000,207.520,44.434,38.574,16.113,0
1556048317.402,80.566,298.340,42.969,34.668,9.277,0
1556048317.406,-40.527,87.891,39.062,30.762,84.473,0
1556048317.410,-20.020,-107.422,36.133,24.902,95.215,0
1556048317.414,103.027,-63.477,40.527,26.367,6.836,0
1556048317.418,105.469,83.984,45.410,33.691,22.949,0
1556048317.421,-13.672,-115.723,40.527,30.273,15.625,0
1556048317.425,-47.363,-451.172,37.109,20.508,12.207,0
1556048317.429,67.871,-30.273,45.898,25.391,69.336,0
1556048317.433,116.211,368.652,47.852,35.156,50.781,0
1556048317.437,3.418,130.859,45.898,30.273,22.461,0
1556048317.439,-67.871,-112.305,42.480,21.973,4.883,0
1556048317.443,23.926,75.684,40.527,19.043,29.297,0
1556048317.447,99.609,250.977,39.551,16.113,4.395,0
1556048317.451,33.203,101.562,39.062,20.996,-28.320,0
1556048317.455,-61.523,-68.848,39.551,22.461,26.367,0
1556048317.459,-5.859,-134.766,38.086,20.996,37.109,0
1556048317.463,109.863,28.320,39.551,30.273,56.152,0
1556048317.466,83.496,-135.254,32.227,22.949,55.176,0
1556048317.470,-40.039,-423.340,29.297,8.301,-6.348,0
1556048317.474,-26.367,-109.375,39.062,15.137,-6.348,0
1556048317.478,99.121,106.445,40.039,28.809,-11.230,0
1556048317.482,107.422,148.926,38.574,30.762,6.836,0
1556048317.484,-17.578,105.469,39.062,21.973,49.316,0
1556048317.488,-56.641,-25.391,41.504,20.508,9.766,0
1556048317.492,60.547,-27.344,40.039,29.785,-23.926,0
1556048317.496,119.141,124.023,41.992,35.645,18.555,0
1556048317.500,24.414,184.570,41.992,31.250,70.312,0
1556048317.504,-52.734,-153.809,36.133,24.902,20.996,0
1556048317.508,31.738,-345.703,34.180,27.344,-19.531,0
1556048317.511,124.023,-241.211,33.691,29.785,35.645,0
1556048317.515,64.941,-18.555,30.273,27.344,13.672,0
1556048317.519,-43.945,-43.457,27.344,28.809,-48.828,0
1556048317.523,-5.371,-169.434,32.227,28.320,-13.184,0
1556048317.527,110.352,77.637,31.250,33.203,45.410,0
1556048317.529,89.355,261.719,26.855,38.086,28.809,0
1556048317.533,-31.250,99.121,28.809,33.691,41.504,0
1556048317.537,-31.250,-128.906,32.715,32.227,38.086,0
1556048317.541,89.844,-21.973,35.645,34.180,-5.859,0
1556048317.545,112.305,214.844,33.691,33.203,4.395,0
1556048317.549,-4.395,-26.855,29.297,33.203,-20.020,0
1556048317.553,-58.594,-518.555,30.273,29.785,1.953,0
1556048317.556,51.758,-440.918,36.621,22.949,9.277,0
1556048317.560,122.559,155.273,44.434,29.785,6.348,0
1556048317.564,28.320,141.602,42.480,32.715,-8.301,0
1556048317.568,-62.988,-237.793,42.969,25.879,-63.965,0
1556048317.572,14.648,-92.285,45.410,28.809,-3.906,0
1556048317.574,108.398,222.656,41.016,25.879,55.664,0
1556048317.578,49.805,98.633,36.133,20.508,41.992,0
1556048317.582,-61.523,-191.895,35.156,17.578,6.836,0
1556048317.586,-27.832,-183.105,38.086,23.438,-46.387,0
1556048317.590,91.797,119.141,41.016,29.785,-14.648,0
1556048317.594,91.309,21.484,38.086,23.926,-8.301,0
1556048317.598,-26.367,-502.930,33.203,17.090,-37.109,0
1556048317.601,-43.945,-386.719,38.086,16.113,-17.090,0
1556048317.605,76.660,123.535,43.945,26.855,43.457,0
1556048317.609,109.863,176.758,41.504,26.855,30.273,0
1556048317.613,-1.465,22.949,41.016,23.438,27.832,0
1556048317.617,-62.500,-70.801,39.551,18.066,29.297,0
1556048317.634,37.109,-6.836,41.016,20.020,-12.207,0
1556048317.638,123.535,125.977,46.875,34.180,5.371,0
1556048317.642,44.922,98.145,46.387,36.133,37.598,0
1556048317.646,-60.059,-35.645,44.922,33.203,31.250,0
1556048317.650,7.812,-105.957,39.551,37.598,0.488,0
1556048317.654,120.605,-251.465,33.203,40.527,-2.930,0
1556048317.658,85.449,-247.070,37.109,38.086,-8.789,0
1556048317.661,-33.691,-46.875,41.016,30.762,5.371,0
1556048317.665,-14.648,-51.270,41.016,33.203,47.852,0
1556048317.669,109.863,22.949,43.945,38.086,51.270,0
1556048317.673,115.723,198.730,44.922,43.945,55.176,0
1556048317.677,-3.906,127.441,44.922,41.504,41.992,0
1556048317.678,-41.992,-138.184,44.434,32.715,12.695,0
1556048317.682,70.801,-79.590,40.039,35.156,26.367,0
1556048317.686,128.906,185.547,44.434,40.039,31.738,0
1556048317.690,29.297,132.812,41.992,37.598,3.418,0
1556048317.694,-53.223,-191.406,33.203,29.785,-20.996,0
1556048317.698,42.969,-269.531,36.621,34.180,16.113,0
1556048317.702,128.906,-38.574,39.551,39.551,37.109,0
1556048317.705,55.176,43.457,40.527,38.086,23.926,0
1556048317.709,-50.781,-302.246,37.598,29.785,18.555,0
1556048317.713,-6.348,-498.535,33.691,22.949,39.551,0
1556048317.717,104.492,44.922,40.527,31.738,89.844,0
1556048317.721,78.125,339.355,43.457,32.227,91.309,0
1556048317.723,-43.945,-43.457,41.016,26.855,12.207,0
1556048317.727,-41.016,-202.637,39.062,29.297,-23.438,0
1556048317.731,80.566,99.609,46.875,37.109,1.953,0
1556048317.735,102.539,302.246,46.875,38.086,48.340,0
1556048317.739,-15.625,29.297,36.133,26.855,19.043,0
1556048317.743,-60.547,-319.824,32.227,27.832,-20.020,0
1556048317.747,56.641,-189.453,30.762,26.855,28.809,0
1556048317.750,121.094,173.828,29.297,26.855,77.637,0
1556048317.754,32.227,-123.535,26.367,31.250,49.805,0
1556048317.758,-54.688,-454.590,31.250,21.973,15.625,0
1556048317.762,34.668,-95.215,39.062,27.344,42.969,0
1556048317.766,140.137,138.184,35.156,45.898,39.062,0
1556048317.768,74.707,117.676,31.250,47.363,4.883,0
1556048317.772,-35.156,-16.113,35.645,39.551,13.184,0
1556048317.776,0.488,24.902,34.668,36.133,40.039,0
1556048317.780,113.770,128.418,29.785,40.527,32.715,0
1556048317.784,99.121,104.980,29.297,40.039,-8.301,0
1556048317.788,-27.344,-66.406,25.879,32.715,38.086,0
1556048317.792,-33.203,-172.363,24.902,33.203,101.074,0
1556048317.795,83.008,-134.277,27.832,27.344,48.340,0
1556048317.799,109.863,-218.262,33.691,26.367,-7.324,0
1556048317.803,-2.930,-149.902,37.109,26.367,-56.152,0
1556048317.807,-57.617,-45.898,36.621,23.926,-9.277,0
1556048317.811,45.898,-50.293,39.551,31.738,-15.625,0
1556048317.813,120.117,137.207,41.992,37.598,-9.277,0
1556048317.817,43.457,138.672,44.922,35.645,29.297,0
1556048317.821,-57.129,-92.773,47.852,38.574,-8.301,0
1556048317.825,17.090,-40.039,51.758,39.551,35.645,0
1556048317.829,129.883,190.918,49.316,38.574,61.035,0
1556048317.833,80.566,95.215,45.898,38.086,23.926,0
1556048317.837,-35.156,-121.582,45.898,34.668,13.672,0
1556048317.840,-9.766,-382.812,41.016,25.391,4.395,0
1556048317.844,103.027,-281.250,38.574,28.809,8.789,0
1556048317.848,100.098,253.418,45.410,40.039,32.715,0
1556048317.852,-24.414,102.051,44.922,28.809,24.902,0
1556048317.856,-48.828,-190.430,41.992,21.973,-10.254,0
1556048317.859,71.777,40.039,47.363,34.180,-3.906,0
1556048317.863,115.723,339.844,47.852,35.156,49.805,0
1556048317.867,8.789,127.930,45.410,33.691,41.992,0
1556048317.871,-63.477,-184.570,41.992,29.297,20.996,0
1556048317.875,33.691,-108.398,36.133,18.066,18.066,0
1556048317.879,113.770,50.293,36.133,21.973,7.324,0
1556048317.883,36.133,-59.082,36.133,28.809,36.621,0
1556048317.886,-67.383,-483.398,29.785,13.672,23.926,0
1556048317.890,-16.113,-291.992,31.250,4.395,-4.395,0
1556048317.894,91.797,155.762,31.738,9.766,-37.109,0
1556048317.898,60.059,105.469,33.203,10.742,-41.504,0
1556048317.902,-61.035,-74.707,36.133,9.766,0.488,0
1556048317.903,-42.480,-46.875,39.062,5.371,17.090,0
1556048317.907,83.008,159.180,40.527,8.789,25.391,0
1556048317.911,91.797,170.410,35.645,16.602,11.719,0
1556048317.915,-27.832,-13.184,35.156,21.484,1.953,0
1556048317.919,-64.941,-105.469,37.598,18.066,1.465,0
1556048317.923,54.688,-65.918,39.551,20.508,2.930,0
1556048317.927,114.746,-178.223,38.574,21.484,24.902,0
1556048317.930,14.160,-375.000,36.133,14.160,14.648,0
1556048317.934,-61.523,-184.082,45.898,20.996,21.484,0
1556048317.938,30.762,20.508,51.758,28.809,30.273,0
1556048317.942,121.582,148.438,50.781,37.109,41.016,0
1556048317.946,53.223,204.102,53.711,31.250,62.012,0
1556048317.949,-57.617,22.949,53.223,18.555,20.996,0
1556048317.953,-6.836,-58.594,51.758,26.367,41.992,0
1556048317.957,111.328,74.707,56.152,33.691,50.781,0
1556048317.961,84.961,233.887,57.129,31.738,60.059,0
1556048317.965,-42.480,76.660,54.199,25.391,31.738,0
1556048317.969,-43.945,-271.973,48.340,26.855,-3.418,0
1556048317.973,79.590,-384.766,49.805,23.926,34.180,0
1556048317.976,99.609,-30.762,57.129,19.043,14.648,0
1556048317.980,-14.648,107.910,50.293,9.766,0.977,0
1556048317.984,-63.965,-139.648,44.434,3.418,62.012,0
1556048317.988,53.711,-156.738,42.480,11.719,26.367,0
1556048317.992,126.953,117.676,43.457,10.742,-45.410,0
1556048318.008,31.738,114.746,46.387,12.695,-3.418,0
1556048318.012,-57.617,-193.359,45.898,24.902,6.836,0
1556048318.016,20.020,-160.156,50.293,27.832,-14.648,0
1556048318.020,114.746,170.898,54.199,31.738,18.066,0
1556048318.024,49.316,240.234,55.664,33.691,17.090,0
1556048318.028,-62.012,-339.355,54.199,25.391,-12.207,0
1556048318.032,-17.578,-521.484,53.711,24.902,-2.441,0
1556048318.035,101.074,55.176,55.176,29.297,-5.859,0
1556048318.039,91.797,183.594,51.270,28.320,-20.508,0
1556048318.043,-31.250,-105.957,51.270,28.320,-8.301,0
1556048318.047,-48.828,-223.145,50.781,30.273,-26.855,0
1556048318.051,79.102,105.957,46.875,33.691,33.203,0
1556048318.053,111.816,208.008,45.410,30.762,39.551,0
1556048318.057,-3.418,-71.289,45.410,26.367,-4.395,0
1556048318.061,-62.500,-182.129,47.363,23.926,-4.395,0
1556048318.065,42.969,-0.488,48.828,27.832,-5.859,0
1556048318.069,121.582,104.004,45.898,37.598,-10.742,0
1556048318.073,36.621,-110.840,45.410,36.621,-1.953,0
1556048318.077,-61.035,-318.359,50.781,34.180,34.180,0
1556048318.080,8.301,-142.090,52.246,32.715,2.930,0
1556048318.084,121.094,12.695,49.805,38.086,-7.324,0
1556048318.088,77.637,-236.328,45.898,40.039,25.391,0
1556048318.092,-41.992,-189.453,49.805,29.785,49.316,0
1556048318.096,-18.066,-45.410,50.293,31.738,26.367,0
1556048318.098,99.609,60.547,49.316,36.133,31.250,0
1556048318.102,102.539,174.316,48.340,32.715,45.898,0
1556048318.106,-19.531,95.703,42.969,25.391,30.762,0
1556048318.110,-48.828,-110.352,41.016,24.902,52.734,0
1556048318.114,70.801,-141.602,40.527,29.785,8.301,0
1556048318.118,113.281,1.465,40.527,36.621,-3.418,0
1556048318.122,6.836,-113.770,41.504,28.809,13.184,0
1556048318.125,-61.035,-225.586,45.410,20.020,-14.160,0
1556048318.129,37.598,-360.352,44.922,23.926,-20.996,1
1556048318.133,124.023,-200.195,46.387,28.809,16.113,0
1556048318.137,49.316,186.523,51.270,27.344,14.160,0
1556048318.141,-57.617,-5.371,50.293,27.832,15.137,0
1556048318.143,-0.488,-120.605,46.387,26.855,19.043,0
1556048318.147,117.676,166.504,40.527,28.809,23.926,0
1556048318.151,91.797,312.500,45.898,36.133,39.062,0
1556048318.155,-46.875,40.527,51.270,21.973,59.570,0
1556048318.159,-46.875,-162.109,49.805,16.113,34.668,0
1556048318.163,77.148,0.488,49.316,30.273,44.922,0
1556048318.167,83.984,102.539,49.316,22.461,59.570,0
1556048318.170,-30.273,-186.035,49.316,18.066,2.441,0
1556048318.174,-69.336,-541.504,44.922,14.160,8.789,0
1556048318.178,40.527,-186.523,48.340,7.812,-17.578,0
1556048318.182,99.121,251.465,48.828,14.648,-28.809,0
1556048318.186,4.395,91.797,45.898,20.020,3.906,0
1556048318.188,-70.801,-154.785,44.922,22.461,-13.672,0
1556048318.192,16.113,-38.574,47.363,23.438,-52.734,0
1556048318.196,112.793,200.195,51.758,28.809,-35.156,0
1556048318.200,56.152,145.020,52.246,26.855,9.277,0
1556048318.204,-61.035,-66.895,48.340,20.020,41.504,0
1556048318.208,-23.926,-158.691,43.945,21.484,22.949,0
1556048318.212,98.633,-33.691,48.340,30.762,5.859,0
1556048318.215,87.891,-194.824,47.852,29.785,7.812,0
1556048318.219,-32.227,-414.551,46.875,21.973,-21.973,0
1556048318.223,-46.387,-210.938,47.852,20.020,-7.812,0
1556048318.227,73.730,-20.020,43.457,25.879,40.527,0
1556048318.231,107.910,182.617,44.434,38.086,60.059,0
1556048318.233,-8.789,161.133,44.922,37.109,68.848,0
1556048318.237,-62.988,27.832,44.922,31.250,56.152,0
1556048318.241,52.246,29.785,43.457,31.250,39.551,0
1556048318.245,123.047,134.766,45.898,36.621,25.391,0
1556048318.249,32.227,102.051,48.340,42.480,-30.273,0
1556048318.253,-56.152,-168.945,41.992,41.504,-16.113,0
1556048318.257,21.973,-258.789,34.668,34.180,45.898,0
1556048318.260,128.418,-243.652,34.180,29.785,33.691,0
1556048318.264,75.195,7.812,40.039,27.344,30.762,0
1556048318.268,-41.992,93.262,42.969,23.926,50.781,0
1556048318.272,-3.906,-148.438,44.434,31.250,-14.160,0
1556048318.276,115.723,6.836,45.410,38.086,-43.945,0
1556048318.278,102.051,194.336,49.805,40.527,6.836,0
1556048318.282,-21.973,74.707,50.293,36.133,66.406,0
1556048318.286,-44.434,-115.234,45.410,28.320,35.156,0
1556048318.290,73.730,-30.762,45.410,33.203,-26.367,0
1556048318.294,119.629,248.047,43.945,38.086,15.625,0
1556048318.298,14.648,48.828,38.574,36.621,25.391,0
1556048318.302,-45.410,-478.027,37.598,31.250,17.578,0
1556048318.305,54.688,-428.223,43.457,34.180,8.301,0
1556048318.309,135.742,180.176,49.805,39.062,5.859,0
1556048318.313,53.223,219.727,46.875,39.062,24.902,0
1556048318.317,-54.199,-125.488,43.457,29.785,5.371,0
1556048318.321,9.766,-64.941,42.480,26.367,15.137,0
1556048318.323,117.188,243.652,46.875,39.062,20.508,0
1556048318.327,72.266,229.492,50.293,39.062,35.156,0
1556048318.331,-47.363,-79.590,49.805,31.738,17.090,0
1556048318.335,-27.832,-198.730,50.293,30.762,5.859,0
1556048318.339,98.145,114.258,47.852,33.203,71.289,0
1556048318.343,106.445,117.188,46.387,36.621,43.945,0
1556048318.347,-20.508,-396.484,49.316,28.320,11.230,0
1556048318.350,-57.129,-335.938,50.781,20.996,11.719,0
1556048318.354,67.383,64.453,50.293,30.273,-24.902,0
1556048318.358,121.582,151.855,47.852,36.133,-17.090,0
1556048318.362,11.230,11.230,43.457,28.809,-31.250,0
1556048318.366,-72.266,-66.895,43.457,28.320,-10.742,0
1556048318.383,23.926,38.086,45.410,33.203,9.277,0
1556048318.387,112.793,138.184,43.457,33.203,-5.859,0
1556048318.391,45.410,187.012,44.922,40.039,82.520,0
1556048318.395,-54.688,62.988,42.480,35.645,80.078,0
1556048318.399,-1.953,-33.691,38.574,34.180,8.301,0
1556048318.403,115.723,50.781,41.504,40.039,47.363,0
1556048318.407,87.402,27.344,42.969,44.434,74.707,0
1556048318.410,-31.250,-187.012,37.598,42.480,12.207,0
1556048318.414,-26.855,-157.715,35.645,29.785,-2.930,0
1556048318.418,94.727,-146.973,38.086,31.738,37.109,0
1556048318.422,111.816,-73.242,43.457,28.809,23.438,0
1556048318.426,-13.184,96.680,44.434,23.926,34.180,0
1556048318.429,-60.059,-144.531,39.062,28.320,40.039,0
1556048318.433,49.316,-83.008,42.969,34.180,31.738,0
1556048318.437,117.188,220.215,48.340,39.062,25.391,0
1556048318.441,30.273,213.867,48.340,30.273,34.180,0
1556048318.445,-58.594,-104.004,47.363,25.879,22.461,0
1556048318.449,22.461,-239.746,47.363,31.738,17.578,0
1556048318.453,117.188,-77.637,49.316,33.203,-14.648,0
1556048318.456,59.570,121.094,52.246,35.645,-9.766,0
1556048318.460,-54.688,-90.332,49.805,35.156,55.176,0
1556048318.464,-12.695,-477.539,47.363,24.414,37.598,0
1556048318.468,109.375,-36.133,54.199,26.855,33.203,0
1556048318.472,97.656,298.828,56.641,38.574,31.738,0
1556048318.474,-23.926,-24.902,56.152,37.109,17.090,0
1556048318.478,-34.668,-100.586,58.105,32.227,91.797,0
1556048318.482,85.449,144.531,59.570,35.645,63.965,0
1556048318.486,123.047,255.371,57.617,37.109,4.395,0
1556048318.490,8.301,35.156,53.711,30.762,9.766,0
1556048318.494,-58.594,-294.922,52.734,29.785,2.441,0
1556048318.498,48.828,-234.375,57.129,34.668,29.297,0
1556048318.501,121.094,148.438,59.570,39.062,43.457,0
1556048318.505,34.668,-136.719,51.270,32.715,8.301,0
1556048318.509,-60.547,-520.508,48.828,28.809,-11.719,0
1556048318.513,5.371,-69.824,54.199,32.227,18.555,0
1556048318.517,111.328,213.867,51.270,35.645,48.828,0
1556048318.519,69.824,54.199,46.875,41.992,30.273,0
1556048318.523,-48.828,-132.812,48.340,27.832,-0.488,0
1556048318.527,-21.973,-84.473,53.223,20.996,-30.273,0
1556048318.531,95.215,55.176,55.664,35.156,13.672,0
1556048318.535,83.496,124.512,53.711,30.762,82.520,0
1556048318.539,-38.574,-106.445,49.316,17.578,33.203,0
1556048318.543,-57.129,-327.637,45.898,20.996,-25.391,0
1556048318.546,67.383,-122.070,46.387,28.809,40.039,0
1556048318.550,112.793,-134.766,42.480,26.855,71.289,0
1556048318.554,1.465,-100.586,43.945,20.508,23.926,0
1556048318.558,-66.895,-54.688,42.969,20.020,10.742,0
1556048318.562,33.203,-80.078,37.109,25.391,7.324,0
1556048318.564,110.840,117.676,40.039,28.809,18.555,0
1556048318.568,23.926,183.105,39.551,32.227,14.648,0
1556048318.572,-74.219,-69.824,37.109,32.227,-11.230,0
1556048318.576,-7.812,-180.664,34.668,27.832,11.230,0
1556048318.580,99.609,55.176,33.691,26.855,15.137,0
1556048318.584,69.824,24.902,36.133,30.273,-9.277,0
1556048318.588,-42.969,-138.184,39.551,25.391,22.949,0
1556048318.591,-29.297,-386.719,36.621,20.996,46.875,0
1556048318.595,94.727,-361.816,35.645,27.832,10.742,0
1556048318.599,110.352,171.387,43.457,29.297,4.395,0
1556048318.603,-9.277,84.961,41.992,22.949,20.996,0
1556048318.607,-51.758,-180.664,36.621,18.066,28.809,0
1556048318.609,69.336,-0.488,40.039,18.066,20.020,0
1556048318.613,130.371,243.652,40.039,21.484,0.488,0
1556048318.617,25.879,72.754,31.250,17.578,2.930,0
1556048318.621,-60.547,-181.152,30.273,11.719,41.016,0
1556048318.625,23.438,-39.551,32.227,15.625,44.434,0
1556048318.629,120.605,104.004,35.156,21.484,31.250,0
1556048318.633,53.711,-101.074,35.645,20.020,10.254,0
1556048318.636,-55.664,-528.320,32.227,12.207,11.719,0
1556048318.640,0.977,-300.293,40.527,12.695,35.156,0
1556048318.644,118.164,173.828,44.434,21.484,4.883,0
1556048318.648,90.820,140.625,44.922,24.902,10.254,0
1556048318.652,-29.785,-93.750,44.434,23.438,2.441,0
1556048318.654,-36.133,-84.961,42.480,17.090,15.137,0
1556048318.658,82.520,118.652,46.387,27.344,19.531,0
1556048318.662,111.816,165.039,47.852,38.086,21.973,0
1556048318.666,-8.301,7.324,46.387,28.320,32.227,0
1556048318.670,-57.129,-87.402,45.898,24.902,38.574,0
1556048318.674,52.246,-59.082,44.922,32.715,36.621,0
1556048318.678,113.281,-228.027,41.016,34.180,-5.371,0
1556048318.681,24.902,-327.148,40.527,20.020,0.000,0
1556048318.685,-66.406,-111.328,42.969,16.113,37.598,0
1556048318.689,12.207,-184.570,38.574,31.738,-22.949,0
1556048318.693,113.770,-74.707,34.180,33.691,-46.387,0
1556048318.697,57.617,174.805,29.785,23.926,29.297,0
1556048318.699,-51.758,72.754,22.461,15.625,63.965,0
1556048318.703,-13.672,-94.238,14.648,16.602,26.367,0
1556048318.707,102.051,29.785,17.090,23.926,37.598,0
1556048318.711,96.191,222.168,20.996,24.902,47.363,0
1556048318.715,-18.066,41.016,19.043,25.391,-16.602,0
1556048318.719,-38.086,-281.738,19.043,25.391,-5.371,0
1556048318.723,77.637,-382.812,23.438,26.367,61.035,0
1556048318.726,103.516,-54.688,30.273,22.949,2.441,0
1556048318.730,-14.648,126.465,28.809,20.508,-5.859,0
1556048318.734,-64.941,-127.930,26.855,24.414,48.828,0
1556048318.738,45.410,-77.637,25.391,22.949,13.672,0
1556048318.742,121.094,154.297,23.926,21.484,4.883,0
1556048318.759,35.645,87.891,25.391,22.949,38.574,0
1556048318.763,-61.523,-100.586,26.367,24.414,60.547,0
1556048318.767,5.859,-117.676,27.344,28.320,21.973,0
1556048318.771,111.816,141.113,28.809,31.738,-5.859,0
1556048318.775,71.777,234.375,30.273,27.832,5.371,0
1556048318.779,-41.504,-274.414,29.785,22.461,32.227,0
1556048318.783,-20.996,-444.824,32.227,20.020,70.801,0
1556048318.786,96.680,114.258,36.133,27.344,49.316,0
1556048318.790,98.145,258.301,31.250,28.320,27.832,0
1556048318.794,-19.043,-64.941,30.762,20.508,7.324,0
1556048318.798,-46.387,-216.309,31.250,19.043,-19.043,0
1556048318.802,67.383,16.602,30.273,28.809,-42.969,0
1556048318.803,116.211,200.195,32.715,33.203,25.391,0
1556048318.807,12.207,-14.648,32.715,26.855,-1.953,0
1556048318.811,-62.500,-231.445,38.574,23.438,-55.664,0
1556048318.815,42.969,-101.074,42.969,29.785,-5.371,0
1556048318.819,134.766,48.828,37.598,34.668,-28.809,0
1556048318.823,54.688,-85.449,33.691,33.691,-8.789,0
1556048318.827,-47.852,-278.809,33.691,26.855,47.852,0
1556048318.830,9.766,-114.746,35.645,22.949,31.738,0
1556048318.834,119.629,15.625,35.645,30.762,-11.230,0
1556048318.838,80.566,-235.840,32.227,22.461,-3.906,0
1556048318.842,-44.434,-234.863,35.645,7.324,-16.113,0
1556048318.846,-36.621,-73.242,41.504,12.695,1.465,0
1556048318.848,90.332,18.066,43.457,25.879,24.902,0
1556048318.852,107.422,127.441,43.945,34.668,13.184,0
1556048318.856,-13.184,88.867,41.992,30.762,16.602,0
1556048318.860,-54.688,-78.125,40.527,23.438,11.719,0
1556048318.864,59.082,-28.809,39.551,27.344,27.832,0
1556048318.868,122.559,-1.465,37.598,31.250,0.488,0
1556048318.872,25.879,-175.293,39.062,27.344,-16.602,0
1556048318.875,-63.477,-237.793,40.527,22.949,2.441,0
1556048318.879,23.926,-331.055,36.133,24.902,22.461,0
1556048318.883,116.699,-191.895,35.156,23.926,52.734,0
1556048318.887,49.805,172.363,38.086,20.020,20.996,0
1556048318.891,-57.617,-32.715,31.738,22.461,-4.883,0
1556048318.893,-13.184,-148.438,28.809,21.973,22.949,0
1556048318.897,96.191,176.758,35.645,20.020,66.406,0
1556048318.901,75.684,315.918,39.062,29.785,53.223,0
1556048318.905,-32.227,-50.293,29.785,29.785,-23.926,0
1556048318.909,-30.273,-260.742,27.344,26.367,-33.203,0
1556048318.913,83.984,-90.820,30.762,14.648,1.953,0
1556048318.917,110.840,22.949,31.738,12.695,-11.230,0
1556048318.920,-5.859,-88.867,30.762,18.066,15.625,0
1556048318.924,-62.500,-499.023,26.855,9.766,45.410,0
1556048318.928,40.527,-205.078,32.227,14.648,34.668,0
1556048318.932,105.469,291.992,32.227,17.090,24.902,0
1556048318.936,12.695,101.074,32.227,10.742,7.324,0
1556048318.939,-78.125,-151.855,33.203,12.695,2.930,0
1556048318.943,4.883,-39.551,35.156,20.020,-8.301,0
1556048318.947,111.816,144.043,36.133,22.461,-55.664,0
1556048318.951,61.523,77.637,32.227,21.973,-53.711,0
1556048318.955,-60.547,-145.508,30.273,18.066,-49.316,0
1556048318.959,-30.273,-248.047,31.250,18.066,-1.465,0
1556048318.963,99.609,-25.879,38.086,30.273,6.348,0
1556048318.966,92.773,-108.398,40.527,31.250,-26.367,0
1556048318.970,-33.691,-360.352,43.457,19.531,25.391,0
1556048318.974,-51.758,-115.723,44.922,14.648,23.926,0
1556048318.978,68.359,103.516,46.387,23.926,3.418,0
1556048318.982,105.957,107.422,46.387,25.879,27.344,0
1556048318.984,1.465,-34.180,43.945,15.625,27.832,0
1556048318.988,-59.570,-84.961,47.363,7.324,-8.789,0
1556048318.992,41.504,-17.578,46.387,17.090,4.395,0
1556048318.996,121.582,164.551,42.969,19.531,66.406,0
1556048319.000,38.086,249.512,41.504,11.230,111.816,0
1556048319.004,-56.152,-65.430,41.016,11.719,75.195,0
1556048319.008,6.836,-312.500,34.180,13.184,-6.348,0
1556048319.011,106.934,-269.531,33.203,20.508,12.207,0
1556048319.015,64.453,-0.977,39.551,21.973,23.438,0
1556048319.019,-51.270,102.051,40.039,18.555,49.805,0
1556048319.023,-21.973,-110.352,36.621,29.785,25.879,0
1556048319.027,113.770,4.883,37.598,42.480,-25.391,0
1556048319.029,128.906,265.137,41.016,44.922,6.348,0
1556048319.033,8.301,142.090,40.527,41.016,27.344,0
1556048319.037,-23.438,-200.684,41.992,43.945,-12.207,0
1556048319.041,85.938,-72.266,47.852,49.316,10.254,0
1556048319.045,134.277,276.367,54.199,49.316,53.711,0
1556048319.049,36.621,50.293,53.711,50.293,-0.977,0
1556048319.053,-42.969,-489.258,54.688,40.527,1.953,0
1556048319.056,44.922,-452.148,60.059,35.156,26.855,0
1556048319.060,137.207,176.270,65.430,46.875,28.809,0
1556048319.064,61.035,223.145,64.941,43.457,11.719,0
1556048319.068,-54.688,-90.820,64.453,35.156,21.484,0
1556048319.072,-4.883,-117.676,65.918,33.203,-16.113,0
1556048319.074,105.469,137.207,64.453,33.203,-50.781,0
1556048319.078,76.660,182.129,63.477,37.109,-14.648,0
1556048319.082,-41.504,-89.844,62.012,31.738,8.789,0
1556048319.086,-32.227,-146.973,58.594,23.438,-15.137,0
1556048319.090,87.402,100.586,60.547,28.809,-11.230,0
1556048319.094,108.887,98.145,59.082,33.203,23.438,0
1556048319.098,-5.859,-417.969,52.734,22.461,41.992,0
1556048319.101,-67.383,-395.996,57.617,15.625,71.777,0
1556048319.105,39.062,83.496,60.059,23.926,26.855,0
1556048319.109,107.910,186.523,57.617,28.809,32.227,0
1556048319.113,14.648,72.754,54.688,19.043,36.133,0
1556048319.117,-68.359,-25.879,53.711,17.090,25.391,0
1556048319.134,16.113,43.457,54.199,23.926,28.320,0
1556048319.138,114.746,102.539,53.711,28.809,-31.250,0
1556048319.142,62.988,77.637,56.152,30.762,-26.367,0
1556048319.146,-51.270,-21.973,57.617,29.785,10.254,0
1556048319.150,-15.625,26.855,59.082,31.250,42.480,0
1556048319.154,101.074,-115.234,49.316,34.668,22.949,0
1556048319.158,83.984,-157.227,41.992,34.180,32.715,0
1556048319.161,-32.227,45.410,43.945,27.344,48.828,0
1556048319.165,-38.574,-144.043,41.992,23.438,4.395,0
1556048319.169,87.891,-59.570,45.898,34.180,13.672,0
1556048319.173,115.723,217.285,49.805,41.016,41.504,0
1556048319.177,0.000,141.113,44.922,33.691,-2.441,0
1556048319.178,-57.617,-99.121,41.504,26.367,8.789,0
1556048319.182,45.410,-58.594,42.480,30.762,41.504,0
1556048319.186,125.977,208.496,42.969,41.016,32.715,0
1556048319.190,42.969,204.102,42.480,35.156,9.766,0
1556048319.194,-56.152,-80.078,39.551,28.809,29.297,2
1556048319.198,16.602,-215.820,37.109,28.320,55.664,0
1556048319.202,119.629,-17.090,37.598,24.902,29.297,0
1556048319.205,63.965,174.805,43.945,25.879,9.277,0
1556048319.209,-51.270,-110.840,42.969,28.320,-10.742,0
1556048319.213,-20.020,-543.945,36.621,22.949,-9.277,0
1556048319.217,106.934,-134.766,46.875,23.438,18.555,0
1556048319.221,102.539,169.434,51.758,28.809,7.324,0
1556048319.223,-25.879,-66.895,47.852,21.484,32.227,0
1556048319.227,-45.898,-138.184,48.828,19.531,28.320,0
1556048319.231,76.172,79.102,49.805,26.855,-8.301,0
1556048319.235,118.652,240.234,49.316,25.391,-27.832,0
1556048319.239,6.836,84.473,49.316,24.414,27.344,0
1556048319.243,-67.871,-222.168,46.875,26.855,45.410,0
1556048319.247,31.738,-259.277,43.945,28.809,-15.625,0
1556048319.250,118.652,156.738,49.316,29.297,21.484,0
1556048319.254,44.434,-38.574,47.852,28.320,64.453,0
1556048319.258,-60.059,-457.031,48.340,25.879,25.879,0
1556048319.262,4.395,-72.754,52.734,22.461,-0.488,0
1556048319.266,120.117,218.750,48.828,24.902,23.926,0
1556048319.268,83.984,123.047,49.316,30.273,34.668,0
1556048319.272,-35.156,-49.316,49.805,20.508,26.367,0
1556048319.276,-17.578,-110.352,49.316,19.531,12.695,0
1556048319.280,104.492,29.785,55.664,32.227,22.461,0
1556048319.284,110.840,126.465,54.199,27.344,-0.488,0
1556048319.288,-6.836,-65.918,54.199,28.809,-7.812,0
1556048319.292,-41.016,-237.305,56.152,18.066,9.766,0
1556048319.295,67.871,-135.742,53.711,11.230,41.504,0
1556048319.299,115.234,-153.809,48.828,20.996,46.387,0
1556048319.303,15.137,-84.473,50.293,15.137,-18.555,0
1556048319.307,-62.500,-48.340,52.246,19.043,-43.457,0
1556048319.311,30.273,-95.703,50.781,28.809,-31.738,0
1556048319.313,126.465,166.016,56.152,37.598,37.598,0
1556048319.317,57.617,275.391,54.199,41.016,39.062,0
1556048319.321,-55.176,30.762,46.387,35.156,3.906,0
1556048319.325,-6.836,-21.973,46.875,31.250,66.406,0
1556048319.329,110.352,132.812,47.852,38.086,60.547,0
1556048319.333,84.473,110.840,43.457,41.016,40.039,0
1556048319.337,-34.668,-99.609,41.992,33.203,54.688,0
1556048319.340,-35.156,-428.223,42.480,26.855,41.992,0
1556048319.344,85.449,-284.180,43.457,27.344,38.086,0
1556048319.348,113.770,248.047,44.434,33.203,30.273,0
1556048319.352,-4.395,157.227,39.062,28.320,21.484,0
1556048319.356,-54.688,-159.668,33.203,18.555,-15.625,0
1556048319.358,51.758,27.832,36.621,13.672,9.277,0
1556048319.362,114.258,310.059,36.621,19.531,15.625,0
1556048319.366,22.949,134.766,34.668,23.926,-0.488,0
1556048319.370,-65.430,-136.719,37.109,20.508,33.203,0
1556048319.374,16.602,-53.223,39.551,22.461,-5.371,0
1556048319.378,120.117,73.242,42.480,31.250,-15.137,0
1556048319.382,65.918,-39.062,41.992,34.180,16.113,0
1556048319.385,-48.828,-478.027,39.062,18.555,-10.254,0
1556048319.389,-13.672,-461.426,43.457,20.020,-20.996,0
1556048319.393,105.957,73.730,48.340,39.062,-11.719,0
1556048319.397,93.750,196.289,48.340,38.574,12.207,0
1556048319.401,-30.762,5.371,50.293,27.344,36.621,0
1556048319.403,-46.387,-0.977,49.805,17.090,57.617,0
1556048319.407,74.707,186.035,50.781,24.902,56.152,0
1556048319.411,114.746,209.473,53.711,32.227,16.602,0
1556048319.415,1.465,51.758,55.176,25.879,6.348,0
1556048319.419,-63.965,-8.789,59.082,27.832,63.965,0
1556048319.423,42.480,6.348,57.617,40.527,82.520,0
1556048319.427,122.559,-168.945,56.641,41.016,19.043,0
1556048319.430,38.086,-281.738,53.223,25.879,-3.418,0
1556048319.434,-60.547,-121.094,48.340,22.949,-3.418,0
1556048319.438,8.301,34.668,47.363,25.879,42.480,0
1556048319.442,112.793,66.406,41.504,27.344,21.973,0
1556048319.446,69.336,22.461,42.969,28.320,-0.488,0
1556048319.448,-47.363,-7.324,43.945,20.020,6.348,0
1556048319.452,-24.902,-75.684,39.551,17.090,17.090,0
1556048319.456,94.238,21.973,39.551,21.484,21.484,0
1556048319.460,97.168,214.844,39.551,24.902,32.227,0
1556048319.464,-17.578,102.539,39.551,31.250,19.531,0
1556048319.468,-35.156,-235.352,33.203,37.598,25.879,0
1556048319.472,79.102,-396.973,28.809,33.691,56.641,0
1556048319.475,122.559,-40.039,36.133,30.762,32.227,0
1556048319.479,26.367,160.156,39.551,32.227,22.461,0
1556048319.483,-41.992,-145.508,35.645,33.203,23.926,0
1556048319.487,46.387,-114.258,37.598,36.621,12.695,0
1556048319.491,126.953,222.168,41.016,37.598,22.461,0
1556048319.508,59.082,268.066,39.062,39.551,64.453,0
1556048319.512,-46.875,-121.094,36.621,32.715,26.367,0
1556048319.516,0.977,-221.191,41.504,28.809,30.273,0
1556048319.520,108.398,118.164,46.875,28.320,22.949,0
1556048319.524,75.195,248.535,50.781,28.320,-2.441,0
1556048319.528,-45.410,-261.719,45.898,24.902,19.531,0
1556048319.532,-34.180,-607.422,41.992,16.602,32.715,0
1556048319.535,84.473,-10.742,54.688,24.902,50.781,0
1556048319.539,106.445,253.906,51.758,38.574,12.695,0
1556048319.543,1.465,-28.320,41.016,36.133,-11.230,0
1556048319.547,-47.363,-193.848,40.527,27.832,-24.902,0
1556048319.551,54.688,13.184,40.527,22.461,-23.926,0
1556048319.554,115.723,208.496,40.039,31.250,25.391,0
1556048319.558,12.207,50.781,38.086,32.227,42.480,0
1556048319.562,-74.219,-112.305,38.086,26.855,33.691,0
1556048319.566,15.137,-20.996,41.016,31.738,4.883,0
1556048319.570,109.863,58.594,44.922,37.109,-17.578,0
1556048319.574,44.434,-85.938,46.875,41.016,-7.812,0
1556048319.578,-62.988,-313.965,42.969,34.668,15.137,0
1556048319.581,-11.719,-205.078,43.457,33.691,0.977,0
1556048319.585,108.887,-15.137,42.969,40.039,-19.043,0
1556048319.589,91.797,-255.371,39.551,31.738,-13.672,0
1556048319.593,-31.250,-232.422,42.969,29.297,-1.953,0
1556048319.597,-32.227,-68.359,43.945,32.227,17.090,0
1556048319.599,91.797,31.738,44.434,32.227,45.410,0
1556048319.603,120.117,154.785,46.387,32.227,39.062,0
1556048319.607,6.348,115.234,46.875,27.832,48.340,0
1556048319.611,-45.898,-81.055,40.039,26.855,23.438,0
1556048319.615,66.895,-12.695,39.062,29.785,66.895,0
1556048319.619,130.371,29.297,42.480,32.227,56.152,0
1556048319.623,37.109,-95.703,46.387,28.320,16.113,0
1556048319.626,-53.223,-199.219,47.852,21.973,27.344,0
1556048319.630,28.809,-414.062,43.457,21.484,31.738,0
1556048319.634,127.930,-289.551,42.969,28.809,-1.465,0
1556048319.638,72.266,93.750,43.945,34.180,-42.969,0
1556048319.642,-36.133,-91.797,39.062,32.227,-54.688,0
1556048319.644,-8.789,-242.188,39.062,32.715,-34.668,0
1556048319.648,106.445,77.148,43.457,41.016,18.555,0
1556048319.652,102.051,285.156,43.457,46.387,40.039,0
1556048319.656,-21.484,35.645,41.016,40.039,52.246,0
1556048319.660,-41.992,-215.332,38.086,34.180,32.715,0
1556048319.664,77.148,-145.508,38.574,42.480,-9.277,0
1556048319.668,115.234,-19.531,39.551,43.945,3.906,0
1556048319.671,6.348,-88.867,40.039,35.645,48.340,0
1556048319.675,-56.152,-510.742,42.969,31.250,25.391,0
1556048319.679,46.387,-284.180,53.711,28.809,-25.391,0
1556048319.683,125.000,111.328,53.711,33.691,-46.875,0
1556048319.687,38.086,7.812,50.781,33.691,-6.348,0
1556048319.689,-63.965,-139.160,53.711,20.508,70.312,0
1556048319.693,5.859,-31.250,51.270,21.484,76.660,0
1556048319.697,113.281,209.961,52.246,33.691,22.461,0
1556048319.701,67.383,125.977,52.734,28.320,-9.277,0
1556048319.705,-46.387,-114.258,46.387,19.531,-26.367,0
1556048319.709,-30.273,-265.625,44.922,17.090,-42.969,0
1556048319.713,84.473,-55.664,48.340,20.996,39.551,0
1556048319.716,94.727,-117.676,41.992,17.090,50.293,0
1556048319.720,-23.438,-425.293,42.969,5.859,-38.574,0
1556048319.724,-52.734,-161.133,47.852,2.930,-7.812,0
1556048319.728,66.895,66.895,45.898,3.906,-1.953,0
1556048319.732,110.352,108.398,42.480,13.184,-38.574,0
1556048319.734,1.953,102.051,39.551,12.207,10.742,0
1556048319.738,-70.312,-49.805,39.062,7.812,63.477,0
1556048319.742,24.414,-64.453,37.109,16.113,50.293,0
1556048319.746,110.840,84.473,39.062,20.996,-2.930,0
1556048319.750,42.480,156.738,40.039,20.020,21.973,0
1556048319.754,-61.523,-119.141,41.504,13.672,11.719,0
1556048319.758,-7.324,-295.410,41.504,14.648,28.320,0
1556048319.761,103.027,-311.035,37.598,19.531,12.207,0
1556048319.765,77.148,-76.660,43.457,20.020,-30.273,0
1556048319.769,-43.945,30.273,45.410,20.996,-15.625,0
1556048319.773,-47.363,-165.527,44.434,21.484,5.859,0
1556048319.777,73.730,15.137,46.875,28.320,34.668,0
1556048319.779,97.168,285.645,46.875,36.621,43.457,0
1556048319.783,-17.578,139.160,43.945,31.738,27.344,0
1556048319.787,-62.500,-121.094,39.551,23.438,52.246,0
1556048319.791,51.270,17.090,42.480,26.855,83.008,0
1556048319.795,114.746,188.965,43.945,33.203,43.457,0
1556048319.799,22.461,-15.625,43.945,30.273,20.996,0
1556048319.803,-62.988,-455.566,42.480,19.043,55.176,0
1556048319.806,17.578,-483.887,41.016,17.578,24.902,0
1556048319.810,113.770,95.215,46.875,24.902,-9.277,0
1556048319.814,58.105,249.023,43.457,29.297,48.828,0
1556048319.818,-50.781,-48.340,36.621,23.438,62.500,0
1556048319.822,-9.277,-91.309,34.180,19.043,32.227,0
1556048319.824,104.492,166.016,36.621,22.461,1.465,0
1556048319.828,87.402,160.645,36.621,25.879,-26.855,0
1556048319.832,-33.203,-76.660,34.180,22.461,26.855,0
1556048319.836,-41.016,-61.523,36.621,20.508,95.703,0
1556048319.840,79.590,154.785,41.504,20.996,67.871,0
1556048319.844,112.793,56.641,39.551,25.879,0.488,0
1556048319.848,-0.488,-440.430,31.250,16.602,-13.672,0
1556048319.851,-62.988,-467.773,37.598,8.301,30.273,0
1556048319.855,47.363,-21.973,45.898,15.137,24.414,0
1556048319.859,122.070,112.793,45.410,19.531,-13.184,0
1556048319.863,28.809,74.219,42.480,20.508,47.852,0
1556048319.867,-61.035,-37.109,40.527,9.766,42.480,0
1556048319.884,15.137,-10.742,36.133,13.184,28.809,0
1556048319.888,113.770,81.055,33.691,24.902,-0.977,0
1556048319.892,64.453,59.082,37.109,24.902,-20.996,0
1556048319.896,-50.781,-17.090,38.574,17.578,26.855,0
1556048319.900,-22.461,-46.387,37.598,16.113,51.270,0
1556048319.904,99.609,-27.344,39.551,26.855,41.992,0
1556048319.908,99.121,-80.078,40.039,30.273,6.348,0
1556048319.911,-17.090,-101.562,36.133,27.344,-4.883,0
1556048319.915,-42.480,-164.551,35.645,28.809,-67.383,0
1556048319.919,74.219,-285.156,39.551,33.691,-19.531,0
1556048319.923,121.582,-184.082,46.875,35.645,69.336,0
1556048319.927,10.742,94.727,56.152,38.574,84.473,0
1556048319.929,-52.246,-36.133,46.387,40.527,89.355,0
1556048319.933,46.875,-95.215,38.086,35.645,46.387,0
1556048319.937,118.164,154.785,40.527,21.484,31.250,0
1556048319.941,46.387,189.453,39.551,23.438,28.809,0
1556048319.945,-50.781,-119.141,41.016,25.879,8.789,0
1556048319.949,0.488,-241.211,41.504,17.578,62.012,0
1556048319.953,104.980,-132.812,40.039,20.508,-9.766,0
1556048319.956,65.430,95.703,43.457,16.602,-3.906,0
1556048319.960,-52.246,-94.238,39.062,15.137,43.457,0
1556048319.964,-31.250,-519.531,34.180,19.043,27.832,0
1556048319.968,95.215,-121.094,41.504,22.461,32.227,0
1556048319.972,103.027,274.414,43.457,21.973,29.785,0
1556048319.974,-15.137,-42.480,39.062,20.020,-7.324,0
1556048319.978,-46.387,-340.332,39.062,21.484,-36.133,0
1556048319.982,70.312,-19.043,45.898,22.461,27.832,0
1556048319.986,126.953,269.531,48.828,24.902,34.180,0
1556048319.990,25.879,90.820,46.387,24.902,42.969,0
1556048319.994,-58.594,-291.016,41.016,20.020,14.160,0
1556048319.998,32.227,-333.496,38.086,20.996,-69.336,0
1556048320.001,125.000,66.406,41.016,31.250,-40.527,0
1556048320.005,56.152,-110.352,40.039,30.273,-42.480,0
1556048320.009,-57.617,-364.258,37.598,23.438,-2.441,0
1556048320.013,-14.648,-45.410,41.016,20.020,44.434,0
1556048320.017,100.098,172.363,44.922,27.832,20.508,0
1556048320.019,75.684,-34.180,38.574,29.297,-18.066,0
1556048320.023,-52.246,-196.289,30.762,16.602,-6.348,0
1556048320.027,-50.781,-53.711,23.926,12.207,19.043,0
1556048320.031,74.707,34.668,15.625,16.602,1.953,0
1556048320.035,94.238,141.113,15.625,19.043,63.965,0
1556048320.039,-18.066,-68.848,15.137,18.555,53.711,0
1556048320.043,-55.664,-213.379,17.578,20.020,38.574,0
1556048320.046,59.082,-47.363,21.484,27.344,51.270,0
1556048320.050,122.070,-141.113,20.020,24.902,59.082,0
1556048320.054,27.832,-34.668,23.926,24.414,69.824,0
1556048320.058,-59.082,-1.465,22.461,30.273,21.973,0
1556048320.062,23.438,-90.820,19.043,26.367,6.836,0
1556048320.064,126.465,164.551,22.949,31.250,75.684,0
1556048320.068,72.754,273.926,28.320,30.762,74.219,0
1556048320.072,-39.062,10.742,24.902,29.785,8.789,0
1556048320.076,-3.418,-145.020,26.367,31.738,-6.348,0
1556048320.080,114.258,54.199,37.109,36.621,15.137,0
1556048320.084,95.215,139.648,41.992,40.527,50.293,0
1556048320.088,-26.855,-142.578,45.410,33.691,19.043,0
1556048320.091,-41.016,-492.676,47.363,30.273,21.973,0
1556048320.095,79.102,-367.188,52.246,31.250,21.484,0
1556048320.099,116.211,239.258,62.012,29.297,62.012,0
1556048320.103,3.906,189.941,58.105,24.902,64.941,0
1556048320.107,-57.617,-175.293,51.758,19.531,-6.836,0
1556048320.109,46.387,-52.246,60.059,19.531,42.969,0
1556048320.113,115.234,220.703,66.895,18.066,35.156,0
1556048320.117,29.297,134.766,64.941,15.137,-6.348,0
1556048320.121,-55.176,-119.141,67.871,17.578,43.945,0
1556048320.125,10.254,-73.242,68.359,13.672,7.324,0
1556048320.129,113.281,50.293,65.430,17.090,-29.297,0
1556048320.133,71.289,-37.598,68.848,25.391,0.977,0
1556048320.136,-50.781,-483.887,72.266,22.949,-23.438,0
1556048320.140,-24.902,-327.148,82.031,19.043,-4.395,0
1556048320.144,97.168,83.008,88.867,29.297,-12.695,0
1556048320.148,96.680,37.598,90.820,27.344,1.465,0
1556048320.152,-15.625,-4.883,97.168,24.414,40.039,0
1556048320.154,-41.504,-16.602,106.934,25.391,27.832,0
1556048320.158,71.289,150.391,113.770,27.344,34.180,0
1556048320.162,118.652,196.289,116.211,30.273,7.812,0
1556048320.166,13.184,75.684,117.676,25.391,16.113,0
1556048320.170,-61.035,-52.734,122.070,24.414,6.348,0
1556048320.174,33.691,-42.969,125.000,28.809,27.344,0
1556048320.178,125.000,-141.602,120.605,28.809,37.109,0
1556048320.181,47.852,-212.891,120.605,18.066,53.711,0
1556048320.185,-63.477,-39.551,127.441,15.137,48.828,0
1556048320.189,-2.930,-9.277,125.488,22.461,-7.812,0
1556048320.193,115.723,85.449,125.000,26.855,-12.695,0
1556048320.197,87.402,252.930,125.488,23.438,45.898,0
1556048320.199,-37.109,-2.930,114.258,20.508,-0.488,0
1556048320.203,-28.809,-224.609,110.352,23.926,0.488,0
1556048320.207,97.656,28.809,113.770,31.738,39.551,0
1556048320.211,114.746,235.840,112.793,33.691,18.066,0
1556048320.215,0.977,154.297,110.352,28.809,36.621,2
1556048320.219,-40.527,-214.844,101.562,31.250,17.578,0
1556048320.223,67.871,-436.523,101.074,34.668,9.277,0
1556048320.226,124.023,-42.969,105.957,35.156,25.879,0
1556048320.230,26.855,164.551,102.051,28.320,-11.719,0
1556048320.234,-54.688,-150.879,102.539,25.391,-3.906,0
1556048320.238,33.203,-158.691,104.980,25.879,-13.184,0
1556048320.242,125.488,160.645,102.051,26.367,-34.668,0
1556048320.259,58.594,206.543,100.586,21.973,-15.625,0
1556048320.263,-52.246,-166.992,98.145,19.043,-53.223,0
1556048320.267,-7.812,-153.809,101.562,20.020,14.648,0
1556048320.271,111.816,128.418,106.445,24.414,54.199,0
1556048320.275,90.820,71.289,104.004,27.832,-28.320,0
1556048320.279,-27.832,-218.750,97.168,17.090,-47.363,0
1556048320.283,-28.809,-354.980,96.680,13.184,12.207,0
1556048320.286,90.820,7.812,99.609,22.461,33.691,0
1556048320.290,114.258,311.035,99.609,34.180,27.832,0
1556048320.294,-3.418,-136.230,87.891,29.785,25.391,0
1556048320.298,-52.734,-442.871,80.078,23.438,-7.324,0
1556048320.302,56.641,43.945,87.402,38.574,18.555,0
1556048320.304,121.582,281.250,87.402,39.062,57.617,0
1556048320.308,27.344,104.004,82.031,25.391,43.945,0
1556048320.312,-59.082,-100.098,80.078,29.785,1.465,0
1556048320.316,20.996,2.930,81.543,30.762,3.418,0
1556048320.320,121.094,149.414,83.984,36.133,5.371,0
1556048320.324,67.383,-4.395,81.543,38.086,7.812,0
1556048320.328,-47.852,-256.348,81.543,30.273,17.090,0
1556048320.331,-19.531,-253.906,78.613,30.273,28.320,0
1556048320.335,101.074,-131.348,74.219,33.691,-3.906,0
1556048320.339,96.191,-160.156,73.730,26.855,52.734,0
1556048320.343,-26.367,-83.008,77.637,17.090,80.078,0
1556048320.347,-45.898,-23.438,79.590,18.066,15.137,0
1556048320.349,71.289,62.500,79.102,21.973,40.527,0
1556048320.353,112.305,215.820,83.008,26.367,47.363,0
1556048320.357,9.766,187.500,84.473,24.902,39.062,0
1556048320.361,-53.223,22.461,86.914,17.578,55.664,0
1556048320.365,41.504,6.348,92.773,24.902,52.246,0
1556048320.369,118.164,78.613,97.168,31.250,48.340,0
1556048320.373,41.016,9.277,95.215,20.996,65.918,0
1556048320.376,-55.664,-101.562,89.355,20.508,53.223,0
1556048320.380,14.648,-258.789,86.914,24.414,54.688,0
1556048320.384,122.070,-245.605,87.402,20.020,64.941,0
1556048320.388,75.684,67.871,90.820,24.902,10.742,0
1556048320.392,-46.387,4.395,87.891,20.996,-6.836,0
1556048320.394,-24.414,-138.672,90.332,22.949,0.000,0
1556048320.398,102.051,71.289,96.191,38.574,-33.203,0
1556048320.402,104.004,296.387,95.703,42.480,-6.348,0
1556048320.406,-11.719,83.496,93.262,44.434,18.066,0
1556048320.410,-36.133,-190.430,88.867,39.551,-17.090,0
1556048320.414,74.219,-130.371,82.520,39.062,-15.137,0
1556048320.418,122.559,97.656,83.008,46.387,11.719,0
1556048320.421,17.090,44.922,81.055,42.969,23.926,0
1556048320.425,-60.547,-431.641,76.172,36.621,0.000,0
1556048320.429,40.527,-193.848,83.008,36.621,1.953,0
1556048320.433,126.465,260.742,83.984,47.363,-8.789,0
1556048320.437,47.363,83.984,75.195,45.410,-21.484,0
1556048320.439,-55.664,-281.738,73.730,37.109,-30.762,0
1556048320.443,1.953,-144.043,78.613,35.645,-18.066,0
1556048320.447,112.793,230.957,77.637,38.086,33.691,0
1556048320.451,82.031,200.684,70.312,39.062,29.297,0
1556048320.455,-35.156,-33.203,69.824,30.762,23.438,0
1556048320.459,-32.715,-211.914,66.895,26.855,12.695,0
1556048320.463,88.379,-101.562,61.035,32.227,-39.551,0
1556048320.466,112.793,-102.539,60.547,33.691,-6.348,0
1556048320.470,-4.395,-314.941,62.988,26.855,32.227,0
1556048320.474,-46.387,-151.367,65.918,23.438,-3.906,0
1556048320.478,69.824,-5.371,64.453,32.227,-62.500,0
1556048320.482,126.953,85.938,68.848,38.574,-62.500,0
1556048320.484,29.785,154.297,75.195,35.156,44.922,0
1556048320.488,-59.570,20.020,70.312,32.227,39.062,0
1556048320.492,24.902,-24.902,61.035,27.344,12.207,0
1556048320.496,124.512,43.457,60.059,30.273,27.832,0
1556048320.500,62.012,85.938,62.012,30.762,0.488,0
1556048320.504,-46.387,-119.629,61.035,31.250,13.672,0
1556048320.508,-0.977,-291.992,61.523,35.645,30.762,0
1556048320.511,103.516,-258.789,59.570,28.320,46.875,0
1556048320.515,85.449,11.230,63.477,24.902,53.711,0
1556048320.519,-26.855,145.996,66.406,26.367,49.805,0
1556048320.523,-35.645,-147.461,54.688,20.996,27.832,0
1556048320.527,82.031,-76.660,51.270,25.879,-9.277,0
1556048320.529,110.840,215.332,55.176,25.391,33.691,0
1556048320.533,-6.348,125.000,52.734,21.484,58.105,0
1556048320.537,-65.918,-106.445,49.805,28.809,42.480,0
1556048320.541,43.457,-55.664,48.340,30.273,-0.977,0
1556048320.545,118.164,217.773,47.852,29.785,2.441,0
1556048320.549,32.715,144.043,46.387,27.344,44.922,0
1556048320.553,-62.500,-403.320,41.504,24.414,9.766,0
1556048320.556,8.789,-504.395,39.551,26.367,1.953,0
1556048320.560,116.211,147.461,48.828,31.250,39.551,0
1556048320.564,66.895,284.180,53.711,32.227,39.062,0
1556048320.568,-52.734,-63.477,53.711,23.926,13.184,0
1556048320.572,-21.484,-174.316,51.758,19.043,-50.781,0
1556048320.574,103.027,109.375,57.129,29.785,-56.641,0
1556048320.578,98.633,230.469,56.641,32.227,3.418,0
1556048320.582,-24.902,-34.668,51.270,27.832,14.648,0
1556048320.586,-44.922,-126.953,52.734,27.832,19.531,0
1556048320.590,73.242,96.680,51.270,30.273,23.926,0
1556048320.594,115.723,111.328,44.434,35.645,24.902,0
1556048320.598,11.719,-395.508,36.133,23.438,-34.668,0
1556048320.601,-64.941,-455.078,40.527,15.625,-64.941,0
1556048320.605,32.227,30.762,46.875,18.555,18.066,0
1556048320.609,119.141,135.254,45.898,26.367,62.012,0
1556048320.613,42.969,46.387,42.480,33.203,21.973,0
1556048320.617,-60.547,-8.301,41.016,22.949,25.391,0
1556048320.634,6.836,62.500,46.387,23.926,77.637,0
1556048320.638,114.746,187.988,49.316,26.855,90.332,0
1556048320.642,75.195,209.473,48.828,27.832,94.238,0
1556048320.646,-38.086,16.602,49.316,26.855,13.184,0
1556048320.650,-27.832,-56.152,52.246,20.996,-16.602,0
1556048320.654,92.285,-164.551,49.805,31.738,12.695,0
1556048320.658,106.934,-219.238,48.828,36.133,-3.418,0
1556048320.661,-14.160,-13.184,55.664,30.762,-14.160,0
1556048320.665,-56.152,-77.637,54.688,29.785,-4.883,0
1556048320.669,61.523,-52.734,54.688,30.762,6.348,0
1556048320.673,120.117,185.547,62.500,33.203,33.203,0
1556048320.677,17.090,140.137,60.547,20.020,7.324,0
1556048320.679,-59.082,-253.418,53.711,16.113,-10.742,0
1556048320.683,33.203,-181.152,56.152,23.438,28.809,0
1556048320.687,116.699,195.801,60.059,20.508,36.133,0
1556048320.691,45.410,263.184,61.523,18.066,50.293,0
1556048320.695,-61.035,-26.855,57.617,18.555,53.711,0
1556048320.699,-12.695,-230.957,55.664,23.438,31.250,0
1556048320.703,105.957,-95.215,58.594,30.762,15.137,0
1556048320.706,84.961,114.258,58.594,29.785,-8.789,0
1556048320.710,-38.574,-33.691,56.152,28.320,30.762,0
1556048320.714,-41.504,-463.867,55.664,23.926,52.734,0
1556048320.718,78.613,-109.375,63.965,29.297,39.551,0
1556048320.722,107.910,290.527,66.895,41.016,6.348,0
1556048320.724,0.977,28.320,63.477,34.668,8.301,0
1556048320.728,-48.828,-153.809,63.477,29.785,16.113,0
1556048320.732,60.547,-3.906,59.082,30.762,-4.883,0
1556048320.736,123.535,131.348,57.129,31.250,5.859,0
1556048320.740,31.250,89.355,62.988,29.785,49.805,0
1556048320.744,-54.199,-206.543,62.988,26.367,41.016,0
1556048320.748,24.414,-246.582,64.941,33.203,-1.465,0
1556048320.751,124.023,29.297,65.918,38.574,19.531,0
1556048320.755,70.801,-172.363,56.641,29.297,9.277,0
1556048320.759,-49.805,-471.191,52.734,17.090,-35.156,0
1556048320.763,-22.461,-75.195,59.082,10.254,14.160,0
1556048320.767,96.680,235.840,57.129,17.578,46.875,0
1556048320.768,80.078,200.684,55.176,20.996,25.879,0
1556048320.772,-43.945,23.438,54.199,15.137,-8.301,0
1556048320.776,-57.617,-30.762,53.711,13.672,-2.930,0
1556048320.780,61.035,104.980,54.199,20.996,40.527,0
1556048320.784,104.492,187.988,52.734,31.250,45.410,0
1556048320.788,-4.395,-62.988,53.223,25.391,-5.859,0
1556048320.792,-66.895,-377.441,51.270,20.996,-60.547,0
1556048320.795,40.527,-216.309,54.688,27.344,15.137,0
1556048320.799,120.605,-124.512,58.105,20.996,83.496,0
1556048320.803,34.180,9.277,62.988,18.066,65.430,0
1556048320.807,-62.988,60.059,67.871,19.043,45.898,0
1556048320.811,7.812,-59.570,63.965,20.020,21.484,0
1556048320.813,111.328,134.766,61.035,27.832,26.855,0
1556048320.817,66.895,280.273,63.477,29.785,25.391,0
1556048320.821,-45.898,83.008,61.523,26.367,28.809,0
1556048320.825,-20.508,-125.488,59.570,21.484,3.906,0
1556048320.829,100.586,109.375,60.547,27.344,54.688,0
1556048320.833,102.051,152.832,54.688,33.203,39.062,0
1556048320.837,-23.926,-80.566,51.758,26.367,21.484,0
1556048320.840,-46.875,-296.875,47.363,20.020,96.680,0
1556048320.844,78.125,-362.305,41.016,19.531,62.500,0
1556048320.848,127.441,68.359,45.898,30.273,26.855,0
1556048320.852,13.672,162.598,47.852,29.297,29.297,0
1556048320.856,-64.941,-97.168,45.898,23.438,29.297,0
1556048320.858,38.574,7.324,51.270,29.785,28.809,0
1556048320.862,123.535,252.441,59.082,36.621,-21.484,0
1556048320.866,46.387,144.043,57.617,34.668,-37.598,0
1556048320.870,-58.594,-165.039,52.734,28.320,-34.668,0
1556048320.874,-4.395,-62.988,57.617,26.855,16.113,0
1556048320.878,110.352,135.742,58.594,33.691,59.570,0
1556048320.882,78.125,-0.488,54.199,29.297,12.207,0
1556048320.885,-49.805,-435.547,53.223,17.090,-8.301,0
1556048320.889,-38.574,-337.402,61.523,14.648,11.230,0
1556048320.893,89.844,213.379,66.406,27.344,55.176,0
1556048320.897,104.004,266.602,61.035,26.855,62.500,0
1556048320.901,-13.672,-68.359,59.570,18.066,-4.395,0
1556048320.903,-49.805,-172.852,63.477,25.879,-28.809,0
1556048320.907,66.895,80.566,64.453,29.785,-7.324,0
1556048320.911,126.465,162.598,62.012,27.344,-10.254,0
1556048320.915,24.414,55.664,63.965,25.879,-2.441,0
1556048320.919,-64.941,-60.547,62.500,23.438,20.996,0
1556048320.923,16.113,-52.246,54.199,26.367,38.574,0
1556048320.927,112.305,-105.469,50.293,26.367,52.734,0
1556048320.930,54.688,-243.164,52.734,19.043,14.160,0
1556048320.934,-57.617,-126.953,58.594,11.230,-22.461,0
1556048320.938,-17.090,-46.875,62.012,17.578,-10.254,0
1556048320.942,100.098,136.230,66.406,31.250,54.688,0
1556048320.946,77.637,250.488,62.988,22.461,46.875,0
1556048320.948,-47.363,30.762,53.711,14.160,-3.418,0
1556048320.952,-42.480,-153.320,55.664,18.066,-16.602,0
1556048320.956,83.496,-55.664,61.035,28.320,30.273,0
1556048320.960,108.398,72.266,61.523,31.250,15.625,0
1556048320.964,-6.348,98.145,59.570,27.344,7.324,0
1556048320.968,-63.477,-161.133,51.270,25.391,58.105,0
1556048320.972,56.641,-381.348,49.316,23.438,64.941,0
1556048320.975,136.230,-41.016,60.059,27.344,31.250,0
1556048320.979,43.457,188.965,62.012,27.832,-11.230,0
1556048320.983,-41.992,-130.371,57.129,20.020,-15.625,0
1556048320.987,42.480,-126.465,61.523,20.508,8.789,0
1556048320.991,144.043,198.242,66.406,28.809,-2.441,0
1556048321.008,80.566,247.070,63.965,27.832,4.395,0
1556048321.012,-39.551,-31.250,62.988,26.855,47.852,0
1556048321.016,-7.324,-142.090,63.965,32.715,28.809,0
1556048321.020,107.910,151.367,69.336,43.457,7.324,0
1556048321.024,97.656,287.109,74.219,41.992,36.621,0
1556048321.028,-28.320,-118.652,68.848,34.180,3.418,0
1556048321.032,-46.875,-380.859,67.871,34.180,0.488,0
1556048321.035,74.707,-136.719,74.707,34.668,24.414,0
1556048321.039,107.910,202.637,77.148,36.621,15.625,0
1556048321.043,2.441,-88.379,75.195,24.902,42.969,0
1556048321.047,-59.570,-421.875,78.125,15.625,13.184,0
1556048321.051,37.109,-14.648,86.426,23.438,-27.344,0
1556048321.053,114.258,219.238,85.938,28.809,-10.742,0
1556048321.057,34.180,91.797,77.637,24.414,2.441,0
1556048321.061,-63.965,-84.473,76.660,18.066,4.395,0
1556048321.065,3.418,17.578,81.055,21.973,30.273,0
1556048321.069,110.840,174.316,80.078,28.320,18.555,0
1556048321.073,70.312,42.969,76.660,28.809,32.227,0
1556048321.077,-52.246,-207.031,78.125,20.020,41.016,0
1556048321.080,-33.691,-114.746,84.961,14.648,23.926,0
1556048321.084,91.797,39.062,80.078,19.043,36.133,0
1556048321.088,92.773,-150.391,74.707,23.438,58.594,0
1556048321.092,-25.879,-151.855,80.566,15.137,9.766,0
1556048321.096,-54.688,-78.125,80.566,13.672,-41.504,0
1556048321.098,64.453,17.578,81.543,22.461,21.973,0
1556048321.102,117.188,219.727,84.961,31.250,67.383,0
1556048321.106,19.531,179.199,85.938,33.691,17.090,0
1556048321.110,-54.199,-26.855,83.008,29.297,1.465,0
1556048321.114,28.320,-24.902,82.520,34.180,38.086,0
1556048321.118,116.699,41.992,80.078,37.598,24.414,0
1556048321.122,54.688,-2.930,78.125,34.668,43.457,0
1556048321.125,-54.688,-63.965,79.102,27.344,65.430,0
1556048321.129,-0.977,-256.836,67.871,27.344,56.641,0
1556048321.133,117.676,-228.027,64.941,36.133,27.344,0
1556048321.137,87.402,193.848,73.242,31.738,-16.113,0
1556048321.141,-33.203,4.883,67.383,25.879,5.859,0
1556048321.143,-29.297,-245.117,60.547,25.391,9.277,0
1556048321.147,85.938,82.031,65.918,27.832,6.836,0
1556048321.151,100.098,370.605,69.824,31.250,47.363,0
1556048321.155,-10.742,108.398,64.941,30.762,10.254,0
1556048321.159,-53.223,-180.176,59.570,27.344,-11.230,0
1556048321.163,57.617,-120.605,56.641,28.809,-1.465,0
1556048321.167,113.770,87.891,59.570,31.250,3.418,0
1556048321.170,14.160,81.055,58.105,24.902,25.391,0
1556048321.174,-70.801,-463.379,56.152,21.973,-11.230,0
1556048321.178,16.602,-279.297,68.359,23.438,-16.113,0
1556048321.182,119.629,284.668,69.336,25.391,6.836,0
1556048321.186,62.500,187.988,62.988,31.250,14.160,0
1556048321.188,-46.387,-43.945,62.012,34.180,31.738,0
1556048321.192,-2.930,8.789,62.988,28.809,25.391,0
1556048321.196,108.887,153.809,64.941,31.738,19.531,0
1556048321.200,89.844,127.930,65.918,32.227,-12.207,0
1556048321.204,-30.762,-72.266,62.500,20.996,-64.941,0
1556048321.208,-51.270,-269.531,61.035,18.555,-45.410,0
1556048321.212,66.895,-56.152,63.965,19.043,-17.090,0
1556048321.215,109.375,14.160,62.500,20.996,32.227,0
1556048321.219,-5.371,-238.770,59.082,16.602,68.359,0
1556048321.223,-70.801,-66.406,62.500,11.719,50.781,0
1556048321.227,38.574,97.168,56.641,12.695,13.672,0
1556048321.231,109.375,180.664,52.734,10.742,13.672,0
1556048321.233,25.391,169.434,53.711,15.137,30.762,0
1556048321.237,-56.152,39.062,51.758,17.090,30.273,0
1556048321.241,18.555,-30.273,50.293,15.625,-0.488,0
1556048321.245,112.793,109.375,48.828,19.043,21.484,0
1556048321.249,66.895,266.602,50.293,18.066,85.449,2
1556048321.253,-39.551,-36.621,48.828,19.043,45.898,0
1556048321.257,-8.789,-307.129,43.457,26.367,18.555,0
1556048321.260,116.699,-324.707,42.480,26.367,7.812,0
1556048321.264,116.699,-43.457,48.340,28.809,-7.812,0
1556048321.268,-2.441,171.875,49.805,33.203,68.848,0
1556048321.272,-25.879,-85.449,44.922,31.738,51.758,0
1556048321.276,93.750,-61.035,41.504,43.945,-41.992,0
1556048321.278,141.602,305.664,41.992,49.316,41.504,0
1556048321.282,29.785,268.066,38.574,44.434,91.797,0
1556048321.286,-45.410,-139.160,33.203,39.062,1.465,0
1556048321.290,55.176,-85.938,35.645,38.086,-2.930,0
1556048321.294,135.254,260.254,36.133,44.922,43.945,0
1556048321.298,51.270,141.113,31.250,43.457,28.320,0
1556048321.302,-55.176,-430.176,25.391,33.203,-22.461,0
1556048321.305,1.953,-496.582,31.738,29.297,20.996,0
1556048321.309,114.746,58.105,41.504,30.762,50.293,0
1556048321.313,75.195,191.406,39.551,28.320,-4.883,0
1556048321.317,-53.223,-65.430,35.645,17.578,-27.832,0
1556048321.321,-42.969,-128.418,33.203,20.020,-19.531,0
1556048321.323,81.055,197.266,36.133,27.344,31.738,0
1556048321.327,95.215,321.777,35.645,23.438,68.359,0
1556048321.331,-22.461,28.320,30.762,24.902,30.273,0
1556048321.335,-54.688,-107.910,32.227,18.555,4.395,0
1556048321.339,61.523,79.590,35.645,24.902,-13.672,0
1556048321.343,115.723,76.172,31.250,31.738,-27.832,0
1556048321.347,14.160,-326.172,27.832,21.973,1.953,0
1556048321.350,-64.453,-354.980,32.715,19.043,13.672,0
1556048321.354,29.297,27.344,36.621,27.832,-5.859,0
1556048321.358,111.328,158.691,35.156,30.273,2.441,0
1556048321.362,36.133,109.863,33.203,25.391,34.668,0
1556048321.366,-71.289,-119.629,31.738,28.320,-22.949,0
1556048321.383,-15.625,-139.160,34.180,34.180,-3.906,0
1556048321.387,104.492,105.957,31.250,37.598,68.359,0
1556048321.391,81.055,222.168,30.273,36.621,78.125,0
1556048321.395,-34.668,125.977,30.762,35.156,98.633,0
1556048321.399,-34.668,13.672,27.832,34.180,45.898,0
1556048321.403,87.891,-139.648,26.855,39.062,17.090,0
1556048321.407,104.980,-144.531,31.738,37.598,26.855,0
1556048321.410,-10.742,27.832,37.109,30.762,-12.207,0
1556048321.414,-59.082,-61.035,33.691,23.438,2.441,0
1556048321.418,49.805,-28.320,34.668,24.902,30.762,0
1556048321.422,117.676,158.691,39.062,27.832,7.812,0
1556048321.426,23.926,202.637,43.457,28.809,24.902,0
1556048321.428,-63.965,11.230,44.434,23.926,61.523,0
1556048321.432,21.484,-171.875,41.992,24.414,9.277,0
1556048321.436,124.512,-26.367,41.992,33.203,-6.348,0
1556048321.440,63.965,199.219,44.922,34.180,29.297,0
1556048321.444,-48.340,-46.387,41.016,28.320,5.859,0
1556048321.448,-9.766,-306.152,36.133,27.832,-35.156,0
1556048321.452,107.422,-171.875,36.133,38.086,-29.785,0
1556048321.455,94.238,148.926,39.551,34.668,35.156,0
1556048321.459,-25.879,8.789,36.621,29.297,45.410,0
1556048321.463,-38.574,-502.930,30.273,26.367,7.324,0
1556048321.467,80.078,-103.516,33.691,23.926,79.590,0
1556048321.471,109.863,333.496,31.738,30.273,66.406,0
1556048321.474,-1.465,28.809,27.344,28.320,-4.395,0
1556048321.478,-62.988,-198.242,29.297,21.484,-8.789,0
1556048321.482,42.969,-21.973,28.320,27.344,-33.691,0
1556048321.486,122.070,222.168,29.297,34.668,-17.090,0
1556048321.490,33.203,103.516,28.320,31.250,31.738,0
1556048321.494,-70.312,-270.508,22.949,25.391,12.695,0
1556048321.498,0.977,-282.227,23.438,24.414,15.137,0
1556048321.501,109.863,115.234,28.320,31.738,55.176,0
1556048321.505,66.406,-24.902,21.973,34.668,43.945,0
1556048321.509,-42.969,-401.855,16.113,26.855,45.410,0
1556048321.513,-19.531,-115.234,25.879,29.785,23.438,0
1556048321.517,101.074,165.039,29.297,35.645,10.254,0
1556048321.519,97.656,201.172,26.367,37.598,59.570,0
1556048321.523,-22.949,76.660,22.461,33.691,70.312,0
1556048321.527,-46.875,-11.230,22.949,24.902,41.016,0
1556048321.531,69.824,66.895,23.926,31.250,30.762,0
1556048321.535,124.023,175.781,20.508,41.016,42.969,0
1556048321.539,22.949,-26.855,18.066,41.504,32.227,0
1556048321.543,-45.410,-195.312,20.996,34.668,41.504,0
1556048321.546,52.246,-95.215,22.461,31.250,25.391,0
1556048321.550,132.324,-203.125,25.391,32.227,16.602,0
1556048321.554,54.688,-48.828,36.133,28.809,42.480,0
1556048321.558,-46.875,25.879,33.203,26.367,14.648,0
1556048321.562,15.625,-94.727,29.785,29.785,21.484,0
1556048321.564,125.488,105.469,33.203,37.109,44.922,0
1556048321.568,85.449,248.047,33.691,40.527,7.324,0
1556048321.572,-32.715,58.105,31.738,42.480,4.395,0
1556048321.576,-20.020,-141.602,32.227,45.898,9.766,0
1556048321.580,104.492,-20.996,33.203,47.852,-31.738,0
1556048321.584,114.746,45.410,30.762,48.828,-37.109,0
1556048321.588,-13.184,-130.859,32.227,47.363,-9.766,0
1556048321.591,-53.711,-443.359,32.227,33.691,17.578,0
1556048321.595,63.965,-401.367,37.598,28.809,14.160,0
1556048321.599,121.582,170.410,44.922,36.133,-5.371,0
1556048321.603,18.555,120.605,36.621,32.227,5.859,0
1556048321.607,-65.430,-229.980,32.715,26.855,-13.184,0
1556048321.608,20.996,-36.133,41.992,30.273,7.812,0
1556048321.612,115.723,251.953,43.457,28.320,-3.418,0
1556048321.616,50.781,201.172,37.598,23.926,14.160,0
1556048321.620,-61.035,-99.121,36.621,20.508,24.902,0
1556048321.624,-9.277,-127.441,37.598,21.973,-27.832,0
1556048321.628,105.957,45.410,38.086,29.297,4.883,0
1556048321.632,79.590,-9.766,34.668,25.391,-2.441,0
1556048321.635,-38.086,-383.301,31.250,17.578,25.879,0
1556048321.639,-36.621,-296.387,37.109,16.113,83.984,0
1556048321.643,87.891,201.172,39.062,21.484,51.758,0
1556048321.647,117.676,187.500,37.109,22.949,13.672,0
1556048321.651,1.953,-46.387,37.109,20.020,9.277,0
1556048321.668,-55.176,-52.734,40.039,22.949,10.254,0
1556048321.672,54.199,45.410,43.457,28.320,25.879,0
1556048321.676,115.723,146.973,41.992,24.414,61.035,0
1556048321.680,23.926,144.043,42.480,23.438,57.129,0
1556048321.684,-60.547,-55.176,39.062,20.996,-7.324,0
1556048321.688,17.090,-100.098,38.086,21.973,-6.836,0
1556048321.692,120.605,-138.184,36.621,29.785,29.297,0
1556048321.695,69.336,-291.992,36.621,31.250,-41.016,0
1556048321.699,-44.922,-115.234,42.969,26.855,-34.668,0
1556048321.703,-11.230,8.301,42.480,26.855,27.344,0
1556048321.707,106.445,103.516,46.875,27.832,18.066,0
1556048321.711,90.332,213.379,51.270,27.344,6.836,0
1556048321.698,-29.785,138.672,49.805,33.203,27.832,0
1556048321.702,-40.039,-21.973,51.758,37.598,47.852,0
1556048321.706,72.754,45.898,53.711,32.227,53.711,0
1556048321.710,102.539,275.391,53.711,23.438,53.223,0
1556048321.714,-9.766,129.883,51.270,18.066,22.949,0
1556048321.718,-74.219,-284.180,43.457,21.484,28.320,0
1556048321.722,28.320,-226.562,40.039,20.020,27.344,0
1556048321.725,106.934,167.480,44.434,20.508,7.812,0
1556048321.729,31.250,239.258,46.387,23.926,18.555,0
1556048321.733,-61.523,-169.434,39.062,19.531,-37.598,0
1556048321.737,-1.953,-456.543,37.598,18.066,5.371,0
1556048321.741,111.816,-8.789,43.457,25.391,46.387,0
1556048321.758,78.125,262.695,46.387,30.273,-13.672,0
1556048321.762,-44.434,-29.785,46.387,24.414,68.848,0
1556048321.766,-27.832,-125.488,45.410,16.602,115.234,0
1556048321.770,94.727,189.941,44.922,19.043,67.871,0
1556048321.774,108.887,395.020,41.016,26.855,86.426,0
1556048321.778,-7.812,-98.145,33.203,25.879,79.590,0
1556048321.782,-42.969,-454.102,35.645,19.043,37.109,0
1556048321.785,69.824,-93.262,43.457,18.555,3.906,0
1556048321.789,117.676,135.254,45.410,31.250,-28.809,0
1556048321.793,9.766,67.871,44.434,22.949,10.742,0
1556048321.797,-69.336,-135.254,39.062,10.742,7.324,0
1556048321.801,32.227,36.133,40.527,19.531,-4.395,0
1556048321.803,120.117,169.922,40.527,22.949,12.695,0
1556048321.807,44.922,26.855,39.062,21.973,-12.207,0
1556048321.811,-62.012,-68.359,40.039,17.578,4.395,0
1556048321.815,-1.465,-12.207,39.062,24.414,6.348,0
1556048321.819,116.211,161.133,40.039,38.574,23.438,0
1556048321.823,84.473,112.305,41.016,39.062,62.500,0
1556048321.827,-34.180,-169.434,35.645,34.180,56.641,0
1556048321.830,-23.926,-161.621,28.320,29.297,19.531,0
1556048321.834,98.145,55.176,20.996,37.109,19.531,0
1556048321.838,115.234,-171.387,15.137,37.598,0.488,0
1556048321.842,0.488,-259.766,24.414,29.297,-7.812,0
1556048321.846,-46.875,-118.164,27.832,30.762,-16.113,0
1556048321.849,59.082,-87.891,25.879,32.227,-38.574,0
1556048321.853,118.164,63.477,29.297,39.062,-17.578,0
1556048321.857,28.809,204.590,33.691,35.156,49.316,0
1556048321.861,-52.246,51.758,36.621,29.297,75.684,0
1556048321.865,27.344,-13.184,37.598,36.133,59.570,0
1556048321.869,122.070,32.715,41.504,41.016,20.996,0
1556048321.873,62.500,-34.668,42.969,35.645,-4.883,0
1556048321.876,-46.387,-114.746,41.504,28.809,12.695,0
1556048321.880,-4.395,-377.930,36.621,23.926,-42.480,0
1556048321.884,108.398,-303.711,35.156,25.879,-26.855,0
1556048321.888,89.355,188.965,36.621,29.297,0.488,0
1556048321.892,-28.809,37.598,33.691,26.855,-48.828,0
1556048321.909,-36.133,-165.527,29.785,21.484,-7.812,0
1556048321.913,83.008,8.789,31.250,22.949,40.527,0
1556048321.917,115.723,253.906,33.203,32.227,30.762,0
1556048321.921,10.742,120.605,24.414,26.367,11.230,0
1556048321.925,-44.922,-175.781,20.508,20.508,-3.418,0
1556048321.929,61.035,-107.422,24.414,31.250,50.293,0
1556048321.933,128.418,111.816,27.832,34.180,63.965,0
1556048321.936,36.133,65.918,24.902,25.391,14.648,0
1556048321.940,-63.477,-451.172,18.555,17.578,-7.324,0
1556048321.944,11.719,-257.324,24.902,14.648,46.875,0
1556048321.948,119.141,332.031,22.461,13.672,85.938,0
1556048321.952,68.359,207.031,18.066,12.695,64.941,0
1556048321.939,-45.898,-91.309,18.066,17.090,42.480,0
1556048321.943,-20.996,-39.062,21.973,18.066,18.555,0
1556048321.947,103.516,152.344,28.320,23.438,-23.926,0
1556048321.951,96.191,186.523,26.855,20.020,15.625,0
1556048321.955,-33.203,-45.898,22.949,18.066,68.359,0
1556048321.959,-47.363,-235.352,24.414,24.902,22.949,0
1556048321.963,70.801,-132.324,29.297,30.273,23.926,0
1556048321.966,114.746,-2.441,35.156,31.738,13.672,0
1556048321.970,14.648,10.254,39.062,25.391,2.441,0
1556048321.974,-59.570,-82.520,42.969,26.367,-11.719,0
1556048321.978,33.691,106.445,51.270,33.203,28.320,0
1556048321.982,123.535,14.160,45.410,34.668,62.012,0
1556048321.984,47.852,-227.539,42.969,28.809,4.395,0
1556048321.988,-56.152,-62.500,41.504,20.996,1.953,0
1556048321.992,6.836,-67.871,35.645,24.902,-13.184,0
1556048321.996,116.211,65.430,41.504,33.691,-10.254,0
1556048322.000,78.125,245.117,45.898,29.297,45.898,0
1556048322.004,-35.645,-23.926,44.434,23.438,47.852,0
1556048322.008,-18.066,-269.531,45.410,18.066,49.805,0
1556048322.011,102.539,-303.223,52.734,16.113,40.527,0
1556048322.015,118.164,1.465,65.918,21.484,38.574,0
1556048322.019,3.418,200.684,73.730,27.832,62.500,0
1556048322.023,-41.016,-82.031,69.824,20.508,43.945,0
1556048322.027,68.359,-13.672,69.336,19.531,35.156,0
1556048322.029,125.488,277.832,70.312,29.297,25.391,0
1556048322.033,15.625,200.195,65.918,28.809,5.371,0
1556048322.037,-68.848,-165.039,54.688,23.438,-35.156,0
1556048322.041,28.809,-90.820,54.688,28.809,15.137,0
1556048322.045,122.559,260.254,58.594,27.832,65.430,0
1556048322.049,57.129,129.395,51.270,26.367,-3.906,0
1556048322.053,-52.734,-437.012,45.410,29.297,-45.410,0
1556048322.056,-4.883,-520.508,48.828,24.902,19.531,0
1556048322.060,109.375,169.434,57.617,31.738,105.469,0
1556048322.064,85.449,337.891,53.223,37.598,79.102,0
1556048322.068,-34.180,-53.711,45.898,25.391,-5.371,0
1556048322.072,-38.086,-119.141,50.781,20.508,15.625,0
1556048322.073,85.938,208.496,53.711,23.926,70.801,0
1556048322.077,114.746,288.574,52.734,31.250,39.062,0
1556048322.081,-7.324,1.953,55.176,29.297,8.789,0
1556048322.085,-53.711,-124.512,59.570,26.855,18.066,0
1556048322.089,64.453,95.215,62.988,40.039,46.387,0
1556048322.093,112.305,136.230,58.105,35.645,39.551,0
1556048322.097,10.742,-297.852,48.340,19.043,19.531,0
1556048322.100,-67.383,-379.883,51.758,12.695,19.043,0
1556048322.104,13.184,-47.852,54.688,20.508,-41.016,0
1556048322.108,108.887,131.836,52.734,29.785,1.953,0
1556048322.112,50.781,110.352,51.270,25.879,29.785,0
1556048322.116,-64.941,-16.602,55.664,17.090,-21.484,0
1556048322.133,-28.809,-85.938,56.641,13.184,16.113,0
1556048322.137,97.168,-35.156,51.270,24.414,40.039,0
1556048322.141,85.449,110.840,52.734,28.809,10.742,0
1556048322.145,-41.992,31.250,52.246,17.090,-21.973,0
1556048322.149,-50.781,-64.941,50.293,20.508,-1.953,0
1556048322.153,70.801,-132.324,47.363,23.926,15.137,0
1556048322.157,106.934,-53.711,48.340,28.809,71.777,0
1556048322.160,-3.906,59.082,51.270,33.691,43.945,0
1556048322.164,-62.988,-0.488,50.293,26.855,19.043,0
1556048322.168,43.945,-128.906,43.457,23.926,47.852,0
1556048322.172,119.629,-34.668,43.457,29.297,2.441,0
1556048322.176,36.133,188.477,45.410,30.762,-5.859,0
1556048322.178,-54.199,1.465,38.574,30.273,25.879,0
1556048322.182,14.160,-111.328,30.762,31.738,3.906,0
1556048322.186,119.141,159.180,29.785,38.086,-1.465,0
1556048322.190,76.660,217.285,26.367,39.551,18.555,0
1556048322.194,-39.551,-109.863,21.973,34.668,35.645,0
1556048322.198,-12.207,-249.023,22.949,38.086,21.973,0
1556048322.202,108.887,-88.379,20.020,43.457,7.324,0
1556048322.205,107.910,134.766,20.508,38.086,13.184,0
1556048322.209,-10.742,18.066,18.066,30.762,29.785,0
1556048322.213,-40.039,-425.781,12.695,23.438,44.922,0
1556048322.217,74.219,-146.973,19.043,23.438,22.461,0
1556048322.221,123.535,322.266,19.043,34.180,7.324,0
1556048322.223,22.461,138.672,16.113,39.062,48.828,0
1556048322.227,-49.316,-126.953,17.578,33.203,30.273,0
1556048322.231,47.852,44.434,22.949,36.133,17.090,0
1556048322.235,139.160,277.832,28.320,45.898,3.906,0
1556048322.239,64.453,114.746,28.809,46.387,-29.785,0
1556048322.243,-37.598,-231.934,27.832,41.992,-5.371,0
1556048322.247,19.043,-277.832,31.250,51.270,-11.230,0
1556048322.250,130.371,-28.809,37.109,58.105,-8.301,0
1556048322.254,100.586,-158.203,34.180,47.852,-12.207,0
1556048322.258,-22.949,-425.781,33.203,41.504,-27.832,0
1556048322.262,-19.043,-184.082,36.133,36.133,-63.477,0
1556048322.266,100.586,152.832,36.621,37.598,-4.883,0
1556048322.268,114.258,207.520,30.273,40.039,6.836,0
1556048322.272,-4.395,85.449,22.949,32.715,3.418,0
1556048322.276,-48.828,11.230,14.160,24.902,28.320,0
1556048322.280,60.059,56.641,8.789,22.461,2.441,0
1556048322.284,121.094,153.320,11.230,27.344,1.465,0
1556048322.288,20.508,-18.555,7.324,17.090,7.324,0
1556048322.292,-66.895,-181.641,6.348,12.695,24.902,0
1556048322.295,22.461,-34.180,8.301,14.160,50.293,0
1556048322.299,108.887,-119.629,4.395,8.789,35.645,0
1556048322.303,49.316,-145.508,10.254,6.836,-12.695,0
1556048322.307,-50.781,-136.230,16.113,11.230,-28.320,0
1556048322.311,-16.602,-112.793,20.020,11.719,24.902,0
1556048322.313,93.750,110.840,20.508,9.277,22.949,0
1556048322.317,83.984,247.559,19.531,7.812,-28.809,0
1556048322.321,-32.227,64.453,23.438,10.742,-37.109,0
1556048322.325,-47.852,-128.906,27.344,10.742,-8.789,0
1556048322.329,72.754,75.684,29.297,18.066,41.016,0
1556048322.333,108.887,155.273,27.344,25.879,14.648,0
1556048322.337,-10.742,-9.766,27.832,17.090,24.414,0
1556048322.340,-65.430,-365.234,23.438,14.160,10.254,0
1556048322.344,38.574,-357.422,25.391,10.254,-7.812,0
1556048322.348,103.516,221.680,36.133,14.160,16.113,0
1556048322.352,16.113,247.070,32.715,20.020,6.836,0
1556048322.356,-71.777,-123.047,30.762,18.555,34.668,0
1556048322.358,5.859,-202.637,35.156,21.484,16.113,0
1556048322.362,102.539,156.738,38.574,33.203,-6.348,0
1556048322.366,52.246,252.930,38.086,41.992,14.648,0
1556048322.370,-48.828,-66.406,32.715,36.133,-2.441,1
1556048322.374,-14.160,-50.293,37.109,30.762,28.320,0
1556048322.378,100.098,84.473,39.551,37.598,20.508,0
1556048322.382,96.680,27.832,36.133,42.969,-5.859,0
1556048322.385,-26.855,-364.746,32.715,33.203,2.441,0
1556048322.389,-48.828,-346.680,36.133,25.391,7.812,0
1556048322.393,68.848,178.711,37.598,29.785,34.180,0
1556048322.397,108.887,209.961,29.297,38.574,-3.418,0
1556048322.401,6.836,-21.973,23.438,40.039,-64.941,0
1556048322.403,-52.734,-40.039,20.996,26.855,0.977,0
1556048322.407,50.293,141.113,19.531,24.902,58.105,0
1556048322.411,133.301,217.285,20.020,37.598,28.809,0
1556048322.415,47.852,29.297,18.066,36.133,-18.555,0
1556048322.419,-62.988,-130.859,17.090,30.762,-28.809,0
1556048322.423,5.859,-87.402,20.020,30.273,6.836,0
1556048322.427,111.816,-137.207,13.672,30.762,18.066,0
1556048322.430,65.430,-214.844,13.672,24.414,9.766,0
1556048322.434,-47.852,-21.484,20.996,20.508,43.945,0
1556048322.438,-26.855,48.340,16.602,24.414,59.570,0
1556048322.442,91.797,145.508,16.113,30.273,51.270,0
1556048322.446,95.703,275.391,20.020,36.133,48.340,0
1556048322.448,-22.461,160.645,18.066,25.391,29.785,0
1556048322.452,-60.059,-62.500,14.160,14.648,6.348,0
1556048322.456,62.500,-15.625,10.742,24.902,6.836,0
1556048322.460,121.094,183.105,14.160,32.227,-20.508,0
1556048322.464,13.672,211.914,20.020,25.391,44.434,0
1556048322.468,-60.547,-136.230,16.602,15.625,57.129,0
1556048322.472,35.156,-476.074,13.184,18.555,13.672,0
1556048322.475,126.953,-111.328,19.043,20.508,20.508,0
1556048322.479,51.270,254.883,20.020,19.043,31.250,0
1556048322.483,-53.711,-76.172,13.672,23.438,11.719,0
1556048322.487,9.277,-164.551,16.602,22.461,10.254,0
1556048322.491,116.211,177.734,22.461,23.438,17.578,0
1556048322.508,84.961,306.152,20.996,33.691,34.668,0
1556048322.512,-37.598,23.926,20.020,31.250,65.430,0
1556048322.516,-38.086,-123.535,23.438,26.855,66.406,0
1556048322.520,91.797,112.793,25.391,27.344,26.855,0
1556048322.524,110.352,312.988,29.297,30.273,37.598,0
1556048322.528,-14.160,-119.141,25.879,22.461,58.105,0
1556048322.532,-56.152,-510.254,26.855,22.461,13.184,0
1556048322.535,60.547,-46.875,40.039,34.180,-7.324,0
1556048322.539,125.977,250.977,38.086,31.250,10.254,0
1556048322.543,30.273,10.254,35.156,34.668,-17.090,0
1556048322.547,-59.570,-227.051,34.180,31.738,-53.223,0
1556048322.551,21.484,-1.953,33.691,31.250,12.207,0
1556048322.554,125.488,218.262,27.832,43.457,31.250,0
1556048322.558,68.848,115.723,26.367,40.039,26.367,0
1556048322.562,-39.062,-41.504,31.738,33.203,62.500,0
1556048322.566,2.441,-47.363,22.949,35.156,13.672,0
1556048322.570,115.234,84.473,18.555,45.898,-10.254,0
1556048322.574,96.191,83.496,19.531,42.969,55.176,0
1556048322.578,-36.621,-153.809,14.648,27.344,76.172,0
1556048322.581,-41.016,-213.379,16.113,26.855,41.992,0
1556048322.585,88.379,-26.367,22.949,35.156,10.742,0
1556048322.589,116.211,-180.664,16.602,30.273,1.953,0
1556048322.593,8.301,-174.316,11.230,26.367,2.441,0
1556048322.597,-50.293,-80.566,10.742,28.809,-11.230,0
1556048322.599,51.758,-125.000,7.812,31.738,-3.906,0
1556048322.603,132.324,135.742,10.254,34.668,58.105,0
1556048322.607,40.039,231.934,15.137,32.227,60.547,0
1556048322.611,-59.082,-40.527,12.207,28.809,-8.301,0
1556048322.615,21.484,-129.883,12.207,31.738,-14.648,0
1556048322.619,124.023,0.000,18.555,37.109,13.672,0
1556048322.623,77.148,-66.406,18.066,38.574,-21.484,0
1556048322.626,-33.691,-153.809,21.973,34.180,-63.965,0
1556048322.630,-6.836,-334.473,23.438,37.109,-16.113,0
1556048322.634,111.328,-317.871,23.438,38.574,16.113,0
1556048322.638,107.422,181.641,30.762,33.203,22.461,0
1556048322.642,-14.648,134.766,24.414,32.715,38.086,0
1556048322.644,-38.086,-118.164,20.508,26.855,56.641,0
1556048322.648,80.566,67.383,29.785,28.809,53.223,0
1556048322.652,121.582,329.590,32.715,37.598,50.781,0
1556048322.656,15.137,57.617,27.832,30.762,45.410,0
1556048322.660,-55.664,-211.426,34.180,28.320,38.574,0
1556048322.664,41.016,-165.039,42.480,38.086,11.719,0
1556048322.668,126.953,70.801,46.387,45.410,12.695,0
1556048322.671,46.875,162.109,43.457,40.039,63.477,0
1556048322.675,-54.199,-380.859,35.645,30.762,61.035,0
1556048322.679,11.719,-285.156,41.016,30.762,45.898,0
1556048322.683,127.441,263.672,52.246,43.945,34.668,0
1556048322.687,82.520,224.609,54.199,47.363,44.922,0
1556048322.689,-46.875,-17.090,52.246,32.715,62.988,0
1556048322.693,-25.879,-35.645,55.664,30.273,19.531,0
1556048322.697,97.168,150.391,56.641,35.645,-16.602,0
1556048322.701,103.516,160.156,53.223,31.250,-28.320,0
1556048322.705,-14.648,-15.137,51.758,24.414,-19.531,0
1556048322.709,-55.176,-262.207,50.293,23.926,-22.949,0
1556048322.713,60.059,-146.973,51.270,30.762,16.113,0
1556048322.716,117.188,-69.336,50.781,28.809,41.016,0
1556048322.720,16.602,-255.371,51.270,20.020,34.668,0
1556048322.724,-60.059,-93.262,58.594,18.066,33.203,0
1556048322.728,24.902,98.633,56.641,19.043,54.688,0
1556048322.732,122.070,204.102,52.734,27.832,40.039,0
1556048322.734,56.152,198.730,53.711,26.367,18.555,0
1556048322.738,-57.129,47.852,51.758,19.531,7.812,0
1556048322.742,-2.930,-18.066,51.270,20.996,25.879,0
1556048322.746,111.816,97.168,52.246,27.344,26.855,0
1556048322.750,93.750,134.766,48.828,34.180,-65.918,0
1556048322.754,-20.996,-138.672,47.852,34.180,-65.918,0
1556048322.758,-18.555,-270.508,52.246,36.621,41.504,0
1556048322.761,101.562,-242.188,55.664,40.527,62.012,0
1556048322.765,119.141,-79.102,57.129,40.527,18.066,0
1556048322.769,2.441,0.977,55.176,35.156,-27.344,0
1556048322.773,-50.781,-175.781,51.758,29.785,-26.855,0
1556048322.777,57.129,-83.984,48.828,33.203,-33.691,0
1556048322.778,125.000,209.473,45.898,38.086,-51.270,0
1556048322.782,31.250,222.656,44.922,34.668,2.930,0
1556048322.786,-55.664,-65.918,41.992,26.855,41.504,0
1556048322.790,23.926,-60.059,45.410,28.320,34.180,0
1556048322.794,121.094,239.746,50.293,32.227,28.320,0
1556048322.798,68.848,228.516,44.922,30.273,72.266,0
1556048322.802,-41.992,-288.574,38.574,31.250,62.500,0
1556048322.805,-10.742,-515.625,44.434,27.832,1.465,0
1556048322.809,108.398,41.992,53.711,28.320,-22.949,0
1556048322.813,100.586,288.574,55.664,36.133,-2.441,0
1556048322.817,-20.020,14.160,54.688,28.320,-10.742,0
1556048322.821,-36.621,-213.379,51.758,21.484,-50.293,0
1556048322.824,74.219,19.531,52.246,26.367,22.949,0
1556048322.828,112.305,258.301,50.781,28.809,38.574,0
1556048322.832,11.230,92.773,48.340,30.762,39.062,0
1556048322.836,-52.246,-45.410,50.293,30.273,62.500,0
1556048322.840,47.363,13.184,52.246,35.645,-39.551,0
1556048322.844,121.582,76.660,49.805,41.504,-31.738,0
1556048322.848,35.645,-224.609,42.969,35.156,56.641,0
1556048322.851,-60.547,-303.711,47.363,26.855,60.547,0
1556048322.855,6.836,62.012,53.711,28.809,49.805,0
1556048322.859,114.258,194.824,49.316,37.109,54.688,0
1556048322.863,75.684,175.293,48.828,41.992,58.105,0
1556048322.867,-43.945,81.055,49.316,32.715,53.711,0
1556048322.883,-30.762,-17.090,45.898,25.879,4.395,0
1556048322.887,90.332,54.688,47.852,34.668,-29.297,0
1556048322.891,91.797,68.848,47.363,33.691,-0.977,0
1556048322.895,-32.227,-81.543,44.922,24.414,0.000,0
1556048322.899,-58.594,-75.195,46.875,22.949,-8.301,0
1556048322.903,64.941,-145.996,47.363,31.250,24.414,0
1556048322.907,115.723,-137.207,46.387,28.320,29.785,0
1556048322.910,8.301,80.078,45.410,20.020,1.465,0
1556048322.914,-63.965,-24.414,45.410,25.879,-4.883,0
1556048322.918,29.785,-72.266,49.805,28.320,2.930,0
1556048322.922,117.188,170.898,54.199,24.414,33.691,0
1556048322.926,41.504,289.551,48.828,24.902,48.340,0
1556048322.928,-65.918,34.668,42.969,21.484,32.715,0
1556048322.932,-1.953,-117.188,41.504,25.879,9.766,0
1556048322.936,110.840,175.293,42.969,34.668,46.387,0
1556048322.940,79.590,337.402,39.551,30.762,41.504,0
1556048322.944,-38.086,56.641,28.320,21.484,16.113,0
1556048322.948,-28.809,-187.988,26.855,23.438,42.480,0
1556048322.952,94.727,-120.117,33.203,28.320,-14.648,0
1556048322.955,110.352,65.430,42.969,26.855,-10.254,0
1556048322.959,-5.859,-2.930,51.270,26.855,39.062,0
1556048322.963,-46.387,-440.430,49.316,26.367,0.977,0
1556048322.967,65.918,-192.871,53.711,25.391,-13.672,0
1556048322.971,114.746,320.801,56.641,28.320,-17.090,0
1556048322.974,14.648,140.625,54.688,25.391,-12.695,0
1556048322.978,-54.199,-99.121,58.105,26.367,-8.789,0
1556048322.982,31.738,74.707,63.965,27.344,8.301,0
1556048322.986,116.699,375.488,71.289,28.320,63.965,0
1556048322.990,52.734,239.258,64.453,27.344,21.484,0
1556048322.994,-59.082,-174.805,48.828,20.996,-29.785,0
1556048322.998,-15.137,-244.629,53.223,20.996,-9.766,0
1556048323.001,103.027,163.086,66.406,26.855,0.000,0
1556048323.005,89.844,93.262,71.289,26.855,10.742,0
1556048323.009,-30.762,-314.941,71.777,20.996,9.277,0
1556048323.013,-40.527,-48.828,71.777,24.902,5.859,0
1556048323.017,86.914,263.672,74.707,37.598,27.832,0
1556048323.019,112.305,351.074,70.801,36.621,62.988,0
1556048323.023,-6.348,221.680,59.082,27.832,48.828,0
1556048323.027,-55.176,76.660,54.688,21.973,13.672,0
1556048323.031,53.711,148.438,45.898,23.926,20.020,0
1556048323.035,124.023,250.488,31.738,29.785,7.324,0
1556048323.039,38.086,68.848,24.414,26.367,-2.441,0
1556048323.043,-53.223,-116.699,19.043,15.625,11.230,0
1556048323.046,29.297,-11.230,10.742,18.066,-2.441,0
1556048323.050,134.766,-66.895,-2.441,22.949,34.668,0
1556048323.054,78.125,20.508,-12.695,26.855,7.324,0
1556048323.058,-41.992,124.512,-20.020,28.320,-2.441,0
1556048323.062,-14.160,-54.199,-35.645,23.438,11.719,0
1556048323.064,100.586,37.598,-47.363,37.598,0.977,0
1556048323.068,93.750,319.336,-58.105,45.410,41.992,0
1556048323.072,-25.391,236.328,-77.148,37.598,51.270,0
1556048323.076,-44.434,-22.461,-93.262,37.109,51.270,0
1556048323.080,78.613,65.918,-102.051,38.086,10.254,0
1556048323.084,112.793,154.297,-84.473,42.969,-5.371,0
1556048323.088,1.953,77.637,-52.246,43.945,15.137,0
1556048323.091,-56.152,-211.426,-41.504,41.992,43.945,0
1556048323.095,42.969,-335.938,-31.738,38.574,24.902,0
1556048323.099,122.070,191.895,-14.160,41.992,0.488,0
1556048323.103,43.945,296.387,-6.836,45.410,21.973,0
1556048323.107,-54.688,-44.922,-2.441,42.480,8.789,0
1556048323.109,6.836,-26.367,10.742,37.598,13.184,0
1556048323.113,112.305,270.020,22.461,29.785,5.859,0
1556048323.117,73.730,131.348,17.090,25.391,-24.414,0
1556048323.121,-52.734,-150.391,13.672,25.391,-2.441,0
1556048323.125,-39.062,-92.773,15.625,22.461,4.395,0
1556048323.129,81.543,3.418,12.207,29.785,-22.461,0
1556048323.133,89.355,14.160,6.836,31.738,-9.766,0
1556048323.136,-27.832,-301.758,0.000,23.438,64.453,0
1556048323.140,-50.293,-344.238,3.418,24.902,46.875,0
1556048323.144,65.430,144.043,9.277,31.250,41.016,0
1556048323.148,115.234,233.398,8.789,39.062,40.039,0
1556048323.152,16.602,48.828,12.207,42.480,21.973,0
1556048323.168,-54.199,-45.898,19.043,37.109,26.855,0
1556048323.172,43.457,22.949,26.855,38.574,-10.254,0
1556048323.176,130.371,121.094,33.691,47.852,-14.160,0
1556048323.180,59.082,88.867,34.180,46.387,11.230,0
1556048323.184,-46.875,-45.898,35.645,34.668,5.371,0
1556048323.188,1.953,-124.512,37.109,28.809,12.207,0
1556048323.192,111.328,-190.918,36.133,34.668,21.973,0
1556048323.195,79.590,-302.246,40.039,31.250,3.418,0
1556048323.199,-38.574,-138.184,45.898,20.508,3.418,0
1556048323.203,-40.039,-17.090,47.363,18.066,40.527,0
1556048323.207,75.684,90.332,51.270,25.391,53.223,0
1556048323.211,102.539,232.910,54.688,30.273,29.785,0
1556048323.198,-10.254,149.902,51.270,27.344,16.602,0
1556048323.202,-54.199,-30.273,48.340,21.484,48.340,0
1556048323.206,53.223,-46.387,47.852,19.043,15.625,0
1556048323.210,119.141,196.777,50.781,28.809,27.344,0
1556048323.214,30.762,202.637,48.340,26.855,26.855,0
1556048323.218,-52.734,-265.137,42.969,26.855,-32.227,0
1556048323.222,22.461,-280.273,46.875,33.691,14.160,0
1556048323.225,111.328,154.297,47.363,31.738,48.340,0
1556048323.229,55.664,120.117,41.504,29.297,-32.715,0
1556048323.233,-49.805,-211.914,35.645,32.227,-54.688,0
1556048323.237,-12.207,-530.273,32.227,34.668,-36.621,0
1556048323.241,108.398,-140.625,42.480,38.574,-11.230,0
