timestamps,TP9,AF7,AF8,TP10,Marker0
1582744543.464,31.250,25.391,21.973,30.762,0
1582744543.468,16.113,26.855,20.508,24.414,0
1582744543.472,14.648,20.508,27.344,29.785,0
1582744543.476,22.949,22.461,26.367,31.738,0
1582744543.480,20.020,25.879,24.414,32.715,0
1582744543.484,17.090,25.391,22.949,28.320,0
1582744543.488,18.066,21.484,17.090,22.949,0
1582744543.491,23.926,17.578,18.555,22.949,0
1582744543.495,21.973,20.508,23.438,19.531,0
1582744543.499,21.973,22.461,22.949,20.508,0
1582744543.503,25.879,19.531,20.996,25.879,0
1582744543.507,22.461,16.602,22.949,30.273,0
1582744543.509,21.484,13.184,24.414,24.902,0
1582744543.513,18.066,11.719,24.414,28.320,0
1582744543.517,21.973,14.648,26.367,31.250,0
1582744543.521,35.156,21.484,27.832,27.344,0
1582744543.525,27.344,25.391,28.809,31.738,0
1582744543.529,18.066,21.484,26.855,22.461,0
1582744543.533,25.391,17.578,26.855,25.879,0
1582744543.536,30.273,19.531,26.367,22.949,0
1582744543.540,26.855,19.043,24.902,24.414,0
1582744543.544,25.391,20.020,26.367,38.086,0
1582744543.548,38.086,25.879,23.926,36.133,0
1582744543.552,37.598,23.438,20.508,28.809,0
1582744543.554,28.320,18.555,22.461,26.367,0
1582744543.558,27.344,16.113,24.414,24.902,0
1582744543.562,22.949,16.602,21.973,21.973,0
1582744543.566,15.625,23.438,17.090,17.578,0
1582744543.570,13.672,27.832,19.043,15.137,0
1582744543.574,20.508,26.367,24.414,27.832,0
1582744543.578,20.996,26.367,25.879,32.715,0
1582744543.581,17.090,23.438,26.855,21.484,0
1582744543.585,17.090,16.602,24.902,21.484,0
1582744543.589,26.855,13.184,24.414,21.973,0
1582744543.593,34.180,14.648,22.949,25.391,0
1582744543.597,21.973,18.555,23.438,32.715,0
1582744543.599,27.344,23.438,26.367,23.438,0
1582744543.603,26.367,24.902,26.367,22.949,0
1582744543.607,8.789,22.461,23.926,14.160,0
1582744543.611,17.090,24.414,22.949,16.113,0
1582744543.615,26.855,31.738,26.367,21.484,0
1582744543.619,38.086,41.016,39.062,36.133,0
1582744543.623,38.086,40.527,40.527,37.598,0
1582744543.626,5.371,21.973,26.855,0.977,0
1582744543.630,-6.348,20.020,21.973,-11.719,0
1582744543.634,-3.906,31.250,23.926,-9.766,0
1582744543.638,-10.254,53.223,34.668,-7.324,0
1582744543.642,-22.461,58.105,41.016,-21.973,0
1582744543.644,-73.242,36.621,31.738,-70.312,0
1582744543.648,-111.328,35.156,28.320,-105.957,0
1582744543.652,-137.207,44.922,32.715,-131.348,0
1582744543.656,-154.297,58.105,33.203,-166.992,0
1582744543.660,-184.570,69.824,33.691,-196.777,0
1582744543.664,-223.145,76.172,38.574,-222.656,0
1582744543.668,-218.750,81.055,32.715,-237.793,0
1582744543.671,-228.027,82.031,24.414,-245.605,0
1582744543.675,-220.215,75.195,36.133,-238.770,0
1582744543.679,-200.195,76.172,41.992,-229.004,0
1582744543.683,-185.547,74.707,40.039,-216.309,0
1582744543.687,-162.109,66.406,39.062,-176.758,0
1582744543.704,-145.508,70.801,31.738,-162.598,0
1582744543.708,-123.535,72.266,26.855,-156.250,0
1582744543.712,-92.773,66.406,35.645,-113.770,0
1582744543.716,-76.172,60.059,31.250,-86.426,0
1582744543.720,-67.871,55.176,19.531,-81.055,0
1582744543.724,-54.199,49.316,20.508,-74.707,0
1582744543.728,-30.762,41.992,17.578,-48.340,0
1582744543.731,-12.695,33.203,14.648,-25.879,0
1582744543.735,4.883,35.645,14.648,-14.648,0
1582744543.739,6.348,39.551,12.207,-11.719,0
1582744543.743,18.555,33.203,14.648,-3.906,0
1582744543.747,49.805,33.691,13.672,23.926,0
1582744543.750,55.664,32.715,10.742,41.504,0
1582744543.754,59.082,25.879,8.301,43.945,0
1582744543.758,60.547,20.020,7.812,45.898,0
1582744543.762,71.777,16.602,12.207,53.223,0
1582744543.766,88.867,13.672,10.254,67.383,0
1582744543.770,86.914,9.277,7.324,77.148,0
1582744543.774,91.309,6.348,12.695,79.102,0
1582744543.777,96.680,10.254,17.578,88.867,0
1582744543.781,94.238,9.277,15.137,86.914,0
1582744543.785,91.309,2.930,14.648,86.914,0
1582744543.789,88.379,4.883,15.137,98.633,0
1582744543.793,87.891,7.812,10.742,95.703,0
1582744543.794,92.285,0.488,9.277,99.121,0
1582744543.798,96.680,-1.953,12.207,104.004,0
1582744543.802,101.562,6.836,17.578,94.238,0
1582744543.806,96.680,4.883,19.043,101.562,0
1582744543.810,95.215,0.488,20.508,110.352,0
1582744543.814,98.145,6.348,20.020,103.516,0
1582744543.818,98.145,16.113,16.602,95.703,0
1582744543.821,96.191,11.230,18.066,94.727,0
1582744543.825,97.656,2.930,22.949,96.191,0
1582744543.829,103.516,5.371,24.902,104.980,0
1582744543.833,101.562,11.719,25.879,107.422,0
1582744543.837,95.703,16.602,25.879,93.750,0
1582744543.840,94.238,13.184,24.414,94.727,0
1582744543.844,97.656,13.184,20.020,100.586,0
1582744543.848,94.238,13.184,18.555,102.051,0
1582744543.852,96.680,10.742,21.484,101.562,0
1582744543.856,92.285,11.230,22.949,95.215,0
1582744543.860,87.402,10.254,23.438,90.820,0
1582744543.864,93.750,10.254,22.949,99.609,0
1582744543.867,92.773,13.184,20.996,93.750,0
1582744543.871,88.867,13.184,18.066,75.684,0
1582744543.875,109.863,16.602,19.043,83.008,0
1582744543.879,118.652,19.043,24.414,85.449,0
1582744543.883,111.328,19.531,26.367,69.824,0
1582744543.885,111.328,17.090,28.320,74.707,0
1582744543.889,97.656,14.648,29.785,81.543,0
1582744543.893,80.078,18.066,26.367,79.590,0
1582744543.897,63.965,14.648,24.902,84.961,0
1582744543.901,41.016,15.137,26.367,82.520,0
1582744543.905,43.457,18.555,28.320,83.008,0
1582744543.909,52.246,14.648,32.227,84.961,0
1582744543.912,49.805,11.719,34.668,82.031,0
1582744543.916,55.664,15.625,31.250,79.102,0
1582744543.920,57.617,15.625,28.320,71.777,0
1582744543.924,55.664,8.301,27.344,63.477,0
1582744543.928,58.594,10.254,23.926,62.500,0
1582744543.930,62.500,21.973,22.461,68.359,0
1582744543.934,58.105,28.809,20.996,60.059,0
1582744543.938,51.270,26.855,23.438,56.152,0
1582744543.942,56.152,23.926,24.414,63.477,0
1582744543.946,52.734,25.391,23.926,61.035,0
1582744543.950,49.316,25.391,25.879,50.293,0
1582744543.954,50.293,20.996,25.879,52.734,0
1582744543.957,45.898,17.578,25.879,58.105,0
1582744543.961,45.898,15.625,26.367,56.152,0
1582744543.965,49.316,17.090,25.879,53.711,0
1582744543.969,40.039,17.090,26.367,48.828,0
1582744543.973,35.645,15.625,26.367,48.828,0
1582744543.975,43.457,17.578,25.391,52.246,0
1582744543.979,43.945,19.043,27.344,42.969,0
1582744543.983,42.480,21.484,31.250,47.363,0
1582744543.987,44.922,21.484,28.809,48.340,0
1582744543.991,43.945,16.113,27.344,45.410,0
1582744543.995,35.156,10.742,28.809,54.688,0
1582744543.999,44.922,14.160,28.809,45.898,0
1582744544.002,50.293,16.602,30.273,41.504,0
1582744544.006,47.852,12.695,32.227,55.664,0
1582744544.010,53.223,14.648,31.250,58.105,0
1582744544.014,49.805,19.043,26.367,46.387,0
1582744544.018,58.105,25.391,23.438,56.152,0
1582744544.020,56.641,25.391,26.367,64.941,0
1582744544.024,41.016,17.578,30.762,50.781,0
1582744544.028,38.086,14.160,31.738,41.992,0
1582744544.032,34.668,16.113,31.738,36.133,0
1582744544.036,32.715,17.090,33.691,42.969,0
1582744544.040,37.109,17.090,30.762,43.945,0
1582744544.044,35.156,21.484,24.902,24.414,0
1582744544.047,25.879,22.949,25.391,22.949,0
1582744544.051,33.691,21.973,23.926,33.691,0
1582744544.055,34.180,19.531,20.020,33.203,0
1582744544.059,32.715,17.090,21.484,35.645,0
1582744544.063,30.762,19.531,25.879,28.320,0
1582744544.080,32.715,20.020,31.738,26.367,0
1582744544.084,28.320,14.160,32.715,28.320,0
1582744544.088,30.762,14.648,30.273,25.391,0
1582744544.092,38.086,18.555,32.227,28.320,0
1582744544.096,29.297,16.113,36.621,19.043,0
1582744544.100,28.809,18.066,39.062,19.531,0
1582744544.104,33.691,19.531,34.668,29.785,0
1582744544.107,28.320,17.578,28.320,20.020,0
1582744544.111,20.020,13.672,30.273,15.625,0
1582744544.115,18.555,8.789,36.133,13.672,0
1582744544.119,15.625,8.789,35.645,14.160,0
1582744544.123,18.555,14.160,36.133,36.621,0
1582744544.124,24.902,20.508,34.180,31.738,0
1582744544.128,22.949,21.973,32.227,27.344,0
1582744544.132,23.926,20.508,33.691,38.086,0
1582744544.136,21.484,19.043,31.250,37.109,0
1582744544.140,21.973,17.578,30.762,33.203,0
1582744544.144,29.297,20.020,33.691,34.668,0
1582744544.148,29.297,22.461,35.156,36.133,0
1582744544.151,30.762,20.508,33.691,32.715,0
1582744544.155,30.273,19.043,32.227,33.203,0
1582744544.159,19.043,15.137,31.250,28.320,0
1582744544.163,18.066,12.695,31.250,27.344,0
1582744544.167,29.785,21.973,32.227,38.086,0
1582744544.169,36.133,27.344,30.273,36.621,0
1582744544.173,29.297,20.020,27.344,29.785,0
1582744544.177,27.344,22.949,29.785,38.086,0
1582744544.181,31.250,32.227,34.668,47.363,0
1582744544.185,29.297,30.273,32.227,46.387,0
1582744544.189,33.691,19.531,27.832,44.922,0
1582744544.193,34.668,18.066,27.832,38.574,0
1582744544.196,30.762,25.879,30.273,38.574,0
1582744544.200,28.320,30.273,34.180,38.574,0
1582744544.204,29.297,29.785,35.156,30.273,0
1582744544.208,23.926,28.809,31.250,33.203,0
1582744544.212,20.508,23.926,28.320,36.621,0
1582744544.214,32.227,22.461,27.344,31.250,0
1582744544.218,24.902,21.973,28.809,30.273,0
1582744544.222,16.113,20.020,30.762,27.832,0
1582744544.226,28.809,19.531,27.344,23.926,0
1582744544.230,37.109,23.438,25.391,31.738,0
1582744544.234,33.203,26.367,26.367,37.598,0
1582744544.238,31.738,22.949,26.367,29.785,0
1582744544.241,22.949,24.414,24.902,28.809,0
1582744544.245,20.996,27.344,24.414,32.227,0
1582744544.249,19.043,26.367,22.949,25.879,0
1582744544.253,13.184,24.902,22.461,23.438,0
1582744544.257,20.508,26.367,27.344,31.250,0
1582744544.259,24.902,26.855,28.809,32.227,0
1582744544.263,33.691,23.438,28.320,24.414,0
1582744544.267,32.715,23.926,30.762,24.414,0
1582744544.271,27.344,25.391,31.738,27.832,0
1582744544.275,38.086,30.273,26.855,31.250,0
1582744544.279,37.598,27.832,25.391,37.109,0
1582744544.283,33.691,22.461,27.344,35.645,0
1582744544.286,31.250,21.973,27.832,28.809,0
1582744544.290,35.156,24.902,26.367,31.250,0
1582744544.294,37.598,25.879,22.949,38.086,0
1582744544.298,27.832,22.949,21.973,35.645,0
1582744544.302,29.785,20.996,21.973,33.691,0
1582744544.304,35.156,21.484,21.973,32.715,0
1582744544.308,33.691,23.926,24.902,41.992,0
1582744544.312,36.133,24.414,27.344,41.504,0
1582744544.316,34.668,26.367,30.762,28.809,0
1582744544.320,25.391,23.926,28.809,21.484,0
1582744544.324,24.414,23.438,24.414,27.344,0
1582744544.328,30.273,25.879,27.832,34.180,0
1582744544.331,27.832,28.320,30.273,27.832,0
1582744544.335,24.902,28.320,35.156,26.367,0
1582744544.339,34.180,21.484,36.621,28.809,0
1582744544.343,35.645,27.344,35.156,36.133,0
1582744544.347,31.738,29.297,38.086,33.203,0
1582744544.349,32.227,23.926,36.133,23.438,0
1582744544.353,36.133,25.879,31.250,27.344,0
1582744544.357,29.785,25.879,27.344,27.832,17502
1582744544.361,24.414,23.926,24.902,29.297,0
1582744544.365,26.367,21.484,27.832,23.926,0
1582744544.369,22.461,19.531,32.715,23.438,0
1582744544.373,19.531,21.484,30.762,26.855,0
1582744544.376,25.879,26.367,31.250,20.020,0
1582744544.380,27.832,24.902,29.785,23.926,0
1582744544.384,18.066,24.902,26.367,28.320,0
1582744544.388,19.531,29.297,28.809,23.438,0
1582744544.392,25.879,24.902,32.227,26.367,0
1582744544.394,20.996,24.414,34.668,27.832,0
1582744544.398,26.855,24.902,35.645,28.809,0
1582744544.402,33.691,25.391,30.762,28.809,0
1582744544.406,25.391,21.484,29.297,26.855,0
1582744544.410,25.879,20.508,29.785,22.461,0
1582744544.414,25.879,25.391,26.855,15.625,0
1582744544.418,20.020,23.438,26.367,16.602,0
1582744544.421,29.297,21.973,22.949,31.250,0
1582744544.425,33.203,21.973,21.973,31.250,0
1582744544.429,20.996,21.973,24.902,20.020,0
1582744544.433,28.320,25.391,25.391,22.949,0
1582744544.437,23.926,25.879,26.367,22.461,0
1582744544.454,15.625,23.926,27.344,27.832,0
1582744544.458,29.297,25.879,28.809,34.180,0
1582744544.462,32.227,25.879,25.391,34.668,0
1582744544.466,31.250,27.832,24.902,34.180,0
1582744544.470,30.762,29.297,28.809,36.133,0
1582744544.474,28.809,25.391,26.855,34.180,0
1582744544.478,27.832,20.996,27.344,25.879,0
1582744544.481,21.973,19.531,32.715,26.855,0
1582744544.485,26.367,17.578,31.738,37.109,0
1582744544.489,34.180,19.531,26.855,35.645,0
1582744544.493,26.855,22.461,25.391,20.996,0
1582744544.497,22.949,22.949,25.879,22.949,0
1582744544.499,21.973,20.996,25.391,30.762,0
1582744544.503,20.996,20.508,26.855,28.320,0
1582744544.507,24.414,26.367,27.344,26.855,0
1582744544.511,15.137,23.926,27.344,29.785,0
1582744544.515,16.602,18.555,28.809,30.273,0
1582744544.519,22.461,18.066,30.762,36.621,0
1582744544.523,18.555,19.043,33.203,39.551,0
1582744544.526,20.020,21.484,30.762,33.691,0
1582744544.530,32.715,24.902,25.391,40.527,0
1582744544.534,27.832,23.926,26.367,31.738,0
1582744544.538,27.344,20.508,25.879,34.180,0
1582744544.542,68.359,19.043,21.973,103.027,0
1582744544.544,74.219,20.020,23.926,140.137,0
1582744544.548,65.918,22.949,25.879,122.070,0
1582744544.552,73.730,24.414,27.832,90.820,0
1582744544.556,74.707,24.414,28.320,71.289,0
1582744544.560,71.289,25.879,23.926,57.617,0
1582744544.564,68.359,28.320,23.438,50.293,0
1582744544.568,63.965,26.367,25.391,46.875,0
1582744544.571,54.688,23.438,27.344,46.875,0
1582744544.575,44.922,21.484,31.250,52.734,0
1582744544.579,33.203,20.996,34.668,59.570,0
1582744544.583,24.902,18.066,32.227,62.012,0
1582744544.587,19.043,13.672,29.785,57.617,0
1582744544.589,17.578,12.207,32.227,50.293,0
1582744544.593,14.648,16.602,31.738,48.828,0
1582744544.597,5.859,21.973,27.344,42.969,0
1582744544.601,1.953,23.438,27.344,32.227,0
1582744544.605,9.277,28.809,26.367,32.227,0
1582744544.609,17.578,28.809,27.344,30.762,0
1582744544.613,19.531,22.461,29.297,31.738,0
1582744544.616,28.809,23.926,26.367,29.785,0
1582744544.620,27.832,26.367,26.855,22.949,0
1582744544.624,27.344,23.926,28.320,22.461,0
1582744544.628,25.391,22.949,21.484,25.879,0
1582744544.632,21.973,21.973,21.484,26.367,0
1582744544.634,23.438,20.020,23.438,27.344,0
1582744544.638,27.832,20.020,19.531,27.344,0
1582744544.642,28.809,17.090,24.414,31.738,0
1582744544.646,29.297,15.625,31.250,40.527,0
1582744544.650,25.879,19.531,33.203,31.738,0
1582744544.654,22.461,18.555,33.203,23.926,0
1582744544.658,31.250,19.531,28.320,25.391,0
1582744544.661,32.227,22.949,26.367,27.832,0
1582744544.665,28.320,24.902,28.809,29.785,0
1582744544.669,26.855,20.996,32.715,27.344,0
1582744544.673,30.273,18.066,32.715,23.926,0
1582744544.677,23.926,16.602,31.250,27.832,0
1582744544.679,24.902,17.090,30.273,26.855,0
1582744544.683,27.344,18.555,30.762,23.438,0
1582744544.687,23.438,18.555,35.645,28.320,0
1582744544.691,28.809,20.996,32.227,36.621,0
1582744544.695,26.855,22.949,28.320,34.668,0
1582744544.699,29.297,21.484,33.691,24.902,0
1582744544.703,33.691,24.414,33.691,23.438,0
1582744544.706,27.832,23.926,28.320,28.809,0
1582744544.710,14.648,23.438,25.879,27.832,0
1582744544.714,15.137,21.973,29.297,21.484,0
1582744544.718,16.113,24.414,30.273,18.555,0
1582744544.722,16.602,26.367,28.320,24.414,0
1582744544.725,21.973,26.855,29.785,20.508,0
1582744544.729,24.414,28.320,25.879,21.973,0
1582744544.733,25.391,30.762,18.555,20.508,0
1582744544.737,29.297,29.785,21.973,18.066,0
1582744544.741,36.133,27.832,23.926,22.949,0
1582744544.745,25.879,27.344,23.926,18.555,0
1582744544.749,16.113,25.879,21.973,-0.488,0
1582744544.752,23.438,27.832,18.066,-11.230,0
1582744544.756,17.090,20.508,23.926,14.160,0
1582744544.760,18.555,22.949,23.926,23.926,0
1582744544.764,28.809,29.785,19.531,18.066,0
1582744544.768,28.320,28.809,21.484,17.090,0
1582744544.769,31.250,31.250,17.090,17.090,0
1582744544.773,23.438,26.855,16.602,22.949,0
1582744544.777,25.879,28.320,23.438,21.973,0
1582744544.781,31.250,29.297,24.902,17.578,0
1582744544.785,28.320,28.809,25.391,13.184,0
1582744544.789,29.785,29.785,26.367,20.020,0
1582744544.793,34.180,29.297,20.020,26.367,0
1582744544.796,30.762,28.320,19.531,18.555,0
1582744544.800,23.438,20.020,28.320,18.555,0
1582744544.804,28.809,21.484,31.250,21.973,0
1582744544.808,20.996,26.367,32.715,20.020,0
1582744544.812,13.184,23.438,30.762,19.043,0
1582744544.829,18.066,27.344,28.320,19.531,0
1582744544.833,16.602,27.832,30.273,25.391,0
1582744544.837,14.160,25.879,26.367,30.273,0
1582744544.841,16.602,34.180,21.973,21.484,0
1582744544.845,5.859,27.832,23.438,24.902,0
1582744544.849,9.766,18.555,24.902,34.180,0
1582744544.853,24.414,22.461,22.949,34.668,0
1582744544.856,27.344,19.531,25.391,35.645,0
1582744544.860,31.250,17.578,26.367,31.738,0
1582744544.864,24.902,17.578,22.949,25.391,0
1582744544.868,31.250,14.160,26.367,39.062,0
1582744544.872,37.598,11.719,29.785,49.316,0
1582744544.875,30.762,14.648,30.762,39.062,0
1582744544.879,27.344,15.137,32.715,36.133,0
1582744544.883,23.926,16.113,31.250,39.062,0
1582744544.887,29.785,19.043,27.344,37.598,0
1582744544.891,28.809,21.973,29.297,30.762,0
1582744544.895,22.461,22.949,32.227,27.344,0
1582744544.899,24.414,19.531,28.320,33.203,0
1582744544.902,25.879,15.137,26.367,42.480,0
1582744544.906,25.391,18.066,28.320,43.945,0
1582744544.910,30.273,19.531,29.297,30.273,0
1582744544.914,39.062,14.648,25.879,29.785,0
1582744544.918,27.832,15.625,23.926,37.109,0
1582744544.920,22.949,19.531,26.855,35.645,0
1582744544.924,29.785,20.020,30.273,31.250,0
1582744544.928,30.273,20.508,30.273,33.203,0
1582744544.932,26.367,24.414,25.879,33.203,0
1582744544.936,35.156,27.344,25.879,26.855,0
1582744544.940,42.480,28.320,29.785,33.203,0
1582744544.944,41.992,28.809,29.785,39.062,0
1582744544.947,29.785,24.414,28.320,33.691,0
1582744544.951,31.250,21.973,29.297,33.203,0
1582744544.955,41.992,23.438,29.785,29.785,0
1582744544.959,35.645,21.973,28.320,25.879,0
1582744544.963,39.551,24.902,26.367,33.691,0
1582744544.964,34.180,25.879,24.414,34.668,0
1582744544.968,30.762,21.973,22.949,28.809,0
1582744544.972,45.410,21.973,20.020,33.203,0
1582744544.976,41.016,23.926,21.484,34.668,0
1582744544.980,31.738,25.391,29.297,33.691,0
1582744544.984,28.809,21.973,34.180,29.785,0
1582744544.988,22.461,19.043,34.668,23.438,0
1582744544.991,23.438,21.484,33.691,26.855,0
1582744544.995,26.855,21.973,33.691,26.855,0
1582744544.999,25.391,20.996,33.203,22.949,0
1582744545.003,20.996,19.043,30.762,22.949,0
1582744545.007,19.531,18.066,27.344,25.879,0
1582744545.009,19.043,19.043,25.391,27.832,0
1582744545.013,18.555,12.695,26.367,26.367,0
1582744545.017,20.508,10.254,27.344,22.949,0
1582744545.021,25.391,18.066,30.273,23.438,0
1582744545.025,30.273,30.273,26.855,23.926,0
1582744545.029,28.320,46.387,23.438,23.926,0
1582744545.033,17.090,56.641,24.902,18.555,0
1582744545.036,14.648,58.594,24.414,6.836,0
1582744545.040,20.508,55.176,27.344,13.184,0
1582744545.044,16.602,51.270,24.414,25.391,0
1582744545.048,9.766,49.316,24.414,20.508,0
1582744545.052,9.766,49.316,28.320,14.160,0
1582744545.054,15.137,45.898,23.926,19.043,0
1582744545.058,19.043,41.016,22.949,19.531,0
1582744545.062,20.508,42.969,26.855,18.066,0
1582744545.066,21.973,47.363,25.879,18.555,0
1582744545.070,20.508,48.828,20.020,15.137,0
1582744545.074,21.484,45.898,20.020,25.391,0
1582744545.078,19.531,44.434,21.484,24.902,0
1582744545.081,13.672,45.898,23.438,10.254,0
1582744545.085,20.020,47.852,21.484,11.230,0
1582744545.089,22.949,50.781,20.996,24.902,0
1582744545.093,23.438,51.270,24.414,22.461,0
1582744545.097,19.043,50.781,27.832,20.020,0
1582744545.099,14.648,50.781,25.391,21.973,0
1582744545.103,15.625,49.316,20.508,14.160,0
1582744545.107,23.438,47.852,23.438,20.020,0
1582744545.111,26.367,51.758,29.297,26.855,0
1582744545.115,23.926,56.152,30.273,21.973,0
1582744545.119,21.484,56.152,24.902,18.066,0
1582744545.123,24.414,53.223,23.438,20.996,0
1582744545.126,22.461,51.758,26.855,15.625,0
1582744545.130,20.020,51.270,28.809,20.996,0
1582744545.134,23.438,53.223,27.344,28.809,0
1582744545.138,25.391,55.176,22.949,22.949,0
1582744545.142,27.344,53.223,20.020,28.809,0
1582744545.144,21.484,54.688,23.438,36.133,0
1582744545.148,20.996,57.617,25.879,26.367,0
1582744545.152,29.297,58.105,25.391,26.367,0
1582744545.156,24.902,54.688,26.367,32.227,0
1582744545.160,21.484,51.758,27.344,27.832,0
1582744545.164,14.160,48.828,27.832,18.066,0
1582744545.168,12.207,44.434,27.832,17.578,0
1582744545.171,27.832,49.316,27.832,28.320,0
1582744545.175,36.133,56.152,23.926,26.367,0
1582744545.179,29.785,51.758,27.344,23.926,0
1582744545.183,19.531,44.922,33.203,18.066,0
1582744545.187,14.160,43.945,31.738,12.207,0
1582744545.204,4.395,41.504,29.297,9.766,0
1582744545.208,8.789,43.457,26.367,8.789,0
1582744545.212,15.137,43.457,27.344,15.625,0
1582744545.216,11.230,42.480,27.832,22.461,0
1582744545.220,25.391,46.875,23.926,27.344,0
1582744545.224,33.203,50.293,23.438,20.508,0
1582744545.228,27.344,46.387,25.391,19.043,0
1582744545.231,28.320,43.945,21.973,28.320,0
1582744545.235,21.484,38.086,21.484,32.227,0
1582744545.239,14.648,37.598,28.809,30.273,0
1582744545.243,27.832,45.410,32.715,26.855,0
1582744545.247,26.855,45.410,32.227,23.926,0
1582744545.249,29.297,45.898,27.832,19.531,0
1582744545.253,40.039,48.340,26.367,19.043,0
1582744545.257,40.039,49.316,23.438,12.207,0
1582744545.261,43.945,46.387,19.043,1.953,0
1582744545.265,44.922,44.434,20.020,6.836,0
1582744545.269,41.992,47.852,21.484,15.625,0
1582744545.273,38.574,45.410,23.926,19.531,0
1582744545.276,20.020,34.668,24.902,21.973,0
1582744545.280,7.324,27.344,23.926,31.738,0
1582744545.284,6.836,30.273,24.414,37.109,0
1582744545.288,0.977,36.621,25.391,38.086,0
1582744545.292,0.488,34.668,26.855,27.344,0
1582744545.294,3.906,28.809,24.414,27.344,0
1582744545.298,8.789,26.855,24.414,29.297,0
1582744545.302,15.625,32.715,25.879,19.531,0
1582744545.306,17.090,39.551,27.832,22.949,0
1582744545.310,16.602,35.156,28.809,27.832,0
1582744545.314,22.461,31.250,25.879,28.809,0
1582744545.318,28.809,30.273,21.484,21.973,0
1582744545.321,26.855,32.715,18.555,15.137,0
1582744545.325,20.996,36.133,22.949,20.996,0
1582744545.329,21.973,40.039,26.367,21.973,0
1582744545.333,21.484,40.039,25.391,20.996,0
1582744545.337,16.113,34.668,26.367,20.508,0
1582744545.339,21.973,35.156,23.438,17.578,0
1582744545.343,16.113,35.645,20.996,15.137,0
1582744545.347,15.137,30.762,21.484,20.508,0
1582744545.351,23.438,31.738,20.020,25.879,0
1582744545.355,28.809,35.156,16.602,26.367,0
1582744545.359,25.879,35.156,19.043,24.902,0
1582744545.363,25.391,33.203,22.949,29.297,0
1582744545.366,29.785,35.156,24.414,32.715,0
1582744545.370,25.391,34.180,25.879,17.578,0
1582744545.374,32.227,32.227,26.367,22.949,0
1582744545.378,35.645,36.133,24.902,36.621,0
1582744545.382,34.668,34.668,23.926,34.668,0
1582744545.384,28.320,32.715,23.926,24.414,0
1582744545.388,21.973,32.227,26.367,23.438,27090
1582744545.392,25.879,32.715,23.926,20.020,0
1582744545.396,25.879,37.109,17.578,12.207,0
1582744545.400,27.344,39.062,22.461,28.809,0
1582744545.404,29.297,36.133,26.367,27.832,0
1582744545.408,30.762,33.203,21.973,24.414,0
1582744545.411,33.691,27.344,21.973,31.738,0
1582744545.415,31.250,28.809,19.531,26.367,0
1582744545.419,25.391,38.574,18.555,24.414,0
1582744545.423,26.367,36.621,24.902,24.414,0
1582744545.427,34.668,36.133,26.367,24.414,0
1582744545.429,34.180,40.039,23.438,29.297,0
1582744545.433,26.855,38.086,24.902,26.367,0
1582744545.437,26.855,38.086,27.344,16.602,0
1582744545.441,28.320,40.039,24.414,17.090,0
1582744545.445,30.273,41.016,20.996,21.973,0
1582744545.449,29.297,37.598,21.484,19.043,0
1582744545.453,27.832,37.109,20.508,15.137,0
1582744545.456,35.156,36.133,20.020,21.484,0
1582744545.460,32.715,34.180,22.949,24.414,0
1582744545.464,32.715,36.133,25.391,38.574,0
1582744545.468,40.039,38.574,27.832,40.527,0
1582744545.472,35.645,41.016,28.809,31.738,0
1582744545.474,34.668,41.992,25.879,38.086,0
1582744545.478,37.598,36.133,25.879,41.504,0
1582744545.482,36.621,31.738,26.367,31.738,0
1582744545.486,39.551,37.109,27.344,23.926,0
1582744545.490,37.598,38.574,28.809,29.785,0
1582744545.494,30.762,35.645,27.344,30.273,0
1582744545.498,21.973,33.691,24.902,16.602,0
1582744545.501,27.832,33.691,24.902,21.973,0
1582744545.505,34.668,35.156,28.320,33.203,0
1582744545.509,22.461,36.621,26.855,21.973,0
1582744545.513,21.973,39.062,25.879,19.531,0
1582744545.517,31.738,41.504,27.832,25.879,0
1582744545.534,30.762,43.457,27.344,26.367,0
1582744545.538,24.902,39.062,26.367,28.809,0
1582744545.542,24.414,33.203,24.902,20.996,0
1582744545.546,24.902,30.762,27.344,25.391,0
1582744545.550,25.879,30.762,30.273,36.621,0
1582744545.554,31.738,34.180,31.738,43.457,0
1582744545.558,34.180,34.668,30.762,42.480,0
1582744545.561,34.180,33.691,29.297,40.039,0
1582744545.565,40.039,35.645,27.344,46.875,0
1582744545.569,36.133,35.156,26.367,43.457,0
1582744545.573,28.809,34.180,26.367,40.039,0
1582744545.577,30.273,34.668,28.320,37.598,0
1582744545.594,20.508,36.133,28.809,34.668,0
1582744545.598,17.090,36.133,24.414,35.645,0
1582744545.602,25.879,34.180,22.949,31.738,0
1582744545.606,24.414,34.180,26.855,24.414,0
1582744545.610,21.973,33.203,25.879,27.344,0
1582744545.614,19.043,31.250,19.043,26.367,0
1582744545.618,20.996,35.156,18.555,31.738,0
1582744545.621,20.508,34.668,21.973,32.227,0
1582744545.625,21.484,34.668,20.996,26.367,0
1582744545.629,20.508,36.621,18.066,23.438,0
1582744545.633,13.184,36.133,14.160,19.531,0
1582744545.637,18.066,37.109,13.672,21.973,0
1582744545.624,24.414,41.992,19.043,14.160,0
1582744545.628,25.879,40.527,25.391,15.625,0
1582744545.632,24.414,42.480,25.879,23.926,0
1582744545.636,17.090,44.922,24.414,24.902,0
1582744545.640,17.090,35.156,24.414,22.461,0
1582744545.644,20.996,30.762,23.438,22.461,0
1582744545.648,15.137,30.273,21.484,25.391,0
1582744545.651,17.578,26.367,20.508,29.785,0
1582744545.655,22.949,31.738,20.996,34.668,0
1582744545.659,15.625,36.621,21.973,26.367,0
1582744545.663,11.230,34.668,22.949,14.648,0
1582744545.667,12.207,37.109,25.879,14.160,0
1582744545.669,8.301,36.133,22.461,13.184,0
1582744545.673,11.230,35.645,20.020,14.648,0
1582744545.677,16.602,32.715,22.949,20.508,0
1582744545.681,19.531,27.344,22.461,17.090,0
1582744545.685,17.090,25.879,23.438,10.742,0
1582744545.689,11.230,28.320,23.438,16.602,0
1582744545.693,7.812,33.691,21.484,25.879,0
1582744545.696,14.648,33.203,21.484,24.414,0
1582744545.700,15.625,28.320,20.996,18.066,0
1582744545.704,20.508,26.367,20.020,13.672,0
1582744545.708,22.949,29.785,17.578,5.859,0
1582744545.712,21.973,28.809,16.602,8.789,0
1582744545.714,18.066,25.391,18.066,18.555,0
1582744545.718,23.926,23.438,20.996,20.508,0
1582744545.722,40.527,26.367,19.531,23.438,0
1582744545.726,24.414,29.785,20.508,20.508,0
1582744545.730,10.742,29.297,20.996,17.090,0
1582744545.734,18.066,27.344,20.020,21.973,0
1582744545.738,27.344,24.414,22.461,24.414,0
1582744545.741,26.367,26.367,20.508,23.926,0
1582744545.745,17.578,28.320,20.020,24.414,0
1582744545.749,20.996,28.320,20.020,21.973,0
1582744545.753,34.668,30.273,19.043,28.320,0
1582744545.757,35.645,34.180,20.020,32.227,0
1582744545.759,32.715,20.996,22.461,36.133,0
1582744545.763,29.297,-3.906,25.391,32.715,0
1582744545.767,35.645,-12.207,30.273,32.227,0
1582744545.771,38.574,-12.695,29.297,40.527,0
1582744545.775,32.227,-9.766,26.855,41.016,0
1582744545.779,32.715,-8.301,31.250,39.551,0
1582744545.783,38.086,-5.859,33.691,39.551,0
1582744545.786,36.133,-1.465,33.203,33.203,0
1582744545.790,27.344,0.488,31.250,28.809,0
1582744545.794,33.691,-0.488,25.879,38.574,0
1582744545.798,35.156,0.977,26.855,45.410,0
1582744545.802,25.391,4.395,27.344,32.715,0
1582744545.804,22.949,4.395,25.391,22.461,0
1582744545.808,23.926,6.348,27.344,31.250,0
1582744545.812,25.391,7.324,26.855,35.645,0
1582744545.816,22.949,8.301,24.414,26.367,0
1582744545.820,23.926,10.742,23.926,23.926,0
1582744545.824,31.738,9.277,26.367,32.227,0
1582744545.828,32.227,9.766,28.320,28.809,0
1582744545.831,33.691,13.672,29.297,22.949,0
1582744545.835,34.668,14.160,28.320,25.879,0
1582744545.839,31.738,11.230,24.414,27.344,0
1582744545.843,36.133,8.789,25.879,30.273,0
1582744545.847,37.598,9.766,31.250,31.738,0
1582744545.849,37.598,13.672,30.273,24.902,0
1582744545.853,35.156,17.090,29.785,27.832,0
1582744545.857,33.203,19.531,30.762,32.227,0
1582744545.861,32.227,18.555,27.344,28.809,0
1582744545.865,28.809,15.625,20.996,21.973,0
1582744545.869,30.762,19.531,19.043,20.508,0
1582744545.873,30.762,21.973,25.879,25.879,0
1582744545.876,27.344,22.461,25.391,23.438,0
1582744545.880,29.785,23.438,27.344,26.367,0
1582744545.884,32.227,19.043,30.762,30.273,0
1582744545.888,31.738,15.625,30.273,36.133,0
1582744545.892,32.715,18.555,31.250,44.922,0
1582744545.894,27.832,21.973,30.273,37.109,0
1582744545.898,33.203,22.461,31.250,30.273,0
1582744545.902,31.250,22.949,30.762,37.598,0
1582744545.906,27.344,23.438,29.785,39.551,0
1582744545.910,30.273,27.832,30.762,36.133,0
1582744545.914,27.832,27.832,27.344,26.855,0
1582744545.918,22.461,24.414,24.414,20.996,0
1582744545.921,20.508,25.391,26.367,30.762,0
1582744545.925,25.879,26.367,29.297,35.156,0
1582744545.929,24.414,24.414,30.762,29.785,0
1582744545.933,21.973,25.391,31.738,29.785,0
1582744545.937,23.926,23.438,33.203,32.227,0
1582744545.954,21.973,22.461,29.785,33.203,0
1582744545.958,15.625,23.926,28.320,25.879,0
1582744545.962,19.531,23.926,33.203,21.973,0
1582744545.966,19.043,26.367,33.203,28.809,0
1582744545.970,19.043,28.320,32.227,33.691,0
1582744545.974,23.926,26.855,32.227,32.715,0
1582744545.978,30.273,24.902,29.785,30.762,0
1582744545.981,29.785,27.832,27.344,33.203,0
1582744545.985,24.902,30.762,28.320,28.320,0
1582744545.989,21.484,30.273,27.832,18.555,0
1582744545.993,27.832,24.902,25.391,13.184,0
1582744545.997,39.062,22.949,22.461,8.301,0
1582744546.000,47.852,29.297,19.043,5.371,0
1582744546.004,56.641,33.203,20.508,9.277,0
1582744546.008,53.711,31.738,22.949,7.812,0
1582744546.012,43.945,31.250,20.508,10.742,0
1582744546.016,41.016,30.273,23.438,24.902,0
1582744546.020,31.250,29.297,28.320,33.691,0
1582744546.024,17.578,27.832,30.273,36.621,0
1582744546.027,10.254,26.855,29.785,41.016,0
1582744546.031,10.742,29.297,26.855,38.086,0
1582744546.035,18.066,27.344,27.832,44.922,0
1582744546.039,12.695,28.809,27.344,41.504,0
1582744546.043,14.648,29.785,27.832,34.180,0
1582744546.045,23.926,30.273,27.832,28.320,0
1582744546.049,25.879,30.273,26.367,25.879,0
1582744546.053,29.785,27.344,27.344,32.715,0
1582744546.057,26.367,31.738,30.762,29.297,0
1582744546.061,23.926,35.156,30.273,22.949,0
1582744546.065,25.879,32.715,32.227,28.809,0
1582744546.069,24.414,31.250,28.320,29.785,0
1582744546.072,21.484,30.762,25.391,23.438,0
1582744546.076,25.879,32.227,33.203,25.391,0
1582744546.080,29.785,30.762,35.156,21.484,0
1582744546.084,24.902,25.391,37.109,22.461,0
1582744546.088,20.508,26.367,34.180,18.066,0
1582744546.090,19.043,29.297,29.785,16.113,0
1582744546.094,21.484,27.344,29.785,22.461,0
1582744546.098,23.926,25.391,27.344,16.113,0
1582744546.102,22.949,27.344,23.926,15.137,0
1582744546.106,22.461,32.227,23.438,16.602,0
1582744546.110,27.832,33.203,27.832,15.625,0
1582744546.114,23.926,25.879,31.738,23.926,0
1582744546.117,17.578,26.367,35.645,21.484,0
1582744546.121,28.809,32.715,33.203,16.113,0
1582744546.125,30.273,32.715,29.297,19.531,0
1582744546.129,32.227,32.227,28.320,21.973,0
1582744546.133,34.668,36.133,24.414,29.297,0
1582744546.134,26.367,35.156,21.484,19.043,0
1582744546.138,25.879,31.250,21.973,13.184,0
1582744546.142,31.250,30.273,21.973,22.949,0
1582744546.146,36.621,28.320,20.508,21.973,0
1582744546.150,25.391,29.297,24.414,21.973,0
1582744546.154,18.555,29.297,27.832,22.461,0
1582744546.158,17.090,25.391,25.879,22.461,0
1582744546.161,21.973,24.414,24.414,24.902,0
1582744546.165,26.367,26.855,26.855,20.020,0
1582744546.169,22.461,21.973,28.320,19.043,0
1582744546.173,22.461,17.578,29.785,20.020,0
1582744546.177,32.715,23.438,28.809,26.855,0
1582744546.180,35.645,26.855,27.832,27.832,0
1582744546.184,39.062,31.250,29.297,34.668,0
1582744546.188,42.969,27.832,27.832,37.109,0
1582744546.192,47.363,22.949,27.344,33.203,0
1582744546.196,50.293,26.367,28.320,33.691,0
1582744546.200,41.992,31.250,26.855,28.809,0
1582744546.204,41.016,27.832,30.762,25.879,0
1582744546.207,37.109,24.414,30.762,20.508,0
1582744546.211,26.367,28.809,26.367,19.043,0
1582744546.215,19.043,27.832,28.320,23.926,0
1582744546.219,20.020,27.344,30.273,22.461,0
1582744546.223,24.414,28.809,27.832,21.973,0
1582744546.225,24.414,27.832,23.438,23.926,0
1582744546.229,23.926,27.344,27.344,24.414,0
1582744546.233,26.367,27.832,30.762,17.578,0
1582744546.237,28.809,28.809,30.273,18.555,0
1582744546.241,33.691,31.250,28.320,28.320,0
1582744546.245,32.715,29.785,29.785,36.133,0
1582744546.249,28.320,29.785,33.691,26.367,0
1582744546.252,29.297,29.785,32.715,11.719,0
1582744546.256,24.414,26.855,34.668,31.250,0
1582744546.260,22.461,24.902,34.668,39.062,0
1582744546.264,22.461,27.344,32.715,34.180,0
1582744546.268,24.414,32.227,30.273,29.785,0
1582744546.269,20.508,28.320,31.250,27.344,0
1582744546.273,16.113,21.484,34.668,35.156,0
1582744546.277,27.832,20.508,33.691,33.203,0
1582744546.281,38.574,28.809,34.668,40.527,0
1582744546.285,32.227,33.203,35.156,44.922,0
1582744546.289,32.715,35.156,32.227,41.016,0
1582744546.293,38.574,34.180,33.203,47.363,0
1582744546.296,32.227,32.715,33.691,40.039,0
1582744546.300,26.855,29.297,33.691,37.109,0
1582744546.304,33.691,23.926,36.621,40.527,0
1582744546.308,32.715,29.785,35.645,38.086,0
1582744546.312,30.762,35.156,33.691,41.504,0
1582744546.329,35.645,37.109,35.645,37.598,0
1582744546.333,28.320,34.668,34.180,30.762,0
1582744546.337,14.160,25.391,30.762,31.738,0
1582744546.341,16.113,20.020,32.715,31.250,0
1582744546.345,27.344,23.926,34.668,32.227,0
1582744546.349,28.320,30.273,31.738,31.738,0
1582744546.353,29.785,29.785,33.203,37.598,0
1582744546.356,27.832,32.715,36.133,27.832,0
1582744546.360,22.949,32.715,36.133,19.531,0
1582744546.364,34.180,25.391,36.133,28.809,0
1582744546.368,36.133,23.926,34.668,29.785,0
1582744546.372,30.762,27.832,32.227,23.926,0
1582744546.374,27.344,26.367,33.203,21.973,0
1582744546.378,22.461,24.414,32.715,31.738,0
1582744546.382,26.367,25.879,34.180,36.621,0
1582744546.386,26.367,25.879,34.180,33.691,0
1582744546.390,29.785,25.879,31.250,28.809,0
1582744546.394,26.855,25.391,33.691,25.391,0
1582744546.398,22.949,25.879,34.668,27.832,0
1582744546.401,22.461,29.297,31.738,29.297,0
1582744546.405,22.461,33.691,29.785,27.344,0
1582744546.409,29.785,32.715,29.785,20.996,0
1582744546.413,29.297,29.785,30.762,23.438,0
1582744546.417,25.391,27.832,32.227,33.691,0
1582744546.419,28.809,30.273,33.203,38.086,0
1582744546.423,28.809,31.738,29.297,29.785,0
1582744546.427,22.949,28.320,28.809,16.113,0
1582744546.431,27.344,28.320,31.250,23.926,0
1582744546.435,29.297,26.855,34.668,39.551,0
1582744546.439,22.461,28.320,32.227,33.691,0
1582744546.443,23.926,31.250,28.809,28.320,0
1582744546.446,25.879,28.320,31.250,34.180,0
1582744546.450,20.996,29.297,32.227,31.250,0
1582744546.454,25.391,26.367,32.715,25.391,0
1582744546.458,22.461,15.137,34.180,31.250,0
1582744546.462,24.414,19.043,34.668,34.180,0
1582744546.464,31.250,31.738,35.156,32.227,15450
1582744546.468,26.855,30.273,35.156,35.156,0
1582744546.472,25.391,24.414,34.180,32.715,0
1582744546.476,32.715,26.855,32.227,38.574,0
1582744546.480,32.715,20.508,28.809,37.598,0
1582744546.484,38.086,21.484,27.344,37.598,0
1582744546.488,40.527,30.273,28.320,35.645,0
1582744546.491,34.180,30.762,29.785,35.645,0
1582744546.495,31.250,29.785,26.855,41.016,0
1582744546.499,29.785,26.855,27.832,36.133,0
1582744546.503,27.832,23.926,31.738,32.715,0
1582744546.507,22.949,23.926,31.738,26.855,0
1582744546.509,20.508,26.367,32.227,23.926,0
1582744546.513,23.438,31.250,30.273,30.273,0
1582744546.517,27.344,30.762,28.809,22.949,0
1582744546.521,26.855,28.320,28.809,17.578,0
1582744546.525,21.973,31.738,25.391,17.090,0
1582744546.529,21.484,29.785,26.367,16.602,0
1582744546.533,30.762,30.273,29.785,25.391,0
1582744546.536,32.715,33.203,28.809,23.438,0
1582744546.540,33.691,31.738,32.227,21.973,0
1582744546.544,36.621,31.738,36.133,28.320,0
1582744546.548,31.738,28.809,33.203,31.250,0
1582744546.552,29.785,29.297,30.762,28.809,0
1582744546.554,32.227,31.738,33.691,29.297,0
1582744546.558,33.691,28.809,35.156,32.715,0
1582744546.562,28.809,25.879,33.691,29.297,0
1582744546.566,26.367,25.879,31.250,21.484,0
1582744546.570,20.996,23.926,28.809,21.973,0
1582744546.574,23.926,27.344,28.320,20.996,0
1582744546.578,30.273,30.762,26.367,26.855,0
1582744546.581,28.809,26.855,23.926,26.855,0
1582744546.585,27.344,28.320,24.414,19.531,0
1582744546.589,27.832,34.180,26.367,18.066,0
1582744546.593,27.832,34.668,27.344,24.414,0
1582744546.597,28.809,29.297,26.367,29.297,0
1582744546.599,27.344,28.809,26.367,18.066,0
1582744546.603,24.414,27.832,26.855,8.789,0
1582744546.607,31.738,25.879,28.320,22.461,0
1582744546.611,35.156,25.879,28.809,35.156,0
1582744546.615,31.738,26.855,27.344,23.926,0
1582744546.619,31.250,27.832,28.320,26.855,0
1582744546.623,38.574,25.879,31.250,34.668,0
1582744546.626,34.180,24.414,32.227,28.320,0
1582744546.630,24.902,26.367,27.344,20.996,0
1582744546.634,26.855,30.762,24.414,22.949,0
1582744546.638,31.738,27.344,24.902,24.414,0
1582744546.642,32.715,25.879,25.879,23.438,0
1582744546.644,29.297,29.297,26.367,24.902,0
1582744546.648,26.367,26.367,28.320,18.066,0
1582744546.652,21.973,22.461,28.809,18.555,0
1582744546.656,22.461,23.438,27.832,24.902,0
1582744546.660,24.414,27.832,27.344,27.832,0
1582744546.664,19.043,32.227,23.926,22.949,0
1582744546.668,22.461,25.879,25.391,20.020,0
1582744546.671,32.227,20.020,29.297,23.438,0
1582744546.675,26.367,26.367,29.785,29.785,0
1582744546.679,20.508,26.367,29.297,24.414,0
1582744546.683,26.855,28.320,25.879,14.160,0
1582744546.687,25.391,30.273,26.367,29.297,0
1582744546.719,27.344,28.320,27.832,37.598,0
1582744546.723,22.461,28.809,26.855,21.973,0
1582744546.727,13.672,30.273,30.762,15.625,0
1582744546.731,24.414,31.738,31.738,28.320,0
1582744546.735,20.508,26.855,29.297,33.203,0
1582744546.739,16.113,26.855,27.344,24.414,0
1582744546.743,16.113,27.832,25.391,20.508,0
1582744546.746,19.531,25.391,26.367,22.949,0
1582744546.750,27.832,23.438,27.832,30.273,0
1582744546.754,25.879,28.320,24.414,27.832,0
1582744546.758,23.438,32.715,25.879,20.020,0
1582744546.762,25.879,30.762,28.320,23.926,0
1582744546.749,28.320,28.809,28.809,28.809,0
1582744546.753,20.996,23.438,33.203,34.180,0
1582744546.757,19.531,21.973,31.250,28.320,0
1582744546.761,28.320,30.762,29.785,20.996,0
1582744546.765,30.762,34.180,30.273,24.414,0
1582744546.769,35.645,30.762,25.391,22.461,0
1582744546.773,42.969,33.203,25.391,13.672,0
1582744546.776,54.199,34.668,27.832,10.254,0
1582744546.780,62.012,30.273,27.344,14.160,0
1582744546.784,59.082,31.250,26.855,19.043,0
1582744546.788,48.340,29.297,26.367,20.020,0
1582744546.792,33.203,22.461,25.879,26.855,0
1582744546.795,21.484,23.438,29.785,27.832,0
1582744546.799,22.461,27.344,33.691,27.832,0
1582744546.803,21.484,30.273,35.645,39.062,0
1582744546.807,9.277,29.785,33.691,31.250,0
1582744546.811,10.742,29.297,27.832,31.738,0
1582744546.815,9.766,29.297,27.344,38.086,0
1582744546.819,5.859,25.879,29.785,38.574,0
1582744546.822,15.137,23.926,27.344,25.391,0
1582744546.826,15.137,29.297,27.344,19.531,0
1582744546.830,19.043,35.156,29.297,20.020,0
1582744546.834,29.785,36.133,28.809,22.461,0
1582744546.838,23.926,32.227,31.738,23.438,0
1582744546.840,16.113,30.273,30.273,22.461,0
1582744546.844,20.996,30.762,27.344,23.438,0
1582744546.848,16.602,28.320,27.344,20.996,0
1582744546.852,10.254,24.902,25.879,20.996,0
1582744546.856,20.996,25.879,24.902,23.926,0
1582744546.860,26.855,33.691,26.855,21.484,0
1582744546.864,21.484,38.086,29.297,20.508,0
1582744546.867,20.996,34.180,28.809,31.250,0
1582744546.871,20.508,33.203,29.785,28.320,0
1582744546.875,16.602,35.156,31.738,24.414,0
1582744546.879,25.391,35.645,28.320,23.926,0
1582744546.883,33.691,37.598,25.391,30.762,0
1582744546.885,26.855,34.180,29.297,31.738,0
1582744546.889,24.902,29.297,30.273,25.391,0
1582744546.893,27.832,27.832,29.297,28.320,0
1582744546.897,36.133,26.855,32.227,31.250,0
1582744546.901,34.180,25.391,33.203,31.738,0
1582744546.905,38.574,27.344,30.762,26.367,0
1582744546.909,41.504,32.715,28.809,22.461,0
1582744546.912,21.973,31.738,29.785,23.926,0
1582744546.916,19.043,28.320,30.762,24.902,0
1582744546.920,22.949,31.738,28.320,24.902,0
1582744546.924,27.344,32.227,27.344,24.902,0
1582744546.928,27.344,30.762,25.879,27.344,0
1582744546.930,24.414,37.109,21.484,21.973,0
1582744546.934,21.973,39.062,22.461,20.020,0
1582744546.938,28.809,33.691,21.973,22.461,0
1582744546.942,35.156,28.809,20.508,22.949,0
1582744546.946,35.645,29.785,23.926,23.926,0
1582744546.950,29.785,34.668,25.391,18.066,0
1582744546.954,30.273,38.086,28.320,14.160,0
1582744546.957,32.227,30.762,31.738,18.066,0
1582744546.961,31.250,26.855,29.785,31.250,0
1582744546.965,33.691,32.715,27.344,30.762,0
1582744546.969,31.738,29.785,27.832,21.484,0
1582744546.973,33.691,31.738,29.297,28.809,0
1582744546.975,41.992,36.621,33.203,37.598,0
1582744546.979,42.969,35.156,34.668,36.133,0
1582744546.983,38.086,35.645,30.273,26.367,0
1582744546.987,35.156,34.180,29.297,22.949,0
1582744546.991,33.691,27.832,32.227,29.785,0
1582744546.995,37.598,34.180,31.738,28.320,0
1582744546.999,37.598,34.668,29.785,19.043,0
1582744547.002,32.227,27.344,30.273,19.531,0
1582744547.006,27.344,29.785,28.320,22.949,0
1582744547.010,28.320,28.809,27.344,24.414,0
1582744547.014,22.461,30.762,26.367,23.438,0
1582744547.018,20.508,31.250,29.297,17.090,0
1582744547.035,33.203,28.320,31.738,25.879,0
1582744547.039,40.039,27.344,32.715,33.691,0
1582744547.043,23.438,26.855,32.715,23.926,0
1582744547.047,16.602,30.762,30.273,20.996,0
1582744547.051,22.461,34.180,30.273,19.531,0
1582744547.055,16.113,36.621,33.203,25.879,0
1582744547.059,15.625,34.180,35.156,24.902,0
1582744547.062,16.602,30.762,33.691,21.973,0
1582744547.066,11.719,30.273,29.297,16.113,0
1582744547.070,21.973,33.691,28.809,16.113,0
1582744547.074,25.879,35.645,30.762,28.809,0
1582744547.078,13.672,29.785,29.297,27.344,0
1582744547.080,14.648,21.484,30.273,30.273,0
1582744547.084,18.555,17.090,32.715,28.320,0
1582744547.088,17.578,25.879,33.203,24.414,0
1582744547.092,18.066,33.691,32.715,32.227,0
1582744547.096,21.973,36.621,32.227,26.855,0
1582744547.100,24.414,31.250,31.738,27.344,0
1582744547.104,24.414,28.320,27.344,31.250,0
1582744547.107,20.508,30.762,27.344,28.809,0
1582744547.111,15.625,30.273,30.273,23.926,0
1582744547.115,11.719,28.809,31.738,20.996,0
1582744547.119,12.695,22.949,31.250,26.855,0
1582744547.123,12.207,20.508,28.809,26.855,0
1582744547.125,10.742,24.902,26.855,13.672,0
1582744547.129,17.090,25.879,24.414,9.766,0
1582744547.133,17.578,25.879,27.344,23.926,0
1582744547.137,13.184,29.297,31.738,27.344,0
1582744547.141,6.836,26.367,33.691,20.020,0
1582744547.145,8.789,27.344,32.715,15.625,0
1582744547.149,18.066,28.320,30.273,15.625,0
1582744547.152,21.973,23.438,33.691,20.508,0
1582744547.156,25.391,24.414,34.668,22.949,0
1582744547.160,21.973,26.855,32.715,20.020,0
1582744547.164,21.484,28.809,34.668,30.762,0
1582744547.168,30.762,38.086,36.133,40.039,0
1582744547.170,36.621,53.711,35.156,33.691,0
1582744547.174,34.668,59.570,32.715,34.180,0
1582744547.178,37.109,62.988,32.227,40.039,0
1582744547.182,28.809,60.547,34.180,42.969,0
1582744547.186,17.578,54.199,35.645,32.715,0
1582744547.190,20.996,59.570,35.156,23.926,0
1582744547.194,20.996,63.477,31.738,26.855,0
1582744547.197,13.672,60.059,28.320,13.184,0
1582744547.201,15.137,57.129,24.902,10.742,0
1582744547.205,21.973,56.641,23.438,16.602,0
1582744547.209,20.020,55.176,26.855,17.578,0
1582744547.213,20.508,54.688,27.832,22.949,0
1582744547.214,26.855,50.781,27.344,24.414,0
1582744547.218,17.578,47.363,29.785,22.461,0
1582744547.222,15.625,49.316,26.367,18.066,0
1582744547.226,21.973,47.852,23.926,19.043,0
1582744547.230,24.902,44.922,25.879,27.344,0
1582744547.234,34.180,48.828,25.391,28.320,0
1582744547.238,30.273,36.133,29.297,31.250,0
1582744547.241,30.273,-0.977,35.156,30.273,0
1582744547.245,35.645,-7.324,36.133,24.414,0
1582744547.249,33.203,23.438,36.621,36.621,0
1582744547.253,30.762,59.570,33.203,40.527,0
1582744547.257,38.086,50.293,35.645,44.434,0
1582744547.260,36.621,46.875,33.691,37.598,0
1582744547.264,24.414,55.664,28.320,27.832,0
1582744547.268,31.738,37.109,33.691,36.133,0
1582744547.272,31.250,47.852,33.203,30.273,0
1582744547.276,22.949,66.895,27.832,18.066,0
1582744547.280,22.949,66.406,24.902,27.344,0
1582744547.284,17.090,55.176,24.902,33.691,0
1582744547.287,22.949,43.945,28.809,23.438,0
1582744547.291,27.344,37.109,28.320,16.602,0
1582744547.295,16.602,32.715,27.832,23.438,0
1582744547.299,19.043,23.438,27.832,21.484,0
1582744547.303,19.043,22.461,24.902,21.973,0
1582744547.305,10.742,24.414,26.855,24.902,0
1582744547.309,14.648,19.531,26.855,18.555,0
1582744547.313,18.555,21.973,24.902,11.230,0
1582744547.317,20.020,22.949,22.461,11.719,0
1582744547.321,18.555,22.461,23.438,10.742,0
1582744547.325,18.066,21.973,27.344,15.137,0
1582744547.329,18.066,21.484,25.879,20.020,0
1582744547.332,21.973,17.578,23.926,18.066,0
1582744547.336,20.508,20.996,20.508,8.301,0
1582744547.340,24.902,25.391,20.508,14.648,0
1582744547.344,33.203,22.949,23.926,29.297,0
1582744547.348,39.062,23.926,23.438,29.297,0
1582744547.349,36.133,25.879,24.414,25.391,0
1582744547.353,37.109,23.438,25.879,28.809,0
1582744547.357,40.527,23.438,26.855,32.715,0
1582744547.361,38.574,29.785,27.344,29.785,0
1582744547.365,39.062,30.273,29.785,21.484,0
1582744547.369,40.527,28.320,29.785,21.484,0
1582744547.373,45.898,30.273,27.344,24.902,0
1582744547.376,41.016,30.762,29.297,20.508,0
1582744547.380,31.738,36.133,30.273,22.949,0
1582744547.384,36.621,37.109,32.715,30.762,0
1582744547.388,31.250,28.320,31.738,27.832,0
1582744547.392,31.738,24.902,28.809,28.320,0
1582744547.394,33.203,28.320,28.809,25.879,0
1582744547.398,29.297,31.738,29.297,21.973,0
1582744547.402,28.320,31.738,29.785,25.879,0
1582744547.406,31.738,27.832,34.668,32.227,0
1582744547.410,29.297,29.785,37.598,37.109,0
1582744547.414,26.855,30.762,36.621,35.156,0
1582744547.418,26.855,27.344,36.621,30.273,0
1582744547.421,28.320,25.879,36.133,34.668,0
1582744547.425,30.762,27.344,35.156,41.992,0
1582744547.429,22.949,25.879,31.738,27.344,0
1582744547.433,22.949,23.926,29.785,24.414,0
1582744547.437,30.273,23.926,27.832,35.645,0
1582744547.454,34.668,26.367,25.879,36.133,0
1582744547.458,34.668,30.762,24.902,26.855,0
1582744547.462,27.344,29.785,26.855,17.090,0
1582744547.466,11.719,30.273,30.273,20.508,0
1582744547.470,8.789,32.715,30.273,25.391,0
1582744547.474,8.301,30.273,31.250,22.461,0
1582744547.478,10.742,29.297,25.879,20.996,0
1582744547.481,22.949,29.297,24.902,20.508,0
1582744547.485,22.461,24.414,30.273,27.344,0
1582744547.489,22.461,22.949,31.250,31.250,0
1582744547.493,22.461,27.832,32.227,27.832,0
1582744547.497,26.855,28.809,38.086,31.738,0
1582744547.499,26.855,33.203,38.086,36.621,0
1582744547.503,23.438,29.785,34.668,33.203,0
1582744547.507,25.391,27.832,33.203,27.832,0
1582744547.511,25.879,34.668,29.297,29.297,0
1582744547.515,24.414,35.156,27.832,28.320,0
1582744547.519,25.391,32.227,30.762,31.738,0
1582744547.523,37.109,35.645,31.250,31.738,0
1582744547.526,43.945,37.109,28.320,24.414,0
1582744547.530,44.922,35.156,26.367,18.066,0
1582744547.534,51.758,32.715,25.879,16.113,0
1582744547.538,57.129,34.668,29.785,17.090,0
1582744547.542,58.594,38.086,29.297,14.160,18400
1582744547.544,52.246,33.691,25.879,11.230,0
1582744547.548,29.297,37.598,24.414,26.855,0
1582744547.552,12.207,37.598,25.879,41.992,0
1582744547.556,10.254,28.809,34.668,41.504,0
1582744547.560,-1.953,29.297,35.645,35.156,0
1582744547.564,1.465,27.832,34.668,34.180,0
1582744547.568,12.695,28.320,34.180,36.621,0
1582744547.571,5.371,29.297,33.203,32.715,0
1582744547.575,12.207,22.949,32.227,23.438,0
1582744547.579,19.043,29.297,28.320,18.066,0
1582744547.583,17.578,34.668,25.879,23.926,0
1582744547.587,21.973,35.156,23.926,31.250,0
1582744547.589,34.668,39.062,23.438,23.926,0
1582744547.593,43.457,38.086,26.855,24.902,0
1582744547.597,32.227,37.109,29.297,28.320,0
1582744547.601,30.273,37.109,29.785,21.484,0
1582744547.605,35.156,36.133,29.297,25.879,0
1582744547.609,27.832,34.180,28.320,29.297,0
1582744547.613,25.391,30.273,31.738,25.391,0
1582744547.616,28.320,27.344,31.738,23.926,0
1582744547.620,29.785,28.320,31.250,23.438,0
1582744547.624,29.297,33.203,31.738,22.461,0
1582744547.628,30.273,36.621,29.297,20.508,0
1582744547.632,23.438,33.203,31.738,27.344,0
1582744547.634,23.438,33.691,29.785,26.367,0
1582744547.638,32.715,39.062,24.902,21.484,0
1582744547.642,29.297,38.086,26.855,22.461,0
1582744547.646,21.973,34.180,25.879,29.297,0
1582744547.650,22.949,30.762,23.926,29.297,0
1582744547.654,31.738,30.273,25.879,24.414,0
1582744547.658,34.180,27.832,28.320,21.973,0
1582744547.661,32.715,29.785,28.809,26.855,0
1582744547.665,34.180,31.250,29.785,28.320,0
1582744547.669,33.203,30.762,28.320,23.438,0
1582744547.673,26.367,26.367,27.832,18.555,0
1582744547.677,33.203,22.461,31.738,20.508,0
1582744547.679,45.410,30.273,34.180,33.203,0
1582744547.683,44.434,34.668,32.715,35.645,0
1582744547.687,36.133,29.297,31.250,31.738,0
1582744547.691,28.320,28.809,28.320,31.738,0
1582744547.695,28.320,27.832,23.926,31.250,0
1582744547.699,40.039,23.438,23.438,29.297,0
1582744547.703,39.551,25.879,29.785,28.809,0
1582744547.706,19.531,28.320,29.785,28.809,0
1582744547.710,16.113,23.926,30.273,21.484,0
1582744547.714,15.137,25.879,29.297,11.719,0
1582744547.718,21.973,28.809,26.367,14.160,0
1582744547.722,32.715,26.855,28.320,21.484,0
1582744547.724,30.273,26.367,26.367,26.855,0
1582744547.728,28.320,26.367,26.855,23.438,0
1582744547.732,30.762,24.902,33.203,21.484,0
1582744547.736,34.668,26.855,37.109,29.297,0
1582744547.740,36.133,30.762,37.109,32.227,0
1582744547.744,34.668,32.227,35.645,35.645,0
1582744547.748,31.738,31.738,34.668,22.949,0
1582744547.751,31.738,28.320,36.133,16.113,0
1582744547.755,34.180,26.367,38.086,32.227,0
1582744547.759,39.062,26.855,34.668,40.527,0
1582744547.763,39.062,31.250,33.203,40.039,0
1582744547.767,33.203,30.762,30.762,29.785,0
1582744547.769,38.574,27.832,30.762,32.715,0
1582744547.773,38.574,30.273,32.715,40.039,0
1582744547.777,43.457,30.762,34.668,36.621,0
1582744547.781,40.527,30.273,36.621,37.598,0
1582744547.785,20.996,29.785,33.203,37.109,0
1582744547.789,23.926,30.273,28.809,37.598,0
1582744547.793,28.320,29.785,29.785,36.621,0
1582744547.796,18.555,31.738,29.785,25.879,0
1582744547.800,18.066,33.203,27.344,24.414,0
1582744547.804,16.602,32.715,27.832,29.785,0
1582744547.808,25.879,30.273,30.762,23.438,0
1582744547.812,27.832,28.320,33.691,34.668,0
1582744547.829,22.461,32.715,30.273,35.156,0
1582744547.833,31.250,36.133,27.344,31.738,0
1582744547.837,28.320,31.738,29.785,36.133,0
1582744547.841,26.855,28.320,29.785,35.645,0
1582744547.845,25.391,30.273,30.273,32.227,0
1582744547.849,25.391,33.203,29.785,29.297,0
1582744547.853,24.414,32.715,31.250,30.273,0
1582744547.856,18.066,26.367,30.762,27.344,0
1582744547.860,27.832,27.344,25.879,23.926,0
1582744547.864,23.926,30.273,26.367,24.414,0
1582744547.868,18.555,26.855,31.250,28.320,0
1582744547.872,26.367,20.996,34.668,32.227,0
1582744547.874,29.297,22.949,34.668,29.297,0
1582744547.878,23.438,26.367,35.156,26.367,0
1582744547.882,16.602,28.809,36.133,31.250,0
1582744547.886,21.484,30.273,33.691,37.109,0
1582744547.890,22.949,28.809,31.250,35.156,0
1582744547.894,16.602,29.785,32.227,29.297,0
1582744547.898,19.043,24.902,32.715,27.832,0
1582744547.901,27.344,23.438,30.762,34.180,0
1582744547.905,25.391,25.879,31.738,37.109,0
1582744547.909,25.879,25.879,30.273,25.879,0
1582744547.913,29.785,27.344,29.785,20.508,0
1582744547.917,32.227,29.297,33.691,34.180,0
1582744547.920,36.133,29.785,34.180,38.574,0
1582744547.924,34.668,29.785,30.762,23.438,0
1582744547.928,27.344,30.273,27.832,16.113,0
1582744547.932,25.879,22.949,26.855,17.090,0
1582744547.936,25.391,19.531,27.832,15.137,0
1582744547.940,19.531,21.973,26.855,17.090,0
1582744547.944,19.043,25.879,25.391,14.648,0
1582744547.947,18.555,23.438,31.250,26.367,0
1582744547.951,22.461,18.555,35.156,35.156,0
1582744547.955,22.949,20.996,30.273,20.020,0
1582744547.959,20.020,21.973,30.273,23.438,0
1582744547.963,23.438,21.484,34.668,24.414,0
1582744547.965,22.461,17.090,32.227,16.113,0
1582744547.969,28.809,18.066,28.809,13.672,0
1582744547.973,27.832,21.484,30.273,17.090,0
1582744547.977,25.391,22.949,34.180,28.320,0
1582744547.981,26.367,26.367,35.156,30.273,0
1582744547.985,15.625,26.855,34.180,28.320,0
1582744547.989,16.113,25.391,34.180,30.273,0
1582744547.992,21.973,22.461,34.668,32.715,0
1582744547.996,22.949,25.391,34.668,28.809,0
1582744548.000,26.855,30.273,32.715,23.926,0
1582744548.004,26.855,21.484,34.180,26.855,0
1582744548.008,21.973,21.484,36.133,22.461,0
1582744548.010,20.996,30.762,33.691,23.926,0
1582744548.014,24.414,30.273,32.227,22.461,0
1582744548.018,22.949,25.391,30.762,24.414,0
1582744548.022,25.879,26.855,31.250,33.203,0
1582744548.026,27.344,30.273,33.203,31.250,0
1582744548.030,31.738,25.879,33.203,21.973,0
1582744548.034,24.414,27.832,35.156,19.531,0
1582744548.037,16.113,28.809,34.180,14.648,0
1582744548.041,26.855,26.367,33.691,17.090,0
1582744548.045,33.691,25.879,36.133,27.344,0
1582744548.049,28.320,23.438,33.691,20.508,0
1582744548.053,22.949,25.879,32.227,22.949,0
1582744548.055,23.926,25.879,33.203,24.414,0
1582744548.059,27.344,27.344,34.180,28.320,0
1582744548.063,27.344,29.297,34.180,30.273,0
1582744548.067,30.762,27.832,35.156,29.297,0
1582744548.071,35.645,32.227,35.156,28.320,0
1582744548.075,37.109,31.250,33.203,31.738,0
1582744548.079,31.738,25.879,33.691,37.109,0
1582744548.082,23.926,27.344,33.691,23.926,0
1582744548.086,17.090,27.832,34.180,12.207,0
1582744548.090,22.949,22.949,33.691,23.438,0
1582744548.094,34.180,27.344,33.203,33.691,0
1582744548.098,36.133,29.785,35.156,34.668,0
1582744548.100,35.645,23.926,32.227,25.879,0
1582744548.104,32.227,25.391,34.668,24.902,0
1582744548.108,37.598,28.320,35.645,31.738,0
1582744548.112,38.086,27.832,32.715,33.691,0
1582744548.116,28.809,27.344,29.785,28.809,0
1582744548.120,32.227,20.020,26.855,21.973,0
1582744548.124,29.785,20.996,27.344,21.973,0
1582744548.127,31.738,29.785,32.715,29.297,0
1582744548.131,33.203,27.344,39.062,30.273,0
1582744548.135,28.809,29.297,36.621,28.320,0
1582744548.139,24.902,31.250,37.109,22.949,0
1582744548.143,21.484,24.414,39.062,21.973,0
1582744548.145,26.855,22.461,36.621,26.855,0
1582744548.149,26.367,22.949,35.156,14.160,0
1582744548.153,16.602,24.902,33.691,11.719,0
1582744548.157,12.695,29.297,30.273,22.461,0
1582744548.161,15.625,22.949,28.809,18.555,0
1582744548.165,23.926,19.531,33.691,21.973,0
1582744548.169,24.414,23.438,36.621,19.531,0
1582744548.172,13.672,27.344,38.086,15.137,0
1582744548.176,18.066,29.297,38.086,23.926,0
1582744548.180,25.391,27.832,36.621,23.438,0
1582744548.184,17.578,26.855,41.016,22.461,0
1582744548.188,15.625,28.320,41.504,31.738,0
1582744548.204,22.949,31.738,39.551,31.738,0
1582744548.208,25.879,33.203,38.574,26.367,0
1582744548.212,24.414,33.203,39.551,22.949,0
1582744548.216,30.273,36.133,41.016,20.508,0
1582744548.220,25.391,31.250,42.969,28.320,0
1582744548.224,21.973,27.832,44.922,35.645,0
1582744548.228,28.809,31.250,41.504,22.949,0
1582744548.231,25.879,34.668,40.527,23.926,0
1582744548.235,26.855,34.668,38.086,35.645,0
1582744548.239,26.367,30.762,37.598,33.691,0
1582744548.243,28.320,31.250,38.574,24.414,0
1582744548.247,18.066,24.414,40.527,18.555,0
1582744548.250,21.484,26.855,43.945,26.367,0
1582744548.254,28.320,30.273,43.945,35.156,0
1582744548.258,22.461,22.949,44.922,29.785,0
1582744548.262,23.438,29.785,46.387,27.832,0
1582744548.266,26.855,30.762,44.434,19.043,0
1582744548.270,29.297,19.531,42.969,21.973,0
1582744548.274,29.297,22.949,43.945,26.855,0
1582744548.277,33.203,32.715,48.828,15.625,0
1582744548.281,41.504,32.227,49.805,15.625,0
1582744548.285,54.199,31.250,44.434,9.766,0
1582744548.289,49.316,31.250,42.969,3.418,0
1582744548.293,43.945,28.320,46.387,8.301,0
1582744548.295,48.828,26.367,47.363,15.625,0
1582744548.299,32.227,25.391,47.852,26.367,0
1582744548.303,17.090,24.902,51.758,30.762,0
1582744548.307,9.277,20.996,56.641,31.250,0
1582744548.311,-1.465,20.020,57.129,33.203,0
1582744548.315,2.441,27.832,55.176,37.598,0
1582744548.319,17.090,24.414,52.246,45.410,0
1582744548.322,12.695,20.020,49.805,34.668,0
1582744548.326,10.254,24.902,49.316,17.578,0
1582744548.330,22.949,23.438,47.852,27.832,0
1582744548.334,19.531,28.809,47.363,26.367,0
1582744548.338,15.625,34.180,46.387,20.508,0
1582744548.340,25.879,34.180,47.363,23.438,0
1582744548.344,31.738,28.809,49.316,23.438,0
1582744548.348,34.668,22.461,50.781,36.621,0
1582744548.352,37.598,27.344,51.758,40.039,0
1582744548.356,33.691,31.250,48.340,26.367,0
1582744548.360,28.320,30.762,41.504,20.996,0
1582744548.364,26.367,30.273,42.480,23.438,0
1582744548.367,32.715,30.762,46.387,29.297,0
1582744548.371,40.527,25.879,49.805,27.344,0
1582744548.375,33.691,23.438,50.293,23.438,0
1582744548.379,31.738,23.926,48.828,26.855,0
1582744548.383,33.203,23.438,47.852,23.438,0
1582744548.385,30.273,27.344,45.898,18.555,0
1582744548.389,32.227,28.320,49.316,24.414,0
1582744548.393,37.109,31.250,49.316,27.832,0
1582744548.397,35.156,36.133,42.969,30.273,0
1582744548.401,33.203,33.203,40.527,29.297,0
1582744548.405,34.180,28.809,41.016,28.809,0
1582744548.409,39.551,29.297,41.016,32.227,0
1582744548.412,37.598,34.180,42.480,31.738,0
1582744548.416,28.809,34.180,41.016,31.250,0
1582744548.420,31.250,25.879,39.062,26.855,0
1582744548.424,34.668,26.855,37.598,28.320,0
1582744548.428,31.738,30.273,36.621,36.133,0
1582744548.429,29.297,23.438,38.574,34.180,0
1582744548.433,32.227,17.090,41.504,29.785,0
1582744548.437,30.762,25.879,43.945,25.391,0
1582744548.441,31.250,29.785,44.922,29.785,0
1582744548.445,27.832,23.926,42.480,33.203,0
1582744548.449,28.809,28.320,41.992,30.762,0
1582744548.453,40.527,30.762,40.527,28.809,0
1582744548.456,28.809,22.949,34.668,19.531,0
1582744548.460,23.926,26.367,32.715,22.461,0
1582744548.464,30.273,31.738,35.645,23.926,0
1582744548.468,27.832,25.391,38.574,18.066,0
1582744548.472,29.297,20.996,38.574,18.066,0
1582744548.474,28.809,22.949,41.016,22.461,0
1582744548.478,31.250,27.344,38.574,20.508,0
1582744548.482,31.250,26.367,33.691,15.137,0
1582744548.486,34.180,26.855,38.574,13.184,0
1582744548.490,39.551,26.855,40.527,13.672,0
1582744548.494,27.344,25.879,38.086,18.555,0
1582744548.498,16.113,28.809,37.109,18.066,0
1582744548.501,13.184,33.203,33.691,12.695,0
1582744548.505,22.949,32.227,38.574,20.996,0
1582744548.509,33.203,32.227,47.363,30.762,0
1582744548.513,22.461,33.203,41.016,24.414,0
1582744548.517,25.391,28.320,35.645,25.879,0
1582744548.519,43.457,26.855,39.062,30.273,0
1582744548.523,42.480,34.668,37.109,32.227,0
1582744548.527,44.922,33.691,35.645,39.551,0
1582744548.531,42.480,28.320,36.133,35.645,0
1582744548.535,32.715,25.879,34.668,21.484,0
1582744548.539,30.762,29.785,34.180,29.297,0
1582744548.543,23.926,36.621,34.668,34.180,0
1582744548.546,23.438,35.156,35.645,25.391,0
1582744548.550,20.996,29.785,36.133,28.320,0
1582744548.554,20.020,30.762,34.180,30.762,0
1582744548.558,25.391,28.809,33.691,29.785,0
1582744548.562,20.020,27.344,36.133,25.879,0
1582744548.579,13.672,32.715,34.668,18.066,0
1582744548.583,12.695,29.297,35.156,25.879,0
1582744548.587,12.695,29.297,33.203,28.809,0
1582744548.591,18.555,29.297,27.344,26.367,0
1582744548.595,16.602,25.391,32.715,25.391,0
1582744548.599,14.160,35.645,40.039,14.160,0
1582744548.603,20.508,40.039,40.527,17.090,0
1582744548.606,18.066,30.762,41.016,28.320,0
1582744548.610,23.926,28.809,40.039,33.203,0
1582744548.614,28.809,32.227,40.527,36.133,0
1582744548.618,24.414,31.250,41.016,33.691,0
1582744548.622,27.344,30.273,39.551,32.227,0
1582744548.624,25.879,30.273,37.598,32.715,0
1582744548.628,22.461,25.391,41.016,36.621,0
1582744548.632,25.391,21.973,44.922,31.250,0
1582744548.636,23.438,22.461,42.969,27.344,0
1582744548.640,26.367,28.320,41.504,28.809,0
1582744548.644,32.227,32.227,42.480,24.414,0
1582744548.648,31.250,31.738,41.504,32.227,0
1582744548.651,32.227,36.621,41.504,36.133,15450
1582744548.655,27.832,34.180,40.527,31.250,0
1582744548.659,26.367,26.855,38.086,27.832,0
1582744548.663,16.113,22.461,39.551,29.785,0
1582744548.667,14.160,16.113,42.480,36.621,0
1582744548.669,26.367,22.461,41.992,43.945,0
1582744548.673,35.645,29.785,41.504,45.898,0
1582744548.677,29.297,28.809,37.598,31.738,0
1582744548.681,23.438,29.297,33.203,28.320,0
1582744548.685,26.367,29.785,35.645,30.762,0
1582744548.689,23.438,27.832,35.645,21.484,0
1582744548.693,19.043,26.855,36.133,18.555,0
1582744548.696,16.113,24.414,39.551,29.297,0
1582744548.700,20.508,25.879,38.086,27.832,0
1582744548.704,22.461,22.949,35.645,19.531,0
1582744548.708,19.531,14.160,32.715,18.066,0
1582744548.712,26.367,13.184,30.273,20.508,0
1582744548.714,30.273,21.484,30.273,26.855,0
1582744548.718,28.809,29.297,33.203,27.344,0
1582744548.722,24.902,30.762,33.691,29.785,0
1582744548.726,25.391,30.273,31.738,27.832,0
1582744548.730,25.879,26.855,30.273,26.367,0
1582744548.734,25.879,26.367,32.227,27.832,0
1582744548.738,31.250,27.344,35.156,25.391,0
1582744548.741,27.344,33.203,34.180,21.484,0
1582744548.745,27.832,33.691,38.574,20.508,0
1582744548.749,28.809,25.879,42.969,31.738,0
1582744548.753,30.762,26.855,42.969,35.156,0
1582744548.757,34.180,30.762,40.039,28.320,0
1582744548.759,28.809,30.273,42.969,31.738,0
1582744548.763,25.391,29.785,37.109,31.250,0
1582744548.767,21.973,28.320,25.879,23.926,0
1582744548.771,22.461,25.391,23.438,24.902,0
1582744548.775,27.344,22.949,25.391,24.902,0
1582744548.779,21.484,15.137,28.809,18.066,0
1582744548.783,17.090,15.137,29.785,17.578,0
1582744548.786,21.973,14.648,31.250,18.555,0
1582744548.790,20.020,15.137,28.809,15.625,0
1582744548.794,18.555,24.414,24.414,21.484,0
1582744548.798,24.414,28.320,28.320,24.902,0
1582744548.802,21.484,26.367,29.785,24.414,0
1582744548.804,14.160,26.855,27.832,23.438,0
1582744548.808,16.113,29.297,32.715,26.855,0
1582744548.812,22.949,28.320,32.715,26.367,0
1582744548.816,26.855,27.344,27.832,18.066,0
1582744548.820,25.391,27.344,29.785,20.508,0
1582744548.824,25.879,25.391,31.738,25.879,0
1582744548.828,33.203,26.367,32.715,29.785,0
1582744548.831,32.227,30.273,32.227,26.367,0
1582744548.835,24.902,28.809,33.203,21.484,0
1582744548.839,24.414,25.391,33.691,21.484,0
1582744548.843,29.297,29.785,31.250,21.973,0
1582744548.847,27.344,34.180,35.156,25.879,0
1582744548.849,28.320,29.785,35.645,19.531,0
1582744548.853,18.555,27.344,33.203,17.578,0
1582744548.857,21.973,29.297,33.691,19.531,0
1582744548.861,29.297,28.320,28.809,20.508,0
1582744548.865,18.555,26.367,28.320,20.996,0
1582744548.869,20.508,27.344,28.809,17.090,0
1582744548.873,27.344,30.762,27.344,22.461,0
1582744548.876,31.738,31.738,32.715,27.832,0
1582744548.880,32.715,27.344,35.156,28.320,0
1582744548.884,30.762,26.367,33.203,30.273,0
1582744548.888,33.203,30.273,29.297,28.809,0
1582744548.892,33.691,29.785,29.785,29.297,0
1582744548.894,26.855,23.438,36.133,29.297,0
1582744548.898,30.273,24.414,35.156,22.461,0
1582744548.902,36.621,27.344,33.203,19.043,0
1582744548.906,43.457,22.949,34.668,26.367,0
1582744548.910,39.551,23.438,35.156,36.621,0
1582744548.914,23.438,20.996,36.621,26.855,0
1582744548.918,25.879,24.902,34.668,19.043,0
1582744548.921,31.738,28.320,29.297,21.973,0
1582744548.925,26.855,22.461,28.320,28.809,0
1582744548.929,30.762,18.066,28.809,25.391,0
1582744548.933,28.809,23.926,28.320,20.996,0
1582744548.937,22.461,30.273,26.855,23.926,0
1582744548.954,23.926,32.227,26.367,28.809,0
1582744548.958,33.203,31.738,30.273,34.180,0
1582744548.962,30.273,25.879,32.715,34.180,0
1582744548.966,23.926,25.879,30.762,29.785,0
1582744548.970,26.855,30.273,28.320,26.367,0
1582744548.974,22.949,23.926,28.809,22.461,0
1582744548.978,12.695,16.602,29.785,15.625,0
1582744548.981,12.207,20.508,28.809,17.090,0
1582744548.985,25.879,26.855,30.273,26.855,0
1582744548.989,31.250,28.320,35.645,30.273,0
1582744548.993,28.809,24.414,36.133,22.461,0
1582744548.997,23.438,21.973,31.738,23.926,0
1582744549.015,16.602,20.996,33.203,28.809,0
1582744549.019,20.996,19.531,35.156,27.832,0
1582744549.023,26.855,22.949,33.203,28.809,0
1582744549.027,22.461,24.414,31.738,22.949,0
1582744549.031,23.926,21.484,33.203,26.367,0
1582744549.035,25.391,23.438,30.273,31.250,0
1582744549.039,19.043,22.461,28.320,23.926,0
1582744549.042,17.578,16.602,35.156,20.508,0
1582744549.046,20.020,21.484,36.621,25.879,0
1582744549.050,21.973,26.855,32.227,16.113,0
1582744549.054,21.484,26.855,31.250,14.648,0
1582744549.058,27.344,26.367,34.180,18.066,0
1582744549.045,43.457,25.879,36.133,5.371,0
1582744549.049,55.176,27.344,36.133,5.859,0
1582744549.053,53.711,28.809,36.133,11.230,0
1582744549.057,53.711,27.344,31.738,6.836,0
1582744549.061,52.246,23.926,32.227,5.859,0
1582744549.065,48.340,21.484,34.180,20.020,0
1582744549.069,28.809,16.602,35.645,43.945,0
1582744549.072,12.207,13.184,40.039,50.293,0
1582744549.076,6.836,18.555,39.551,38.574,0
1582744549.080,7.324,19.043,37.109,34.668,0
1582744549.084,14.160,21.973,38.574,39.062,0
1582744549.088,15.137,21.973,38.086,34.668,0
1582744549.089,11.719,18.555,36.621,26.367,0
1582744549.093,13.184,26.855,33.203,18.555,0
1582744549.097,20.508,28.320,31.250,26.367,0
1582744549.101,18.066,19.043,34.180,29.297,0
1582744549.105,23.438,22.949,31.738,21.484,0
1582744549.109,28.320,21.484,30.762,15.137,0
1582744549.113,23.926,11.230,33.691,20.508,0
1582744549.116,23.926,14.648,33.691,30.273,0
1582744549.120,25.879,22.461,32.715,21.973,0
1582744549.124,23.438,24.902,31.738,20.996,0
1582744549.128,27.832,27.344,31.250,27.832,0
1582744549.132,29.297,28.320,33.691,31.738,0
1582744549.134,26.855,28.320,34.668,28.320,0
1582744549.138,25.391,28.320,34.668,24.902,0
1582744549.142,24.414,25.879,35.645,33.203,0
1582744549.146,24.902,21.484,33.691,31.250,0
1582744549.150,22.949,23.438,31.738,27.832,0
1582744549.154,17.090,26.855,35.645,29.785,0
1582744549.158,23.438,25.879,36.621,28.320,0
1582744549.161,28.320,23.438,34.180,25.391,0
1582744549.165,28.809,21.973,31.738,19.043,0
1582744549.169,28.809,22.461,33.203,20.996,0
1582744549.173,29.785,24.902,31.250,27.832,0
1582744549.177,27.344,26.855,30.762,32.227,0
1582744549.180,20.508,26.367,30.762,26.855,0
1582744549.184,28.809,25.879,31.250,26.367,0
1582744549.188,30.273,29.297,34.180,27.832,0
1582744549.192,26.367,28.809,32.715,29.297,0
1582744549.196,34.180,24.414,27.832,31.738,0
1582744549.200,29.785,23.438,24.414,29.785,0
1582744549.204,23.438,20.508,25.391,25.879,0
1582744549.207,31.738,17.090,27.832,24.414,0
1582744549.211,40.039,24.902,27.832,30.273,0
1582744549.215,27.344,33.203,26.367,34.668,0
1582744549.219,19.531,30.762,26.855,26.367,0
1582744549.223,30.762,26.367,28.320,25.391,0
1582744549.225,34.180,22.949,29.297,29.297,0
1582744549.229,34.180,24.902,25.879,23.926,0
1582744549.233,28.320,25.391,25.391,17.090,0
1582744549.237,23.438,22.949,28.809,16.602,0
1582744549.241,22.461,21.973,29.297,21.973,0
1582744549.245,30.762,19.043,28.809,26.855,0
1582744549.249,38.574,20.020,26.855,24.414,0
1582744549.252,36.133,20.996,27.832,20.020,0
1582744549.256,39.551,22.949,29.297,27.344,0
1582744549.260,31.738,23.926,28.320,28.809,0
1582744549.264,27.344,17.090,27.344,24.902,0
1582744549.268,35.156,16.602,28.320,26.367,0
1582744549.270,34.180,23.926,26.855,22.461,0
1582744549.274,37.109,25.879,27.832,26.367,0
1582744549.278,39.062,25.879,33.691,32.227,0
1582744549.282,33.691,26.367,34.668,30.273,0
1582744549.286,28.320,25.879,34.668,28.320,0
1582744549.290,32.715,23.926,37.598,32.227,0
1582744549.294,41.016,22.461,33.203,35.645,0
1582744549.297,43.945,24.902,27.832,32.227,0
1582744549.301,38.086,31.250,30.762,29.785,0
1582744549.305,26.367,28.809,32.715,30.273,0
1582744549.309,26.855,28.320,29.785,31.738,0
1582744549.313,29.297,28.809,29.785,35.156,0
1582744549.330,22.949,25.391,29.297,31.738,0
1582744549.334,19.043,23.926,29.785,24.414,0
1582744549.338,16.113,21.484,29.785,25.879,0
1582744549.342,13.672,23.926,27.832,22.949,0
1582744549.346,19.531,31.250,31.250,21.973,0
1582744549.350,22.461,31.738,33.691,25.879,0
1582744549.354,25.391,27.344,36.133,27.832,0
1582744549.357,31.738,32.715,36.133,35.645,0
1582744549.361,28.809,35.645,31.250,33.691,0
1582744549.365,28.320,31.738,33.691,29.297,0
1582744549.369,29.297,33.203,33.691,29.297,0
1582744549.373,24.414,32.715,31.250,32.227,0
1582744549.375,18.066,27.832,33.691,34.668,0
1582744549.379,15.137,24.414,32.715,21.973,0
1582744549.383,19.531,21.973,29.785,16.602,0
1582744549.387,26.855,21.973,33.203,23.926,0
1582744549.391,28.320,28.809,39.062,27.832,0
1582744549.395,23.926,23.438,40.527,23.438,0
1582744549.399,28.320,21.484,36.621,20.996,0
1582744549.402,13.184,31.738,34.668,27.832,0
1582744549.406,11.230,31.250,34.668,23.438,0
1582744549.410,16.602,28.809,37.598,13.184,0
1582744549.414,9.277,24.414,41.504,16.602,0
1582744549.418,16.113,22.461,37.598,31.250,0
1582744549.420,20.996,23.926,34.180,30.273,0
1582744549.424,28.320,25.391,35.645,18.066,0
1582744549.428,22.949,29.785,38.086,25.391,0
1582744549.432,20.020,35.645,37.109,36.621,0
1582744549.436,27.344,28.809,35.645,33.691,0
1582744549.440,30.762,21.973,33.203,30.273,0
1582744549.444,26.367,26.367,30.762,21.484,0
1582744549.447,18.555,27.344,33.203,20.020,0
1582744549.451,20.020,25.879,30.762,24.414,0
1582744549.455,21.484,25.391,29.785,18.555,0
1582744549.459,19.043,21.973,29.297,15.137,0
1582744549.463,24.902,22.461,26.367,17.578,0
1582744549.464,21.973,22.461,30.762,18.066,0
1582744549.468,13.184,21.973,28.809,13.672,0
1582744549.472,19.043,26.367,24.902,9.277,0
1582744549.476,20.508,27.344,30.762,8.301,0
1582744549.480,22.949,28.809,36.133,21.484,0
1582744549.484,17.578,30.273,35.645,30.273,0
1582744549.488,14.160,24.902,34.668,19.531,0
1582744549.491,19.531,23.926,33.203,15.137,0
1582744549.495,29.297,26.855,31.250,22.949,0
1582744549.499,23.926,24.414,34.180,26.855,0
1582744549.503,17.090,23.926,36.133,26.855,0
1582744549.507,31.250,29.297,31.738,24.902,0
1582744549.509,36.133,30.273,29.785,25.391,0
1582744549.513,31.738,23.926,30.273,35.156,0
1582744549.517,30.273,20.996,26.855,34.668,0
1582744549.521,37.598,25.391,29.785,32.715,0
1582744549.525,34.668,25.879,36.133,36.621,0
1582744549.529,21.973,27.832,35.156,38.086,0
1582744549.533,26.855,27.344,29.785,40.039,0
1582744549.536,30.273,21.484,28.809,35.156,0
1582744549.540,21.484,22.949,28.809,22.461,0
1582744549.544,24.414,23.438,27.832,20.508,0
1582744549.548,27.832,25.391,30.273,28.809,0
1582744549.552,25.879,32.227,29.785,29.297,0
1582744549.554,24.414,32.227,29.297,24.414,0
1582744549.558,22.461,27.832,27.344,27.832,0
1582744549.562,24.414,24.414,25.879,25.879,0
1582744549.566,22.461,25.879,27.832,21.484,0
1582744549.570,24.902,27.344,25.879,20.996,0
1582744549.574,26.855,27.832,26.855,23.926,0
1582744549.578,25.879,28.320,28.809,33.691,0
1582744549.581,25.879,24.902,29.785,28.809,0
1582744549.585,21.973,22.461,29.785,20.020,0
1582744549.589,28.809,21.973,31.738,35.645,0
1582744549.593,32.227,27.344,31.250,35.645,0
1582744549.597,30.762,28.320,28.809,26.855,0
1582744549.599,28.320,22.949,31.250,27.344,0
1582744549.603,24.902,21.484,33.691,22.949,0
1582744549.607,36.133,24.902,33.203,32.715,0
1582744549.611,36.133,29.297,32.227,35.156,0
1582744549.615,25.391,27.344,31.738,23.438,0
1582744549.619,23.926,23.926,32.715,24.414,0
1582744549.623,23.926,24.902,35.156,34.180,0
1582744549.626,24.902,30.273,35.156,39.551,0
1582744549.630,29.785,30.273,30.273,36.133,0
1582744549.634,27.832,29.785,28.809,27.832,0
1582744549.638,24.902,32.715,33.203,22.461,0
1582744549.642,26.367,30.273,36.133,29.785,0
1582744549.644,32.715,26.855,32.715,28.809,0
1582744549.648,37.109,29.785,30.273,21.973,0
1582744549.652,31.738,30.273,32.715,23.926,0
1582744549.656,27.344,26.855,30.762,22.461,0
1582744549.660,28.809,27.832,27.832,22.949,0
1582744549.664,29.297,27.832,26.367,20.020,18501
1582744549.668,21.484,28.809,26.855,5.859,0
1582744549.671,19.531,28.809,29.297,12.695,0
1582744549.675,28.809,25.879,28.320,27.832,0
1582744549.679,29.297,24.902,28.809,22.461,0
1582744549.683,22.949,26.367,32.227,27.832,0
1582744549.687,33.691,26.367,34.180,36.621,0
1582744549.704,41.992,26.855,33.203,40.039,0
1582744549.708,38.574,26.855,28.809,33.203,0
1582744549.712,28.320,21.484,31.250,26.367,0
1582744549.716,24.902,22.949,36.133,27.832,0
1582744549.720,26.855,31.738,37.109,34.180,0
1582744549.724,25.879,35.645,37.109,34.668,0
1582744549.728,18.555,31.250,34.180,20.020,0
1582744549.731,18.066,29.785,31.738,23.926,0
1582744549.735,25.879,30.273,29.785,30.273,0
1582744549.739,28.809,27.832,25.391,19.531,0
1582744549.743,21.484,21.484,29.297,22.461,0
1582744549.747,20.508,20.508,37.109,25.391,0
1582744549.749,25.391,25.879,35.645,24.902,0
1582744549.753,22.949,22.949,34.668,39.062,0
1582744549.757,25.879,21.973,34.668,32.715,0
1582744549.761,23.926,23.926,34.180,25.879,0
1582744549.765,13.672,21.973,34.668,27.832,0
1582744549.769,20.508,24.414,31.250,31.250,0
1582744549.773,28.809,28.809,32.715,35.156,0
1582744549.776,19.531,29.785,30.273,28.809,0
1582744549.780,26.855,31.738,27.832,34.180,0
1582744549.784,35.645,30.273,28.809,33.691,0
1582744549.788,29.785,23.438,29.785,28.809,0
1582744549.792,26.855,23.926,31.738,25.391,0
1582744549.794,24.414,28.809,30.273,18.555,0
1582744549.798,22.949,26.367,32.227,29.297,0
1582744549.802,23.926,28.809,34.668,34.668,0
1582744549.806,27.344,37.109,30.273,22.949,0
1582744549.810,30.273,35.645,33.691,22.949,0
1582744549.814,35.645,34.668,37.598,24.414,0
1582744549.818,31.738,34.180,37.598,20.020,0
1582744549.821,38.574,33.691,32.227,9.277,0
1582744549.825,51.270,36.133,26.855,-4.883,0
1582744549.829,48.340,35.156,27.344,-3.418,0
1582744549.833,46.387,32.715,27.832,6.348,0
1582744549.837,35.156,34.180,30.273,11.719,0
1582744549.839,24.902,30.273,28.809,21.484,0
1582744549.843,15.137,18.555,27.344,28.320,0
1582744549.847,7.324,14.648,32.227,26.855,0
1582744549.851,13.672,25.391,33.203,29.785,0
1582744549.855,11.230,25.879,34.668,31.250,0
1582744549.859,2.441,21.484,36.621,25.391,0
1582744549.863,0.977,29.297,28.809,30.762,0
1582744549.866,-2.441,31.250,32.715,34.668,0
1582744549.870,7.324,32.715,39.062,27.832,0
1582744549.874,14.160,35.645,36.621,19.531,0
1582744549.878,18.555,34.668,33.203,20.508,0
1582744549.882,24.414,32.715,29.297,24.414,0
1582744549.884,24.414,26.855,30.762,27.344,0
1582744549.888,29.297,32.715,29.785,20.508,0
1582744549.892,27.832,37.598,28.320,18.555,0
1582744549.896,29.297,37.598,28.320,26.367,0
1582744549.900,31.738,35.645,32.227,28.320,0
1582744549.904,30.273,35.645,39.062,23.926,0
1582744549.908,33.203,37.598,35.645,24.902,0
1582744549.911,31.738,32.227,35.645,30.762,0
1582744549.915,24.902,31.738,35.645,30.762,0
1582744549.919,30.273,31.250,29.297,23.438,0
1582744549.923,35.156,29.785,31.250,27.344,0
1582744549.927,29.785,29.297,33.691,35.645,0
1582744549.930,26.855,26.367,28.320,29.785,0
1582744549.934,27.832,28.320,26.855,25.391,0
1582744549.938,30.762,28.320,30.273,20.996,0
1582744549.942,32.715,24.902,30.762,20.020,0
1582744549.946,34.180,30.273,26.367,25.391,0
1582744549.950,28.320,29.297,25.879,27.832,0
1582744549.954,21.484,26.367,29.785,20.020,0
1582744549.957,24.414,31.738,27.832,14.648,0
1582744549.961,18.066,25.391,25.391,21.484,0
1582744549.965,14.160,21.973,26.367,24.414,0
1582744549.969,28.809,28.320,26.855,19.043,0
1582744549.973,38.086,26.367,27.344,22.949,0
1582744549.974,33.203,23.926,25.879,26.855,0
1582744549.978,34.668,23.926,26.367,28.320,0
1582744549.982,32.715,27.832,27.344,27.344,0
1582744549.986,26.855,33.203,27.344,19.043,0
1582744549.990,22.949,33.203,21.484,6.348,0
1582744549.994,18.066,33.691,23.926,11.719,0
1582744549.998,18.066,34.668,31.738,21.484,0
1582744550.001,18.066,30.273,27.832,19.043,0
1582744550.005,20.020,31.250,28.809,22.949,0
1582744550.009,27.344,35.156,35.156,24.902,0
1582744550.013,28.320,30.273,35.156,24.902,0
1582744550.017,25.391,27.832,34.668,20.508,0
1582744550.020,28.320,27.344,32.715,16.113,0
1582744550.024,23.438,31.250,31.250,21.973,0
1582744550.028,16.602,29.297,33.203,17.578,0
1582744550.032,19.043,22.461,28.809,11.719,0
1582744550.036,18.066,22.949,29.785,9.277,0
1582744550.040,18.555,29.785,33.691,6.348,0
1582744550.044,20.996,32.227,30.762,9.766,0
1582744550.047,22.949,29.297,26.855,4.883,0
1582744550.051,28.320,27.832,24.902,5.859,0
1582744550.055,33.203,31.250,25.879,14.160,0
1582744550.059,31.738,32.227,28.320,21.973,0
1582744550.063,29.785,25.879,28.809,26.367,0
1582744550.080,30.273,22.949,29.785,23.926,0
1582744550.084,31.738,24.414,29.785,25.879,0
1582744550.088,28.809,20.996,30.762,29.297,0
1582744550.092,23.438,20.996,27.832,26.367,0
1582744550.096,16.602,23.926,26.367,20.508,0
1582744550.100,17.090,23.438,31.738,18.555,0
1582744550.104,32.227,26.855,32.715,22.949,0
1582744550.107,25.391,26.855,29.785,30.762,0
1582744550.111,17.578,22.461,31.250,30.273,0
1582744550.115,20.996,24.414,31.738,28.809,0
1582744550.119,18.555,26.367,31.738,27.832,0
1582744550.123,20.508,24.414,31.250,26.855,0
1582744550.124,26.855,23.926,31.250,31.738,0
1582744550.128,24.902,28.320,31.738,25.879,0
1582744550.132,23.438,27.832,32.227,26.855,0
1582744550.136,30.273,25.391,34.180,37.598,0
1582744550.140,26.855,30.273,33.203,38.086,0
1582744550.144,20.020,34.668,29.785,37.598,0
1582744550.148,27.832,34.180,29.297,34.668,0
1582744550.151,26.367,31.738,28.809,31.738,0
1582744550.155,24.902,27.344,27.832,31.738,0
1582744550.159,30.762,26.855,27.832,26.855,0
1582744550.163,28.320,30.273,25.879,31.250,0
1582744550.167,25.391,29.297,27.344,31.250,0
1582744550.169,26.367,26.855,32.715,31.250,0
1582744550.173,26.855,27.832,33.691,28.809,0
1582744550.177,33.203,28.320,35.645,28.320,0
1582744550.181,31.250,30.273,38.086,31.738,0
1582744550.185,28.320,34.668,34.180,31.250,0
1582744550.189,22.949,31.738,33.691,32.227,0
1582744550.193,23.438,28.320,36.621,24.902,0
1582744550.196,30.273,32.715,34.180,25.879,0
1582744550.200,27.344,35.645,34.180,35.645,0
1582744550.204,22.461,31.250,34.668,29.785,0
1582744550.208,21.973,26.367,32.715,25.879,0
1582744550.212,24.902,28.809,32.715,25.879,0
1582744550.215,21.484,35.645,32.715,29.297,0
1582744550.219,21.484,40.039,33.691,32.715,0
1582744550.223,25.879,39.062,35.645,28.809,0
1582744550.227,25.391,36.621,34.180,27.344,0
1582744550.231,23.926,31.250,32.715,29.785,0
1582744550.235,24.414,28.809,33.203,31.738,0
1582744550.239,20.020,33.203,33.691,23.926,0
1582744550.242,18.555,34.180,33.203,24.902,0
1582744550.246,28.809,30.762,33.691,29.785,0
1582744550.250,33.203,27.832,31.738,30.762,0
1582744550.254,20.020,28.320,29.297,26.855,0
1582744550.258,17.578,26.855,31.738,23.438,0
1582744550.260,27.344,23.438,30.762,21.484,0
1582744550.264,36.621,21.973,30.273,30.273,0
1582744550.268,26.855,25.879,34.180,28.320,0
1582744550.272,20.020,31.250,33.203,15.625,0
1582744550.276,25.391,34.668,34.180,19.531,0
1582744550.280,25.879,33.203,37.109,28.320,0
1582744550.284,21.973,27.832,33.691,35.156,0
1582744550.287,17.578,24.902,31.250,24.902,0
1582744550.291,17.578,25.879,32.227,9.277,0
1582744550.295,17.578,27.832,33.203,18.066,0
1582744550.299,19.043,26.367,31.250,27.832,0
1582744550.303,19.043,23.438,30.762,28.320,0
1582744550.305,29.785,23.438,30.273,24.902,0
1582744550.309,27.344,24.414,28.320,25.879,0
1582744550.313,15.137,27.832,29.785,28.809,0
1582744550.317,24.414,30.762,32.227,33.203,0
1582744550.321,26.855,31.250,26.855,27.344,0
1582744550.325,15.625,28.809,25.879,25.879,0
1582744550.329,23.926,25.879,28.809,30.762,0
1582744550.332,29.297,25.391,26.855,30.273,0
1582744550.336,21.973,24.902,30.762,26.855,0
1582744550.340,25.879,23.438,34.180,27.832,0
1582744550.344,19.531,24.902,34.668,24.902,0
1582744550.348,18.555,28.809,30.762,26.367,0
1582744550.365,25.879,27.832,30.273,28.320,0
1582744550.369,25.391,28.809,32.715,29.297,0
1582744550.373,17.090,23.926,34.180,32.715,0
1582744550.377,22.949,21.484,34.668,33.203,0
1582744550.381,35.645,32.715,34.180,32.227,0
1582744550.385,30.273,33.203,31.250,22.949,0
1582744550.389,26.855,30.762,29.297,22.949,0
1582744550.392,29.785,32.715,28.809,29.785,0
1582744550.396,31.250,37.598,29.297,30.762,0
1582744550.400,32.715,38.574,30.273,26.367,0
1582744550.404,35.156,37.598,30.273,26.855,0
1582744550.408,35.645,32.715,30.762,29.785,0
1582744550.395,36.621,27.832,30.762,32.715,0
1582744550.399,33.691,30.762,35.645,30.762,0
1582744550.403,27.832,36.133,35.156,27.344,0
1582744550.407,33.691,37.598,31.250,24.414,0
1582744550.411,38.086,30.762,29.785,25.391,0
1582744550.415,35.645,26.855,28.809,29.297,0
1582744550.419,27.344,26.367,26.367,15.137,0
1582744550.422,16.602,28.320,24.902,7.812,0
1582744550.426,23.926,31.250,30.273,23.438,0
1582744550.430,26.367,25.879,34.668,30.273,0
1582744550.434,19.043,18.555,30.273,12.207,0
1582744550.438,21.484,23.438,27.344,8.301,0
1582744550.454,26.855,31.250,27.832,20.996,0
1582744550.458,23.926,31.738,27.344,16.602,0
1582744550.462,17.090,28.320,28.809,12.207,0
1582744550.466,15.625,25.879,28.320,19.043,0
1582744550.470,14.160,26.855,30.273,27.832,0
1582744550.474,19.043,27.344,32.715,30.273,0
1582744550.478,19.043,28.320,33.691,23.926,0
1582744550.481,11.719,31.738,32.715,17.090,0
1582744550.485,13.672,29.297,30.762,23.438,0
1582744550.489,24.414,24.902,33.691,28.809,0
1582744550.493,23.438,25.879,31.738,24.414,0
1582744550.497,15.625,27.344,29.785,28.320,0
1582744550.499,20.508,25.879,28.809,24.414,0
1582744550.503,22.949,27.344,26.855,20.508,0
1582744550.507,16.113,26.855,30.762,27.832,0
1582744550.511,15.137,24.902,34.668,25.391,0
1582744550.515,23.438,25.879,35.645,24.414,0
1582744550.519,24.902,22.949,37.109,26.367,0
1582744550.523,13.184,24.902,35.645,23.926,0
1582744550.526,13.184,26.855,33.691,15.137,0
1582744550.530,25.391,27.344,34.668,20.996,0
1582744550.534,38.086,24.902,34.180,23.438,0
1582744550.538,38.086,23.926,29.785,16.602,0
1582744550.542,16.113,27.832,30.762,19.531,0
1582744550.544,-2.441,27.832,33.203,22.949,0
1582744550.548,2.930,27.832,30.762,21.484,0
1582744550.552,14.160,30.762,32.227,22.461,0
1582744550.556,18.555,34.180,31.250,17.578,0
1582744550.560,17.578,35.156,26.855,8.301,0
1582744550.564,25.879,30.762,25.391,6.836,0
1582744550.568,43.945,32.227,24.414,8.301,0
1582744550.571,49.316,33.203,23.926,5.859,0
1582744550.575,49.805,32.715,21.484,4.395,0
1582744550.579,50.781,36.133,24.414,17.578,0
1582744550.583,40.039,28.809,28.809,30.273,0
1582744550.587,24.414,25.879,32.715,37.598,0
1582744550.604,15.137,30.273,32.227,33.691,0
1582744550.608,8.301,30.273,32.227,31.250,0
1582744550.612,10.254,34.668,34.180,40.039,0
1582744550.616,13.672,37.109,30.273,40.527,0
1582744550.620,11.719,34.668,31.250,29.785,0
1582744550.624,15.137,32.227,33.691,27.832,0
1582744550.628,15.137,31.250,32.227,34.180,0
1582744550.631,22.949,29.785,29.785,33.203,0
1582744550.635,28.809,29.297,29.785,17.090,0
1582744550.639,26.855,27.832,30.762,19.531,0
1582744550.643,28.809,31.250,28.809,27.832,0
1582744550.647,28.320,32.227,28.809,27.832,0
1582744550.634,30.273,26.855,30.762,28.320,0
1582744550.638,26.367,29.785,31.250,17.578,0
1582744550.642,18.555,30.762,31.738,21.484,0
1582744550.646,12.207,31.250,28.320,23.926,0
1582744550.650,13.184,35.156,29.297,27.344,0
1582744550.654,26.367,32.227,33.203,31.250,0
1582744550.658,23.926,21.484,33.203,19.043,0
1582744550.661,18.555,16.602,31.738,20.996,0
1582744550.665,27.832,23.438,31.250,23.926,0
1582744550.669,29.297,31.738,30.762,22.461,0
1582744550.673,30.273,38.574,29.785,21.484,0
1582744550.677,23.438,35.156,28.809,22.949,0
1582744550.679,20.020,33.203,29.297,23.438,0
1582744550.683,33.691,32.227,30.762,24.902,0
1582744550.687,40.039,28.809,28.320,26.855,0
1582744550.691,32.227,31.250,28.809,21.484,0
1582744550.695,21.973,27.344,34.668,21.973,0
1582744550.699,31.738,20.996,35.645,27.344,0
1582744550.703,30.762,20.020,37.109,21.484,0
1582744550.706,29.785,21.973,34.668,15.625,0
1582744550.710,31.738,27.344,30.762,23.438,0
1582744550.714,28.320,29.297,34.180,29.785,0
1582744550.718,26.855,24.414,35.156,23.438,0
1582744550.722,26.367,20.996,32.227,18.555,0
1582744550.724,32.227,21.973,29.297,19.531,0
1582744550.728,35.156,25.879,30.762,23.438,0
1582744550.732,36.133,22.949,32.715,29.297,0
1582744550.736,33.691,18.555,33.203,23.926,0
1582744550.740,36.133,19.043,35.156,19.531,0
1582744550.744,37.598,26.367,30.762,28.320,0
1582744550.748,30.762,32.227,25.879,32.227,0
1582744550.751,31.738,32.227,28.809,28.320,0
1582744550.755,35.645,30.762,31.738,35.645,0
1582744550.759,48.828,30.273,28.320,35.156,0
1582744550.763,54.199,31.250,29.785,32.715,0
1582744550.767,44.434,25.391,34.668,32.715,0
1582744550.769,37.109,20.020,37.598,32.715,0
1582744550.773,38.086,26.367,39.062,37.598,0
1582744550.777,39.551,27.344,38.086,37.109,0
1582744550.781,35.156,23.926,39.062,37.109,0
1582744550.785,32.715,26.367,41.992,35.645,0
1582744550.789,36.621,30.762,38.086,30.273,0
1582744550.793,38.574,30.273,37.598,33.691,0
1582744550.796,35.645,29.297,37.109,34.668,0
1582744550.800,32.715,26.855,34.668,32.227,0
1582744550.804,29.297,25.391,31.250,31.250,0
1582744550.808,28.320,30.273,29.785,28.320,0
1582744550.812,26.367,29.785,31.738,25.879,0
1582744550.829,24.902,21.973,33.691,23.926,0
1582744550.833,34.180,21.484,36.133,27.832,0
1582744550.837,31.738,24.414,33.203,31.250,0
1582744550.841,31.738,27.344,30.273,31.738,0
1582744550.845,29.785,30.762,26.855,24.902,0
1582744550.849,27.832,28.320,27.344,32.227,17000
1582744550.853,26.367,27.344,33.691,33.691,0
1582744550.856,22.461,25.879,35.645,28.320,0
1582744550.860,27.344,20.020,32.715,31.738,0
1582744550.864,20.996,24.902,29.297,23.438,0
1582744550.868,12.207,32.227,26.367,18.066,0
1582744550.872,21.484,28.809,24.902,31.250,0
1582744550.874,20.508,23.438,27.832,32.715,0
1582744550.878,18.066,19.531,30.273,19.531,0
1582744550.882,21.484,20.508,26.367,22.461,0
1582744550.886,23.438,21.484,28.320,24.902,0
1582744550.890,21.484,26.855,32.227,25.879,0
1582744550.894,18.555,27.832,29.785,24.902,0
1582744550.898,20.996,22.461,30.273,20.020,0
1582744550.901,20.996,26.855,29.785,21.484,0
1582744550.905,14.160,27.344,29.785,24.902,0
1582744550.909,22.461,24.902,27.344,19.043,0
1582744550.913,22.461,25.879,26.855,15.625,0
1582744550.917,18.066,24.414,31.250,27.832,0
1582744550.919,18.555,21.484,31.250,29.785,0
1582744550.923,22.461,20.508,30.762,26.367,0
1582744550.927,36.621,24.414,34.668,27.344,0
1582744550.931,26.367,26.855,36.621,25.391,0
1582744550.935,19.531,24.902,34.668,30.273,0
1582744550.939,25.391,24.414,33.691,31.250,0
1582744550.943,20.508,21.973,35.645,27.832,0
1582744550.946,17.578,22.949,29.297,28.809,0
1582744550.950,27.344,33.691,25.391,20.996,0
1582744550.954,22.461,31.738,30.762,15.625,0
1582744550.958,13.672,28.320,30.762,15.137,0
1582744550.962,18.066,27.832,26.855,12.695,0
1582744550.964,26.367,31.250,27.832,18.555,0
1582744550.968,25.391,37.598,33.203,26.367,0
1582744550.972,22.949,34.180,32.227,26.855,0
1582744550.976,24.902,28.320,29.297,22.461,0
1582744550.980,19.531,24.902,29.297,26.367,0
1582744550.984,27.344,22.949,34.668,31.250,0
1582744550.988,32.715,22.949,34.180,33.691,0
1582744550.991,27.344,23.926,32.715,28.809,0
1582744550.995,29.785,29.785,33.203,20.996,0
1582744550.999,26.367,27.832,31.250,30.762,0
1582744551.003,21.484,28.320,30.762,30.273,0
1582744551.007,26.855,31.250,28.320,25.879,0
1582744551.009,19.043,21.484,28.809,22.461,0
1582744551.013,14.160,17.578,31.738,25.391,0
1582744551.017,19.043,30.762,29.297,22.461,0
1582744551.021,13.672,35.156,29.297,18.555,0
1582744551.025,23.926,29.297,30.762,28.320,0
1582744551.029,26.367,23.926,33.691,32.227,0
1582744551.033,24.414,20.996,38.574,33.691,0
1582744551.036,28.809,23.926,36.133,30.762,0
1582744551.040,21.973,26.855,38.574,22.461,0
1582744551.044,21.973,26.855,42.969,25.879,0
1582744551.048,24.414,25.391,41.016,29.785,0
1582744551.052,20.508,22.949,37.598,24.414,0
1582744551.054,14.648,23.438,35.156,17.090,0
1582744551.058,18.555,26.855,33.691,22.949,0
1582744551.062,26.367,27.344,31.738,25.879,0
1582744551.066,27.832,27.832,32.715,24.414,0
1582744551.070,28.809,24.414,33.691,21.973,0
1582744551.074,31.738,22.949,32.227,25.879,0
1582744551.078,25.879,24.902,32.227,31.738,0
1582744551.081,24.902,27.344,30.273,27.344,0
1582744551.085,29.297,31.250,31.250,27.832,0
1582744551.089,25.391,30.762,33.691,29.297,0
1582744551.093,33.691,28.320,32.227,36.133,0
1582744551.097,45.898,23.926,30.762,33.691,0
1582744551.099,33.203,22.949,29.785,23.926,0
1582744551.103,15.137,27.832,29.297,27.344,0
1582744551.107,15.625,21.973,27.832,32.227,0
1582744551.111,27.832,18.066,26.367,32.715,0
1582744551.115,31.250,24.902,25.879,35.645,0
1582744551.119,30.762,25.879,27.832,29.785,0
1582744551.123,27.832,22.461,29.785,25.391,0
1582744551.126,26.855,29.785,23.926,34.668,0
1582744551.130,31.738,31.738,26.855,30.762,0
1582744551.134,27.344,26.855,33.691,22.949,0
1582744551.138,31.738,24.414,32.715,37.109,0
1582744551.142,29.785,26.367,30.762,33.691,0
1582744551.159,25.391,28.809,32.227,28.809,0
1582744551.163,31.250,23.438,35.156,31.738,0
1582744551.167,33.203,27.832,32.715,24.902,0
1582744551.171,38.086,34.180,28.320,24.902,0
1582744551.175,35.156,30.273,31.250,31.738,0
1582744551.179,33.203,31.738,32.227,34.668,0
1582744551.183,34.668,26.855,29.297,25.391,0
1582744551.186,26.855,24.902,27.344,28.320,0
1582744551.190,23.926,24.902,28.320,32.715,0
1582744551.194,31.250,21.973,32.715,30.273,0
1582744551.198,29.297,18.555,35.645,34.180,0
1582744551.202,24.414,20.508,34.668,26.855,0
1582744551.204,24.902,25.879,37.109,31.250,0
1582744551.208,25.879,26.367,42.969,40.039,0
1582744551.212,19.531,27.344,45.410,31.250,0
1582744551.216,15.137,27.832,41.504,25.879,0
1582744551.220,22.949,26.855,34.668,30.273,0
1582744551.224,23.438,24.902,32.227,29.785,0
1582744551.228,20.996,24.902,31.250,25.391,0
1582744551.231,21.973,25.879,31.250,27.344,0
1582744551.235,24.902,24.902,32.715,37.598,0
1582744551.239,33.691,23.926,30.273,39.551,0
1582744551.243,33.691,22.461,29.785,40.039,0
1582744551.247,27.344,29.785,29.785,36.621,0
1582744551.249,35.645,35.645,29.297,37.109,0
1582744551.253,33.691,33.691,30.273,40.039,0
1582744551.257,30.273,32.715,31.250,31.250,0
1582744551.261,28.320,30.273,31.250,31.738,0
1582744551.265,24.414,29.297,30.273,35.156,0
1582744551.269,31.250,28.809,28.809,34.668,0
1582744551.273,29.297,25.879,28.320,34.668,0
1582744551.276,24.902,26.367,28.809,26.855,0
1582744551.280,19.531,22.949,25.879,23.926,0
1582744551.284,17.578,20.020,26.367,30.273,0
1582744551.288,14.648,21.484,30.273,31.250,0
1582744551.292,13.184,20.508,29.297,27.832,0
1582744551.294,26.855,24.414,25.391,23.438,0
1582744551.298,29.785,31.738,24.414,17.090,0
1582744551.302,37.598,28.809,30.273,18.066,0
1582744551.306,57.129,29.297,29.785,14.648,0
1582744551.310,52.246,32.227,25.391,2.441,0
1582744551.314,59.082,31.738,26.367,15.625,0
1582744551.318,53.711,31.250,25.391,23.438,0
1582744551.321,31.738,30.762,23.438,20.508,0
1582744551.325,16.113,28.320,25.879,26.855,0
1582744551.329,14.648,28.809,28.320,34.180,0
1582744551.333,15.137,26.855,31.738,46.875,0
1582744551.337,8.789,21.973,34.668,47.852,0
1582744551.339,18.555,26.367,30.762,40.527,0
1582744551.343,21.484,29.297,25.879,37.598,0
1582744551.347,26.855,32.227,24.902,35.156,0
1582744551.351,26.367,30.273,28.320,37.109,0
1582744551.355,27.344,20.508,28.809,34.180,0
1582744551.359,30.273,19.531,25.879,24.902,0
1582744551.363,22.949,27.344,22.949,21.973,0
1582744551.366,17.090,29.785,22.949,24.902,0
1582744551.370,18.555,30.273,24.902,26.855,0
1582744551.374,23.438,28.809,23.438,21.973,0
1582744551.378,22.461,26.855,20.996,18.066,0
1582744551.382,34.180,24.902,21.973,27.344,0
1582744551.384,35.645,23.438,22.461,34.180,0
1582744551.388,23.926,26.367,21.484,26.367,0
1582744551.392,23.926,30.762,22.949,22.461,0
1582744551.396,27.344,29.785,21.973,21.973,0
1582744551.400,29.785,28.809,21.484,23.438,0
1582744551.404,36.133,27.832,23.926,26.855,0
1582744551.408,32.715,20.508,25.391,23.438,0
1582744551.411,28.809,21.484,22.949,20.996,0
1582744551.415,29.297,28.809,23.438,19.531,0
1582744551.419,24.902,32.715,23.926,20.508,0
1582744551.423,31.250,33.691,20.508,24.414,0
1582744551.427,33.203,29.297,23.926,25.879,0
1582744551.429,23.438,27.344,25.879,23.438,0
1582744551.433,22.461,32.227,26.855,23.438,0
1582744551.437,20.508,28.809,29.785,25.391,0
1582744551.441,20.996,25.879,28.809,22.461,0
1582744551.445,26.855,25.391,30.273,22.949,0
1582744551.449,25.391,22.461,33.691,30.762,0
1582744551.453,28.809,23.926,32.227,30.762,0
1582744551.456,33.691,25.391,28.320,20.996,0
1582744551.460,28.320,24.414,24.414,21.484,0
1582744551.464,29.297,22.949,21.973,32.715,0
1582744551.468,31.250,23.438,23.438,36.133,0
1582744551.472,33.203,26.367,24.902,26.367,0
1582744551.474,33.203,28.320,25.879,27.832,0
1582744551.478,31.738,31.250,27.832,33.203,0
1582744551.482,41.992,35.645,30.762,24.414,0
1582744551.486,35.156,37.109,31.738,17.090,0
1582744551.490,17.090,33.691,28.320,12.695,0
1582744551.494,25.391,31.250,28.809,18.066,0
1582744551.498,26.367,29.297,32.715,23.926,0
1582744551.501,28.809,22.461,28.320,19.531,0
1582744551.505,40.039,21.484,23.926,17.090,0
1582744551.509,38.086,28.809,27.344,24.902,0
1582744551.513,34.668,32.227,28.809,28.809,0
1582744551.517,34.668,33.691,29.297,19.531,0
1582744551.519,34.180,31.250,31.738,16.113,0
1582744551.523,35.645,29.785,30.762,25.879,0
1582744551.527,31.250,33.691,26.855,24.414,0
1582744551.531,23.438,33.691,30.273,21.484,0
1582744551.535,30.762,32.227,30.273,24.902,0
1582744551.539,30.273,27.832,27.832,21.973,0
1582744551.543,32.227,23.926,30.273,32.227,0
1582744551.546,31.250,22.949,34.180,33.203,0
1582744551.550,20.996,20.508,31.738,24.902,0
1582744551.554,17.578,27.832,28.809,21.973,0
1582744551.558,15.137,30.762,28.320,29.785,0
1582744551.562,21.973,27.832,27.832,30.273,0
1582744551.579,22.461,27.832,25.879,17.578,0
1582744551.583,13.672,28.320,28.809,14.160,0
1582744551.587,16.602,29.297,24.414,24.414,0
1582744551.591,24.414,30.273,18.066,31.250,0
1582744551.595,28.320,28.809,22.949,29.297,0
1582744551.599,25.391,20.508,24.902,24.414,0
1582744551.603,24.902,18.555,23.926,25.391,0
1582744551.606,25.391,18.066,26.367,31.250,0
1582744551.610,19.043,18.066,27.832,30.273,0
1582744551.614,9.766,23.926,31.250,29.785,0
1582744551.618,23.438,26.367,34.180,29.297,0
1582744551.622,32.715,32.715,32.715,32.227,0
1582744551.624,24.902,30.273,29.297,36.133,0
1582744551.628,20.996,27.344,27.832,34.668,0
1582744551.632,22.461,28.809,30.762,33.203,0
1582744551.636,23.926,27.832,30.762,29.785,0
1582744551.640,27.344,25.879,30.762,26.367,0
1582744551.644,19.531,24.414,31.250,26.367,0
1582744551.648,17.578,26.855,34.180,27.832,0
1582744551.651,24.902,27.832,35.645,36.133,0
1582744551.655,26.855,31.250,32.715,41.016,0
1582744551.659,29.785,31.738,31.738,25.391,0
1582744551.663,26.367,27.344,29.785,25.391,0
1582744551.667,28.809,27.344,29.297,27.832,0
1582744551.669,29.297,24.902,29.785,21.973,0
1582744551.673,33.691,18.555,33.203,23.926,0
1582744551.677,37.109,18.555,34.180,20.020,0
1582744551.681,33.203,24.414,30.762,24.414,0
1582744551.685,29.297,27.832,32.227,31.250,0
1582744551.689,15.625,29.297,32.227,29.297,0
1582744551.693,11.230,30.273,35.156,23.926,0
1582744551.696,10.742,27.344,34.668,26.367,0
1582744551.700,30.273,27.832,32.715,31.250,0
1582744551.704,26.367,27.344,36.133,35.156,0
1582744551.708,13.672,23.438,36.133,37.109,0
1582744551.712,12.207,20.508,34.180,26.367,0
1582744551.714,21.484,23.438,35.645,22.949,0
1582744551.718,32.227,26.367,35.645,34.668,0
1582744551.722,26.855,22.949,36.133,39.062,0
1582744551.726,19.531,28.320,33.691,28.320,0
1582744551.730,32.715,32.227,29.785,23.926,0
1582744551.734,69.824,28.809,28.320,31.738,0
1582744551.738,62.988,33.203,29.785,35.156,0
1582744551.741,44.922,31.738,33.203,37.598,0
1582744551.745,13.184,18.555,32.715,34.668,0
1582744551.749,-2.441,9.766,30.273,20.996,0
1582744551.753,10.254,12.207,29.785,25.391,0
1582744551.757,11.719,17.090,30.273,22.949,0
1582744551.759,15.625,20.996,26.855,9.766,0
1582744551.763,17.578,25.879,25.879,20.996,0
1582744551.767,23.926,28.320,27.344,24.414,0
1582744551.771,21.484,18.555,27.344,16.602,0
1582744551.775,16.602,16.113,29.785,19.531,0
1582744551.779,24.902,20.996,29.297,26.367,0
1582744551.783,33.203,22.461,27.344,31.738,0
1582744551.786,35.645,25.879,25.879,29.785,0
1582744551.790,35.156,27.344,27.832,29.297,0
1582744551.794,33.691,26.367,24.414,31.738,0
1582744551.798,34.668,23.926,20.508,30.273,0
1582744551.802,33.203,25.879,25.879,31.738,0
1582744551.804,36.133,28.320,28.809,33.203,0
1582744551.808,39.551,23.438,28.320,29.297,0
1582744551.812,40.527,18.555,31.250,28.809,0
1582744551.816,35.645,18.066,35.645,33.203,0
1582744551.820,25.391,23.438,32.227,29.297,0
1582744551.824,28.320,28.809,31.250,29.785,0
1582744551.828,33.691,28.320,38.086,36.133,0
1582744551.831,36.621,27.344,38.086,40.527,0
1582744551.835,37.598,25.391,34.668,37.109,0
1582744551.839,37.598,24.902,34.180,29.785,0
1582744551.843,35.156,28.809,30.762,31.250,0
1582744551.847,25.391,25.391,28.809,38.086,0
1582744551.849,20.508,22.461,28.809,35.156,0
1582744551.853,21.484,23.926,27.344,31.738,0
1582744551.857,21.484,17.090,28.320,32.227,0
1582744551.861,25.879,14.648,28.320,29.297,0
1582744551.865,27.344,22.461,26.855,27.344,0
1582744551.869,5.859,22.461,26.855,23.438,0
1582744551.873,6.836,17.578,29.297,16.602,0
1582744551.876,21.973,16.602,30.762,22.461,0
1582744551.880,23.926,21.484,26.855,31.738,0
1582744551.884,27.344,25.391,26.367,19.043,0
1582744551.888,24.902,19.531,28.320,11.719,0
1582744551.892,22.949,15.137,30.273,25.391,0
1582744551.894,26.367,18.555,28.320,18.066,0
1582744551.898,27.832,27.832,28.320,8.789,0
1582744551.902,30.273,28.809,31.250,21.973,0
1582744551.906,28.809,28.809,26.367,24.902,0
1582744551.910,25.879,29.785,24.902,24.902,0
1582744551.914,31.738,28.320,29.297,26.367,0
1582744551.918,41.992,22.949,31.250,14.160,0
1582744551.921,32.227,22.949,29.297,10.742,0
1582744551.925,29.785,21.484,29.785,28.320,0
1582744551.929,29.297,16.602,32.715,31.250,0
1582744551.933,24.414,18.066,33.691,16.602,0
1582744551.937,27.344,19.531,34.668,20.508,0
1582744551.954,28.809,20.508,34.668,35.645,0
1582744551.958,30.273,28.320,30.762,29.785,0
1582744551.962,42.969,29.297,28.809,24.902,0
1582744551.966,45.410,27.832,30.762,24.902,0
1582744551.970,20.508,27.344,33.203,27.344,0
1582744551.974,26.855,28.809,32.715,23.926,0
1582744551.978,27.832,30.273,31.250,19.043,0
1582744551.981,26.367,22.461,29.297,24.902,0
1582744551.985,51.758,23.438,26.855,26.855,0
1582744551.989,23.926,28.809,30.762,26.367,0
1582744551.993,5.371,30.273,30.762,23.438,18400
1582744551.997,6.836,26.855,27.344,25.391,0
1582744551.999,-6.348,23.438,25.879,27.344,0
1582744552.003,10.742,25.879,25.391,30.273,0
1582744552.007,25.391,26.855,26.367,26.367,0
1582744552.011,14.648,24.902,27.344,23.438,0
1582744552.015,8.301,20.020,26.855,29.785,0
1582744552.019,22.949,17.090,26.855,32.715,0
1582744552.023,30.762,22.461,27.832,30.762,0
1582744552.026,22.461,23.438,25.879,27.832,0
1582744552.030,24.414,26.367,26.367,25.879,0
1582744552.034,31.250,32.715,27.344,23.926,0
1582744552.038,24.902,28.809,25.391,22.461,0
1582744552.042,24.902,28.320,22.461,21.973,0
1582744552.044,32.227,26.855,22.949,15.625,0
1582744552.048,40.527,24.902,23.926,19.043,0
1582744552.052,20.996,27.832,24.902,27.344,0
1582744552.056,12.207,28.809,26.855,21.973,0
1582744552.060,21.973,29.785,24.902,15.137,0
1582744552.064,23.926,32.227,23.438,15.137,0
1582744552.068,38.086,34.180,21.484,19.531,0
1582744552.071,45.898,30.273,19.043,9.277,0
1582744552.075,41.992,27.344,17.578,-2.930,0
1582744552.079,53.711,32.715,19.531,4.883,0
1582744552.083,58.594,36.133,22.949,15.137,0
1582744552.087,44.434,30.762,23.438,18.066,0
1582744552.089,32.227,22.461,31.250,25.391,0
1582744552.093,16.113,18.555,37.598,38.086,0
1582744552.097,4.883,22.461,35.156,45.898,0
1582744552.101,16.113,23.438,33.203,42.480,0
1582744552.105,17.578,20.996,32.715,34.180,0
1582744552.109,10.742,24.902,28.320,33.203,0
1582744552.113,11.719,26.855,29.785,31.250,0
1582744552.116,11.719,27.344,30.762,30.762,0
1582744552.120,20.020,29.297,25.391,22.461,0
1582744552.124,27.344,29.297,24.902,17.090,0
1582744552.128,30.273,27.832,26.855,27.344,0
1582744552.132,32.715,20.996,26.367,27.344,0
1582744552.135,31.738,22.949,29.785,26.367,0
1582744552.139,30.273,31.250,33.691,21.973,0
1582744552.143,29.297,35.156,31.250,21.973,0
1582744552.147,34.668,31.250,32.227,38.086,0
1582744552.151,38.574,27.344,34.180,38.086,0
1582744552.155,36.621,30.273,31.738,30.273,0
1582744552.159,31.250,29.297,30.273,28.809,0
1582744552.162,41.504,29.297,26.855,35.645,0
1582744552.166,45.410,33.203,24.902,36.621,0
1582744552.170,37.109,33.691,27.344,25.391,0
1582744552.174,44.434,30.273,28.809,29.297,0
1582744552.178,44.922,26.855,28.320,36.133,0
1582744552.179,22.949,27.344,27.344,32.227,0
1582744552.183,15.625,27.832,28.320,32.227,0
1582744552.187,23.926,27.832,27.832,23.438,0
1582744552.191,28.320,26.367,30.273,24.902,0
1582744552.195,31.250,23.438,33.203,29.785,0
1582744552.199,32.227,27.344,31.250,29.785,0
1582744552.203,28.809,30.273,29.785,28.809,0
1582744552.206,28.320,28.809,32.227,14.160,0
1582744552.210,32.715,32.227,31.738,13.184,0
1582744552.214,32.227,32.715,30.273,24.414,0
1582744552.218,36.133,28.320,32.227,35.645,0
1582744552.222,36.133,22.461,32.227,34.180,0
1582744552.224,38.574,22.461,30.762,26.855,0
1582744552.228,49.316,26.855,31.250,40.527,0
1582744552.232,44.434,29.297,34.180,39.551,0
1582744552.236,32.227,28.809,36.133,32.227,0
1582744552.240,29.297,23.438,36.621,34.180,0
1582744552.244,46.387,29.297,34.180,40.527,0
1582744552.248,38.574,35.156,35.645,39.062,0
1582744552.251,31.250,33.203,35.156,34.668,0
1582744552.255,36.133,25.879,31.250,38.086,0
1582744552.259,27.344,20.508,33.691,40.527,0
1582744552.263,30.762,21.973,34.668,42.969,0
1582744552.267,39.551,27.344,32.227,37.109,0
1582744552.269,43.945,29.297,32.227,26.367,0
1582744552.273,35.645,27.344,33.691,27.344,0
1582744552.277,28.320,25.879,32.715,25.879,0
1582744552.281,30.762,24.902,32.227,24.414,0
1582744552.285,35.645,29.785,34.180,34.180,0
1582744552.289,40.527,33.691,32.227,33.203,0
1582744552.293,34.180,33.691,30.762,27.344,0
1582744552.296,30.273,30.762,31.738,29.297,0
1582744552.300,38.574,25.391,33.203,28.320,0
1582744552.304,37.109,27.344,33.203,23.926,0
1582744552.308,36.133,28.320,32.715,27.832,0
1582744552.312,39.551,27.344,31.250,34.180,0
1582744552.329,44.434,22.461,31.738,30.273,0
1582744552.333,44.922,23.438,31.250,30.762,0
1582744552.337,32.715,33.691,31.738,38.574,0
1582744552.341,41.992,39.062,34.180,38.574,0
1582744552.345,48.340,39.551,33.691,36.133,0
1582744552.349,31.250,36.621,34.668,31.250,0
1582744552.353,23.926,32.715,32.715,27.344,0
1582744552.356,32.227,31.250,30.762,31.738,0
1582744552.360,29.785,27.344,34.180,29.785,0
1582744552.364,24.414,32.227,33.691,25.391,0
1582744552.368,25.879,36.133,28.809,28.809,0
1582744552.372,24.414,29.785,24.902,29.785,0
1582744552.374,29.297,30.273,24.414,29.785,0
1582744552.378,23.926,25.391,23.438,21.484,0
1582744552.382,21.484,23.438,24.414,21.484,0
1582744552.386,27.344,31.250,26.367,27.344,0
1582744552.390,21.484,29.297,27.344,26.855,0
1582744552.394,31.738,19.531,30.273,30.273,0
1582744552.398,44.922,20.508,28.809,28.809,0
1582744552.401,25.391,32.227,23.926,26.367,0
1582744552.405,14.648,33.203,26.367,31.738,0
1582744552.409,16.113,28.809,30.273,30.273,0
1582744552.413,15.137,32.715,28.320,17.090,0
1582744552.417,24.902,32.715,32.227,24.902,0
1582744552.419,31.250,30.273,32.227,37.109,0
1582744552.423,21.484,33.691,28.809,29.297,0
1582744552.427,17.578,28.809,29.297,22.461,0
1582744552.431,25.391,28.809,29.297,28.320,0
1582744552.435,31.250,30.762,30.273,36.133,0
1582744552.439,38.086,24.902,29.785,39.551,0
1582744552.443,39.551,29.297,25.879,36.621,0
1582744552.446,35.645,34.668,26.367,33.203,0
1582744552.450,36.621,33.691,24.902,33.203,0
1582744552.454,39.062,31.250,25.391,28.809,0
1582744552.458,29.785,24.414,28.809,37.598,0
1582744552.462,32.227,21.973,28.320,41.992,0
1582744552.464,42.480,28.320,28.320,41.504,0
1582744552.468,22.461,29.785,31.250,40.039,0
1582744552.472,18.066,26.367,27.832,37.598,0
1582744552.476,23.926,23.926,25.879,29.785,0
1582744552.480,18.066,20.996,29.297,23.438,0
1582744552.484,20.996,20.996,30.762,29.785,0
1582744552.488,33.691,26.367,29.785,25.391,0
1582744552.491,34.180,30.762,29.785,18.555,0
1582744552.495,15.137,32.227,32.227,18.066,0
1582744552.499,16.113,27.832,34.668,26.367,0
1582744552.503,31.250,24.414,32.227,37.109,0
1582744552.507,33.203,26.855,30.762,35.156,0
1582744552.509,32.227,27.344,30.762,31.738,0
1582744552.513,29.785,24.414,28.809,35.156,0
1582744552.517,28.809,26.367,28.320,32.715,0
1582744552.521,21.484,22.461,28.809,25.391,0
1582744552.525,15.137,17.090,26.855,25.391,0
1582744552.529,19.531,23.926,27.832,28.809,0
1582744552.533,23.926,28.809,31.738,30.762,0
1582744552.536,22.949,31.250,32.715,27.832,0
1582744552.540,29.785,33.203,33.691,20.508,0
1582744552.544,26.855,28.320,30.762,25.879,0
1582744552.548,27.832,27.344,27.344,29.297,0
1582744552.552,23.926,28.320,27.832,17.578,0
1582744552.554,20.020,25.879,25.879,14.160,0
1582744552.558,26.367,23.438,23.926,22.461,0
1582744552.562,25.879,21.973,23.926,23.438,0
1582744552.566,31.738,24.414,25.391,24.414,0
1582744552.570,31.250,25.391,28.320,23.438,0
1582744552.574,31.250,25.391,28.320,20.508,0
1582744552.578,32.715,28.320,26.855,31.250,0
1582744552.581,23.438,26.367,28.320,33.691,0
1582744552.585,22.461,25.879,28.320,26.367,0
1582744552.589,23.438,26.367,29.297,33.203,0
1582744552.593,26.367,24.902,28.320,30.762,0
1582744552.597,21.973,27.832,29.785,27.832,0
1582744552.599,27.832,28.320,31.250,33.691,0
1582744552.603,19.531,25.879,32.715,24.902,0
1582744552.607,2.441,25.391,34.180,13.672,0
1582744552.611,4.883,25.391,33.203,23.926,0
1582744552.615,1.465,22.949,33.691,29.297,0
1582744552.619,8.301,21.484,33.203,20.996,0
1582744552.623,29.297,24.414,32.227,24.902,0
1582744552.626,19.531,21.484,33.203,20.996,0
1582744552.630,6.836,18.555,30.762,13.672,0
1582744552.634,20.508,24.902,28.320,11.719,0
1582744552.638,26.855,29.297,28.809,11.719,0
1582744552.642,25.391,25.879,30.273,13.672,0
1582744552.644,22.461,28.809,30.762,14.160,0
1582744552.648,12.695,30.762,27.832,8.789,0
1582744552.652,14.160,30.762,25.391,12.207,0
1582744552.656,22.949,29.297,24.414,19.531,0
1582744552.660,21.484,29.297,26.367,19.531,0
1582744552.664,13.184,30.762,29.785,23.438,0
1582744552.668,22.461,26.855,31.738,25.391,0
1582744552.671,32.715,27.344,32.227,22.461,0
1582744552.675,34.668,25.879,29.785,25.391,0
1582744552.679,29.297,25.879,26.855,23.438,0
1582744552.683,25.391,29.785,27.344,10.742,0
1582744552.687,33.691,30.273,28.320,21.973,0
1582744552.704,36.133,29.785,23.926,28.809,0
1582744552.708,34.668,29.297,20.996,18.066,0
1582744552.712,35.156,28.320,23.926,20.508,0
1582744552.716,31.250,22.949,27.344,23.926,0
1582744552.720,21.973,18.066,28.320,23.438,0
1582744552.724,27.832,24.902,28.320,29.785,0
1582744552.728,30.762,30.273,26.855,28.809,0
1582744552.731,29.785,23.926,26.855,28.809,0
1582744552.735,40.039,21.484,28.320,32.227,0
1582744552.739,43.457,25.879,33.203,35.156,0
1582744552.743,33.203,27.344,31.250,35.156,0
1582744552.747,27.344,30.762,26.855,31.250,0
1582744552.749,35.645,28.809,27.344,35.156,0
1582744552.753,32.227,28.809,25.391,39.062,0
1582744552.757,23.438,31.738,25.391,30.762,0
1582744552.761,29.785,27.832,31.250,31.738,0
1582744552.765,22.461,27.832,32.227,31.250,0
1582744552.769,16.113,27.832,29.297,33.203,0
1582744552.773,20.020,23.438,28.809,34.180,0
1582744552.776,19.531,17.090,31.250,24.902,0
1582744552.780,19.531,16.113,30.273,24.902,0
1582744552.784,22.949,20.996,30.762,27.344,0
1582744552.788,25.391,21.484,30.762,26.855,0
1582744552.792,31.250,21.973,28.809,29.297,0
1582744552.794,40.039,25.879,32.227,34.668,0
1582744552.798,38.086,26.855,32.227,34.668,0
1582744552.802,29.785,26.855,31.250,37.109,0
1582744552.806,29.785,27.344,33.691,38.086,0
1582744552.810,36.133,28.320,34.668,38.086,0
1582744552.814,32.227,28.320,34.668,32.715,0
1582744552.818,34.668,24.902,32.715,36.133,0
1582744552.821,44.922,20.020,27.832,38.086,0
1582744552.825,40.527,18.066,27.832,24.902,0
1582744552.829,40.039,25.391,30.273,15.625,0
1582744552.833,59.082,32.227,31.250,24.414,0
1582744552.837,71.289,27.832,28.809,23.438,0
1582744552.839,60.547,26.367,26.367,14.160,0
1582744552.843,53.223,25.879,30.273,15.137,0
1582744552.847,47.852,22.949,30.273,20.508,0
1582744552.851,28.809,21.484,28.809,30.762,0
1582744552.855,8.301,20.020,29.297,36.133,0
1582744552.859,2.930,12.695,32.227,37.109,0
1582744552.863,4.395,9.766,33.691,36.133,0
1582744552.866,0.488,18.066,30.273,37.109,0
1582744552.870,7.324,23.438,27.344,32.227,0
1582744552.874,11.230,24.414,25.879,23.438,0
1582744552.878,8.789,25.879,26.855,25.879,0
1582744552.882,17.090,24.414,29.785,32.227,0
1582744552.884,25.879,23.926,27.344,23.438,0
1582744552.888,30.762,24.902,26.855,20.020,0
1582744552.892,33.691,24.902,29.785,23.438,0
1582744552.896,34.180,24.902,28.320,26.367,0
1582744552.900,39.551,23.926,28.809,38.086,0
1582744552.904,38.086,22.461,30.762,32.715,0
1582744552.908,41.504,20.508,30.762,24.414,0
1582744552.911,29.297,22.461,26.855,20.508,0
1582744552.915,33.203,26.855,21.973,20.020,0
1582744552.919,40.527,24.902,22.949,21.484,0
1582744552.923,23.926,20.020,25.879,20.508,0
1582744552.927,25.879,19.043,23.438,23.438,0
1582744552.944,26.367,18.066,20.996,21.973,0
1582744552.948,25.391,15.625,20.020,21.973,0
1582744552.952,28.320,20.020,20.508,23.926,0
1582744552.956,27.344,26.855,21.973,25.391,0
1582744552.960,29.297,26.855,25.391,31.738,0
1582744552.964,29.785,24.414,28.320,32.715,0
1582744552.968,25.879,25.391,27.832,28.320,0
1582744552.971,23.438,21.484,23.926,18.555,0
1582744552.975,28.809,20.508,22.949,25.391,0
1582744552.979,29.785,25.391,31.738,32.715,0
1582744552.983,34.668,21.973,36.621,20.996,0
1582744552.987,36.621,21.973,33.203,23.438,0
1582744552.974,30.762,28.320,31.250,26.367,0
1582744552.978,32.715,27.344,32.227,27.832,0
1582744552.982,40.039,24.902,30.273,29.785,0
1582744552.986,34.668,27.832,27.344,23.926,0
1582744552.990,27.832,23.926,24.902,21.973,0
1582744552.994,31.738,22.461,22.461,22.949,0
1582744552.998,28.809,21.973,22.949,23.438,0
1582744553.001,33.691,19.043,27.344,22.949,0
1582744553.005,28.320,9.766,26.367,16.602,0
1582744553.009,28.809,7.812,26.367,22.949,0
1582744553.013,38.574,22.461,29.297,28.809,0
1582744553.017,31.250,29.297,25.879,25.391,27224
1582744553.019,31.738,29.785,24.414,29.785,0
1582744553.023,30.762,31.738,24.414,29.297,0
1582744553.027,34.668,25.391,24.414,28.809,0
1582744553.031,41.992,20.996,26.367,41.992,0
1582744553.035,44.434,22.949,26.367,27.832,0
1582744553.039,38.574,20.508,28.809,30.762,0
1582744553.043,32.715,22.949,29.297,42.969,0
1582744553.046,36.621,25.391,26.855,30.273,0
1582744553.050,42.969,21.973,28.320,29.297,0
1582744553.054,41.992,25.879,29.297,30.762,0
1582744553.058,41.504,26.855,29.785,36.133,0
1582744553.062,44.434,24.902,31.738,39.551,0
1582744553.079,41.016,27.832,27.832,34.180,0
1582744553.083,32.715,27.832,27.344,27.832,0
1582744553.087,34.180,20.996,31.250,23.438,0
1582744553.091,30.762,21.973,28.809,18.555,0
1582744553.095,18.066,26.367,27.344,23.926,0
1582744553.099,16.602,33.203,24.902,24.902,0
1582744553.103,20.996,32.715,25.391,18.066,0
1582744553.106,23.926,26.855,30.762,30.762,0
1582744553.110,30.762,27.344,31.738,36.133,0
1582744553.114,25.879,26.855,28.809,33.691,0
1582744553.118,29.297,26.855,27.832,38.574,0
1582744553.122,37.598,28.809,30.273,47.363,0
1582744553.124,30.273,28.320,33.203,46.387,0
1582744553.128,30.273,25.391,33.203,41.016,0
1582744553.132,34.668,26.855,33.203,35.645,0
1582744553.136,22.461,28.809,34.180,32.715,0
1582744553.140,19.043,24.902,33.691,37.109,0
1582744553.144,20.996,21.484,34.668,37.109,0
1582744553.148,17.578,22.949,34.180,30.273,0
1582744553.151,20.020,22.461,29.297,32.227,0
1582744553.155,22.461,22.949,26.367,35.645,0
1582744553.159,21.973,24.902,33.203,30.762,0
1582744553.163,20.508,26.367,35.156,27.832,0
1582744553.167,30.273,27.832,26.855,38.086,0
1582744553.169,36.621,25.879,26.855,44.434,0
1582744553.173,37.109,27.344,30.762,40.527,0
1582744553.177,35.156,32.227,29.297,34.180,0
1582744553.181,34.180,28.320,32.715,30.273,0
1582744553.185,34.180,23.926,34.180,35.156,0
1582744553.189,26.367,24.414,34.180,40.039,0
1582744553.193,25.391,27.832,36.133,27.344,0
1582744553.196,29.297,33.691,32.715,27.832,0
1582744553.200,32.227,31.738,32.715,40.039,0
1582744553.204,32.715,27.832,32.227,24.902,0
1582744553.208,28.320,27.832,29.785,21.484,0
1582744553.212,23.438,26.367,33.691,35.645,0
1582744553.214,22.949,21.484,35.645,34.180,0
1582744553.218,26.367,21.973,33.203,36.133,0
1582744553.222,27.344,27.832,28.809,32.715,0
1582744553.226,23.438,26.367,29.297,25.391,0
1582744553.230,28.809,22.949,32.715,31.738,0
1582744553.234,32.715,22.949,32.227,38.574,0
1582744553.238,31.738,24.902,28.809,33.691,0
1582744553.241,35.645,27.832,28.320,32.227,0
1582744553.245,32.227,29.785,32.715,26.367,0
1582744553.249,33.691,26.855,33.691,28.320,0
1582744553.253,32.227,24.902,32.715,33.691,0
1582744553.257,19.043,27.344,31.250,24.902,0
1582744553.259,16.602,24.414,30.762,25.879,0
1582744553.263,21.484,22.461,37.109,31.250,0
1582744553.267,22.949,27.832,41.504,29.785,0
1582744553.271,20.996,27.344,39.062,27.344,0
1582744553.275,19.043,20.508,37.109,29.297,0
1582744553.279,34.180,23.926,33.203,31.738,0
1582744553.283,36.621,27.344,31.250,32.715,0
1582744553.286,25.879,29.785,31.250,34.668,0
1582744553.290,34.668,32.227,31.250,33.691,0
1582744553.294,33.203,28.320,30.762,33.203,0
1582744553.298,24.902,22.949,31.738,35.156,0
1582744553.302,25.879,22.949,37.109,31.738,0
1582744553.304,20.020,25.879,38.574,17.090,0
1582744553.308,21.973,27.832,33.203,15.137,0
1582744553.312,21.973,26.855,31.250,27.344,0
1582744553.316,22.461,28.809,32.227,28.809,0
1582744553.320,21.484,29.297,30.762,24.902,0
1582744553.324,15.625,23.926,28.320,19.043,0
1582744553.328,23.926,22.461,24.902,12.207,0
1582744553.331,25.879,25.879,22.461,16.602,0
1582744553.335,23.926,28.809,24.902,17.578,0
1582744553.339,20.020,27.832,27.832,15.137,0
1582744553.343,14.648,24.414,29.785,20.020,0
1582744553.347,26.855,21.973,25.391,23.438,0
1582744553.349,27.344,17.578,25.391,19.043,0
1582744553.353,11.230,18.555,28.809,14.648,0
1582744553.357,14.160,28.809,29.297,23.438,0
1582744553.361,25.391,33.203,31.738,21.973,0
1582744553.365,25.391,32.715,30.762,29.297,0
1582744553.369,30.273,34.668,30.762,38.086,0
1582744553.373,34.668,32.715,35.156,30.273,0
1582744553.376,34.668,30.273,34.668,23.926,0
1582744553.380,36.133,31.738,31.738,26.367,0
1582744553.384,36.621,29.297,32.715,25.879,0
1582744553.388,38.574,29.297,33.203,24.414,0
1582744553.392,35.156,29.785,30.762,27.832,0
1582744553.394,31.738,24.414,32.715,27.832,0
1582744553.398,31.738,21.973,35.156,26.367,0
1582744553.402,30.762,26.367,34.668,29.785,0
1582744553.406,34.180,26.855,29.785,33.203,0
1582744553.410,36.133,27.344,26.855,33.691,0
1582744553.414,38.086,27.832,30.762,33.691,0
1582744553.418,33.691,24.414,30.273,23.926,0
1582744553.421,34.668,23.926,28.809,28.809,0
1582744553.425,39.551,25.391,29.297,40.039,0
1582744553.429,35.156,24.414,28.320,39.551,0
1582744553.433,37.109,22.949,31.738,33.691,0
1582744553.437,40.039,19.043,31.738,31.250,0
1582744553.454,48.340,21.973,29.785,36.621,0
1582744553.458,48.340,31.250,32.715,46.875,0
1582744553.462,45.410,37.598,34.180,39.062,0
1582744553.466,45.410,33.691,32.227,34.180,0
1582744553.470,34.668,28.320,30.273,38.086,0
1582744553.474,29.785,30.273,29.297,35.645,0
1582744553.478,27.832,29.785,32.227,34.668,0
1582744553.481,29.297,18.555,31.738,30.273,0
1582744553.485,34.668,20.508,27.832,33.203,0
1582744553.489,30.273,29.785,27.832,37.109,0
1582744553.493,25.391,28.809,30.762,36.621,0
1582744553.497,28.320,28.320,30.273,33.691,0
1582744553.499,32.715,24.902,30.273,28.320,0
1582744553.503,39.551,26.367,31.738,33.691,0
1582744553.507,37.109,26.367,28.809,33.203,0
1582744553.511,31.250,22.949,27.832,32.227,0
1582744553.515,36.621,19.531,27.344,41.016,0
1582744553.519,32.715,20.508,25.391,46.875,0
1582744553.523,28.320,24.902,26.367,40.039,0
1582744553.526,33.203,26.367,28.809,31.738,0
1582744553.530,38.574,22.949,33.691,30.762,0
1582744553.534,29.297,21.484,35.645,32.715,0
1582744553.538,31.738,24.414,30.273,38.574,0
1582744553.542,31.250,22.461,27.832,35.156,0
1582744553.544,18.555,20.508,32.227,31.250,0
1582744553.548,28.809,26.367,28.809,27.344,0
1582744553.552,30.273,30.273,26.367,26.855,0
1582744553.556,24.902,31.738,29.297,26.855,0
1582744553.560,42.480,34.180,27.832,27.344,0
1582744553.564,52.246,30.273,26.855,23.438,0
1582744553.568,58.105,25.879,25.391,14.160,0
1582744553.571,68.848,29.785,26.367,15.625,0
1582744553.575,58.594,32.227,25.879,13.184,0
1582744553.579,48.828,32.227,26.855,12.207,0
1582744553.583,38.086,27.344,31.738,21.973,0
1582744553.587,17.090,20.020,29.297,30.273,0
1582744553.589,17.578,19.531,28.809,38.574,0
1582744553.593,17.578,23.438,33.203,34.180,0
1582744553.597,10.742,30.762,32.227,37.598,0
1582744553.601,17.578,31.738,32.715,38.086,0
1582744553.605,19.043,26.367,34.180,31.250,0
1582744553.609,9.766,25.391,34.668,27.832,0
1582744553.613,9.766,29.297,32.715,21.973,0
1582744553.616,12.695,31.250,33.203,27.344,0
1582744553.620,17.090,23.438,30.762,18.555,0
1582744553.624,20.996,17.578,29.297,0.488,0
1582744553.628,19.531,14.648,31.250,9.277,0
1582744553.632,15.137,14.160,32.227,23.438,0
1582744553.634,11.719,20.508,31.250,22.461,0
1582744553.638,21.484,25.391,28.320,12.695,0
1582744553.642,23.438,23.438,29.785,12.695,0
1582744553.646,18.555,28.320,29.785,15.137,0
1582744553.650,18.066,26.367,25.879,17.578,0
1582744553.654,20.020,18.066,23.438,20.020,0
1582744553.658,20.508,19.531,22.949,13.184,0
1582744553.661,18.066,24.902,22.949,8.301,0
1582744553.665,23.926,25.879,26.855,14.160,0
1582744553.669,19.043,24.414,28.809,22.461,0
1582744553.673,11.230,22.949,24.414,19.043,0
1582744553.677,19.043,23.926,24.902,10.742,0
1582744553.679,20.996,20.996,26.367,14.648,0
1582744553.683,8.789,18.066,25.391,15.137,0
1582744553.687,4.883,22.461,22.461,10.742,0
1582744553.691,12.695,24.902,23.438,14.160,0
1582744553.695,14.648,21.484,24.902,17.578,0
1582744553.699,21.484,19.531,23.438,18.066,0
1582744553.703,23.926,21.484,21.973,20.996,0
1582744553.706,17.090,24.902,21.973,18.555,0
1582744553.710,19.043,23.438,25.391,20.996,0
1582744553.714,24.414,20.020,24.902,29.785,0
1582744553.718,26.855,22.949,25.879,24.902,0
1582744553.722,31.738,23.926,27.832,25.391,0
1582744553.724,34.668,21.484,29.785,26.367,0
1582744553.728,33.691,23.438,31.738,29.785,0
1582744553.732,30.762,27.832,32.715,27.344,0
1582744553.736,27.344,26.367,31.738,20.996,0
1582744553.740,21.973,25.391,29.785,28.809,0
1582744553.744,25.391,27.832,29.297,35.156,0
1582744553.748,32.227,22.949,29.785,26.855,0
1582744553.751,18.555,19.043,27.832,10.742,0
1582744553.755,16.602,20.996,24.414,15.625,0
1582744553.759,24.902,21.484,26.855,29.785,0
1582744553.763,27.344,23.926,25.391,28.809,0
1582744553.767,40.527,23.926,21.973,24.902,0
1582744553.769,44.434,22.461,20.508,23.926,0
1582744553.773,29.785,24.414,17.578,18.555,0
1582744553.777,22.461,24.902,18.066,16.113,0
1582744553.781,31.250,23.926,22.461,22.949,0
1582744553.785,20.996,24.414,27.344,22.461,0
1582744553.789,20.996,22.461,29.297,18.066,0
1582744553.793,35.156,22.949,27.832,19.043,0
1582744553.796,26.855,26.855,29.297,18.066,0
1582744553.800,20.020,26.367,31.738,20.508,0
1582744553.804,22.461,27.344,29.297,21.484,0
1582744553.808,25.879,24.414,27.832,27.344,0
1582744553.812,25.391,18.555,29.297,26.367,0
1582744553.829,21.973,21.973,27.344,18.555,0
1582744553.833,19.531,26.855,27.344,20.508,0
1582744553.837,25.879,27.832,26.855,22.461,0
1582744553.841,26.367,27.832,24.902,20.020,0
1582744553.845,22.949,27.344,25.879,23.438,0
1582744553.849,21.484,24.414,28.320,23.438,0
1582744553.853,17.090,22.949,27.832,19.043,0
1582744553.856,10.742,25.391,26.855,27.344,0
1582744553.860,9.766,22.461,30.273,31.738,0
1582744553.864,18.555,23.926,30.273,30.273,0
1582744553.868,21.973,25.879,26.855,32.715,0
1582744553.872,27.344,26.367,27.832,33.691,0
1582744553.874,29.785,26.855,27.832,32.227,0
1582744553.878,24.902,25.391,29.785,23.438,0
