timestamps,TP9,AF7,AF8,TP10,Right AUX,Marker0
1582146171.809,35.645,53.223,165.52700000000004,23.926,0.0,0
1582146171.813,31.25,39.551,128.906,18.066,0.0,0
1582146171.8170002,10.254,44.434,137.207,20.508000000000006,0.0,0
1582146171.821,15.625,32.227,118.652,33.203,0.0,0
1582146171.825,40.039,11.23,81.543,36.621,0.0,0
1582146171.829,39.062,0.0,65.43,40.039,0.0,0
1582146171.833,20.02,9.766,42.48,31.25,0.0,0
1582146171.836,27.832,44.434,153.809,38.574,0.0,0
1582146171.84,66.406,-11.23,11.23,41.992,0.0,0
1582146171.844,75.684,23.926,-24.902,18.555,0.0,0
1582146171.8479998,25.391,73.73,158.203,19.043,0.0,0
1582146171.8520002,-17.09,26.855,115.234,12.695,0.0,0
1582146171.854,-4.883,14.16,41.01600000000001,-9.277,0.0,0
1582146171.8579998,-7.812,39.062,65.918,-34.668,0.0,0
1582146171.8620002,-41.01600000000001,31.738000000000003,55.176,-32.227,0.0,0
1582146171.8660002,-40.527,15.625,12.695,-8.789,0.0,0
1582146171.87,-25.391,61.035,58.105,-17.09,0.0,0
1582146171.8739998,-24.902,115.723,90.82,-44.434,0.0,0
1582146171.8779998,-29.297,140.137,69.336,-46.387,0.0,0
1582146171.881,-28.809,117.676,-17.578,-19.043,0.0,0
1582146171.885,-30.762,119.629,-120.605,-18.555,0.0,0
1582146171.889,-9.766,254.883,164.062,-20.996,0.0,0
1582146171.893,-3.418,247.07,309.57,-17.578,0.0,0
1582146171.897,-34.668,179.688,195.312,-16.113,0.0,0
1582146171.899,-46.387,174.805,203.613,-3.906,0.0,0
1582146171.903,-4.883,167.96900000000005,319.824,-1.465,0.0,0
1582146171.907,20.996,75.195,221.191,-8.789,0.0,0
1582146171.911,1.953,11.719,46.875,5.859,0.0,0
1582146171.915,-6.348,41.992,94.727,30.273000000000003,0.0,0
1582146171.919,10.742,38.086,124.512,23.926,0.0,0
1582146171.923,25.879,33.203,120.605,4.395,0.0,0
1582146171.926,21.973000000000006,-13.184,6.836,11.719,0.0,0
1582146171.93,17.578,2.93,20.996,34.668,0.0,0
1582146171.934,19.531,78.125,238.281,29.297,0.0,0
1582146171.938,34.668,50.78100000000001,217.773,8.301,0.0,0
1582146171.9420002,44.922,20.996,134.766,26.855,0.0,0
1582146171.944,41.992,52.246,183.105,48.34,0.0,0
1582146171.948,35.156,73.73,252.441,43.457,0.0,0
1582146171.952,36.133,22.461,167.96900000000005,22.949,0.0,0
1582146171.956,32.227,-8.789,72.75399999999998,12.207,0.0,0
1582146171.96,13.672,4.395,105.957,28.32,0.0,0
1582146171.964,17.578,-13.672,71.777,34.668,0.0,0
1582146171.968,42.48,-83.49600000000002,-144.531,16.113,0.0,0
1582146171.971,46.387,-64.941,-218.262,15.625,0.0,0
1582146171.975,32.227,57.617,55.664,33.203,0.0,0
1582146171.979,39.062,48.828,157.227,50.78100000000001,0.0,0
1582146171.9829998,46.387,4.395,62.5,30.762,0.0,0
1582146171.9870002,49.805,26.855,75.684,19.531,0.0,0
1582146171.9889998,41.504,59.57,180.664,36.133,0.0,0
1582146171.9929998,23.926,28.32,121.094,41.01600000000001,0.0,0
1582146171.9970002,22.461,23.438,106.445,44.922,0.0,0
1582146172.0010002,49.805,36.621,171.875,30.273000000000003,0.0,0
1582146172.005,57.617,14.648,85.93799999999997,31.25,0.0,0
1582146172.0089998,39.062,4.395,-27.344,48.828,0.0,0
1582146172.0129998,42.969,-7.324,-229.004,50.78100000000001,0.0,0
1582146172.016,58.105,78.613,-168.457,33.203,0.0,0
1582146172.02,61.523,119.141,83.49600000000002,21.973000000000006,0.0,0
1582146172.024,36.621,15.137,-29.785,23.926,0.0,0
1582146172.028,25.391,22.949,-41.504,28.32,0.0,0
1582146172.032,47.363,50.78100000000001,55.176,27.832,0.0,0
1582146172.049,54.688,44.434,123.535,24.902,0.0,0
1582146172.053,35.645,-7.324,65.918,28.809,0.0,0
1582146172.0570002,23.438,-39.551,-53.223,39.062,0.0,0
1582146172.061,33.691,8.301,51.27,31.738000000000003,0.0,0
1582146172.065,32.227,15.625,152.344,7.324,0.0,0
1582146172.069,12.695,-55.664,17.578,11.23,0.0,0
1582146172.073,-19.043,-53.71100000000001,-60.059,10.742,0.0,0
1582146172.076,-23.438,4.883,68.359,-8.301,0.0,0
1582146172.08,-0.488,-16.113,79.59,-14.648,0.0,0
1582146172.084,-6.348,-62.012,-75.684,-25.391,0.0,0
1582146172.0879998,-44.922,-61.523,-138.672,-39.551,0.0,0
1582146172.092,-68.848,-58.594,-55.664,-48.828,0.0,0
1582146172.094,-78.613,-104.004,-121.094,-79.59,0.0,0
1582146172.0979998,-95.703,-89.355,-99.121,-104.98,0.0,0
1582146172.1020002,-116.211,-88.37899999999998,-65.43,-104.98,0.0,0
1582146172.106,-121.094,-84.961,-101.562,-113.281,0.0,0
1582146172.11,-117.188,-50.293,-84.473,-137.207,0.0,0
1582146172.1139998,-126.953,-51.758,-124.023,-160.156,0.0,0
1582146172.1179998,-156.738,-49.805,-208.008,-171.875,0.0,0
1582146172.121,-178.71099999999996,14.16,-106.934,-169.922,0.0,0
1582146172.125,-183.594,14.16,-40.527,-193.359,0.0,0
1582146172.129,-184.57,-67.383,-275.391,-236.816,0.0,0
1582146172.133,-194.336,-20.02,-270.02,-236.328,0.0,0
1582146172.137,-214.355,44.434,-71.777,-213.379,0.0,0
1582146172.14,-208.984,10.254,-63.965,-205.078,0.0,0
1582146172.144,-189.453,-20.02,-117.676,-228.516,0.0,0
1582146172.1479998,-186.523,-12.695,-159.18,-231.445,0.0,0
1582146172.1520002,-191.406,-1.465,-112.305,-196.289,0.0,0
1582146172.156,-167.96900000000005,6.348,-61.035,-181.152,0.0,0
1582146172.16,-140.625,-9.277,-129.395,-179.199,0.0,0
1582146172.164,-127.93,8.789,-104.004,-166.50400000000005,0.0,0
1582146172.167,-126.953,35.156,1.953,-150.879,0.0,0
1582146172.171,-106.934,-25.391,-108.398,-109.863,0.0,0
1582146172.175,-51.27,-20.996,-168.457,-77.637,0.0,0
1582146172.179,-19.043,78.125,117.188,-63.477,0.0,0
1582146172.1829998,-21.484,54.199,244.141,-26.367,0.0,0
1582146172.185,-8.789,11.23,177.734,6.836,0.0,0
1582146172.189,29.785,12.695,164.551,21.484,0.0,0
1582146172.1929998,52.246,12.207,205.566,17.578,0.0,0
1582146172.197,42.969,-12.695,129.88299999999998,20.02,0.0,0
1582146172.201,36.133,-15.625,44.434,55.176,0.0,0
1582146172.205,60.059,-6.348,3.418,81.055,0.0,0
1582146172.209,90.332,-4.883,-10.254,84.473,0.0,0
1582146172.212,99.609,-4.883,0.0,94.727,0.0,0
1582146172.216,94.238,-60.059,-125.0,112.305,0.0,0
1582146172.22,105.469,-33.203,-54.199,125.977,0.0,0
1582146172.224,130.371,28.809,161.13299999999995,118.164,0.0,0
1582146172.228,134.27700000000002,-20.02,99.609,101.074,0.0,0
1582146172.229,116.699,-54.688,19.531,110.352,0.0,0
1582146172.2329998,109.863,-27.344,83.008,129.395,0.0,0
1582146172.2370002,123.047,-12.207,174.31599999999997,123.047,0.0,0
1582146172.2410002,141.113,-53.71100000000001,100.586,101.074,0.0,0
1582146172.245,148.438,-75.195,4.395,120.117,0.0,0
1582146172.2489998,119.141,-82.52,-59.082,134.27700000000002,0.0,0
1582146172.2529998,116.699,-83.008,-132.32399999999998,120.605,0.0,0
1582146172.256,137.695,-98.145,-145.02,102.539,0.0,0
1582146172.26,124.512,-129.395,-225.586,102.051,0.0,0
1582146172.264,103.027,-57.617,-70.801,118.652,0.0,0
1582146172.268,104.98,-46.875,99.609,116.211,0.0,0
1582146172.272,129.88299999999998,-73.73,104.492,122.07,0.0,0
1582146172.275,135.74200000000002,-60.547,120.605,123.535,0.0,0
1582146172.279,107.422,-52.246,162.59799999999996,119.141,0.0,0
1582146172.283,99.121,-91.309,65.43,127.441,0.0,0
1582146172.2870002,114.258,-87.891,13.672,118.164,0.0,0
1582146172.291,125.488,-61.035,109.375,111.816,0.0,0
1582146172.295,117.188,-103.516,38.574,129.395,0.0,0
1582146172.299,101.562,-144.531,-104.004,129.395,0.0,0
1582146172.302,109.375,-166.99200000000005,-243.164,106.934,0.0,0
1582146172.306,117.188,-99.121,-141.602,100.586,0.0,0
1582146172.31,103.027,-43.457,90.82,104.004,0.0,0
1582146172.314,88.867,-96.191,44.922,115.723,0.0,0
1582146172.3179998,99.609,-124.512,-69.336,110.352,0.0,0
1582146172.319,101.562,-94.238,-37.109,92.773,0.0,0
1582146172.323,97.656,-63.965,76.66,97.656,0.0,0
1582146172.327,100.586,-90.82,9.766,110.352,0.0,0
1582146172.331,104.004,-75.195,-22.949,114.746,0.0,0
1582146172.335,89.355,-36.133,111.816,72.75399999999998,0.0,0
1582146172.339,58.105,-85.449,25.879,35.645,0.0,0
1582146172.343,48.828,-160.156,-196.289,62.5,0.0,0
1582146172.346,46.875,-137.207,-230.957,67.87100000000001,0.0,0
1582146172.35,62.012,-21.973000000000006,18.066,42.48,0.0,0
1582146172.354,67.87100000000001,-27.832,167.96900000000005,32.715,0.0,0
1582146172.3579998,46.387,-101.562,77.148,44.922,0.0,0
1582146172.3620002,34.668,-93.262,39.062,49.805,0.0,0
1582146172.3639998,44.434,-58.594,127.441,38.574,0.0,0
1582146172.3679998,60.059,-66.406,161.621,40.039,0.0,0
1582146172.3720002,51.27,-106.445,33.203,33.203,0.0,0
1582146172.3760002,42.48,-107.91,-80.078,43.945,0.0,0
1582146172.38,64.453,-50.78100000000001,49.316,54.688,0.0,0
1582146172.3839998,92.285,-68.848,58.105,48.828,0.0,0
1582146172.3879998,81.543,-124.023,-151.36700000000005,44.434,0.0,0
1582146172.391,60.547,-79.102,-142.578,52.734,0.0,0
1582146172.395,62.5,-1.465,89.844,68.359,0.0,0
1582146172.399,77.637,-22.461,128.906,55.176,0.0,0
1582146172.403,80.078,-62.988,40.527,49.805,0.0,0
1582146172.407,53.71100000000001,-39.062,62.012,68.848,0.0,0
1582146172.424,43.457,-15.137,100.098,62.5,0.0,0
1582146172.428,47.852,-41.01600000000001,42.48,38.574,0.0,0
1582146172.4320002,51.27,-53.223,-30.762,24.414,0.0,0
1582146172.436,43.457,-21.973000000000006,-2.441,31.738000000000003,0.0,0
1582146172.44,33.691,-38.086,32.715,52.246,0.0,0
1582146172.444,47.363,-99.121,-96.68,54.688,0.0,0
1582146172.448,55.176,-96.68,-197.266,48.828,0.0,0
1582146172.451,49.316,-10.742,-51.27,49.805,0.0,0
1582146172.455,44.434,24.414,101.562,65.43,0.0,0
1582146172.459,47.363,-62.012,-58.594,57.617,0.0,0
1582146172.4629998,54.688,-61.523,-145.996,29.297,0.0,0
1582146172.467,54.688,14.648,50.293,34.18,0.0,0
1582146172.469,35.645,9.766,119.629,61.523,0.0,0
1582146172.4729998,42.969,-13.672,52.734,80.078,0.0,0
1582146172.4770002,66.895,-14.16,21.484,64.453,0.0,0
1582146172.481,72.266,-1.953,84.961,46.875,0.0,0
1582146172.485,54.688,-14.648,86.914,63.477,0.0,0
1582146172.4889998,40.039,-77.148,-104.98,71.777,0.0,0
1582146172.4929998,62.012,-53.71100000000001,-166.50400000000005,66.895,0.0,0
1582146172.496,78.125,2.441,16.113,63.965,0.0,0
1582146172.5,62.988,-62.5,-41.01600000000001,68.359,0.0,0
1582146172.504,48.828,-104.98,-327.637,72.75399999999998,0.0,0
1582146172.508,53.223,0.488,-246.094,45.898,0.0,0
1582146172.512,61.035,74.219,57.617,24.902,0.0,0
1582146172.514,52.734,8.301,17.578,29.297,0.0,0
1582146172.518,21.484,-27.832,-125.488,24.414,0.0,0
1582146172.522,28.32,10.742,-60.059,23.438,0.0,0
1582146172.526,43.945,20.996,26.367,2.441,0.0,0
1582146172.53,36.133,-12.207,-29.785,-1.953,0.0,0
1582146172.534,28.809,-28.32,-87.402,11.23,0.0,0
1582146172.538,26.367,-41.504,-120.117,1.465,0.0,0
1582146172.541,47.852,-10.254,-74.219,3.906,0.0,0
1582146172.545,64.941,-24.414,-94.238,19.531,0.0,0
1582146172.549,48.34,-80.566,-275.879,12.695,0.0,0
1582146172.553,27.344,12.695,-63.965,1.465,0.0,0
1582146172.5570002,32.227,1.953,-1.465,-6.348,0.0,0
1582146172.56,47.363,-14.16,-62.5,-6.836,0.0,0
1582146172.564,29.297,5.371,-8.301,-0.488,0.0,0
1582146172.5679998,-4.395,-0.488,-15.625,0.977,0.0,0
1582146172.572,4.883,5.371,13.184,-7.324,0.0,0
1582146172.576,34.668,-21.973000000000006,-28.809,-11.719,0.0,0
1582146172.58,32.227,-44.434,-142.09,16.113,0.0,0
1582146172.584,4.395,-14.16,-99.609,27.832,0.0,0
1582146172.587,-5.371,6.348,66.895,18.555,0.0,0
1582146172.591,14.648,-54.688,-57.617,-2.93,0.0,0
1582146172.595,24.414,-34.668,-68.848,-24.414,0.0,0
1582146172.599,21.484,-1.953,149.414,13.672,0.0,0
1582146172.603,24.902,-63.965,128.906,51.758,0.0,0
1582146172.605,38.086,-80.078,61.035,24.902,0.0,0
1582146172.609,33.691,-25.879,179.199,-11.23,0.0,0
1582146172.613,0.977,-62.012,121.582,-20.996,0.0,0
1582146172.617,-9.766,-81.543,-24.902,0.488,0.0,0
1582146172.621,12.695,-35.156,64.941,11.23,0.0,0
1582146172.625,34.668,-64.453,8.301,-2.93,0.0,0
1582146172.629,15.137,-52.734,-35.645,-9.766,0.0,0
1582146172.6320002,-4.395,-81.543,-130.371,-9.766,0.0,0
1582146172.6360002,0.0,-95.703,-250.977,-10.742,0.0,0
1582146172.64,28.32,22.461,24.414,-6.836,0.0,0
1582146172.644,39.551,11.23,167.96900000000005,5.859,0.0,0
1582146172.6479998,14.16,-54.688,88.37899999999998,16.113,0.0,0
1582146172.649,13.184,-62.5,57.617,13.672,0.0,0
1582146172.653,34.668,-51.27,62.988,8.789,0.0,0
1582146172.657,29.785,-49.316,62.988,12.695,0.0,0
1582146172.661,10.742,-51.758,23.926,24.414,0.0,0
1582146172.665,5.859,-60.059,-23.438,27.832,0.0,0
1582146172.669,32.227,-74.707,-48.828,21.973000000000006,0.0,0
1582146172.673,47.852,-83.984,-103.027,20.02,0.0,0
1582146172.676,27.344,-125.0,-335.449,24.414,0.0,0
1582146172.68,13.184,-49.316,-280.273,35.645,0.0,0
1582146172.684,23.926,41.504,43.945,23.438,0.0,0
1582146172.688,53.223,-12.695,47.363,11.719,0.0,0
1582146172.6920002,45.41,-56.152,-33.691,24.902,0.0,0
1582146172.694,9.766,-44.434,-3.418,32.715,0.0,0
1582146172.698,25.391,-42.48,20.02,30.762,0.0,0
1582146172.702,45.41,-60.547,-54.199,4.395,0.0,0
1582146172.706,35.156,-35.156,-56.152,-1.465,0.0,0
1582146172.71,5.859,-0.488,11.23,22.949,0.0,0
1582146172.714,-4.883,-13.184,-40.527,19.531,0.0,0
1582146172.718,28.32,-57.129,-176.27,5.371,0.0,0
1582146172.721,33.691,-44.922,-218.262,-9.766,0.0,0
1582146172.725,10.254,31.25,-71.289,0.488,0.0,0
1582146172.729,13.184,60.547,85.93799999999997,32.715,0.0,0
1582146172.7329998,29.297,41.992,90.82,24.414,0.0,0
1582146172.7370002,34.668,31.25,100.586,8.789,0.0,0
1582146172.7389998,32.227,31.25,128.418,19.531,0.0,0
1582146172.7429998,17.09,14.648,46.387,18.555,0.0,0
1582146172.7470002,17.09,27.832,15.625,6.836,0.0,0
1582146172.7510002,46.387,71.289,66.895,13.184,0.0,0
1582146172.755,40.039,66.895,105.469,20.02,0.0,0
1582146172.7589998,13.184,0.977,-31.738000000000003,22.461,0.0,0
1582146172.7629998,11.719,-57.129,-291.992,13.672,0.0,0
1582146172.766,21.484,10.742,-222.656,4.395,0.0,0
1582146172.77,16.602,93.75,98.633,6.836,0.0,0
1582146172.774,2.441,44.434,93.262,21.973000000000006,0.0,0
1582146172.778,-1.953,27.832,43.457,12.695,0.0,0
1582146172.782,20.508000000000006,28.32,34.18,-5.371,0.0,0
1582146172.799,25.391,42.48,64.941,-5.859,0.0,0
1582146172.803,-2.441,28.32,67.383,-1.953,0.0,0
1582146172.8070002,-17.578,4.883,3.906,8.789,0.0,0
1582146172.811,-7.324,50.293,67.383,-20.02,0.0,0
1582146172.815,-7.324,33.203,53.71100000000001,-54.688,0.0,0
1582146172.819,-27.832,-60.547,-169.43400000000003,-37.109,0.0,0
1582146172.823,-41.992,-86.914,-404.785,-39.062,0.0,0
1582146172.826,-39.062,21.973000000000006,-195.312,-55.176,0.0,0
1582146172.83,-16.113,42.969,-0.977,-58.594,0.0,0
1582146172.834,-30.762,-11.23,-135.254,-68.359,0.0,0
1582146172.8379998,-81.055,-24.902,-248.535,-66.895,0.0,0
1582146172.842,-98.145,11.719,-154.785,-62.012,0.0,0
1582146172.844,-82.031,12.695,-145.996,-73.242,0.0,0
1582146172.8479998,-77.148,-9.766,-223.633,-90.82,0.0,0
1582146172.8520002,-111.328,-11.23,-267.09,-97.168,0.0,0
1582146172.856,-131.34799999999998,30.273000000000003,-185.05900000000003,-100.098,0.0,0
1582146172.86,-124.512,39.551,-127.93,-134.27700000000002,0.0,0
1582146172.8639998,-132.812,4.395,-251.465,-154.297,0.0,2
1582146172.8679998,-154.785,16.602,-309.082,-155.273,0.0,0
1582146172.871,-165.03900000000004,86.426,-191.895,-141.113,0.0,0
1582146172.875,-153.809,100.586,-90.82,-146.484,0.0,0
1582146172.879,-141.113,32.227,-268.066,-185.547,0.0,0
1582146172.883,-158.203,70.312,-234.375,-181.152,0.0,0
1582146172.887,-184.082,114.258,-1.465,-165.52700000000004,0.0,0
1582146172.889,-146.97299999999996,87.402,-11.23,-149.414,0.0,0
1582146172.893,-95.215,90.332,-49.805,-129.395,0.0,0
1582146172.897,-90.82,106.445,32.227,-109.863,0.0,0
1582146172.901,-99.609,82.52,79.102,-81.543,0.0,0
1582146172.905,-78.125,30.273000000000003,48.828,-64.941,0.0,0
1582146172.909,-18.066,-29.297,-61.035,-49.316,0.0,0
1582146172.913,8.789,-33.691,-102.051,-28.32,0.0,0
1582146172.916,-3.418,3.418,9.766,-14.16,0.0,0
1582146172.92,2.93,-56.152,-79.102,1.953,0.0,0
1582146172.924,32.715,-76.172,-191.895,15.137,0.0,0
1582146172.928,68.848,29.297,105.957,40.039,0.0,0
1582146172.9320002,68.848,-5.371,173.828,65.918,0.0,0
1582146172.934,61.035,-76.172,18.066,77.148,0.0,0
1582146172.938,81.543,-90.82,20.996,86.914,0.0,0
1582146172.9420002,102.051,-83.008,178.71099999999996,85.449,0.0,0
1582146172.946,107.91,-166.99200000000005,169.922,91.797,0.0,0
1582146172.95,105.469,-247.55900000000003,31.25,117.188,0.0,0
1582146172.954,110.84,-279.785,-63.965,110.352,0.0,0
1582146172.958,138.672,-299.316,-83.49600000000002,106.934,0.0,0
1582146172.961,139.648,-278.32,20.02,117.188,0.0,0
1582146172.965,110.352,-326.66,-124.023,115.723,0.0,0
1582146172.969,103.516,-284.18,-120.117,134.766,0.0,0
1582146172.9729998,110.352,-205.078,151.855,110.84,0.0,0
1582146172.9770002,108.398,-249.023,134.27700000000002,83.984,0.0,0
1582146172.979,96.68,-276.367,45.898,103.516,0.0,0
1582146172.9829998,80.078,-274.902,73.242,98.145,0.0,0
1582146172.9870002,83.008,-290.527,90.332,85.93799999999997,0.0,0
1582146172.9910002,92.285,-324.219,6.348,86.914,0.0,0
1582146172.995,81.543,-338.379,-55.176,92.285,0.0,0
1582146172.9989998,67.87100000000001,-340.82,-84.961,86.914,0.0,0
1582146173.0029998,75.684,-314.453,-90.332,79.59,0.0,0
1582146173.006,97.656,-322.754,-105.957,78.613,0.0,0
1582146173.01,82.52,-340.82,-199.707,84.473,0.0,0
1582146173.014,72.266,-254.395,-32.227,92.773,0.0,0
1582146173.018,92.773,-270.996,2.441,80.566,0.0,0
1582146173.022,112.305,-308.594,-117.188,70.312,0.0,0
1582146173.024,107.91,-294.922,-129.88299999999998,71.777,0.0,0
1582146173.028,89.355,-261.719,-20.996,84.961,0.0,0
1582146173.032,92.285,-262.695,23.926,102.539,0.0,0
1582146173.036,107.422,-288.086,-79.102,78.125,0.0,0
1582146173.04,105.957,-266.113,-74.219,60.547,0.0,0
1582146173.044,89.844,-284.668,-121.094,86.426,0.0,0
1582146173.048,77.637,-313.4770000000001,-208.984,102.539,0.0,0
1582146173.051,98.633,-328.61300000000006,-314.453,99.609,0.0,0
1582146173.055,118.164,-280.762,-300.781,75.684,0.0,0
1582146173.059,89.844,-210.449,-88.867,72.75399999999998,0.0,0
1582146173.063,51.27,-236.328,-51.758,81.543,0.0,0
1582146173.0670002,54.688,-251.465,-126.953,69.824,0.0,0
1582146173.069,97.656,-186.035,-28.809,75.195,0.0,0
1582146173.073,95.703,-186.523,27.344,60.547,0.0,0
1582146173.077,78.613,-240.234,-121.582,81.543,0.0,0
1582146173.081,83.008,-229.492,-195.312,97.656,0.0,0
1582146173.085,98.145,-174.805,-80.566,69.336,0.0,0
1582146173.089,100.098,-196.289,-100.586,72.266,0.0,0
1582146173.093,65.43,-278.809,-347.168,77.637,0.0,0
1582146173.096,54.688,-262.695,-445.801,64.941,0.0,0
1582146173.1,76.66,-142.09,-189.453,55.664,0.0,0
1582146173.104,84.961,-134.27700000000002,-58.105,49.316,0.0,0
1582146173.1079998,64.453,-166.50400000000005,-127.93,62.5,0.0,0
1582146173.1120002,59.57,-165.52700000000004,-143.555,72.75399999999998,0.0,0
1582146173.1139998,62.988,-148.92600000000004,-69.336,61.035,0.0,0
1582146173.1179998,71.777,-147.94899999999996,-40.039,54.688,0.0,0
1582146173.1220002,79.59,-182.129,-148.438,61.035,0.0,0
1582146173.1260002,57.617,-165.03900000000004,-145.02,77.148,0.0,0
1582146173.13,51.758,-113.77,-37.109,72.75399999999998,0.0,0
1582146173.1339998,65.918,-139.16,-125.977,46.387,0.0,0
1582146173.1379998,66.895,-213.379,-449.219,46.387,0.0,0
1582146173.141,42.48,-124.023,-369.629,57.129,0.0,0
1582146173.145,38.086,-38.574,-73.73,58.594,0.0,0
1582146173.149,59.57,-103.516,-119.141,41.992,0.0,0
1582146173.153,61.523,-120.605,-160.156,39.062,0.0,0
1582146173.157,39.551,-97.656,-105.469,61.035,0.0,0
1582146173.174,31.25,-94.727,-92.773,63.965,0.0,0
1582146173.178,42.969,-101.562,-104.98,64.941,0.0,0
1582146173.1820002,65.918,-123.047,-218.262,51.758,0.0,0
1582146173.186,57.129,-80.078,-185.547,47.852,0.0,0
1582146173.19,37.109,-50.78100000000001,-67.87100000000001,61.035,0.0,0
1582146173.194,57.617,-133.789,-287.598,60.059,0.0,0
1582146173.198,67.87100000000001,-126.465,-416.504,42.969,0.0,0
1582146173.201,52.734,-20.508000000000006,-225.098,38.086,0.0,0
1582146173.205,22.949,-21.484,-179.199,46.875,0.0,0
1582146173.209,23.438,-59.082,-262.207,44.434,0.0,0
1582146173.2129998,51.27,-28.32,-260.254,18.066,0.0,0
1582146173.217,46.387,36.133,-84.473,23.438,0.0,0
1582146173.219,17.578,5.371,-76.66,29.297,0.0,0
1582146173.2229998,12.207,-14.16,-173.828,19.531,0.0,0
1582146173.2270002,41.504,27.832,-118.652,21.973000000000006,0.0,0
1582146173.231,46.387,44.434,-15.625,11.23,0.0,0
1582146173.235,23.438,4.395,-61.035,21.973000000000006,0.0,0
1582146173.2389998,10.742,-39.551,-214.355,23.926,0.0,0
1582146173.2429998,18.555,-27.344,-261.23,8.301,0.0,0
1582146173.246,43.945,7.324,-134.27700000000002,18.066,0.0,0
1582146173.25,37.109,-18.555,-101.562,39.551,0.0,0
1582146173.254,19.043,-86.914,-362.305,48.34,0.0,0
1582146173.258,33.691,-19.531,-321.777,33.691,0.0,0
1582146173.262,54.199,25.391,-127.441,21.973000000000006,0.0,0
1582146173.264,50.78100000000001,-25.391,-200.68400000000003,39.551,0.0,0
1582146173.268,29.785,-29.297,-208.008,50.78100000000001,0.0,0
1582146173.272,35.156,-14.16,-147.461,51.27,0.0,0
1582146173.276,56.152,-11.719,-121.094,41.504,0.0,0
1582146173.28,50.78100000000001,-39.062,-149.90200000000004,22.949,0.0,0
1582146173.284,28.809,-91.797,-310.547,44.434,0.0,0
1582146173.288,34.18,-66.895,-387.207,63.477,0.0,0
1582146173.291,51.758,-3.418,-213.867,54.688,0.0,0
1582146173.295,51.27,-61.523,-263.672,35.156,0.0,0
1582146173.299,40.039,-103.516,-424.316,43.457,0.0,0
1582146173.303,26.367,-26.367,-237.305,62.5,0.0,0
1582146173.3070002,33.691,-42.969,-139.648,47.852,0.0,0
1582146173.309,55.176,-65.918,-178.22299999999996,40.039,0.0,0
1582146173.313,35.645,-70.801,-209.961,32.227,0.0,0
1582146173.3170002,11.23,-71.289,-236.328,39.062,0.0,0
1582146173.321,21.973000000000006,-35.156,-129.88299999999998,51.758,0.0,0
1582146173.325,30.273000000000003,-41.504,-113.281,23.926,0.0,0
1582146173.329,20.508000000000006,-52.246,-238.77,21.973000000000006,0.0,0
1582146173.333,5.859,-24.902,-294.434,24.902,0.0,0
1582146173.336,3.418,28.32,-161.13299999999995,17.09,0.0,0
1582146173.34,17.578,0.0,-232.422,6.348,0.0,0
1582146173.344,24.414,53.223,-149.414,-1.953,0.0,0
1582146173.3479998,8.301,96.191,57.129,8.301,0.0,0
1582146173.3520002,25.391,44.434,20.508000000000006,14.16,0.0,0
1582146173.355,54.688,30.762,-39.551,9.766,0.0,0
1582146173.359,51.758,74.219,11.23,0.0,0.0,0
1582146173.363,30.762,91.797,125.0,9.277,0.0,0
1582146173.367,17.09,45.41,18.555,18.066,0.0,0
1582146173.371,34.18,47.852,-75.684,1.953,0.0,0
1582146173.375,48.34,41.01600000000001,-164.062,-10.254,0.0,0
1582146173.379,33.691,36.133,-251.465,-3.906,0.0,0
1582146173.3820002,22.949,24.902,-308.594,9.277,0.0,0
1582146173.3860002,47.852,37.109,-320.801,11.719,0.0,0
1582146173.39,72.266,153.809,-15.625,-8.301,0.0,0
1582146173.394,58.594,142.09,103.516,4.883,0.0,0
1582146173.3979998,26.367,85.449,5.859,37.598,0.0,0
1582146173.4,22.949,102.051,35.156,45.41,0.0,0
1582146173.404,44.434,122.07,152.832,30.762,0.0,0
1582146173.408,42.48,114.258,143.555,7.812,0.0,0
1582146173.4120002,19.531,87.402,34.668,18.555,0.0,0
1582146173.416,20.996,71.289,27.344,32.227,0.0,0
1582146173.42,35.645,45.898,-14.16,17.09,0.0,0
1582146173.424,34.668,62.988,-38.086,2.93,0.0,0
1582146173.427,8.301,14.16,-200.195,4.395,0.0,0
1582146173.431,-0.488,47.852,-238.281,9.277,0.0,0
1582146173.435,15.625,171.875,98.145,0.0,0.0,0
1582146173.439,31.738000000000003,133.789,126.465,-13.184,0.0,0
1582146173.4429998,34.18,121.094,41.504,4.883,0.0,0
1582146173.444,17.09,168.945,143.555,25.879,0.0,0
1582146173.448,25.879,177.734,164.551,22.949,0.0,0
1582146173.452,48.34,148.92600000000004,22.949,12.695,0.0,0
1582146173.456,38.086,167.96900000000005,-8.301,8.301,0.0,0
1582146173.46,22.949,210.449,47.363,27.832,0.0,0
1582146173.464,31.738000000000003,198.242,-37.598,27.344,0.0,0
1582146173.468,41.992,196.777,-135.254,6.348,0.0,0
1582146173.471,35.156,255.859,-198.242,7.324,0.0,0
1582146173.475,19.531,388.672,-34.18,26.367,0.0,0
1582146173.479,20.996,430.176,112.305,43.945,0.0,0
1582146173.4829998,29.785,410.645,81.055,33.203,0.0,0
1582146173.4870002,37.598,410.645,35.645,22.949,0.0,0
1582146173.4929998,29.785,446.289,128.418,36.133,0.0,0
1582146173.4970002,12.695,456.543,163.086,36.133,0.0,0
1582146173.5010002,27.832,325.684,70.312,19.531,0.0,0
1582146173.505,51.27,-37.109,29.297,3.906,0.0,0
1582146173.5089998,40.527,-430.176,-24.414,12.695,0.0,0
1582146173.5129998,26.367,-731.934,-164.551,34.18,0.0,0
1582146173.5170002,29.297,-929.688,-458.496,34.18,0.0,0
1582146173.52,30.762,-957.52,-436.035,18.555,0.0,0
1582146173.524,22.949,-954.102,-160.645,0.977,0.0,0
1582146173.528,7.324,-974.121,-175.293,11.23,0.0,0
1582146173.532,5.859,-971.68,-231.445,29.297,0.0,0
1582146173.536,19.531,-972.168,-127.441,12.207,0.0,0
1582146173.55,29.297,-972.168,-49.805,-0.488,0.0,0
1582146173.554,14.648,-972.168,-125.488,21.484,0.0,0
1582146173.5579998,18.066,-972.168,-226.074,44.434,0.0,0
1582146173.562,31.25,-972.168,-146.97299999999996,35.645,0.0,0
1582146173.566,36.133,-970.703,21.973000000000006,22.949,0.0,0
1582146173.57,23.438,-971.68,-158.691,32.227,0.0,0
1582146173.574,-0.977,-972.168,-345.7030000000001,27.832,0.0,0
1582146173.577,11.23,-972.168,-109.863,27.832,0.0,0
1582146173.581,40.039,-972.168,39.551,25.879,0.0,0
1582146173.585,31.25,-972.168,-67.87100000000001,18.555,0.0,0
1582146173.589,4.883,-972.168,-173.828,17.578,0.0,0
1582146173.593,4.883,-972.168,-86.426,9.277,0.0,0
1582146173.595,15.137,-972.168,2.441,-0.488,0.0,0
1582146173.599,15.625,-972.168,-53.71100000000001,-2.441,0.0,0
1582146173.603,0.488,-972.168,-74.219,11.719,0.0,0
1582146173.607,-2.441,-972.168,-5.371,37.598,0.0,0
1582146173.611,20.508000000000006,-972.168,2.93,19.531,0.0,0
1582146173.615,40.039,-972.168,-82.031,9.277,0.0,0
1582146173.619,26.367,-972.168,-172.852,28.32,0.0,0
1582146173.6220002,15.625,-972.168,-94.238,34.668,0.0,0
1582146173.6260002,29.785,-972.168,14.648,37.598,0.0,0
1582146173.63,39.062,-972.168,-171.875,16.602,0.0,0
1582146173.6339998,28.32,-972.168,-218.75,12.695,0.0,0
1582146173.6379998,15.137,-972.168,-6.836,35.645,0.0,0
1582146173.639,20.508000000000006,-972.168,-69.824,24.902,0.0,0
1582146173.643,39.062,-972.168,-139.648,4.395,0.0,0
1582146173.647,26.855,-972.168,-42.48,-1.465,0.0,0
1582146173.651,-2.93,-972.656,-44.434,2.93,0.0,0
1582146173.655,-5.371,-969.727,-132.32399999999998,2.441,0.0,0
1582146173.659,17.578,-976.562,-252.93,-1.465,0.0,0
1582146173.663,27.344,-958.984,-232.422,0.488,0.0,0
1582146173.666,15.137,-911.133,-113.281,9.277,0.0,0
1582146173.67,6.836,-958.984,-250.977,19.531,0.0,0
1582146173.674,19.043,-920.898,-302.246,-3.906,0.0,0
1582146173.678,27.832,-785.1560000000002,-14.648,-18.066,0.0,0
1582146173.6820002,21.484,-785.645,88.867,10.742,0.0,0
1582146173.685,19.531,-808.105,20.02,37.109,0.0,0
1582146173.689,30.762,-737.793,63.477,34.18,0.0,0
1582146173.6929998,44.922,-679.688,117.188,21.484,0.0,0
1582146173.697,25.879,-670.898,95.703,23.438,0.0,0
1582146173.701,6.836,-683.105,38.574,38.086,0.0,0
1582146173.705,20.508000000000006,-716.797,-98.145,39.551,0.0,0
1582146173.709,44.434,-668.457,-123.047,24.414,0.0,0
1582146173.712,44.434,-591.797,19.043,28.32,0.0,0
1582146173.716,28.809,-658.691,-122.07,42.48,0.0,0
1582146173.72,31.738000000000003,-575.195,-95.703,44.434,0.0,0
1582146173.724,55.664,-454.59,111.328,32.715,0.0,0
1582146173.728,70.312,-465.82,-15.625,36.621,0.0,0
1582146173.729,50.78100000000001,-402.832,-20.996,51.27,0.0,0
1582146173.7329998,35.156,-320.801,71.289,55.176,0.0,0
1582146173.7370002,43.945,-269.531,104.492,35.156,0.0,0
1582146173.7410002,55.664,-224.609,38.574,6.348,0.0,0
1582146173.745,36.621,-116.211,5.371,18.066,0.0,0
1582146173.7489998,15.137,-54.688,-26.367,41.01600000000001,0.0,0
1582146173.7529998,17.578,22.461,-1.465,35.645,0.0,0
1582146173.756,38.086,209.473,-67.383,10.742,0.0,0
1582146173.76,38.086,500.0,-135.74200000000002,14.16,0.0,0
1582146173.764,21.973000000000006,762.207,88.37899999999998,43.457,0.0,0
1582146173.768,27.832,893.066,247.07,54.688,0.0,0
1582146173.772,42.48,992.188,221.191,25.391,0.0,0
1582146173.774,38.086,-1000.0,187.988,7.324,0.0,0
1582146173.778,14.648,997.07,155.273,22.461,0.0,0
1582146173.782,12.695,-1000.0,121.582,39.062,0.0,0
1582146173.786,23.438,999.512,140.137,23.438,0.0,0
1582146173.79,15.137,997.559,154.297,11.23,0.0,0
1582146173.794,0.488,999.023,95.215,32.227,0.0,0
1582146173.798,10.742,995.117,13.672,47.852,0.0,0
1582146173.801,22.461,911.621,-145.50799999999995,30.762,0.0,0
1582146173.805,18.066,911.621,-94.727,7.324,0.0,0
1582146173.809,12.207,908.691,104.98,21.484,0.0,0
1582146173.813,12.695,767.09,23.926,46.875,0.0,0
1582146173.8170002,20.996,661.133,-68.359,32.715,0.0,0
1582146173.819,33.203,699.2189999999998,-13.672,16.113,0.0,0
1582146173.823,19.531,734.375,43.945,12.207,0.0,0
1582146173.827,0.0,665.039,-146.484,16.602,0.0,0
1582146173.831,11.719,740.2339999999998,-160.156,28.809,0.0,0
1582146173.835,33.203,837.4019999999998,-60.547,13.184,0.0,0
1582146173.839,22.949,877.441,-195.312,4.883,0.0,0
1582146173.843,-2.441,883.789,-362.305,21.484,0.0,0
1582146173.846,-1.953,867.676,-415.039,23.926,0.0,0
1582146173.85,16.113,916.992,-202.637,14.16,0.0,0
1582146173.854,28.32,862.305,-111.328,1.953,0.0,0
1582146173.8579998,10.254,788.574,-192.383,14.16,0.0,0
1582146173.8620002,-7.324,751.465,-209.473,33.691,0.0,0
1582146173.8639998,24.902,764.648,-96.191,27.344,0.0,0
1582146173.8679998,48.828,744.6289999999998,-89.355,18.555,0.0,0
1582146173.8720002,23.926,673.828,-208.008,30.273000000000003,0.0,0
1582146173.8760002,4.395,674.805,-250.977,32.715,0.0,0
1582146173.88,16.602,726.562,-137.695,26.855,0.0,0
1582146173.8839998,40.039,642.09,-191.895,26.855,0.0,0
1582146173.8879998,30.273000000000003,557.617,-450.195,24.902,0.0,0
1582146173.891,12.207,630.371,-460.449,31.738000000000003,0.0,0
1582146173.895,2.93,732.422,-243.652,29.297,0.0,0
1582146173.899,2.93,743.6519999999998,-125.977,2.93,0.0,0
1582146173.903,8.301,688.477,-171.387,-5.371,0.0,0
1582146173.907,1.465,693.8480000000002,-122.559,6.836,0.0,0
1582146173.924,4.395,710.449,-54.688,22.461,0.0,0
1582146173.928,33.203,652.344,-104.492,30.762,0.0,0
1582146173.9320002,42.969,595.215,-137.207,19.043,0.0,2
1582146173.936,18.066,591.797,-150.391,13.672,0.0,0
1582146173.94,11.23,614.746,-106.445,33.691,0.0,0
1582146173.944,27.344,521.9730000000002,-231.93400000000003,31.738000000000003,0.0,0
1582146173.948,36.621,484.86300000000006,-356.445,13.672,0.0,0
1582146173.951,32.227,583.984,-182.129,22.461,0.0,0
1582146173.955,19.043,586.4259999999998,-42.969,35.156,0.0,0
1582146173.959,18.555,497.07,-142.578,27.344,0.0,0
1582146173.9629998,37.598,474.121,-335.9380000000001,5.371,0.0,0
1582146173.967,29.297,558.594,-258.301,8.789,0.0,0
1582146173.969,6.348,602.539,-109.375,28.32,0.0,0
1582146173.9729998,-2.441,546.387,-162.109,-3.906,0.0,0
1582146173.9770002,17.09,462.402,-221.68,-20.508000000000006,0.0,0
1582146173.981,29.785,463.379,-105.469,-6.348,0.0,0
1582146173.985,4.883,467.773,-95.215,11.23,0.0,0
1582146173.9889998,-6.836,422.852,-227.539,30.762,0.0,0
1582146173.9929998,11.23,430.664,-277.344,15.625,0.0,0
1582146173.996,18.555,513.672,-142.09,-7.812,0.0,0
1582146174.0,11.23,484.375,-118.164,8.301,0.0,0
1582146174.004,-1.465,362.305,-375.48800000000006,27.344,0.0,0
1582146174.008,13.672,428.711,-315.918,25.879,0.0,0
1582146174.012,38.086,526.367,-21.484,24.414,0.0,0
1582146174.014,14.16,501.953,-35.645,12.207,0.0,0
1582146174.018,2.93,469.727,-196.289,21.484,0.0,0
1582146174.022,21.973000000000006,520.508,-219.727,34.18,0.0,0
1582146174.026,27.344,592.773,-50.293,10.742,0.0,0
1582146174.03,18.066,532.227,-90.332,-0.977,0.0,0
1582146174.034,-14.648,458.984,-267.09,12.695,0.0,0
1582146174.038,-11.23,480.957,-261.23,23.926,0.0,0
1582146174.041,28.32,543.457,-69.824,13.672,0.0,0
1582146174.045,26.855,447.266,-168.457,-4.883,0.0,0
1582146174.049,-0.488,349.121,-449.707,7.324,0.0,0
1582146174.053,-19.531,465.332,-226.074,13.184,0.0,0
1582146174.0570002,-4.395,446.777,-49.805,3.906,0.0,0
1582146174.059,23.438,350.586,-139.16,5.859,0.0,0
1582146174.063,12.207,353.516,-101.562,20.996,0.0,0
1582146174.0670002,-0.488,355.957,-17.09,36.133,0.0,0
1582146174.071,14.648,292.969,-107.422,33.203,0.0,0
1582146174.075,25.879,240.723,-223.633,20.02,0.0,0
1582146174.079,15.625,225.586,-337.891,22.949,0.0,0
1582146174.083,0.977,304.688,-334.473,30.762,0.0,0
1582146174.086,6.836,396.973,-203.125,22.949,0.0,0
1582146174.09,28.32,371.094,-330.566,12.695,0.0,0
1582146174.094,23.438,427.734,-339.355,0.0,0.0,0
1582146174.0979998,-3.418,486.328,-137.695,15.137,0.0,0
1582146174.1020002,-6.836,414.551,-178.71099999999996,21.484,0.0,0
1582146174.104,7.812,405.762,-196.289,1.953,0.0,0
1582146174.1079998,22.461,447.754,-95.703,-4.883,0.0,0
1582146174.1120002,17.09,412.109,-35.156,7.324,0.0,0
1582146174.1160002,2.93,268.066,-215.82,17.578,0.0,0
1582146174.12,20.996,231.445,-329.102,13.184,0.0,0
1582146174.1239998,31.25,250.977,-304.688,-2.93,0.0,0
1582146174.1279998,3.906,256.836,-302.246,-15.625,0.0,0
1582146174.131,-5.859,211.914,-368.652,-4.883,0.0,0
1582146174.135,10.742,176.75799999999995,-481.445,-4.395,0.0,0
1582146174.139,27.832,298.34,-198.242,-7.324,0.0,0
1582146174.143,25.391,286.133,-41.504,8.789,0.0,0
1582146174.147,2.441,216.797,-151.36700000000005,20.02,0.0,0
1582146174.149,-6.348,229.004,-196.289,5.371,0.0,0
1582146174.153,11.719,279.785,-55.664,-7.812,0.0,0
1582146174.157,18.066,262.695,-18.066,-3.418,0.0,0
1582146174.161,10.254,243.164,-156.25,18.066,0.0,0
1582146174.165,8.301,262.695,-146.484,23.926,0.0,0
1582146174.169,27.832,268.555,-91.309,-1.953,0.0,0
1582146174.173,33.691,270.02,-153.809,-16.113,0.0,0
1582146174.176,13.184,225.586,-385.254,-8.301,0.0,0
1582146174.18,-5.859,294.922,-347.168,0.0,0.0,0
1582146174.184,8.301,385.254,-36.621,-0.488,0.0,0
1582146174.188,41.01600000000001,325.195,-38.086,-4.883,0.0,0
1582146174.1920002,29.785,297.363,-115.723,2.441,0.0,0
1582146174.194,-0.977,332.031,-60.547,0.0,0.0,0
1582146174.198,3.418,332.52,-34.18,-20.996,0.0,0
1582146174.202,26.367,268.066,-85.93799999999997,-31.738000000000003,0.0,0
1582146174.206,20.996,219.727,-128.906,-32.715,0.0,0
1582146174.21,3.418,238.281,-92.773,-17.09,0.0,0
1582146174.214,10.742,222.168,-139.648,1.953,0.0,0
1582146174.218,28.809,188.477,-269.043,-13.672,0.0,0
1582146174.221,23.926,232.91,-349.121,-29.785,0.0,0
1582146174.225,10.254,377.441,-163.57399999999996,-13.184,0.0,0
1582146174.229,0.0,464.355,37.109,10.254,0.0,0
1582146174.2329998,10.254,521.9730000000002,68.848,1.465,0.0,0
1582146174.2370002,18.066,607.91,88.37899999999998,-3.418,0.0,0
1582146174.24,3.906,687.5,174.31599999999997,3.906,0.0,0
1582146174.244,-2.93,677.7339999999998,40.527,7.812,0.0,0
1582146174.248,16.602,712.8910000000002,-33.691,11.719,0.0,0
1582146174.252,38.574,817.383,156.738,7.324,0.0,0
1582146174.256,36.133,844.238,224.121,18.066,0.0,0
1582146174.26,23.438,811.035,134.27700000000002,28.32,0.0,0
1582146174.264,8.789,761.23,-60.059,-2.441,0.0,0
1582146174.2670002,16.602,837.4019999999998,-11.719,-29.297,0.0,0
1582146174.271,24.902,930.664,246.094,-20.02,0.0,0
1582146174.275,12.207,858.887,158.203,-2.93,0.0,0
1582146174.279,11.719,848.633,23.926,0.977,0.0,0
1582146174.283,38.574,946.289,99.609,-3.906,0.0,0
1582146174.3,47.852,974.609,155.762,1.953,0.0,0
1582146174.304,21.973000000000006,920.41,76.66,5.371,0.0,0
1582146174.3079998,15.625,905.762,7.812,10.254,0.0,0
1582146174.312,39.062,961.914,140.137,11.23,0.0,0
1582146174.316,46.875,949.219,174.805,2.93,0.0,0
1582146174.32,29.785,848.145,-64.453,21.973000000000006,0.0,0
1582146174.324,18.555,868.164,-149.414,46.875,0.0,0
1582146174.327,34.668,994.629,97.656,33.203,0.0,0
1582146174.331,52.734,985.84,208.496,11.719,0.0,0
1582146174.335,48.828,915.039,70.801,11.23,0.0,0
1582146174.339,26.367,904.297,19.043,27.344,0.0,0
1582146174.343,15.625,909.18,115.723,19.531,0.0,0
1582146174.345,24.414,877.441,125.488,-6.348,0.0,0
1582146174.349,10.254,848.145,51.758,-26.855,0.0,0
1582146174.353,-17.09,813.965,16.113,-21.973000000000006,0.0,0
1582146174.357,-26.367,756.836,-14.16,-4.395,0.0,0
1582146174.361,-18.066,695.801,-54.688,-31.25,0.0,0
1582146174.365,-24.902,616.6990000000002,-98.633,-54.199,0.0,0
1582146174.369,-57.129,553.2230000000002,-211.914,-57.617,0.0,0
1582146174.3720002,-76.66,562.5,-235.352,-64.453,0.0,0
1582146174.3760002,-67.383,552.246,-240.723,-61.035,0.0,0
1582146174.38,-67.383,500.48800000000006,-408.691,-93.75,0.0,0
1582146174.3839998,-100.586,582.52,-368.652,-124.023,0.0,0
1582146174.3879998,-124.512,649.9019999999998,-158.691,-127.441,0.0,0
1582146174.389,-118.164,561.523,-196.289,-138.672,0.0,0
1582146174.393,-125.488,513.672,-266.113,-162.109,0.0,0
1582146174.397,-158.691,541.992,-242.188,-187.5,0.0,0
1582146174.401,-186.035,581.055,-144.043,-187.988,0.0,0
1582146174.405,-198.73,516.602,-270.996,-204.59,0.0,0
1582146174.409,-184.082,465.332,-441.895,-230.957,0.0,0
1582146174.413,-195.312,480.469,-366.211,-228.516,0.0,0
1582146174.416,-239.258,507.812,-233.887,-237.793,0.0,0
1582146174.42,-244.141,427.734,-362.305,-253.906,0.0,0
1582146174.424,-215.332,396.973,-532.715,-261.719,0.0,0
1582146174.428,-209.961,521.484,-337.891,-262.695,0.0,0
1582146174.4320002,-228.027,530.273,-231.445,-243.164,0.0,0
1582146174.434,-236.328,503.418,-242.676,-231.93400000000003,0.0,0
1582146174.438,-223.145,513.672,-229.98,-248.047,0.0,0
1582146174.4420002,-197.266,562.012,-139.648,-263.672,0.0,0
1582146174.446,-204.102,541.992,-115.234,-250.0,0.0,0
1582146174.45,-220.215,475.098,-222.168,-220.215,0.0,0
1582146174.454,-198.73,486.816,-226.562,-207.52,0.0,0
1582146174.458,-178.22299999999996,499.512,-145.50799999999995,-221.68,0.0,0
1582146174.461,-180.176,510.742,-71.777,-227.539,0.0,0
1582146174.465,-177.24599999999995,456.543,-221.191,-209.961,0.0,0
1582146174.469,-154.785,516.113,-254.883,-185.547,0.0,0
1582146174.4729998,-128.418,661.6210000000002,42.969,-181.641,0.0,0
1582146174.4770002,-106.934,606.445,32.227,-175.293,0.0,0
1582146174.48,-99.609,594.238,-29.785,-148.92600000000004,0.0,0
1582146174.484,-83.49600000000002,617.188,-52.734,-114.258,0.0,0
1582146174.488,-55.176,623.535,19.531,-102.539,0.0,0
1582146174.492,-15.625,621.094,92.285,-71.777,0.0,0
1582146174.496,0.488,619.141,105.469,-22.949,0.0,0
1582146174.5,-2.441,591.309,73.242,-15.137,0.0,0
1582146174.504,30.273000000000003,580.566,44.922,-5.371,0.0,0
1582146174.5070002,58.594,550.781,93.75,12.207,0.0,0
1582146174.5110002,50.293,458.496,-29.785,12.695,0.0,0
1582146174.515,48.828,519.531,82.031,47.852,0.0,0
1582146174.519,75.195,540.5269999999998,294.922,71.289,0.0,0
1582146174.5229998,98.633,458.008,286.133,55.664,0.0,0
1582146174.525,103.027,412.109,242.676,80.078,0.0,0
1582146174.529,93.75,404.785,281.738,106.445,0.0,0
1582146174.533,98.633,367.676,276.367,116.699,0.0,0
1582146174.5370002,129.395,377.93,316.895,110.352,0.0,0
1582146174.541,143.066,333.496,241.211,89.355,0.0,0
1582146174.545,130.859,263.184,62.988,111.328,0.0,0
1582146174.549,119.141,276.855,75.195,133.789,0.0,0
1582146174.552,136.719,194.824,-88.867,114.746,0.0,0
1582146174.556,151.36700000000005,248.535,-35.645,89.844,0.0,0
1582146174.56,132.812,354.492,261.23,103.516,0.0,0
1582146174.564,122.07,257.812,147.461,126.465,0.0,0
1582146174.5679998,138.184,211.914,53.223,113.281,0.0,0
1582146174.57,141.113,240.234,124.023,97.168,0.0,0
1582146174.574,126.953,257.812,217.773,96.68,0.0,0
1582146174.5779998,117.676,209.473,164.062,120.117,0.0,0
1582146174.582,124.512,182.617,81.543,130.371,0.0,0
1582146174.586,141.113,188.477,118.652,109.375,0.0,0
1582146174.59,136.23,133.30100000000002,50.293,111.816,0.0,0
1582146174.594,124.512,73.73,-61.523,137.207,0.0,0
1582146174.597,125.488,44.922,-204.59,149.414,0.0,0
1582146174.601,130.859,188.477,8.301,135.74200000000002,0.0,0
1582146174.605,131.836,258.789,239.746,120.605,0.0,0
1582146174.609,120.117,199.219,132.32399999999998,141.113,0.0,0
1582146174.613,121.094,211.426,92.773,156.738,0.0,0
1582146174.6139998,140.137,257.324,183.594,142.09,0.0,0
1582146174.6179998,141.113,257.324,250.0,134.27700000000002,0.0,0
1582146174.6220002,109.375,202.148,132.32399999999998,131.34799999999998,0.0,0
1582146174.6260002,85.449,177.24599999999995,19.531,134.766,0.0,0
1582146174.63,95.703,212.891,113.77,124.023,0.0,0
1582146174.6339998,112.793,176.27,56.64100000000001,103.516,0.0,0
1582146174.6379998,101.074,91.309,-231.93400000000003,107.422,0.0,0
1582146174.641,73.73,161.13299999999995,-191.895,120.117,0.0,0
1582146174.645,81.055,235.84,41.01600000000001,126.953,0.0,0
1582146174.649,103.027,176.75799999999995,6.836,106.934,0.0,0
1582146174.653,87.891,140.137,-81.543,87.402,0.0,0
1582146174.657,56.64100000000001,192.871,-3.418,109.375,0.0,0
1582146174.674,55.664,222.656,103.516,112.793,0.0,0
1582146174.678,77.148,144.531,-38.086,88.37899999999998,0.0,0
1582146174.6820002,79.59,139.648,-97.168,68.848,0.0,0
1582146174.686,68.359,182.129,-65.43,74.219,0.0,0
1582146174.69,62.012,200.68400000000003,-46.875,99.609,0.0,0
1582146174.694,69.824,139.648,-136.23,90.82,0.0,0
1582146174.698,79.102,99.609,-272.461,63.965,0.0,0
1582146174.701,51.758,167.96900000000005,-123.047,67.87100000000001,0.0,0
1582146174.705,45.898,168.945,16.113,89.844,0.0,0
1582146174.709,64.941,50.293,-189.453,100.098,0.0,0
1582146174.7129998,68.848,33.691,-294.434,84.961,0.0,0
1582146174.717,52.734,130.859,-88.867,80.078,0.0,0
1582146174.72,28.32,98.633,-107.91,85.449,0.0,0
1582146174.724,26.367,71.289,-217.773,84.961,0.0,0
1582146174.728,41.992,123.535,-125.0,75.684,0.0,0
1582146174.732,44.434,141.602,-24.902,64.941,0.0,0
1582146174.736,24.414,103.027,-28.32,79.102,0.0,0
1582146174.74,23.926,48.34,-140.137,79.59,0.0,0
1582146174.744,51.27,72.75399999999998,-180.176,52.734,0.0,0
1582146174.7470002,58.594,134.766,-83.008,47.852,0.0,0
1582146174.7510002,34.18,111.328,-82.52,51.27,0.0,0
1582146174.755,22.461,11.23,-358.398,46.387,0.0,0
1582146174.7589998,45.41,85.93799999999997,-351.074,44.434,0.0,0
1582146174.7629998,63.477,209.473,-4.883,39.062,0.0,0
1582146174.765,52.246,141.602,-12.207,48.34,0.0,0
1582146174.769,32.715,103.027,-83.49600000000002,66.895,0.0,0
1582146174.7729998,36.133,142.09,-20.996,69.336,0.0,0
1582146174.7770002,58.105,152.344,40.039,41.504,0.0,0
1582146174.781,55.664,104.492,-60.547,38.086,0.0,0
1582146174.785,29.297,79.102,-201.172,63.965,0.0,0
1582146174.789,22.949,139.16,-171.875,57.617,0.0,0
1582146174.792,42.969,227.051,0.488,32.227,0.0,0
1582146174.796,47.852,172.363,-10.254,14.16,0.0,0
1582146174.8,30.762,90.332,-225.098,17.578,0.0,0
1582146174.804,22.949,176.75799999999995,-107.91,44.434,0.0,0
1582146174.8079998,42.969,179.688,-35.645,36.133,0.0,0
1582146174.81,42.969,150.391,-110.352,11.23,0.0,0
1582146174.814,23.438,169.43400000000003,-77.637,15.137,0.0,0
1582146174.8179998,19.043,168.457,-68.359,31.25,0.0,0
1582146174.822,26.367,167.48,-69.824,21.973000000000006,0.0,0
1582146174.826,48.34,144.043,-101.562,8.301,0.0,0
1582146174.83,42.48,111.328,-208.496,24.414,0.0,0
1582146174.834,29.785,138.184,-190.43,39.062,0.0,0
1582146174.837,51.758,135.74200000000002,-180.664,38.574,0.0,0
1582146174.841,58.105,86.914,-323.73,20.996,0.0,0
1582146174.845,47.852,144.531,-235.84,15.625,0.0,0
1582146174.849,38.574,211.426,10.254,41.01600000000001,0.0,0
1582146174.853,41.504,145.996,-21.484,48.34,0.0,0
1582146174.854,63.477,113.77,-85.449,40.039,0.0,0
1582146174.8579998,64.453,155.273,-29.785,34.18,0.0,0
1582146174.8620002,35.645,128.906,-62.5,40.039,0.0,0
1582146174.8660002,26.855,72.266,-200.68400000000003,60.547,0.0,0
1582146174.87,45.41,111.328,-169.922,44.922,0.0,0
1582146174.8739998,54.199,115.723,-140.625,27.832,0.0,0
1582146174.8779998,26.367,98.633,-210.449,27.344,0.0,0
1582146174.881,-2.93,47.363,-316.895,29.297,0.0,0
1582146174.885,14.16,11.23,-453.61300000000006,23.926,0.0,0
1582146174.889,37.598,128.418,-207.52,-2.93,0.0,0
1582146174.893,29.785,108.887,-115.723,6.836,0.0,0
1582146174.897,25.879,64.453,-236.816,37.598,0.0,0
1582146174.899,37.598,95.703,-179.199,49.316,0.0,0
1582146174.903,51.27,89.844,-148.92600000000004,48.828,0.0,0
1582146174.907,43.945,62.988,-175.293,41.01600000000001,0.0,0
1582146174.911,21.973000000000006,55.664,-240.234,58.594,0.0,0
1582146174.915,26.367,64.941,-288.086,78.125,0.0,0
1582146174.919,50.78100000000001,60.547,-314.453,66.406,0.0,0
1582146174.923,46.387,60.059,-318.3590000000001,50.78100000000001,0.0,0
1582146174.926,23.926,3.906,-444.824,43.457,0.0,0
1582146174.93,23.438,53.223,-395.996,53.71100000000001,0.0,0
1582146174.934,42.969,155.273,-77.148,69.824,0.0,0
1582146174.938,60.059,63.477,-162.59799999999996,62.012,0.0,0
1582146174.9420002,46.387,30.273000000000003,-235.84,57.617,0.0,0
1582146174.944,25.391,69.336,-152.344,57.129,0.0,0
1582146174.948,41.504,82.52,-150.879,55.176,0.0,0
1582146174.952,63.965,83.008,-145.50799999999995,48.828,0.0,0
1582146174.956,60.059,80.078,-147.94899999999996,51.758,0.0,0
1582146174.96,39.062,95.215,-112.793,67.87100000000001,0.0,0
1582146174.964,28.809,64.453,-189.453,48.828,0.0,0
1582146174.968,41.01600000000001,15.137,-305.664,22.949,0.0,0
1582146174.971,32.715,5.371,-343.26199999999994,15.625,0.0,0
1582146174.975,13.672,89.355,-190.43,26.367,0.0,0
1582146174.979,13.672,97.656,-23.438,51.758,0.0,0
1582146174.9829998,26.855,50.293,-8.789,37.109,0.0,0
1582146174.9870002,31.25,37.598,-11.719,21.484,0.0,0
1582146174.9889998,13.672,57.617,58.594,29.297,0.0,0
1582146174.9929998,10.742,20.02,-2.93,31.738000000000003,0.0,0
1582146174.9970002,34.18,-0.488,-97.168,30.762,0.0,0
1582146175.0010002,45.41,53.223,20.508000000000006,23.926,0.0,0
1582146175.005,31.25,21.973000000000006,1.953,21.484,0.0,0
1582146175.0089998,20.508000000000006,-29.785,-173.828,39.551,0.0,0
1582146175.0129998,30.273000000000003,-43.945,-325.684,33.691,0.0,0
1582146175.016,48.34,10.254,-295.898,5.859,0.0,0
1582146175.02,45.898,100.586,-43.457,-0.977,0.0,0
1582146175.024,27.832,92.773,54.199,17.578,0.0,0
1582146175.028,33.691,37.598,-36.133,25.879,0.0,0
1582146175.032,42.969,43.457,-56.152,0.488,0.0,0
1582146175.049,26.855,72.75399999999998,23.438,-26.367,0.0,0
1582146175.053,1.465,37.109,11.23,-27.832,0.0,0
1582146175.0570002,0.0,-16.602,-104.492,-13.184,0.0,0
1582146175.061,33.691,18.066,-74.219,-5.859,0.0,0
1582146175.065,44.922,43.457,20.508000000000006,-18.066,0.0,0
1582146175.069,6.348,-63.965,-176.75799999999995,-20.508000000000006,0.0,0
1582146175.073,-8.301,-95.215,-371.094,-10.254,0.0,1
1582146175.076,16.602,28.32,-188.965,-10.254,0.0,0
1582146175.08,36.133,95.703,66.406,9.766,0.0,0
1582146175.084,19.043,39.062,56.152,9.277,0.0,0
1582146175.0879998,9.766,11.719,-9.766,17.578,0.0,0
1582146175.092,25.391,42.48,64.453,22.461,0.0,0
1582146175.094,39.551,21.973000000000006,62.012,6.836,0.0,0
1582146175.0979998,41.992,2.441,8.789,22.461,0.0,0
1582146175.1020002,17.09,25.391,37.109,35.156,0.0,0
1582146175.106,6.836,51.758,163.086,23.438,0.0,0
1582146175.11,29.785,32.715,177.24599999999995,6.348,0.0,0
1582146175.1139998,45.41,-45.41,-36.133,0.977,0.0,0
1582146175.1179998,31.25,-40.039,-132.32399999999998,20.996,0.0,0
1582146175.121,24.414,38.086,7.812,31.25,0.0,0
1582146175.125,41.504,50.293,90.82,20.508000000000006,0.0,0
1582146175.129,47.852,-61.035,-138.184,6.348,0.0,0
1582146175.133,36.133,-77.637,-294.922,8.789,0.0,0
1582146175.137,29.297,50.293,-17.09,40.527,0.0,0
1582146175.139,33.691,0.0,25.879,42.48,0.0,0
1582146175.143,49.805,-58.105,-79.59,20.508000000000006,0.0,0
1582146175.147,40.039,7.324,15.137,23.438,0.0,0
1582146175.151,13.672,24.902,105.469,41.01600000000001,0.0,0
1582146175.155,31.738000000000003,-38.574,12.695,48.34,0.0,0
1582146175.159,47.363,-83.49600000000002,-140.137,36.621,0.0,0
1582146175.163,36.133,-39.551,-118.652,29.785,0.0,0
1582146175.166,23.438,12.695,2.441,34.18,0.0,0
1582146175.17,17.09,-71.289,-125.977,29.785,0.0,0
1582146175.174,50.293,-82.52,-275.391,33.691,0.0,0
1582146175.178,67.87100000000001,80.078,-24.414,35.156,0.0,0
1582146175.1820002,37.109,88.867,82.031,36.133,0.0,0
1582146175.184,20.996,41.992,-3.418,31.25,0.0,0
1582146175.188,25.879,45.41,-35.156,21.973000000000006,0.0,0
1582146175.1920002,41.992,82.031,30.762,20.02,0.0,0
1582146175.196,31.25,43.457,46.387,28.809,0.0,0
1582146175.2,7.324,-19.043,-12.207,41.504,0.0,0
1582146175.204,25.879,-71.777,-123.535,20.996,0.0,0
1582146175.208,38.086,-55.664,-107.91,0.0,0.0,0
1582146175.211,20.508000000000006,-22.949,72.75399999999998,11.719,0.0,0
1582146175.215,7.812,-175.78099999999995,-160.645,19.043,0.0,0
1582146175.219,4.883,-175.78099999999995,-270.508,18.066,0.0,0
1582146175.2229998,23.438,-32.715,45.41,6.836,0.0,0
1582146175.2270002,32.227,-61.523,50.78100000000001,11.719,0.0,0
1582146175.229,12.695,-76.172,1.953,32.715,0.0,0
1582146175.2329998,9.277,-50.293,45.898,40.039,0.0,0
1582146175.2370002,25.391,-37.598,40.527,25.879,0.0,0
1582146175.2410002,31.738000000000003,-14.16,24.902,2.441,0.0,0
1582146175.245,13.184,-1.953,22.461,20.508000000000006,0.0,0
1582146175.2489998,5.371,-13.672,8.789,39.062,0.0,0
1582146175.2529998,29.785,-23.926,-32.715,28.809,0.0,0
1582146175.256,46.387,-40.039,-31.738000000000003,26.367,0.0,0
1582146175.26,29.785,-97.656,-152.344,18.066,0.0,0
1582146175.264,6.836,-38.574,-94.727,30.762,0.0,0
1582146175.268,21.484,-1.465,34.668,44.434,0.0,0
1582146175.272,50.293,-54.688,-41.992,25.391,0.0,0
1582146175.274,37.598,-52.734,-27.344,26.855,0.0,0
1582146175.278,9.766,-17.09,89.355,46.387,0.0,0
1582146175.282,12.695,-46.387,79.59,52.734,0.0,0
1582146175.286,32.227,-58.105,45.41,40.527,0.0,0
1582146175.29,42.48,-33.203,49.805,34.668,0.0,0
1582146175.294,20.02,-56.152,-15.137,52.246,0.0,0
1582146175.298,14.648,-54.688,-54.688,52.734,0.0,0
1582146175.301,44.434,-95.215,-210.449,34.668,0.0,0
1582146175.305,51.27,-35.645,-201.172,28.809,0.0,0
1582146175.309,26.367,83.49600000000002,67.87100000000001,30.762,0.0,0
1582146175.313,11.23,1.953,6.348,28.809,0.0,0
1582146175.3170002,25.879,-43.457,-113.281,19.531,0.0,0
1582146175.32,44.922,28.32,-43.945,17.09,0.0,0
1582146175.324,32.715,64.453,25.879,34.18,0.0,0
1582146175.3279998,16.602,9.277,-85.449,42.969,0.0,0
1582146175.332,20.02,13.672,-136.719,38.086,0.0,0
1582146175.336,29.297,94.727,12.695,28.32,0.0,0
1582146175.34,25.391,94.238,-3.418,37.598,0.0,0
1582146175.344,11.23,53.71100000000001,-176.27,53.71100000000001,0.0,0
1582146175.347,21.484,72.266,-256.836,46.875,0.0,0
1582146175.351,39.551,208.008,-36.621,28.32,0.0,0
1582146175.355,34.18,196.777,89.355,13.184,0.0,0
1582146175.359,14.16,95.703,-79.102,21.484,0.0,0
1582146175.363,1.953,112.793,-84.473,26.367,0.0,0
1582146175.365,18.555,162.59799999999996,80.078,20.508000000000006,0.0,0
1582146175.369,35.156,179.199,166.99200000000005,20.02,0.0,0
1582146175.373,12.695,108.887,29.297,15.625,0.0,0
1582146175.377,-16.113,70.312,-58.105,3.418,0.0,0
1582146175.381,-8.301,76.172,-0.488,-4.395,0.0,0
1582146175.385,18.555,26.855,-94.238,-3.906,0.0,0
1582146175.389,10.254,-51.27,-357.91,-13.672,0.0,0
1582146175.3920002,-21.973000000000006,7.324,-367.1880000000001,-21.484,0.0,0
1582146175.396,-23.438,126.465,-70.312,-21.973000000000006,0.0,0
1582146175.4,-6.348,83.008,-64.941,-34.668,0.0,0
1582146175.404,-13.672,76.66,-132.32399999999998,-42.48,0.0,0
1582146175.408,-49.805,129.395,-92.285,-48.828,0.0,0
1582146175.425,-62.012,97.168,-144.531,-66.406,0.0,0
1582146175.429,-48.828,66.895,-223.633,-76.66,0.0,0
1582146175.4329998,-63.965,108.398,-238.77,-91.797,0.0,0
1582146175.437,-97.168,208.496,-201.172,-97.656,0.0,0
1582146175.441,-105.957,334.961,-38.086,-82.52,0.0,0
1582146175.445,-89.355,241.699,-245.605,-98.633,0.0,0
1582146175.449,-88.37899999999998,214.355,-444.336,-113.77,0.0,0
1582146175.452,-122.07,359.375,-184.57,-121.582,0.0,0
1582146175.456,-144.043,283.203,-203.613,-124.512,0.0,0
1582146175.46,-138.184,177.24599999999995,-347.656,-132.32399999999998,0.0,0
1582146175.464,-133.30100000000002,204.102,-318.848,-165.52700000000004,0.0,0
1582146175.468,-150.391,270.02,-233.398,-172.852,0.0,0
1582146175.47,-185.547,287.598,-187.5,-175.78099999999995,0.0,0
1582146175.474,-187.5,270.508,-219.727,-183.105,0.0,0
1582146175.478,-167.96900000000005,267.578,-239.258,-196.777,0.0,0
1582146175.482,-173.34,238.77,-222.656,-205.566,0.0,0
1582146175.486,-196.289,183.105,-283.203,-192.871,0.0,0
1582146175.49,-202.148,192.383,-365.234,-185.05900000000003,0.0,0
1582146175.494,-175.293,237.305,-380.859,-197.266,0.0,0
1582146175.4970002,-174.31599999999997,308.594,-254.395,-216.797,0.0,0
1582146175.5010002,-194.336,323.242,-155.762,-209.961,0.0,0
1582146175.505,-200.195,236.328,-342.773,-194.824,0.0,0
1582146175.5089998,-171.875,276.855,-384.766,-189.453,0.0,0
1582146175.5129998,-142.578,403.809,-88.37899999999998,-192.383,0.0,0
1582146175.514,-147.461,351.5619999999999,-65.918,-177.734,0.0,0
1582146175.518,-149.90200000000004,265.137,-250.977,-168.457,0.0,0
1582146175.522,-127.441,288.086,-165.03900000000004,-157.227,0.0,0
1582146175.526,-102.051,257.324,-22.949,-144.531,0.0,0
1582146175.53,-102.539,114.258,-94.727,-141.602,0.0,0
1582146175.534,-117.676,-4.395,-251.465,-120.117,0.0,0
1582146175.538,-92.773,-21.484,-337.891,-100.098,0.0,0
1582146175.541,-47.363,55.664,-224.609,-94.238,0.0,0
1582146175.545,-42.969,39.062,-176.75799999999995,-96.68,0.0,0
1582146175.549,-56.64100000000001,-35.645,-320.801,-73.73,0.0,0
1582146175.553,-46.387,95.703,-116.699,-44.922,0.0,0
1582146175.5570002,-8.301,135.254,72.75399999999998,-41.992,0.0,0
1582146175.562,20.508000000000006,84.961,57.129,-23.926,0.0,0
1582146175.566,18.555,65.43,62.012,20.02,0.0,0
1582146175.57,17.578,83.984,125.977,48.828,0.0,0
1582146175.574,51.27,87.891,124.512,56.64100000000001,0.0,0
1582146175.5779998,82.031,83.49600000000002,62.012,44.922,0.0,0
1582146175.582,85.449,62.012,-13.184,56.152,0.0,0
1582146175.586,74.219,55.176,-82.52,88.37899999999998,0.0,0
1582146175.589,88.867,131.836,58.105,100.586,0.0,0
1582146175.593,128.418,73.73,17.578,95.215,0.0,0
1582146175.597,121.094,31.738000000000003,-70.801,85.449,0.0,0
1582146175.601,106.445,108.887,104.492,112.793,0.0,0
1582146175.605,121.094,118.652,197.266,135.254,0.0,0
1582146175.604,149.90200000000004,100.098,194.824,121.094,0.0,0
1582146175.6079998,171.875,120.605,207.031,128.906,0.0,0
1582146175.6120002,151.855,122.07,238.281,141.602,0.0,0
1582146175.6160002,127.441,62.988,149.414,128.906,0.0,0
1582146175.62,137.695,62.988,104.492,109.375,0.0,0
1582146175.6239998,147.461,82.031,129.395,105.469,0.0,0
1582146175.6279998,140.137,62.5,102.539,122.07,0.0,0
1582146175.631,119.629,0.977,4.395,122.07,0.0,0
1582146175.635,121.094,-27.344,-106.934,112.305,0.0,0
1582146175.639,138.184,101.562,133.30100000000002,98.633,0.0,0
1582146175.643,123.047,101.074,321.777,97.168,0.0,0
1582146175.647,112.305,0.977,238.77,115.723,0.0,0
1582146175.649,119.141,-69.336,128.906,115.723,0.0,0
1582146175.653,135.254,-103.516,104.492,96.191,0.0,0
1582146175.657,141.113,-81.055,169.922,99.121,0.0,0
1582146175.661,121.094,-81.543,186.035,113.77,0.0,0
1582146175.665,117.188,-98.145,170.41,117.676,0.0,0
1582146175.669,142.09,-114.746,117.676,101.562,0.0,0
1582146175.673,134.766,-106.934,73.242,84.961,0.0,0
1582146175.676,109.863,-144.043,-61.523,91.797,0.0,0
1582146175.68,101.074,-104.492,-71.289,100.586,0.0,0
1582146175.684,115.723,22.461,183.594,98.145,0.0,0
1582146175.688,132.32399999999998,-25.391,179.199,89.355,0.0,0
1582146175.6920002,111.328,-81.055,111.328,95.703,0.0,0
1582146175.694,102.051,-60.059,126.953,103.027,0.0,0
1582146175.698,111.328,-32.227,188.477,98.145,0.0,0
1582146175.702,115.234,-50.293,189.941,83.984,0.0,0
1582146175.706,103.516,-95.215,56.152,72.266,0.0,0
1582146175.71,80.078,-74.707,-15.137,82.031,0.0,0
1582146175.714,83.008,-28.809,-5.371,87.402,0.0,0
1582146175.718,96.68,-52.246,-87.402,76.66,0.0,0
1582146175.721,85.93799999999997,-51.27,-149.90200000000004,65.43,0.0,0
1582146175.725,63.965,46.875,11.719,63.477,0.0,0
1582146175.729,62.988,61.523,136.719,74.707,0.0,0
1582146175.7329998,86.914,27.344,98.633,73.242,0.0,0
1582146175.7370002,102.539,40.527,100.586,66.895,0.0,0
1582146175.7389998,90.82,54.688,127.93,83.008,0.0,0
1582146175.7429998,66.895,44.922,130.859,85.93799999999997,0.0,0
1582146175.7470002,64.941,22.461,63.477,59.57,0.0,0
1582146175.7510002,74.707,47.852,43.457,46.387,0.0,0
1582146175.755,64.941,72.266,103.516,51.758,0.0,0
1582146175.7589998,52.246,9.277,9.766,72.75399999999998,0.0,0
1582146175.7629998,61.523,-76.66,-246.582,60.059,0.0,0
1582146175.766,79.102,30.762,-160.645,44.434,0.0,0
1582146175.77,61.035,166.99200000000005,155.762,51.758,0.0,0
1582146175.774,33.203,91.309,84.473,52.246,0.0,0
1582146175.778,41.992,60.059,0.488,55.664,0.0,0
1582146175.782,60.059,96.68,70.801,41.504,0.0,0
1582146175.799,54.199,94.727,124.023,42.48,0.0,0
1582146175.803,36.133,39.551,37.109,63.477,0.0,0
1582146175.8070002,34.18,2.441,-61.035,62.5,0.0,0
1582146175.811,53.223,56.152,45.41,50.293,0.0,0
1582146175.815,57.617,88.37899999999998,161.13299999999995,46.387,0.0,0
1582146175.819,39.551,-20.508000000000006,-29.785,49.805,0.0,0
1582146175.823,30.273000000000003,-56.64100000000001,-207.031,41.01600000000001,0.0,0
1582146175.826,37.109,60.547,-58.594,27.344,0.0,0
1582146175.83,50.78100000000001,111.328,103.027,12.695,0.0,0
1582146175.834,37.598,-7.812,-68.359,13.672,0.0,0
1582146175.8379998,29.785,-58.105,-251.465,39.062,0.0,0
1582146175.842,47.852,70.801,-51.27,39.551,0.0,0
1582146175.845,56.152,68.359,29.785,7.324,0.0,0
1582146175.849,38.086,7.324,-75.195,8.789,0.0,0
1582146175.853,17.578,15.137,-95.215,25.391,0.0,0
1582146175.857,21.484,51.27,-26.855,36.133,0.0,0
1582146175.861,38.574,47.852,-37.109,25.391,0.0,0
1582146175.865,38.086,-4.395,-193.359,-6.348,0.0,0
1582146175.869,23.926,18.066,-287.598,3.906,0.0,0
1582146175.8720002,32.227,82.031,-198.73,26.367,0.0,0
1582146175.8760002,46.387,32.227,-260.254,16.113,0.0,0
1582146175.88,58.594,-41.504,-476.074,5.859,0.0,0
1582146175.8839998,40.527,45.898,-404.297,24.414,0.0,0
1582146175.8879998,2.441,142.578,-135.254,41.992,0.0,0
1582146175.889,13.672,58.594,-191.895,32.715,0.0,0
1582146175.893,40.039,57.617,-173.34,28.32,0.0,0
1582146175.897,42.48,100.098,-68.359,44.922,0.0,0
1582146175.901,29.297,112.793,-33.691,61.523,0.0,0
1582146175.905,30.762,86.426,-27.832,58.105,0.0,0
1582146175.909,47.363,-0.488,-210.938,36.621,0.0,0
1582146175.913,48.828,32.227,-250.488,41.992,0.0,0
1582146175.916,28.32,105.469,-96.68,60.547,0.0,0
1582146175.92,26.367,19.043,-133.30100000000002,56.64100000000001,0.0,0
1582146175.924,48.828,-57.129,-298.828,46.387,0.0,0
1582146175.928,45.41,57.129,-117.188,27.832,0.0,0
1582146175.9320002,20.508000000000006,89.844,45.41,27.344,0.0,0
1582146175.934,15.137,6.836,-94.727,37.109,0.0,0
1582146175.938,41.01600000000001,-0.488,-138.672,31.738000000000003,0.0,0
1582146175.9420002,58.594,50.293,21.973000000000006,26.855,0.0,0
1582146175.946,43.945,-26.367,-82.52,31.25,0.0,0
1582146175.95,23.926,-43.457,-224.609,32.715,0.0,0
1582146175.954,35.156,20.996,-173.34,26.367,0.0,0
1582146175.958,54.688,45.41,-103.516,24.414,0.0,0
1582146175.961,43.945,75.684,44.922,14.16,0.0,0
1582146175.965,27.832,-52.246,-200.68400000000003,14.648,0.0,0
1582146175.969,40.039,-13.672,-232.91,29.297,0.0,0
1582146175.9729998,58.594,134.27700000000002,121.582,18.066,0.0,0
1582146175.9770002,53.71100000000001,83.49600000000002,110.84,9.277,0.0,0
1582146175.979,30.762,40.039,38.086,28.32,0.0,0
1582146175.9829998,31.738000000000003,54.199,40.527,31.738000000000003,0.0,0
1582146175.9870002,56.64100000000001,69.336,76.66,23.438,0.0,0
1582146175.9910002,56.64100000000001,42.48,62.988,20.508000000000006,0.0,0
1582146175.995,42.48,25.391,51.758,25.391,0.0,0
1582146175.9989998,32.227,19.043,23.438,34.18,0.0,0
1582146176.0029998,41.504,26.855,-20.508000000000006,11.719,0.0,0
1582146176.006,55.176,4.395,-61.035,-6.348,0.0,0
1582146176.01,37.598,-25.391,-173.34,1.953,0.0,0
1582146176.014,18.066,108.398,18.555,16.113,0.0,0
1582146176.018,29.297,174.805,251.465,12.695,0.0,0
1582146176.022,46.875,112.793,200.68400000000003,-8.789,0.0,0
1582146176.024,40.039,96.68,130.859,-3.906,0.0,0
1582146176.028,15.137,123.047,171.875,3.906,0.0,0
1582146176.032,16.602,122.07,191.406,-1.953,0.0,0
1582146176.036,40.039,115.234,181.641,-15.137,0.0,0
1582146176.04,38.574,100.098,130.859,-18.555,0.0,0
1582146176.044,17.578,82.031,41.01600000000001,0.488,0.0,0
1582146176.048,15.625,111.816,53.71100000000001,10.254,0.0,0
1582146176.051,28.32,57.129,-86.914,-8.789,0.0,0
1582146176.055,33.691,97.656,-67.87100000000001,-8.301,0.0,0
1582146176.059,9.766,177.24599999999995,154.785,3.418,0.0,0
1582146176.063,3.418,109.863,60.547,11.719,0.0,0
1582146176.0670002,29.785,117.188,51.758,13.672,0.0,0
1582146176.069,43.457,146.97299999999996,145.996,-1.465,0.0,0
1582146176.073,27.832,132.32399999999998,173.828,20.996,0.0,0
1582146176.077,13.672,73.73,57.129,34.668,0.0,0
1582146176.081,17.578,93.75,21.973000000000006,21.484,0.0,0
1582146176.085,35.645,132.32399999999998,103.516,8.301,0.0,0
1582146176.089,30.762,104.98,66.895,-2.441,0.0,0
1582146176.093,6.348,39.062,-78.125,0.977,0.0,0
1582146176.096,15.137,11.719,-218.262,6.836,0.0,0
1582146176.1,41.01600000000001,155.762,56.64100000000001,13.672,0.0,0
1582146176.104,50.78100000000001,168.945,203.125,13.184,0.0,0
1582146176.1079998,35.645,89.355,18.066,17.578,0.0,0
1582146176.1120002,27.344,140.137,72.266,28.809,0.0,0
1582146176.1139998,44.922,131.836,50.293,13.184,0.0,0
1582146176.1179998,60.547,105.469,-27.832,9.766,0.0,2
1582146176.1220002,38.086,115.723,-52.246,28.32,0.0,0
1582146176.1260002,17.09,108.398,-76.66,38.086,0.0,0
1582146176.13,26.367,125.0,25.879,33.691,0.0,0
1582146176.1339998,36.133,104.004,24.902,16.113,0.0,0
1582146176.1379998,31.25,28.809,-183.594,25.391,0.0,0
1582146176.141,15.625,73.242,-172.852,40.039,0.0,0
1582146176.145,27.344,169.43400000000003,53.223,46.387,0.0,0
1582146176.149,52.734,152.832,99.121,44.434,0.0,0
1582146176.153,46.387,127.93,60.059,38.086,0.0,0
1582146176.157,28.32,146.484,51.27,50.293,0.0,0
1582146176.174,26.367,172.363,107.91,53.71100000000001,0.0,0
1582146176.178,32.227,133.30100000000002,50.293,32.227,0.0,0
1582146176.1820002,39.062,110.352,5.371,25.879,0.0,0
1582146176.186,20.996,85.449,-32.227,31.25,0.0,0
1582146176.19,13.184,93.262,17.578,36.621,0.0,0
1582146176.194,34.668,27.832,-63.965,44.434,0.0,0
1582146176.198,46.875,0.977,-184.57,32.227,0.0,0
1582146176.201,33.691,110.84,5.371,26.855,0.0,0
1582146176.205,19.043,102.051,78.613,40.527,0.0,0
1582146176.209,29.297,10.254,-79.59,39.062,0.0,0
1582146176.2129998,41.504,26.855,-91.309,25.879,0.0,0
1582146176.217,19.531,104.492,84.961,22.949,0.0,0
1582146176.219,0.0,85.449,95.215,31.25,0.0,0
1582146176.2229998,9.766,43.457,-12.207,28.32,0.0,0
1582146176.2270002,30.273000000000003,31.25,-68.848,23.438,0.0,0
1582146176.231,27.832,59.082,21.973000000000006,30.762,0.0,0
1582146176.235,3.418,28.32,60.547,54.199,0.0,0
1582146176.2389998,-3.906,-40.039,-89.844,36.621,0.0,0
1582146176.2429998,20.996,-35.645,-222.168,19.531,0.0,0
1582146176.246,43.945,31.738000000000003,-193.848,43.457,0.0,0
1582146176.25,34.18,98.633,-52.246,61.523,0.0,0
1582146176.254,25.391,-8.789,-219.727,69.336,0.0,0
1582146176.258,35.645,4.395,-263.672,55.664,0.0,0
1582146176.262,44.434,113.77,5.371,41.01600000000001,0.0,0
1582146176.264,28.809,25.879,-40.527,50.293,0.0,0
1582146176.268,12.207,-23.438,-149.90200000000004,63.965,0.0,0
1582146176.272,37.598,30.762,-89.355,68.848,0.0,0
1582146176.276,62.5,29.785,-53.71100000000001,54.688,0.0,0
1582146176.28,27.832,-64.941,-220.215,41.504,0.0,0
1582146176.284,1.465,-100.586,-376.465,58.105,0.0,0
1582146176.288,16.602,-2.441,-303.223,56.64100000000001,0.0,0
1582146176.291,28.809,58.594,-165.52700000000004,37.598,0.0,0
1582146176.295,49.805,-26.855,-308.594,49.316,0.0,0
1582146176.299,88.867,-10.742,-465.82,104.98,0.0,0
1582146176.303,104.004,163.086,-271.973,142.578,0.0,0
1582146176.3070002,117.676,216.30900000000003,-96.68,134.766,0.0,0
1582146176.309,128.418,193.359,-92.773,131.836,0.0,0
1582146176.313,105.469,179.688,-137.207,126.953,0.0,0
1582146176.3170002,82.52,166.016,-152.344,116.211,0.0,0
1582146176.321,96.68,164.551,-142.09,109.863,0.0,0
1582146176.325,109.375,132.32399999999998,-164.551,101.562,0.0,0
1582146176.329,84.473,78.125,-249.512,92.773,0.0,0
1582146176.333,56.152,63.965,-334.473,90.332,0.0,0
1582146176.336,65.43,125.977,-232.422,89.844,0.0,0
1582146176.34,86.426,89.355,-273.926,77.637,0.0,0
1582146176.344,75.195,89.844,-308.594,57.129,0.0,0
1582146176.3479998,57.617,178.71099999999996,-81.543,66.895,0.0,0
1582146176.3520002,57.617,112.305,-133.789,75.195,0.0,0
1582146176.354,72.75399999999998,46.387,-306.641,58.594,0.0,0
1582146176.3579998,84.961,125.488,-187.012,68.848,0.0,0
1582146176.3620002,61.035,177.734,-26.855,85.449,0.0,0
1582146176.3660002,49.316,112.793,-131.34799999999998,90.332,0.0,0
1582146176.37,73.242,117.188,-108.887,72.75399999999998,0.0,0
1582146176.3739998,71.777,100.098,-153.809,46.387,0.0,0
1582146176.3779998,43.945,118.652,-177.734,49.316,0.0,0
1582146176.381,38.086,104.98,-135.254,60.059,0.0,0
1582146176.385,54.688,46.875,-250.0,53.71100000000001,0.0,0
1582146176.389,73.242,141.113,-125.488,28.32,0.0,0
1582146176.393,54.688,154.297,-10.742,31.738000000000003,0.0,0
1582146176.397,22.949,120.605,-58.105,55.664,0.0,0
1582146176.4,30.273000000000003,132.812,-46.875,45.898,0.0,0
1582146176.404,56.64100000000001,139.648,19.531,34.18,0.0,0
1582146176.408,49.316,104.004,4.883,18.555,0.0,0
1582146176.4120002,19.043,45.898,-128.418,27.832,0.0,0
1582146176.416,10.254,45.898,-186.035,39.551,0.0,0
1582146176.42,28.809,79.102,-113.77,12.695,0.0,0
1582146176.424,34.18,63.477,-85.449,-4.395,0.0,0
1582146176.427,20.508000000000006,-47.363,-291.016,5.371,0.0,0
1582146176.431,13.672,-25.391,-298.34,21.484,0.0,0
1582146176.435,27.832,83.008,-22.949,25.879,0.0,0
1582146176.439,47.852,58.594,21.484,6.836,0.0,0
1582146176.4429998,20.508000000000006,14.16,-56.64100000000001,7.324,0.0,0
1582146176.444,-7.812,28.809,-102.539,8.301,0.0,0
1582146176.448,7.324,82.031,-49.316,-6.836,0.0,0
1582146176.452,29.785,67.87100000000001,-42.48,-5.859,0.0,0
1582146176.456,25.391,44.434,-90.82,-0.977,0.0,0
1582146176.46,6.348,50.293,-114.258,5.859,0.0,0
1582146176.464,7.324,16.602,-210.449,7.324,0.0,0
1582146176.468,34.18,-6.348,-315.918,-2.441,0.0,0
1582146176.471,42.969,-20.996,-446.289,-6.836,0.0,0
1582146176.475,21.973000000000006,98.145,-288.574,12.695,0.0,0
1582146176.479,17.09,152.344,-78.613,25.391,0.0,0
1582146176.4829998,42.969,101.074,-114.746,5.859,0.0,0
1582146176.4870002,62.988,94.238,-111.816,11.23,0.0,0
1582146176.4889998,37.598,92.773,-50.78100000000001,32.715,0.0,0
1582146176.4929998,23.438,36.133,-102.051,30.762,0.0,0
1582146176.4970002,42.969,22.949,-172.852,33.203,0.0,0
1582146176.5010002,48.828,63.965,-161.621,17.578,0.0,0
1582146176.505,26.855,99.121,-115.723,2.441,0.0,0
1582146176.5089998,3.906,77.637,-189.941,17.578,0.0,0
1582146176.5129998,13.672,-18.066,-454.102,16.113,0.0,0
1582146176.516,28.809,51.758,-432.617,2.441,0.0,0
1582146176.52,25.391,176.27,-134.27700000000002,-14.16,0.0,0
1582146176.524,1.953,95.215,-185.547,-3.418,0.0,0
1582146176.528,0.488,62.012,-289.062,19.043,0.0,0
1582146176.532,29.297,104.98,-174.31599999999997,8.789,0.0,0
1582146176.549,27.832,108.398,-66.406,8.301,0.0,0
1582146176.553,2.441,40.039,-149.414,18.555,0.0,0
1582146176.5570002,7.324,14.16,-245.605,29.785,0.0,0
1582146176.561,20.508000000000006,89.844,-123.535,22.949,0.0,0
1582146176.565,25.391,96.191,-71.289,5.859,0.0,0
1582146176.569,7.324,22.949,-210.938,17.578,0.0,0
1582146176.573,-12.207,-8.301,-352.051,9.277,0.0,0
1582146176.576,12.695,84.961,-212.402,-7.812,0.0,0
1582146176.58,27.344,125.488,-67.87100000000001,0.0,0.0,0
1582146176.584,9.277,29.297,-191.406,4.883,0.0,0
1582146176.5879998,-3.906,4.395,-296.875,11.23,0.0,0
1582146176.592,-0.488,116.211,-140.137,-3.418,0.0,0
1582146176.594,23.438,125.488,-137.695,-16.602,0.0,0
1582146176.5979998,15.137,127.93,-199.707,7.812,0.0,0
1582146176.6020002,-13.184,135.254,-168.945,6.348,0.0,0
1582146176.606,-1.953,143.555,-104.004,7.812,0.0,0
1582146176.61,19.043,125.977,-98.145,2.93,0.0,0
1582146176.6139998,18.555,51.27,-244.141,-2.93,0.0,0
1582146176.6179998,-1.953,34.18,-331.055,15.625,0.0,0
1582146176.621,-21.484,102.539,-206.055,10.254,0.0,0
1582146176.625,-6.348,115.234,-86.914,-3.906,0.0,0
1582146176.629,3.418,20.996,-218.262,-17.09,0.0,0
1582146176.633,-16.602,73.73,-202.148,-22.461,0.0,0
1582146176.637,-37.109,166.016,-45.41,-11.719,0.0,0
1582146176.639,-38.574,136.23,-58.594,-33.203,0.0,0
1582146176.643,-37.598,132.32399999999998,-94.727,-73.73,0.0,0
1582146176.647,-67.383,165.52700000000004,-78.125,-86.426,0.0,0
1582146176.651,-86.426,168.945,-120.117,-87.891,0.0,0
1582146176.655,-77.148,177.24599999999995,-207.031,-86.914,0.0,0
1582146176.659,-75.195,182.129,-270.508,-103.516,0.0,0
1582146176.663,-94.727,227.539,-273.438,-121.094,0.0,0
1582146176.666,-121.094,297.363,-148.92600000000004,-124.023,0.0,0
1582146176.67,-123.047,225.098,-215.332,-133.30100000000002,0.0,0
1582146176.674,-118.652,194.824,-300.781,-159.668,0.0,0
1582146176.678,-127.441,325.195,-76.172,-187.5,0.0,0
1582146176.6820002,-155.273,314.941,-38.086,-183.105,0.0,0
1582146176.684,-163.57399999999996,274.414,-139.16,-189.941,0.0,0
1582146176.688,-150.391,279.785,-150.391,-217.285,0.0,0
1582146176.6920002,-148.438,269.531,-103.516,-219.238,0.0,0
1582146176.696,-168.945,219.727,-87.891,-216.30900000000003,0.0,0
1582146176.7,-187.5,155.273,-175.78099999999995,-199.219,0.0,0
1582146176.704,-177.24599999999995,137.207,-255.371,-208.984,0.0,0
1582146176.708,-168.945,162.109,-248.535,-240.234,0.0,0
1582146176.711,-177.24599999999995,167.48,-214.844,-216.30900000000003,0.0,0
1582146176.715,-180.176,99.121,-278.32,-187.5,0.0,0
1582146176.719,-168.457,136.719,-223.145,-189.453,0.0,0
1582146176.7229998,-136.719,267.578,98.145,-194.824,0.0,0
1582146176.7270002,-126.953,201.172,173.34,-179.688,0.0,0
1582146176.729,-131.34799999999998,130.859,107.422,-149.90200000000004,0.0,0
1582146176.7329998,-111.328,177.24599999999995,175.78099999999995,-135.74200000000002,0.0,0
1582146176.7370002,-82.031,197.754,256.836,-138.184,0.0,0
1582146176.7410002,-74.707,167.48,225.098,-154.297,0.0,0
1582146176.745,-75.195,150.391,154.785,-126.953,0.0,0
1582146176.7489998,-56.64100000000001,156.25,106.445,-79.59,0.0,0
1582146176.7529998,-30.762,192.383,120.117,-80.566,0.0,0
1582146176.756,-4.883,167.96900000000005,118.164,-81.543,0.0,0
1582146176.76,6.348,108.887,-24.414,-50.78100000000001,0.0,0
1582146176.764,9.277,195.312,64.453,-16.113,0.0,0
1582146176.768,30.273000000000003,252.441,253.906,2.93,0.0,0
1582146176.772,57.129,226.562,327.148,2.93,0.0,0
1582146176.774,58.105,194.336,307.617,15.625,0.0,0
1582146176.778,46.875,194.824,321.777,39.551,0.0,0
1582146176.782,63.477,177.24599999999995,289.551,50.293,0.0,0
1582146176.786,99.121,200.68400000000003,256.836,56.152,0.0,0
1582146176.79,100.586,211.914,271.973,62.5,0.0,0
1582146176.794,73.73,133.789,175.293,75.195,0.0,0
1582146176.798,59.57,98.633,57.129,62.988,0.0,0
1582146176.801,84.473,72.75399999999998,-63.965,43.945,0.0,0
1582146176.805,94.238,137.695,-1.465,51.27,0.0,0
1582146176.809,69.336,259.277,264.16,60.547,0.0,0
1582146176.813,65.43,227.051,273.438,72.266,0.0,0
1582146176.8170002,84.961,207.52,217.285,59.082,0.0,0
1582146176.819,97.168,210.938,187.988,42.48,0.0,0
1582146176.823,82.031,207.52,203.613,61.523,0.0,0
1582146176.827,66.895,161.13299999999995,168.457,70.801,0.0,0
1582146176.831,81.055,142.578,89.844,72.75399999999998,0.0,0
1582146176.835,103.027,209.961,193.359,63.477,0.0,0
1582146176.839,89.355,182.617,221.68,59.57,0.0,0
1582146176.843,70.801,62.012,16.113,79.59,0.0,0
1582146176.846,81.543,66.406,-100.586,78.613,0.0,0
1582146176.85,108.398,223.145,153.32,83.008,0.0,0
1582146176.854,113.77,245.605,334.473,81.543,0.0,0
1582146176.8579998,96.191,171.387,212.891,79.59,0.0,0
1582146176.8620002,92.285,139.16,116.699,97.168,0.0,0
1582146176.8639998,100.586,171.875,220.703,79.59,0.0,0
1582146176.8679998,105.957,169.922,297.8520000000001,60.547,0.0,0
1582146176.8720002,84.961,90.332,217.285,62.012,0.0,0
1582146176.8760002,64.453,54.199,130.371,67.87100000000001,0.0,0
1582146176.88,73.73,93.75,157.227,69.336,0.0,0
1582146176.8839998,91.309,71.289,102.051,67.383,0.0,0
1582146176.8879998,83.984,-15.137,-139.16,83.008,0.0,0
1582146176.891,69.824,57.129,-139.648,91.309,0.0,0
1582146176.895,79.102,189.941,118.164,79.102,0.0,0
1582146176.899,90.332,176.27,190.918,67.383,0.0,0
1582146176.903,79.102,146.97299999999996,143.555,70.312,0.0,0
1582146176.907,61.523,154.297,99.609,81.543,0.0,0
1582146176.925,67.383,172.852,133.30100000000002,78.613,0.0,0
1582146176.929,77.637,147.94899999999996,105.957,68.848,0.0,0
1582146176.9329998,82.52,141.113,29.785,72.75399999999998,0.0,0
1582146176.937,70.312,215.82,130.371,81.055,0.0,0
1582146176.941,55.664,229.98,187.988,88.867,0.0,0
1582146176.945,72.75399999999998,134.766,-9.766,75.195,0.0,0
1582146176.949,78.613,124.023,-129.88299999999998,63.477,0.0,0
1582146176.952,60.059,208.496,-65.918,72.75399999999998,0.0,0
1582146176.956,52.246,248.535,34.668,84.961,0.0,0
1582146176.96,59.082,166.50400000000005,-24.414,76.172,0.0,0
1582146176.964,71.289,144.043,-78.613,48.34,0.0,0
1582146176.968,64.941,249.023,87.402,61.523,0.0,0
1582146176.97,36.621,230.957,132.812,88.37899999999998,0.0,0
1582146176.974,36.133,145.02,-3.906,59.082,0.0,0
1582146176.978,42.48,137.695,-48.34,30.762,0.0,0
1582146176.982,34.668,182.129,53.71100000000001,20.996,0.0,0
1582146176.986,18.066,148.438,19.531,35.645,0.0,0
1582146176.99,15.625,93.262,-112.305,55.664,0.0,0
1582146176.994,41.992,125.488,-102.539,44.922,0.0,0
1582146176.9970002,58.105,192.871,47.363,50.78100000000001,0.0,0
1582146177.0010002,49.805,162.59799999999996,73.242,65.43,0.0,0
1582146177.005,22.461,24.414,-216.30900000000003,61.523,0.0,0
1582146177.0089998,29.297,71.777,-265.625,44.434,0.0,0
1582146177.0129998,50.78100000000001,203.613,46.875,43.945,0.0,0
1582146177.015,30.762,125.488,20.996,48.34,0.0,0
1582146177.019,11.23,91.797,-104.98,47.852,0.0,0
1582146177.0229998,33.203,158.203,-20.508000000000006,45.41,0.0,0
1582146177.0270002,56.152,170.41,49.316,41.992,0.0,0
1582146177.031,48.34,125.0,34.18,54.199,0.0,0
1582146177.035,29.297,33.691,-93.262,65.43,0.0,0
1582146177.039,41.992,34.668,-142.578,59.082,0.0,0
1582146177.042,65.918,84.961,-26.367,43.457,0.0,0
1582146177.046,56.152,2.441,-112.793,32.227,0.0,0
1582146177.05,32.715,-58.105,-297.363,41.01600000000001,0.0,0
1582146177.054,27.344,77.637,-90.332,42.48,0.0,0
1582146177.0579998,41.504,75.684,19.043,25.391,0.0,0
1582146177.059,45.898,20.996,-77.637,21.973000000000006,0.0,0
1582146177.063,22.461,55.664,-16.113,33.691,0.0,0
1582146177.0670002,16.602,44.434,21.484,43.945,0.0,0
1582146177.071,41.992,24.414,38.574,45.898,0.0,0
1582146177.075,58.105,-4.883,8.301,31.738000000000003,0.0,0
1582146177.079,45.41,-66.406,-138.184,36.621,0.0,0
1582146177.083,35.156,-86.426,-227.539,52.246,0.0,0
1582146177.086,49.316,-9.766,-131.836,45.898,0.0,0
1582146177.09,63.965,-51.27,-237.793,31.738000000000003,0.0,0
1582146177.094,51.758,-11.719,-267.09,27.344,0.0,0
1582146177.0979998,32.715,105.469,-36.621,51.27,0.0,0
1582146177.1020002,31.738000000000003,64.453,-26.367,62.012,0.0,0
1582146177.104,46.387,67.87100000000001,-27.832,35.645,0.0,0
1582146177.1079998,44.922,136.23,102.051,28.809,0.0,0
1582146177.1120002,26.855,113.281,118.652,39.062,0.0,0
1582146177.1160002,27.832,23.438,-115.723,45.41,0.0,0
1582146177.12,46.387,77.148,-118.652,38.086,0.0,0
1582146177.1239998,53.71100000000001,96.68,-93.75,23.926,0.0,0
1582146177.1279998,42.48,82.52,-178.71099999999996,41.992,0.0,0
1582146177.131,39.062,62.988,-205.078,59.57,0.0,0
1582146177.135,44.922,20.02,-320.801,48.34,0.0,0
1582146177.139,50.78100000000001,154.785,-104.492,30.762,0.0,0
1582146177.143,33.203,193.359,91.309,33.203,0.0,0
1582146177.147,23.438,127.441,18.555,54.199,0.0,0
1582146177.149,35.645,117.188,-20.996,39.551,0.0,0
1582146177.153,50.78100000000001,143.555,37.109,27.832,0.0,0
1582146177.157,40.039,148.92600000000004,97.656,42.969,0.0,0
1582146177.161,12.695,101.074,13.672,45.41,0.0,0
1582146177.165,13.672,71.289,-84.473,38.086,0.0,0
1582146177.169,36.133,57.129,-144.531,17.09,0.0,0
1582146177.173,45.41,45.41,-218.75,30.273000000000003,0.0,0
1582146177.176,31.738000000000003,-10.742,-411.621,57.617,0.0,0
1582146177.18,28.32,47.363,-414.062,52.246,0.0,0
1582146177.184,40.527,210.938,-33.203,41.504,0.0,0
1582146177.188,45.898,153.32,-10.254,29.785,0.0,0
1582146177.1920002,30.273000000000003,83.49600000000002,-158.691,43.945,0.0,0
1582146177.194,13.184,127.441,-100.586,58.594,0.0,0
1582146177.198,29.785,166.99200000000005,0.488,57.617,0.0,0
1582146177.202,56.152,114.746,-76.172,48.34,0.0,0
1582146177.206,49.316,73.242,-183.105,46.387,0.0,0
1582146177.21,33.203,105.469,-151.855,61.523,0.0,0
1582146177.214,45.41,90.82,-202.637,59.082,0.0,0
1582146177.218,60.059,61.523,-289.551,41.504,0.0,0
1582146177.221,41.992,57.129,-350.098,30.273000000000003,0.0,0
1582146177.225,10.742,161.13299999999995,-149.414,38.086,0.0,0
1582146177.229,6.836,154.297,-74.707,32.227,0.0,0
1582146177.2329998,25.879,105.469,-177.734,20.508000000000006,0.0,0
1582146177.2370002,31.25,126.953,-137.207,17.09,0.0,0
1582146177.2389998,15.137,141.113,-70.801,30.762,0.0,0
1582146177.2429998,11.719,145.996,-21.484,43.457,0.0,0
1582146177.2470002,28.809,126.465,-36.621,24.902,0.0,0
1582146177.2510002,31.738000000000003,107.91,-71.777,6.348,0.0,0
1582146177.255,9.277,114.746,-33.203,8.789,0.0,0
1582146177.2589998,-2.93,52.734,-137.207,18.555,0.0,0
1582146177.2629998,13.184,-37.598,-384.766,9.277,0.0,0
1582146177.266,32.227,25.391,-366.699,2.93,0.0,0
1582146177.27,20.508000000000006,161.13299999999995,-55.176,17.09,0.0,0
1582146177.274,6.348,118.652,-17.09,27.832,0.0,0
1582146177.278,18.555,64.941,-129.88299999999998,18.555,0.0,0
1582146177.282,36.621,74.707,-145.02,2.93,0.0,2
1582146177.299,36.133,75.195,-144.043,13.184,0.0,0
1582146177.303,12.695,72.75399999999998,-155.762,34.668,0.0,0
1582146177.3070002,18.555,80.566,-161.13299999999995,49.316,0.0,0
1582146177.311,38.574,119.141,-83.984,31.738000000000003,0.0,0
1582146177.315,36.133,105.469,-69.336,6.348,0.0,0
1582146177.319,26.855,14.648,-250.977,22.461,0.0,0
1582146177.323,17.09,-28.32,-477.539,31.738000000000003,0.0,0
1582146177.326,22.949,136.23,-250.977,20.02,0.0,0
1582146177.33,37.598,202.637,2.93,20.508000000000006,0.0,0
1582146177.334,28.809,116.211,-88.37899999999998,24.414,0.0,0
1582146177.3379998,16.602,101.562,-123.047,38.086,0.0,0
1582146177.342,32.227,128.906,-43.945,36.621,0.0,0
1582146177.344,61.035,106.445,-36.133,19.531,0.0,0
1582146177.3479998,60.547,75.684,-81.543,28.809,0.0,0
1582146177.3520002,32.227,26.855,-206.543,39.062,0.0,0
1582146177.356,39.062,49.316,-194.824,48.828,0.0,0
1582146177.36,65.43,99.121,-24.902,36.133,0.0,0
1582146177.3639998,64.453,40.527,-111.816,38.086,0.0,0
1582146177.3679998,26.855,26.367,-228.027,50.293,0.0,0
1582146177.371,14.648,80.566,-157.227,34.668,0.0,0
1582146177.375,47.363,95.215,-72.75399999999998,29.297,0.0,0
1582146177.379,40.039,-20.996,-274.414,12.695,0.0,0
1582146177.383,10.254,-21.484,-351.5619999999999,14.16,0.0,0
1582146177.387,4.883,79.102,-153.32,27.344,0.0,0
1582146177.389,28.32,43.457,-157.715,21.484,0.0,0
1582146177.393,40.039,23.926,-187.988,16.602,0.0,0
1582146177.397,29.785,52.734,-143.555,21.973000000000006,0.0,0
1582146177.401,25.879,66.406,-79.102,36.133,0.0,0
1582146177.405,30.762,30.273000000000003,-77.148,42.48,0.0,0
1582146177.409,45.898,-28.809,-198.242,20.996,0.0,0
1582146177.413,33.691,-23.438,-263.184,15.137,0.0,0
1582146177.416,12.207,39.062,-156.738,26.367,0.0,0
1582146177.42,26.367,-12.695,-203.125,23.438,0.0,0
1582146177.424,42.48,-52.734,-302.7340000000001,9.277,0.0,0
1582146177.428,40.527,61.523,-88.37899999999998,13.184,0.0,0
1582146177.4320002,23.438,43.945,-9.277,33.203,0.0,0
1582146177.434,11.719,-7.324,-62.5,41.504,0.0,0
1582146177.438,32.227,2.93,-49.316,29.785,0.0,0
1582146177.4420002,36.621,27.344,4.395,10.254,0.0,0
1582146177.446,13.184,14.648,-16.113,24.902,0.0,0
1582146177.45,1.953,-22.461,-100.098,43.457,0.0,0
1582146177.454,23.438,-57.617,-198.242,40.039,0.0,0
1582146177.458,38.574,-34.18,-226.074,20.996,0.0,0
1582146177.461,25.879,50.78100000000001,-60.547,25.391,0.0,0
1582146177.465,-0.488,-49.805,-275.391,21.484,0.0,0
1582146177.469,2.93,-25.879,-392.578,9.277,0.0,0
1582146177.4729998,28.809,160.156,-13.184,5.859,0.0,0
1582146177.4770002,27.344,116.211,33.691,7.812,0.0,0
1582146177.479,8.789,42.969,-106.934,21.484,0.0,0
1582146177.4829998,0.977,80.078,-67.87100000000001,8.789,0.0,0
1582146177.4870002,24.414,120.605,85.93799999999997,-11.719,0.0,0
1582146177.4910002,37.598,78.125,83.49600000000002,-7.324,0.0,0
1582146177.495,21.973000000000006,42.48,16.113,16.602,0.0,0
1582146177.4989998,9.766,34.668,-25.391,17.09,0.0,0
1582146177.5029998,22.461,49.316,-65.918,-7.812,0.0,0
1582146177.506,36.133,47.363,-102.539,-17.578,0.0,0
1582146177.51,14.648,8.789,-236.328,-15.137,0.0,0
1582146177.514,9.277,116.211,-107.422,0.0,0.0,0
1582146177.518,34.668,145.996,43.457,6.348,0.0,0
1582146177.522,41.01600000000001,74.707,-6.348,-6.836,0.0,0
1582146177.525,20.02,51.27,-52.246,-10.742,0.0,0
1582146177.529,3.418,63.965,-39.062,4.395,0.0,0
1582146177.533,9.766,81.543,20.02,11.23,0.0,0
1582146177.5370002,28.32,86.426,31.25,4.395,0.0,0
1582146177.541,27.832,84.473,52.246,0.488,0.0,0
1582146177.545,2.93,15.625,-60.059,1.953,0.0,0
1582146177.549,0.977,3.906,-122.07,8.789,0.0,0
1582146177.552,23.438,-12.695,-175.78099999999995,-0.488,0.0,0
1582146177.556,36.621,12.695,-177.24599999999995,-3.418,0.0,0
1582146177.56,20.996,120.605,40.039,14.16,0.0,0
1582146177.564,15.137,111.328,112.793,26.367,0.0,0
1582146177.5679998,30.273000000000003,50.293,11.719,9.277,0.0,0
1582146177.569,36.133,92.285,73.242,-9.277,0.0,0
1582146177.573,20.508000000000006,127.93,224.121,2.93,0.0,0
1582146177.577,0.488,13.184,71.289,17.09,0.0,0
1582146177.581,7.324,-32.715,-75.684,-1.465,0.0,0
1582146177.585,26.367,22.949,-18.555,-12.207,0.0,0
1582146177.589,20.02,27.832,-20.02,2.93,0.0,0
1582146177.593,10.742,-13.672,-122.559,10.742,0.0,0
1582146177.596,19.531,-19.043,-240.234,16.113,0.0,0
1582146177.6,36.621,119.629,-47.363,6.836,0.0,0
1582146177.604,39.062,128.906,68.848,-6.348,0.0,0
1582146177.6079998,14.16,70.312,9.766,10.742,0.0,0
1582146177.6120002,9.277,70.312,20.996,27.832,0.0,0
1582146177.615,31.25,104.98,100.586,9.766,0.0,0
1582146177.619,44.434,117.188,166.99200000000005,3.906,0.0,0
1582146177.623,20.996,37.109,23.926,24.902,0.0,0
1582146177.627,8.301,3.418,-108.887,29.785,0.0,0
1582146177.631,37.598,68.848,33.203,32.227,0.0,0
1582146177.635,49.805,33.203,7.324,22.461,0.0,0
1582146177.639,29.785,-67.383,-271.48400000000004,20.996,0.0,0
1582146177.6420002,17.09,-7.812,-259.766,39.062,0.0,0
1582146177.646,30.273000000000003,88.37899999999998,-7.812,28.809,0.0,0
1582146177.65,45.898,47.363,40.527,10.254,0.0,0
1582146177.654,34.668,42.969,39.062,7.812,0.0,0
1582146177.658,12.207,72.75399999999998,70.312,31.25,0.0,0
1582146177.675,19.043,81.055,111.328,41.01600000000001,0.0,0
1582146177.679,30.273000000000003,44.434,87.402,15.137,0.0,0
1582146177.6829998,28.809,18.555,30.762,14.648,0.0,0
1582146177.687,14.16,65.918,103.027,26.855,0.0,0
1582146177.691,11.23,66.895,156.738,40.039,0.0,0
1582146177.695,37.109,-36.133,-34.668,31.25,0.0,0
1582146177.699,37.598,-41.01600000000001,-141.113,10.742,0.0,0
1582146177.702,14.648,72.75399999999998,86.914,25.391,0.0,0
1582146177.706,-1.953,26.367,87.402,25.879,0.0,0
1582146177.71,6.836,-80.078,-153.809,11.23,0.0,0
1582146177.714,18.555,-8.301,-97.656,2.93,0.0,0
1582146177.718,20.508000000000006,104.004,153.32,6.348,0.0,0
1582146177.72,0.488,69.336,154.297,13.672,0.0,0
1582146177.724,-14.648,33.691,71.777,-3.906,0.0,0
1582146177.728,7.812,62.012,105.957,-14.16,0.0,0
1582146177.732,-10.254,78.613,132.32399999999998,-17.09,0.0,0
1582146177.736,-41.01600000000001,64.453,78.613,-16.602,0.0,0
1582146177.74,-42.48,14.648,-60.059,-17.09,0.0,0
1582146177.744,-35.645,-0.488,-182.617,-46.875,0.0,0
1582146177.7470002,-46.387,82.031,-95.703,-70.801,0.0,0
1582146177.7510002,-79.59,116.699,-20.02,-70.312,0.0,0
1582146177.755,-102.051,24.902,-275.391,-75.195,0.0,0
1582146177.7589998,-91.309,104.98,-320.801,-95.215,0.0,0
1582146177.7629998,-96.191,223.145,-50.293,-112.305,0.0,0
1582146177.764,-123.535,162.109,-110.352,-107.422,0.0,0
1582146177.768,-129.395,166.99200000000005,-203.125,-95.703,0.0,0
1582146177.772,-133.789,226.562,-153.809,-131.34799999999998,0.0,0
1582146177.776,-139.16,264.648,-93.262,-184.57,0.0,0
1582146177.78,-165.52700000000004,188.477,-197.754,-187.5,0.0,0
1582146177.784,-192.383,91.309,-385.254,-175.78099999999995,0.0,0
1582146177.788,-186.523,136.23,-363.77,-198.73,0.0,0
1582146177.791,-178.71099999999996,255.371,-122.07,-219.727,0.0,0
1582146177.795,-193.848,184.082,-117.188,-227.539,0.0,0
1582146177.799,-212.402,69.336,-345.215,-219.727,0.0,0
1582146177.803,-209.473,169.43400000000003,-201.172,-207.52,0.0,0
1582146177.8070002,-192.383,194.824,-42.969,-214.355,0.0,0
1582146177.81,-188.477,131.34799999999998,-103.027,-223.145,0.0,0
1582146177.814,-198.73,124.023,-83.008,-197.754,0.0,0
1582146177.8179998,-199.219,101.074,-113.281,-191.895,0.0,0
1582146177.822,-184.082,109.863,-146.484,-208.008,0.0,0
1582146177.826,-168.945,180.176,-103.027,-206.055,0.0,0
1582146177.83,-166.99200000000005,199.219,-136.23,-186.523,0.0,0
1582146177.834,-169.922,200.68400000000003,-175.78099999999995,-155.273,0.0,0
1582146177.837,-147.461,261.23,-50.78100000000001,-148.438,0.0,0
1582146177.841,-119.141,199.707,-76.172,-161.13299999999995,0.0,0
1582146177.845,-110.352,187.5,-129.395,-143.066,0.0,0
1582146177.849,-99.609,312.012,103.027,-108.398,0.0,0
1582146177.853,-79.102,286.133,145.02,-98.145,0.0,0
1582146177.855,-55.176,267.578,117.188,-104.492,0.0,0
1582146177.859,-46.875,310.059,224.121,-94.238,0.0,0
1582146177.863,-43.457,311.035,318.3590000000001,-50.293,0.0,0
1582146177.867,-20.508000000000006,223.145,176.27,-21.484,0.0,0
1582146177.871,17.09,188.965,51.27,-16.602,0.0,0
1582146177.875,36.133,211.426,51.758,-6.836,0.0,0
1582146177.879,27.832,201.172,26.855,20.02,0.0,0
1582146177.8820002,23.926,143.066,-77.637,42.969,0.0,0
1582146177.8860002,53.223,125.488,-201.66,37.598,0.0,0
1582146177.89,77.637,280.273,45.41,39.062,0.0,0
1582146177.894,69.824,306.152,228.516,66.895,0.0,0
1582146177.8979998,62.988,215.82,94.727,85.449,0.0,0
1582146177.9,86.914,195.312,77.637,92.773,0.0,0
1582146177.904,116.699,213.867,146.484,94.238,0.0,0
1582146177.908,118.164,204.59,141.602,99.121,0.0,0
1582146177.9120002,107.91,176.75799999999995,59.57,119.141,0.0,0
1582146177.916,118.652,196.777,63.965,132.32399999999998,0.0,0
1582146177.92,136.719,161.13299999999995,44.922,119.629,0.0,0
1582146177.924,133.789,135.254,-12.695,122.07,0.0,0
1582146177.927,120.605,83.008,-149.414,136.23,0.0,0
1582146177.931,109.863,71.289,-254.395,125.0,0.0,0
1582146177.935,118.652,187.988,-60.059,111.816,0.0,0
1582146177.939,127.441,225.098,103.027,110.84,0.0,0
1582146177.9429998,106.445,169.922,57.617,111.328,0.0,0
1582146177.944,97.656,164.062,53.223,118.652,0.0,0
1582146177.948,117.188,182.129,148.92600000000004,110.352,0.0,0
1582146177.952,130.859,115.723,82.52,108.887,0.0,0
1582146177.956,116.699,87.402,33.203,123.535,0.0,0
1582146177.96,104.492,101.562,56.64100000000001,133.789,0.0,0
1582146177.964,119.629,33.203,-80.078,125.977,0.0,0
1582146177.968,138.184,-20.508000000000006,-216.30900000000003,114.258,0.0,0
1582146177.971,122.07,-39.062,-299.316,116.699,0.0,0
1582146177.975,101.562,46.387,-181.641,122.559,0.0,0
1582146177.979,110.84,123.535,57.617,125.488,0.0,0
1582146177.9829998,128.418,67.383,75.684,115.234,0.0,0
1582146177.9870002,120.117,-2.93,-28.809,97.656,0.0,0
1582146177.9889998,100.586,0.977,-21.484,114.746,0.0,0
1582146177.9929998,104.98,-6.836,6.348,140.625,0.0,0
1582146177.9970002,117.676,-59.082,-94.727,125.0,0.0,0
1582146178.0010002,126.953,-57.617,-136.719,113.281,0.0,0
1582146178.005,118.652,-19.531,-36.133,127.441,0.0,0
1582146178.0089998,107.422,-78.613,-112.793,145.50799999999995,0.0,0
1582146178.0129998,114.746,-180.176,-408.203,126.953,0.0,0
1582146178.016,115.234,-85.93799999999997,-364.258,103.027,0.0,0
1582146178.02,96.68,41.01600000000001,-76.172,103.027,0.0,0
1582146178.024,84.961,8.301,-14.16,111.816,0.0,0
1582146178.028,88.867,-35.645,-47.852,113.77,0.0,0
1582146178.032,99.609,-26.367,-35.645,96.191,0.0,0
1582146178.05,97.168,1.953,9.277,98.633,0.0,0
1582146178.054,76.172,-26.367,-42.48,104.98,0.0,0
1582146178.0579998,67.87100000000001,-78.125,-168.457,98.633,0.0,0
1582146178.062,79.102,-47.363,-147.461,95.215,0.0,0
1582146178.066,82.52,-3.418,-20.996,94.238,0.0,0
1582146178.07,69.336,-113.281,-211.914,88.867,0.0,0
1582146178.074,62.5,-106.934,-345.7030000000001,83.984,0.0,0
1582146178.077,68.359,58.594,-97.656,68.359,0.0,0
1582146178.081,71.289,92.285,40.527,56.152,0.0,0
1582146178.085,65.43,12.695,-56.152,69.336,0.0,0
1582146178.089,58.594,-15.137,-125.488,84.961,0.0,0
1582146178.093,64.941,62.988,17.578,74.219,0.0,0
1582146178.095,74.707,46.387,22.461,51.27,0.0,0
1582146178.099,52.246,10.254,-77.148,58.105,0.0,0
1582146178.103,24.902,30.273000000000003,-63.477,60.059,0.0,0
1582146178.107,32.715,53.223,-6.348,39.062,0.0,0
1582146178.111,52.246,34.668,-33.203,20.508000000000006,0.0,0
1582146178.115,43.457,0.977,-132.812,24.902,0.0,0
1582146178.119,29.297,-13.672,-220.703,43.457,0.0,0
1582146178.1220002,39.062,60.547,-108.887,49.805,0.0,0
1582146178.1260002,45.41,129.395,62.5,36.621,0.0,0
1582146178.13,34.18,10.742,-146.484,16.602,0.0,0
1582146178.1339998,20.02,10.254,-261.23,20.02,0.0,0
1582146178.1379998,23.438,125.977,-16.602,50.78100000000001,0.0,0
1582146178.14,42.48,104.492,41.504,35.645,0.0,0
1582146178.144,57.617,91.309,37.598,17.578,0.0,0
1582146178.1479998,37.598,86.914,61.523,30.273000000000003,0.0,0
1582146178.1520002,16.113,59.082,38.086,31.738000000000003,0.0,0
1582146178.156,32.715,20.996,0.0,24.414,0.0,0
1582146178.16,48.34,-36.621,-102.051,5.859,0.0,0
1582146178.164,44.434,-36.621,-168.457,7.324,0.0,0
1582146178.167,30.273000000000003,41.992,-67.87100000000001,18.066,0.0,0
1582146178.171,20.02,12.695,-98.633,11.23,0.0,0
1582146178.175,37.598,-32.227,-252.441,6.348,0.0,0
1582146178.179,42.969,83.49600000000002,-69.336,6.348,0.0,0
1582146178.1829998,14.16,100.098,64.453,18.066,0.0,0
1582146178.184,7.324,47.363,-58.105,10.742,0.0,0
1582146178.188,36.133,52.246,-108.398,9.766,0.0,0
1582146178.1920002,52.246,85.449,-61.035,28.32,0.0,0
1582146178.196,39.062,116.211,31.738000000000003,49.805,0.0,0
1582146178.2,21.484,64.941,-21.973000000000006,56.152,0.0,0
1582146178.204,29.785,21.484,-154.297,35.156,0.0,0
1582146178.208,51.758,64.941,-117.676,41.504,0.0,0
1582146178.211,43.945,120.117,12.695,56.152,0.0,0
1582146178.215,28.32,26.855,-153.809,54.688,0.0,0
1582146178.219,41.992,16.602,-270.02,49.316,0.0,0
1582146178.2229998,64.941,156.25,27.344,40.527,0.0,0
1582146178.2270002,62.988,86.426,-17.09,48.34,0.0,0
1582146178.229,41.504,56.152,-123.535,69.336,0.0,0
1582146178.2329998,44.922,133.30100000000002,-37.598,68.359,0.0,0
1582146178.2370002,66.895,150.879,21.973000000000006,57.617,0.0,0
1582146178.2410002,61.523,92.285,-73.242,47.852,0.0,0
1582146178.245,40.039,48.34,-193.359,53.71100000000001,0.0,0
1582146178.2489998,45.41,11.719,-300.781,71.289,0.0,0
1582146178.2529998,62.988,55.664,-281.738,54.199,0.0,0
1582146178.256,58.105,56.152,-236.328,34.668,0.0,0
1582146178.26,33.691,-12.207,-370.117,34.18,0.0,0
1582146178.264,17.578,88.37899999999998,-213.867,33.203,0.0,0
1582146178.268,30.762,133.789,-11.719,36.621,0.0,0
1582146178.272,44.922,62.012,-73.242,33.203,0.0,0
1582146178.274,34.18,37.598,-128.418,43.457,0.0,0
1582146178.278,12.207,62.5,-70.312,52.246,0.0,0
1582146178.282,18.066,30.273000000000003,-142.09,43.457,0.0,0
1582146178.286,41.992,37.109,-170.898,34.18,0.0,0
1582146178.29,41.01600000000001,61.035,-104.004,34.668,0.0,0
1582146178.294,34.668,2.93,-225.586,51.27,0.0,0
1582146178.298,37.598,7.324,-254.883,44.922,0.0,0
1582146178.301,54.199,-44.434,-368.652,18.066,0.0,0
1582146178.305,56.152,-12.695,-381.836,18.066,0.0,0
1582146178.309,35.645,112.793,-42.969,38.086,0.0,0
1582146178.313,25.879,45.898,-20.996,42.48,0.0,0
1582146178.3170002,39.062,21.973000000000006,-84.961,18.066,0.0,0
1582146178.319,44.922,56.152,-49.805,-3.418,0.0,0
1582146178.323,26.367,66.895,-10.742,11.719,0.0,0
1582146178.327,26.367,32.227,-67.383,29.297,0.0,0
1582146178.331,42.969,20.02,-119.141,27.344,0.0,0
1582146178.335,55.664,55.176,-49.805,7.812,0.0,0
1582146178.339,49.316,21.484,-113.77,7.324,0.0,0
1582146178.343,25.879,-45.41,-295.898,26.855,0.0,0
1582146178.346,29.297,-43.945,-409.668,16.602,0.0,0
1582146178.35,59.57,104.492,-164.062,12.695,0.0,0
1582146178.354,47.852,152.344,100.586,11.23,0.0,0
1582146178.3579998,10.742,74.219,18.066,13.672,0.0,0
1582146178.3620002,26.855,69.824,-14.16,38.086,0.0,0
1582146178.3639998,49.805,94.238,67.383,29.297,0.0,0
1582146178.3679998,47.363,88.37899999999998,126.465,18.555,0.0,0
1582146178.3720002,27.344,62.988,142.09,19.531,0.0,0
1582146178.3760002,16.602,38.574,66.406,26.855,0.0,0
1582146178.38,44.434,68.359,99.121,31.25,0.0,0
1582146178.3839998,64.941,27.832,19.043,23.438,0.0,0
1582146178.3879998,40.039,-63.477,-268.066,18.555,0.0,0
1582146178.391,33.203,3.906,-232.91,11.23,0.0,0
1582146178.395,46.875,88.37899999999998,-48.828,5.859,0.0,0
1582146178.399,49.316,81.055,-13.672,4.883,0.0,1
1582146178.403,38.086,73.73,15.137,13.672,0.0,0
1582146178.407,16.602,86.426,32.715,25.879,0.0,0
1582146178.424,17.09,142.09,161.621,24.902,0.0,0
1582146178.428,39.062,90.82,122.559,2.93,0.0,0
1582146178.4320002,36.621,40.039,0.0,0.977,0.0,0
1582146178.436,11.23,78.125,29.297,14.16,0.0,0
1582146178.44,10.742,88.37899999999998,77.637,29.297,0.0,0
1582146178.444,33.203,5.859,-55.176,14.16,0.0,0
1582146178.448,38.574,-17.09,-204.102,-0.488,0.0,0
1582146178.451,24.414,110.84,-21.973000000000006,29.785,0.0,0
1582146178.455,20.508000000000006,133.30100000000002,113.281,38.086,0.0,0
1582146178.459,29.297,43.457,-4.883,23.926,0.0,0
1582146178.4629998,45.898,38.574,-46.875,13.184,0.0,0
1582146178.467,32.227,84.961,14.16,21.484,0.0,0
1582146178.469,10.254,91.797,23.438,43.457,0.0,0
1582146178.4729998,20.508000000000006,88.37899999999998,29.785,42.48,0.0,0
1582146178.4770002,41.01600000000001,106.445,78.613,27.344,0.0,0
1582146178.481,30.273000000000003,117.188,146.97299999999996,16.113,0.0,0
1582146178.485,1.465,68.359,97.656,21.973000000000006,0.0,0
1582146178.4889998,13.672,14.16,-20.508000000000006,50.293,0.0,0
1582146178.4929998,41.504,20.02,-102.539,28.32,0.0,0
1582146178.496,33.691,74.707,-67.87100000000001,-4.883,0.0,0
1582146178.5,14.648,100.098,26.855,18.066,0.0,0
1582146178.504,18.066,-20.508000000000006,-214.355,29.785,0.0,0
1582146178.508,33.203,1.953,-254.395,20.02,0.0,0
1582146178.512,32.227,132.32399999999998,83.984,6.836,0.0,0
1582146178.514,5.859,76.172,94.238,3.906,0.0,0
1582146178.518,-16.602,15.137,3.418,8.301,0.0,0
1582146178.522,0.0,24.902,24.414,1.953,0.0,0
1582146178.526,26.855,71.289,109.375,0.488,0.0,0
1582146178.53,13.672,47.852,95.215,8.789,0.0,0
1582146178.534,-5.371,-31.25,-69.336,23.926,0.0,0
1582146178.538,1.465,4.883,-77.637,16.602,0.0,0
1582146178.541,24.414,83.984,73.73,-1.953,0.0,0
1582146178.545,27.832,4.883,3.906,7.324,0.0,0
1582146178.549,4.883,-96.191,-269.531,10.254,0.0,0
1582146178.553,6.348,29.785,-165.52700000000004,19.043,0.0,0
1582146178.5570002,24.902,107.422,45.41,7.324,0.0,0
1582146178.559,26.367,45.898,-66.406,-4.395,0.0,0
1582146178.563,9.766,54.199,-91.309,25.879,0.0,0
1582146178.5670002,4.395,98.145,40.527,47.363,0.0,0
1582146178.571,20.996,100.098,103.027,31.25,0.0,0
1582146178.575,36.621,72.266,81.543,6.348,0.0,0
1582146178.579,19.531,5.371,-58.594,8.789,0.0,0
1582146178.583,-2.93,11.23,-100.098,22.949,0.0,0
1582146178.586,21.973000000000006,80.078,57.129,17.09,0.0,0
1582146178.59,52.246,-13.672,-103.027,6.836,0.0,0
1582146178.594,36.133,-20.02,-222.656,-2.441,0.0,0
1582146178.5979998,17.578,102.051,6.836,7.324,0.0,0
1582146178.6020002,34.668,65.918,-1.953,21.973000000000006,0.0,0
1582146178.604,45.898,45.898,-52.246,13.184,0.0,0
1582146178.6079998,34.18,68.848,-21.484,9.766,0.0,0
1582146178.6120002,24.902,64.941,20.02,24.902,0.0,0
1582146178.6160002,32.227,2.93,-46.875,40.527,0.0,0
1582146178.62,54.199,-17.578,-77.148,34.668,0.0,0
1582146178.6239998,51.27,2.441,-44.434,31.25,0.0,0
1582146178.6279998,24.902,-7.812,-83.984,36.621,0.0,0
1582146178.631,14.648,-30.762,-92.285,33.203,0.0,0
1582146178.635,26.855,-55.176,-150.879,20.508000000000006,0.0,0
1582146178.639,36.133,45.41,21.973000000000006,16.602,0.0,0
1582146178.643,22.461,44.434,131.836,25.879,0.0,0
1582146178.647,14.648,-29.785,-5.371,35.645,0.0,0
1582146178.649,32.227,-7.812,9.766,25.879,0.0,0
1582146178.653,49.316,12.207,74.219,9.277,0.0,0
1582146178.657,32.227,7.812,85.449,13.184,0.0,0
1582146178.661,10.254,-5.859,78.613,25.879,0.0,0
1582146178.665,20.996,-37.109,33.203,28.32,0.0,0
1582146178.669,39.062,-51.758,-1.465,10.742,0.0,0
1582146178.673,33.691,-25.391,16.602,0.977,0.0,0
1582146178.676,11.719,-115.723,-202.637,18.555,0.0,0
1582146178.68,8.789,-67.383,-242.676,14.648,0.0,0
1582146178.684,29.297,116.211,90.82,-4.395,0.0,0
1582146178.688,35.156,92.285,127.441,-13.672,0.0,0
1582146178.6920002,11.719,41.504,27.832,-4.883,0.0,0
1582146178.694,0.488,60.059,-0.977,10.742,0.0,0
1582146178.698,12.695,128.418,132.32399999999998,-4.883,0.0,0
1582146178.702,19.531,106.445,135.74200000000002,-19.531,0.0,0
1582146178.706,-4.395,102.051,95.703,-14.648,0.0,0
1582146178.71,-21.973000000000006,132.812,138.672,-10.742,0.0,0
1582146178.714,-5.371,104.004,76.172,3.906,0.0,0
1582146178.718,7.324,50.78100000000001,-72.266,-10.742,0.0,0
1582146178.721,-9.277,45.898,-191.895,-32.715,0.0,0
1582146178.725,-21.973000000000006,145.50799999999995,-41.504,-14.648,0.0,0
1582146178.729,-19.531,143.066,39.551,-7.324,0.0,0
1582146178.7329998,-14.648,79.59,-18.555,-22.461,0.0,0
1582146178.7370002,-23.926,65.918,-29.297,-43.457,0.0,0
1582146178.7389998,-56.64100000000001,129.88299999999998,65.918,-39.062,0.0,0
1582146178.7429998,-64.941,136.23,92.285,-43.457,0.0,0
1582146178.7470002,-53.223,72.75399999999998,-55.664,-64.941,0.0,0
1582146178.7510002,-64.941,94.238,-75.195,-82.52,0.0,0
1582146178.755,-87.402,132.812,-32.227,-94.238,0.0,0
1582146178.7589998,-102.051,79.59,-164.062,-90.82,0.0,0
1582146178.7629998,-88.867,-0.977,-357.422,-101.562,0.0,0
1582146178.766,-79.59,71.289,-368.164,-123.535,0.0,0
1582146178.77,-99.609,227.051,-102.539,-109.375,0.0,0
1582146178.774,-122.559,172.852,-62.012,-93.262,0.0,0
1582146178.778,-131.836,104.98,-166.99200000000005,-112.793,0.0,0
1582146178.782,-121.094,153.809,-171.387,-146.97299999999996,0.0,0
1582146178.799,-144.043,202.148,-140.625,-166.50400000000005,0.0,0
1582146178.803,-173.828,157.715,-212.891,-156.25,0.0,0
1582146178.8070002,-169.43400000000003,100.098,-362.305,-160.156,0.0,0
1582146178.811,-164.062,182.617,-256.836,-174.31599999999997,0.0,0
1582146178.815,-161.621,215.82,-154.297,-187.988,0.0,0
1582146178.819,-183.594,62.5,-413.574,-198.73,0.0,0
1582146178.823,-193.359,0.977,-588.379,-192.871,0.0,0
1582146178.826,-171.387,111.328,-427.246,-198.242,0.0,0
1582146178.83,-152.832,208.008,-252.441,-191.895,0.0,0
1582146178.834,-159.668,185.05900000000003,-273.926,-189.453,0.0,0
1582146178.8379998,-181.641,160.645,-319.336,-187.012,0.0,0
1582146178.842,-166.016,244.141,-142.578,-182.129,0.0,0
1582146178.844,-147.94899999999996,238.281,-124.023,-196.289,0.0,0
1582146178.8479998,-167.96900000000005,170.898,-277.832,-196.289,0.0,0
1582146178.8520002,-171.387,155.762,-333.0080000000001,-177.734,0.0,0
1582146178.856,-139.16,209.473,-223.145,-154.297,0.0,0
1582146178.86,-124.023,179.688,-217.773,-159.18,0.0,0
1582146178.8639998,-140.137,83.49600000000002,-366.699,-167.96900000000005,0.0,0
1582146178.8679998,-163.57399999999996,101.562,-402.832,-160.645,0.0,0
1582146178.871,-151.36700000000005,207.52,-206.055,-162.59799999999996,0.0,0
1582146178.875,-117.188,170.898,-172.852,-166.016,0.0,0
1582146178.879,-104.004,60.059,-382.324,-157.715,0.0,0
1582146178.883,-103.516,146.97299999999996,-315.43,-130.859,0.0,0
1582146178.887,-104.492,282.2270000000001,2.93,-107.422,0.0,0
1582146178.889,-74.219,226.074,20.996,-107.91,0.0,0
1582146178.893,-32.227,195.312,-15.137,-88.37899999999998,0.0,0
1582146178.897,-31.25,206.543,45.898,-54.688,0.0,0
1582146178.901,-26.855,215.332,103.516,-37.109,0.0,0
1582146178.905,0.0,154.297,75.195,-18.555,0.0,0
1582146178.909,33.203,29.785,-77.148,-20.996,0.0,0
1582146178.913,41.992,20.508000000000006,-54.199,-7.812,0.0,0
1582146178.916,36.133,62.988,102.539,33.203,0.0,0
1582146178.92,56.152,-22.949,62.988,43.457,0.0,0
1582146178.924,80.078,-89.844,-92.285,41.992,0.0,0
1582146178.928,80.566,8.789,30.762,48.34,0.0,0
1582146178.9320002,82.031,43.945,158.203,66.406,0.0,0
1582146178.934,100.098,41.504,144.043,81.543,0.0,0
1582146178.938,119.629,62.988,167.48,79.59,0.0,0
1582146178.9420002,130.371,91.797,257.812,80.078,0.0,0
1582146178.946,122.559,37.598,187.012,90.82,0.0,0
1582146178.95,119.629,13.184,102.539,110.84,0.0,0
1582146178.954,133.789,7.812,32.227,103.516,0.0,0
1582146178.958,142.578,45.898,12.695,96.68,0.0,0
1582146178.961,134.766,148.92600000000004,208.984,112.793,0.0,0
1582146178.965,123.047,27.344,12.695,108.398,0.0,0
1582146178.969,138.184,52.734,-89.355,116.211,0.0,0
1582146178.9729998,153.32,263.184,298.828,115.234,0.0,0
1582146178.9770002,141.602,173.34,250.0,102.051,0.0,0
1582146178.979,121.094,96.191,74.219,117.676,0.0,0
1582146178.9829998,128.906,153.32,164.551,128.906,0.0,0
1582146178.9870002,153.809,141.602,172.363,125.488,0.0,0
1582146178.9910002,145.996,112.305,111.816,122.07,0.0,0
1582146178.995,122.559,126.953,177.24599999999995,130.859,0.0,0
1582146178.9989998,109.375,83.49600000000002,89.355,124.512,0.0,0
1582146179.0029998,122.07,99.121,37.109,97.656,0.0,0
1582146179.006,124.023,106.934,97.168,102.539,0.0,0
1582146179.01,101.562,19.043,-38.574,122.559,0.0,0
1582146179.014,98.633,102.051,50.293,121.094,0.0,0
1582146179.018,123.047,156.738,217.773,113.281,0.0,0
1582146179.022,142.578,100.098,165.52700000000004,99.609,0.0,0
1582146179.024,128.906,82.031,127.441,115.234,0.0,0
1582146179.028,122.07,85.93799999999997,169.43400000000003,150.391,0.0,0
1582146179.032,127.93,15.137,63.477,140.137,0.0,0
1582146179.036,132.812,14.16,22.461,121.094,0.0,0
1582146179.04,129.395,22.461,54.688,124.512,0.0,0
1582146179.044,105.957,-45.898,-74.219,138.184,0.0,0
1582146179.048,97.168,-44.434,-132.32399999999998,126.953,0.0,0
1582146179.051,104.004,-71.777,-231.445,91.309,0.0,0
1582146179.055,106.934,-20.508000000000006,-213.379,85.449,0.0,0
1582146179.059,93.75,98.145,52.246,99.609,0.0,0
1582146179.063,79.59,35.156,54.688,109.863,0.0,0
1582146179.0670002,103.516,-12.695,-24.902,103.516,0.0,0
1582146179.069,124.023,26.367,58.105,89.355,0.0,0
1582146179.073,97.656,29.785,116.699,94.238,0.0,0
1582146179.077,77.148,-44.434,-2.93,94.238,0.0,0
1582146179.081,90.332,-51.27,-39.551,81.055,0.0,0
1582146179.085,101.074,14.16,96.191,70.801,0.0,0
1582146179.089,86.426,-53.223,38.086,75.684,0.0,0
1582146179.093,67.383,-141.602,-129.395,88.867,0.0,0
1582146179.096,76.66,-175.78099999999995,-286.133,83.008,0.0,0
1582146179.1,92.285,-62.988,-166.99200000000005,61.035,0.0,0
1582146179.104,78.125,29.785,67.87100000000001,46.875,0.0,0
1582146179.1079998,62.5,-10.742,48.828,65.43,0.0,0
1582146179.1120002,72.266,0.488,53.223,75.195,0.0,0
1582146179.1139998,74.707,24.902,109.375,40.039,0.0,0
1582146179.1179998,70.312,4.883,85.93799999999997,24.414,0.0,0
1582146179.1220002,50.293,-43.945,-10.742,41.992,0.0,0
1582146179.1260002,37.109,-46.875,-22.461,43.945,0.0,0
1582146179.13,49.805,-10.742,83.984,28.809,0.0,0
1582146179.1339998,53.223,-57.129,43.945,12.207,0.0,0
1582146179.1379998,27.344,-174.805,-236.816,20.02,0.0,0
1582146179.141,11.23,-96.68,-217.773,28.32,0.0,0
1582146179.145,28.809,49.805,99.609,20.02,0.0,0
1582146179.149,48.828,14.16,134.766,9.277,0.0,0
1582146179.153,35.645,-13.672,95.703,3.906,0.0,0
1582146179.157,25.391,-20.02,69.824,28.809,0.0,0
1582146179.174,32.715,12.207,141.113,38.086,0.0,0
1582146179.178,47.852,-4.395,177.734,17.578,0.0,0
1582146179.1820002,48.34,-51.758,129.395,10.742,0.0,0
1582146179.186,26.855,-49.316,121.582,22.461,0.0,0
1582146179.19,30.273000000000003,-28.32,155.762,24.414,0.0,0
1582146179.194,60.547,-98.145,24.902,20.02,0.0,0
1582146179.198,75.195,-129.395,-121.582,21.973000000000006,0.0,0
1582146179.201,44.922,-11.23,29.785,22.461,0.0,0
1582146179.205,28.32,20.996,144.043,29.297,0.0,0
1582146179.209,45.898,-36.621,87.891,26.367,0.0,0
1582146179.2129998,47.852,-39.062,57.617,5.371,0.0,0
1582146179.217,33.203,15.625,142.09,12.695,0.0,0
1582146179.219,20.996,1.465,150.879,35.645,0.0,0
1582146179.2229998,36.133,-50.78100000000001,64.941,34.18,0.0,0
1582146179.2270002,45.898,-33.691,67.87100000000001,13.672,0.0,0
1582146179.231,34.668,2.441,121.582,8.301,0.0,0
1582146179.235,23.926,-27.832,73.242,28.809,0.0,0
1582146179.2389998,34.668,-58.105,-5.859,34.18,0.0,0
1582146179.2429998,53.223,-44.922,-36.621,13.184,0.0,0
1582146179.246,52.734,-2.441,16.602,13.672,0.0,0
1582146179.25,36.621,-13.184,16.113,37.109,0.0,0
1582146179.254,28.809,-120.117,-207.031,38.086,0.0,0
1582146179.258,48.34,-83.49600000000002,-228.516,22.949,0.0,0
1582146179.262,61.523,71.289,72.75399999999998,23.926,0.0,0
1582146179.264,34.668,53.223,138.184,31.738000000000003,0.0,0
1582146179.268,16.602,8.789,71.777,34.18,0.0,0
1582146179.272,38.086,12.207,60.547,30.273000000000003,0.0,0
1582146179.276,41.992,2.93,59.082,14.16,0.0,0
1582146179.28,25.391,-31.25,-2.441,15.625,0.0,0
1582146179.284,13.184,-49.805,-68.848,35.156,0.0,0
1582146179.288,15.625,-28.809,-62.012,35.156,0.0,0
1582146179.291,35.156,17.578,-1.953,19.531,0.0,0
1582146179.295,33.203,-42.969,-62.012,15.137,0.0,0
1582146179.299,15.625,-141.602,-278.809,22.949,0.0,0
1582146179.303,25.391,6.348,-93.75,30.762,0.0,0
1582146179.3070002,47.852,79.59,159.668,28.809,0.0,0
1582146179.309,44.434,15.137,100.098,19.043,0.0,0
1582146179.313,19.043,-1.953,36.621,30.273000000000003,0.0,0
1582146179.3170002,28.809,37.109,91.309,41.992,0.0,0
1582146179.321,47.363,40.527,114.746,34.668,0.0,0
1582146179.325,39.062,-4.395,31.738000000000003,22.461,0.0,0
1582146179.329,23.438,-89.355,-203.125,22.949,0.0,0
1582146179.333,16.113,-90.332,-328.125,41.992,0.0,0
1582146179.336,32.227,-8.789,-188.477,27.344,0.0,0
1582146179.34,46.387,-65.918,-275.879,17.09,0.0,0
1582146179.344,38.086,-20.996,-251.953,42.48,0.0,0
1582146179.3479998,28.809,106.445,53.71100000000001,54.199,0.0,0
1582146179.3520002,36.133,55.664,76.66,47.852,0.0,0
1582146179.354,54.199,20.996,50.293,31.25,0.0,0
1582146179.3579998,50.293,35.645,119.629,27.832,0.0,0
1582146179.3620002,21.484,-10.254,68.848,45.41,0.0,0
1582146179.3660002,17.09,-51.27,-33.203,44.922,0.0,0
1582146179.37,44.922,-30.273000000000003,-22.461,29.297,0.0,0
1582146179.3739998,41.01600000000001,-24.902,-52.734,13.184,0.0,0
1582146179.3779998,10.742,-46.875,-186.523,25.391,0.0,0
1582146179.381,5.859,-86.426,-321.289,20.508000000000006,0.0,0
1582146179.385,29.297,-91.309,-422.852,0.0,0.0,0
1582146179.389,44.922,55.176,-168.945,11.719,0.0,0
1582146179.393,18.066,52.734,-4.883,20.02,0.0,0
1582146179.397,5.371,-41.504,-149.414,23.438,0.0,0
1582146179.399,22.949,7.812,-75.195,19.043,0.0,0
1582146179.403,31.738000000000003,36.621,72.75399999999998,8.789,0.0,0
1582146179.407,24.414,-16.602,43.457,15.625,0.0,0
1582146179.411,8.301,-62.988,-66.406,31.738000000000003,0.0,2
1582146179.415,6.348,-46.387,-63.965,35.645,0.0,0
1582146179.419,27.344,-52.246,-23.926,31.25,0.0,0
1582146179.423,29.785,-64.453,-33.203,37.598,0.0,0
1582146179.426,3.418,-122.559,-221.68,50.78100000000001,0.0,0
1582146179.43,-6.348,-101.074,-309.082,16.602,0.0,0
1582146179.434,12.695,42.48,-39.551,-14.648,0.0,0
1582146179.438,15.137,37.109,62.988,2.441,0.0,0
1582146179.4420002,-6.836,-31.738000000000003,-9.277,15.625,0.0,0
1582146179.444,0.977,-11.719,43.457,25.391,0.0,0
1582146179.448,24.414,-29.297,74.219,13.184,0.0,0
1582146179.452,33.691,-119.141,-93.75,2.93,0.0,0
1582146179.456,15.625,-83.008,-97.168,9.277,0.0,0
1582146179.46,-1.465,-26.855,21.484,13.184,0.0,0
1582146179.464,7.812,-66.895,-44.434,9.277,0.0,0
1582146179.468,17.578,-125.488,-180.664,-15.137,0.0,0
1582146179.471,5.859,-147.461,-307.129,-12.695,0.0,0
1582146179.475,-6.348,-20.996,-126.953,22.949,0.0,0
1582146179.479,7.812,45.898,103.027,30.273000000000003,0.0,0
1582146179.4829998,35.645,-24.902,43.945,18.555,0.0,0
1582146179.4870002,36.133,-47.852,-25.879,14.648,0.0,0
1582146179.4889998,15.625,-13.672,6.836,35.156,0.0,0
1582146179.4929998,10.742,-20.508000000000006,23.438,48.34,0.0,0
1582146179.4970002,39.062,-50.293,-42.969,32.715,0.0,0
1582146179.5010002,49.805,-25.879,-24.902,31.25,0.0,0
1582146179.505,14.16,-36.621,-8.301,36.133,0.0,0
1582146179.5089998,-1.953,-97.168,-130.859,34.668,0.0,0
1582146179.5129998,22.949,-142.09,-258.789,36.621,0.0,0
1582146179.516,34.18,-93.262,-243.652,25.879,0.0,0
1582146179.52,14.648,20.02,-40.039,17.578,0.0,0
1582146179.524,0.488,-11.23,-48.828,28.32,0.0,0
1582146179.528,9.277,-34.668,-111.328,23.438,0.0,0
1582146179.532,29.297,-11.719,-75.684,12.207,0.0,0
1582146179.549,18.066,10.254,8.789,16.113,0.0,0
1582146179.553,0.0,-21.484,-11.23,29.297,0.0,0
1582146179.5570002,1.465,-56.152,-108.887,25.391,0.0,0
1582146179.561,23.438,15.625,-6.348,18.066,0.0,0
1582146179.565,35.156,32.227,76.172,25.391,0.0,0
1582146179.569,17.578,-94.238,-167.48,42.48,0.0,0
1582146179.573,19.043,-131.836,-388.184,45.41,0.0,0
1582146179.576,38.574,-35.645,-283.203,27.832,0.0,0
1582146179.58,43.457,-19.043,-194.824,25.391,0.0,0
1582146179.584,33.203,-10.742,-132.812,43.945,0.0,0
1582146179.5879998,28.32,-28.32,-126.465,43.945,0.0,0
1582146179.592,41.504,7.324,-49.805,27.832,0.0,0
1582146179.594,46.875,9.766,6.836,21.484,0.0,0
1582146179.5979998,23.926,-68.848,-145.02,20.996,0.0,0
1582146179.6020002,9.766,-62.012,-179.199,33.203,0.0,0
1582146179.606,13.672,4.395,-50.293,26.855,0.0,0
1582146179.61,18.555,-9.766,-67.87100000000001,4.883,0.0,0
1582146179.6139998,18.066,-75.195,-237.305,3.418,0.0,0
1582146179.6179998,0.488,-73.73,-301.27,24.414,0.0,0
1582146179.621,0.977,-15.137,-195.312,25.391,0.0,0
1582146179.625,35.156,5.371,-94.727,9.277,0.0,0
1582146179.629,27.832,-77.637,-245.605,12.695,0.0,0
1582146179.633,-3.906,-71.289,-322.754,27.832,0.0,0
1582146179.637,0.977,3.906,-193.848,35.645,0.0,0
1582146179.639,26.367,-4.395,-175.78099999999995,27.344,0.0,0
1582146179.643,35.645,-17.578,-202.637,8.789,0.0,0
1582146179.647,10.254,22.949,-114.258,6.836,0.0,0
1582146179.651,1.953,36.621,-30.273000000000003,23.438,0.0,0
1582146179.655,27.344,-5.859,-61.523,32.715,0.0,0
1582146179.659,43.945,-72.266,-206.055,35.156,0.0,0
1582146179.663,38.086,-28.809,-184.082,39.062,0.0,0
1582146179.666,25.879,41.01600000000001,-29.297,52.246,0.0,0
1582146179.67,30.273000000000003,-46.875,-157.227,52.246,0.0,0
1582146179.674,61.035,-76.172,-322.754,36.621,0.0,0
1582146179.678,65.43,72.266,-104.004,31.738000000000003,0.0,0
1582146179.6820002,32.227,77.637,27.344,43.457,0.0,0
1582146179.684,31.25,18.066,-32.715,51.758,0.0,0
1582146179.688,47.852,-12.207,-67.383,29.297,0.0,0
1582146179.6920002,39.551,-1.953,-41.01600000000001,18.066,0.0,0
1582146179.696,20.996,34.18,41.01600000000001,35.156,0.0,0
1582146179.7,20.508000000000006,-27.832,-68.359,36.133,0.0,0
1582146179.704,35.645,-59.082,-183.594,23.926,0.0,0
1582146179.708,47.852,-39.551,-192.383,20.508000000000006,0.0,0
1582146179.711,26.367,-7.812,-143.066,24.414,0.0,0
1582146179.715,10.742,-54.688,-229.004,38.574,0.0,0
1582146179.719,30.273000000000003,-42.48,-241.699,33.691,0.0,0
1582146179.7229998,59.57,66.895,6.348,15.625,0.0,0
1582146179.7270002,49.805,42.969,69.336,19.531,0.0,0
1582146179.729,17.09,-11.23,-4.883,38.086,0.0,0
1582146179.7329998,31.25,3.906,-6.348,39.062,0.0,0
1582146179.7370002,53.223,20.508000000000006,35.156,25.391,0.0,0
1582146179.7410002,45.898,-27.832,-34.668,26.855,0.0,0
1582146179.745,31.738000000000003,-67.87100000000001,-177.734,33.203,0.0,0
1582146179.7489998,33.691,-20.508000000000006,-149.414,40.039,0.0,0
1582146179.7529998,53.71100000000001,1.465,-77.637,27.344,0.0,0
1582146179.756,50.78100000000001,-56.64100000000001,-173.34,16.113,0.0,0
1582146179.76,18.555,-75.195,-261.23,19.043,0.0,0
1582146179.764,7.812,33.691,-83.49600000000002,25.391,0.0,0
1582146179.768,31.738000000000003,69.336,81.543,36.133,0.0,0
1582146179.772,50.78100000000001,23.438,27.832,36.621,0.0,0
1582146179.774,38.574,13.672,0.488,42.48,0.0,0
1582146179.778,16.113,35.645,90.332,50.293,0.0,0
1582146179.782,20.508000000000006,17.578,89.355,38.086,0.0,0
1582146179.786,41.01600000000001,-6.836,-1.953,22.949,0.0,0
1582146179.79,35.156,6.348,-28.809,30.273000000000003,0.0,0
1582146179.794,12.695,-5.859,-84.473,47.363,0.0,0
1582146179.798,19.043,-9.277,-132.32399999999998,37.109,0.0,0
1582146179.801,40.039,-59.082,-255.859,26.367,0.0,0
1582146179.805,35.645,-28.809,-284.668,28.809,0.0,0
1582146179.809,10.742,102.539,-28.32,28.809,0.0,0
1582146179.813,10.254,79.102,12.207,37.598,0.0,0
1582146179.8170002,34.18,40.039,-31.738000000000003,29.785,0.0,0
1582146179.819,38.574,40.527,-55.176,5.859,0.0,0
1582146179.823,17.578,65.918,3.906,20.996,0.0,0
1582146179.827,8.301,22.949,-28.32,40.527,0.0,0
1582146179.831,32.227,-5.371,-123.047,40.039,0.0,0
1582146179.835,48.828,35.645,-64.453,26.367,0.0,0
1582146179.839,25.391,-15.625,-159.668,14.16,0.0,0
1582146179.843,-4.883,-68.848,-279.785,24.414,0.0,0
1582146179.846,4.395,-68.359,-355.469,23.438,0.0,0
1582146179.85,25.879,41.992,-208.496,13.184,0.0,0
1582146179.854,12.207,100.586,6.348,19.043,0.0,0
1582146179.8579998,8.301,23.438,-77.148,31.738000000000003,0.0,0
1582146179.8620002,25.879,-23.438,-208.496,38.086,0.0,0
1582146179.8639998,39.551,56.64100000000001,-77.637,27.344,0.0,0
1582146179.8679998,35.156,83.008,74.707,23.926,0.0,0
1582146179.8720002,5.859,-0.977,-42.48,24.414,0.0,0
1582146179.8760002,-8.301,-1.953,-99.609,11.719,0.0,0
1582146179.88,11.23,30.273000000000003,-19.043,11.719,0.0,0
1582146179.8839998,23.438,-9.766,-66.895,-2.441,0.0,0
1582146179.8879998,10.742,-98.145,-294.922,0.977,0.0,0
1582146179.891,-12.207,-35.156,-258.789,1.953,0.0,0
1582146179.895,11.23,101.562,39.062,-10.742,0.0,0
1582146179.899,44.922,73.73,90.82,3.418,0.0,0
1582146179.903,20.996,19.531,4.395,6.836,0.0,0
1582146179.907,7.812,18.555,-15.625,7.324,0.0,0
1582146179.924,24.902,63.965,84.961,-3.418,0.0,0
1582146179.928,31.738000000000003,20.996,31.25,-21.973000000000006,0.0,0
1582146179.9320002,11.719,-25.879,-82.52,-9.277,0.0,0
1582146179.936,-3.418,47.852,16.602,2.93,0.0,0
1582146179.94,14.16,60.547,57.617,4.395,0.0,0
1582146179.944,40.039,-25.391,-87.402,-0.977,0.0,0
1582146179.948,30.273000000000003,-62.012,-250.977,-20.508000000000006,0.0,0
1582146179.951,10.742,46.875,-122.559,10.742,0.0,0
1582146179.955,5.859,111.328,107.91,32.227,0.0,0
1582146179.959,11.23,43.945,59.57,4.883,0.0,0
1582146179.9629998,18.066,25.879,2.93,-10.254,0.0,0
1582146179.967,12.207,49.316,72.75399999999998,2.441,0.0,0
1582146179.969,17.578,35.645,91.309,38.086,0.0,0
1582146179.9729998,35.645,39.062,82.52,41.992,0.0,0
1582146179.9770002,51.758,63.477,121.094,17.09,0.0,0
1582146179.981,44.922,90.332,198.242,11.23,0.0,0
1582146179.985,19.043,39.062,98.145,24.414,0.0,0
1582146179.9889998,14.648,0.977,-39.062,16.113,0.0,0
1582146179.9929998,31.738000000000003,26.367,-65.918,-15.625,0.0,0
1582146179.996,29.785,75.195,6.348,-10.254,0.0,0
1582146180.0,3.418,90.82,101.074,0.488,0.0,0
1582146180.004,3.418,-45.898,-159.18,-9.766,0.0,0
1582146180.008,33.691,-28.32,-256.348,-6.348,0.0,0
1582146180.012,51.758,127.441,79.102,10.742,0.0,0
1582146180.014,36.133,72.75399999999998,89.355,22.949,0.0,0
1582146180.018,21.484,24.414,-28.32,17.09,0.0,0
1582146180.022,30.273000000000003,83.984,80.566,10.742,0.0,0
1582146180.026,34.18,94.238,153.809,1.465,0.0,0
1582146180.03,10.742,37.598,67.383,-3.418,0.0,0
1582146180.034,-19.531,-18.555,-80.566,-3.906,0.0,0
1582146180.038,-16.602,28.32,-59.57,-20.996,0.0,0
1582146180.041,-15.625,68.848,2.93,-56.64100000000001,0.0,0
1582146180.045,-45.898,0.0,-92.773,-72.266,0.0,0
1582146180.049,-64.453,-42.969,-235.352,-64.941,0.0,0
1582146180.053,-59.082,104.492,-20.508000000000006,-58.105,0.0,0
1582146180.0570002,-55.176,162.59799999999996,225.098,-83.984,0.0,0
1582146180.059,-75.684,69.824,115.234,-118.652,0.0,0
1582146180.063,-104.004,61.035,67.87100000000001,-109.863,0.0,0
1582146180.0670002,-117.188,100.586,157.715,-100.586,0.0,0
1582146180.071,-110.352,101.562,211.426,-128.418,0.0,0
1582146180.075,-112.305,44.922,153.32,-156.25,0.0,0
1582146180.079,-141.113,-35.156,-35.156,-151.36700000000005,0.0,0
1582146180.083,-162.109,0.0,-77.637,-153.809,0.0,0
1582146180.086,-153.809,86.914,61.035,-176.75799999999995,0.0,0
1582146180.09,-149.90200000000004,4.883,-79.102,-192.871,0.0,0
1582146180.094,-172.363,13.184,-157.715,-201.66,0.0,0
1582146180.0979998,-190.43,131.836,53.223,-197.266,0.0,0
1582146180.1020002,-178.71099999999996,125.0,164.551,-196.289,0.0,0
1582146180.104,-159.668,96.191,187.5,-208.984,0.0,0
1582146180.1079998,-168.945,96.68,179.688,-209.961,0.0,0
1582146180.1120002,-187.012,127.441,258.789,-194.336,0.0,0
1582146180.1160002,-168.945,82.031,187.5,-183.594,0.0,0
1582146180.12,-133.789,66.895,133.30100000000002,-181.641,0.0,0
1582146180.1239998,-119.629,84.473,141.113,-169.922,0.0,0
1582146180.1279998,-131.836,81.055,68.848,-143.555,0.0,0
1582146180.131,-132.812,67.383,25.879,-128.906,0.0,0
1582146180.135,-93.75,69.336,-6.348,-126.953,0.0,0
1582146180.139,-54.688,193.848,175.293,-98.145,0.0,0
1582146180.143,-42.969,227.539,314.941,-63.965,0.0,0
1582146180.147,-31.738000000000003,150.879,213.379,-33.203,0.0,0
1582146180.149,-11.23,132.32399999999998,174.31599999999997,-27.832,0.0,0
1582146180.153,11.23,148.438,195.312,-33.203,0.0,0
1582146180.157,11.23,137.695,197.266,-7.812,0.0,0
1582146180.161,-2.441,114.258,164.551,15.137,0.0,0
1582146180.165,14.648,119.629,160.156,33.203,0.0,0
1582146180.169,52.734,109.863,140.625,28.32,0.0,0
1582146180.173,60.547,127.441,144.043,28.32,0.0,0
1582146180.176,39.551,62.988,2.93,48.828,0.0,0
1582146180.18,52.246,86.426,-19.043,63.477,0.0,0
1582146180.184,97.168,227.051,264.16,74.219,0.0,0
1582146180.188,107.91,181.641,273.438,62.988,0.0,0
1582146180.1920002,83.008,109.375,141.602,73.73,0.0,0
1582146180.194,93.262,121.582,104.98,104.98,0.0,0
1582146180.198,111.816,153.32,162.109,88.867,0.0,0
1582146180.202,96.68,112.793,96.191,66.895,0.0,0
1582146180.206,82.031,96.191,34.18,76.172,0.0,0
1582146180.21,73.73,105.957,22.949,92.773,0.0,0
1582146180.214,83.008,121.582,20.996,96.191,0.0,0
1582146180.218,95.215,85.93799999999997,-7.812,85.93799999999997,0.0,0
1582146180.221,89.844,4.883,-139.648,87.891,0.0,0
1582146180.225,88.37899999999998,95.215,24.414,105.469,0.0,0
1582146180.229,108.398,120.605,185.547,109.375,0.0,0
1582146180.2329998,129.395,41.01600000000001,122.559,102.539,0.0,0
1582146180.2370002,115.723,17.578,119.629,105.469,0.0,0
1582146180.2389998,90.82,-4.883,125.977,107.91,0.0,0
1582146180.2429998,90.82,-53.71100000000001,73.73,102.051,0.0,0
1582146180.2470002,100.098,-79.102,-5.859,89.844,0.0,0
1582146180.2510002,96.191,-33.691,50.293,84.473,0.0,0
1582146180.255,77.148,-44.922,116.211,100.098,0.0,0
1582146180.2589998,79.59,-138.672,-25.391,111.328,0.0,0
1582146180.2629998,106.445,-211.914,-236.816,85.449,0.0,0
1582146180.266,116.211,-184.082,-280.762,69.336,0.0,0
1582146180.27,103.027,-48.34,-39.062,98.633,0.0,0
1582146180.274,85.93799999999997,-34.18,85.449,110.352,0.0,0
1582146180.278,88.867,-83.008,59.57,105.469,0.0,0
1582146180.282,105.957,-69.336,110.352,79.102,0.0,0
1582146180.299,98.633,-43.457,224.609,80.078,0.0,0
1582146180.303,86.914,-100.586,178.71099999999996,120.117,0.0,0
1582146180.3070002,90.332,-135.74200000000002,75.195,126.465,0.0,0
1582146180.311,97.656,-45.898,188.477,99.609,0.0,0
1582146180.315,92.773,-21.973000000000006,284.18,85.449,0.0,0
1582146180.319,81.543,-144.531,117.188,104.004,0.0,0
1582146180.323,81.055,-210.449,-104.492,114.746,0.0,0
1582146180.326,87.891,-62.988,75.195,94.238,0.0,0
1582146180.33,87.891,-9.766,268.066,81.543,0.0,0
1582146180.334,66.406,-73.242,243.652,86.914,0.0,0
1582146180.3379998,62.988,-95.703,166.50400000000005,112.305,0.0,0
1582146180.342,74.219,-36.621,258.301,104.004,0.0,0
1582146180.344,72.75399999999998,-28.32,336.426,70.312,0.0,0
1582146180.3479998,58.594,-85.449,223.145,83.984,0.0,0
1582146180.3520002,42.969,-84.473,189.453,93.75,0.0,0
