timestamps,TP9,AF7,AF8,TP10,Marker0
1578866674.470,47.852,39.062,-66.895,65.430,0
1578866674.474,44.922,32.715,-87.402,87.891,0
1578866674.478,49.316,31.738,-153.320,81.543,0
1578866674.482,42.480,32.227,-132.324,45.410,0
1578866674.486,48.828,30.273,-8.789,43.945,0
1578866674.490,57.129,34.180,-99.121,27.344,0
1578866674.494,21.973,26.855,-230.469,3.418,0
1578866674.497,9.766,20.996,-247.559,32.715,0
1578866674.501,32.227,20.996,-193.359,59.082,0
1578866674.505,13.672,20.020,-259.277,59.082,0
1578866674.509,-7.324,28.809,-287.109,30.762,0
1578866674.513,14.160,35.645,-185.059,-4.395,0
1578866674.516,22.461,30.273,-184.082,-18.555,0
1578866674.520,8.789,27.344,-111.328,-2.441,0
1578866674.524,-1.953,23.926,-27.832,10.254,0
1578866674.528,7.324,17.090,-80.566,11.230,0
1578866674.532,15.625,19.531,-175.293,16.602,0
1578866674.536,15.625,28.320,-214.355,22.461,0
1578866674.540,18.066,31.250,-149.902,36.621,0
1578866674.543,19.531,26.855,18.555,39.062,0
1578866674.547,26.855,26.855,-104.980,22.461,0
1578866674.551,54.688,24.414,-207.520,14.160,0
1578866674.555,35.156,20.996,12.695,23.438,0
1578866674.559,16.602,23.926,38.574,41.504,0
1578866674.560,37.598,23.926,-40.039,39.062,0
1578866674.564,38.086,29.297,48.340,33.691,0
1578866674.568,36.133,35.156,205.078,48.340,0
1578866674.572,23.438,32.715,160.156,41.992,0
1578866674.576,18.066,26.367,38.086,31.250,0
1578866674.580,30.273,23.926,11.230,41.504,0
1578866674.584,27.344,22.461,49.805,40.039,0
1578866674.587,13.184,13.184,133.789,30.762,0
1578866674.591,24.414,19.531,-81.543,41.016,0
1578866674.595,33.203,28.809,-156.250,45.898,0
1578866674.599,33.203,28.320,178.223,37.109,0
1578866674.603,35.156,31.250,199.707,41.504,0
1578866674.606,30.273,33.203,80.566,59.082,0
1578866674.610,39.551,37.598,-24.902,45.898,0
1578866674.614,46.875,42.969,-30.273,0.977,0
1578866674.618,47.363,38.574,50.293,-10.742,0
1578866674.622,34.180,32.227,-35.645,8.301,0
1578866674.626,35.645,25.879,-174.316,11.230,0
1578866674.630,62.012,23.926,-125.977,21.973,0
1578866674.633,70.801,33.691,-68.848,38.574,0
1578866674.637,50.781,41.504,-214.844,44.922,0
1578866674.641,18.066,35.156,-187.012,30.762,0
1578866674.645,23.438,29.785,-55.664,31.250,0
1578866674.649,37.109,35.156,-54.199,38.574,0
1578866674.651,30.273,32.227,-28.809,41.992,0
1578866674.655,38.086,30.762,-36.621,43.457,0
1578866674.659,52.246,32.715,-89.355,36.621,0
1578866674.663,36.133,32.715,-35.645,25.879,0
1578866674.667,16.113,31.738,1.465,34.668,0
1578866674.671,11.719,27.832,-28.320,50.293,0
1578866674.675,15.625,32.227,-87.402,59.082,0
1578866674.678,27.832,31.250,-128.906,62.012,0
1578866674.682,31.250,30.273,13.184,50.781,0
1578866674.686,25.879,27.832,232.910,28.809,0
1578866674.690,21.484,29.297,166.992,1.953,0
1578866674.694,26.855,35.156,92.773,-14.160,0
1578866674.696,38.574,36.133,204.590,-1.465,0
1578866674.700,25.391,31.738,253.906,20.996,0
1578866674.704,26.855,32.715,97.656,24.902,0
1578866674.708,40.039,34.180,1.465,20.996,0
1578866674.712,31.738,31.250,141.602,27.832,0
1578866674.716,31.738,33.691,92.285,42.480,0
1578866674.720,55.664,37.109,-141.602,43.457,0
1578866674.723,42.969,32.227,-298.828,37.598,0
1578866674.727,15.137,26.855,-58.594,28.320,0
1578866674.731,23.926,24.414,192.871,43.457,0
1578866674.735,30.273,24.902,116.699,52.246,0
1578866674.739,37.109,29.785,-24.902,41.504,0
1578866674.741,39.551,26.855,36.133,46.875,0
1578866674.745,30.762,25.391,180.664,53.223,0
1578866674.749,22.949,23.926,180.176,41.016,0
1578866674.753,39.551,26.855,101.074,39.062,0
1578866674.757,48.828,13.184,191.895,66.406,0
1578866674.761,36.133,1.953,245.117,88.867,0
1578866674.765,29.785,16.113,-1.465,87.402,0
1578866674.768,49.805,24.902,-35.645,46.875,0
1578866674.772,61.035,29.297,184.570,30.762,0
1578866674.776,41.016,27.344,221.680,39.062,0
1578866674.780,34.180,26.855,140.625,30.762,0
1578866674.784,25.391,25.879,55.176,28.809,0
1578866674.801,31.250,25.879,99.121,30.762,0
1578866674.805,41.504,23.438,196.289,41.016,0
1578866674.809,54.688,22.461,202.148,52.246,0
1578866674.813,53.223,25.879,205.078,60.059,0
1578866674.817,33.203,27.832,163.574,45.898,0
1578866674.821,31.738,30.273,23.438,37.598,0
1578866674.825,47.852,24.902,-38.574,46.387,0
1578866674.828,66.895,12.207,156.738,53.223,0
1578866674.832,57.617,20.020,160.645,45.410,0
1578866674.836,25.879,35.645,74.707,38.574,0
1578866674.840,30.273,36.621,227.051,45.898,0
1578866674.844,50.293,32.227,318.359,54.688,0
1578866674.846,52.246,34.668,216.309,57.129,0
1578866674.850,39.551,30.273,97.656,37.598,0
1578866674.854,41.016,27.832,199.707,32.227,0
1578866674.858,48.340,38.086,304.199,47.852,0
1578866674.862,50.293,31.250,232.910,50.293,0
1578866674.866,54.199,23.438,42.969,39.551,0
1578866674.870,50.781,36.621,17.578,46.387,0
1578866674.873,40.039,34.668,151.367,69.336,0
1578866674.877,37.109,28.320,200.195,60.059,0
1578866674.881,37.109,29.785,-56.152,51.758,0
1578866674.885,37.598,24.414,-75.195,37.109,0
1578866674.889,44.434,31.738,217.285,20.996,0
1578866674.891,43.945,36.621,200.195,27.344,0
1578866674.895,39.062,36.621,17.578,23.926,0
1578866674.899,55.664,38.086,43.457,25.879,0
1578866674.903,52.734,22.461,172.363,37.598,0
1578866674.907,30.273,24.414,76.172,38.086,0
1578866674.911,20.020,34.668,-76.172,21.484,0
1578866674.915,24.902,25.879,-72.266,25.391,0
1578866674.918,37.109,12.207,129.883,43.457,0
1578866674.922,43.945,27.344,139.160,50.781,0
1578866674.926,39.551,50.781,18.066,40.039,0
1578866674.930,36.133,43.945,173.828,35.645,0
1578866674.934,45.898,34.180,299.316,50.293,0
1578866674.936,46.875,32.227,302.246,69.824,0
1578866674.940,36.133,34.668,286.133,60.059,0
1578866674.944,31.738,36.133,215.332,39.551,0
1578866674.948,49.805,36.621,232.422,72.266,0
1578866674.952,59.082,33.203,254.395,38.086,0
1578866674.956,41.504,30.762,169.434,-10.742,0
1578866674.960,38.574,27.832,71.289,0.488,0
1578866674.963,41.016,23.926,-1.953,-0.977,0
1578866674.967,40.527,20.996,-105.469,4.883,0
1578866674.971,28.320,26.367,-62.988,16.113,0
1578866674.975,27.832,42.969,31.250,15.137,0
1578866674.979,40.039,39.062,-67.383,20.996,0
1578866674.981,35.645,25.391,-56.152,32.227,0
1578866674.985,24.414,24.902,10.742,32.227,0
1578866674.989,23.438,30.762,15.625,33.203,0
1578866674.993,29.297,27.344,-141.113,33.691,0
1578866674.997,33.203,26.855,-171.875,34.180,0
1578866675.001,36.621,36.621,-101.074,42.480,0
1578866675.005,28.809,35.645,-92.773,53.711,0
1578866675.008,17.578,29.297,-193.848,53.223,0
1578866675.012,19.531,27.832,-243.164,62.988,0
1578866675.016,20.020,20.996,47.852,86.914,0
1578866675.020,26.367,20.508,151.855,67.383,0
1578866675.024,30.273,31.250,30.762,29.785,0
1578866675.026,31.738,35.645,-11.719,15.625,0
1578866675.030,44.922,40.039,66.406,12.207,0
1578866675.034,52.246,41.504,104.980,19.531,0
1578866675.038,44.922,27.832,-14.648,15.137,0
1578866675.042,39.062,30.273,-113.770,18.066,0
1578866675.046,53.223,39.551,-126.953,31.250,0
1578866675.050,60.059,31.250,-72.266,29.297,0
1578866675.053,41.016,32.715,-211.914,28.809,0
1578866675.057,19.043,36.621,-375.977,29.785,0
1578866675.061,16.602,27.832,-119.629,28.320,0
1578866675.065,21.484,23.438,-27.832,36.621,0
1578866675.069,22.461,32.715,-114.746,39.062,0
1578866675.071,13.184,33.203,-86.914,19.531,0
1578866675.075,19.043,22.461,-98.145,22.949,0
1578866675.079,23.926,25.879,-105.469,29.785,0
1578866675.083,19.531,38.574,-37.598,24.414,0
1578866675.087,23.926,41.992,6.836,25.391,0
1578866675.091,27.832,36.133,-84.473,23.926,0
1578866675.095,32.715,36.621,-105.957,32.715,0
1578866675.098,28.809,40.039,-98.145,40.039,0
1578866675.102,24.414,33.203,-27.344,31.738,0
1578866675.106,35.645,32.227,12.207,42.480,0
1578866675.110,38.086,32.227,51.758,49.805,0
1578866675.114,26.367,26.855,104.492,26.855,0
1578866675.116,30.762,27.344,59.082,25.879,0
1578866675.120,22.949,34.180,-26.367,27.344,0
1578866675.124,15.137,39.062,-41.504,31.250,0
1578866675.128,29.297,37.109,-26.367,62.988,0
1578866675.132,35.156,40.039,-59.082,62.012,0
1578866675.136,38.574,47.363,-168.945,17.090,0
1578866675.140,47.852,44.434,-382.324,-17.090,0
1578866675.143,37.598,32.715,-327.637,-12.207,0
1578866675.147,22.949,31.738,-20.020,15.137,0
1578866675.151,24.414,39.551,-72.754,19.043,0
1578866675.155,35.156,39.062,-250.488,22.461,0
1578866675.159,35.645,28.320,-223.633,31.250,0
1578866675.176,30.273,22.949,-31.250,34.668,0
1578866675.180,32.227,28.809,-66.895,27.832,0
1578866675.184,32.715,34.180,-251.465,20.996,0
1578866675.188,39.062,39.551,-70.312,36.133,0
1578866675.192,52.246,39.062,126.465,59.082,0
1578866675.196,46.387,38.574,-51.270,58.594,0
1578866675.200,28.320,39.551,-303.711,34.180,0
1578866675.203,15.137,36.621,-157.715,28.809,0
1578866675.207,5.859,36.621,48.340,20.508,0
1578866675.211,-3.906,40.527,44.434,22.949,0
1578866675.215,5.859,39.062,0.977,29.785,0
1578866675.219,31.738,34.668,40.527,13.672,0
1578866675.221,28.320,33.691,64.453,-3.418,0
1578866675.225,10.742,39.062,-13.672,-17.090,0
1578866675.229,1.953,48.340,-90.332,-21.484,0
1578866675.233,5.371,48.828,-128.418,-11.719,0
1578866675.237,20.020,46.387,-120.605,0.488,0
1578866675.241,14.160,41.504,-185.059,-3.418,0
1578866675.245,1.465,28.320,-266.602,0.488,0
1578866675.248,4.395,29.297,-201.172,0.977,0
1578866675.252,19.043,38.574,-89.355,-0.977,0
1578866675.256,33.691,38.574,-208.008,3.906,0
1578866675.260,37.109,38.086,-273.438,10.254,0
1578866675.264,27.832,39.062,-170.898,16.113,0
1578866675.266,17.578,34.668,-125.977,16.602,0
1578866675.270,19.531,36.621,-88.867,22.461,0
1578866675.274,30.273,38.086,20.020,44.434,0
1578866675.278,36.621,30.273,31.250,55.664,0
1578866675.282,28.809,33.203,-83.984,38.574,0
1578866675.286,24.414,42.969,-169.434,23.438,0
1578866675.290,21.973,41.016,-164.551,14.160,0
1578866675.293,25.879,33.203,43.945,10.742,0
1578866675.297,29.785,33.691,-44.434,3.906,0
1578866675.301,40.039,40.039,-237.793,5.859,0
1578866675.305,43.945,41.992,-27.832,9.277,0
1578866675.309,26.367,35.156,92.285,14.160,0
1578866675.311,25.391,26.367,-24.414,21.973,0
1578866675.315,35.645,27.344,-96.680,6.836,0
1578866675.319,25.879,35.645,74.219,14.160,0
1578866675.323,20.996,36.621,177.246,22.461,0
1578866675.327,22.949,33.691,20.020,13.672,0
1578866675.331,20.020,28.809,-122.559,24.414,0
1578866675.335,34.180,28.809,-41.504,42.969,0
1578866675.338,28.320,33.203,82.031,53.223,0
1578866675.342,20.508,30.273,-105.469,17.578,0
1578866675.346,38.086,36.133,-198.730,-14.160,0
1578866675.350,47.363,40.039,36.621,8.789,0
1578866675.354,39.062,34.180,92.285,18.066,0
1578866675.356,38.574,32.227,-24.902,18.555,0
1578866675.360,44.922,26.367,-128.906,28.320,0
1578866675.364,49.316,21.973,-35.645,31.250,0
1578866675.368,35.645,24.902,-57.129,31.250,0
1578866675.372,14.160,31.250,-201.172,31.738,0
1578866675.376,16.113,33.691,-264.648,23.926,0
1578866675.380,31.250,30.273,-250.000,23.438,0
1578866675.383,33.691,29.297,-187.500,33.203,0
1578866675.387,20.020,37.598,-270.020,31.738,0
1578866675.391,25.391,43.457,-184.570,30.273,0
1578866675.395,24.414,38.086,-57.617,34.668,0
1578866675.399,26.367,31.250,-1.953,49.316,0
1578866675.401,24.414,25.879,14.648,55.176,0
1578866675.405,11.230,25.391,29.297,41.992,0
1578866675.409,18.555,30.762,-19.043,36.133,0
1578866675.413,28.320,35.156,-33.691,19.043,0
1578866675.417,16.602,35.156,-1.953,5.859,0
1578866675.421,14.648,28.809,-116.211,20.020,0
1578866675.425,24.414,29.297,-228.516,12.695,0
1578866675.428,29.297,36.133,-345.215,4.883,0
1578866675.432,29.297,38.086,-296.387,20.020,0
1578866675.436,24.414,33.203,-37.598,26.855,0
1578866675.440,19.531,31.738,-74.707,17.090,0
1578866675.444,26.367,33.691,-182.617,18.066,0
1578866675.446,47.363,31.250,-112.305,24.902,0
1578866675.450,48.340,34.180,3.418,25.391,0
1578866675.454,24.902,37.598,-90.820,25.879,0
1578866675.458,18.555,34.668,-184.082,27.832,0
1578866675.462,28.809,36.621,10.742,36.133,0
1578866675.466,40.039,35.156,25.879,45.898,0
1578866675.470,33.691,37.598,-178.711,36.621,0
1578866675.473,39.551,44.434,-326.172,22.461,0
1578866675.477,40.527,34.668,-115.723,25.391,0
1578866675.481,27.832,25.879,177.246,32.227,0
1578866675.485,30.762,21.973,98.145,49.805,0
1578866675.489,33.691,24.414,-44.922,70.801,0
1578866675.491,34.668,37.109,107.910,68.848,0
1578866675.495,33.203,41.992,220.215,52.734,0
1578866675.499,26.855,36.133,109.375,32.227,0
1578866675.503,36.133,35.645,-3.418,10.742,0
1578866675.507,47.363,29.785,48.828,-4.883,0
1578866675.511,39.062,24.414,89.355,16.602,0
1578866675.515,26.855,30.273,-147.461,23.438,0
1578866675.518,24.414,28.809,-272.461,-2.930,0
1578866675.522,34.668,28.809,-126.465,-11.230,0
1578866675.526,36.133,31.250,-81.543,-0.488,0
1578866675.530,19.043,28.320,-83.984,10.742,0
1578866675.534,17.578,26.855,-81.055,18.066,0
1578866675.551,17.090,24.414,-118.164,16.113,0
1578866675.555,23.438,17.578,-139.648,23.926,0
1578866675.559,29.297,26.855,-93.262,33.691,0
1578866675.563,31.250,40.039,-4.395,28.320,0
1578866675.567,35.156,39.062,-10.742,24.902,0
1578866675.571,33.203,32.227,-108.887,27.832,0
1578866675.575,34.668,23.926,-166.016,27.344,0
1578866675.578,34.668,16.602,41.504,32.227,0
1578866675.582,19.043,23.926,93.262,31.250,0
1578866675.586,11.719,32.715,-44.922,27.832,0
1578866675.590,21.973,31.250,42.969,31.250,0
1578866675.594,28.320,34.668,153.809,41.504,0
1578866675.596,21.484,43.457,88.867,50.293,0
1578866675.600,21.973,36.133,-18.555,43.457,0
1578866675.604,31.738,34.668,52.246,40.039,0
1578866675.608,34.180,34.668,183.105,45.898,0
1578866675.612,35.156,18.066,70.801,33.203,0
1578866675.616,25.391,16.113,-125.488,20.508,0
1578866675.620,31.738,28.320,-106.934,20.020,0
1578866675.623,30.762,32.715,35.645,3.906,0
1578866675.627,26.367,40.039,80.078,0.000,0
1578866675.631,21.484,40.527,-263.184,1.953,0
1578866675.635,21.484,29.785,-375.977,-0.977,0
1578866675.639,38.086,26.855,-41.504,12.695,0
1578866675.641,41.016,31.738,-45.410,20.020,0
1578866675.645,40.527,24.902,-197.754,20.996,0
1578866675.649,40.039,19.531,-155.273,20.996,0
1578866675.653,31.738,28.320,-49.316,31.250,0
1578866675.657,29.297,39.062,-97.656,40.039,0
1578866675.661,36.621,37.598,-265.137,35.645,0
1578866675.665,39.062,36.621,-295.410,32.715,0
1578866675.668,38.574,30.273,-132.324,29.785,0
1578866675.672,33.691,24.414,-75.684,28.320,0
1578866675.676,28.320,33.691,-166.016,35.156,0
1578866675.680,20.508,30.762,-135.742,27.344,0
1578866675.684,18.555,23.438,2.441,30.273,0
1578866675.686,27.344,30.273,11.230,60.547,0
1578866675.690,20.020,33.691,-3.906,80.566,0
1578866675.694,11.230,33.203,-37.598,52.246,0
1578866675.698,24.414,34.668,-72.754,15.137,0
1578866675.702,38.086,38.086,-52.246,1.953,0
1578866675.706,31.738,40.527,-144.531,8.789,0
1578866675.710,35.645,40.039,-283.203,21.484,0
1578866675.713,35.645,35.156,-254.395,3.418,0
1578866675.717,20.020,37.598,-384.277,-7.324,0
1578866675.721,9.766,52.246,-364.258,-16.113,0
1578866675.725,-15.137,49.805,-216.797,-28.809,0
1578866675.729,-32.227,51.758,-339.844,-37.109,0
1578866675.731,-25.391,62.500,-285.156,-44.434,0
1578866675.735,-48.340,68.848,-108.887,-61.523,0
1578866675.739,-73.242,71.289,-62.988,-81.055,0
1578866675.743,-85.449,66.406,-192.871,-102.051,17041
1578866675.747,-101.562,75.195,-277.832,-114.746,0
1578866675.751,-120.605,82.520,-259.766,-128.418,0
1578866675.755,-134.277,77.637,-142.090,-141.113,0
1578866675.758,-133.301,87.402,-240.234,-145.508,0
1578866675.762,-135.742,100.098,-460.449,-152.344,0
1578866675.766,-145.996,96.191,-165.039,-155.762,0
1578866675.770,-156.738,88.867,-11.230,-145.508,0
1578866675.774,-160.645,82.520,-140.625,-145.508,0
1578866675.776,-153.809,72.754,-195.801,-148.438,0
1578866675.780,-146.484,73.730,-193.848,-142.578,0
1578866675.784,-141.602,77.148,-93.750,-148.926,0
1578866675.788,-131.836,73.730,-130.371,-155.273,0
1578866675.792,-116.699,68.359,-208.496,-159.180,0
1578866675.796,-101.074,66.406,-124.512,-145.020,0
1578866675.800,-112.793,67.383,-84.961,-136.230,0
1578866675.803,-118.652,67.871,-232.422,-127.441,0
1578866675.807,-111.328,56.152,-281.738,-122.070,0
1578866675.811,-95.703,50.293,0.000,-105.469,0
1578866675.815,-83.008,58.594,180.176,-92.773,0
1578866675.819,-73.242,58.105,159.180,-93.262,0
1578866675.821,-58.594,53.223,85.938,-78.613,0
1578866675.825,-52.734,48.828,129.883,-65.430,0
1578866675.829,-53.223,46.387,112.305,-61.035,0
1578866675.833,-43.945,42.480,73.242,-39.551,0
1578866675.837,-36.621,39.062,45.898,-33.203,0
1578866675.841,-33.691,41.016,-137.695,-50.781,0
1578866675.845,-22.461,38.574,-224.121,-39.062,0
1578866675.848,-22.949,37.109,-252.930,-24.902,0
1578866675.852,-31.250,43.945,-138.184,-24.902,0
1578866675.856,-26.855,46.387,-106.934,-17.090,0
1578866675.860,-10.254,45.410,-124.512,-9.277,0
1578866675.864,-12.695,44.922,-86.914,-18.066,0
1578866675.866,-11.230,38.574,-28.320,3.418,0
1578866675.870,-16.602,35.156,-62.500,0.488,0
1578866675.874,-11.719,38.086,-140.137,-19.531,0
1578866675.878,-31.250,39.062,-70.801,-14.648,0
1578866675.882,-28.320,39.551,27.832,-39.062,0
1578866675.886,-14.160,38.574,-149.902,-60.059,0
1578866675.890,-34.180,33.691,-502.930,-65.430,0
1578866675.893,-34.180,30.273,-449.219,-63.477,0
1578866675.897,-29.785,31.738,-25.391,-59.082,0
1578866675.901,-15.625,34.668,-51.758,-44.922,0
1578866675.905,-24.902,36.133,-308.594,-39.062,0
1578866675.909,-32.227,34.180,-162.598,-41.016,0
1578866675.926,-33.691,28.809,-31.250,-30.273,0
1578866675.930,-40.527,32.227,-140.625,-35.645,0
1578866675.934,-20.996,34.668,-218.750,-39.551,0
1578866675.938,-17.578,26.367,-233.398,-33.691,0
1578866675.942,-24.414,15.625,-167.480,-20.996,0
1578866675.946,-25.391,17.578,-233.398,-11.230,0
1578866675.950,-33.203,24.414,-361.328,-23.926,0
1578866675.953,-18.066,25.879,-247.070,-23.926,0
1578866675.957,-13.672,27.344,-54.688,3.906,0
1578866675.961,-20.996,24.902,-125.488,19.043,0
1578866675.965,-27.344,24.902,-273.926,1.953,0
1578866675.969,-20.508,20.020,-136.230,-16.602,0
1578866675.971,0.977,12.695,43.457,-28.809,0
1578866675.975,1.465,20.508,40.039,-32.227,0
1578866675.979,-4.883,23.438,-0.977,-21.484,0
1578866675.983,4.395,26.855,41.992,-14.648,0
1578866675.987,6.836,22.461,98.145,-18.555,0
1578866675.991,-3.906,10.254,54.688,-13.672,0
1578866675.995,-16.113,9.766,-69.824,-11.719,0
1578866675.998,-26.855,15.625,-83.008,-20.508,0
1578866676.002,-14.648,21.973,-7.324,-16.602,0
1578866676.006,-0.488,26.855,-78.125,-5.371,0
1578866676.010,-12.695,24.902,-42.969,-2.930,0
1578866676.014,-18.066,25.391,89.844,-3.906,0
1578866676.016,-0.977,21.973,36.133,-1.953,0
1578866676.020,5.859,22.949,-8.789,5.859,0
1578866676.024,-23.438,25.391,140.137,1.953,0
1578866676.028,-20.508,12.695,245.117,-12.207,0
1578866676.032,1.465,19.043,119.141,-14.160,0
1578866676.036,6.348,27.832,61.035,6.348,0
1578866676.040,0.977,18.066,186.523,9.277,0
1578866676.043,-2.930,17.090,314.453,0.000,0
1578866676.047,8.301,20.508,179.688,14.160,0
1578866676.051,20.996,23.926,127.441,20.996,0
1578866676.055,9.766,28.320,453.125,10.742,0
1578866676.059,18.066,34.668,580.078,28.320,0
1578866676.061,34.668,29.297,472.168,39.062,0
1578866676.065,33.691,21.484,490.234,38.574,0
1578866676.069,43.945,26.855,630.859,37.109,0
1578866676.073,50.293,23.438,593.750,30.273,0
1578866676.077,42.480,15.625,369.141,36.133,0
1578866676.081,50.293,15.625,226.562,46.875,0
1578866676.085,50.293,20.020,259.277,39.062,0
1578866676.088,47.852,21.484,413.086,26.367,0
1578866676.092,50.781,20.020,216.309,31.250,0
1578866676.096,44.434,16.602,32.715,43.945,0
1578866676.100,48.828,14.648,316.895,57.617,0
1578866676.104,49.805,22.949,392.090,63.965,0
1578866676.107,60.547,27.344,310.059,63.965,0
1578866676.111,72.754,20.508,243.652,73.242,0
1578866676.115,82.031,19.043,241.211,72.266,0
1578866676.119,83.496,18.066,241.211,77.148,0
1578866676.123,78.613,15.625,222.168,92.285,0
1578866676.127,83.984,16.113,68.848,75.684,0
1578866676.131,108.887,15.137,-24.902,71.289,0
1578866676.134,122.070,14.648,41.016,88.867,0
1578866676.138,106.934,5.859,25.879,99.609,0
1578866676.142,110.352,4.395,104.980,106.934,0
1578866676.146,120.117,0.488,179.688,122.070,0
1578866676.150,116.699,-9.277,181.152,136.719,0
1578866676.151,119.141,0.977,240.234,133.789,0
1578866676.155,120.117,8.301,280.273,130.371,0
1578866676.159,124.512,4.395,112.305,139.648,0
1578866676.163,138.672,3.418,134.766,149.414,0
1578866676.167,138.184,2.441,269.043,158.203,0
1578866676.171,140.137,-6.836,206.055,171.387,0
1578866676.175,144.043,-7.324,139.160,170.410,0
1578866676.178,153.320,-2.441,0.000,160.156,0
1578866676.182,158.691,-4.395,49.316,161.133,0
1578866676.186,179.688,-5.371,266.113,170.410,0
1578866676.190,174.316,-7.812,120.117,161.133,0
1578866676.194,151.855,-6.348,125.977,152.832,0
1578866676.196,153.809,-1.953,308.594,155.273,0
1578866676.200,142.578,1.953,391.113,149.902,0
1578866676.204,142.090,-0.488,264.648,160.645,0
1578866676.208,133.789,-0.488,175.781,163.574,0
1578866676.212,118.164,1.953,338.867,134.766,0
1578866676.216,138.672,-0.488,308.105,140.137,0
1578866676.220,131.836,-3.418,166.992,163.574,0
1578866676.223,111.328,-2.930,16.602,141.113,0
1578866676.227,114.258,-0.488,137.695,106.445,0
1578866676.231,122.070,3.906,369.141,103.516,0
1578866676.235,122.070,14.160,290.039,117.188,0
1578866676.239,112.305,13.184,140.625,115.723,0
1578866676.241,115.234,9.766,145.020,124.023,0
1578866676.245,122.070,13.672,114.258,123.535,0
1578866676.249,117.676,13.184,45.410,98.633,0
1578866676.253,103.516,0.977,3.418,96.191,0
1578866676.257,103.516,0.977,-30.273,103.516,0
1578866676.261,113.770,15.137,-37.598,108.398,0
1578866676.265,110.352,12.695,-206.543,109.375,0
1578866676.268,96.680,17.090,-257.812,101.562,0
1578866676.272,97.168,25.391,-23.926,99.121,0
1578866676.276,102.539,24.902,83.984,100.586,0
1578866676.280,87.891,26.367,27.344,99.121,0
1578866676.284,90.820,25.391,31.738,106.445,0
1578866676.301,83.984,20.508,58.594,111.328,0
1578866676.305,79.102,13.184,68.848,113.281,0
1578866676.309,91.797,15.625,120.117,119.141,0
1578866676.313,84.473,22.949,114.746,84.473,0
1578866676.317,75.684,18.066,66.895,37.598,0
1578866676.321,71.777,19.043,-20.996,45.898,0
1578866676.325,72.266,23.926,-7.324,57.617,0
1578866676.328,80.078,29.297,209.961,88.867,0
1578866676.332,70.801,31.738,238.281,103.027,0
1578866676.336,57.129,29.785,40.039,63.477,0
1578866676.340,63.965,22.461,48.828,55.176,0
1578866676.344,61.523,23.438,237.793,61.035,0
1578866676.347,56.152,34.180,187.988,57.129,0
1578866676.351,65.918,30.762,74.707,60.059,0
1578866676.355,69.824,26.367,73.730,62.988,0
1578866676.359,65.430,25.879,125.488,56.152,0
1578866676.363,57.129,26.367,95.703,61.523,0
1578866676.367,44.434,30.273,-101.074,59.570,0
1578866676.371,56.641,26.855,-203.613,53.223,0
1578866676.374,60.059,28.809,-87.891,58.105,0
1578866676.378,51.270,38.086,4.883,53.711,0
1578866676.382,52.734,30.273,-271.973,41.992,0
1578866676.386,55.176,25.391,-384.277,30.273,0
1578866676.390,58.594,31.738,-115.234,48.828,0
1578866676.392,38.574,28.320,-20.020,58.105,0
1578866676.396,23.926,23.438,-139.648,55.176,0
1578866676.400,46.387,27.344,-217.773,66.406,0
1578866676.404,45.410,31.250,-104.004,65.430,0
1578866676.408,22.949,27.344,-80.078,55.664,0
1578866676.412,29.297,31.738,-225.586,45.410,0
1578866676.416,33.691,35.156,-312.988,12.695,0
1578866676.419,38.574,30.273,-145.996,-1.953,0
1578866676.423,36.133,36.133,-121.582,9.277,0
1578866676.427,22.949,43.457,-409.668,20.020,0
1578866676.431,14.648,37.598,-414.551,13.184,0
1578866676.435,13.184,35.156,-250.977,12.207,0
1578866676.436,27.344,39.551,-181.641,16.602,0
1578866676.440,30.273,39.551,-164.062,20.508,0
1578866676.444,26.855,39.551,-207.520,27.832,0
1578866676.448,25.879,30.762,-205.078,30.273,0
1578866676.452,31.250,27.832,-151.855,28.809,0
1578866676.456,37.109,36.621,-196.289,30.762,0
1578866676.460,39.062,36.133,-260.254,34.180,0
1578866676.463,37.109,37.598,-256.348,28.809,0
1578866676.467,45.410,31.738,-314.453,29.297,0
1578866676.471,36.621,30.273,-300.293,29.785,0
1578866676.475,27.832,41.016,-128.418,40.039,0
1578866676.479,31.250,40.527,-176.758,45.410,0
1578866676.482,36.621,36.133,-318.359,43.457,0
1578866676.486,41.504,35.645,-273.926,47.852,0
1578866676.490,33.203,32.715,-53.711,47.852,0
1578866676.494,28.809,38.574,-195.312,45.898,0
1578866676.498,46.387,41.504,-215.332,25.391,0
1578866676.502,44.434,33.691,-90.820,24.414,0
1578866676.506,40.527,34.180,-117.676,47.852,0
1578866676.509,53.223,42.480,-238.770,33.691,0
1578866676.513,51.270,41.992,-404.785,17.578,0
1578866676.517,46.387,35.156,-127.930,25.879,0
1578866676.521,42.480,33.691,76.172,40.527,0
1578866676.525,41.504,37.109,-83.496,41.992,0
1578866676.526,42.969,41.992,-174.316,39.551,0
1578866676.530,51.270,36.621,-47.852,50.781,0
1578866676.534,67.383,36.621,55.176,63.477,0
1578866676.538,60.059,42.480,8.789,47.852,0
1578866676.542,64.941,38.086,-95.215,37.109,0
1578866676.546,62.988,38.086,-146.973,39.551,0
1578866676.550,32.227,41.016,-93.750,36.133,0
1578866676.553,32.227,38.574,-178.711,42.969,0
1578866676.557,35.156,36.621,-228.516,45.410,0
1578866676.561,37.109,41.504,32.227,44.434,0
1578866676.565,39.551,42.969,120.605,46.875,0
1578866676.569,36.133,41.992,48.828,56.152,0
1578866676.571,33.691,40.039,-4.883,48.340,0
1578866676.575,37.109,37.598,39.551,33.203,0
1578866676.579,45.410,39.551,63.965,30.762,0
1578866676.583,43.945,35.645,32.715,43.945,0
1578866676.587,37.598,33.691,62.500,57.617,0
1578866676.591,41.016,37.109,-65.430,71.289,0
1578866676.595,48.340,29.785,-177.734,42.480,0
1578866676.598,44.434,36.133,-209.473,-5.371,0
1578866676.602,39.062,42.969,-44.434,4.883,0
1578866676.606,41.504,38.086,22.949,20.996,0
1578866676.610,41.992,39.062,-23.926,39.062,0
1578866676.614,34.180,42.969,13.672,32.715,0
1578866676.616,28.320,41.016,57.617,16.602,0
1578866676.620,29.785,31.738,-15.625,30.762,0
1578866676.624,34.180,28.320,-72.266,36.133,0
1578866676.628,44.434,29.297,-5.371,38.574,0
1578866676.632,43.945,28.320,58.594,44.434,0
1578866676.636,40.039,29.297,-109.863,36.621,0
1578866676.640,41.016,31.250,-360.840,31.250,0
1578866676.643,42.969,37.598,-233.887,24.414,0
1578866676.647,34.668,38.574,37.598,13.672,0
1578866676.651,29.297,30.762,-81.543,21.484,0
1578866676.655,25.391,29.785,-268.555,24.414,0
1578866676.659,28.809,30.273,-127.441,32.715,0
1578866676.676,28.320,23.926,29.297,41.016,0
1578866676.680,20.508,16.602,-12.207,28.320,0
1578866676.684,28.809,30.273,-110.352,22.949,0
1578866676.688,43.945,41.504,-63.965,28.809,0
1578866676.692,46.387,37.598,53.711,36.133,0
1578866676.696,43.945,37.598,-89.355,44.922,0
1578866676.700,38.574,32.227,-310.059,34.180,0
1578866676.703,32.715,27.344,-158.203,27.832,0
1578866676.707,33.203,28.809,16.602,49.316,0
1578866676.711,23.438,19.531,-45.898,60.547,0
1578866676.715,40.039,17.578,-84.961,49.316,0
1578866676.719,38.574,35.156,-24.902,40.527,0
1578866676.721,21.973,37.109,-12.207,46.875,0
1578866676.725,21.973,28.809,-105.469,56.152,0
1578866676.729,15.137,33.203,-58.105,48.340,0
1578866676.733,27.344,32.715,7.812,35.645,0
1578866676.737,35.156,27.832,-14.160,22.461,0
1578866676.741,34.180,33.691,-65.918,15.137,0
1578866676.745,34.668,33.203,-63.477,8.301,0
1578866676.748,36.133,20.996,-92.773,11.230,0
1578866676.752,42.480,22.949,-118.164,19.531,0
1578866676.756,45.898,39.551,-237.793,34.668,0
1578866676.760,37.598,41.504,-312.012,46.387,0
1578866676.764,27.832,33.691,-139.160,41.016,0
1578866676.766,28.320,33.691,-130.859,34.180,0
1578866676.770,30.762,34.180,-102.539,36.133,0
1578866676.774,23.926,30.273,38.086,41.504,0
1578866676.778,17.090,34.180,-48.340,33.691,0
1578866676.782,17.578,34.668,-271.484,22.461,0
1578866676.786,26.367,25.879,-237.305,29.785,0
1578866676.790,37.109,31.250,-141.602,42.969,0
1578866676.793,32.715,37.109,12.207,40.527,0
1578866676.797,28.320,28.809,-64.941,35.156,0
1578866676.801,31.738,24.902,-208.984,52.734,0
1578866676.805,31.250,28.809,83.984,68.848,0
1578866676.809,28.809,34.668,182.129,57.129,0
1578866676.811,30.273,33.691,-3.418,41.504,0
1578866676.815,24.902,24.902,-66.895,23.438,0
1578866676.819,24.902,25.879,40.039,17.578,0
1578866676.823,38.086,39.551,119.141,24.414,0
1578866676.827,32.227,38.086,5.371,17.578,0
1578866676.831,26.855,34.180,-139.160,4.395,0
1578866676.835,36.133,26.855,-97.168,10.254,0
1578866676.838,37.109,22.949,-89.844,30.762,0
1578866676.842,36.133,32.227,-281.250,23.926,0
1578866676.846,29.785,33.203,-266.113,17.090,0
1578866676.850,31.250,33.691,-24.902,32.715,0
1578866676.854,34.668,28.809,11.719,40.527,0
1578866676.856,28.809,24.414,60.547,40.527,0
1578866676.860,31.738,31.738,-13.672,36.621,0
1578866676.864,36.133,38.574,-10.742,28.809,0
1578866676.868,30.762,37.109,56.152,32.227,0
1578866676.872,15.625,37.109,46.387,36.621,0
1578866676.876,14.648,36.133,-53.711,30.273,0
1578866676.880,28.809,26.367,-96.680,30.762,0
1578866676.883,38.086,26.367,1.953,38.086,0
1578866676.887,23.926,32.715,-50.293,42.969,0
1578866676.891,13.672,28.320,-7.812,39.551,0
1578866676.895,31.250,26.367,-38.086,27.344,28341
1578866676.899,37.598,34.668,-20.020,12.695,0
1578866676.901,26.367,45.898,95.215,19.531,0
1578866676.905,32.715,44.922,155.762,37.109,0
1578866676.909,30.273,36.621,64.453,31.250,0
1578866676.913,20.020,30.273,-1.465,11.719,0
1578866676.917,16.602,30.273,12.695,17.578,0
1578866676.921,22.461,31.250,-95.215,48.828,0
1578866676.925,25.879,24.902,-212.891,37.598,0
1578866676.928,39.062,19.531,-297.852,21.973,0
1578866676.932,43.457,18.555,-229.492,24.902,0
1578866676.936,30.762,19.531,-11.719,24.902,0
1578866676.940,24.902,15.625,-52.734,35.645,0
1578866676.944,25.879,10.254,-144.043,37.109,0
1578866676.946,39.062,16.113,-97.168,46.387,0
1578866676.950,41.016,20.996,-45.410,51.758,0
1578866676.954,37.598,18.066,-74.707,47.852,0
1578866676.958,47.852,16.602,-168.945,51.270,0
1578866676.962,50.781,28.320,0.977,54.199,0
1578866676.966,42.480,32.715,64.453,58.594,0
1578866676.970,37.598,26.367,-102.051,55.664,0
1578866676.973,30.273,24.414,-238.281,48.828,0
1578866676.977,28.809,27.832,-35.645,48.828,0
1578866676.981,36.621,35.156,237.305,61.523,0
1578866676.985,37.109,31.738,148.438,67.871,0
1578866676.989,41.992,26.367,29.785,46.875,0
1578866676.991,44.434,26.855,82.031,42.969,0
1578866676.995,46.387,20.508,146.484,61.523,0
1578866676.999,39.062,20.996,146.973,77.148,0
1578866677.003,37.109,37.109,86.426,65.918,0
1578866677.007,41.992,42.480,58.105,20.508,0
1578866677.011,44.434,34.668,48.340,-3.906,0
1578866677.015,44.922,36.133,-113.281,14.648,0
1578866677.018,39.551,35.645,-188.477,27.832,0
1578866677.022,41.504,27.832,-41.504,32.715,0
1578866677.026,48.340,31.250,65.430,41.016,0
1578866677.030,49.805,26.855,43.945,49.316,0
1578866677.034,46.387,22.949,5.371,52.734,0
1578866677.051,30.762,29.785,14.648,52.734,0
1578866677.055,32.227,30.762,-47.852,46.387,0
1578866677.059,41.016,32.715,-82.520,42.969,0
1578866677.063,39.062,26.367,37.109,51.758,0
1578866677.067,41.992,24.902,-20.996,55.664,0
1578866677.071,41.016,31.250,-167.480,38.574,0
1578866677.075,40.039,36.133,-185.059,36.621,0
1578866677.078,31.738,37.109,-26.855,53.223,0
1578866677.082,33.691,31.738,103.516,45.410,0
1578866677.086,45.410,36.133,-81.543,38.574,0
1578866677.090,42.969,34.180,-83.984,42.480,0
1578866677.094,36.133,26.367,140.625,41.016,0
1578866677.096,42.480,20.020,121.094,42.969,0
1578866677.100,51.270,25.391,-33.203,39.551,0
1578866677.104,45.410,33.203,-21.484,42.969,0
1578866677.108,27.344,34.668,146.973,41.992,0
1578866677.112,23.438,39.062,183.594,36.621,0
1578866677.116,31.250,34.668,-23.438,38.086,0
1578866677.120,32.715,25.391,-111.816,47.363,0
1578866677.123,34.668,28.320,39.062,59.570,0
1578866677.127,42.969,36.621,167.480,58.594,0
1578866677.131,39.062,31.250,-114.746,42.480,0
1578866677.135,37.598,24.902,-246.582,23.926,0
1578866677.139,49.316,32.227,71.289,17.578,0
1578866677.141,46.387,36.133,96.680,12.695,0
1578866677.145,39.551,40.527,-27.344,17.090,0
1578866677.149,43.457,43.457,-81.543,22.949,0
1578866677.153,50.293,37.109,-11.230,30.273,0
1578866677.157,48.828,34.180,6.348,36.133,0
1578866677.161,46.875,34.668,-163.574,48.340,0
1578866677.165,35.645,37.598,-176.270,41.504,0
1578866677.168,29.785,35.645,48.828,27.344,0
1578866677.172,29.297,23.438,69.824,36.133,0
1578866677.176,25.391,25.391,-161.133,35.156,0
1578866677.180,37.598,32.227,-129.883,40.527,0
1578866677.184,41.992,33.203,58.594,36.133,0
1578866677.186,30.762,38.086,88.379,39.551,0
1578866677.190,26.855,40.039,111.328,62.500,0
1578866677.194,29.785,33.691,78.125,55.664,0
1578866677.198,34.180,29.297,-28.809,39.062,0
1578866677.202,47.363,32.715,83.008,30.762,0
1578866677.206,42.480,30.762,45.410,26.367,0
1578866677.210,26.855,20.508,-64.453,18.066,0
1578866677.213,31.738,26.855,-27.344,10.254,0
1578866677.217,42.480,41.016,-160.156,14.648,0
1578866677.221,36.133,37.109,-209.961,21.973,0
1578866677.225,27.832,36.133,39.062,32.227,0
1578866677.229,29.297,38.574,-7.812,37.598,0
1578866677.231,32.715,26.855,-92.285,28.320,0
1578866677.235,39.062,23.926,53.711,30.762,0
1578866677.239,36.621,25.391,118.652,40.527,0
1578866677.243,38.574,30.273,-104.980,32.715,0
1578866677.247,46.387,39.551,-180.664,24.414,0
1578866677.251,36.133,36.133,-84.473,27.344,0
1578866677.255,17.090,28.320,-97.168,22.461,0
1578866677.258,21.484,24.902,-162.109,26.855,0
1578866677.262,22.949,28.320,-301.270,33.691,0
1578866677.266,22.461,32.715,-72.754,26.367,0
1578866677.270,23.438,32.715,138.672,31.250,0
1578866677.274,20.508,32.715,-36.621,45.898,0
1578866677.276,21.973,32.227,-111.328,45.410,0
1578866677.280,15.625,25.391,45.898,36.621,0
1578866677.284,13.184,28.809,176.758,35.645,0
1578866677.288,23.926,34.668,97.656,39.062,0
1578866677.292,30.273,33.203,-26.367,37.109,0
1578866677.296,36.133,23.926,-43.945,52.246,0
1578866677.300,45.898,27.832,-6.348,59.082,0
1578866677.303,46.387,41.016,-126.465,8.301,0
1578866677.307,41.016,41.504,-254.395,-5.371,0
1578866677.311,39.062,32.715,-70.801,13.672,0
1578866677.315,35.156,29.297,36.621,17.578,0
1578866677.319,24.902,29.297,-6.348,25.879,0
1578866677.321,31.738,25.391,3.418,25.391,0
1578866677.325,37.598,34.180,9.766,20.996,0
1578866677.329,33.203,35.645,36.621,23.926,0
1578866677.333,30.762,26.855,72.754,31.738,0
1578866677.337,31.738,36.133,109.375,30.273,0
1578866677.341,32.227,42.969,-31.738,20.996,0
1578866677.345,26.855,39.062,-158.691,27.344,0
1578866677.348,24.902,30.762,-142.578,32.227,0
1578866677.352,22.461,26.367,24.414,31.250,0
1578866677.356,22.949,26.367,15.137,30.273,0
1578866677.360,25.879,26.855,-74.707,31.250,0
1578866677.364,27.832,27.832,62.012,41.992,0
1578866677.366,21.973,24.902,154.297,51.270,0
1578866677.370,24.414,27.832,72.266,47.852,0
1578866677.374,29.785,31.250,-72.754,36.621,0
1578866677.378,31.738,23.926,-7.324,37.598,0
1578866677.382,34.668,29.785,115.723,31.250,0
1578866677.386,36.133,33.691,9.766,10.742,0
1578866677.390,33.203,33.203,-271.973,9.766,0
1578866677.393,37.598,33.691,-228.027,19.043,0
1578866677.397,33.203,31.250,80.566,18.066,0
1578866677.401,26.367,33.691,79.102,8.301,0
1578866677.405,33.691,34.180,-55.664,17.578,0
1578866677.409,27.832,34.668,-22.461,18.066,0
1578866677.426,27.344,32.715,118.652,19.043,0
1578866677.430,33.203,30.273,126.953,30.762,0
1578866677.434,27.832,29.785,1.953,31.738,0
1578866677.438,31.738,30.762,46.387,34.668,0
1578866677.442,37.109,26.855,196.289,41.504,0
1578866677.446,33.203,25.879,91.309,38.086,0
1578866677.450,28.809,35.156,-129.883,39.062,0
1578866677.453,23.926,35.156,-88.867,33.691,0
1578866677.457,38.574,32.227,115.723,40.527,0
1578866677.461,40.039,40.527,162.598,62.012,0
1578866677.465,20.996,43.457,151.367,49.316,0
1578866677.469,23.926,38.086,125.977,7.324,0
1578866677.471,29.785,33.691,99.121,4.395,0
1578866677.475,23.926,31.738,65.918,17.090,0
1578866677.479,25.391,24.414,16.602,0.000,0
1578866677.483,42.969,26.367,-45.898,0.977,0
1578866677.487,42.480,38.086,-45.410,23.438,0
1578866677.491,22.949,40.039,-79.590,26.367,0
1578866677.495,19.043,44.434,-135.254,27.344,0
1578866677.498,30.273,41.016,-146.973,22.461,0
1578866677.502,30.762,32.715,-125.488,14.160,0
1578866677.506,29.297,34.668,-262.207,24.414,0
1578866677.510,25.879,32.715,-326.172,33.203,0
1578866677.514,20.996,23.438,-131.348,26.855,0
1578866677.516,39.551,25.391,-179.199,31.738,0
1578866677.520,40.527,33.203,-203.125,37.109,0
1578866677.524,17.578,32.227,-76.660,29.785,0
1578866677.528,9.766,32.227,-44.434,22.949,0
1578866677.532,11.719,33.203,-203.125,19.531,0
1578866677.536,19.043,29.297,-239.746,27.832,0
1578866677.540,23.438,26.855,-157.227,35.645,0
1578866677.543,20.020,30.273,-75.195,38.086,0
1578866677.547,38.086,31.250,-178.711,38.086,0
1578866677.551,38.574,27.344,-349.121,17.090,0
1578866677.555,21.484,25.391,-114.258,13.672,0
1578866677.559,21.484,26.855,16.113,19.043,0
1578866677.561,21.484,30.762,-240.234,9.766,0
1578866677.565,26.367,30.273,-378.418,19.531,0
1578866677.569,22.461,29.785,-163.086,32.227,0
1578866677.573,18.555,31.250,-58.105,46.875,0
1578866677.577,29.297,34.180,-100.098,46.875,0
1578866677.581,36.133,31.250,-306.152,24.414,0
1578866677.585,24.902,26.367,-375.000,14.160,0
1578866677.588,25.879,30.273,-178.223,20.020,0
1578866677.592,31.738,32.715,-267.090,28.320,0
1578866677.596,25.879,32.715,-433.594,31.738,0
1578866677.600,29.297,29.785,-137.207,38.574,0
1578866677.604,35.156,29.785,-1.465,34.668,0
1578866677.606,22.949,25.391,-43.457,23.438,0
1578866677.610,10.254,28.320,-0.488,14.648,0
1578866677.614,18.066,36.621,37.109,18.066,0
1578866677.618,24.414,37.109,86.914,31.250,0
1578866677.622,29.785,37.598,84.961,36.133,0
1578866677.626,31.738,28.320,-17.090,33.203,0
1578866677.630,24.414,26.855,-64.453,25.391,0
1578866677.633,30.762,36.621,-25.879,22.461,0
1578866677.637,27.832,39.551,-105.469,29.297,0
1578866677.641,7.812,33.203,-44.434,18.066,0
1578866677.645,4.883,29.785,30.273,6.836,0
1578866677.649,18.555,33.691,48.828,2.441,0
1578866677.652,24.902,40.039,62.012,-2.441,0
1578866677.656,11.230,41.992,145.020,-5.371,0
1578866677.660,-8.789,24.414,137.207,-14.648,0
1578866677.664,-13.184,20.508,-10.742,-15.137,0
1578866677.668,-8.301,28.320,50.781,0.977,0
1578866677.672,-12.207,29.785,49.316,6.348,0
1578866677.676,-14.160,35.645,-56.152,11.230,0
1578866677.679,2.441,38.086,-230.957,3.906,0
1578866677.683,11.719,34.180,-123.047,-15.625,0
1578866677.687,16.113,31.738,263.672,-8.789,0
1578866677.691,19.531,31.250,224.609,-3.906,0
1578866677.695,11.719,26.855,127.930,1.953,0
1578866677.697,25.391,20.020,276.367,15.137,0
1578866677.701,31.250,29.297,427.246,12.695,0
1578866677.705,15.625,35.645,393.066,9.277,0
1578866677.709,4.395,23.438,193.848,13.672,0
1578866677.713,14.160,19.043,256.836,17.578,0
1578866677.717,27.832,27.832,318.359,19.531,0
1578866677.721,16.113,33.203,154.785,28.809,0
1578866677.724,7.324,28.320,17.578,23.926,0
1578866677.728,21.484,19.043,142.090,17.090,0
1578866677.732,27.832,21.973,364.258,20.996,0
1578866677.736,29.297,23.438,317.383,9.766,0
1578866677.740,24.902,28.320,174.805,1.465,0
1578866677.741,16.602,38.574,175.781,11.230,0
1578866677.745,25.391,34.668,248.535,19.043,0
1578866677.749,29.297,26.855,234.863,14.160,0
1578866677.753,22.461,20.508,189.941,15.625,0
1578866677.757,27.832,23.438,225.098,13.672,0
1578866677.761,23.438,33.203,297.363,10.742,0
1578866677.765,15.137,27.832,140.137,20.508,0
1578866677.768,13.672,24.414,62.500,26.855,0
1578866677.772,15.137,31.250,244.629,28.809,0
1578866677.776,27.344,29.785,297.852,30.273,0
1578866677.780,26.855,24.414,306.641,23.438,0
1578866677.784,30.273,23.926,333.496,32.715,0
1578866677.801,32.715,32.227,278.809,35.156,0
1578866677.805,28.320,31.250,229.492,32.715,0
1578866677.809,28.809,22.949,237.305,32.227,0
1578866677.813,22.461,21.484,237.793,32.715,0
1578866677.817,21.484,22.949,229.004,27.832,0
1578866677.821,26.855,31.250,75.195,10.254,0
1578866677.825,36.133,38.574,-45.898,19.043,0
1578866677.828,39.551,30.762,159.668,21.484,0
1578866677.832,43.945,27.832,310.059,13.184,0
1578866677.836,12.207,35.645,113.281,-1.465,0
1578866677.840,9.766,27.832,165.039,3.418,0
1578866677.844,39.551,25.391,397.461,27.832,0
1578866677.846,20.020,26.855,369.629,23.926,0
1578866677.850,16.113,21.484,198.730,29.297,0
1578866677.854,19.043,27.832,213.867,49.805,0
1578866677.858,8.301,29.785,382.812,46.875,0
1578866677.862,11.719,31.250,387.207,34.180,0
1578866677.866,20.996,35.645,195.801,21.973,0
1578866677.870,22.949,32.715,36.621,25.879,0
1578866677.873,38.574,27.832,193.848,38.574,0
1578866677.877,51.270,29.297,411.133,36.621,0
1578866677.881,37.109,30.273,175.781,29.785,0
1578866677.885,30.762,26.367,23.926,14.160,0
1578866677.889,39.062,27.832,284.180,7.324,0
1578866677.891,41.016,34.668,200.684,26.367,0
1578866677.895,25.391,37.598,138.672,28.809,0
1578866677.899,13.672,36.621,95.215,13.184,0
1578866677.903,13.672,28.809,126.465,27.344,0
1578866677.907,23.926,28.809,129.883,27.344,0
1578866677.911,31.250,30.273,-3.418,6.836,0
1578866677.915,24.902,30.762,-147.949,6.348,0
1578866677.918,22.461,26.367,-10.742,4.883,0
1578866677.922,30.762,25.391,74.707,5.371,0
1578866677.926,35.156,26.855,-146.973,12.695,0
1578866677.930,23.438,26.367,-88.379,11.719,0
1578866677.934,25.879,35.156,-4.395,24.414,0
1578866677.936,38.086,40.039,-40.039,38.086,0
1578866677.940,27.832,27.832,11.719,48.828,0
1578866677.944,23.438,24.902,102.051,52.246,0
1578866677.948,30.273,38.086,-49.316,43.945,0
1578866677.952,29.297,37.109,-42.969,32.715,0
1578866677.956,34.668,27.832,-30.762,20.996,0
1578866677.960,28.320,30.762,-146.973,28.809,0
1578866677.963,29.785,37.109,-78.125,39.062,0
1578866677.967,35.156,34.668,-120.605,41.992,0
1578866677.971,24.414,33.203,-109.375,54.199,0
1578866677.975,23.926,34.180,137.207,48.828,0
1578866677.979,28.320,35.645,82.031,8.301,0
1578866677.981,28.809,37.598,-34.180,-9.277,0
1578866677.985,31.250,35.645,76.660,7.812,0
1578866677.989,31.738,38.574,187.012,19.531,0
1578866677.993,30.273,43.457,69.824,30.273,0
1578866677.997,39.551,34.668,-44.434,39.062,0
1578866678.001,43.457,34.180,-17.578,35.156,0
1578866678.005,39.062,37.598,2.930,30.273,27570
1578866678.008,40.527,27.832,-2.930,33.203,0
1578866678.012,42.969,26.855,-220.703,34.180,0
1578866678.016,44.922,37.598,-74.219,32.715,0
1578866678.020,34.668,34.668,175.781,35.156,0
1578866678.024,31.250,37.109,74.219,47.363,0
1578866678.026,26.855,41.992,-65.430,41.992,0
1578866678.030,32.227,34.180,3.906,33.203,0
1578866678.034,43.945,37.598,134.277,34.668,0
1578866678.038,33.691,43.457,118.652,43.457,0
1578866678.042,26.367,35.645,-22.461,52.734,0
1578866678.046,32.715,28.809,-182.129,51.758,0
1578866678.050,48.828,25.879,-105.957,36.133,0
1578866678.053,42.969,25.391,-145.020,25.879,0
1578866678.057,28.320,31.738,-326.172,28.320,0
1578866678.061,31.250,31.250,-264.160,33.203,0
1578866678.065,46.387,32.227,-62.012,42.480,0
1578866678.069,47.363,35.645,-15.137,42.480,0
1578866678.071,25.879,40.527,-46.387,23.926,0
1578866678.075,15.137,41.504,-93.750,24.414,0
1578866678.079,35.156,35.156,-137.695,40.039,0
1578866678.083,36.133,33.691,-49.316,21.973,0
1578866678.087,34.180,39.062,13.184,2.930,0
1578866678.091,34.180,41.992,-136.230,10.254,0
1578866678.095,28.809,36.621,-274.414,11.719,0
1578866678.098,32.227,31.738,-245.605,11.719,0
1578866678.102,35.156,29.785,-70.312,17.578,0
1578866678.106,30.273,33.691,11.719,25.879,0
1578866678.110,35.156,41.992,-139.160,23.926,0
1578866678.114,37.109,39.062,-173.340,34.180,0
1578866678.116,30.762,37.598,-49.316,45.898,0
1578866678.120,39.551,35.645,27.344,42.480,0
1578866678.124,37.598,25.391,-68.359,36.621,0
1578866678.128,27.832,20.996,-67.383,56.641,0
1578866678.132,29.785,24.414,37.598,60.059,0
1578866678.136,32.715,35.156,-61.523,51.270,0
1578866678.140,24.414,34.668,-361.328,56.152,0
1578866678.143,33.203,32.715,-318.359,51.270,0
1578866678.147,49.805,39.062,-75.195,49.316,0
1578866678.151,40.527,37.109,-108.887,26.367,0
1578866678.155,46.387,30.273,-232.910,16.602,0
1578866678.159,50.781,27.832,-221.680,20.020,0
1578866678.176,32.227,20.996,-62.988,23.438,0
1578866678.180,32.715,19.043,-47.852,33.691,0
1578866678.184,36.133,33.691,-204.102,31.738,0
1578866678.188,36.621,38.574,-321.289,19.531,0
1578866678.192,38.086,39.551,-130.371,23.438,0
1578866678.196,26.367,40.527,-126.465,32.715,0
1578866678.200,24.414,42.480,-299.805,33.691,0
1578866678.203,29.785,37.598,-243.164,33.691,0
1578866678.207,25.391,34.180,-72.266,34.180,0
1578866678.211,27.344,36.133,-11.230,26.367,0
1578866678.215,26.367,35.156,0.977,27.344,0
1578866678.219,21.973,32.227,6.348,29.785,0
1578866678.221,29.297,23.926,-0.488,41.016,0
1578866678.225,27.832,23.438,-12.207,43.457,0
1578866678.229,32.227,36.621,-11.719,41.992,0
1578866678.233,35.156,41.504,-36.621,42.969,0
1578866678.237,35.645,36.621,-75.684,16.113,0
1578866678.241,43.457,36.133,-120.605,11.719,0
1578866678.245,42.969,32.227,-188.965,33.691,0
1578866678.248,47.363,20.508,-200.195,40.527,0
1578866678.252,46.387,28.320,-142.578,41.992,0
1578866678.256,42.969,43.945,-263.672,42.480,0
1578866678.260,48.340,39.062,-284.668,48.340,0
1578866678.264,47.363,30.273,-76.660,45.410,0
1578866678.266,33.691,32.715,-155.762,42.480,0
1578866678.270,46.387,38.086,-147.949,44.434,0
1578866678.274,50.293,31.738,14.648,42.480,0
1578866678.278,26.855,26.855,91.797,36.621,0
1578866678.282,35.156,29.297,-11.719,36.133,0
1578866678.286,49.316,23.926,-121.582,34.180,0
1578866678.290,45.410,27.832,-118.652,34.668,0
1578866678.293,27.344,41.992,-2.441,39.062,0
1578866678.297,20.508,46.875,-62.988,32.227,0
1578866678.301,35.156,41.992,-256.348,27.344,0
1578866678.305,38.574,34.180,-31.738,36.133,0
1578866678.309,36.621,28.809,149.902,47.852,0
1578866678.312,44.434,25.879,92.285,42.480,0
1578866678.316,45.898,27.344,-8.301,34.668,0
1578866678.320,32.715,32.715,77.637,27.344,0
1578866678.324,37.598,34.668,134.277,26.367,0
1578866678.328,40.527,37.109,40.039,40.527,0
1578866678.332,31.738,39.062,-126.953,32.227,0
1578866678.336,38.574,42.480,-128.906,24.414,0
1578866678.339,33.203,36.133,44.434,42.480,0
1578866678.343,36.133,19.043,-42.480,48.340,0
1578866678.347,40.527,23.438,-186.035,41.504,0
1578866678.351,32.715,35.645,71.777,33.691,0
1578866678.355,37.598,38.574,164.062,34.180,0
1578866678.356,27.344,42.969,66.895,52.246,0
1578866678.360,25.391,39.551,82.520,59.082,0
1578866678.364,38.086,32.715,62.500,40.527,0
1578866678.368,43.945,30.762,31.250,15.625,0
1578866678.372,46.387,24.902,16.602,20.508,0
1578866678.376,42.969,25.879,-19.043,11.719,0
1578866678.380,38.086,30.273,-165.527,0.488,0
1578866678.383,42.480,30.273,-132.324,22.461,0
1578866678.387,41.992,34.668,-136.719,27.832,0
1578866678.391,22.949,40.039,-20.996,15.625,0
1578866678.395,7.324,36.133,70.312,19.531,0
1578866678.399,11.719,26.367,5.859,20.508,0
1578866678.401,20.996,21.973,69.336,20.996,0
1578866678.405,24.414,29.297,177.246,24.902,0
1578866678.409,31.738,30.762,53.711,23.438,0
1578866678.413,31.250,23.438,-99.121,26.855,0
1578866678.417,30.762,22.949,36.621,40.039,0
1578866678.421,25.391,30.273,47.363,45.898,0
1578866678.425,18.066,36.133,-14.160,39.062,0
1578866678.428,27.832,39.062,-159.668,37.109,0
1578866678.432,36.133,37.109,-76.172,39.062,0
1578866678.436,34.180,41.016,180.664,34.668,0
1578866678.440,36.621,43.945,158.203,37.109,0
1578866678.444,39.551,36.133,82.031,46.387,0
1578866678.446,39.551,28.809,94.727,38.574,0
1578866678.450,42.969,24.414,212.402,36.621,0
1578866678.454,41.992,31.250,187.500,44.434,0
1578866678.458,37.109,42.480,13.184,38.086,0
1578866678.462,43.945,40.039,51.758,26.855,0
1578866678.466,52.734,36.621,99.609,20.020,0
1578866678.470,44.434,38.086,-4.883,21.484,0
1578866678.473,39.062,42.969,-201.660,13.672,0
1578866678.477,40.039,38.574,-149.902,19.043,0
1578866678.481,43.945,34.180,122.559,35.156,0
1578866678.485,36.621,31.250,118.164,34.180,0
1578866678.489,28.320,34.180,56.152,23.438,0
1578866678.491,30.762,30.273,117.188,24.414,0
1578866678.495,31.250,26.367,159.180,41.992,0
1578866678.499,33.203,31.738,93.262,49.805,0
1578866678.503,35.645,36.133,51.270,42.480,0
1578866678.507,31.738,37.109,1.953,43.945,0
1578866678.511,30.762,35.156,-73.730,31.250,0
1578866678.515,31.738,28.809,-204.102,19.043,0
1578866678.518,32.715,23.926,-215.332,25.391,0
1578866678.522,31.250,28.320,-85.449,24.902,0
1578866678.526,28.809,35.156,-109.863,20.508,0
1578866678.530,26.367,36.133,-18.555,18.066,0
1578866678.534,22.461,28.809,7.812,26.855,0
1578866678.551,25.879,29.785,19.043,25.879,0
1578866678.555,32.715,37.598,-39.551,18.555,0
1578866678.559,37.109,33.691,-22.949,22.949,0
1578866678.563,30.273,28.320,130.371,32.227,0
1578866678.567,22.461,31.250,150.879,40.527,0
1578866678.571,26.367,36.133,-79.590,41.016,0
1578866678.575,32.227,37.109,-201.172,41.504,0
1578866678.578,41.504,32.715,44.922,39.551,0
1578866678.582,37.109,33.691,229.492,35.645,0
1578866678.586,33.691,36.621,61.523,35.645,0
1578866678.590,47.363,34.180,61.523,41.504,0
1578866678.594,40.039,34.668,209.961,38.086,0
1578866678.597,27.344,31.738,187.500,31.738,0
1578866678.601,27.344,27.344,71.289,26.855,0
1578866678.605,30.762,35.645,43.457,15.137,0
1578866678.609,34.668,42.480,239.746,6.836,0
1578866678.613,29.785,39.062,273.926,16.113,0
1578866678.617,26.367,31.738,137.695,32.715,0
1578866678.621,27.832,27.832,-10.742,32.715,0
1578866678.624,28.809,32.227,98.145,35.645,0
1578866678.628,30.273,35.645,284.180,37.598,0
1578866678.632,37.598,27.832,43.457,29.297,0
1578866678.636,38.086,28.809,-110.352,33.203,0
1578866678.640,37.598,26.367,181.152,41.016,0
1578866678.641,31.250,23.926,240.723,37.109,0
1578866678.645,18.555,33.203,101.562,19.043,0
1578866678.649,22.949,33.691,-38.574,15.625,0
1578866678.653,25.879,33.691,-47.852,14.648,0
1578866678.657,37.109,28.320,30.762,22.949,0
1578866678.661,40.527,26.855,-1.465,37.109,0
1578866678.665,30.273,36.133,-115.234,28.809,0
1578866678.668,43.457,31.250,-52.734,23.926,0
1578866678.672,29.297,24.414,16.113,30.273,0
1578866678.676,13.672,27.832,-101.562,33.691,0
1578866678.680,19.043,27.344,-35.156,37.109,0
1578866678.684,27.344,28.809,-16.113,35.645,0
1578866678.686,29.785,29.297,-47.852,35.156,0
1578866678.690,23.926,26.855,-43.945,35.156,0
1578866678.694,14.160,25.391,-1.465,35.156,0
1578866678.698,14.160,33.691,-85.938,24.414,0
1578866678.702,22.461,36.133,-158.203,24.902,0
1578866678.706,32.227,29.297,-225.586,32.227,0
1578866678.710,37.598,26.855,-300.781,27.344,0
1578866678.713,31.738,25.391,-326.660,34.180,0
1578866678.717,39.551,25.391,-417.480,39.551,0
1578866678.721,36.133,24.414,-348.145,39.551,0
1578866678.725,26.367,23.438,-101.074,40.039,0
1578866678.729,32.227,30.762,-120.117,32.227,0
1578866678.731,35.156,38.574,-235.352,19.043,0
1578866678.735,32.715,38.574,-168.945,5.371,0
1578866678.739,34.668,31.250,-98.145,16.113,0
1578866678.743,23.926,27.344,-209.961,27.832,0
1578866678.747,17.578,29.297,-352.051,15.137,0
1578866678.751,21.973,20.996,-377.930,15.625,0
1578866678.755,28.809,27.344,-271.973,20.508,0
1578866678.758,24.414,32.715,-178.223,23.438,0
1578866678.762,20.508,30.762,-437.500,21.484,0
1578866678.766,34.180,36.133,-311.035,24.902,0
1578866678.770,41.504,36.621,8.301,26.367,0
1578866678.774,27.344,35.645,-39.062,21.973,0
1578866678.776,29.297,33.203,-136.719,26.855,0
1578866678.780,38.574,28.320,-48.828,21.484,0
1578866678.784,27.344,28.809,41.992,20.020,0
1578866678.788,23.438,22.461,35.645,27.832,0
1578866678.792,21.484,20.508,-5.371,37.598,0
1578866678.796,9.277,33.203,-154.297,29.297,0
1578866678.800,16.113,27.832,-38.574,21.484,0
1578866678.803,29.785,20.020,-43.945,33.691,0
1578866678.807,25.879,30.273,-173.828,31.738,0
1578866678.811,22.461,38.086,36.133,13.672,0
1578866678.815,26.855,34.180,127.930,11.719,0
1578866678.819,22.949,26.367,46.875,24.414,0
1578866678.821,23.926,25.879,-2.930,27.344,0
1578866678.825,25.879,27.832,24.414,23.438,0
1578866678.829,25.879,30.273,58.105,28.320,0
1578866678.833,32.715,28.809,102.051,29.785,0
1578866678.837,30.273,27.344,129.883,28.320,0
1578866678.841,48.340,35.645,63.477,25.879,0
1578866678.845,42.480,33.203,-39.062,25.879,0
1578866678.848,7.812,23.438,-46.387,20.020,0
1578866678.852,9.766,32.227,181.152,12.695,0
1578866678.856,21.973,30.273,228.027,19.043,0
1578866678.860,32.227,23.926,37.598,21.484,0
1578866678.864,27.832,35.645,166.016,24.414,0
1578866678.866,22.949,34.180,335.938,24.902,0
1578866678.870,25.879,31.738,292.480,40.039,0
1578866678.874,26.367,33.203,104.004,41.504,0
1578866678.878,24.902,29.785,117.188,30.762,0
1578866678.882,35.645,24.902,341.797,36.621,0
1578866678.886,45.410,20.996,292.480,52.246,0
1578866678.890,48.828,23.926,-42.969,46.875,0
1578866678.893,35.156,28.320,-77.148,39.062,0
1578866678.897,17.578,25.879,279.785,39.062,0
1578866678.901,18.066,32.715,296.875,29.785,0
1578866678.905,27.832,30.762,123.047,22.461,0
1578866678.909,49.316,24.902,105.469,0.488,0
1578866678.926,38.086,30.273,203.125,-7.324,0
1578866678.930,15.137,20.996,225.098,-0.488,0
1578866678.934,19.043,18.066,88.379,-0.488,0
1578866678.938,29.785,32.227,55.176,9.766,0
1578866678.942,26.855,31.250,156.250,20.508,0
1578866678.946,34.180,29.785,101.562,19.531,0
1578866678.950,42.480,29.785,-77.637,22.461,0
1578866678.953,19.043,19.043,-44.922,19.043,0
1578866678.957,10.254,18.066,130.859,20.996,0
1578866678.961,22.461,28.809,188.965,29.297,0
1578866678.965,24.902,32.227,195.312,31.250,0
1578866678.969,21.973,23.926,220.215,28.320,0
1578866678.971,31.738,14.648,274.902,33.203,0
1578866678.975,48.828,20.996,306.152,33.203,0
1578866678.979,48.340,32.227,371.094,37.598,0
1578866678.983,39.551,30.273,375.488,43.945,0
1578866678.987,39.551,27.832,301.758,39.551,0
1578866678.991,31.250,28.320,294.434,38.574,0
1578866678.995,31.738,37.109,218.750,31.250,0
1578866678.998,27.832,37.598,280.762,19.043,0
1578866679.002,25.391,24.414,266.113,29.297,0
1578866679.006,30.762,26.855,76.172,41.504,0
1578866679.010,24.414,25.879,128.906,30.273,0
1578866679.014,29.297,22.949,343.750,13.672,0
1578866679.016,34.668,26.367,256.348,17.578,0
1578866679.020,39.551,24.414,159.668,27.344,0
1578866679.024,37.109,30.273,294.434,23.926,0
1578866679.028,20.996,33.691,367.676,30.273,0
1578866679.032,18.066,32.715,175.781,26.367,0
1578866679.036,35.645,33.203,-10.742,11.230,0
1578866679.040,51.270,33.203,21.484,17.578,0
1578866679.043,39.551,24.902,180.176,27.344,0
1578866679.047,22.461,15.137,102.051,19.043,0
1578866679.051,24.414,25.879,-182.129,12.207,0
1578866679.055,29.297,34.180,44.922,31.738,0
1578866679.059,30.273,35.645,219.727,36.133,0
1578866679.061,20.508,38.574,93.750,23.438,0
1578866679.065,17.090,37.598,10.742,26.855,0
1578866679.069,23.926,35.645,63.477,29.297,0
1578866679.073,25.879,21.484,161.133,29.785,0
1578866679.077,24.902,16.602,104.492,38.574,0
1578866679.081,28.320,31.250,-40.039,40.527,0
1578866679.085,37.598,42.480,-151.855,24.902,0
1578866679.088,38.086,47.363,-19.531,32.227,0
1578866679.092,34.668,41.016,-124.023,35.645,17035
1578866679.096,34.180,37.598,-268.555,21.973,0
1578866679.100,26.855,32.227,-42.480,20.996,0
1578866679.104,35.645,17.578,48.340,26.855,0
1578866679.106,39.551,26.855,34.668,35.645,0
1578866679.110,22.461,42.480,29.785,31.250,0
1578866679.114,23.438,38.086,-66.406,24.414,0
1578866679.118,38.574,30.762,-121.094,38.574,0
1578866679.122,34.180,31.738,-6.348,56.641,0
1578866679.126,27.832,37.598,-42.480,53.223,0
1578866679.130,33.203,35.645,-149.902,31.738,0
1578866679.133,36.133,28.809,-88.379,20.996,0
1578866679.137,38.574,35.156,-183.594,26.855,0
1578866679.141,29.297,38.086,-85.449,17.578,0
1578866679.145,21.973,30.762,4.883,18.066,0
1578866679.149,36.621,28.809,-78.613,36.133,0
1578866679.151,43.457,35.645,6.836,40.527,0
1578866679.155,39.551,40.039,96.191,50.781,0
1578866679.159,35.645,32.715,-10.742,33.691,0
1578866679.163,37.598,33.691,-122.070,12.207,0
1578866679.167,28.320,39.062,27.832,29.297,0
1578866679.171,30.273,36.133,38.086,39.062,0
1578866679.175,33.691,33.691,-129.395,37.598,0
1578866679.178,42.969,31.738,-367.188,32.227,0
1578866679.182,56.152,37.598,-297.363,33.691,0
1578866679.186,40.527,37.598,62.500,39.551,0
1578866679.190,26.367,27.832,52.734,29.297,0
1578866679.194,24.414,33.203,-141.113,31.250,0
1578866679.196,23.926,38.086,-53.711,31.250,0
1578866679.200,26.367,31.738,82.520,40.527,0
1578866679.204,26.855,35.156,-48.340,47.852,0
1578866679.208,28.809,32.715,-168.945,46.875,0
1578866679.212,34.668,31.738,-128.418,45.898,0
1578866679.216,25.879,33.691,-166.992,58.594,0
1578866679.220,30.273,32.227,-219.727,66.406,0
1578866679.223,34.668,32.227,-343.750,35.645,0
1578866679.227,28.809,33.691,-406.738,21.484,0
1578866679.231,62.500,36.133,-178.711,24.414,0
1578866679.235,58.105,37.598,-137.695,17.090,0
1578866679.239,30.273,41.504,-237.305,19.531,0
1578866679.241,38.574,41.016,-230.469,19.531,0
1578866679.245,45.410,36.621,-169.922,22.461,0
1578866679.249,47.363,40.039,-127.930,27.832,0
1578866679.253,33.691,38.574,-124.512,25.391,0
1578866679.257,20.508,32.715,-162.109,19.531,0
1578866679.261,30.273,26.855,-231.445,26.367,0
1578866679.265,34.668,21.973,-375.000,32.227,0
1578866679.268,31.250,28.809,-323.730,30.762,0
1578866679.272,33.203,36.621,-53.711,36.621,0
1578866679.276,46.387,34.180,-74.219,47.852,0
1578866679.280,44.922,28.320,-29.297,51.758,0
1578866679.284,27.832,34.180,52.246,44.922,0
1578866679.286,28.809,40.527,84.473,40.039,0
1578866679.290,29.785,39.062,54.688,30.762,0
1578866679.294,24.902,37.109,59.082,32.715,0
1578866679.298,37.598,35.156,159.180,44.434,0
1578866679.302,34.180,33.203,174.805,49.805,0
1578866679.306,42.480,32.715,-70.801,54.688,0
1578866679.310,53.223,38.574,-254.883,49.316,0
1578866679.313,33.203,45.410,-13.184,40.527,0
1578866679.317,32.227,37.109,131.836,22.461,0
1578866679.321,33.691,32.715,-61.035,17.578,0
1578866679.325,41.992,43.945,-160.645,18.066,0
1578866679.329,49.316,36.133,-7.812,9.766,0
1578866679.346,37.109,21.973,45.898,13.672,0
1578866679.350,35.156,30.762,-131.348,12.207,0
1578866679.354,41.992,33.691,-309.570,11.230,0
1578866679.358,33.691,34.180,-128.906,20.020,0
1578866679.362,28.809,41.016,17.090,30.273,0
1578866679.366,21.973,37.109,-163.574,23.926,0
1578866679.370,21.484,33.203,-324.707,22.461,0
1578866679.373,37.598,32.227,-114.746,30.762,0
1578866679.377,38.086,27.832,88.379,26.855,0
1578866679.381,23.926,29.297,-111.816,23.926,0
1578866679.385,19.043,25.391,-265.137,26.367,0
1578866679.389,28.809,23.438,-62.988,25.879,0
1578866679.391,40.039,34.668,99.121,30.762,0
1578866679.395,31.250,37.109,48.828,33.203,0
1578866679.399,30.273,40.039,-33.691,30.762,0
1578866679.403,25.879,41.016,14.648,22.461,0
1578866679.407,21.484,35.645,117.676,24.902,0
1578866679.411,28.320,34.668,0.000,43.945,0
1578866679.415,41.016,26.855,-166.504,56.641,0
1578866679.418,34.180,29.297,-163.086,56.152,0
1578866679.422,40.039,39.062,-74.707,47.852,0
1578866679.426,44.922,40.039,-140.625,40.527,0
1578866679.430,30.762,31.250,-80.566,39.062,0
1578866679.434,40.039,32.715,-47.852,36.133,0
1578866679.437,39.551,43.457,-96.680,9.277,0
1578866679.441,39.551,39.551,-98.633,-0.977,0
1578866679.445,39.551,36.133,-83.984,11.230,0
1578866679.449,26.855,30.273,-125.000,18.066,0
1578866679.453,27.832,25.879,-161.133,20.020,0
1578866679.457,27.832,34.668,-153.809,15.625,0
1578866679.461,30.273,38.086,-201.172,26.855,0
1578866679.464,40.039,34.668,-116.699,29.785,0
1578866679.468,46.875,34.668,-268.555,21.484,0
1578866679.472,35.645,39.062,-271.973,27.344,0
1578866679.476,32.715,40.527,82.520,28.809,0
1578866679.480,30.762,38.574,56.641,31.250,0
1578866679.482,32.227,30.273,-68.848,27.832,0
1578866679.486,36.133,29.785,30.762,29.297,0
1578866679.490,32.715,37.598,126.953,31.738,0
1578866679.494,36.621,24.902,67.871,30.273,0
1578866679.498,35.645,18.066,-53.711,29.785,0
1578866679.502,31.738,28.809,-102.539,38.574,0
1578866679.506,23.926,36.621,-62.500,30.273,0
1578866679.509,23.438,37.109,-38.574,17.578,0
1578866679.513,31.250,36.621,-235.352,22.949,0
1578866679.517,30.273,28.320,-137.207,28.320,0
1578866679.521,23.926,27.344,137.207,30.273,0
1578866679.525,23.438,33.691,42.969,36.133,0
1578866679.526,29.297,28.809,-62.988,43.945,0
1578866679.530,37.109,34.180,0.488,35.156,0
1578866679.534,36.133,40.039,89.844,30.762,0
1578866679.538,26.855,37.598,93.262,28.809,0
1578866679.542,29.297,39.062,-12.695,16.113,0
1578866679.546,30.273,34.180,-131.348,13.672,0
1578866679.550,30.762,24.414,-62.012,24.414,0
1578866679.553,36.621,23.438,-134.766,24.902,0
1578866679.557,32.715,31.738,-185.059,11.719,0
1578866679.561,35.645,33.203,-52.734,11.230,0
1578866679.565,42.969,37.109,-0.488,23.926,0
1578866679.569,39.551,37.598,-5.371,40.039,0
1578866679.571,36.133,30.273,52.246,39.062,0
1578866679.575,36.621,35.645,54.688,31.738,0
1578866679.579,35.156,38.574,-130.371,34.180,0
1578866679.583,31.738,29.785,-69.824,35.645,0
1578866679.587,27.832,27.344,41.016,41.016,0
1578866679.591,25.391,30.273,-51.270,52.734,0
1578866679.595,23.438,33.203,-174.316,33.203,0
1578866679.598,26.367,33.691,-199.707,7.324,0
1578866679.602,29.785,30.273,-19.043,21.484,0
1578866679.606,36.621,30.273,124.023,38.574,0
1578866679.610,35.156,31.738,-28.809,41.016,0
1578866679.614,29.297,36.621,-88.379,26.855,0
1578866679.616,32.227,31.250,81.543,13.184,0
1578866679.620,34.180,28.809,116.699,20.508,0
1578866679.624,22.461,28.809,-71.777,21.484,0
1578866679.628,28.320,24.414,-118.164,23.438,0
1578866679.632,35.645,26.855,3.418,30.273,0
1578866679.636,21.973,30.273,-35.645,22.949,0
1578866679.640,26.367,38.086,-291.504,15.625,0
1578866679.643,27.832,42.969,-363.770,9.277,0
1578866679.647,25.879,35.156,-13.672,11.719,0
1578866679.651,34.180,30.762,93.262,20.996,0
1578866679.655,34.180,33.203,-44.434,26.367,0
1578866679.659,36.621,26.855,-61.523,29.297,0
1578866679.661,35.645,26.855,98.633,29.297,0
1578866679.665,23.926,30.273,83.984,34.180,0
1578866679.669,22.949,26.855,-38.574,38.086,0
1578866679.673,23.438,24.902,-31.250,37.598,0
1578866679.677,27.344,34.180,41.016,39.062,0
1578866679.681,36.133,31.738,-20.508,36.621,0
1578866679.685,26.367,28.809,-201.660,33.203,0
1578866679.688,19.531,31.738,-139.160,27.832,0
1578866679.692,32.227,30.762,12.695,28.809,0
1578866679.696,31.250,35.156,48.340,38.086,0
1578866679.700,22.949,31.250,104.004,40.527,0
1578866679.704,25.391,29.297,122.559,42.480,0
1578866679.722,27.344,29.785,59.082,36.621,0
1578866679.726,20.020,33.203,10.254,24.414,0
1578866679.730,24.902,41.016,20.020,28.809,0
1578866679.734,28.320,31.250,27.344,37.109,0
1578866679.738,22.949,23.926,-56.641,27.832,0
1578866679.742,36.621,30.273,-105.957,14.648,0
1578866679.746,52.246,27.344,-144.531,23.926,0
1578866679.749,40.527,26.367,-33.691,25.879,0
1578866679.753,27.832,36.133,31.250,19.043,0
1578866679.757,30.273,38.574,-127.930,15.137,0
1578866679.761,37.109,36.133,-88.379,15.137,0
1578866679.765,38.086,27.832,8.301,31.738,0
1578866679.767,32.227,27.344,-116.211,39.551,0
1578866679.771,39.062,30.762,-128.418,27.832,0
1578866679.775,38.574,30.762,-0.977,22.949,0
1578866679.779,31.738,35.645,113.770,27.344,0
1578866679.783,35.156,37.109,68.848,35.645,0
1578866679.787,34.180,41.016,-125.977,33.691,0
1578866679.791,33.691,36.621,-85.449,40.039,0
1578866679.794,25.391,30.762,152.344,42.480,0
1578866679.798,19.531,37.598,78.125,28.320,0
1578866679.802,21.484,38.574,-229.980,35.156,0
1578866679.806,25.879,31.738,-61.035,41.504,0
1578866679.810,27.344,22.461,120.117,38.574,0
1578866679.811,22.949,30.762,105.469,55.176,0
1578866679.815,26.855,42.969,67.871,49.316,0
1578866679.819,36.133,40.527,20.508,22.461,0
1578866679.823,41.992,36.133,61.523,7.812,0
1578866679.827,36.621,29.785,48.828,13.184,0
1578866679.831,28.809,31.250,-87.402,11.230,0
1578866679.835,31.738,32.227,-192.871,7.812,0
1578866679.838,40.527,31.738,5.859,16.113,0
1578866679.842,30.762,19.531,-62.988,20.996,0
1578866679.846,27.832,17.090,-291.016,24.902,0
1578866679.850,25.391,32.227,-122.070,22.461,0
1578866679.854,23.438,38.574,7.812,27.832,0
1578866679.871,24.414,41.016,19.043,31.738,0
1578866679.875,12.207,36.621,20.020,33.203,0
1578866679.879,10.254,32.227,-4.883,28.320,0
1578866679.883,20.508,33.691,7.812,26.855,0
1578866679.887,25.879,27.832,-28.320,33.691,0
1578866679.891,29.785,19.043,-75.195,30.273,0
1578866679.895,29.297,19.531,-72.754,32.227,0
1578866679.898,27.832,28.320,-95.215,31.250,0
1578866679.902,30.273,37.598,-176.270,32.227,0
1578866679.906,24.902,38.086,-18.066,23.438,0
1578866679.910,24.902,40.527,83.008,16.113,0
1578866679.914,29.297,34.668,-70.312,20.996,0
1578866679.901,28.320,31.250,-22.461,20.020,0
1578866679.905,23.438,30.273,123.047,15.625,0
1578866679.909,22.949,29.297,87.402,18.066,0
1578866679.913,32.227,28.320,-31.250,18.555,0
1578866679.917,49.805,31.250,7.812,28.320,0
1578866679.921,46.387,28.320,43.945,42.480,0
1578866679.925,36.133,26.855,-56.641,36.133,0
1578866679.928,28.809,34.180,-164.551,24.902,0
1578866679.932,23.438,33.203,-139.160,30.273,0
1578866679.936,28.809,36.133,38.086,27.832,0
1578866679.940,20.020,37.109,113.281,24.414,0
1578866679.944,21.973,32.227,-162.598,25.391,0
1578866679.946,34.668,33.203,-229.004,24.414,0
1578866679.950,34.180,34.180,1.465,34.180,0
1578866679.954,28.809,30.762,-18.066,48.828,0
1578866679.958,25.879,24.414,-108.887,39.551,0
1578866679.962,27.832,21.484,-116.211,38.086,0
1578866679.966,34.668,23.438,-142.578,52.246,0
1578866679.970,32.715,35.645,-192.871,47.363,0
1578866679.973,39.062,42.969,-314.941,36.621,0
1578866679.977,58.594,35.156,-316.895,27.344,0
1578866679.981,57.617,26.367,-87.891,7.812,0
1578866679.985,48.828,26.367,-114.746,12.207,0
1578866679.989,41.504,28.320,-199.707,20.996,0
1578866679.991,33.203,28.320,-125.000,21.973,0
1578866679.995,32.227,33.203,-68.848,32.227,0
1578866679.999,35.156,30.273,-29.785,33.203,0
1578866680.003,35.645,31.738,-26.855,34.180,0
1578866680.007,20.020,34.668,-71.289,23.438,0
1578866680.011,20.020,32.715,-173.340,12.207,0
1578866680.015,33.203,32.715,-322.754,23.926,0
1578866680.018,24.414,24.414,-272.949,21.973,0
1578866680.022,13.184,16.113,-113.281,14.160,0
1578866680.026,17.578,24.414,-108.398,16.113,0
1578866680.030,14.648,28.809,-37.598,12.695,0
1578866680.034,4.883,21.973,44.434,20.020,0
1578866680.051,3.906,24.902,102.051,22.949,0
1578866680.055,0.977,36.621,5.371,11.719,0
1578866680.059,1.465,33.203,-3.418,21.484,0
1578866680.063,10.742,19.043,109.375,21.973,0
1578866680.067,9.277,17.578,135.742,15.625,0
1578866680.071,15.625,28.320,-63.477,23.438,0
1578866680.075,33.691,29.297,-243.164,19.043,0
1578866680.078,42.969,26.855,28.320,14.648,0
1578866680.082,30.273,30.762,272.949,15.625,0
1578866680.086,27.344,27.344,101.562,15.625,0
1578866680.090,38.574,28.320,-20.996,20.508,0
1578866680.094,32.227,28.809,165.039,22.461,0
1578866680.096,22.461,21.484,255.371,20.020,0
1578866680.100,24.902,26.855,162.109,22.461,0
1578866680.104,20.020,26.855,104.492,19.531,0
1578866680.108,36.133,19.531,224.121,18.066,0
1578866680.112,42.480,23.438,218.750,38.086,0
1578866680.116,33.203,30.273,51.758,39.551,0
1578866680.120,25.879,26.367,-74.707,25.879,0
1578866680.123,27.832,31.250,30.273,20.508,0
1578866680.127,44.434,28.320,220.215,27.832,0
1578866680.131,39.062,18.555,47.852,28.320,0
1578866680.135,26.367,30.273,-104.980,20.020,0
1578866680.139,21.973,30.762,126.953,20.996,0
1578866680.141,17.578,27.344,266.602,28.320,0
1578866680.145,15.137,31.738,225.586,35.156,0
1578866680.149,14.160,24.902,242.676,31.738,0
1578866680.153,5.371,23.926,303.223,38.574,0
1578866680.157,3.418,33.203,376.953,52.734,0
1578866680.161,10.742,27.344,265.137,45.898,0
1578866680.165,9.766,24.414,169.922,28.320,0
1578866680.168,19.531,29.297,228.027,3.418,0
1578866680.172,23.926,29.297,200.684,-11.719,0
1578866680.176,32.715,26.855,162.598,3.906,0
1578866680.180,28.809,20.996,294.922,4.395,0
1578866680.184,13.184,24.414,311.035,-1.953,0
1578866680.186,32.227,35.645,203.613,8.789,0
1578866680.190,41.504,30.762,244.141,18.066,0
1578866680.194,34.180,24.414,325.195,22.949,0
1578866680.198,27.832,27.344,251.953,13.672,0
1578866680.202,27.832,27.832,164.062,19.043,0
1578866680.206,40.039,27.832,62.500,25.391,0
1578866680.210,38.574,25.391,70.801,34.668,0
1578866680.213,26.367,23.438,166.504,41.504,0
1578866680.217,32.227,23.438,-95.215,40.039,17040
1578866680.221,34.668,20.508,-76.172,37.109,0
1578866680.225,24.414,30.762,205.566,41.992,0
1578866680.229,30.273,39.062,162.109,49.316,0
1578866680.231,31.738,29.297,103.027,57.617,0
1578866680.235,41.016,28.320,165.039,54.688,0
1578866680.239,56.641,29.297,311.523,13.672,0
1578866680.243,52.246,25.391,256.836,-8.301,0
1578866680.247,35.156,24.902,125.977,2.441,0
1578866680.251,40.527,26.855,61.523,13.672,0
1578866680.255,43.457,29.297,145.020,25.879,0
1578866680.258,37.598,26.855,172.363,28.809,0
1578866680.262,24.902,27.832,-97.656,2.441,0
1578866680.266,13.184,30.762,-4.395,-4.883,0
1578866680.270,19.043,26.367,225.586,15.137,0
1578866680.274,19.043,23.926,143.555,12.695,0
1578866680.276,27.344,25.879,111.328,27.832,0
1578866680.280,22.949,23.926,28.320,37.598,0
1578866680.284,16.113,20.508,56.152,30.762,0
1578866680.288,24.902,26.855,210.449,36.621,0
1578866680.292,22.949,36.621,221.191,41.016,0
1578866680.296,26.855,28.809,173.340,36.133,0
1578866680.300,41.992,21.973,130.371,40.527,0
1578866680.303,42.969,32.227,9.277,52.246,0
1578866680.307,30.762,34.668,57.129,53.711,0
1578866680.311,28.320,31.738,218.750,51.758,0
1578866680.315,42.480,31.738,224.121,39.551,0
1578866680.319,37.598,36.133,218.750,31.250,0
1578866680.321,36.133,36.621,228.516,30.762,0
1578866680.325,32.227,30.273,260.254,22.949,0
1578866680.329,32.227,24.902,166.016,23.926,0
1578866680.333,45.410,18.555,198.242,30.762,0
1578866680.337,41.504,27.344,267.578,28.320,0
1578866680.341,32.227,41.992,163.574,24.902,0
1578866680.345,30.762,38.574,15.625,19.043,0
1578866680.348,32.715,33.203,-32.715,24.414,0
1578866680.352,23.438,37.109,204.590,27.832,0
1578866680.356,21.973,39.551,380.859,20.996,0
1578866680.360,23.926,37.109,228.027,22.949,0
1578866680.364,27.344,28.320,187.500,29.297,0
1578866680.366,32.227,26.367,301.758,24.414,0
1578866680.370,27.344,32.227,266.113,10.254,0
1578866680.374,23.926,36.621,83.984,9.766,0
1578866680.378,23.926,29.785,17.090,11.719,0
1578866680.382,31.250,22.461,128.418,16.602,0
1578866680.386,31.738,33.203,117.676,27.344,0
1578866680.390,38.086,48.828,-160.645,26.367,0
1578866680.393,38.574,46.387,-379.883,17.090,0
1578866680.397,29.785,34.180,-103.516,18.555,0
1578866680.401,37.598,30.762,102.539,22.461,0
1578866680.405,46.875,30.273,-45.898,31.250,0
1578866680.409,45.898,33.203,-127.930,39.062,0
1578866680.411,47.852,34.180,-57.129,46.875,0
1578866680.415,36.133,30.762,10.742,45.410,0
1578866680.419,16.113,32.715,-34.668,35.156,0
1578866680.423,14.648,37.109,-112.305,33.203,0
1578866680.427,23.926,33.203,-78.125,35.156,0
1578866680.431,33.203,30.762,-91.797,33.203,0
1578866680.435,37.109,33.203,-263.184,37.109,0
1578866680.438,29.297,34.180,-204.590,37.109,0
1578866680.442,36.133,33.691,23.438,35.645,0
1578866680.446,44.922,21.973,74.707,52.246,0
1578866680.450,35.156,19.043,-54.688,70.312,0
1578866680.454,33.691,35.645,-120.117,61.035,0
1578866680.472,35.156,36.621,-73.730,53.223,0
1578866680.476,36.133,32.715,-67.383,39.551,0
1578866680.480,42.480,36.133,-83.984,14.648,0
1578866680.484,37.109,34.668,-96.191,21.484,0
1578866680.488,34.180,35.645,-171.875,25.391,0
1578866680.492,39.062,36.133,-333.008,26.855,0
1578866680.496,38.574,25.879,-313.965,27.344,0
1578866680.499,35.156,20.996,-146.973,29.785,0
1578866680.503,34.668,32.715,-147.949,38.574,0
1578866680.507,33.203,34.668,-351.562,36.621,0
1578866680.511,31.250,26.367,-347.656,20.996,0
1578866680.515,31.250,29.785,-128.418,20.996,0
1578866680.516,23.438,34.668,-156.250,33.691,0
1578866680.520,23.926,32.227,-269.043,35.156,0
1578866680.524,34.180,36.621,-205.566,37.109,0
1578866680.528,46.875,32.227,-55.664,43.457,0
1578866680.532,40.527,23.926,-80.566,44.922,0
1578866680.536,28.320,31.250,-275.391,44.434,0
1578866680.540,34.668,38.086,-239.746,44.922,0
1578866680.543,34.668,33.203,-23.438,45.410,0
1578866680.547,39.551,28.320,-33.691,42.969,0
1578866680.551,39.062,32.227,-261.719,37.109,0
1578866680.555,42.480,38.574,-116.699,48.828,0
1578866680.559,41.992,35.645,102.051,58.594,0
1578866680.561,30.762,28.320,47.852,50.293,0
1578866680.565,32.715,36.621,-21.484,21.973,0
1578866680.569,39.551,38.574,6.348,3.418,0
1578866680.573,41.992,29.297,42.969,10.254,0
1578866680.577,34.668,29.785,4.395,19.531,0
1578866680.581,34.668,32.227,-177.734,25.879,0
1578866680.585,29.297,28.809,-246.094,24.414,0
1578866680.588,36.133,34.180,-20.996,30.762,0
1578866680.592,38.086,33.203,-113.281,26.855,0
1578866680.596,25.879,28.320,-268.066,6.836,0
1578866680.600,28.320,31.738,-111.816,5.371,0
1578866680.604,28.809,35.645,-22.949,18.555,0
1578866680.607,23.926,39.551,8.301,26.855,0
1578866680.611,33.691,29.785,45.410,39.062,0
1578866680.615,36.133,21.973,43.457,41.504,0
1578866680.619,34.180,20.508,-8.301,35.645,0
1578866680.623,35.645,21.973,-20.996,42.969,0
1578866680.627,38.086,26.855,-47.363,41.504,0
1578866680.631,27.344,31.738,-30.762,33.203,0
1578866680.634,30.762,38.086,-62.988,36.621,0
1578866680.638,33.203,31.738,-133.301,33.691,0
1578866680.642,29.297,25.879,42.969,38.574,0
1578866680.646,30.273,32.227,79.102,41.992,0
1578866680.650,24.902,34.668,-88.379,45.410,0
1578866680.651,36.133,34.668,22.461,49.316,0
1578866680.655,41.016,29.297,144.531,36.133,0
1578866680.659,37.109,22.949,129.395,38.086,0
1578866680.663,27.832,29.297,16.113,40.527,0
1578866680.667,32.715,33.203,16.113,39.551,0
1578866680.671,34.180,33.203,2.930,40.039,0
1578866680.675,31.250,30.762,-121.094,38.574,0
1578866680.678,31.738,30.273,-299.316,21.484,0
1578866680.682,40.527,35.156,-286.621,7.324,0
1578866680.686,51.270,34.180,39.551,12.207,0
1578866680.690,43.457,34.668,58.594,25.879,0
1578866680.694,33.691,31.738,-139.160,21.484,0
1578866680.696,28.320,23.438,-130.371,11.230,0
1578866680.700,30.762,17.578,7.324,26.367,0
1578866680.704,24.902,24.902,37.598,30.273,0
1578866680.708,14.160,43.945,-31.250,14.648,0
1578866680.712,19.043,44.922,-51.270,19.043,0
1578866680.716,32.227,36.133,-46.875,34.180,0
1578866680.720,31.738,28.320,-66.895,37.598,0
1578866680.723,26.367,27.344,-185.059,35.645,0
1578866680.727,15.137,29.297,-172.852,29.785,0
1578866680.731,18.066,32.715,43.457,31.738,0
1578866680.735,35.645,26.855,97.168,41.992,0
1578866680.739,25.391,28.320,-2.930,28.809,0
1578866680.741,20.996,38.574,-2.441,20.508,0
1578866680.745,33.203,41.504,-45.410,28.809,0
1578866680.749,37.598,38.086,-138.672,30.762,0
1578866680.753,34.180,36.133,-25.879,33.203,0
1578866680.757,32.227,29.297,9.766,29.297,0
1578866680.761,37.598,22.461,-156.738,23.926,0
1578866680.765,36.133,28.320,-294.922,27.344,0
1578866680.768,20.996,30.273,-255.371,29.785,0
1578866680.772,20.020,28.809,-80.078,29.297,0
1578866680.776,28.809,41.016,-93.262,31.738,0
1578866680.780,24.902,38.086,-66.895,36.621,0
1578866680.784,33.203,25.391,7.812,38.086,0
1578866680.786,39.551,28.320,8.789,49.316,0
1578866680.790,33.203,32.227,-49.316,47.852,0
1578866680.794,30.762,34.180,-48.340,38.574,0
1578866680.798,32.227,31.738,62.012,14.648,0
1578866680.802,31.738,34.668,49.316,10.254,0
1578866680.806,24.414,33.691,-211.914,16.113,0
1578866680.810,40.527,32.227,-414.551,12.695,0
1578866680.813,40.039,36.133,-169.434,18.066,0
1578866680.817,29.297,33.691,101.074,23.438,0
1578866680.821,41.016,28.809,-44.922,20.020,0
1578866680.825,38.086,26.855,-150.391,18.555,0
1578866680.829,42.480,30.273,18.066,23.926,0
1578866680.846,44.434,32.715,80.566,32.715,0
1578866680.850,26.855,32.715,15.137,28.809,0
1578866680.854,29.785,38.086,-77.148,30.762,0
1578866680.858,47.363,38.086,20.508,52.734,0
1578866680.862,39.551,32.715,91.309,48.828,0
1578866680.866,28.809,30.762,-25.879,33.691,0
1578866680.870,21.484,32.227,-147.949,36.133,0
1578866680.873,22.461,37.109,-208.008,31.250,0
1578866680.877,33.691,44.434,-69.824,24.902,0
1578866680.881,32.227,36.133,-76.172,35.156,0
1578866680.885,34.668,29.297,-161.621,34.180,0
1578866680.889,38.086,37.109,-50.293,27.832,0
1578866680.891,28.320,30.273,17.578,27.344,0
1578866680.895,30.762,31.250,42.969,38.574,0
1578866680.899,31.250,34.180,28.809,38.086,0
1578866680.903,33.203,26.367,2.441,26.855,0
1578866680.907,36.621,30.762,24.902,32.227,0
1578866680.911,35.156,38.574,-27.832,20.508,0
1578866680.915,34.668,37.598,-136.230,19.531,0
1578866680.918,35.645,36.133,-113.281,19.531,0
1578866680.922,21.973,36.133,-55.664,7.812,0
1578866680.926,11.230,31.250,-144.043,7.324,0
1578866680.930,15.625,27.832,-122.070,10.254,0
1578866680.934,18.066,32.715,-65.430,16.602,0
1578866680.936,21.973,35.156,-62.500,22.949,0
1578866680.940,26.855,33.691,74.707,35.645,0
1578866680.944,25.391,29.297,212.402,33.203,0
1578866680.948,17.578,23.926,134.766,26.367,0
1578866680.952,20.020,35.156,21.484,21.973,0
1578866680.956,29.297,40.039,-13.672,26.855,0
1578866680.960,23.438,31.738,-33.203,34.180,0
1578866680.963,21.484,23.438,24.902,25.391,0
1578866680.967,29.297,29.785,-180.176,7.812,0
1578866680.971,34.668,35.156,-199.707,13.672,0
1578866680.975,25.879,30.273,153.320,27.344,0
1578866680.979,24.902,31.250,160.645,23.926,0
1578866680.981,34.668,33.691,-25.391,26.855,0
1578866680.985,36.133,37.598,-69.824,36.133,0
1578866680.989,36.133,35.645,16.602,34.668,0
1578866680.993,50.293,36.133,17.090,28.809,0
1578866680.997,42.969,35.156,-80.078,30.762,0
1578866681.001,32.227,25.391,-157.715,22.949,0
1578866681.005,27.832,27.344,-62.012,32.227,0
1578866681.008,31.738,29.297,46.875,41.992,0
1578866681.012,41.016,32.227,-162.109,34.668,0
1578866681.016,24.414,39.551,-126.953,30.273,0
1578866681.020,18.066,32.715,120.605,35.156,0
1578866681.024,21.973,28.320,70.801,31.250,0
1578866681.026,29.785,36.133,-27.832,23.926,0
1578866681.030,24.902,36.621,15.625,24.902,0
1578866681.034,23.926,30.762,95.215,22.949,0
1578866681.038,19.531,24.414,112.793,15.625,0
1578866681.042,17.578,22.461,59.570,18.555,0
1578866681.046,33.203,30.273,-34.668,15.625,0
1578866681.050,27.344,32.715,21.484,2.441,0
1578866681.053,30.762,31.738,-21.484,11.719,0
1578866681.057,33.691,33.691,-72.266,16.113,0
1578866681.061,22.949,34.668,98.633,10.742,0
1578866681.065,16.113,41.016,103.027,10.742,0
1578866681.069,27.832,35.156,160.156,12.207,0
1578866681.071,33.203,25.391,241.699,12.207,0
1578866681.075,33.691,28.809,210.449,12.207,0
1578866681.079,27.832,31.738,102.051,20.020,0
1578866681.083,23.438,37.109,172.363,20.020,0
1578866681.087,31.250,38.574,346.191,21.973,0
1578866681.091,28.809,25.391,241.699,30.273,0
1578866681.095,16.602,28.320,43.945,30.762,0
1578866681.098,27.344,34.180,-9.766,38.086,0
1578866681.102,41.016,29.785,234.863,53.223,0
1578866681.106,31.250,37.109,416.016,50.781,0
1578866681.110,40.527,45.410,249.512,24.902,0
1578866681.114,50.781,40.039,219.727,15.137,0
1578866681.116,40.039,33.203,412.598,22.949,0
1578866681.120,40.527,32.715,434.570,33.691,0
1578866681.124,37.109,36.621,206.055,32.227,0
1578866681.128,36.133,38.574,108.398,26.367,0
1578866681.132,41.504,29.785,257.324,38.574,0
1578866681.136,36.133,31.250,208.496,44.922,0
1578866681.140,32.227,34.668,-62.012,29.785,0
1578866681.143,34.180,30.273,-141.602,18.555,0
1578866681.147,42.969,31.250,111.328,22.461,0
1578866681.151,36.133,34.180,230.469,27.832,0
1578866681.155,27.344,40.039,125.488,32.227,0
1578866681.159,32.227,35.156,46.875,31.738,0
1578866681.161,37.598,24.414,186.035,35.156,0
1578866681.165,43.945,30.273,210.938,40.039,0
1578866681.169,34.668,36.621,135.742,32.715,0
1578866681.173,30.273,32.227,69.824,35.645,0
1578866681.177,29.297,32.715,46.875,33.691,0
1578866681.181,26.855,26.855,-7.324,37.109,0
1578866681.185,31.738,29.785,-185.547,43.457,0
1578866681.188,30.273,34.668,-160.645,38.086,0
1578866681.192,37.109,25.879,-85.938,48.340,0
1578866681.196,37.109,22.461,-97.656,49.316,0
1578866681.200,29.297,27.832,-138.184,34.668,0
1578866681.204,34.668,30.762,-111.328,18.066,0
1578866681.221,37.598,28.320,-174.316,9.277,0
1578866681.225,37.109,29.297,-279.785,13.672,0
1578866681.229,42.480,23.926,-211.426,11.719,0
1578866681.233,25.879,22.461,-129.395,5.371,0
1578866681.237,17.578,30.762,-198.242,8.789,17041
1578866681.241,21.973,33.203,-306.152,5.859,0
1578866681.245,24.902,29.297,-291.504,19.043,0
1578866681.248,26.855,28.809,-145.508,29.785,0
1578866681.252,27.344,27.344,-178.711,17.578,0
1578866681.256,28.809,27.832,-462.891,24.414,0
1578866681.260,25.879,24.414,-397.461,34.668,0
1578866681.264,18.066,21.973,-104.980,35.156,0
1578866681.266,16.113,25.879,-195.312,30.762,0
1578866681.270,22.949,28.809,-385.254,21.973,0
1578866681.274,34.668,31.250,-261.719,28.809,0
1578866681.278,26.367,27.344,-120.605,25.879,0
1578866681.282,22.949,23.926,-274.414,22.949,0
1578866681.286,29.785,29.785,-512.207,25.879,0
1578866681.290,23.438,28.320,-486.328,24.902,0
1578866681.293,29.297,22.461,-222.168,29.785,0
1578866681.297,24.414,23.438,-234.863,31.738,0
1578866681.301,24.414,24.902,-514.160,31.250,0
1578866681.305,27.832,20.996,-294.434,26.855,0
1578866681.309,27.344,21.484,7.324,20.508,0
1578866681.311,19.043,28.809,-116.211,27.344,0
1578866681.315,11.230,21.973,-253.906,29.297,0
1578866681.319,20.508,20.508,-181.152,19.531,0
1578866681.323,32.715,28.809,-27.344,24.902,0
1578866681.327,31.250,26.367,-48.828,25.879,0
1578866681.331,32.715,29.297,-224.121,25.391,0
1578866681.335,27.344,32.715,-274.414,32.227,0
1578866681.338,13.184,34.668,-89.355,19.043,0
1578866681.342,14.160,37.109,-171.875,16.602,0
1578866681.346,17.090,30.762,-257.324,25.879,0
1578866681.350,16.113,28.809,-92.285,21.484,0
1578866681.354,12.207,31.250,-48.828,3.906,0
1578866681.356,11.230,30.762,-31.250,2.441,0
1578866681.360,17.578,28.320,-33.203,14.648,0
1578866681.364,22.461,21.973,-11.719,2.930,0
1578866681.368,27.832,20.508,-35.156,-0.488,0
1578866681.372,32.715,26.855,-16.602,13.184,0
1578866681.376,37.598,36.621,5.859,26.855,0
1578866681.380,35.156,35.156,-15.625,36.133,0
1578866681.383,30.762,35.156,-50.781,32.715,0
1578866681.387,34.668,33.691,-56.152,34.668,0
1578866681.391,33.691,25.391,155.762,42.969,0
1578866681.395,27.832,27.832,177.734,34.180,0
1578866681.399,29.785,34.180,64.453,23.438,0
1578866681.401,31.738,18.066,123.047,19.531,0
1578866681.405,25.391,13.184,198.242,25.879,0
1578866681.409,12.695,32.227,185.547,21.973,0
1578866681.413,15.137,35.645,-8.789,9.766,0
1578866681.417,33.203,39.062,-38.086,15.625,0
1578866681.421,41.504,35.156,-6.836,20.020,0
1578866681.425,36.621,32.715,-35.645,19.043,0
1578866681.428,20.996,34.180,-214.844,14.160,0
1578866681.432,19.531,23.926,-217.285,20.508,0
1578866681.436,20.020,29.297,156.738,29.785,0
1578866681.440,12.695,30.273,243.652,8.789,0
1578866681.444,28.809,22.461,195.801,10.742,0
1578866681.446,23.438,28.320,217.773,10.254,0
1578866681.450,11.719,30.762,309.082,5.371,0
1578866681.454,25.879,33.203,375.977,25.879,0
1578866681.458,24.902,35.645,337.891,8.789,0
1578866681.462,13.184,29.785,262.695,-7.812,0
1578866681.466,19.531,20.020,232.910,13.672,0
1578866681.470,30.273,20.996,206.543,25.391,0
1578866681.473,22.461,28.320,88.867,18.066,0
1578866681.477,10.254,25.391,127.441,17.578,0
1578866681.481,22.461,24.414,291.016,26.855,0
1578866681.485,36.621,33.203,285.156,22.461,0
1578866681.489,29.785,42.480,215.332,21.484,0
1578866681.491,19.531,38.086,265.137,37.598,0
1578866681.495,22.461,28.809,251.953,22.949,0
1578866681.499,24.902,25.879,265.625,29.297,0
1578866681.503,29.785,27.832,326.660,58.594,0
1578866681.507,35.645,27.832,251.953,44.434,0
1578866681.511,41.504,31.738,191.406,41.016,0
1578866681.515,44.434,40.527,157.227,28.320,0
1578866681.518,47.852,40.039,131.348,20.508,0
1578866681.522,46.875,36.133,319.336,33.203,0
1578866681.526,42.480,36.133,260.254,40.039,0
1578866681.530,40.039,32.227,229.004,32.715,0
1578866681.534,46.387,29.785,367.188,22.461,0
1578866681.551,46.875,34.180,396.973,23.438,0
1578866681.555,30.273,24.902,229.492,25.391,0
1578866681.559,25.391,23.438,118.164,27.344,0
1578866681.563,21.973,32.715,201.172,29.297,0
1578866681.567,17.578,36.133,293.457,27.832,0
1578866681.571,17.090,36.133,116.699,21.973,0
1578866681.575,17.578,25.879,-177.734,19.043,0
1578866681.578,22.949,22.461,6.348,29.785,0
1578866681.582,26.367,27.832,260.254,41.016,0
1578866681.586,24.414,27.344,178.223,44.922,0
1578866681.590,25.879,25.879,42.480,49.316,0
1578866681.594,37.109,29.297,148.926,33.203,0
1578866681.596,38.086,31.250,213.379,16.113,0
1578866681.600,37.109,22.461,100.098,18.066,0
1578866681.604,40.039,23.438,-10.254,22.461,0
1578866681.608,36.133,28.809,70.801,29.297,0
1578866681.612,41.992,29.297,186.523,27.832,0
1578866681.616,36.621,29.297,153.320,20.020,0
1578866681.620,41.016,29.785,-6.836,18.555,0
1578866681.623,49.316,34.180,41.504,24.414,0
1578866681.627,27.832,32.715,249.023,32.227,0
1578866681.631,21.484,29.297,48.340,36.133,0
1578866681.635,29.785,27.832,-145.996,39.062,0
1578866681.639,39.551,38.086,30.762,40.039,0
1578866681.641,48.828,43.457,142.090,44.922,0
1578866681.645,47.852,28.809,140.625,60.547,0
1578866681.649,44.922,31.738,142.090,45.898,0
1578866681.653,41.504,38.574,97.656,31.738,0
1578866681.657,48.340,35.156,106.934,30.273,0
1578866681.661,50.781,29.785,93.750,35.156,0
1578866681.665,51.270,39.062,-14.160,35.645,0
1578866681.668,34.668,38.086,16.602,18.555,0
1578866681.672,28.809,26.855,14.648,21.973,0
1578866681.676,35.645,32.227,-69.336,29.785,0
1578866681.680,35.156,36.133,37.109,30.762,0
1578866681.684,32.227,42.480,105.469,24.414,0
1578866681.686,46.387,35.645,-12.695,26.855,0
1578866681.690,55.176,24.414,-38.086,49.805,0
1578866681.694,35.156,31.250,67.383,46.875,0
1578866681.698,30.762,40.527,87.402,32.227,0
1578866681.702,41.504,41.992,-65.430,41.992,0
1578866681.706,41.504,31.250,-97.656,40.039,0
1578866681.710,38.086,29.297,-7.812,38.086,0
1578866681.713,32.227,36.133,77.637,44.434,0
1578866681.717,32.715,36.621,-116.211,30.762,0
1578866681.721,36.133,37.109,-237.793,20.996,0
1578866681.725,29.785,37.598,0.000,23.926,0
1578866681.729,36.133,31.250,15.137,42.480,0
1578866681.731,27.344,32.227,-66.406,41.504,0
1578866681.735,22.949,36.621,-25.391,34.668,0
1578866681.739,36.133,26.367,126.465,33.691,0
1578866681.743,28.320,22.949,135.742,36.133,0
1578866681.747,17.578,28.809,-74.707,37.109,0
1578866681.751,34.180,28.809,-274.414,27.344,0
1578866681.755,48.340,33.203,-143.066,30.273,0
1578866681.758,36.133,37.598,7.324,38.086,0
1578866681.762,29.785,32.227,-204.102,34.180,0
1578866681.766,28.320,33.691,-207.520,30.273,0
1578866681.770,30.273,35.645,20.996,34.668,0
1578866681.774,32.227,29.785,61.035,30.762,0
1578866681.776,30.273,27.344,-0.488,29.297,0
1578866681.780,20.996,31.738,-4.395,25.879,0
1578866681.784,26.855,21.973,74.219,18.066,0
1578866681.788,42.969,20.508,25.879,27.832,0
1578866681.792,41.992,40.527,-31.250,40.039,0
1578866681.796,37.598,41.992,-104.004,30.762,0
1578866681.800,33.691,37.109,-132.812,21.484,0
1578866681.803,32.227,38.086,-187.500,20.020,0
1578866681.807,33.691,35.156,-220.215,28.809,0
1578866681.811,33.203,25.879,-10.742,38.086,0
1578866681.815,37.598,29.297,19.043,35.156,0
1578866681.819,37.598,39.062,60.059,26.367,0
1578866681.821,23.926,29.785,104.980,32.227,0
1578866681.825,17.578,25.391,69.336,39.551,0
1578866681.829,23.926,35.156,-53.223,34.668,0
1578866681.833,25.391,37.109,-83.496,29.785,0
1578866681.837,25.391,31.250,38.574,29.297,0
1578866681.841,30.762,32.715,-5.859,39.551,0
1578866681.845,35.645,29.785,-252.930,40.527,0
1578866681.848,39.062,24.414,-308.594,32.715,0
1578866681.852,44.434,33.691,-45.898,34.668,0
1578866681.856,51.270,34.668,68.848,43.945,0
1578866681.860,46.875,31.738,-124.023,41.016,0
1578866681.864,40.039,37.109,-148.926,41.992,0
1578866681.866,39.062,37.598,51.270,37.598,0
1578866681.870,37.598,37.109,133.789,35.156,0
1578866681.874,33.691,33.203,-29.297,28.809,0
1578866681.878,23.926,27.344,-144.043,7.324,0
1578866681.882,29.297,27.344,35.645,6.836,0
1578866681.886,28.320,25.879,42.969,11.719,0
1578866681.890,25.391,31.738,-198.730,13.184,0
1578866681.893,25.879,26.367,-288.086,9.277,0
1578866681.897,28.320,26.367,-21.484,25.879,0
1578866681.901,31.738,39.551,158.203,39.062,0
1578866681.905,31.250,36.133,63.477,34.180,0
1578866681.909,26.855,24.902,-79.590,33.691,0
1578866681.911,25.879,25.879,-16.602,23.438,0
1578866681.915,26.367,26.367,-8.789,23.438,0
1578866681.919,24.902,22.949,-114.258,22.461,0
1578866681.923,19.043,25.391,-137.207,16.602,0
1578866681.927,10.742,25.391,-132.812,9.277,0
1578866681.931,15.137,27.832,-202.148,15.625,0
1578866681.935,21.973,32.227,-309.570,25.391,0
1578866681.938,22.461,39.062,-222.656,27.344,0
1578866681.942,22.949,38.086,-115.234,21.973,0
1578866681.946,34.668,28.320,-61.035,23.926,0
1578866681.950,35.156,32.715,-30.273,35.156,0
1578866681.954,29.785,41.992,13.184,35.645,0
1578866681.971,28.809,39.062,-10.254,36.133,0
1578866681.975,41.992,33.691,-114.746,39.551,0
1578866681.979,47.852,25.391,-45.410,38.574,0
1578866681.983,23.438,22.949,41.504,33.203,0
1578866681.987,20.508,25.879,-147.461,37.598,0
1578866681.991,33.691,25.879,-216.797,41.016,0
1578866681.995,24.902,31.250,-47.363,35.645,0
1578866681.998,23.438,40.527,118.164,30.762,0
1578866682.002,28.320,38.086,142.090,31.738,0
1578866682.006,22.461,31.738,-136.719,24.414,0
1578866682.010,23.438,31.250,-160.156,20.508,0
1578866682.014,23.438,33.203,114.746,29.785,0
1578866682.016,20.996,29.785,34.180,18.555,0
1578866682.020,22.949,31.738,-162.598,0.488,0
1578866682.024,22.461,35.645,-135.254,7.324,0
1578866682.028,27.832,35.645,45.898,14.160,0
1578866682.032,27.344,38.086,-51.758,16.113,0
1578866682.036,22.461,38.574,-334.473,13.672,0
1578866682.040,28.320,34.668,-426.270,16.113,0
1578866682.043,33.691,25.391,-375.000,31.250,0
1578866682.047,26.855,33.203,-333.984,34.180,0
1578866682.051,19.043,33.203,-490.723,35.156,0
1578866682.055,27.344,24.902,-388.672,26.855,0
1578866682.059,39.551,41.992,-169.434,11.230,0
1578866682.062,37.109,47.363,-178.711,12.207,0
1578866682.066,28.320,40.527,-255.371,20.020,0
1578866682.070,27.832,33.691,-261.719,16.602,0
1578866682.074,24.414,27.832,-165.527,26.367,0
1578866682.078,29.297,27.344,-131.836,40.527,0
1578866682.082,30.273,23.926,-250.977,37.109,0
1578866682.086,16.602,23.438,-394.531,24.902,0
1578866682.089,19.043,26.855,-232.910,27.344,0
1578866682.093,31.738,22.949,-262.695,36.621,0
1578866682.097,30.273,22.461,-446.289,31.738,0
1578866682.101,13.672,32.227,-317.871,18.555,0
1578866682.105,15.137,33.691,-221.680,15.625,0
1578866682.106,20.996,25.391,-162.598,22.949,0
1578866682.110,8.301,22.949,-83.984,24.414,0
1578866682.114,11.230,27.832,-104.492,17.578,0
1578866682.118,22.461,31.738,-231.445,22.461,0
1578866682.122,18.555,31.250,-169.922,31.738,0
1578866682.126,20.996,35.645,-176.758,31.250,0
1578866682.130,20.020,35.645,-281.738,17.090,0
1578866682.133,12.207,22.949,-269.531,17.578,0
1578866682.137,21.973,19.531,-406.738,27.832,0
1578866682.141,27.832,29.297,-234.863,14.648,0
1578866682.145,31.250,37.109,-41.016,18.066,0
1578866682.149,32.715,35.645,-214.355,24.414,0
1578866682.151,36.133,30.273,-270.508,20.508,0
1578866682.155,38.574,29.297,-141.602,24.414,0
1578866682.159,32.227,34.180,-63.965,33.203,0
1578866682.163,32.715,31.250,-219.238,29.297,0
1578866682.167,33.691,28.809,-255.859,19.531,0
1578866682.171,34.180,28.320,-165.039,21.484,0
1578866682.175,34.668,25.391,-103.516,30.762,0
1578866682.178,18.555,26.367,-273.926,28.320,0
1578866682.182,15.137,32.227,-428.223,28.320,0
1578866682.186,29.785,31.738,-109.863,40.039,0
1578866682.190,28.320,29.297,31.738,38.086,0
1578866682.194,15.137,32.715,-43.945,30.762,0
1578866682.196,16.602,28.809,-123.047,33.203,0
1578866682.200,30.273,27.832,16.113,41.504,0
1578866682.204,31.738,34.180,94.238,47.852,0
1578866682.208,28.320,37.598,-81.055,41.992,0
1578866682.212,22.461,33.691,-145.996,40.527,0
1578866682.216,27.832,29.785,-61.035,42.969,0
1578866682.220,37.109,31.738,-56.152,36.133,0
1578866682.223,36.133,27.832,-160.645,22.949,0
1578866682.227,37.598,29.297,-112.305,16.602,0
1578866682.231,40.527,35.645,55.176,19.531,0
1578866682.235,41.504,36.133,58.105,20.996,0
1578866682.239,36.133,32.227,11.230,19.531,0
1578866682.241,38.086,35.156,48.340,25.879,0
1578866682.245,39.062,36.133,52.246,26.855,0
1578866682.249,29.785,32.715,17.578,24.902,17100
1578866682.253,24.902,28.809,104.004,24.902,0
1578866682.257,24.414,22.461,232.910,32.715,0
1578866682.261,32.715,20.508,65.430,36.621,0
1578866682.265,42.480,29.297,-111.816,35.156,0
1578866682.268,45.410,35.645,-5.371,49.316,0
1578866682.272,45.898,36.621,239.258,54.688,0
1578866682.276,37.109,34.180,232.910,41.016,0
1578866682.280,39.062,38.086,189.453,23.926,0
1578866682.284,44.434,41.016,244.629,27.344,0
1578866682.286,32.715,35.645,311.035,35.645,0
1578866682.290,32.715,28.809,251.953,32.227,0
1578866682.294,41.016,23.438,163.574,36.621,0
1578866682.298,24.414,26.367,289.062,30.762,0
1578866682.302,15.625,32.715,339.355,34.180,0
1578866682.306,28.809,40.039,138.184,36.621,0
1578866682.310,41.016,41.016,-61.523,28.809,0
1578866682.313,43.945,34.668,152.344,29.785,0
1578866682.317,38.574,29.785,408.203,41.504,0
1578866682.321,34.180,30.762,312.988,40.039,0
1578866682.325,29.297,37.598,195.312,16.602,0
1578866682.329,34.180,36.133,309.570,19.043,0
1578866682.346,43.457,30.762,473.145,34.668,0
1578866682.350,47.852,33.691,431.641,31.250,0
1578866682.354,46.387,33.691,318.848,20.996,0
1578866682.358,42.480,24.902,420.410,19.531,0
1578866682.362,26.855,27.832,469.727,15.137,0
1578866682.366,24.414,37.109,356.445,12.695,0
1578866682.370,25.879,36.133,282.715,12.695,0
1578866682.373,26.367,25.391,320.312,22.949,0
1578866682.377,30.273,20.996,433.105,31.738,0
1578866682.381,24.414,29.297,335.449,37.109,0
1578866682.385,30.762,29.297,212.402,33.691,0
1578866682.389,26.855,30.273,316.406,30.273,0
1578866682.391,31.250,34.180,308.105,31.250,0
1578866682.395,32.227,25.391,282.227,32.227,0
1578866682.399,17.090,18.555,304.199,29.785,0
1578866682.403,22.461,23.438,246.094,29.297,0
1578866682.407,29.297,24.902,277.832,33.203,0
1578866682.411,29.297,22.461,273.926,27.832,0
1578866682.415,17.090,20.508,158.203,14.160,0
1578866682.418,11.230,20.020,133.789,32.715,0
1578866682.422,40.039,23.926,204.102,56.641,0
1578866682.426,47.363,31.250,145.020,36.621,0
1578866682.430,21.973,31.250,261.719,23.926,0
1578866682.434,19.531,28.320,359.375,18.555,0
1578866682.436,35.645,26.855,225.098,7.812,0
1578866682.440,43.457,24.902,270.996,15.625,0
1578866682.444,29.785,26.367,394.043,20.020,0
1578866682.448,12.695,22.949,291.504,14.160,0
1578866682.452,3.418,14.160,79.590,9.766,0
1578866682.456,16.602,20.996,55.664,15.137,0
1578866682.460,23.438,28.320,47.852,18.555,0
1578866682.463,23.926,28.320,119.629,22.461,0
1578866682.467,30.762,33.203,5.859,19.043,0
1578866682.471,33.203,30.273,-48.340,17.090,0
1578866682.475,29.297,26.367,246.094,20.508,0
1578866682.479,29.785,24.414,270.508,28.320,0
1578866682.481,37.598,20.996,116.699,41.992,0
1578866682.485,44.922,19.531,110.352,37.598,0
1578866682.489,55.176,23.438,277.344,35.645,0
1578866682.493,43.945,34.668,282.715,36.621,0
1578866682.497,48.828,36.133,139.160,25.879,0
1578866682.501,47.852,39.062,10.742,23.438,0
1578866682.505,39.062,40.039,39.062,30.273,0
1578866682.508,32.715,37.598,118.164,37.598,0
1578866682.512,22.949,31.250,-2.930,37.109,0
1578866682.516,32.715,19.043,14.160,38.574,0
1578866682.520,32.715,19.043,208.984,34.180,0
1578866682.524,39.551,21.973,208.008,46.875,0
1578866682.526,30.762,18.555,177.734,69.336,0
1578866682.530,30.273,29.785,268.555,78.125,0
1578866682.534,45.898,43.945,317.871,48.828,0
1578866682.538,38.574,46.875,257.812,-11.719,0
1578866682.542,42.969,39.551,227.539,-11.230,0
1578866682.546,41.504,28.320,137.695,13.672,0
1578866682.550,23.438,25.391,100.586,18.066,0
1578866682.553,29.785,25.879,41.992,26.367,0
1578866682.557,32.227,20.020,-10.254,34.668,0
1578866682.561,30.762,22.461,129.395,39.062,0
1578866682.565,35.645,37.598,43.945,38.086,0
1578866682.569,33.203,36.133,97.168,28.320,0
1578866682.571,38.574,35.645,176.270,20.020,0
1578866682.575,38.574,42.969,107.422,9.766,0
1578866682.579,39.551,39.551,-41.992,19.043,0
1578866682.583,60.059,32.227,-105.469,36.133,0
1578866682.587,55.664,29.785,-8.301,50.293,0
1578866682.591,43.457,35.156,-36.133,48.828,0
1578866682.595,32.715,36.133,-227.539,34.180,0
1578866682.598,44.434,32.715,-331.055,34.180,0
1578866682.602,49.316,33.203,-102.051,51.270,0
1578866682.606,29.297,34.668,66.406,51.270,0
1578866682.610,29.785,30.273,-95.703,48.340,0
1578866682.614,27.832,34.668,-139.648,41.016,0
1578866682.616,28.809,36.621,-39.062,21.973,0
1578866682.620,29.297,35.645,-20.020,36.621,0
1578866682.624,27.832,38.574,-60.059,56.152,0
1578866682.628,27.832,39.062,-129.395,48.340,0
1578866682.632,32.715,33.691,10.254,44.434,0
1578866682.636,30.273,28.809,20.508,54.199,0
1578866682.640,20.508,30.273,-197.754,42.969,0
1578866682.643,15.137,32.715,-293.945,22.949,0
1578866682.647,33.691,33.203,-57.129,23.438,0
1578866682.651,50.781,32.227,115.234,3.906,0
1578866682.655,43.945,27.344,-17.090,-5.371,0
1578866682.659,37.598,31.250,-139.648,13.672,0
1578866682.661,41.504,31.738,-102.539,27.344,0
1578866682.665,41.504,35.156,-33.691,39.551,0
1578866682.669,39.551,35.645,-56.152,46.875,0
1578866682.673,36.621,27.832,-116.699,43.457,0
1578866682.677,50.781,33.691,-126.953,44.434,0
1578866682.681,41.504,38.574,-140.137,49.805,0
1578866682.685,22.949,35.156,-256.836,45.410,0
1578866682.688,26.367,31.250,-128.906,45.410,0
1578866682.692,20.020,36.133,5.371,34.668,0
1578866682.696,22.949,35.156,-65.918,28.320,0
1578866682.700,30.762,33.691,-11.230,34.668,0
1578866682.704,34.668,31.738,78.613,37.598,0
1578866682.721,34.668,31.250,-6.836,36.621,0
1578866682.725,36.133,37.109,-92.773,40.039,0
1578866682.729,38.574,39.062,-12.695,55.176,0
1578866682.733,39.062,40.039,56.152,49.316,0
1578866682.737,45.898,35.645,-96.680,41.504,0
1578866682.741,33.691,26.367,-306.641,40.527,0
1578866682.745,36.133,31.250,-284.180,45.410,0
1578866682.748,37.598,36.133,-169.922,20.020,0
1578866682.752,33.691,27.832,-62.988,9.277,0
1578866682.756,35.156,36.133,-234.863,33.691,0
1578866682.760,36.621,43.457,-260.254,36.621,0
1578866682.764,31.250,37.109,-37.598,30.762,0
1578866682.767,21.484,35.645,-62.012,28.809,0
1578866682.771,23.438,45.410,-164.551,27.832,0
1578866682.775,31.250,43.457,-112.793,33.203,0
1578866682.779,29.297,28.809,-1.953,38.574,0
1578866682.783,17.090,23.438,22.949,36.133,0
1578866682.787,21.973,22.461,-130.859,27.832,0
1578866682.791,26.855,22.949,-223.633,21.973,0
1578866682.794,28.320,35.156,-9.766,25.879,0
1578866682.798,27.344,43.457,18.066,29.785,0
1578866682.802,28.809,44.922,-281.738,21.484,0
1578866682.806,39.062,36.133,-233.398,18.555,0
1578866682.810,48.340,36.133,-17.578,31.738,0
1578866682.811,39.551,40.039,-61.035,37.109,0
1578866682.815,25.879,36.621,-103.027,39.062,0
1578866682.819,21.484,32.227,-97.168,38.086,0
1578866682.823,29.297,29.785,-57.129,38.574,0
1578866682.827,43.457,31.738,-43.945,33.691,0
1578866682.831,35.645,39.062,-171.875,29.785,0
1578866682.835,28.809,41.504,-230.469,26.367,0
1578866682.838,36.133,33.691,-125.488,20.508,0
1578866682.842,37.598,38.086,-219.238,27.344,0
1578866682.846,32.227,39.551,-266.602,25.391,0
1578866682.850,28.320,34.180,-86.426,17.578,0
1578866682.854,27.832,38.086,-59.082,11.230,0
1578866682.856,32.227,40.527,-129.883,20.508,0
1578866682.860,29.297,33.691,-101.562,31.250,0
1578866682.864,24.414,25.391,-6.836,37.598,0
1578866682.868,21.484,27.344,-107.422,30.273,0
1578866682.872,27.832,29.297,-99.121,18.555,0
1578866682.876,37.598,26.855,-84.961,20.508,0
1578866682.880,32.227,33.203,-149.414,24.414,0
1578866682.883,35.645,40.527,-178.223,27.344,0
1578866682.887,36.133,38.086,-247.070,25.879,0
1578866682.891,25.879,31.738,-104.004,21.973,0
1578866682.895,28.320,31.250,110.840,28.809,0
1578866682.899,22.949,27.832,-9.766,30.762,0
1578866682.901,17.090,25.391,-67.383,28.809,0
1578866682.905,25.879,32.227,117.188,45.410,0
1578866682.909,20.020,28.809,134.766,53.711,0
1578866682.913,12.695,23.438,-55.176,41.992,0
1578866682.917,25.391,27.832,-105.957,36.133,0
1578866682.921,33.691,38.086,16.602,29.297,0
1578866682.925,29.785,37.598,51.270,9.277,0
1578866682.928,32.227,37.109,-166.016,1.465,0
1578866682.932,38.574,32.227,-287.109,8.789,0
1578866682.936,41.504,26.367,27.832,16.113,0
1578866682.940,40.039,24.902,129.395,23.438,0
1578866682.944,33.203,34.180,52.246,28.320,0
1578866682.946,25.391,32.715,-13.184,23.438,0
1578866682.950,31.250,30.762,70.801,27.344,0
1578866682.954,32.715,40.039,124.512,36.133,0
1578866682.958,20.996,35.156,49.805,33.691,0
1578866682.962,15.625,32.227,14.648,24.902,0
1578866682.966,19.531,43.945,14.648,27.344,0
1578866682.970,25.879,37.598,-38.086,31.738,0
1578866682.973,21.484,23.926,-166.504,22.949,0
1578866682.977,12.695,33.691,-74.219,18.066,0
1578866682.981,18.555,34.668,66.895,21.484,0
1578866682.985,25.391,30.273,111.328,31.738,0
1578866682.989,24.902,29.785,120.605,34.180,0
1578866682.991,28.320,25.391,98.145,22.949,0
1578866682.995,24.902,18.555,78.613,20.508,0
1578866682.999,27.344,25.391,37.109,28.320,0
1578866683.003,34.668,35.645,116.211,29.785,0
1578866683.007,28.320,38.574,187.012,23.926,0
1578866683.011,25.391,42.480,53.711,12.695,0
1578866683.015,39.551,38.086,-124.512,16.113,0
1578866683.018,41.504,36.621,-133.789,28.320,0
1578866683.022,25.879,35.156,89.844,26.855,0
1578866683.026,20.508,32.227,4.395,20.508,0
1578866683.030,32.715,27.832,-131.348,24.414,0
1578866683.034,31.250,24.414,43.457,25.391,0
1578866683.051,22.461,32.715,187.988,30.273,0
1578866683.055,31.250,41.504,80.566,29.297,0
1578866683.059,21.973,32.715,-80.078,18.555,0
1578866683.063,17.578,20.508,-13.184,15.625,0
1578866683.067,18.066,22.461,59.570,14.648,0
1578866683.071,10.254,24.414,-71.289,22.461,0
1578866683.075,16.602,33.691,-362.793,24.414,0
1578866683.078,25.879,30.273,-232.910,28.320,0
1578866683.082,37.598,25.391,39.062,47.363,0
1578866683.086,41.992,31.250,-40.527,40.527,0
1578866683.090,25.879,28.320,-195.312,26.367,0
1578866683.094,15.137,25.879,-87.891,32.227,0
1578866683.097,29.297,24.902,-43.945,30.762,0
1578866683.101,41.992,29.785,-159.180,16.602,0
1578866683.105,35.156,38.574,-212.891,16.113,0
1578866683.109,24.902,33.691,-243.164,19.043,0
1578866683.113,30.273,28.809,-122.559,26.855,0
1578866683.117,38.086,29.297,-122.070,35.645,0
1578866683.121,30.762,28.809,-264.160,27.832,0
1578866683.124,29.785,28.320,-290.527,26.855,0
1578866683.128,42.969,29.297,-160.156,26.367,0
1578866683.132,51.758,28.320,-239.258,26.855,0
1578866683.136,45.410,26.367,-325.684,28.809,0
1578866683.140,27.832,25.391,-186.523,27.344,0
1578866683.141,16.113,28.809,-150.879,26.855,0
1578866683.145,25.879,32.715,-111.816,28.320,0
1578866683.149,21.973,27.832,-20.996,23.926,0
1578866683.153,17.090,29.785,-62.988,23.438,0
1578866683.157,29.297,28.809,-97.656,28.320,0
1578866683.161,34.668,28.320,-94.727,36.621,0
1578866683.165,38.574,41.504,-75.684,46.387,0
1578866683.168,34.668,38.086,62.500,29.297,0
1578866683.172,22.461,29.785,-8.301,20.020,0
1578866683.176,33.691,26.855,-89.844,35.645,0
1578866683.180,43.945,26.367,48.340,32.715,0
1578866683.184,36.621,32.227,106.934,28.809,0
1578866683.186,25.879,25.879,73.730,33.691,0
1578866683.190,34.180,29.297,146.484,35.645,0
1578866683.194,41.504,36.621,282.227,39.551,0
1578866683.198,35.645,28.320,340.332,42.480,0
1578866683.202,21.484,30.762,232.910,36.621,0
1578866683.206,27.832,35.645,108.398,40.527,0
1578866683.210,30.762,36.133,184.570,44.922,0
1578866683.213,23.438,34.668,302.246,55.176,0
1578866683.217,20.996,33.203,134.277,45.410,0
1578866683.221,6.836,25.879,68.359,34.180,0
1578866683.225,15.625,19.043,351.562,30.762,0
1578866683.229,25.391,34.180,368.652,0.000,0
1578866683.231,22.461,43.945,228.516,-8.789,0
1578866683.235,26.855,33.203,158.203,9.277,0
1578866683.239,41.016,30.762,205.566,20.508,0
1578866683.243,37.109,33.203,243.652,19.531,0
1578866683.247,30.273,26.855,207.520,20.508,0
1578866683.251,21.973,26.367,85.449,13.184,0
1578866683.255,30.273,30.273,166.992,15.625,0
1578866683.258,38.574,29.785,276.367,29.297,0
1578866683.262,37.598,28.320,77.637,33.203,0
1578866683.266,25.879,25.391,8.301,20.996,0
1578866683.270,8.301,22.949,266.602,14.160,0
1578866683.274,22.949,29.297,383.301,23.438,0
1578866683.276,19.531,35.645,324.219,27.344,0
1578866683.280,14.160,37.598,341.309,24.414,0
1578866683.284,24.414,27.832,335.449,18.555,0
1578866683.288,16.113,21.973,297.363,12.695,0
1578866683.292,13.672,26.367,312.500,20.508,0
1578866683.296,19.531,32.715,188.477,38.086,0
1578866683.300,19.531,33.203,108.398,40.527,0
1578866683.303,24.414,21.973,99.609,45.410,0
1578866683.307,50.293,31.738,14.648,35.645,0
1578866683.311,63.965,43.457,172.852,10.742,0
1578866683.315,58.105,32.715,117.676,23.926,0
1578866683.319,51.270,29.297,64.453,29.785,0
1578866683.321,39.551,39.062,109.375,30.762,0
1578866683.325,25.391,38.086,134.277,39.062,0
1578866683.329,25.391,32.715,68.359,31.250,0
1578866683.333,39.551,34.668,27.832,30.273,0
1578866683.337,53.711,23.926,171.387,41.016,0
1578866683.341,39.551,22.949,164.551,36.133,0
1578866683.345,25.391,35.645,-1.465,29.785,0
1578866683.348,35.156,33.203,-161.621,32.715,0
1578866683.352,31.250,19.531,24.902,26.367,0
1578866683.356,17.090,33.203,271.973,16.113,0
1578866683.360,16.602,46.387,137.695,13.672,0
1578866683.364,14.648,34.668,16.113,13.184,0
1578866683.366,21.484,27.832,184.082,23.926,0
1578866683.370,18.066,30.762,300.293,23.438,0
1578866683.374,2.441,31.738,184.570,32.715,0
1578866683.378,5.859,29.785,13.184,50.781,0
1578866683.382,17.090,30.762,114.746,33.203,0
1578866683.386,30.762,38.086,166.504,24.414,17161
1578866683.390,39.551,42.969,-86.426,-3.418,0
1578866683.393,37.109,44.922,-254.883,-27.832,0
1578866683.397,35.645,41.504,-39.062,-12.695,0
1578866683.401,37.109,31.738,132.812,-0.488,0
1578866683.405,43.457,35.645,94.727,11.230,0
1578866683.409,45.898,35.645,-0.488,18.066,0
1578866683.411,51.270,30.762,-8.789,27.344,0
1578866683.415,57.617,19.531,76.660,39.551,0
1578866683.419,31.738,17.578,61.035,38.574,0
1578866683.423,9.277,34.668,37.109,27.832,0
1578866683.427,18.066,35.645,42.969,35.156,0
1578866683.431,28.809,29.297,-32.715,44.434,0
1578866683.435,29.297,31.250,-175.293,51.270,0
1578866683.438,30.273,35.645,-77.637,65.430,0
1578866683.442,35.645,32.715,51.758,65.430,0
1578866683.446,29.297,23.438,-5.859,38.574,0
1578866683.450,28.809,26.367,67.383,15.137,0
1578866683.454,31.250,26.855,133.789,15.625,0
1578866683.471,35.645,18.066,41.016,14.648,0
1578866683.475,42.480,29.297,-46.387,14.160,0
1578866683.479,27.832,35.156,-37.598,20.020,0
1578866683.483,21.484,32.715,112.305,40.527,0
1578866683.487,28.809,38.086,66.406,47.852,0
1578866683.491,31.250,42.969,-208.496,28.809,0
1578866683.495,40.039,37.598,-210.938,15.137,0
1578866683.498,43.457,32.227,12.695,4.883,0
1578866683.502,37.598,31.250,81.543,3.906,0
1578866683.506,31.250,27.832,-208.496,14.648,0
1578866683.510,34.180,30.762,-209.473,25.391,0
1578866683.514,41.504,35.156,67.871,29.785,0
1578866683.516,37.109,40.527,50.293,33.691,0
1578866683.520,34.180,42.969,-29.297,37.109,0
1578866683.524,34.668,34.180,-26.855,49.316,0
1578866683.528,43.457,24.414,37.598,40.039,0
1578866683.532,36.133,28.809,49.316,21.973,0
1578866683.536,16.113,42.480,-97.168,18.066,0
1578866683.540,18.066,37.598,-156.738,8.789,0
1578866683.543,31.250,27.344,20.020,12.695,0
1578866683.547,29.297,28.809,45.898,22.461,0
1578866683.551,21.484,31.738,-206.055,20.508,0
1578866683.555,27.344,37.109,-220.703,13.672,0
1578866683.559,35.645,33.203,-22.949,31.250,0
1578866683.561,26.855,31.738,-80.078,47.852,0
1578866683.565,18.555,34.180,-130.371,28.809,0
1578866683.569,26.855,34.180,-130.371,24.414,0
1578866683.573,50.293,30.273,-51.758,38.086,0
1578866683.577,58.105,33.203,-23.926,46.387,0
1578866683.581,58.105,35.156,-178.223,57.129,0
1578866683.585,45.898,27.832,-275.879,48.828,0
1578866683.588,23.438,25.391,-149.414,28.809,0
1578866683.592,31.738,26.367,-126.465,33.203,0
1578866683.596,44.434,29.297,-190.430,36.621,0
1578866683.600,44.434,31.738,-51.758,45.410,0
1578866683.604,33.691,31.738,-123.535,44.434,0
1578866683.606,28.320,23.926,-76.660,36.621,0
1578866683.610,28.809,16.602,58.105,46.875,0
1578866683.614,17.090,26.367,50.781,47.852,0
1578866683.618,10.254,31.250,-146.484,40.527,0
1578866683.622,16.113,25.391,-131.836,42.480,0
1578866683.626,20.020,25.879,-5.859,40.527,0
1578866683.630,20.508,36.621,-62.500,20.996,0
1578866683.633,24.414,38.574,-155.273,8.301,0
1578866683.637,26.855,33.203,-312.012,1.953,0
1578866683.641,29.297,26.855,-125.977,10.254,0
1578866683.645,22.461,23.438,60.059,22.461,0
1578866683.649,21.973,28.320,-145.508,18.066,0
1578866683.651,34.180,25.879,-199.219,19.043,0
1578866683.655,40.527,28.809,-0.977,25.391,0
1578866683.659,37.109,33.203,33.203,22.461,0
1578866683.663,23.926,33.691,-127.441,21.973,0
1578866683.667,30.273,34.668,-197.266,18.066,0
1578866683.671,38.574,36.621,-136.719,18.555,0
1578866683.675,25.879,34.180,-174.316,20.020,0
1578866683.678,20.020,28.320,-279.785,19.043,0
1578866683.682,28.320,25.391,-340.820,30.273,0
1578866683.686,38.574,26.855,-69.824,39.062,0
1578866683.690,44.434,29.297,83.984,47.852,0
1578866683.694,44.922,39.062,-14.160,53.223,0
1578866683.696,41.504,45.410,-71.777,40.527,0
1578866683.700,37.598,39.062,11.719,27.344,0
1578866683.704,33.203,34.668,79.590,36.621,0
1578866683.708,38.574,30.762,39.062,50.293,0
1578866683.712,41.992,21.484,-24.902,58.594,0
1578866683.716,38.574,28.809,-114.746,62.500,0
1578866683.720,40.039,37.598,-125.977,54.688,0
1578866683.723,37.598,37.598,-120.605,42.969,0
1578866683.727,37.598,42.969,-75.684,19.531,0
1578866683.731,39.551,42.969,-77.637,0.000,0
1578866683.735,39.062,34.180,-70.312,11.230,0
1578866683.739,33.203,24.414,16.113,29.785,0
1578866683.741,35.156,24.902,92.773,29.297,0
1578866683.745,35.156,24.414,41.504,30.273,0
1578866683.749,31.250,22.949,4.883,46.875,0
1578866683.753,37.109,28.320,53.223,48.340,0
1578866683.757,35.156,40.527,114.258,33.691,0
1578866683.761,22.461,43.945,-16.113,31.250,0
1578866683.765,20.020,32.715,-258.301,25.879,0
1578866683.768,33.203,27.832,-239.746,22.461,0
1578866683.772,35.156,24.902,21.484,24.902,0
1578866683.776,35.645,22.949,3.906,24.902,0
1578866683.780,35.156,25.391,-67.871,26.367,0
1578866683.784,33.691,28.809,41.992,23.926,0
1578866683.786,20.996,30.273,58.594,26.855,0
1578866683.790,18.555,29.785,37.598,34.180,0
1578866683.794,19.043,32.227,-54.199,26.367,0
1578866683.798,24.902,31.738,49.316,23.926,0
1578866683.802,32.715,30.762,189.453,28.809,0
1578866683.806,27.344,28.809,54.688,32.715,0
1578866683.810,26.855,27.344,-213.379,35.645,0
1578866683.813,33.203,23.926,-109.863,38.574,0
1578866683.817,39.062,23.438,188.965,44.434,0
1578866683.821,34.668,33.203,151.855,47.363,0
1578866683.825,28.809,37.598,-6.836,40.527,0
1578866683.829,31.738,36.133,7.812,26.855,0
1578866683.846,34.180,31.250,162.109,24.902,0
1578866683.850,34.180,33.203,150.879,29.785,0
1578866683.854,27.832,37.109,42.969,23.438,0
1578866683.858,27.832,30.273,7.812,8.789,0
1578866683.862,33.203,29.785,94.238,14.648,0
1578866683.866,22.949,28.320,54.688,30.273,0
1578866683.870,18.555,16.113,-4.395,32.715,0
1578866683.873,16.602,26.855,19.531,27.344,0
1578866683.877,21.484,35.645,119.629,20.508,0
1578866683.881,26.855,36.621,66.406,23.926,0
1578866683.885,20.020,39.551,-2.441,21.973,0
1578866683.889,13.184,35.645,104.004,11.719,0
1578866683.891,19.043,36.133,79.590,20.996,0
1578866683.895,24.414,34.180,91.797,29.297,0
1578866683.899,27.832,27.344,169.434,25.879,0
1578866683.903,26.855,18.066,108.398,20.508,0
1578866683.907,25.391,24.414,19.531,18.555,0
1578866683.911,38.574,39.062,3.906,28.809,0
1578866683.915,32.227,33.203,-101.074,26.367,0
1578866683.918,15.137,22.949,-121.094,36.621,0
1578866683.922,22.949,28.320,-146.484,59.082,0
1578866683.926,27.344,32.715,-239.258,38.086,0
1578866683.930,24.902,29.297,-32.715,22.949,0
1578866683.934,30.762,32.227,90.820,24.414,0
1578866683.936,34.668,35.645,-97.656,0.488,0
1578866683.940,31.738,28.320,-146.973,2.930,0
1578866683.944,32.227,21.973,-55.176,21.484,0
1578866683.948,24.902,25.391,-49.316,21.973,0
1578866683.952,27.832,28.809,-212.891,20.508,0
1578866683.956,36.621,34.180,-367.676,18.066,0
1578866683.960,35.645,38.086,-334.961,18.555,0
1578866683.963,34.668,28.320,-144.043,23.926,0
1578866683.967,27.344,29.297,-338.867,29.297,0
1578866683.971,22.461,39.062,-516.113,31.738,0
1578866683.975,20.020,32.715,-154.785,32.715,0
1578866683.979,29.297,27.344,-0.977,43.945,0
1578866683.982,28.320,29.297,-74.707,40.039,0
1578866683.986,22.949,33.691,-169.434,27.344,0
1578866683.990,30.273,28.809,-95.215,29.297,0
1578866683.994,24.902,22.461,-19.531,24.414,0
1578866683.998,26.367,31.738,-66.895,23.926,0
1578866684.002,31.250,39.062,-230.469,27.344,0
1578866684.006,24.414,37.109,-241.211,20.020,0
1578866684.009,26.855,36.133,-106.445,20.508,0
1578866684.013,29.785,33.203,-201.660,25.879,0
1578866684.017,21.484,28.320,-168.945,29.297,0
1578866684.021,22.949,27.344,-26.367,36.621,0
1578866684.025,33.691,24.414,-58.105,40.039,0
1578866684.026,32.227,30.273,-63.477,28.320,0
1578866684.030,34.180,32.227,-16.602,12.207,0
1578866684.034,30.762,24.414,-5.859,6.836,0
1578866684.038,26.367,24.414,3.418,23.438,0
1578866684.042,27.832,35.645,25.879,34.668,0
1578866684.046,29.297,33.203,-42.969,21.973,0
1578866684.050,33.691,23.926,-88.867,20.508,0
1578866684.053,33.203,25.879,-114.258,17.578,0
1578866684.057,27.344,28.809,-128.418,15.137,0
1578866684.061,26.367,23.926,120.117,25.879,0
1578866684.065,25.391,23.438,96.680,30.273,0
1578866684.069,26.367,29.297,79.102,20.020,0
1578866684.071,30.762,33.203,184.570,16.113,0
1578866684.075,25.391,28.320,231.445,29.297,0
1578866684.079,15.625,26.367,108.887,23.926,0
1578866684.083,17.090,20.508,-0.488,20.996,0
1578866684.087,24.902,18.555,186.523,29.785,0
1578866684.091,16.113,31.738,200.684,25.879,0
1578866684.095,8.301,39.551,84.473,22.461,0
1578866684.098,20.020,36.133,-68.359,32.715,0
1578866684.102,26.855,28.320,155.762,43.457,0
1578866684.106,33.691,30.273,407.715,31.250,0
1578866684.110,34.668,32.227,293.457,19.043,0
1578866684.114,37.598,23.438,214.844,22.461,0
1578866684.116,44.434,26.855,300.781,27.344,0
1578866684.120,34.180,36.621,437.500,20.996,0
1578866684.124,22.461,33.691,336.426,20.508,0
1578866684.128,23.438,28.320,196.289,6.836,0
1578866684.132,34.668,25.879,274.902,-8.789,0
1578866684.136,45.898,30.273,290.527,-0.488,0
1578866684.140,37.598,23.926,145.996,10.254,0
1578866684.143,26.855,16.113,74.219,15.137,0
1578866684.147,21.484,20.020,230.957,16.602,0
1578866684.151,24.414,21.484,356.445,15.625,0
1578866684.155,24.902,25.391,311.523,19.531,0
1578866684.159,10.742,29.297,255.859,13.184,0
1578866684.161,14.648,30.762,247.559,18.066,0
1578866684.165,16.113,24.902,342.285,29.297,0
1578866684.169,10.254,20.508,335.938,23.438,0
1578866684.173,11.719,23.438,276.367,16.602,0
1578866684.177,14.160,21.484,285.156,11.719,0
1578866684.181,23.438,21.484,181.641,18.066,0
1578866684.185,18.555,29.785,14.160,20.508,0
1578866684.188,16.113,29.785,190.430,20.508,0
1578866684.192,19.531,21.484,263.672,37.109,0
1578866684.196,24.414,26.855,100.098,51.270,0
1578866684.200,28.809,32.715,248.047,39.062,0
1578866684.204,36.133,24.902,396.484,30.273,0
1578866684.222,25.879,23.438,352.539,15.625,0
1578866684.226,12.207,21.973,178.711,-4.395,0
1578866684.230,16.113,25.391,217.285,16.602,0
1578866684.234,13.184,29.785,323.730,43.945,0
1578866684.238,13.672,32.715,303.711,29.785,0
1578866684.242,31.250,33.203,97.168,13.184,0
1578866684.246,40.039,27.344,-53.223,16.602,0
1578866684.249,23.926,34.180,41.992,18.066,0
1578866684.253,28.809,38.086,174.805,24.902,0
1578866684.257,30.273,24.414,-97.656,21.973,0
1578866684.261,36.133,20.996,-166.992,18.066,0
1578866684.265,41.992,23.926,46.875,20.020,0
1578866684.266,35.645,23.438,-34.180,28.320,0
1578866684.270,31.250,27.344,-100.098,26.367,0
1578866684.274,31.738,32.715,-111.816,11.719,0
1578866684.278,37.598,37.598,-41.504,19.531,0
1578866684.282,36.133,31.738,-2.441,34.668,0
1578866684.286,28.809,25.391,-159.180,33.691,0
1578866684.290,15.625,24.902,-310.547,23.438,0
1578866684.293,24.414,29.297,-99.609,38.574,0
1578866684.297,25.391,36.621,-6.348,39.551,0
1578866684.301,10.254,37.109,-207.520,27.832,0
1578866684.305,16.113,33.203,-166.016,12.207,0
1578866684.309,30.762,31.738,31.738,3.418,0
1578866684.311,41.504,28.809,29.297,21.484,0
1578866684.315,26.855,20.996,65.430,29.785,0
1578866684.319,26.367,20.508,43.457,28.320,0
1578866684.323,39.062,33.203,-41.504,43.945,0
1578866684.327,29.297,40.039,38.574,54.199,0
1578866684.331,27.344,42.969,-32.227,42.969,0
1578866684.335,24.414,44.922,-147.949,16.113,0
1578866684.338,23.926,39.062,-47.852,6.836,0
1578866684.342,40.527,37.109,-58.105,24.902,0
1578866684.346,40.527,35.156,-125.977,27.344,0
1578866684.350,36.133,29.297,89.355,34.668,0
1578866684.354,35.156,31.250,42.969,42.969,0
1578866684.356,44.922,31.738,-7.324,43.945,0
1578866684.360,49.316,27.832,148.438,38.574,0
1578866684.364,41.504,27.344,168.457,34.180,0
1578866684.368,33.691,31.738,12.695,30.273,0
1578866684.372,42.480,37.598,-23.926,21.973,0
1578866684.376,53.223,41.016,-15.137,36.621,0
1578866684.380,45.410,34.180,-91.309,45.898,0
1578866684.383,38.574,33.203,-175.781,38.574,0
1578866684.387,36.133,38.086,-298.828,21.484,0
1578866684.391,40.527,36.133,-148.438,21.973,0
1578866684.395,41.504,33.691,45.898,40.039,0
1578866684.399,30.273,29.785,-77.637,44.434,0
1578866684.401,29.297,28.809,-174.316,44.434,0
1578866684.405,33.691,25.879,-4.883,34.180,0
1578866684.409,27.832,27.832,98.145,23.926,0
1578866684.413,21.484,37.109,-31.250,36.621,0
1578866684.417,20.020,37.109,-152.344,29.785,0
1578866684.421,30.273,34.180,-163.086,17.578,0
1578866684.425,22.461,36.133,-79.102,13.184,0
1578866684.428,14.648,35.645,-144.043,17.578,0
1578866684.432,13.672,32.227,-337.402,18.066,0
1578866684.436,17.090,32.227,-185.059,13.672,0
1578866684.440,25.391,23.926,-23.926,26.367,0
1578866684.444,28.809,18.555,-61.035,32.227,0
1578866684.446,29.785,24.414,-89.844,32.227,0
1578866684.450,26.367,32.715,-5.371,20.020,0
1578866684.454,30.273,39.062,22.949,30.273,0
1578866684.458,42.480,39.551,-30.273,54.688,0
1578866684.462,47.363,41.504,-15.625,47.363,0
1578866684.466,36.621,42.480,-83.984,39.551,0
1578866684.470,47.852,39.551,-173.828,32.227,0
1578866684.473,50.781,31.738,-295.410,30.762,0
1578866684.477,41.992,28.809,-225.098,31.250,0
1578866684.481,45.898,34.668,-84.473,25.879,0
1578866684.485,38.574,30.762,-53.711,42.480,0
1578866684.489,41.504,29.297,-81.055,51.758,0
1578866684.491,45.898,35.156,-94.727,36.133,0
1578866684.495,39.551,30.762,-56.641,35.645,0
1578866684.499,44.434,31.738,-104.004,42.480,0
1578866684.503,46.387,32.227,-65.430,50.293,0
1578866684.507,41.992,34.668,-24.902,49.316,0
1578866684.511,44.922,37.109,-157.715,43.457,0
1578866684.515,42.969,33.203,-342.773,50.293,0
1578866684.518,38.574,32.715,-309.570,53.711,0
1578866684.522,36.621,29.785,-97.168,53.223,0
1578866684.526,29.297,32.227,-68.359,37.109,0
1578866684.530,25.391,33.203,-159.668,26.367,0
1578866684.534,33.691,25.391,-104.492,34.180,0
1578866684.536,26.367,20.020,17.090,29.785,0
1578866684.540,21.973,23.926,3.418,28.809,0
1578866684.544,25.391,34.668,-215.332,34.668,0
1578866684.548,24.902,34.668,-228.027,37.109,17038
1578866684.552,27.344,34.180,-4.395,26.855,0
1578866684.556,25.391,36.133,-121.094,24.902,0
1578866684.560,20.020,31.738,-397.461,16.602,0
1578866684.563,22.461,19.043,-300.781,1.465,0
1578866684.567,34.668,19.531,-17.578,24.414,0
1578866684.571,33.691,33.203,-56.641,32.715,0
1578866684.575,23.926,34.668,-138.184,20.020,0
1578866684.579,24.414,35.156,-66.895,21.484,0
1578866684.596,28.809,29.785,17.090,28.320,0
1578866684.600,20.020,30.273,-45.410,31.250,0
1578866684.604,23.438,36.133,-93.750,25.879,0
1578866684.608,28.809,36.621,-111.328,21.973,0
1578866684.612,31.250,36.133,-35.645,26.855,0
1578866684.616,28.809,25.879,-51.758,31.738,0
1578866684.620,20.508,19.043,-205.566,25.391,0
1578866684.623,24.414,30.762,-196.289,21.973,0
1578866684.627,36.133,30.273,-33.203,35.645,0
1578866684.631,46.387,23.438,-92.773,44.922,0
1578866684.635,30.273,35.645,-150.879,44.434,0
1578866684.639,27.832,35.156,-27.344,38.086,0
