timestamps,TP9,AF7,AF8,TP10,Marker0
1578866519.926,-118.164,62.012,-22.949,-126.465,0
1578866519.930,-113.281,60.059,-35.645,-133.301,0
1578866519.934,-109.375,56.152,-137.695,-127.930,0
1578866519.938,-102.051,48.828,-47.852,-115.234,0
1578866519.942,-98.145,51.270,66.895,-115.723,0
1578866519.946,-104.004,56.152,-69.336,-114.258,0
1578866519.950,-98.145,46.387,-343.750,-107.422,0
1578866519.953,-83.008,50.781,-240.234,-100.586,0
1578866519.957,-78.613,53.711,77.148,-78.613,0
1578866519.961,-72.754,45.898,52.246,-64.453,0
1578866519.965,-66.895,45.898,-134.277,-75.684,0
1578866519.969,-53.223,40.039,-22.461,-78.613,0
1578866519.986,-37.109,38.574,115.234,-60.059,0
1578866519.990,-26.855,41.504,26.855,-39.062,0
1578866519.994,-23.438,37.598,-110.840,-41.016,0
1578866519.998,-19.531,37.598,10.742,-37.598,0
1578866520.002,-8.789,31.250,114.746,-16.113,0
1578866520.006,5.371,23.438,-34.668,-0.977,0
1578866520.010,20.508,28.320,-134.766,4.395,0
1578866520.013,29.785,32.715,-65.430,13.672,0
1578866520.017,41.016,22.949,96.680,26.855,0
1578866520.021,45.410,15.137,-28.320,36.133,0
1578866520.025,44.922,21.973,-133.789,49.316,0
1578866520.029,61.035,20.020,-3.906,58.594,0
1578866520.031,68.848,11.230,34.180,64.941,0
1578866520.035,73.242,16.602,10.254,68.848,0
1578866520.039,80.078,22.461,-3.906,70.312,0
1578866520.043,69.336,22.461,-26.855,64.453,0
1578866520.047,63.477,22.461,26.367,61.035,0
1578866520.051,61.523,25.391,-6.836,67.383,0
1578866520.055,50.293,25.879,-77.637,62.012,0
1578866520.058,36.133,22.949,-62.988,48.828,0
1578866520.062,35.645,21.973,-105.957,40.039,0
1578866520.066,27.832,27.344,-187.012,28.809,0
1578866520.070,11.719,26.367,-57.617,21.973,0
1578866520.074,0.000,27.344,44.434,11.230,0
1578866520.076,-9.277,38.086,-87.891,-0.977,0
1578866520.080,-14.648,46.387,-108.887,-16.602,0
1578866520.084,-29.785,45.410,51.758,-26.855,0
1578866520.088,-40.039,36.133,78.125,-31.250,0
1578866520.092,-43.457,40.527,-51.270,-41.016,0
1578866520.096,-49.316,50.293,-125.488,-53.223,0
1578866520.100,-58.594,54.688,-85.938,-71.289,0
1578866520.103,-60.059,53.223,60.547,-77.148,0
1578866520.107,-58.594,40.527,-87.891,-75.684,0
1578866520.111,-58.594,43.945,-215.820,-73.242,0
1578866520.115,-52.246,51.758,82.520,-80.566,0
1578866520.119,-60.547,46.875,176.270,-87.402,0
1578866520.121,-67.383,44.434,59.082,-89.844,0
1578866520.125,-48.828,46.387,54.688,-73.730,0
1578866520.129,-35.156,55.176,162.109,-51.270,0
1578866520.133,-32.227,61.523,140.137,-47.363,0
1578866520.137,-37.109,50.293,19.531,-51.270,0
1578866520.141,-38.574,45.410,-122.070,-45.898,0
1578866520.145,-26.855,50.781,-41.992,-34.180,0
1578866520.148,-25.391,47.363,120.605,-17.578,0
1578866520.152,-19.531,42.969,-54.688,-12.695,0
1578866520.156,-10.254,43.945,-67.871,-17.090,0
1578866520.160,9.277,43.457,97.168,-2.441,0
1578866520.164,31.250,48.340,111.328,13.184,0
1578866520.166,35.156,42.480,122.070,22.461,0
1578866520.170,38.086,24.902,131.348,32.227,0
1578866520.174,52.246,25.391,115.234,45.410,0
1578866520.178,70.801,31.250,110.352,65.430,0
1578866520.182,88.379,29.785,138.184,80.078,0
1578866520.186,89.355,31.738,86.426,72.754,0
1578866520.190,94.727,28.320,-49.316,63.477,0
1578866520.193,109.375,31.738,-172.852,73.242,0
1578866520.197,101.074,33.691,-150.391,80.566,0
1578866520.201,90.332,20.508,54.199,85.449,0
1578866520.205,102.539,22.949,88.867,93.262,0
1578866520.209,109.863,29.785,146.484,102.051,0
1578866520.211,106.934,23.438,226.074,109.863,0
1578866520.215,101.562,20.020,274.414,105.469,0
1578866520.219,108.398,22.461,170.410,103.027,0
1578866520.223,120.117,21.484,121.582,115.723,0
1578866520.227,117.676,16.602,252.930,128.906,0
1578866520.231,117.188,17.090,185.059,135.254,0
1578866520.235,124.023,25.391,8.301,129.883,0
1578866520.238,129.883,23.438,-171.875,107.422,0
1578866520.242,127.441,17.090,19.043,94.727,0
1578866520.246,119.629,21.484,249.023,102.539,0
1578866520.250,116.699,23.438,61.035,107.422,0
1578866520.254,121.582,27.344,20.508,109.863,0
1578866520.256,131.348,23.438,191.406,119.141,0
1578866520.260,126.953,19.531,257.812,116.699,0
1578866520.264,113.281,16.602,100.586,108.887,0
1578866520.268,110.840,14.648,-1.465,111.816,0
1578866520.272,118.164,14.648,117.188,115.234,0
1578866520.276,116.211,19.043,146.973,120.605,0
1578866520.280,110.352,25.391,-19.531,125.000,0
1578866520.283,108.887,25.879,-199.707,119.141,0
1578866520.287,113.770,24.414,20.508,108.398,0
1578866520.291,109.375,32.227,208.008,105.469,0
1578866520.295,104.492,32.715,130.859,112.793,0
1578866520.299,102.051,25.391,40.527,110.352,0
1578866520.302,104.004,25.879,0.977,112.305,0
1578866520.306,112.305,22.461,28.809,111.816,0
1578866520.310,105.469,19.043,92.773,101.562,0
1578866520.314,105.469,25.879,72.266,96.191,0
1578866520.318,108.398,36.133,41.504,93.750,0
1578866520.322,101.562,36.133,-17.578,88.867,0
1578866520.326,98.145,26.855,-87.402,92.773,0
1578866520.329,95.215,29.297,13.184,99.609,0
1578866520.333,94.727,31.738,79.102,94.238,0
1578866520.337,107.422,23.926,41.504,96.680,0
1578866520.341,101.074,19.531,-0.488,100.098,0
1578866520.345,90.332,21.973,12.207,93.262,0
1578866520.362,92.285,35.645,19.531,87.402,0
1578866520.366,86.426,39.551,29.297,87.402,0
1578866520.370,75.684,33.691,58.594,92.285,0
1578866520.374,67.871,30.762,44.922,90.820,0
1578866520.378,69.336,26.855,11.719,83.496,0
1578866520.382,68.359,26.367,-63.477,82.520,0
1578866520.386,65.430,20.020,-83.008,81.543,0
1578866520.389,71.777,23.438,78.613,84.473,0
1578866520.393,79.102,29.297,112.793,79.102,0
1578866520.397,76.172,20.508,-129.883,65.430,0
1578866520.401,68.359,20.508,-125.977,62.500,0
1578866520.405,63.477,29.297,136.230,67.871,0
1578866520.407,63.965,32.715,133.301,71.777,0
1578866520.411,68.848,33.203,-34.668,68.848,0
1578866520.415,72.754,34.180,1.465,71.289,0
1578866520.419,64.453,25.391,123.047,70.801,0
1578866520.423,57.617,14.160,102.051,68.359,0
1578866520.427,52.734,22.949,-77.637,56.641,0
1578866520.431,54.199,29.297,-165.527,50.781,0
1578866520.434,62.988,25.879,-100.586,61.035,0
1578866520.438,53.711,24.414,5.371,53.711,0
1578866520.442,43.945,20.020,-167.480,42.480,0
1578866520.446,46.387,23.438,-187.500,44.434,0
1578866520.450,53.711,26.855,43.457,54.199,0
1578866520.452,52.246,27.832,-12.695,58.594,0
1578866520.456,41.016,30.273,-65.430,53.223,0
1578866520.460,35.156,25.879,-23.926,56.641,0
1578866520.464,45.410,21.484,61.035,66.406,0
1578866520.468,50.293,24.414,77.148,67.383,0
1578866520.472,42.969,28.809,-64.453,55.664,0
1578866520.476,43.457,23.438,-212.891,55.664,0
1578866520.479,54.688,26.367,-57.617,76.172,0
1578866520.483,53.711,35.156,15.625,78.125,0
1578866520.487,38.086,30.762,-139.648,62.012,0
1578866520.491,36.133,33.691,-66.895,39.062,0
1578866520.495,45.410,37.598,13.672,19.531,0
1578866520.497,38.086,31.738,74.219,15.625,0
1578866520.501,34.180,32.227,147.949,27.344,0
1578866520.505,40.039,28.809,90.820,38.574,0
1578866520.509,39.551,28.320,5.859,30.273,0
1578866520.513,49.805,26.367,25.391,31.250,0
1578866520.517,46.387,24.414,-14.160,32.227,0
1578866520.521,47.363,35.645,-37.109,42.969,0
1578866520.524,63.965,38.086,-33.203,51.270,0
1578866520.528,64.453,34.668,-190.918,33.691,0
1578866520.532,55.664,39.551,-45.898,33.691,0
1578866520.536,59.570,47.363,147.461,44.922,0
1578866520.540,61.035,41.992,-61.035,42.969,0
1578866520.542,54.199,38.086,-159.668,34.180,0
1578866520.546,50.781,33.203,-22.949,38.574,0
1578866520.550,43.945,26.367,102.539,43.945,0
1578866520.554,35.156,34.180,-13.184,37.598,0
1578866520.558,32.715,39.551,-114.258,35.156,0
1578866520.562,41.016,27.832,-106.445,36.133,0
1578866520.566,34.180,27.344,4.883,41.504,0
1578866520.569,33.691,32.227,-110.352,40.039,0
1578866520.573,37.109,33.691,-326.660,26.367,0
1578866520.577,22.461,37.598,-52.246,25.879,0
1578866520.581,18.555,32.227,93.262,33.691,0
1578866520.585,28.809,34.668,0.977,43.945,0
1578866520.587,31.250,36.621,-62.012,48.340,0
1578866520.591,40.039,29.297,41.504,45.410,0
1578866520.595,54.688,30.762,91.309,38.574,0
1578866520.599,50.293,41.016,60.059,38.574,0
1578866520.603,49.316,41.992,4.883,35.645,0
1578866520.607,53.223,36.621,-70.801,27.344,0
1578866520.611,46.387,38.086,-59.082,26.855,0
1578866520.614,51.758,33.203,-94.727,34.668,0
1578866520.618,53.223,33.203,-141.113,40.039,0
1578866520.622,41.016,39.551,-44.922,41.504,0
1578866520.626,47.363,39.062,-30.273,44.922,0
1578866520.630,50.781,40.527,-6.348,42.969,0
1578866520.632,44.434,35.156,62.012,44.434,0
1578866520.636,52.734,30.273,58.105,54.688,0
1578866520.640,49.316,35.645,26.855,58.105,0
1578866520.644,44.434,39.551,70.801,49.805,0
1578866520.648,48.340,33.691,72.266,44.922,0
1578866520.652,46.875,22.949,-46.875,40.527,0
1578866520.656,31.738,27.832,-135.254,32.715,0
1578866520.659,29.785,40.039,-130.371,32.715,0
1578866520.663,33.203,35.156,35.156,34.180,0
1578866520.667,24.414,20.020,-39.062,32.227,0
1578866520.671,31.250,28.809,-84.473,38.574,0
1578866520.675,35.645,36.621,35.645,38.574,0
1578866520.677,23.926,26.367,95.703,28.809,0
1578866520.681,16.113,30.273,58.594,22.461,0
1578866520.685,26.367,40.039,-43.945,20.996,0
1578866520.689,42.969,35.156,47.852,32.227,0
1578866520.693,41.992,30.273,132.812,40.039,0
1578866520.697,42.480,42.480,-24.414,34.668,0
1578866520.701,45.410,45.898,-310.059,20.020,0
1578866520.704,43.457,38.574,-136.719,17.090,0
1578866520.708,47.852,40.527,160.156,23.926,0
1578866520.712,40.527,40.039,53.711,33.691,0
1578866520.716,41.992,37.598,-68.359,35.645,0
1578866520.720,55.176,40.527,42.480,32.227,0
1578866520.737,50.293,41.992,177.246,38.574,0
1578866520.741,38.574,39.062,101.562,41.504,0
1578866520.745,36.621,34.668,-58.594,31.250,0
1578866520.749,36.621,37.109,0.488,29.297,0
1578866520.753,33.691,36.133,127.930,36.621,0
1578866520.757,33.691,33.203,8.789,36.621,0
1578866520.761,26.855,20.996,-180.664,30.273,0
1578866520.764,20.020,16.113,-50.781,22.949,0
1578866520.768,24.902,31.738,161.621,29.297,0
1578866520.772,19.043,39.551,47.363,39.062,0
1578866520.776,15.625,41.504,-102.051,32.227,0
1578866520.780,23.926,39.062,-60.059,25.391,0
1578866520.782,27.344,34.668,18.555,28.320,0
1578866520.786,24.902,33.203,61.523,37.109,0
1578866520.790,22.461,36.621,81.543,28.320,0
1578866520.794,25.879,28.320,48.828,23.926,0
1578866520.798,32.227,16.113,-16.113,31.250,0
1578866520.802,31.250,22.461,-25.879,32.715,0
1578866520.806,33.203,34.668,-23.926,30.762,0
1578866520.809,36.621,40.039,-4.395,20.020,0
1578866520.813,34.668,41.992,16.602,16.113,0
1578866520.817,37.598,36.133,-130.371,26.855,0
1578866520.821,36.621,31.250,-38.574,27.832,0
1578866520.825,24.902,34.180,82.031,25.879,0
1578866520.827,15.625,34.180,-108.887,20.996,0
1578866520.831,18.555,27.344,-59.570,18.555,0
1578866520.835,23.926,26.367,129.883,21.484,0
1578866520.839,25.391,22.949,19.531,30.273,0
1578866520.843,25.879,23.438,-156.738,35.156,0
1578866520.847,32.227,24.414,-172.363,35.156,0
1578866520.851,22.949,18.555,-91.797,41.504,0
1578866520.854,12.207,24.902,62.012,18.555,0
1578866520.858,18.555,33.691,-140.625,0.488,0
1578866520.862,25.391,33.203,-286.133,12.695,0
1578866520.866,24.902,32.715,0.000,27.344,0
1578866520.870,20.020,28.320,96.191,26.855,0
1578866520.871,22.461,25.391,-49.316,17.578,0
1578866520.875,32.227,33.691,-110.840,19.043,0
1578866520.879,36.133,41.504,26.855,24.414,0
1578866520.883,33.691,36.621,48.340,27.344,0
1578866520.887,28.320,35.645,-90.332,30.273,0
1578866520.891,24.414,36.621,-235.840,25.879,0
1578866520.895,27.344,26.855,-170.410,21.973,0
1578866520.898,28.320,25.879,-81.055,27.344,0
1578866520.902,26.855,32.227,-232.422,25.879,0
1578866520.906,19.043,33.203,-223.145,14.160,0
1578866520.910,22.949,38.574,-3.906,9.277,0
1578866520.914,31.250,35.645,25.391,25.879,0
1578866520.916,32.227,28.320,-12.207,40.527,0
1578866520.920,37.598,37.109,-41.992,43.945,0
1578866520.924,40.039,40.039,-72.754,49.805,0
1578866520.928,28.809,35.645,-69.336,37.598,0
1578866520.932,18.066,27.344,-78.125,20.996,0
1578866520.936,16.602,29.297,-156.738,22.949,0
1578866520.940,23.926,32.715,-250.977,23.438,0
1578866520.943,19.043,25.391,-275.391,21.484,0
1578866520.947,11.230,20.020,-187.012,23.438,0
1578866520.951,12.207,20.996,-113.770,23.438,0
1578866520.955,14.648,23.438,-144.043,20.508,0
1578866520.959,14.160,20.508,-78.125,19.043,0
1578866520.961,9.766,14.648,-58.594,28.809,0
1578866520.965,19.531,15.625,7.812,36.621,0
1578866520.969,21.484,17.578,-71.289,28.320,0
1578866520.973,28.320,17.090,-158.203,33.691,0
1578866520.977,38.086,16.602,-58.594,43.945,0
1578866520.981,34.180,20.996,-30.762,42.480,0
1578866520.985,27.832,14.160,-106.445,40.039,0
1578866520.988,28.809,13.184,-286.133,35.645,0
1578866520.992,32.227,21.973,-215.820,34.180,0
1578866520.996,29.297,21.484,52.246,31.250,0
1578866521.000,29.785,28.809,13.672,27.832,0
1578866521.004,33.203,29.297,-63.477,33.691,0
1578866521.006,41.992,24.902,2.930,36.133,0
1578866521.010,38.086,24.414,45.410,35.645,0
1578866521.014,31.738,20.020,-23.926,25.391,0
1578866521.018,29.785,20.996,-99.121,23.926,0
1578866521.022,34.180,18.555,17.578,32.715,0
1578866521.026,33.203,18.066,16.602,28.809,0
1578866521.030,26.367,27.832,-209.473,25.879,0
1578866521.033,28.809,23.438,-334.961,22.949,0
1578866521.037,26.367,18.555,-75.684,24.414,0
1578866521.041,20.996,29.785,104.492,35.156,0
1578866521.045,23.926,32.715,10.254,43.457,0
1578866521.049,27.344,29.785,-54.688,41.504,0
1578866521.051,26.367,26.367,-41.016,44.922,0
1578866521.055,29.297,26.367,37.109,50.293,0
1578866521.059,30.762,23.438,47.363,46.875,0
1578866521.063,27.344,18.066,-56.641,40.039,0
1578866521.067,27.344,24.902,-77.637,37.109,0
1578866521.071,31.738,24.414,-62.500,40.039,0
1578866521.075,42.480,27.832,-160.645,45.410,0
1578866521.078,44.434,26.855,-85.938,43.457,0
1578866521.082,41.992,21.484,16.113,40.039,0
1578866521.086,48.828,26.367,-30.273,43.457,0
1578866521.090,50.781,31.250,9.766,36.133,0
1578866521.094,42.480,34.668,65.430,30.273,0
1578866521.111,44.434,31.738,15.137,34.668,0
1578866521.115,48.828,30.273,-52.246,41.016,0
1578866521.119,42.480,31.250,-27.832,41.016,0
1578866521.123,34.180,29.297,92.285,36.621,0
1578866521.127,34.180,30.762,87.891,41.504,0
1578866521.131,35.645,27.344,-134.766,35.156,0
1578866521.135,39.551,30.273,-252.441,41.992,0
1578866521.138,35.156,36.621,-126.953,49.316,0
1578866521.142,12.207,34.180,-5.371,30.273,0
1578866521.146,11.719,29.785,-174.805,24.902,0
1578866521.150,33.691,31.738,-148.438,30.762,0
1578866521.154,39.062,27.344,81.543,38.574,0
1578866521.156,38.086,26.855,44.922,40.527,0
1578866521.160,41.992,34.180,-137.695,34.668,0
1578866521.164,42.480,33.203,-136.719,41.016,0
1578866521.168,30.762,29.297,56.641,43.457,0
1578866521.172,34.180,28.320,46.875,46.875,0
1578866521.176,39.062,25.391,-176.758,41.992,0
1578866521.180,35.645,23.926,-206.543,20.996,0
1578866521.183,29.297,30.762,-17.090,20.020,0
1578866521.187,36.621,38.086,16.602,30.273,0
1578866521.191,36.133,38.086,-235.840,25.879,0
1578866521.195,31.250,35.156,-284.180,21.484,0
1578866521.199,45.898,33.691,-90.820,25.879,0
1578866521.201,39.551,35.156,-82.031,27.344,17060
1578866521.205,26.855,33.691,-56.152,19.043,0
1578866521.209,27.832,33.691,-31.738,13.184,0
1578866521.213,36.133,38.086,-13.672,20.020,0
1578866521.217,36.133,35.645,-24.414,24.902,0
1578866521.221,26.367,28.320,-115.234,24.414,0
1578866521.225,21.973,25.391,-217.285,22.461,0
1578866521.228,31.250,31.738,-115.723,20.996,0
1578866521.232,22.949,33.691,-128.418,20.020,0
1578866521.236,12.207,31.738,-198.242,19.531,0
1578866521.240,20.508,32.715,-88.867,25.391,0
1578866521.244,26.367,28.320,-76.660,31.738,0
1578866521.246,27.832,22.461,-10.254,33.691,0
1578866521.250,29.297,24.414,44.434,41.992,0
1578866521.254,32.715,29.785,25.879,44.922,0
1578866521.258,36.621,26.367,-129.395,34.180,0
1578866521.262,40.039,27.344,-96.680,32.227,0
1578866521.266,44.922,33.203,-45.898,25.879,0
1578866521.270,39.551,32.227,-52.734,18.555,0
1578866521.273,23.926,34.180,-81.543,17.578,0
1578866521.277,28.320,31.738,-245.117,28.320,0
1578866521.281,30.273,29.785,-45.410,35.156,0
1578866521.285,30.273,34.180,151.855,33.691,0
1578866521.289,29.785,33.691,-46.875,27.832,0
1578866521.291,36.621,32.715,-126.953,23.926,0
1578866521.295,36.133,31.250,2.930,28.809,0
1578866521.299,26.367,32.715,33.203,31.738,0
1578866521.303,31.250,32.227,-120.117,33.691,0
1578866521.307,35.156,33.691,-169.434,33.203,0
1578866521.311,30.762,36.133,-88.379,29.785,0
1578866521.315,27.344,26.855,-43.945,31.738,0
1578866521.318,37.598,29.785,-193.359,40.039,0
1578866521.322,23.438,37.109,-337.891,17.578,0
1578866521.326,15.625,34.668,-20.996,4.883,0
1578866521.330,18.066,32.715,133.301,19.531,0
1578866521.334,9.277,37.598,24.414,16.113,0
1578866521.336,9.766,42.480,-40.527,2.930,0
1578866521.340,18.066,38.574,45.410,6.348,0
1578866521.344,21.484,36.621,90.332,13.184,0
1578866521.348,14.648,35.645,57.617,1.465,0
1578866521.352,14.160,33.203,34.668,-8.789,0
1578866521.356,26.367,32.715,-72.266,0.488,0
1578866521.360,36.133,33.691,-89.844,16.113,0
1578866521.363,28.809,33.203,-131.348,24.414,0
1578866521.367,26.367,33.691,-115.234,24.414,0
1578866521.371,30.273,28.809,52.246,24.902,0
1578866521.375,29.297,27.344,34.668,23.926,0
1578866521.379,25.879,38.086,9.766,28.809,0
1578866521.381,22.461,48.340,71.777,28.809,0
1578866521.385,28.320,40.527,31.738,27.344,0
1578866521.389,37.109,34.180,-20.508,31.738,0
1578866521.393,30.762,36.621,20.020,24.414,0
1578866521.397,14.160,32.715,41.992,20.020,0
1578866521.401,13.184,34.180,-45.410,19.531,0
1578866521.405,25.391,31.250,-212.402,14.160,0
1578866521.408,27.832,27.344,-227.051,17.090,0
1578866521.412,26.855,25.391,-3.906,22.949,0
1578866521.416,31.738,25.391,-49.805,19.043,0
1578866521.420,37.598,35.156,-77.637,17.578,0
1578866521.424,35.645,40.039,32.715,22.461,0
1578866521.427,22.461,31.250,102.051,24.902,0
1578866521.431,13.184,23.926,26.367,11.230,0
1578866521.435,22.461,31.250,-66.895,9.277,0
1578866521.439,27.344,33.203,44.922,25.879,0
1578866521.443,14.160,26.367,118.164,27.832,0
1578866521.447,16.602,27.344,-50.293,22.949,0
1578866521.451,26.855,30.762,-329.102,19.043,0
1578866521.454,31.738,33.691,-213.379,16.113,0
1578866521.458,27.344,36.621,82.520,18.555,0
1578866521.462,21.484,30.762,-3.418,20.508,0
1578866521.466,20.996,35.156,-116.699,18.555,0
1578866521.470,27.344,35.156,-1.953,24.902,0
1578866521.487,28.809,29.297,13.184,26.855,0
1578866521.491,33.203,29.785,-54.688,30.273,0
1578866521.495,27.832,25.879,-104.004,24.414,0
1578866521.499,23.926,29.297,-62.012,15.625,0
1578866521.503,32.227,30.762,70.312,27.344,0
1578866521.507,31.250,28.320,-110.840,44.922,0
1578866521.511,26.855,27.832,-251.953,42.969,0
1578866521.514,25.391,32.227,-62.500,27.832,0
1578866521.518,31.250,31.738,4.883,28.809,0
1578866521.522,30.273,28.809,-13.184,17.578,0
1578866521.526,30.762,32.715,-33.203,9.766,0
1578866521.530,34.180,37.598,-35.156,20.508,0
1578866521.532,34.668,35.156,-28.320,26.367,0
1578866521.536,43.457,26.855,-23.438,38.574,0
1578866521.540,39.062,24.414,-68.359,42.969,0
1578866521.544,31.250,29.785,-136.230,32.227,0
1578866521.548,31.738,37.598,-82.520,31.738,0
1578866521.552,23.438,35.645,-113.281,32.715,0
1578866521.556,21.973,28.809,-85.449,31.738,0
1578866521.559,27.344,23.438,-6.348,24.902,0
1578866521.563,30.762,27.832,-38.086,14.648,0
1578866521.567,26.855,32.227,-177.246,21.484,0
1578866521.571,27.832,27.344,-110.352,39.551,0
1578866521.575,27.344,30.273,62.012,37.109,0
1578866521.577,20.508,33.691,-98.145,25.391,0
1578866521.581,23.438,30.762,-119.141,25.391,0
1578866521.585,29.785,35.156,62.012,28.809,0
1578866521.589,24.902,35.156,62.500,21.484,0
1578866521.593,25.879,28.320,-97.656,17.578,0
1578866521.597,33.203,33.203,-150.879,20.996,0
1578866521.601,31.738,34.180,-115.723,23.438,0
1578866521.604,28.320,31.250,0.488,28.809,0
1578866521.608,28.320,34.668,-123.047,29.785,0
1578866521.612,34.668,34.180,-282.715,26.367,0
1578866521.616,39.062,31.250,-20.996,30.762,0
1578866521.620,39.551,34.180,37.598,34.668,0
1578866521.622,35.645,37.109,-72.266,29.785,0
1578866521.626,36.133,36.621,-93.750,23.926,0
1578866521.630,38.086,31.738,45.898,30.762,0
1578866521.634,32.715,27.832,119.629,32.227,0
1578866521.638,32.227,35.156,3.906,27.832,0
1578866521.642,35.156,36.621,-228.027,26.855,0
1578866521.646,35.156,31.738,-222.168,22.461,0
1578866521.649,37.598,33.691,25.879,30.762,0
1578866521.653,34.668,34.180,-107.422,26.855,0
1578866521.657,31.250,29.297,-254.883,8.789,0
1578866521.661,33.691,27.344,-8.789,20.020,0
1578866521.665,25.391,33.203,55.664,30.762,0
1578866521.667,9.766,34.180,52.734,32.715,0
1578866521.671,10.742,26.367,44.922,27.832,0
1578866521.675,25.879,30.273,-4.883,19.531,0
1578866521.679,33.691,34.180,3.418,27.344,0
1578866521.683,27.344,32.715,44.922,32.227,0
1578866521.687,27.344,33.203,-60.547,30.273,0
1578866521.691,28.320,31.250,-133.301,25.391,0
1578866521.694,30.762,31.738,-153.809,32.227,0
1578866521.698,32.227,29.785,-246.582,39.551,0
1578866521.702,26.855,25.391,-36.133,35.156,0
1578866521.706,20.508,22.949,11.719,27.832,0
1578866521.710,26.855,29.297,-25.879,26.367,0
1578866521.712,34.668,36.133,-59.570,25.391,0
1578866521.716,34.668,36.621,36.621,23.926,0
1578866521.720,35.156,34.180,-73.242,24.902,0
1578866521.724,37.598,33.691,-207.520,25.879,0
1578866521.728,43.945,35.156,-6.348,33.203,0
1578866521.732,42.969,29.297,-38.574,42.969,0
1578866521.736,30.273,29.785,-158.691,35.645,0
1578866521.739,32.715,37.109,-242.188,21.973,0
1578866521.743,35.645,36.621,-99.609,24.414,0
1578866521.747,26.855,30.762,102.539,25.879,0
1578866521.751,38.086,33.203,-53.223,23.438,0
1578866521.755,48.828,36.621,-133.789,32.715,0
1578866521.757,34.668,34.180,44.922,33.691,0
1578866521.761,31.250,29.785,141.113,31.738,0
1578866521.765,37.598,30.762,23.438,38.086,0
1578866521.769,35.156,36.621,-139.648,27.344,0
1578866521.773,38.574,34.180,-61.523,27.344,0
1578866521.777,41.992,28.809,-31.738,47.852,0
1578866521.781,32.715,28.809,-233.887,48.828,0
1578866521.784,22.461,36.133,-344.727,36.621,0
1578866521.788,38.086,33.691,-140.137,35.156,0
1578866521.792,46.875,28.320,22.949,47.852,0
1578866521.796,29.785,34.180,39.551,43.457,0
1578866521.800,30.762,34.668,7.324,28.809,0
1578866521.802,44.434,34.180,-23.926,39.551,0
1578866521.806,45.898,35.645,-29.785,50.293,0
1578866521.810,39.551,37.109,-15.137,42.480,0
1578866521.814,36.621,32.715,28.809,34.668,0
1578866521.818,33.203,30.273,-20.020,32.715,0
1578866521.822,33.691,39.551,-97.168,34.180,0
1578866521.826,35.156,37.598,-209.473,37.109,0
1578866521.829,31.738,29.297,-153.320,40.039,0
1578866521.833,30.273,27.832,-62.500,32.715,0
1578866521.837,30.762,28.320,-71.289,24.902,0
1578866521.841,30.273,24.902,-43.457,31.250,0
1578866521.845,26.855,27.832,54.688,31.738,0
1578866521.861,27.344,31.738,27.832,21.973,0
1578866521.865,32.715,37.598,-115.234,17.578,0
1578866521.869,40.039,39.062,-44.922,25.391,0
1578866521.873,41.504,35.645,107.422,35.645,0
1578866521.877,36.133,33.691,76.172,31.738,0
1578866521.881,33.203,28.809,-208.008,22.949,0
1578866521.885,31.250,26.855,-221.191,27.344,0
1578866521.888,35.156,33.691,62.500,33.691,0
1578866521.892,39.551,36.133,27.344,27.344,0
1578866521.896,33.203,29.785,-234.375,21.484,0
1578866521.900,30.762,27.832,-188.965,23.438,0
1578866521.904,27.832,23.926,66.895,30.273,0
1578866521.907,15.137,14.648,88.379,25.879,0
1578866521.911,13.184,21.484,-148.438,16.113,0
1578866521.915,20.508,31.738,-156.738,9.277,0
1578866521.919,22.949,27.832,48.340,11.719,0
1578866521.923,16.113,26.367,77.637,20.020,0
1578866521.927,20.996,30.762,-127.930,20.020,0
1578866521.931,36.621,27.832,-174.805,22.949,0
1578866521.934,41.992,28.320,58.594,30.273,0
1578866521.938,37.598,31.738,140.625,36.133,0
1578866521.942,34.180,31.738,-144.043,34.668,0
1578866521.946,33.203,32.715,-152.344,26.367,0
1578866521.950,32.715,31.738,7.324,20.996,0
1578866521.952,25.391,27.344,-58.105,22.949,0
1578866521.956,16.113,30.273,-9.766,23.438,0
1578866521.960,18.066,37.598,34.668,16.113,0
1578866521.964,31.250,38.574,90.820,18.555,0
1578866521.968,36.133,34.668,53.223,35.645,0
1578866521.972,33.203,30.273,-66.406,48.340,0
1578866521.976,35.645,29.297,-166.992,29.785,0
1578866521.979,35.645,30.273,-35.645,18.555,0
1578866521.983,33.691,26.855,8.789,26.855,0
1578866521.987,31.738,31.738,-105.957,33.691,0
1578866521.991,25.879,35.156,42.969,24.414,0
1578866521.995,29.297,32.227,83.008,13.184,0
1578866521.997,29.785,33.691,38.574,19.043,0
1578866522.001,23.438,32.715,116.211,25.391,0
1578866522.005,22.949,27.344,95.215,25.391,0
1578866522.009,22.461,24.902,-128.418,18.555,0
1578866522.013,24.414,29.785,-81.055,19.043,0
1578866522.017,24.902,31.250,-39.062,17.578,0
1578866522.021,21.484,30.762,-21.973,19.531,0
1578866522.024,20.996,28.320,-10.742,24.902,0
1578866522.028,25.391,24.414,-169.922,22.461,0
1578866522.032,30.273,25.879,-34.180,26.367,0
1578866522.036,33.691,25.879,192.383,34.180,0
1578866522.040,29.297,21.484,29.785,27.832,0
1578866522.042,28.809,27.344,-73.730,26.855,0
1578866522.046,29.785,30.762,56.641,31.250,0
1578866522.050,27.832,27.344,175.781,38.574,0
1578866522.054,29.297,25.879,47.852,44.434,0
1578866522.058,32.715,28.809,-70.312,32.227,0
1578866522.062,32.227,31.738,-75.684,29.297,0
1578866522.066,30.273,28.320,-82.031,31.250,0
1578866522.069,27.832,26.367,-188.965,13.672,0
1578866522.073,26.367,31.738,-308.105,9.277,0
1578866522.077,28.809,32.715,-20.508,22.461,0
1578866522.081,24.414,25.391,140.625,25.391,0
1578866522.085,23.926,27.832,67.871,25.879,0
1578866522.087,30.273,33.203,-24.414,24.414,0
1578866522.091,29.297,23.926,19.043,18.066,0
1578866522.095,22.461,16.113,113.281,24.414,0
1578866522.099,24.414,27.344,128.906,37.109,0
1578866522.103,21.973,38.086,-7.812,34.180,0
1578866522.107,25.391,39.062,-75.684,28.320,0
1578866522.111,33.203,37.109,-81.543,18.066,0
1578866522.114,27.344,33.203,-204.590,16.602,0
1578866522.118,17.578,23.438,-184.570,21.484,0
1578866522.122,18.066,22.461,-96.191,14.648,0
1578866522.126,29.785,25.391,-64.453,21.973,0
1578866522.130,28.320,28.809,8.789,29.785,0
1578866522.131,22.949,32.227,104.004,22.461,0
1578866522.135,26.855,32.715,72.754,16.113,0
1578866522.139,30.273,38.574,-27.344,23.438,0
1578866522.143,31.738,34.180,-22.461,29.297,0
1578866522.147,31.250,37.109,60.059,23.926,0
1578866522.151,24.902,34.668,-93.262,18.066,0
1578866522.155,27.832,22.461,-282.715,23.438,0
1578866522.158,32.715,25.879,-237.793,28.320,0
1578866522.162,26.367,32.715,48.828,35.156,0
1578866522.166,28.320,38.574,108.887,33.691,0
1578866522.170,32.715,39.062,-16.602,23.926,0
1578866522.174,31.738,36.133,-58.105,18.555,0
1578866522.176,25.879,36.621,-33.691,20.996,0
1578866522.180,25.391,30.762,-15.137,25.391,0
1578866522.184,23.926,28.320,-105.469,20.508,0
1578866522.188,24.902,34.180,9.277,26.855,0
1578866522.192,31.250,35.645,144.531,33.203,0
1578866522.196,33.691,31.738,-0.977,34.668,0
1578866522.200,34.668,29.785,-334.473,26.367,0
1578866522.203,40.039,31.738,-232.422,21.973,0
1578866522.207,41.992,32.715,106.445,28.320,0
1578866522.211,41.504,35.156,18.555,32.715,0
1578866522.215,37.109,35.156,-147.461,37.598,0
1578866522.219,38.086,28.809,-28.809,44.922,0
1578866522.236,28.320,30.762,76.660,45.410,0
1578866522.240,20.508,32.715,48.340,48.340,0
1578866522.244,25.391,32.227,-117.676,35.645,0
1578866522.248,26.855,28.320,-207.520,14.160,0
1578866522.252,38.086,32.227,-17.090,22.949,0
1578866522.256,38.574,38.574,-58.594,41.504,0
1578866522.260,29.297,32.227,-258.301,44.434,0
1578866522.263,32.227,27.344,-182.617,30.762,0
1578866522.267,37.109,25.391,30.273,19.531,0
1578866522.271,35.645,29.297,-29.785,19.043,0
1578866522.275,33.203,31.250,-81.055,25.879,0
1578866522.279,32.715,26.855,-43.457,23.926,0
1578866522.281,35.156,29.297,-44.434,22.949,0
1578866522.285,32.715,33.203,-26.855,25.879,0
1578866522.289,21.973,35.156,-32.227,22.461,0
1578866522.293,25.391,32.715,-15.625,23.926,0
1578866522.297,37.109,32.227,31.250,28.809,28211
1578866522.301,34.180,33.203,-62.988,34.180,0
1578866522.305,29.785,26.367,-136.719,37.598,0
1578866522.308,22.461,29.785,-155.762,34.180,0
1578866522.312,20.996,33.203,-165.039,27.832,0
1578866522.316,24.902,36.133,-135.742,28.320,0
1578866522.320,19.531,33.691,-85.449,28.809,0
1578866522.324,24.414,23.926,23.926,25.879,0
1578866522.326,28.320,29.785,-40.039,20.508,0
1578866522.330,30.762,34.180,-92.285,20.996,0
1578866522.334,28.809,34.180,33.691,30.273,0
1578866522.338,25.391,40.039,80.566,32.227,0
1578866522.342,21.973,40.527,-98.633,22.949,0
1578866522.346,24.902,36.621,-177.734,25.391,0
1578866522.350,24.902,33.691,-100.586,34.180,0
1578866522.353,20.996,34.668,28.320,34.668,0
1578866522.357,23.926,35.156,-127.441,27.832,0
1578866522.361,26.367,40.039,-257.324,22.461,0
1578866522.365,31.250,35.156,26.367,22.949,0
1578866522.369,33.203,32.715,116.211,23.438,0
1578866522.371,28.320,42.969,-36.133,24.902,0
1578866522.375,25.391,36.621,-117.188,28.809,0
1578866522.379,28.809,31.250,2.441,38.086,0
1578866522.383,29.297,37.598,71.777,34.668,0
1578866522.387,33.691,34.180,47.852,23.926,0
1578866522.391,36.621,31.250,-165.527,18.066,0
1578866522.395,38.574,32.715,-208.008,20.996,0
1578866522.398,44.922,28.320,-12.695,34.668,0
1578866522.402,45.898,32.715,-163.574,37.598,0
1578866522.406,35.645,38.574,-228.516,35.156,0
1578866522.410,31.738,34.180,-26.367,40.527,0
1578866522.414,29.785,33.203,-3.418,48.340,0
1578866522.416,28.809,30.273,-57.129,53.223,0
1578866522.420,28.809,32.227,-45.898,38.574,0
1578866522.424,33.691,35.156,-23.438,34.180,0
1578866522.428,39.551,33.691,-28.809,41.016,0
1578866522.432,36.621,34.180,-25.391,39.551,0
1578866522.436,37.109,28.320,-91.309,38.086,0
1578866522.440,38.574,26.855,-162.109,32.715,0
1578866522.443,33.691,36.621,-219.238,31.738,0
1578866522.447,30.762,38.574,-282.227,36.133,0
1578866522.451,27.344,33.691,-41.504,33.203,0
1578866522.455,23.438,36.621,-81.055,19.043,0
1578866522.459,27.344,38.086,-156.738,15.137,0
1578866522.461,30.273,34.668,-20.508,19.043,0
1578866522.465,24.902,35.156,58.105,27.832,0
1578866522.469,26.367,40.039,-104.492,31.250,0
1578866522.473,32.227,39.551,-204.590,25.391,0
1578866522.477,32.227,25.391,-8.301,25.879,0
1578866522.481,30.273,23.438,-19.043,36.621,0
1578866522.485,25.879,30.273,-168.945,36.133,0
1578866522.488,29.785,36.621,-300.293,19.043,0
1578866522.492,37.598,33.691,-142.090,14.648,0
1578866522.496,30.762,27.832,110.840,24.414,0
1578866522.500,26.367,31.250,41.992,27.344,0
1578866522.504,31.738,31.738,-78.125,23.926,0
1578866522.507,32.715,33.691,14.648,22.461,0
1578866522.511,26.367,34.668,102.051,25.391,0
1578866522.515,26.855,29.297,-0.977,32.227,0
1578866522.519,30.762,32.227,-105.469,31.738,0
1578866522.523,36.133,35.645,-66.895,20.508,0
1578866522.527,26.855,27.832,-30.273,18.555,0
1578866522.531,20.020,29.785,-142.090,24.414,0
1578866522.534,29.785,31.250,-298.340,28.320,0
1578866522.538,29.785,27.344,-67.871,27.344,0
1578866522.542,30.273,27.832,82.520,30.273,0
1578866522.546,36.133,24.414,71.289,38.574,0
1578866522.550,36.133,25.391,67.871,30.762,0
1578866522.552,31.250,36.133,89.844,24.414,0
1578866522.556,37.598,37.598,104.492,27.344,0
1578866522.560,38.574,35.156,79.102,18.066,0
1578866522.564,35.645,33.691,57.129,18.555,0
1578866522.568,41.016,28.320,14.160,17.090,0
1578866522.572,39.551,24.902,-74.707,15.137,0
1578866522.576,32.227,27.344,-168.457,24.902,0
1578866522.579,31.250,28.809,-40.039,33.691,0
1578866522.583,27.832,31.250,12.695,31.250,0
1578866522.587,33.203,26.855,-14.648,31.250,0
1578866522.591,33.203,29.785,70.312,39.062,0
1578866522.595,22.461,40.527,157.227,35.645,0
1578866522.612,29.785,38.086,103.027,27.832,0
1578866522.616,36.133,34.180,-33.691,23.438,0
1578866522.620,33.203,31.250,60.059,23.438,0
1578866522.624,32.227,26.855,174.805,27.344,0
1578866522.628,29.785,29.785,151.367,26.855,0
1578866522.632,28.320,26.367,-98.145,19.043,0
1578866522.636,33.691,26.855,-168.457,21.484,0
1578866522.639,30.762,34.668,115.723,29.297,0
1578866522.643,18.555,36.133,132.812,29.785,0
1578866522.647,17.090,27.832,-110.840,21.973,0
1578866522.651,27.832,19.043,-119.141,15.625,0
1578866522.655,32.715,20.508,42.969,21.973,0
1578866522.657,27.832,20.508,67.383,26.855,0
1578866522.661,29.297,24.414,-29.785,26.855,0
1578866522.665,40.039,33.203,-48.340,32.227,0
1578866522.669,37.109,29.297,124.512,36.621,0
1578866522.673,24.414,22.461,134.277,35.645,0
1578866522.677,23.438,30.273,-37.598,30.762,0
1578866522.681,23.438,33.691,-157.715,25.391,0
1578866522.684,22.461,27.344,-12.695,19.531,0
1578866522.688,26.367,30.273,125.000,24.414,0
1578866522.692,29.785,33.691,-142.578,28.320,0
1578866522.696,32.227,29.297,-212.402,20.020,0
1578866522.700,38.086,22.461,67.871,28.809,0
1578866522.702,37.109,24.902,73.242,39.551,0
1578866522.706,35.645,32.715,-50.781,30.762,0
1578866522.710,40.039,33.203,-127.930,32.715,0
1578866522.714,43.945,27.832,22.949,40.039,0
1578866522.718,43.457,29.785,126.465,41.992,0
1578866522.722,36.621,33.691,-36.621,46.387,0
1578866522.726,37.109,31.250,-129.395,41.016,0
1578866522.729,35.645,32.227,-85.449,31.250,0
1578866522.733,30.273,28.809,-104.004,26.367,0
1578866522.737,28.809,24.902,-145.020,29.297,0
1578866522.741,27.344,27.832,0.977,35.645,0
1578866522.745,26.367,27.832,-3.418,39.551,0
1578866522.747,30.273,31.250,-40.527,31.250,0
1578866522.751,25.391,26.855,50.293,26.367,0
1578866522.755,17.090,23.438,65.430,23.438,0
1578866522.759,18.066,31.738,-31.250,13.184,0
1578866522.763,29.785,34.668,-53.711,5.859,0
1578866522.767,26.367,32.715,-77.637,14.160,0
1578866522.771,19.043,30.273,-100.586,23.438,0
1578866522.774,20.996,32.715,-156.250,16.602,0
1578866522.778,25.391,33.691,-301.758,12.695,0
1578866522.782,31.738,38.574,-187.988,14.160,0
1578866522.786,35.645,34.668,53.223,24.414,0
1578866522.790,32.227,29.785,-79.590,23.926,0
1578866522.792,35.645,36.133,-143.555,16.113,0
1578866522.796,32.715,29.297,7.324,19.043,0
1578866522.800,26.367,19.043,106.445,29.785,0
1578866522.804,28.320,22.949,-1.465,36.133,0
1578866522.808,28.320,35.645,-123.047,26.367,0
1578866522.812,28.320,34.668,-114.258,18.555,0
1578866522.816,29.297,28.320,-69.336,24.902,0
1578866522.819,27.344,33.203,-121.582,22.461,0
1578866522.823,19.531,33.203,-353.027,17.090,0
1578866522.827,22.461,26.855,-144.043,18.066,0
1578866522.831,15.625,25.879,53.223,22.461,0
1578866522.835,14.160,27.832,36.133,26.855,0
1578866522.837,22.461,28.320,-34.180,22.461,0
1578866522.841,27.344,26.855,-12.695,23.926,0
1578866522.845,29.297,23.926,81.055,27.344,0
1578866522.849,27.344,30.273,61.035,26.367,0
1578866522.853,33.203,35.156,-14.160,32.227,0
1578866522.857,28.809,32.227,-117.188,33.691,0
1578866522.861,20.996,35.645,-95.215,29.785,0
1578866522.864,22.461,35.645,-145.508,30.762,0
1578866522.868,20.996,28.809,-139.648,24.414,0
1578866522.872,28.320,29.297,-47.363,17.090,0
1578866522.876,37.109,28.809,-49.316,26.855,0
1578866522.880,32.227,28.320,-95.703,31.250,0
1578866522.882,26.855,35.156,-62.988,31.250,0
1578866522.886,24.414,32.715,-22.461,24.902,0
1578866522.890,29.297,28.320,-79.590,8.789,0
1578866522.894,33.203,35.645,-15.137,10.254,0
1578866522.898,28.809,39.551,96.191,11.719,0
1578866522.902,30.273,35.156,-90.332,14.648,0
1578866522.906,36.133,34.668,-303.711,19.531,0
1578866522.909,24.902,36.133,-215.332,22.949,0
1578866522.913,14.160,36.133,74.707,25.391,0
1578866522.917,15.625,35.645,63.965,20.508,0
1578866522.921,18.555,32.227,-93.750,25.391,0
1578866522.925,22.949,31.250,-8.301,31.250,0
1578866522.927,27.344,35.645,118.652,29.297,0
1578866522.931,25.391,37.598,55.664,21.484,0
1578866522.935,24.414,39.062,-152.832,26.855,0
1578866522.939,30.273,34.180,-130.859,38.574,0
1578866522.943,31.738,29.785,49.316,36.133,0
1578866522.947,31.738,29.297,-17.578,35.156,0
1578866522.951,28.320,33.203,-291.504,19.043,0
1578866522.954,28.809,36.621,-213.867,13.184,0
1578866522.958,31.250,33.203,71.777,26.855,0
1578866522.962,30.273,30.273,62.988,29.297,0
1578866522.966,23.926,28.809,-94.727,20.996,0
1578866522.970,18.555,27.344,-101.562,14.648,0
1578866522.987,29.785,26.855,0.977,25.879,0
1578866522.991,35.645,27.344,27.344,30.762,0
1578866522.995,30.762,27.832,-64.941,22.949,0
1578866522.999,30.762,33.203,-63.477,19.043,0
1578866523.003,31.250,31.738,34.180,26.367,0
1578866523.007,37.109,30.762,-38.574,38.086,0
1578866523.011,32.715,38.086,-177.734,41.992,0
1578866523.014,30.762,37.598,-193.359,32.227,0
1578866523.018,40.527,37.109,-30.273,33.203,0
1578866523.022,39.551,36.621,-59.570,45.410,0
1578866523.026,38.574,31.738,-127.441,41.016,0
1578866523.030,37.598,33.691,3.906,35.156,0
1578866523.032,41.504,31.250,21.973,46.387,0
1578866523.036,40.527,27.832,39.551,44.922,0
1578866523.040,30.273,36.621,26.367,29.297,0
1578866523.044,27.832,38.086,-26.367,29.785,0
1578866523.048,34.180,33.203,-60.059,21.973,0
1578866523.052,36.133,37.598,-122.559,20.996,0
1578866523.056,32.227,40.039,-90.332,31.250,0
1578866523.059,17.090,34.668,-42.969,25.879,0
1578866523.063,11.719,27.344,-206.055,22.949,0
1578866523.067,26.855,26.367,-312.500,31.250,0
1578866523.071,28.320,31.250,-131.348,35.156,0
1578866523.075,31.738,35.645,34.668,32.715,0
1578866523.077,35.645,42.480,-94.727,23.926,0
1578866523.081,36.133,35.156,-178.223,23.926,0
1578866523.085,38.574,25.391,-12.207,32.715,0
1578866523.089,39.062,30.762,62.012,31.738,0
1578866523.093,35.645,33.691,-132.812,24.414,0
1578866523.097,34.180,36.133,-255.859,27.832,0
1578866523.101,28.320,35.645,-177.734,32.715,0
1578866523.104,23.438,32.227,-12.207,29.785,0
1578866523.108,20.996,30.762,-151.855,25.879,0
1578866523.112,19.043,31.250,-339.355,20.020,0
1578866523.116,21.484,28.809,-67.871,23.926,0
1578866523.120,32.227,27.344,40.039,33.203,0
1578866523.121,27.344,27.832,-50.293,22.461,0
1578866523.125,23.438,24.414,-97.656,15.625,0
1578866523.129,30.762,27.344,34.668,23.926,0
1578866523.133,27.344,38.086,153.809,31.250,0
1578866523.137,26.855,38.086,40.527,33.203,0
1578866523.141,28.809,32.227,-189.941,31.250,0
1578866523.145,33.203,20.996,-107.422,38.086,0
1578866523.148,29.297,25.391,110.352,42.480,0
1578866523.152,24.414,34.668,-124.023,29.297,0
1578866523.156,28.320,32.227,-219.727,21.484,0
1578866523.160,31.250,34.180,-13.184,18.066,0
1578866523.164,38.574,30.762,24.414,20.020,0
1578866523.166,41.992,29.785,55.664,30.273,0
1578866523.170,31.738,39.551,77.637,25.879,0
1578866523.174,27.832,39.062,-27.344,23.438,0
1578866523.178,27.344,32.715,-54.688,30.762,0
1578866523.182,24.902,29.297,28.320,26.855,0
1578866523.186,25.391,29.297,-49.805,24.414,0
1578866523.190,30.762,29.297,-137.695,27.832,0
1578866523.193,35.156,33.691,-146.484,18.066,0
1578866523.197,34.180,40.039,-213.379,16.113,0
1578866523.201,34.180,37.109,-39.062,27.832,0
1578866523.205,28.809,34.180,64.453,28.809,0
1578866523.209,41.992,30.762,6.836,25.391,0
1578866523.211,58.105,33.691,32.227,33.203,0
1578866523.215,45.898,36.621,102.539,34.180,0
1578866523.219,31.738,29.297,39.551,33.691,0
1578866523.223,34.180,30.273,-61.035,27.832,0
1578866523.227,32.715,32.715,-2.441,22.949,0
1578866523.231,18.066,32.227,-19.531,27.344,0
1578866523.235,13.672,26.855,-170.410,23.438,0
1578866523.238,24.414,24.902,-316.406,15.137,0
1578866523.242,29.297,25.879,-112.305,18.066,0
1578866523.246,29.785,26.855,196.289,26.855,0
1578866523.250,28.320,29.297,95.215,29.785,0
1578866523.254,27.832,26.855,-67.383,27.344,0
1578866523.256,37.598,24.902,37.109,30.273,0
1578866523.260,32.715,22.949,192.871,30.762,0
1578866523.264,21.973,22.949,107.910,24.414,0
1578866523.268,29.297,28.320,-80.078,18.555,0
1578866523.272,38.086,32.715,-13.672,20.996,0
1578866523.276,31.738,31.738,43.945,20.996,0
1578866523.280,25.391,27.344,-76.172,16.113,0
1578866523.283,24.902,22.949,-249.023,22.461,0
1578866523.287,27.344,27.832,-140.137,23.926,0
1578866523.291,31.738,36.133,121.094,21.484,0
1578866523.295,25.879,31.738,158.691,23.438,0
1578866523.299,24.414,29.785,30.273,27.832,0
1578866523.301,34.180,30.273,20.020,23.438,0
1578866523.305,39.062,32.715,158.203,20.020,0
1578866523.309,35.156,36.133,151.367,32.715,0
1578866523.313,24.902,27.344,52.734,33.691,0
1578866523.317,23.926,18.066,15.625,21.484,0
1578866523.321,31.250,24.414,-36.133,21.484,0
1578866523.325,33.691,27.344,-129.883,27.832,0
1578866523.328,25.391,22.949,-73.242,36.133,28080
1578866523.332,10.254,26.855,68.848,24.902,0
1578866523.336,15.137,35.645,46.387,16.602,0
1578866523.340,20.996,34.180,-3.906,26.855,0
1578866523.344,26.367,32.715,57.129,37.109,0
1578866523.361,32.227,29.785,65.918,36.133,0
1578866523.365,28.320,30.273,-44.434,23.926,0
1578866523.369,29.785,27.832,-7.324,18.555,0
1578866523.373,34.668,23.438,92.773,26.855,0
1578866523.377,24.414,26.855,56.152,30.762,0
1578866523.381,14.160,26.367,-222.168,30.273,0
1578866523.385,26.367,34.180,-272.461,25.391,0
1578866523.388,25.391,37.598,37.598,20.508,0
1578866523.392,20.508,32.227,94.727,22.949,0
1578866523.396,21.973,27.832,-116.699,18.555,0
1578866523.400,26.855,25.879,-148.438,20.020,0
1578866523.404,35.645,31.738,32.227,35.645,0
1578866523.406,32.715,40.527,79.590,41.504,0
1578866523.410,22.949,40.039,-40.527,35.156,0
1578866523.414,31.250,31.250,-177.734,31.738,0
1578866523.418,43.457,28.320,-76.172,37.109,0
1578866523.422,41.504,28.320,92.285,39.551,0
1578866523.426,28.809,34.180,-67.871,24.902,0
1578866523.430,25.879,41.504,-182.129,20.996,0
1578866523.433,35.645,37.598,52.246,31.250,0
1578866523.437,35.156,27.832,160.156,43.457,0
1578866523.441,38.086,25.391,-120.605,41.504,0
1578866523.445,41.992,34.668,-202.148,28.809,0
1578866523.449,31.738,34.668,30.273,25.879,0
1578866523.451,30.762,27.344,37.598,27.832,0
1578866523.455,29.785,35.156,-26.855,25.879,0
1578866523.459,20.996,33.203,-44.434,24.414,0
1578866523.463,24.902,19.531,-5.859,27.832,0
1578866523.467,27.832,28.809,31.250,32.227,0
1578866523.471,25.879,39.062,-62.988,33.691,0
1578866523.475,24.414,33.691,-170.898,33.691,0
1578866523.478,24.414,30.762,-41.504,30.273,0
1578866523.482,32.715,30.273,-72.754,32.227,0
1578866523.486,36.621,32.227,-194.824,39.062,0
1578866523.490,31.250,35.156,-46.387,41.992,0
1578866523.494,25.391,27.832,-17.578,37.598,0
1578866523.496,29.297,21.484,-38.086,39.062,0
1578866523.500,34.668,22.949,-37.598,44.434,0
1578866523.504,29.297,28.320,33.691,44.922,0
1578866523.508,31.738,32.227,-2.441,32.227,0
1578866523.512,34.668,30.762,-51.758,20.020,0
1578866523.516,26.855,31.250,-16.602,25.391,0
1578866523.520,27.344,35.645,-43.457,35.645,0
1578866523.523,30.762,36.621,-148.926,32.715,0
1578866523.527,33.203,33.691,-303.223,23.438,0
1578866523.531,32.227,31.250,-175.781,24.902,0
1578866523.535,39.062,28.320,94.727,29.785,0
1578866523.539,31.738,30.273,33.691,27.832,0
1578866523.542,22.461,28.809,-53.223,30.273,0
1578866523.546,35.156,26.367,-2.441,39.551,0
1578866523.550,39.062,29.297,65.430,45.410,0
1578866523.554,34.668,32.227,-45.410,40.039,0
1578866523.558,37.109,30.273,-123.535,36.133,0
1578866523.562,35.156,33.203,-137.695,31.250,0
1578866523.566,24.414,32.227,-65.430,26.855,0
1578866523.569,27.832,25.391,-35.156,30.762,0
1578866523.573,33.691,28.809,-305.176,32.227,0
1578866523.577,34.180,32.715,-121.582,29.785,0
1578866523.581,33.691,35.156,60.059,29.785,0
1578866523.585,31.250,33.203,-64.453,28.809,0
1578866523.587,38.086,32.227,-91.797,25.879,0
1578866523.591,38.086,31.250,9.277,23.926,0
1578866523.595,35.645,32.227,50.293,23.926,0
1578866523.599,33.691,36.621,-14.160,24.902,0
1578866523.603,25.879,38.574,-30.762,29.785,0
1578866523.607,27.344,40.039,-106.445,37.598,0
1578866523.611,31.738,34.180,-100.098,35.156,0
1578866523.614,30.273,28.809,-140.137,37.598,0
1578866523.618,31.250,29.785,-121.094,41.016,0
1578866523.622,34.180,31.738,2.441,34.668,0
1578866523.626,39.551,29.785,-18.066,34.668,0
1578866523.630,36.621,25.391,12.695,35.645,0
1578866523.632,31.250,27.832,111.328,34.668,0
1578866523.636,32.227,32.715,-5.371,33.691,0
1578866523.640,33.203,31.250,-155.762,35.156,0
1578866523.644,37.109,29.297,-46.875,37.598,0
1578866523.648,27.832,35.156,39.551,34.180,0
1578866523.652,20.996,32.715,-159.668,31.250,0
1578866523.656,46.875,26.367,-305.664,36.133,0
1578866523.659,46.387,24.902,-276.367,34.180,0
1578866523.663,23.926,28.809,-35.156,26.367,0
1578866523.667,25.879,34.668,33.691,22.461,0
1578866523.671,31.250,32.227,-121.582,26.855,0
1578866523.675,31.738,36.133,-63.477,23.438,0
1578866523.677,21.973,33.203,55.664,22.461,0
1578866523.681,16.113,33.691,21.484,22.461,0
1578866523.685,25.391,34.668,-106.445,26.855,0
1578866523.689,28.809,27.344,-31.738,34.180,0
1578866523.693,33.203,28.320,42.480,29.297,0
1578866523.697,32.227,33.203,-83.008,27.344,0
1578866523.701,27.344,32.715,-367.188,20.996,0
1578866523.704,35.156,31.250,-277.832,16.602,0
1578866523.708,33.691,33.691,81.055,23.926,0
1578866523.712,28.320,35.645,98.145,27.344,0
1578866523.716,29.785,33.691,-52.734,23.926,0
1578866523.720,33.203,32.227,-149.902,15.625,0
1578866523.737,32.715,30.273,-35.156,15.137,0
1578866523.741,28.320,29.297,12.695,17.090,0
1578866523.745,20.020,31.250,-147.949,17.090,0
1578866523.749,23.438,29.297,-160.645,23.438,0
1578866523.753,31.738,29.785,-23.438,32.715,0
1578866523.757,25.879,31.738,-130.371,31.250,0
1578866523.761,31.738,30.273,-218.262,29.297,0
1578866523.764,33.203,38.574,-176.758,31.738,0
1578866523.768,32.227,41.504,-97.656,32.227,0
1578866523.772,32.227,28.809,20.508,27.344,0
1578866523.776,24.414,26.855,3.418,26.855,0
1578866523.780,25.879,32.227,-50.781,33.691,0
1578866523.782,25.879,25.879,-64.941,34.180,0
1578866523.786,23.926,26.367,59.082,27.344,0
1578866523.790,22.949,31.250,99.121,20.508,0
1578866523.794,23.926,33.691,-12.207,17.578,0
1578866523.798,27.344,36.621,-38.574,20.020,0
1578866523.802,30.273,34.180,-50.293,35.645,0
1578866523.806,31.738,31.250,-54.688,42.969,0
1578866523.809,28.320,33.691,44.434,28.320,0
1578866523.813,33.203,30.762,-14.648,27.832,0
1578866523.817,41.504,30.762,-184.082,33.691,0
1578866523.821,38.574,29.297,-141.113,28.320,0
1578866523.825,34.180,22.461,17.578,27.344,0
1578866523.827,34.180,40.527,-71.289,22.949,0
1578866523.831,34.668,41.504,-92.285,22.949,0
1578866523.835,35.156,33.691,88.379,32.715,0
1578866523.839,36.621,39.551,175.293,38.574,0
1578866523.843,32.227,32.227,-3.418,32.227,0
1578866523.847,29.297,28.809,-164.062,26.367,0
1578866523.851,23.438,34.180,-94.727,22.949,0
1578866523.854,25.391,35.156,106.445,22.461,0
1578866523.858,34.668,36.133,-2.441,21.973,0
1578866523.862,32.227,26.855,-240.723,22.949,0
1578866523.866,32.715,16.113,5.859,28.320,0
1578866523.870,30.273,22.461,170.410,33.691,0
1578866523.872,30.762,22.949,105.469,25.879,0
1578866523.876,34.180,24.414,-41.016,21.973,0
1578866523.880,29.785,32.227,-54.688,37.109,0
1578866523.884,21.973,29.785,93.262,38.086,0
1578866523.888,24.902,28.809,91.797,35.645,0
1578866523.892,39.062,28.320,-101.562,31.738,0
1578866523.896,42.480,27.344,-117.188,20.996,0
1578866523.899,30.273,29.785,29.297,22.949,0
1578866523.903,26.367,27.344,-57.129,24.414,0
1578866523.907,35.156,26.855,-124.512,22.949,0
1578866523.911,33.203,26.855,25.391,27.832,0
1578866523.915,35.156,30.762,106.934,31.738,0
1578866523.917,31.250,26.855,93.262,36.133,0
1578866523.921,20.020,19.043,74.219,25.879,0
1578866523.925,25.391,20.996,24.414,19.043,0
1578866523.929,30.273,29.785,11.230,23.926,0
1578866523.933,32.227,38.086,13.672,23.926,0
1578866523.937,33.691,35.156,-20.996,24.902,0
1578866523.941,24.414,33.203,-88.867,26.855,0
1578866523.944,22.949,31.250,-126.953,21.484,0
1578866523.948,29.297,27.832,-160.645,19.531,0
1578866523.952,25.391,27.832,-3.418,29.785,0
1578866523.956,21.973,23.926,69.824,33.203,0
1578866523.960,33.203,22.461,15.625,33.691,0
1578866523.962,35.156,26.367,55.664,38.086,0
1578866523.966,31.250,32.227,181.641,38.086,0
1578866523.970,24.902,33.691,104.004,34.180,0
1578866523.974,20.020,28.809,-54.688,24.902,0
1578866523.978,25.391,24.414,34.180,22.461,0
1578866523.982,25.879,25.391,38.574,25.879,0
1578866523.986,30.762,30.762,-46.387,23.926,0
1578866523.989,36.133,34.668,-231.445,27.344,0
1578866523.993,35.645,31.738,-174.805,36.621,0
1578866523.997,32.227,29.785,68.848,25.879,0
1578866524.001,30.273,29.297,52.246,19.531,0
1578866524.005,31.250,18.555,-41.016,26.367,0
1578866524.007,33.203,20.020,11.230,26.855,0
1578866524.011,33.203,29.297,126.953,33.691,0
1578866524.015,25.391,28.809,46.387,40.039,0
1578866524.019,21.973,28.809,-56.641,29.785,0
1578866524.023,32.715,27.832,-8.789,29.297,0
1578866524.027,39.062,31.738,8.301,39.062,0
1578866524.031,30.273,34.668,-145.996,34.668,0
1578866524.034,28.320,32.715,-316.406,24.414,0
1578866524.038,33.203,38.574,-139.160,22.461,0
1578866524.042,30.762,35.645,84.473,20.996,0
1578866524.046,21.484,31.250,47.363,20.020,0
1578866524.050,20.508,28.320,-19.531,17.090,0
1578866524.052,23.926,22.461,-49.805,15.137,0
1578866524.056,29.785,23.438,3.906,25.879,0
1578866524.060,29.297,33.203,27.832,29.785,0
1578866524.064,29.785,37.598,-27.832,29.297,0
1578866524.068,32.227,27.344,-45.898,26.855,0
1578866524.072,30.273,26.855,-151.855,26.855,0
1578866524.076,31.250,34.668,-292.480,32.227,0
1578866524.079,30.762,37.598,-188.965,33.691,0
1578866524.083,26.855,38.086,-40.039,30.762,0
1578866524.087,36.133,35.156,-75.684,29.785,0
1578866524.091,31.250,35.156,-16.602,29.785,0
1578866524.095,13.672,30.762,144.531,18.555,0
1578866524.112,16.113,23.926,93.750,17.578,0
1578866524.116,22.461,33.203,-62.500,26.367,0
1578866524.120,27.832,37.109,-44.922,30.762,0
1578866524.124,26.855,32.227,73.730,36.133,0
1578866524.128,31.738,30.273,121.582,44.922,0
1578866524.132,37.109,28.320,-131.836,41.992,0
1578866524.136,41.016,30.762,-258.789,29.297,0
1578866524.139,35.156,31.250,24.414,25.879,0
1578866524.143,27.344,30.273,85.449,27.344,0
1578866524.147,32.227,34.180,-83.984,18.066,0
1578866524.151,30.762,34.180,-73.242,10.742,0
1578866524.155,24.902,32.715,44.434,16.602,0
1578866524.157,21.973,24.414,81.543,25.879,0
1578866524.161,26.855,29.297,-84.473,27.344,0
1578866524.165,30.273,37.109,-117.676,21.973,0
1578866524.169,37.598,35.645,43.945,30.273,0
1578866524.173,40.527,32.227,5.371,36.621,0
1578866524.177,28.320,34.668,-198.730,25.391,0
1578866524.181,25.391,34.180,-285.156,23.438,0
1578866524.184,39.062,33.203,-68.848,30.273,0
1578866524.188,39.551,35.156,44.434,42.969,0
1578866524.192,31.250,34.668,-189.941,37.109,0
1578866524.196,32.227,33.203,-263.184,25.391,0
1578866524.200,35.645,30.762,-43.945,33.691,0
1578866524.202,34.668,29.297,21.973,35.645,0
1578866524.206,32.715,32.715,12.695,39.062,0
1578866524.210,32.227,24.414,-21.973,42.969,0
1578866524.214,30.762,25.391,10.742,32.715,0
1578866524.218,24.414,41.992,11.719,33.691,0
1578866524.222,15.137,46.387,-111.328,34.668,0
1578866524.226,16.113,40.039,-158.691,17.578,0
1578866524.229,20.996,33.691,-90.820,7.812,0
1578866524.233,20.020,28.320,-144.043,12.695,0
1578866524.237,23.438,24.414,-176.270,25.879,0
1578866524.241,28.809,36.621,20.996,29.297,0
1578866524.245,35.645,43.945,-2.441,23.438,0
1578866524.247,38.086,40.039,-23.438,27.832,0
1578866524.251,28.809,32.227,23.926,27.344,0
1578866524.255,20.996,34.668,51.270,15.137,0
1578866524.259,17.578,33.691,-39.551,8.301,0
1578866524.263,21.484,30.762,-122.070,13.184,0
1578866524.267,26.855,38.086,-96.191,21.973,0
1578866524.271,19.531,32.227,-64.453,29.297,0
1578866524.274,18.066,28.809,-52.734,26.855,0
1578866524.278,28.809,35.156,-231.934,31.738,0
1578866524.282,27.832,33.203,-99.609,36.133,0
1578866524.286,30.273,33.691,80.078,35.156,0
1578866524.290,30.762,36.133,-78.125,32.715,0
1578866524.292,30.762,34.668,-115.234,24.414,0
1578866524.296,41.992,36.133,55.176,35.156,0
1578866524.300,40.527,36.133,137.207,47.852,0
1578866524.304,35.156,34.668,35.156,43.945,0
1578866524.308,38.574,27.832,-111.816,38.086,0
1578866524.312,32.715,22.949,-125.977,30.762,0
1578866524.316,28.809,30.762,9.277,28.320,0
1578866524.319,30.762,37.109,-56.152,32.715,0
1578866524.323,25.879,40.039,-270.020,27.344,0
1578866524.327,29.785,38.574,-62.012,21.973,0
1578866524.331,43.457,34.180,141.602,29.785,0
1578866524.335,49.316,35.156,80.566,39.062,0
1578866524.336,30.762,34.668,-21.484,18.555,0
1578866524.340,14.160,30.762,-72.266,12.207,0
1578866524.344,6.348,31.250,-70.801,23.926,0
1578866524.348,8.301,26.855,7.812,27.344,0
1578866524.352,12.695,21.973,-7.324,22.461,0
1578866524.356,7.324,31.250,-117.188,19.043,0
1578866524.360,20.508,40.039,-165.039,22.949,0
1578866524.363,26.855,42.969,-224.121,20.996,0
1578866524.367,20.020,39.551,-114.746,17.578,0
1578866524.371,21.973,39.551,38.086,13.184,0
1578866524.375,20.020,42.480,-30.273,14.648,0
1578866524.379,17.090,31.738,-24.414,13.184,0
1578866524.381,19.531,30.762,68.848,11.230,0
1578866524.385,21.973,31.250,-0.977,10.742,0
1578866524.389,38.086,24.902,-141.602,20.020,0
1578866524.393,35.645,33.203,-125.488,26.367,0
1578866524.397,19.531,34.668,-52.246,32.227,0
1578866524.401,18.066,33.203,-152.832,31.738,0
1578866524.405,26.367,37.598,-299.316,32.715,0
1578866524.408,30.762,39.062,-278.320,25.879,0
1578866524.412,29.785,30.273,-16.602,20.996,0
1578866524.416,30.273,28.320,52.246,29.785,0
1578866524.420,27.344,35.156,-71.777,24.414,0
1578866524.424,30.273,33.691,-3.906,25.879,0
1578866524.426,33.203,32.715,110.840,31.738,0
1578866524.430,33.691,39.551,96.191,31.250,0
1578866524.434,29.297,32.715,-29.785,30.273,0
1578866524.438,29.785,21.973,5.371,27.344,0
1578866524.442,37.598,27.832,136.719,34.180,0
1578866524.446,32.227,32.227,25.391,47.363,0
1578866524.450,25.879,39.551,-291.504,42.480,0
1578866524.453,24.414,38.086,-328.125,32.227,0
1578866524.457,28.809,31.250,-105.469,30.273,0
1578866524.461,35.645,32.227,-10.742,34.180,0
1578866524.465,33.203,33.203,-77.148,33.203,0
1578866524.469,42.969,35.645,-38.574,27.344,0
1578866524.486,45.898,36.133,83.496,29.785,0
1578866524.490,32.227,32.227,113.281,30.273,0
1578866524.494,36.621,26.367,6.836,20.020,0
1578866524.498,41.504,34.180,-78.125,22.461,0
1578866524.502,39.551,37.109,28.320,28.809,0
1578866524.506,37.598,30.273,-53.223,33.203,0
1578866524.510,33.691,34.180,-170.898,34.668,0
1578866524.513,34.668,33.691,-63.477,30.273,25600
1578866524.517,37.598,33.203,91.309,34.180,0
1578866524.521,34.668,31.250,66.895,42.969,0
1578866524.525,30.762,29.297,-83.008,44.434,0
1578866524.529,32.227,32.227,16.113,33.203,0
1578866524.531,37.598,25.391,57.129,24.414,0
1578866524.535,43.457,23.926,39.062,27.344,0
1578866524.539,42.969,34.668,156.250,30.762,0
1578866524.543,32.715,38.086,132.812,23.926,0
1578866524.547,29.297,35.156,41.016,26.855,0
1578866524.551,32.227,32.227,34.668,36.621,0
1578866524.555,24.414,32.227,71.777,39.551,0
1578866524.558,21.484,35.156,115.234,36.133,0
1578866524.562,28.320,29.785,0.000,25.391,0
1578866524.566,31.738,23.438,-167.969,21.484,0
1578866524.570,29.297,29.785,-8.301,24.414,0
1578866524.574,28.320,37.109,138.672,27.344,0
1578866524.576,31.250,26.367,10.742,27.832,0
1578866524.580,26.367,25.879,-88.867,21.484,0
1578866524.584,16.113,30.273,33.203,20.508,0
1578866524.588,14.160,29.297,191.895,32.227,0
1578866524.592,20.508,33.691,3.418,40.039,0
1578866524.596,28.320,31.738,-189.941,29.785,0
1578866524.600,27.344,26.367,-71.777,21.973,0
1578866524.603,26.367,28.320,121.582,27.344,0
1578866524.607,22.949,31.250,-46.875,19.043,0
1578866524.611,21.484,36.133,-224.121,10.742,0
1578866524.615,26.367,35.156,67.383,17.578,0
1578866524.619,21.973,25.879,167.480,22.949,0
1578866524.621,24.902,18.066,48.340,25.391,0
1578866524.625,29.297,24.414,-16.602,19.531,0
1578866524.629,28.320,35.156,88.379,10.254,0
1578866524.633,24.902,30.762,171.875,18.066,0
1578866524.637,22.461,29.297,100.098,28.320,0
1578866524.641,25.879,36.133,-83.496,24.414,0
1578866524.645,31.738,32.715,-101.562,28.320,0
1578866524.648,37.109,26.855,17.578,36.621,0
1578866524.652,32.227,28.809,-85.449,31.738,0
1578866524.656,20.020,30.762,-93.262,27.832,0
1578866524.660,23.438,28.809,64.453,39.062,0
1578866524.664,25.391,30.762,31.738,36.133,0
1578866524.666,26.367,34.668,24.414,25.879,0
1578866524.670,25.391,31.250,80.566,25.391,0
1578866524.674,20.508,27.344,25.391,22.461,0
1578866524.678,31.738,25.879,-6.836,17.090,0
1578866524.682,32.227,29.297,27.344,22.461,0
1578866524.686,19.531,33.691,-15.625,28.320,0
1578866524.690,25.879,31.738,-91.797,31.250,0
1578866524.693,36.621,28.320,-205.078,41.016,0
1578866524.697,36.621,26.855,-202.637,43.945,0
1578866524.701,29.297,33.691,68.359,31.250,0
1578866524.705,23.438,29.785,8.789,19.531,0
1578866524.709,25.879,29.785,-104.004,20.020,0
1578866524.711,35.645,36.621,0.977,25.391,0
1578866524.715,35.156,33.691,136.719,21.973,0
1578866524.719,27.344,21.484,43.457,17.090,0
1578866524.723,27.832,21.484,-121.582,22.949,0
1578866524.727,28.320,32.715,-20.020,27.344,0
1578866524.731,21.973,37.109,-16.113,28.809,0
1578866524.735,20.996,37.109,-157.227,34.668,0
1578866524.738,33.203,33.691,-325.195,36.621,0
1578866524.742,37.109,31.250,-207.031,28.320,0
1578866524.746,32.227,28.320,92.285,26.367,0
1578866524.750,29.785,21.484,19.531,24.414,0
1578866524.754,28.809,26.855,-128.906,17.090,0
1578866524.757,31.250,27.832,-55.664,28.320,0
1578866524.761,23.926,24.414,84.961,37.109,0
1578866524.765,22.461,28.320,61.523,32.715,0
1578866524.769,28.809,28.809,-93.262,27.832,0
1578866524.773,34.668,25.879,-53.223,27.832,0
1578866524.777,38.574,27.832,-59.082,26.367,0
1578866524.781,27.832,30.762,-208.984,21.973,0
1578866524.784,20.020,25.879,-312.012,16.113,0
1578866524.788,27.832,26.855,-178.223,21.484,0
1578866524.792,32.227,29.785,20.996,24.902,0
1578866524.796,24.414,27.832,44.434,15.137,0
1578866524.800,24.414,34.180,-50.781,16.602,0
1578866524.802,28.320,32.715,-91.797,19.043,0
1578866524.806,38.574,28.809,-76.172,23.926,0
1578866524.810,42.969,33.691,-48.340,33.203,0
1578866524.814,32.715,33.203,29.785,35.156,0
1578866524.818,26.855,31.738,-41.992,31.250,0
1578866524.822,32.715,33.203,-117.188,31.250,0
1578866524.826,40.039,33.691,-221.191,41.992,0
1578866524.829,43.457,33.691,-161.133,44.922,0
1578866524.833,34.180,32.227,13.184,34.668,0
1578866524.837,25.879,30.273,-86.914,19.531,0
1578866524.841,31.738,29.297,-75.684,22.461,0
1578866524.845,24.902,33.691,44.922,34.180,0
1578866524.862,22.461,40.039,39.062,27.344,0
1578866524.866,31.738,33.203,-100.586,25.391,0
1578866524.870,36.133,29.785,-96.191,31.250,0
1578866524.874,29.785,30.273,78.125,29.785,0
1578866524.878,21.484,27.344,41.504,33.691,0
1578866524.882,18.066,30.762,-267.090,29.297,0
1578866524.886,20.996,30.273,-353.027,23.438,0
1578866524.889,23.926,22.949,-57.617,26.855,0
1578866524.893,24.414,27.832,108.398,28.809,0
1578866524.897,28.320,39.062,-134.277,24.902,0
1578866524.901,34.668,36.133,-213.379,21.484,0
1578866524.905,37.598,31.738,27.344,29.297,0
1578866524.906,30.762,28.809,76.660,37.598,0
1578866524.910,24.414,34.180,-39.551,33.203,0
1578866524.914,23.926,36.133,-141.113,25.391,0
1578866524.918,25.391,32.715,-10.742,29.785,0
1578866524.922,27.832,37.598,100.098,32.715,0
1578866524.926,23.926,38.086,-73.730,22.949,0
1578866524.930,13.672,35.645,-195.312,17.578,0
1578866524.933,19.531,26.855,-78.125,16.602,0
1578866524.937,29.785,22.461,-16.602,20.996,0
1578866524.941,26.855,30.273,-148.438,28.809,0
1578866524.945,17.578,29.785,-179.199,26.855,0
1578866524.949,24.902,22.949,21.973,23.438,0
1578866524.967,34.180,29.785,-40.039,25.391,0
1578866524.971,36.133,35.156,-98.145,29.785,0
1578866524.975,35.645,36.621,-33.203,27.344,0
1578866524.979,33.691,39.062,-10.254,25.879,0
1578866524.983,31.250,38.086,-18.555,36.133,0
1578866524.987,30.762,35.156,-165.039,34.668,0
1578866524.991,34.668,32.227,-236.816,34.180,0
1578866524.994,31.738,29.785,-88.379,29.785,0
1578866524.998,29.297,30.762,-96.680,20.996,0
1578866525.002,26.855,31.738,-187.012,19.531,0
1578866525.006,24.902,28.809,-80.078,19.043,0
1578866525.010,30.762,29.785,-117.676,28.809,0
1578866524.997,40.527,34.668,-86.426,38.086,0
1578866525.001,43.945,38.086,26.855,34.668,0
1578866525.005,41.016,39.551,92.285,32.227,0
1578866525.009,31.250,39.062,-25.391,27.344,0
1578866525.013,24.902,34.180,-116.699,19.043,0
1578866525.017,29.297,26.367,-49.316,23.438,0
1578866525.021,29.785,29.785,8.789,24.902,0
1578866525.024,25.391,32.227,-86.426,22.949,0
1578866525.028,32.227,28.809,-145.020,28.320,0
1578866525.032,33.203,32.715,-41.992,36.133,0
1578866525.036,28.320,30.762,34.180,40.527,0
1578866525.040,31.738,23.926,-54.199,27.832,0
1578866525.042,35.156,25.879,-324.707,19.043,0
1578866525.046,35.645,36.621,-292.480,25.391,0
1578866525.050,28.809,35.645,-46.875,23.438,0
1578866525.054,20.996,28.809,-45.410,19.043,0
1578866525.058,19.531,34.668,-147.461,22.461,0
1578866525.062,34.180,36.621,-159.668,25.879,0
1578866525.066,32.715,32.227,-71.289,30.273,0
1578866525.069,21.484,32.715,-85.449,32.227,0
1578866525.073,28.320,34.180,-313.477,25.391,0
1578866525.077,32.715,33.691,-146.973,27.832,0
1578866525.081,25.879,32.227,73.730,30.762,0
1578866525.085,22.949,25.879,49.316,25.391,0
1578866525.087,19.043,29.297,-63.477,22.949,0
1578866525.091,21.973,33.203,-22.949,19.043,0
1578866525.095,35.156,29.785,46.875,19.531,0
1578866525.099,30.273,36.133,2.441,31.738,0
1578866525.103,19.531,35.156,-80.078,34.180,0
1578866525.107,19.531,27.832,-189.941,17.578,0
1578866525.111,28.809,31.250,-171.875,10.742,0
1578866525.114,32.715,36.621,-196.289,18.066,0
1578866525.118,24.414,32.227,-137.695,23.438,0
1578866525.122,25.391,29.785,-35.156,20.508,0
1578866525.126,27.832,28.809,-10.742,20.020,0
1578866525.130,25.391,29.297,13.184,26.367,0
1578866525.132,25.879,30.273,70.801,32.715,0
1578866525.136,18.066,27.344,44.922,25.391,0
1578866525.140,30.762,27.344,-53.223,26.367,0
1578866525.144,38.086,30.762,-40.527,36.621,0
1578866525.148,15.137,35.645,75.195,37.598,0
1578866525.152,14.648,28.809,-23.438,32.227,0
1578866525.156,30.762,32.715,-238.281,29.297,0
1578866525.159,32.715,40.039,-223.145,31.738,0
1578866525.163,28.809,31.250,18.555,31.738,0
1578866525.167,32.227,34.668,127.441,26.367,0
1578866525.171,39.062,38.086,-19.043,21.973,0
1578866525.175,39.551,24.902,-27.344,26.855,0
1578866525.177,25.391,19.531,124.023,31.738,0
1578866525.181,20.508,30.273,151.855,25.391,0
1578866525.185,24.902,34.668,-6.836,19.531,0
1578866525.189,26.367,31.250,27.832,18.066,0
1578866525.193,18.066,32.227,187.012,20.508,0
1578866525.197,13.672,29.297,101.074,22.461,0
1578866525.201,24.414,34.668,-157.227,23.926,0
1578866525.204,36.621,36.621,-99.609,21.973,0
1578866525.208,39.551,30.273,204.590,21.973,0
1578866525.212,35.645,28.320,208.008,31.738,0
1578866525.216,30.273,28.320,41.016,21.973,0
1578866525.220,30.273,31.250,-55.664,16.113,0
1578866525.237,30.273,29.297,44.922,26.855,0
1578866525.241,26.855,28.809,86.914,25.879,0
1578866525.245,23.438,34.180,47.363,25.879,0
1578866525.249,25.879,30.273,17.578,34.668,0
1578866525.253,33.691,27.832,57.617,38.086,0
1578866525.257,36.133,36.133,-13.184,32.715,0
1578866525.261,33.203,33.203,-112.793,28.320,0
1578866525.264,30.273,29.785,-23.926,22.949,0
1578866525.268,27.832,33.203,36.621,23.926,0
1578866525.272,22.949,31.250,72.754,37.598,0
1578866525.276,23.438,25.879,90.332,41.992,0
1578866525.280,24.414,24.902,129.395,29.297,0
1578866525.282,19.531,24.414,83.984,33.203,0
1578866525.286,24.902,29.785,72.266,37.598,0
1578866525.290,31.250,38.086,121.094,28.320,0
1578866525.294,30.762,32.715,107.910,24.902,0
1578866525.298,29.785,21.484,46.387,21.973,0
1578866525.302,26.855,24.414,-52.734,19.531,0
1578866525.306,27.832,23.438,-12.695,21.973,0
1578866525.309,27.832,19.043,135.742,25.879,0
1578866525.313,20.508,23.438,43.457,24.414,0
1578866525.317,21.973,28.320,-175.293,23.438,0
1578866525.321,17.578,27.832,-5.859,22.949,0
1578866525.325,16.113,31.738,155.762,24.414,0
1578866525.327,24.414,33.691,-84.961,20.020,0
1578866525.331,26.367,29.297,-137.695,18.555,0
1578866525.335,27.344,29.297,67.383,27.344,0
1578866525.339,25.879,32.227,117.188,27.832,0
1578866525.343,26.367,23.926,-121.582,22.949,0
1578866525.347,37.598,20.508,-209.473,25.391,0
1578866525.351,43.945,23.438,-93.750,33.203,0
1578866525.354,30.273,26.367,30.762,37.598,0
1578866525.358,23.438,34.668,-77.637,33.691,0
1578866525.362,24.902,33.691,-275.391,22.949,0
1578866525.366,27.344,30.762,-80.566,20.020,0
1578866525.370,25.391,28.320,81.543,26.367,0
1578866525.372,19.531,28.809,20.020,24.902,0
1578866525.376,21.973,34.668,-113.770,25.391,0
1578866525.380,27.832,32.715,14.648,30.762,0
1578866525.384,27.344,26.367,154.785,32.715,0
1578866525.388,26.855,24.414,40.527,30.762,0
1578866525.392,32.227,25.391,-132.324,33.203,0
1578866525.396,34.180,25.879,-247.559,34.668,0
1578866525.399,32.715,33.691,-164.551,26.855,0
1578866525.403,32.227,39.062,-180.176,28.320,0
1578866525.407,32.227,41.992,-248.047,31.250,0
1578866525.411,33.203,40.039,-90.820,28.320,0
1578866525.415,31.250,35.645,-92.285,26.855,0
1578866525.417,26.855,33.203,-93.262,29.785,0
1578866525.421,26.367,33.203,16.113,24.902,0
1578866525.425,20.508,32.715,-38.086,9.277,0
1578866525.429,21.484,32.715,-35.156,9.766,0
1578866525.433,25.391,29.785,19.531,27.344,0
1578866525.437,24.414,20.020,-63.965,33.691,0
1578866525.441,27.832,26.367,-155.762,27.344,0
1578866525.444,27.344,38.086,-213.867,16.113,0
1578866525.448,25.879,36.621,-206.543,10.742,0
1578866525.452,29.785,34.180,15.625,17.090,0
1578866525.456,23.438,34.180,-39.551,15.625,0
1578866525.460,16.113,33.203,-91.309,13.672,0
1578866525.464,22.949,32.227,30.273,25.879,0
1578866525.468,28.809,30.762,92.285,35.156,0
1578866525.472,28.320,29.297,1.953,35.156,0
1578866525.476,29.297,24.414,-87.402,29.785,0
1578866525.480,30.273,21.484,22.461,28.809,0
1578866525.484,29.297,25.391,-3.906,28.809,0
1578866525.488,29.297,28.320,-93.750,25.879,0
1578866525.491,28.809,34.180,-310.059,27.344,0
1578866525.495,33.203,34.180,-305.664,29.297,0
1578866525.499,34.180,28.320,23.438,37.598,0
1578866525.503,28.809,30.273,50.293,39.551,0
1578866525.507,20.996,30.762,-50.293,27.832,0
1578866525.506,24.902,28.809,-66.406,24.902,0
1578866525.510,31.738,20.996,12.695,32.227,0
1578866525.514,30.273,22.461,70.312,38.086,0
1578866525.518,27.344,33.691,-69.824,33.691,0
1578866525.522,29.297,29.785,-60.547,28.809,0
1578866525.526,31.738,28.320,-48.828,29.297,0
1578866525.530,36.621,32.715,-196.289,34.668,0
1578866525.533,31.738,36.621,-275.391,28.809,0
1578866525.537,30.762,37.109,-76.172,22.461,0
1578866525.541,40.039,32.715,88.867,26.367,0
1578866525.545,34.180,36.133,59.082,31.250,0
1578866525.549,28.809,42.969,38.086,31.250,0
1578866525.551,28.809,36.621,-21.973,23.926,0
1578866525.555,35.156,29.785,28.809,27.344,0
1578866525.559,36.133,28.320,56.641,36.133,0
1578866525.563,25.879,25.879,-40.039,29.785,0
1578866525.567,27.344,25.879,-91.797,26.367,0
1578866525.571,34.180,30.273,-121.582,30.273,0
1578866525.575,34.668,35.156,-235.352,33.691,0
1578866525.578,30.273,37.598,-158.203,37.109,0
1578866525.582,31.738,44.434,3.418,30.762,0
1578866525.586,36.133,39.062,-47.852,28.320,0
1578866525.590,37.598,35.156,-22.461,34.180,0
1578866525.594,37.109,38.086,108.887,41.992,0
1578866525.611,34.668,28.809,75.195,49.805,0
1578866525.615,31.738,24.902,-81.055,44.434,0
1578866525.619,39.551,27.344,-72.754,37.598,0
1578866525.623,41.016,23.926,33.691,41.992,0
1578866525.627,37.598,30.273,49.805,37.598,0
1578866525.631,35.645,30.762,-197.266,19.043,0
1578866525.635,35.645,30.762,-297.363,15.137,0
1578866525.638,31.738,40.527,-141.602,36.133,0
1578866525.642,30.273,38.086,22.949,38.574,0
1578866525.646,28.809,33.203,-142.090,25.391,0
1578866525.650,31.738,30.273,-237.793,28.320,0
1578866525.654,39.062,29.785,13.184,36.133,0
1578866525.656,38.574,31.738,61.523,35.645,0
1578866525.660,39.062,27.344,-31.738,24.414,0
1578866525.664,38.086,24.414,-72.266,15.625,0
1578866525.668,34.668,31.250,31.738,23.926,0
1578866525.672,32.227,34.180,61.035,27.832,0
1578866525.676,37.109,31.250,-26.855,28.809,17010
1578866525.680,37.109,34.180,-201.660,29.785,0
1578866525.683,21.973,33.203,-121.094,23.926,0
1578866525.687,20.020,25.391,46.387,27.344,0
1578866525.691,24.414,27.344,-199.219,30.273,0
1578866525.695,20.020,29.297,-253.418,23.438,0
1578866525.699,15.137,25.879,-37.598,19.531,0
1578866525.701,18.066,28.809,-11.719,20.996,0
1578866525.705,26.367,26.855,-41.504,23.926,0
1578866525.709,25.391,27.832,-22.949,23.926,0
1578866525.713,20.996,23.438,-44.922,16.602,0
1578866525.717,25.391,23.926,-68.359,19.531,0
1578866525.721,28.809,34.180,-129.883,35.645,0
1578866525.725,30.273,37.109,-234.375,29.297,0
1578866525.728,32.715,26.855,-121.094,28.809,0
1578866525.732,27.832,20.996,-57.617,33.691,0
1578866525.736,24.414,30.762,-167.969,32.227,0
1578866525.740,26.855,33.203,-73.730,33.203,0
1578866525.744,35.156,39.062,-61.035,33.203,0
1578866525.746,48.340,29.297,-117.188,39.551,0
1578866525.750,47.852,22.461,-72.266,41.504,0
1578866525.754,44.434,39.551,35.156,45.898,0
1578866525.758,36.621,43.945,-23.926,36.621,0
1578866525.762,34.668,37.598,-143.555,24.414,0
1578866525.766,40.527,29.785,-154.785,27.832,0
1578866525.770,33.203,23.438,-92.773,21.484,0
1578866525.773,26.855,26.855,-82.031,20.020,0
1578866525.777,34.180,28.809,-262.207,22.461,0
1578866525.781,31.738,31.250,-196.777,21.973,0
1578866525.785,23.926,34.668,74.219,32.715,0
1578866525.789,24.902,27.344,15.137,28.320,0
1578866525.791,26.367,29.785,-99.609,13.672,0
1578866525.795,19.043,38.086,-24.902,15.137,0
1578866525.799,18.066,36.621,70.312,27.344,0
1578866525.803,18.555,33.691,7.324,32.227,0
1578866525.807,18.066,22.949,-181.641,26.855,0
1578866525.811,31.250,21.973,-217.285,22.461,0
1578866525.815,29.297,35.156,-92.773,30.273,0
1578866525.818,21.973,36.621,-125.000,34.668,0
1578866525.822,20.508,34.668,-297.852,27.832,0
1578866525.826,20.508,28.320,-111.816,28.320,0
1578866525.830,20.020,24.902,73.242,33.691,0
1578866525.834,19.043,33.203,55.664,34.180,0
1578866525.836,17.578,37.109,64.941,26.367,0
1578866525.840,23.926,32.715,110.840,20.996,0
1578866525.844,26.367,26.855,94.238,20.996,0
1578866525.848,36.621,18.555,70.312,27.832,0
1578866525.852,47.852,27.832,76.660,26.855,0
1578866525.856,38.574,30.273,-36.133,20.508,0
1578866525.860,37.598,30.273,-69.336,27.832,0
1578866525.863,35.156,34.180,-117.676,28.320,0
1578866525.867,31.250,30.762,-43.945,27.344,0
1578866525.871,36.133,34.180,66.895,27.344,0
1578866525.875,38.086,29.785,25.879,27.832,0
1578866525.879,36.621,28.320,61.035,34.180,0
1578866525.881,39.062,34.668,110.840,33.691,0
1578866525.885,35.645,36.621,70.801,24.902,0
1578866525.889,37.598,35.645,1.953,22.461,0
1578866525.893,41.016,33.203,31.738,32.715,0
1578866525.897,39.551,31.250,139.648,35.156,0
1578866525.901,35.645,30.762,19.531,29.297,0
1578866525.905,29.785,32.715,-249.023,29.785,0
1578866525.908,26.855,33.203,-273.926,29.297,0
1578866525.912,22.949,27.832,6.836,30.762,0
1578866525.916,30.273,28.809,51.270,33.691,0
1578866525.920,36.621,26.367,-122.070,32.715,0
1578866525.924,39.062,23.926,-8.789,31.738,0
1578866525.926,34.668,26.855,192.383,38.574,0
1578866525.930,22.949,32.227,210.449,40.527,0
1578866525.934,21.973,28.320,30.762,27.344,0
1578866525.938,32.227,26.855,-8.789,21.973,0
1578866525.942,33.203,30.273,116.211,30.273,0
1578866525.946,36.133,31.738,55.176,34.668,0
1578866525.950,33.203,30.762,-239.746,27.344,0
1578866525.953,35.156,23.926,-239.258,27.832,0
1578866525.957,45.898,26.855,77.148,39.062,0
1578866525.961,43.457,34.668,108.398,48.828,0
1578866525.965,36.133,25.391,9.277,51.270,0
1578866525.969,36.133,21.973,-29.297,40.527,0
1578866525.987,33.203,29.297,20.508,27.832,0
1578866525.991,34.668,25.879,-9.277,36.133,0
1578866525.995,30.762,25.879,-22.949,43.457,0
1578866525.999,26.367,34.180,-9.277,37.109,0
1578866526.003,31.250,33.691,11.719,37.109,0
1578866526.007,29.785,26.367,-87.402,41.016,0
1578866526.011,31.250,19.531,-146.973,39.551,0
1578866526.014,27.832,23.926,-11.719,20.020,0
1578866526.018,24.414,37.598,52.734,11.230,0
1578866526.022,25.391,41.016,-13.672,18.066,0
1578866526.026,23.438,34.668,-59.570,23.926,0
1578866526.030,20.508,33.203,-34.668,24.414,0
1578866526.032,21.484,36.621,-14.648,20.508,0
1578866526.036,30.762,35.645,-38.574,28.320,0
1578866526.040,31.250,28.809,25.391,33.691,0
1578866526.044,23.438,29.297,25.391,23.438,0
1578866526.048,25.391,27.832,-166.016,17.578,0
1578866526.052,32.227,26.367,-151.367,22.461,0
1578866526.056,36.621,31.738,-85.938,25.879,0
1578866526.059,35.156,34.668,-65.918,25.391,0
1578866526.063,28.809,30.273,-98.145,22.949,0
1578866526.067,28.320,20.996,-260.254,20.020,0
1578866526.071,24.414,21.973,-138.672,23.926,0
1578866526.075,24.414,31.738,113.281,31.738,0
1578866526.077,21.484,41.504,-39.062,29.785,0
1578866526.081,28.320,35.156,-102.051,25.879,0
1578866526.085,38.086,23.438,35.156,20.020,0
1578866526.089,29.785,28.320,149.902,23.926,0
1578866526.093,23.926,30.273,-25.391,22.461,0
1578866526.097,27.832,25.879,-221.191,16.602,0
1578866526.101,34.180,26.367,-125.488,21.973,0
1578866526.104,27.344,30.762,-2.441,29.297,0
1578866526.108,24.414,27.832,-87.402,29.785,0
1578866526.112,24.902,30.762,-291.504,19.043,0
1578866526.116,28.809,34.668,-81.543,24.414,0
1578866526.120,22.949,27.832,109.375,29.785,0
1578866526.122,19.531,30.762,22.461,21.484,0
1578866526.126,24.414,36.621,-143.555,18.555,0
1578866526.130,23.926,29.297,-66.406,18.555,0
1578866526.134,19.043,29.297,66.406,18.555,0
1578866526.138,23.926,33.203,-5.371,20.996,0
1578866526.142,29.785,31.738,-208.984,18.066,0
1578866526.146,24.414,31.738,-204.102,18.066,0
1578866526.149,29.297,34.668,-12.207,24.414,0
1578866526.153,36.621,39.062,-120.117,26.367,0
1578866526.157,31.738,34.180,-294.922,23.438,0
1578866526.161,27.832,29.785,-101.562,21.973,0
1578866526.165,37.598,34.668,49.316,32.227,0
1578866526.167,41.016,30.273,34.180,41.992,0
1578866526.171,38.574,29.785,90.820,32.227,0
1578866526.175,39.551,31.250,82.520,24.902,0
1578866526.179,41.016,27.832,1.953,26.855,0
1578866526.183,49.316,27.832,-0.977,30.273,0
1578866526.187,45.410,32.715,-61.523,31.250,0
1578866526.191,31.738,39.551,-113.281,30.273,0
1578866526.194,34.668,44.922,-145.508,25.391,0
1578866526.198,36.133,41.992,-243.652,20.020,0
1578866526.202,33.203,34.668,-13.184,31.738,0
1578866526.206,33.691,35.156,42.969,35.645,0
1578866526.210,34.668,32.227,-77.148,26.855,0
1578866526.212,31.738,32.227,-74.707,33.203,0
1578866526.216,26.855,34.668,-12.695,38.086,0
1578866526.220,24.414,29.297,17.578,31.738,0
1578866526.224,30.762,20.020,-45.410,24.902,0
1578866526.228,29.297,28.809,39.062,19.531,0
1578866526.232,18.066,35.156,41.016,21.484,0
1578866526.236,23.926,33.691,-121.582,29.297,0
1578866526.239,24.414,40.527,-352.539,23.926,0
1578866526.243,29.297,41.992,-269.043,23.438,0
1578866526.247,35.156,40.039,122.070,28.809,0
1578866526.251,19.531,36.621,126.465,20.996,0
1578866526.255,10.742,36.133,-81.055,11.230,0
1578866526.257,24.414,35.645,-16.602,12.207,0
1578866526.261,34.668,29.785,125.000,14.648,0
1578866526.265,32.227,25.879,107.910,21.973,0
1578866526.269,29.297,21.484,-76.660,20.508,0
1578866526.273,37.109,23.438,-122.559,25.391,0
1578866526.277,40.527,34.180,-85.449,35.156,0
1578866526.281,32.715,41.504,-160.645,20.996,0
1578866526.284,24.902,41.016,-249.023,14.648,0
1578866526.288,25.391,38.086,-145.996,20.020,0
1578866526.292,34.180,41.016,15.625,26.367,0
1578866526.296,29.785,36.133,17.578,31.738,0
1578866526.300,26.367,31.738,-13.184,28.320,0
1578866526.302,26.367,31.250,-36.133,15.137,0
1578866526.306,29.785,33.691,-67.383,11.719,0
1578866526.310,31.250,32.715,-74.219,22.949,0
1578866526.314,27.344,23.926,-57.617,32.227,0
1578866526.318,26.367,21.973,-79.102,28.320,0
1578866526.322,22.949,27.832,-185.547,25.391,0
1578866526.326,24.414,33.203,-348.633,21.973,0
1578866526.329,18.066,34.180,-228.027,8.789,0
1578866526.333,11.719,33.691,-51.270,4.395,0
1578866526.337,10.742,33.691,-123.047,5.371,0
1578866526.341,14.648,33.203,-153.809,14.160,0
1578866526.345,23.926,37.598,-45.410,20.020,0
1578866526.362,20.996,34.180,-7.812,13.672,0
1578866526.366,20.020,28.809,-204.590,12.695,0
1578866526.370,18.066,33.203,-301.758,15.625,0
1578866526.374,17.578,28.809,-143.555,17.090,0
1578866526.378,22.461,24.902,-123.535,17.578,0
1578866526.382,11.230,28.320,-403.809,9.277,0
1578866526.386,9.277,33.691,-473.633,0.488,0
1578866526.389,13.672,32.227,-198.242,2.441,0
1578866526.393,13.184,29.785,-115.723,-0.488,0
1578866526.397,10.742,33.203,-383.301,-2.930,0
1578866526.401,3.418,31.250,-476.074,0.488,0
1578866526.405,-1.953,31.250,-170.898,-2.441,0
1578866526.407,-2.441,34.668,-106.934,-0.488,0
1578866526.411,0.000,36.621,-261.719,-5.859,0
1578866526.415,-5.859,38.086,-317.383,-21.973,0
1578866526.419,-7.324,35.645,-189.453,-23.438,0
1578866526.423,-4.883,39.551,-137.207,-15.625,0
1578866526.427,-11.719,39.062,-285.156,-15.625,0
1578866526.431,-3.418,35.156,-382.324,-11.719,0
1578866526.434,2.441,34.668,-162.598,-14.160,0
1578866526.438,-8.301,36.621,-27.344,-22.949,0
1578866526.442,-9.766,32.227,-238.281,-19.531,0
1578866526.446,-14.648,26.367,-257.812,-22.949,0
1578866526.450,-16.113,34.180,-67.871,-19.531,0
1578866526.452,-6.836,41.504,-118.164,-8.301,0
1578866526.456,-7.324,34.180,-202.148,-8.301,0
1578866526.460,-0.977,31.738,-81.055,-15.625,0
1578866526.464,13.672,28.320,9.766,-9.277,0
1578866526.468,11.719,26.855,30.762,-2.930,0
1578866526.472,0.000,34.668,-43.457,-0.977,0
1578866526.476,-5.371,26.855,-133.789,6.348,0
1578866526.479,10.254,23.438,-50.293,12.207,0
1578866526.483,29.297,28.320,-53.223,17.578,0
1578866526.487,34.180,31.250,-90.820,21.973,0
1578866526.491,41.504,34.180,143.066,26.855,0
1578866526.495,42.969,31.738,98.633,18.066,0
1578866526.497,38.574,30.273,42.969,13.672,0
1578866526.501,43.945,32.227,104.492,36.133,0
1578866526.505,44.922,24.902,228.516,52.734,0
1578866526.509,41.504,20.020,139.648,47.852,0
1578866526.513,48.340,24.902,62.012,38.574,0
1578866526.517,49.805,30.273,104.980,37.109,0
1578866526.521,43.945,29.297,172.852,42.969,0
1578866526.524,45.898,25.391,242.676,44.434,0
1578866526.528,58.105,26.367,13.184,39.062,0
1578866526.532,63.477,34.668,81.543,47.852,0
1578866526.536,54.688,39.062,386.230,56.152,0
1578866526.540,43.945,38.574,308.594,50.781,0
1578866526.542,45.898,36.621,126.465,55.664,0
1578866526.546,53.223,33.691,200.195,65.918,0
1578866526.550,49.805,29.297,324.707,60.547,0
1578866526.554,36.133,17.578,262.207,50.781,0
1578866526.558,36.621,17.578,137.695,41.504,0
1578866526.562,53.223,27.832,103.027,32.715,0
1578866526.566,61.523,29.297,144.531,38.574,0
1578866526.569,59.570,30.762,139.160,46.875,0
1578866526.573,53.711,31.250,-60.547,40.039,0
1578866526.577,49.316,30.762,51.758,39.551,0
1578866526.581,49.316,34.180,230.469,43.457,0
1578866526.585,50.781,39.062,191.895,48.828,0
1578866526.586,42.969,33.691,135.742,58.594,0
1578866526.590,38.574,31.250,83.008,62.988,0
1578866526.594,45.898,32.715,196.289,48.828,0
1578866526.598,47.852,28.809,226.562,43.945,0
1578866526.602,41.016,31.738,129.883,47.363,0
1578866526.606,41.992,29.785,-24.414,42.480,0
1578866526.610,54.199,25.879,-33.203,43.945,0
1578866526.613,55.176,30.762,-53.223,47.363,0
1578866526.617,40.039,29.297,-47.363,47.852,0
1578866526.621,32.715,31.738,-27.832,42.480,0
1578866526.625,41.992,35.645,-74.707,44.434,0
1578866526.629,45.898,30.273,41.504,54.688,0
1578866526.631,43.457,30.762,164.551,53.711,0
1578866526.635,42.969,31.250,125.977,46.875,0
1578866526.639,35.156,32.227,13.184,39.062,0
1578866526.643,26.855,36.621,13.184,43.945,0
1578866526.647,22.949,40.039,111.328,42.480,0
1578866526.651,21.973,32.715,41.016,30.762,0
1578866526.655,28.809,30.273,-196.289,27.344,0
1578866526.658,30.273,38.574,-218.262,31.250,0
1578866526.662,31.250,33.691,53.223,44.922,0
1578866526.666,34.180,26.855,190.430,47.852,0
1578866526.670,30.273,32.227,19.043,33.203,0
1578866526.674,40.527,34.668,-82.031,33.203,0
1578866526.676,44.434,35.645,65.430,38.574,0
1578866526.680,40.039,35.156,183.594,38.574,0
1578866526.684,38.574,30.273,50.293,27.832,0
1578866526.688,43.945,32.227,9.766,30.273,0
1578866526.692,47.363,36.621,180.176,45.898,0
1578866526.696,43.945,36.133,148.926,45.410,0
1578866526.700,47.852,25.391,-216.797,34.180,0
1578866526.703,53.711,22.461,-248.535,30.273,0
1578866526.707,48.340,32.227,92.773,36.133,0
1578866526.711,36.621,33.203,130.859,43.457,0
1578866526.715,36.133,32.715,27.832,37.598,0
1578866526.719,39.062,31.250,3.418,34.180,0
1578866526.736,38.086,24.414,80.566,34.180,0
1578866526.740,31.250,30.273,81.543,38.086,0
1578866526.744,27.344,39.062,-18.066,36.133,0
1578866526.748,23.926,38.574,-130.371,28.320,0
1578866526.752,37.109,35.645,-50.781,37.598,0
1578866526.756,41.016,35.645,-62.012,45.410,0
1578866526.760,37.598,34.180,-122.070,41.016,0
1578866526.763,43.457,31.250,-65.430,36.621,0
1578866526.767,35.645,30.762,6.348,38.086,21720
1578866526.771,38.086,34.668,-66.895,41.992,0
1578866526.775,46.387,33.691,-96.191,52.246,0
1578866526.779,51.270,33.203,79.102,50.781,0
1578866526.781,48.828,40.039,41.016,38.086,0
1578866526.785,38.574,41.504,9.766,35.645,0
1578866526.789,34.180,38.574,80.566,39.551,0
1578866526.793,34.180,37.598,62.012,33.691,0
1578866526.797,31.738,29.297,-87.891,25.879,0
1578866526.801,34.180,28.809,-130.371,31.738,0
1578866526.805,39.062,36.621,-94.238,47.852,0
1578866526.808,43.457,38.086,-28.320,58.105,0
1578866526.812,44.922,41.992,-68.848,41.992,0
1578866526.816,39.062,41.504,-290.527,30.273,0
1578866526.820,41.504,34.668,-200.195,44.922,0
1578866526.824,55.176,34.668,49.316,54.688,0
1578866526.826,54.199,41.504,-75.195,31.738,0
1578866526.830,45.410,45.898,-101.562,22.461,0
1578866526.834,49.805,41.504,52.734,41.016,0
1578866526.838,43.457,35.645,91.309,35.156,0
1578866526.842,38.574,35.645,-49.316,23.926,0
1578866526.846,40.039,37.598,-239.258,27.344,0
1578866526.850,42.969,33.691,-129.883,39.062,0
1578866526.853,40.527,29.297,121.582,53.223,0
1578866526.857,41.016,35.156,-37.109,54.688,0
1578866526.861,44.434,32.227,-319.336,39.551,0
1578866526.865,43.457,34.668,-33.691,36.621,0
1578866526.869,41.504,39.551,182.129,47.852,0
1578866526.871,32.715,32.227,68.359,47.852,0
1578866526.875,28.809,34.668,-46.387,37.598,0
1578866526.879,37.598,38.574,-1.953,40.039,0
1578866526.883,41.992,35.156,106.445,43.457,0
1578866526.887,37.109,33.203,107.422,36.133,0
1578866526.891,36.133,32.715,-62.988,36.133,0
1578866526.895,40.527,36.133,-97.168,43.945,0
1578866526.898,41.504,35.645,-45.410,33.691,0
1578866526.902,40.527,29.785,-166.992,20.020,0
1578866526.906,29.785,30.273,-151.367,16.113,0
1578866526.910,21.484,33.691,21.973,20.020,0
1578866526.914,35.156,37.109,36.621,28.809,0
1578866526.916,48.340,31.250,-11.719,39.551,0
1578866526.920,36.621,23.926,74.707,43.945,0
1578866526.924,24.902,25.879,44.922,32.715,0
1578866526.928,30.762,32.715,-34.668,22.461,0
1578866526.932,30.762,37.598,66.895,28.320,0
1578866526.936,30.273,35.156,46.387,46.387,0
1578866526.940,37.109,31.738,-107.910,40.039,0
1578866526.943,44.434,34.668,-179.688,29.785,0
1578866526.947,43.945,34.180,-184.082,38.574,0
1578866526.951,41.016,29.785,80.566,35.645,0
1578866526.955,48.340,24.902,110.840,27.832,0
1578866526.959,53.223,24.902,-61.523,28.320,0
1578866526.961,47.852,32.227,44.922,36.621,0
1578866526.965,35.156,39.062,190.430,41.504,0
1578866526.969,34.180,40.039,126.465,41.992,0
1578866526.973,36.133,30.762,-50.293,39.551,0
1578866526.977,28.320,28.320,11.230,27.832,0
1578866526.981,27.344,42.969,81.055,31.250,0
1578866526.985,31.250,41.016,-18.555,40.527,0
1578866526.988,32.227,38.574,-260.254,28.809,0
1578866526.992,34.180,37.598,-248.535,23.926,0
1578866526.996,29.297,33.691,72.754,39.551,0
1578866527.000,31.738,35.156,138.672,46.387,0
1578866527.004,41.016,37.598,-23.926,40.039,0
1578866527.006,45.898,38.086,0.977,41.504,0
1578866527.010,42.969,34.668,129.395,44.434,0
1578866527.014,46.875,34.668,86.426,42.480,0
1578866527.018,45.410,38.086,-54.199,35.156,0
1578866527.022,41.504,38.086,-97.168,29.297,0
1578866527.026,42.969,37.598,2.441,35.645,0
1578866527.030,36.133,41.992,-31.738,45.898,0
1578866527.033,28.809,43.457,-210.449,41.016,0
1578866527.037,35.156,33.203,-114.258,25.879,0
1578866527.041,48.828,32.227,104.980,29.297,0
1578866527.045,47.363,35.645,128.418,37.109,0
1578866527.049,34.180,38.574,76.172,35.645,0
1578866527.051,31.738,33.203,18.066,27.832,0
1578866527.055,35.645,28.320,12.207,24.902,0
1578866527.059,32.715,31.738,49.805,35.156,0
1578866527.063,26.855,30.273,72.754,41.016,0
1578866527.067,27.832,31.250,7.812,30.273,0
1578866527.071,41.504,29.297,-108.887,33.203,0
1578866527.075,37.109,35.156,-210.938,32.715,0
1578866527.078,21.484,37.109,-81.543,17.578,0
1578866527.082,23.926,33.203,116.699,20.508,0
1578866527.086,34.668,29.785,-57.129,20.996,0
1578866527.090,32.227,25.879,-72.266,25.391,0
1578866527.094,30.273,27.344,62.500,35.645,0
1578866527.112,40.527,33.691,165.527,27.832,0
1578866527.116,38.086,34.668,7.324,20.996,0
1578866527.120,31.250,30.273,-80.078,25.391,0
1578866527.124,37.109,30.273,149.902,38.574,0
1578866527.128,41.016,32.227,217.285,41.992,0
1578866527.132,41.504,30.273,-60.547,34.668,0
1578866527.136,45.410,30.762,-142.578,30.762,0
1578866527.139,43.945,37.598,146.973,36.621,0
1578866527.143,40.039,35.645,282.227,50.293,0
1578866527.147,45.898,30.273,83.496,44.922,0
1578866527.151,45.898,35.645,-10.254,33.691,0
1578866527.155,41.504,39.062,195.801,29.785,0
1578866527.157,43.457,38.086,288.086,29.297,0
1578866527.161,33.691,35.156,230.469,41.016,0
1578866527.165,23.926,38.574,83.496,38.086,0
1578866527.169,31.250,39.062,207.031,30.273,0
1578866527.173,40.039,39.062,380.859,36.621,0
1578866527.177,34.668,40.527,214.355,34.668,0
1578866527.181,27.832,36.621,-28.809,24.414,0
1578866527.184,43.945,39.551,62.988,22.461,0
1578866527.188,45.410,36.133,192.871,29.297,0
1578866527.192,29.785,25.391,9.766,27.832,0
1578866527.196,30.273,29.785,-84.961,18.555,0
1578866527.200,31.738,36.621,90.332,29.785,0
1578866527.202,30.273,37.598,149.414,28.320,0
1578866527.206,29.297,38.574,165.527,18.555,0
1578866527.210,23.438,36.133,128.418,18.066,0
1578866527.214,25.879,34.180,41.992,13.184,0
1578866527.218,32.715,31.738,114.746,19.531,0
1578866527.222,25.391,27.344,94.238,40.527,0
1578866527.226,12.207,27.344,56.152,56.152,0
1578866527.229,17.578,27.832,117.188,33.691,0
1578866527.233,31.250,26.855,21.973,20.996,0
1578866527.237,30.273,32.227,-77.637,28.809,0
1578866527.241,21.973,32.715,83.008,15.137,0
1578866527.245,29.297,27.832,-6.348,-2.930,0
1578866527.247,40.039,33.691,-122.070,4.883,0
1578866527.251,41.504,36.621,-30.273,23.438,0
1578866527.255,32.227,35.645,54.199,26.855,0
1578866527.259,20.996,37.109,-108.398,20.508,0
1578866527.263,27.832,30.273,-289.551,22.949,0
1578866527.267,34.180,24.902,-307.129,28.809,0
1578866527.271,34.180,26.367,-274.414,35.645,0
1578866527.274,34.668,26.855,-277.832,33.203,0
1578866527.278,34.668,26.367,-530.762,25.391,0
1578866527.282,38.574,22.461,-455.078,36.133,0
1578866527.286,39.062,18.555,-61.035,47.363,0
1578866527.290,34.668,18.555,-81.543,59.570,0
1578866527.292,38.086,18.555,-277.344,49.316,0
1578866527.296,49.316,20.020,-228.027,38.574,0
1578866527.300,51.270,19.531,-105.469,60.059,0
1578866527.304,48.828,15.625,-161.621,69.336,0
1578866527.308,45.410,8.789,-375.977,65.918,0
1578866527.312,44.922,4.883,-473.145,51.270,0
1578866527.316,57.617,7.324,-348.145,58.105,0
1578866527.319,68.848,5.371,-379.883,82.031,0
1578866527.323,58.594,4.883,-614.258,74.707,0
1578866527.327,47.363,6.348,-601.074,54.688,0
1578866527.331,45.898,4.883,-379.395,62.500,0
1578866527.335,54.199,4.395,-239.746,72.266,0
1578866527.337,60.547,5.371,-333.008,67.871,0
1578866527.341,63.477,4.395,-399.414,60.059,0
1578866527.345,71.289,1.465,-340.820,62.988,0
1578866527.349,69.336,3.906,-271.973,80.566,0
1578866527.353,55.664,2.441,-233.887,77.148,0
1578866527.357,48.340,-2.930,-403.320,71.289,0
1578866527.361,69.336,0.488,-424.316,83.984,0
1578866527.364,75.684,2.441,-362.305,79.102,0
1578866527.368,62.500,-0.977,-279.785,79.102,0
1578866527.372,63.477,-1.953,-183.105,96.191,0
1578866527.376,61.035,2.441,-246.582,89.355,0
1578866527.380,60.059,7.812,-213.867,80.078,0
1578866527.382,67.871,5.371,-138.184,89.844,0
1578866527.386,66.895,3.418,-129.883,88.379,0
1578866527.390,70.801,1.953,-271.484,87.402,0
1578866527.394,77.637,2.441,-216.797,88.867,0
1578866527.398,65.430,7.324,-28.809,77.637,0
1578866527.402,53.711,4.883,-166.992,72.754,0
1578866527.406,66.406,3.906,-469.727,72.754,0
1578866527.409,63.965,6.348,-450.195,64.941,0
1578866527.413,45.898,3.418,-144.531,62.988,0
1578866527.417,46.387,3.418,14.160,60.547,0
1578866527.421,42.480,1.953,-182.617,48.828,0
1578866527.425,35.156,0.488,-253.418,49.805,0
1578866527.427,30.273,2.930,-0.488,62.012,0
1578866527.431,21.973,8.789,109.863,64.453,0
1578866527.435,11.719,17.578,-126.953,43.945,0
1578866527.439,15.137,16.602,-303.711,14.648,0
1578866527.443,31.738,18.555,-68.848,28.809,0
1578866527.447,34.668,20.020,49.316,52.246,0
1578866527.451,31.250,19.531,-266.113,42.969,0
1578866527.454,43.457,25.879,-360.840,38.086,0
1578866527.458,48.828,31.738,-47.852,27.832,0
1578866527.462,41.504,30.762,104.980,18.066,0
1578866527.466,43.457,29.785,8.301,20.996,0
1578866527.470,44.434,24.414,-125.488,23.438,0
1578866527.487,45.898,25.879,-62.012,36.621,0
1578866527.491,40.527,27.832,59.082,46.875,0
1578866527.495,43.945,22.949,58.105,49.805,0
1578866527.499,50.293,36.133,-16.602,41.016,0
1578866527.503,37.109,41.504,-31.738,32.227,0
1578866527.507,30.273,33.691,-58.594,41.992,0
1578866527.511,29.785,34.180,-90.332,47.363,0
1578866527.514,26.855,39.062,-64.453,33.691,0
1578866527.518,36.621,37.109,47.363,21.973,0
1578866527.522,41.992,32.715,116.211,18.066,0
1578866527.526,48.340,35.156,129.395,38.086,0
1578866527.530,39.062,32.715,145.508,53.223,0
1578866527.532,20.020,33.691,90.820,51.758,0
1578866527.536,31.250,44.922,102.051,39.551,0
1578866527.540,36.621,46.387,180.664,29.297,0
1578866527.544,33.691,40.039,215.820,21.973,0
1578866527.548,38.086,35.645,50.293,7.812,0
1578866527.552,45.410,39.062,-122.070,12.695,0
1578866527.556,38.086,46.875,-19.531,13.672,0
1578866527.559,30.273,41.016,148.438,-1.465,0
1578866527.563,36.133,34.668,-15.137,-5.859,0
1578866527.567,42.969,38.086,-276.855,9.766,0
1578866527.571,34.668,40.039,-134.766,24.414,0
1578866527.575,23.438,42.480,205.078,36.621,0
1578866527.577,30.762,45.410,76.172,39.062,0
1578866527.581,36.133,43.945,-115.234,42.480,0
1578866527.585,34.180,42.480,23.926,47.852,0
1578866527.589,44.922,40.527,240.723,35.645,0
1578866527.593,52.246,29.297,122.559,45.898,0
1578866527.597,44.434,25.879,-166.992,27.832,0
1578866527.601,38.086,30.762,-160.156,-2.930,0
1578866527.604,38.086,36.621,125.000,21.484,0
1578866527.608,46.387,40.039,137.207,42.969,0
1578866527.612,34.180,39.062,-162.109,34.668,0
1578866527.616,23.926,38.086,56.152,29.297,0
1578866527.620,31.738,40.039,275.391,37.598,0
1578866527.622,22.949,39.551,261.719,31.250,0
1578866527.626,9.766,38.574,131.836,20.020,0
1578866527.630,11.719,40.039,135.254,11.230,0
1578866527.634,10.742,35.156,314.941,12.207,0
1578866527.638,18.555,33.203,321.289,23.926,0
1578866527.642,27.344,37.598,149.902,25.879,0
1578866527.646,29.297,39.551,25.879,20.508,0
1578866527.649,28.809,41.016,249.512,25.879,0
1578866527.653,25.391,40.527,270.020,45.410,0
1578866527.657,26.367,37.109,164.062,46.387,0
1578866527.661,29.297,35.156,164.551,34.668,0
1578866527.665,32.227,40.039,143.066,26.855,0
1578866527.667,34.668,41.504,296.875,49.805,0
1578866527.671,41.016,39.551,442.383,64.453,0
1578866527.675,42.969,43.945,215.820,13.184,0
1578866527.679,48.828,44.434,64.453,-1.953,0
1578866527.683,53.711,40.527,222.168,27.344,0
1578866527.687,42.480,39.062,256.348,30.273,0
1578866527.691,33.691,33.691,141.113,45.898,0
1578866527.694,45.410,39.062,-14.648,49.316,0
1578866527.698,52.246,45.898,47.363,49.316,0
1578866527.702,42.969,41.016,360.840,65.430,0
1578866527.706,45.898,38.086,305.664,36.621,0
1578866527.710,65.430,39.551,99.609,10.254,0
1578866527.711,52.246,39.062,194.824,29.785,0
1578866527.715,36.133,36.621,376.465,46.387,0
1578866527.719,51.758,39.062,288.086,29.785,0
1578866527.723,48.828,40.039,34.180,18.555,0
1578866527.727,33.691,36.133,51.270,22.461,0
1578866527.731,42.480,36.133,191.406,39.551,0
1578866527.735,57.129,36.133,162.109,48.828,0
1578866527.738,42.969,40.527,-137.207,31.738,0
1578866527.742,31.738,41.016,-131.836,31.738,0
1578866527.746,35.645,41.992,254.883,61.523,0
1578866527.750,41.504,40.527,357.422,84.961,0
1578866527.754,34.180,37.109,166.016,79.102,0
1578866527.756,22.949,29.785,145.020,74.707,0
1578866527.760,42.480,29.785,302.246,55.664,0
1578866527.764,54.688,36.133,388.184,33.691,0
1578866527.768,45.410,35.156,289.062,32.715,0
1578866527.772,53.223,41.016,167.969,23.926,0
1578866527.776,66.895,42.480,174.805,8.789,0
1578866527.780,59.570,38.574,130.859,29.297,0
1578866527.783,58.105,38.574,59.082,33.691,0
1578866527.787,49.805,34.180,-32.227,19.531,0
1578866527.791,41.992,28.320,-6.348,27.832,0
1578866527.795,48.828,28.320,195.312,40.527,0
1578866527.799,53.711,33.691,260.254,42.480,0
1578866527.801,50.293,34.668,112.305,36.621,0
1578866527.805,38.086,31.738,99.121,49.805,0
1578866527.809,32.715,28.320,187.500,56.641,0
1578866527.813,26.855,31.250,250.488,57.129,0
1578866527.817,23.438,26.855,175.781,64.453,0
1578866527.821,39.551,25.391,-13.184,43.945,0
1578866527.825,39.062,35.156,-134.766,42.480,0
1578866527.828,33.203,39.062,26.855,53.711,0
1578866527.832,40.527,39.551,186.523,20.996,0
1578866527.836,36.621,30.762,5.371,-2.441,0
1578866527.840,38.574,27.832,22.949,10.742,0
1578866527.844,49.805,32.715,99.609,24.902,0
1578866527.861,44.922,24.902,92.285,27.344,0
1578866527.865,37.109,26.855,-107.422,26.855,0
1578866527.869,39.062,27.832,-146.973,24.414,0
1578866527.873,34.668,24.414,94.727,36.621,0
1578866527.877,29.297,37.598,148.438,40.527,0
1578866527.881,24.902,39.551,-174.805,30.273,0
1578866527.885,30.273,35.645,-322.266,29.785,0
1578866527.888,51.270,37.598,51.270,31.250,0
1578866527.892,50.781,38.574,266.113,39.551,0
1578866527.896,31.250,41.504,0.977,40.039,0
1578866527.900,29.297,34.180,-170.410,44.434,0
1578866527.904,40.527,26.855,7.324,63.965,0
1578866527.906,41.992,32.227,93.750,69.824,0
1578866527.910,36.133,34.180,62.500,49.316,0
1578866527.914,33.203,33.203,-210.938,15.625,25600
1578866527.918,31.250,32.715,-253.418,13.672,0
1578866527.922,31.738,32.715,-21.973,34.668,0
1578866527.926,43.457,32.715,-110.352,27.832,0
1578866527.930,44.922,35.156,-354.492,9.766,0
1578866527.933,39.551,26.855,-235.352,12.695,0
1578866527.937,34.180,21.484,-13.672,32.227,0
1578866527.941,41.016,35.156,-124.512,35.645,0
1578866527.945,38.574,40.527,-252.930,23.438,0
1578866527.949,32.227,35.645,-169.434,26.367,0
1578866527.951,44.922,34.180,-99.121,39.551,0
1578866527.955,41.016,34.668,-37.598,38.574,0
1578866527.959,33.203,33.203,-30.273,30.762,0
1578866527.963,32.715,34.668,-95.703,20.020,0
1578866527.967,25.391,28.809,-83.496,18.066,0
1578866527.971,11.719,30.273,-86.914,38.086,0
1578866527.975,7.812,31.250,-108.398,55.176,0
1578866527.978,12.695,29.297,-166.992,61.523,0
1578866527.982,28.320,39.551,-163.574,26.855,0
1578866527.986,37.109,43.945,-149.902,1.953,0
1578866527.990,33.203,41.016,64.453,28.809,0
1578866527.994,35.156,39.062,22.461,20.508,0
1578866527.996,37.598,35.156,-121.582,-11.719,0
1578866528.000,37.598,31.250,-0.488,4.883,0
1578866528.004,30.273,27.832,116.699,31.738,0
1578866528.008,31.738,23.438,-16.113,27.832,0
1578866528.012,39.551,23.926,-228.516,22.949,0
1578866528.016,34.668,28.320,-201.660,38.574,0
1578866528.020,27.344,33.691,-32.715,50.781,0
1578866528.023,31.250,34.180,-64.941,39.062,0
1578866528.027,33.203,32.227,-352.539,29.297,0
1578866528.031,28.809,37.598,-225.586,33.691,0
1578866528.035,29.785,38.086,116.211,31.738,0
1578866528.039,28.809,30.273,54.688,13.184,0
1578866528.041,28.809,31.250,-145.508,7.324,0
1578866528.045,40.527,36.621,-86.426,19.531,0
1578866528.049,50.781,36.621,92.285,33.203,0
1578866528.053,42.480,32.715,89.844,48.828,0
1578866528.057,25.879,29.785,-91.309,60.547,0
1578866528.061,24.414,31.250,-190.430,72.754,0
1578866528.065,30.762,31.738,-21.484,59.570,0
1578866528.068,32.227,32.715,112.793,25.879,0
1578866528.072,34.180,32.715,-112.305,33.691,0
1578866528.076,40.039,33.691,-101.074,34.180,0
1578866528.080,44.922,37.598,35.156,22.949,0
1578866528.084,43.457,37.109,23.926,32.227,0
1578866528.086,41.992,36.133,-42.480,37.598,0
1578866528.090,41.504,34.180,-53.223,24.902,0
1578866528.094,48.340,32.227,3.418,23.926,0
1578866528.098,52.734,36.133,38.086,34.180,0
1578866528.102,51.758,37.109,22.461,34.668,0
1578866528.106,47.363,36.133,-259.277,36.133,0
1578866528.110,41.016,34.180,-313.477,46.387,0
1578866528.113,38.574,30.762,-245.605,55.176,0
1578866528.117,34.180,34.668,-116.699,51.270,0
1578866528.121,23.438,36.621,-39.062,41.504,0
1578866528.125,25.391,32.227,-165.039,35.156,0
1578866528.129,41.016,30.762,-101.074,31.738,0
1578866528.131,38.574,32.227,61.035,34.668,0
1578866528.135,44.434,35.156,29.297,35.156,0
1578866528.139,45.898,33.203,-268.066,37.598,0
1578866528.143,32.227,31.738,-209.961,41.016,0
1578866528.147,34.180,32.715,75.195,44.434,0
1578866528.151,37.598,29.297,-5.371,49.316,0
1578866528.155,34.668,29.297,-325.684,49.805,0
1578866528.158,38.574,29.297,-369.141,58.105,0
1578866528.162,44.434,23.438,-34.180,70.801,0
1578866528.166,47.852,27.832,124.512,47.852,0
1578866528.170,48.340,34.668,-124.512,6.836,0
1578866528.174,52.246,30.273,-199.219,8.789,0
1578866528.177,49.805,32.227,4.395,28.320,0
1578866528.181,47.852,39.551,56.641,36.621,0
1578866528.185,42.480,35.645,-116.699,32.715,0
1578866528.189,35.156,31.738,-155.273,33.691,0
1578866528.193,37.109,33.203,35.156,41.016,0
1578866528.197,42.480,33.203,96.191,42.480,0
1578866528.201,43.457,34.668,-229.980,39.062,0
1578866528.204,43.945,34.668,-359.863,34.668,0
1578866528.208,52.734,33.203,-5.859,44.922,0
1578866528.212,51.270,35.156,90.332,51.270,0
1578866528.216,40.039,34.180,38.574,43.945,0
1578866528.220,36.621,31.738,10.742,37.598,0
1578866528.237,45.410,31.250,104.980,43.457,0
1578866528.241,44.922,30.762,178.223,47.852,0
1578866528.245,39.062,28.809,165.527,41.504,0
1578866528.249,40.039,26.855,117.676,36.621,0
1578866528.253,48.340,31.250,76.172,39.062,0
1578866528.257,42.480,34.668,22.949,44.434,0
1578866528.261,37.109,34.668,23.926,46.387,0
1578866528.264,36.621,38.574,102.051,40.527,0
1578866528.268,34.668,34.668,35.645,46.875,0
1578866528.272,41.016,30.762,25.879,41.504,0
1578866528.276,39.551,36.621,100.586,35.156,0
1578866528.280,41.016,39.062,94.238,41.504,0
1578866528.282,41.504,31.738,0.977,41.504,0
1578866528.286,44.922,30.762,-31.738,37.598,0
1578866528.290,52.734,32.227,33.203,42.480,0
1578866528.294,48.340,34.180,87.891,43.945,0
1578866528.298,51.758,38.574,-84.473,38.086,0
1578866528.302,60.059,39.062,-247.070,42.969,0
1578866528.306,55.664,35.156,-207.520,50.293,0
1578866528.309,51.270,34.668,-20.508,53.711,0
1578866528.313,50.293,33.691,-104.492,55.176,0
1578866528.317,55.664,36.621,-404.785,53.711,0
1578866528.321,60.547,41.992,-250.488,54.688,0
1578866528.325,52.246,35.645,-16.113,54.688,0
1578866528.327,44.434,32.227,-270.996,41.992,0
1578866528.331,31.250,35.156,-364.746,21.484,0
1578866528.335,27.832,37.109,-140.137,15.137,0
1578866528.339,20.020,40.527,-29.785,7.324,0
1578866528.343,-20.996,40.527,-217.773,-29.785,0
1578866528.347,-57.129,36.621,-505.859,-54.199,0
1578866528.351,-69.824,37.109,-496.094,-45.410,0
1578866528.354,-76.172,39.551,-276.367,-62.988,0
1578866528.358,-97.168,45.898,-284.668,-80.566,0
1578866528.362,-108.398,50.781,-606.934,-100.586,0
1578866528.366,-114.258,48.828,-549.805,-148.926,0
1578866528.370,-144.531,51.758,-421.875,-154.785,0
1578866528.372,-163.574,56.152,-488.770,-153.809,0
1578866528.376,-164.551,54.688,-625.488,-207.031,0
1578866528.380,-176.758,46.387,-784.668,-232.910,0
1578866528.384,-194.336,45.410,-776.855,-231.445,0
1578866528.388,-192.871,54.688,-814.941,-233.398,0
1578866528.392,-202.637,63.965,-954.102,-236.328,0
1578866528.396,-209.961,69.824,-974.121,-236.328,0
1578866528.399,-210.449,68.848,-957.031,-238.770,0
1578866528.403,-216.309,64.941,-960.449,-250.977,0
1578866528.407,-225.098,58.105,-955.566,-251.953,0
1578866528.411,-232.422,53.711,-842.285,-241.699,0
1578866528.415,-229.492,58.594,-694.824,-237.793,0
1578866528.417,-224.609,62.012,-500.000,-242.188,0
1578866528.421,-220.215,54.688,-366.699,-239.746,0
1578866528.425,-210.938,51.758,-414.062,-232.910,0
1578866528.429,-198.242,56.641,-406.250,-225.586,0
1578866528.433,-196.777,65.430,-295.898,-213.379,0
1578866528.437,-178.711,63.477,-208.984,-200.684,0
1578866528.441,-172.363,53.711,-294.922,-202.637,0
1578866528.444,-161.133,55.664,-407.227,-189.941,0
1578866528.448,-139.160,62.012,-317.871,-166.504,0
1578866528.452,-141.113,65.918,50.781,-162.109,0
1578866528.456,-138.184,61.035,184.570,-160.156,0
1578866528.460,-123.047,55.664,0.977,-146.973,0
1578866528.462,-111.328,54.199,117.188,-134.277,0
1578866528.466,-102.051,54.199,399.414,-128.906,0
1578866528.470,-85.449,59.082,396.973,-123.535,0
1578866528.474,-75.684,56.641,205.566,-120.117,0
1578866528.478,-77.637,44.434,182.617,-114.258,0
1578866528.482,-71.289,49.805,236.816,-99.609,0
1578866528.486,-69.336,60.547,285.645,-94.238,0
1578866528.489,-81.543,54.688,21.973,-108.887,0
1578866528.493,-67.383,51.758,-94.727,-93.750,0
1578866528.497,-40.527,57.617,242.676,-62.012,0
1578866528.501,-41.992,57.617,375.488,-68.848,0
1578866528.505,-38.574,55.176,220.215,-79.590,0
1578866528.507,-38.574,50.781,129.883,-79.102,0
1578866528.511,-29.297,47.852,182.129,-64.453,0
1578866528.515,-19.043,53.711,104.980,-43.457,0
1578866528.519,-29.297,53.223,17.090,-36.133,0
1578866528.523,-24.414,48.340,-51.270,-44.922,0
1578866528.527,-20.996,48.828,-65.430,-34.668,0
1578866528.531,-36.621,56.152,-24.414,-32.227,0
1578866528.534,-47.852,60.059,-123.535,-54.199,0
1578866528.538,-45.898,47.363,-139.648,-68.359,0
1578866528.542,-29.785,41.504,-21.484,-73.242,0
1578866528.546,-46.875,44.434,-26.367,-66.895,0
1578866528.550,-69.336,49.805,-114.746,-63.965,0
1578866528.552,-54.199,52.734,-193.359,-78.613,0
1578866528.556,-44.434,48.828,-235.840,-85.938,0
1578866528.560,-40.527,50.293,-260.742,-82.031,0
1578866528.564,-45.410,47.363,-267.090,-78.125,0
1578866528.568,-57.617,42.969,-338.867,-84.473,0
1578866528.572,-41.016,41.992,-537.598,-77.148,0
1578866528.576,-26.367,38.086,-729.004,-56.152,0
1578866528.579,-40.527,36.621,-580.078,-44.922,0
1578866528.583,-41.016,40.527,-344.238,-53.223,0
1578866528.587,-28.809,34.180,-458.984,-54.688,0
1578866528.591,-11.719,30.762,-440.918,-31.250,0
1578866528.595,-8.789,35.645,-285.156,-11.719,0
1578866528.612,-4.395,37.109,-166.992,-14.648,0
1578866528.616,12.695,39.062,-320.312,-0.977,0
1578866528.620,20.508,39.551,-519.531,27.344,0
1578866528.624,18.555,37.109,-324.707,17.578,0
1578866528.628,21.973,26.855,-146.484,24.414,0
1578866528.632,28.809,23.438,-416.504,32.227,0
1578866528.636,43.457,23.926,-632.324,14.648,0
1578866528.639,62.988,25.879,-364.258,14.160,0
1578866528.643,66.406,26.855,-147.949,34.668,0
1578866528.647,71.289,27.344,-310.059,38.574,0
1578866528.651,83.008,25.391,-381.348,47.852,0
1578866528.655,83.496,19.043,-186.035,72.754,0
1578866528.656,87.891,17.090,-58.105,82.031,0
1578866528.660,89.844,17.578,-139.648,84.473,0
1578866528.664,82.520,15.625,-293.457,81.055,0
1578866528.668,90.820,-0.977,-226.074,93.750,0
1578866528.672,88.867,0.977,-127.441,107.422,0
1578866528.676,88.867,16.113,-202.637,112.305,0
1578866528.680,100.098,17.090,-418.457,109.375,0
1578866528.683,112.793,11.719,-280.762,115.234,0
1578866528.687,126.465,7.324,21.973,121.582,0
1578866528.691,121.582,3.906,-105.469,112.305,0
1578866528.695,106.445,3.906,-228.516,95.703,0
1578866528.699,101.562,11.230,-32.227,89.355,0
1578866528.701,99.609,15.625,50.293,105.957,0
1578866528.705,104.980,8.789,105.957,121.094,0
1578866528.709,105.469,6.348,169.434,114.746,0
1578866528.713,108.887,7.324,143.555,104.492,0
1578866528.717,116.211,2.441,152.832,117.188,0
1578866528.721,123.047,8.789,108.398,120.605,0
1578866528.725,128.906,14.648,86.914,110.352,0
1578866528.728,119.629,10.742,166.992,107.422,0
1578866528.732,115.723,14.160,26.855,109.863,0
1578866528.736,113.281,18.066,-100.586,116.699,0
1578866528.740,111.816,13.672,181.641,122.070,0
1578866528.744,110.352,6.348,147.461,119.629,0
1578866528.746,113.281,7.324,32.227,118.652,0
1578866528.750,110.840,17.578,100.098,118.652,0
1578866528.754,104.980,22.949,208.008,129.395,0
1578866528.758,101.074,15.137,148.926,126.953,0
1578866528.762,111.816,3.906,-42.969,117.188,0
1578866528.766,115.234,12.695,-29.785,121.094,0
1578866528.770,97.656,19.531,135.742,117.676,0
1578866528.773,98.633,13.184,167.480,112.305,0
1578866528.777,104.492,16.602,-120.605,100.098,0
1578866528.781,110.352,18.555,-41.992,100.586,0
1578866528.785,109.375,14.160,296.387,108.398,0
1578866528.789,102.539,20.508,115.234,104.980,0
1578866528.791,105.957,22.461,-69.824,93.750,0
1578866528.795,108.398,20.508,128.418,91.309,0
1578866528.799,95.215,19.531,289.551,98.145,0
1578866528.803,88.379,20.020,221.680,101.562,0
1578866528.807,89.355,17.578,46.387,92.773,0
1578866528.811,89.355,14.648,-59.082,89.355,0
1578866528.815,90.332,21.484,104.980,92.285,0
1578866528.818,79.102,22.461,145.996,78.613,0
1578866528.822,67.871,17.578,-107.422,65.430,0
1578866528.826,66.406,19.043,-66.406,64.453,0
1578866528.830,68.848,20.020,98.145,73.242,0
1578866528.834,66.895,26.367,139.648,76.172,0
1578866528.836,64.941,29.785,127.930,70.312,0
1578866528.840,70.801,20.996,119.141,71.289,0
1578866528.844,72.266,25.391,61.035,74.707,0
1578866528.848,62.012,31.250,113.770,83.984,0
1578866528.852,56.152,27.832,199.707,87.891,0
1578866528.856,51.270,24.414,17.578,83.496,0
1578866528.860,53.223,28.320,-51.270,79.590,0
1578866528.863,64.941,28.809,-75.195,56.152,0
1578866528.867,68.359,23.926,-75.684,40.039,0
1578866528.871,67.871,29.297,71.777,47.363,0
1578866528.875,86.914,31.738,65.430,54.688,0
1578866528.879,80.566,27.832,76.660,60.059,0
1578866528.881,60.059,27.344,190.918,62.988,0
1578866528.885,61.035,32.227,202.148,62.988,0
1578866528.889,59.082,41.016,45.898,66.895,0
1578866528.893,63.965,31.738,23.438,71.777,0
1578866528.897,60.059,30.273,169.434,67.871,0
1578866528.901,54.199,37.109,166.504,59.570,0
1578866528.905,55.664,37.109,-139.160,46.875,0
1578866528.908,56.641,37.598,-281.250,39.062,0
1578866528.912,49.316,27.832,43.457,47.363,0
1578866528.916,38.574,22.461,235.352,52.246,0
1578866528.920,39.551,31.738,41.504,50.293,0
1578866528.924,44.922,27.832,-35.156,55.176,0
1578866528.926,45.410,26.855,150.391,52.246,0
1578866528.930,42.969,33.691,229.004,45.898,0
1578866528.934,32.227,30.762,68.359,41.992,0
1578866528.938,30.273,35.645,-42.480,37.109,0
1578866528.942,40.527,37.109,87.402,41.016,0
1578866528.946,42.969,28.809,138.672,45.410,28021
1578866528.950,41.504,29.785,-104.004,43.457,0
1578866528.953,43.457,29.785,-177.246,33.203,0
1578866528.957,49.805,30.273,17.578,34.180,0
1578866528.961,46.875,31.250,96.680,45.898,0
1578866528.965,40.039,30.273,73.730,45.410,0
1578866528.969,41.504,30.762,16.602,39.551,0
1578866528.986,46.875,30.762,76.660,41.992,0
1578866528.990,52.734,30.273,107.910,44.434,0
1578866528.994,42.480,30.273,90.332,42.480,0
1578866528.998,29.785,29.785,65.918,31.738,0
1578866529.002,39.551,26.855,46.875,34.668,0
1578866529.006,43.457,36.133,-32.715,44.434,0
1578866529.010,39.551,44.434,-83.008,53.223,0
1578866529.013,42.969,43.457,-21.484,55.176,0
1578866529.017,46.875,37.109,39.551,39.062,0
1578866529.021,54.688,28.809,4.395,39.062,0
1578866529.025,50.293,30.273,44.434,30.762,0
1578866529.029,51.758,32.715,85.938,17.090,0
1578866529.031,43.945,26.855,33.691,20.508,0
1578866529.035,35.645,27.832,57.129,33.691,0
1578866529.039,43.945,30.762,117.188,50.293,0
1578866529.043,47.852,32.227,196.289,50.781,0
1578866529.047,45.898,33.203,57.129,40.039,0
1578866529.051,41.016,38.086,-104.004,30.273,0
1578866529.055,39.062,36.621,-80.078,38.574,0
1578866529.058,43.457,31.250,121.582,47.852,0
1578866529.062,40.527,32.227,71.777,32.715,0
1578866529.066,35.156,29.297,-209.473,24.414,0
1578866529.070,44.922,28.809,-130.371,29.785,0
1578866529.074,42.480,31.250,130.859,40.039,0
1578866529.076,30.762,28.809,103.027,41.016,0
1578866529.080,39.062,28.320,-96.680,29.297,0
1578866529.084,49.316,32.227,-23.926,28.809,0
1578866529.088,28.320,28.809,185.059,30.273,0
1578866529.092,18.066,23.438,101.562,34.180,0
1578866529.096,28.809,19.043,-98.145,33.203,0
1578866529.100,40.527,24.902,-69.336,35.645,0
1578866529.103,39.551,31.250,202.148,43.457,0
1578866529.107,35.645,36.621,151.855,44.434,0
1578866529.111,39.551,39.062,-153.320,40.039,0
1578866529.115,47.852,33.691,18.555,44.434,0
1578866529.119,47.363,34.668,240.234,55.176,0
1578866529.122,50.293,34.668,182.129,55.664,0
1578866529.126,54.688,27.344,51.270,40.039,0
1578866529.130,46.387,28.320,86.914,31.738,0
1578866529.134,28.809,31.250,177.734,45.410,0
1578866529.138,26.367,24.902,167.969,44.922,0
1578866529.142,36.621,22.461,13.184,38.574,0
1578866529.146,43.457,29.785,-86.914,38.574,0
1578866529.149,45.898,40.527,133.301,33.691,0
1578866529.153,52.246,38.574,62.012,43.945,0
1578866529.157,56.641,32.227,3.906,44.922,0
1578866529.161,48.828,37.109,150.879,40.039,0
1578866529.165,43.945,33.691,115.234,39.062,0
1578866529.167,35.156,30.273,151.855,45.410,0
1578866529.171,39.062,27.344,230.957,43.945,0
1578866529.175,39.551,23.926,146.484,25.391,0
1578866529.179,41.016,29.297,66.406,22.461,0
1578866529.183,41.992,32.715,92.773,36.133,0
1578866529.187,30.762,31.250,86.426,51.758,0
1578866529.191,29.785,23.438,35.156,41.504,0
1578866529.194,29.785,31.738,-11.230,24.902,0
1578866529.198,39.062,37.109,-100.586,43.945,0
1578866529.202,54.688,26.855,144.531,62.500,0
1578866529.206,43.945,25.391,207.031,42.969,0
1578866529.210,35.645,23.926,-102.539,33.691,0
1578866529.212,49.805,25.879,-41.504,38.574,0
1578866529.216,55.176,41.016,156.738,39.551,0
1578866529.220,39.551,37.598,142.578,36.621,0
1578866529.224,35.645,31.250,-42.969,29.785,0
1578866529.228,41.016,36.133,-138.184,32.227,0
1578866529.232,43.945,35.156,-82.031,40.039,0
1578866529.236,44.434,33.203,26.855,41.016,0
1578866529.239,41.504,31.738,-197.754,39.551,0
1578866529.243,49.316,33.691,-301.270,37.598,0
1578866529.247,46.875,37.109,43.457,37.109,0
1578866529.251,38.574,28.320,107.422,36.133,0
1578866529.255,34.180,24.902,-79.102,28.320,0
1578866529.272,34.180,37.598,-73.242,30.273,0
1578866529.276,34.180,38.574,89.844,39.551,0
1578866529.280,26.367,32.227,77.637,44.922,0
1578866529.284,34.180,34.180,33.203,48.828,0
1578866529.288,36.621,37.598,-15.137,43.945,0
1578866529.292,30.273,27.832,-73.242,37.109,0
1578866529.296,28.320,22.949,-45.898,38.086,0
1578866529.299,31.250,31.738,-44.922,40.039,0
1578866529.303,30.273,35.645,-33.691,34.180,0
1578866529.307,33.203,35.645,54.199,18.066,0
1578866529.311,40.039,29.297,95.215,17.090,0
1578866529.315,47.852,32.715,119.141,29.297,0
