timestamps,TP9,AF7,AF8,TP10,Marker0
1579707597.794,7.324,15.625,27.832,0.488,0
1579707597.798,1.465,17.578,28.809,3.906,0
1579707597.802,-2.930,18.066,24.414,5.859,0
1579707597.806,-3.418,14.648,21.973,0.488,0
1579707597.810,-2.930,11.230,21.484,0.977,0
1579707597.814,1.465,11.230,17.090,1.465,0
1579707597.818,3.418,9.277,14.160,-9.277,0
1579707597.821,4.395,12.207,17.578,-15.137,0
1579707597.825,9.277,8.789,23.438,-4.883,0
1579707597.829,-9.766,6.348,18.555,-2.441,0
1579707597.833,-12.207,16.602,16.113,-6.348,0
1579707597.837,5.371,16.113,21.484,-2.441,0
1579707597.823,8.301,18.555,21.973,0.977,0
1579707597.827,6.836,18.066,23.926,5.859,0
1579707597.831,3.418,14.648,12.207,-2.441,0
1579707597.835,0.977,11.230,16.113,-7.812,0
1579707597.839,-0.977,11.719,26.367,-3.418,0
1579707597.843,1.465,14.160,18.555,-4.395,0
1579707597.847,7.812,15.137,15.137,-4.395,0
1579707597.850,14.648,16.602,16.113,4.395,0
1579707597.854,15.625,14.160,15.625,4.395,0
1579707597.858,15.625,12.207,14.160,0.000,0
1579707597.862,9.277,14.648,16.602,-0.488,0
1579707597.866,6.348,17.578,20.508,0.977,0
1579707597.883,7.812,16.113,17.090,0.000,0
1579707597.887,10.742,15.625,18.066,-1.953,0
1579707597.891,11.230,15.625,23.926,7.324,0
1579707597.895,16.602,14.648,21.484,5.859,0
1579707597.899,22.461,15.137,19.531,3.906,0
1579707597.903,16.113,10.254,17.090,5.371,0
1579707597.907,9.277,7.324,18.066,1.465,0
1579707597.910,6.348,9.277,26.367,-0.488,0
1579707597.914,5.371,11.719,26.855,1.953,0
1579707597.918,5.859,12.207,24.902,4.395,0
1579707597.922,0.488,15.137,30.762,7.812,0
1579707597.926,2.441,6.348,30.273,7.324,0
1579707597.928,4.395,4.883,21.973,1.465,0
1579707597.932,0.977,18.066,18.066,1.953,0
1579707597.936,6.348,19.531,29.297,9.277,0
1579707597.940,8.789,16.113,38.086,15.137,0
1579707597.944,11.719,11.719,34.668,11.230,0
1579707597.948,3.906,9.277,31.250,1.465,0
1579707597.952,-3.418,11.230,29.785,-3.418,0
1579707597.955,0.977,13.672,31.250,0.977,0
1579707597.959,13.672,11.719,30.762,15.625,0
1579707597.963,13.184,5.859,36.133,17.578,0
1579707597.967,-12.695,0.977,41.504,-4.395,0
1579707597.971,-16.113,0.977,40.527,-13.184,0
1579707597.974,-19.531,-5.371,44.922,-7.324,0
1579707597.978,-41.504,-12.695,50.781,-25.391,0
1579707597.982,-39.551,-13.672,48.828,-35.645,0
1579707597.986,-47.852,-14.648,52.246,-28.320,0
1579707597.990,-71.289,-15.625,53.223,-36.621,0
1579707597.994,-58.594,-12.695,48.828,-38.086,0
1579707597.998,-43.945,-11.230,52.734,-35.645,0
1579707598.001,-46.387,-10.254,59.082,-39.062,0
1579707598.005,-44.922,-10.742,56.641,-30.273,0
1579707598.009,-32.715,-12.695,55.176,-17.578,0
1579707598.013,-30.273,-9.277,57.617,-21.484,0
1579707598.017,-38.574,-13.672,55.176,-29.297,0
1579707598.018,-35.156,-10.254,53.711,-29.785,0
1579707598.022,-28.320,-2.930,53.711,-21.484,0
1579707598.026,-22.949,-6.348,53.223,-20.020,0
1579707598.030,-23.438,0.000,50.293,-23.926,0
1579707598.034,-21.973,-1.953,52.734,-18.066,0
1579707598.038,-20.508,-9.277,51.758,-10.742,0
1579707598.042,-23.438,-6.836,49.805,-13.672,0
1579707598.045,-24.902,-5.859,52.246,-13.672,0
1579707598.049,-17.578,-4.395,52.734,-9.277,0
1579707598.053,-4.883,0.488,56.152,0.488,0
1579707598.057,-1.465,3.906,60.059,2.930,0
1579707598.061,3.418,6.348,59.082,0.977,0
1579707598.063,13.672,8.789,57.129,1.465,0
1579707598.067,14.160,4.395,61.035,-0.977,0
1579707598.071,5.859,-2.441,64.941,2.441,0
1579707598.075,-2.930,-6.836,58.594,8.301,0
1579707598.079,-3.906,-2.930,52.246,9.277,0
1579707598.083,-4.395,0.488,48.340,9.277,0
1579707598.087,-5.371,-2.441,46.875,5.859,0
1579707598.090,6.836,0.000,49.316,3.906,0
1579707598.094,4.395,9.277,50.293,4.883,0
1579707598.098,-1.465,10.742,56.152,2.930,0
1579707598.102,7.324,3.418,62.988,8.301,0
1579707598.106,21.973,2.930,58.594,10.742,0
1579707598.109,27.832,4.395,55.176,3.906,0
1579707598.113,26.367,4.395,62.012,0.000,0
1579707598.117,27.832,5.859,62.012,1.953,0
1579707598.121,24.902,5.371,56.152,3.418,0
1579707598.125,21.973,5.371,53.223,7.812,0
1579707598.129,5.859,1.953,54.688,15.137,0
1579707598.133,-18.555,-1.953,54.688,1.465,0
1579707598.136,-23.438,-2.930,49.805,-12.695,0
1579707598.140,-20.020,-2.930,44.922,-12.207,0
1579707598.144,-17.090,-1.465,39.062,-12.695,0
1579707598.148,-15.137,-1.953,34.668,-1.953,0
1579707598.152,-10.254,-2.930,34.668,1.953,0
1579707598.154,-8.301,2.441,33.203,-3.418,0
1579707598.158,-11.230,4.883,34.668,4.395,0
1579707598.162,-14.160,2.930,33.691,4.883,0
1579707598.166,2.441,4.395,33.203,7.812,0
1579707598.170,2.930,5.859,35.156,6.836,0
1579707598.174,-12.207,6.836,37.109,5.859,0
1579707598.178,-6.836,6.348,43.457,13.672,0
1579707598.181,-10.254,1.953,48.340,11.230,0
1579707598.185,-7.812,-1.953,44.922,9.277,0
1579707598.189,-7.324,1.465,34.668,-1.953,0
1579707598.193,-4.395,1.953,29.785,-0.488,0
1579707598.197,-4.395,0.000,29.297,10.742,0
1579707598.213,-3.906,7.812,26.855,11.719,0
1579707598.217,1.953,8.301,26.367,15.137,0
1579707598.221,-2.930,1.953,22.461,0.000,0
1579707598.225,-2.441,5.371,22.949,-7.812,0
1579707598.229,10.254,5.371,17.578,0.000,0
1579707598.233,14.648,3.418,12.695,0.488,0
1579707598.237,12.695,4.883,20.508,1.953,0
1579707598.240,5.371,7.812,23.926,1.953,0
1579707598.244,11.719,5.859,24.414,5.859,0
1579707598.248,30.762,5.371,24.414,16.113,0
1579707598.252,24.902,3.418,20.020,16.602,0
1579707598.256,16.113,4.883,16.113,13.672,0
1579707598.259,14.648,9.277,23.926,10.742,0
1579707598.263,15.137,8.301,35.645,14.648,0
1579707598.267,11.719,7.812,37.598,10.742,0
1579707598.271,5.859,9.277,37.109,0.488,0
1579707598.275,10.742,9.766,41.504,9.277,0
1579707598.279,15.137,9.766,41.504,18.555,0
1579707598.283,14.648,17.090,43.945,14.648,0
1579707598.286,4.883,15.137,45.410,5.859,0
1579707598.290,4.883,7.812,34.668,3.418,0
1579707598.294,12.695,10.254,27.832,3.418,0
1579707598.298,13.672,6.348,29.785,4.883,0
1579707598.302,7.324,6.836,25.879,4.883,0
1579707598.304,2.930,6.348,27.832,0.000,0
1579707598.308,1.465,2.930,30.273,-9.277,0
1579707598.312,14.160,7.324,19.531,-8.789,0
1579707598.316,14.160,9.277,22.949,-8.789,0
1579707598.320,-3.906,4.395,24.414,-7.324,0
1579707598.324,-4.395,2.441,22.949,-1.953,0
1579707598.328,-3.906,4.883,25.391,-11.230,0
1579707598.331,-0.488,5.371,26.855,-7.324,0
1579707598.335,1.953,-1.465,27.344,1.465,0
1579707598.339,2.930,-4.883,24.902,0.000,0
1579707598.343,1.953,0.977,31.250,2.441,0
1579707598.347,-1.953,4.395,39.551,6.836,0
1579707598.349,0.977,8.301,39.062,5.859,0
1579707598.353,2.930,13.184,36.133,-0.977,0
1579707598.357,11.719,13.184,36.621,4.395,0
1579707598.361,12.207,9.277,37.598,9.277,0
1579707598.365,-1.953,6.836,43.457,10.254,0
1579707598.369,7.324,10.742,47.852,13.672,0
1579707598.373,8.789,11.719,46.387,9.277,0
1579707598.376,-3.418,5.371,45.410,6.836,0
1579707598.380,3.418,4.883,44.922,9.277,0
1579707598.384,2.930,4.883,48.828,2.441,0
1579707598.388,-4.883,1.465,50.293,-0.977,0
1579707598.392,2.930,3.906,44.434,-1.465,0
1579707598.394,9.277,9.277,42.480,1.465,0
1579707598.398,3.906,9.277,49.316,5.371,0
1579707598.402,2.441,7.812,53.711,6.836,0
1579707598.406,3.906,7.812,49.316,14.160,0
1579707598.410,4.395,6.836,35.645,4.883,0
1579707598.414,10.742,6.836,31.250,-1.465,0
1579707598.418,12.207,10.254,33.203,1.465,0
1579707598.421,11.719,11.719,21.484,-2.441,0
1579707598.425,8.301,2.441,15.137,0.488,0
1579707598.429,-8.789,-0.977,22.949,1.953,0
1579707598.433,-8.789,2.930,26.367,2.930,0
1579707598.437,-3.906,3.906,23.438,8.301,0
1579707598.439,1.953,8.301,17.578,6.348,0
1579707598.443,8.789,7.812,15.137,6.348,0
1579707598.447,5.859,6.348,16.602,7.812,0
1579707598.451,-4.883,11.230,15.625,-0.977,0
1579707598.455,-6.348,9.277,19.043,4.883,0
1579707598.459,-2.441,5.859,23.926,13.184,0
1579707598.463,-1.953,8.301,20.996,7.812,0
1579707598.466,1.953,10.254,16.113,2.441,0
1579707598.470,3.906,7.324,21.973,6.836,0
1579707598.474,-1.465,8.301,29.785,8.789,0
1579707598.478,5.859,9.766,28.809,14.160,0
1579707598.482,15.625,6.836,33.691,20.020,0
1579707598.484,9.277,4.395,28.320,8.789,0
1579707598.488,10.254,6.348,17.578,-0.977,0
1579707598.492,10.742,8.789,27.832,1.465,0
1579707598.496,1.953,9.766,32.715,-2.930,0
1579707598.500,-8.301,7.812,30.273,-7.324,0
1579707598.504,-7.324,4.395,32.715,-0.488,0
1579707598.508,-3.418,7.324,35.156,0.977,0
1579707598.511,-0.488,5.371,36.621,2.441,0
1579707598.515,7.812,0.000,40.039,2.441,0
1579707598.519,11.230,1.465,43.945,3.418,0
1579707598.523,6.836,6.836,44.434,-0.977,0
1579707598.527,-0.488,6.836,47.852,-2.441,0
1579707598.529,6.836,1.953,46.875,-3.906,0
1579707598.533,7.324,0.000,45.898,-4.395,0
1579707598.537,-2.930,1.953,51.758,-1.465,0
1579707598.541,0.000,0.977,55.176,1.465,0
1579707598.545,14.160,4.395,52.246,15.625,0
1579707598.549,20.996,4.883,43.457,9.277,0
1579707598.553,9.277,0.488,45.410,2.441,0
1579707598.556,7.812,3.906,51.758,7.324,0
1579707598.560,2.930,1.465,53.223,1.465,0
1579707598.564,8.301,1.953,54.199,2.930,0
1579707598.568,9.277,6.836,50.781,0.488,0
1579707598.572,2.930,4.883,43.457,-3.418,0
1579707598.589,2.930,0.977,37.109,0.000,0
1579707598.593,3.418,1.953,31.250,2.930,0
1579707598.597,4.883,9.766,30.762,5.371,0
1579707598.601,11.719,9.766,28.320,-3.906,0
1579707598.605,15.625,0.977,24.414,-4.395,0
1579707598.609,5.859,1.953,18.066,0.977,0
1579707598.613,11.719,4.883,17.578,7.812,0
1579707598.616,18.066,2.441,23.926,5.859,0
1579707598.620,7.812,3.418,19.531,-6.348,0
1579707598.624,2.441,5.371,13.184,6.836,0
1579707598.628,10.254,6.348,14.160,16.113,0
1579707598.632,10.254,1.953,19.043,1.465,0
1579707598.634,6.348,-2.441,21.484,4.883,0
1579707598.638,0.977,0.000,21.484,5.859,0
1579707598.642,0.000,1.465,20.508,5.859,0
1579707598.646,0.977,2.441,24.902,6.348,0
1579707598.650,6.348,3.906,29.297,3.906,0
1579707598.654,10.742,3.906,27.832,3.906,0
1579707598.658,0.977,0.000,26.367,0.977,0
1579707598.661,-2.441,0.488,28.809,-2.441,0
1579707598.665,0.977,2.930,29.297,0.488,0
1579707598.669,1.953,1.953,26.855,0.488,0
1579707598.673,1.953,3.418,28.320,-4.883,0
1579707598.677,1.953,6.348,33.203,-2.930,0
1579707598.679,2.930,7.324,38.086,-1.465,0
1579707598.683,-0.977,9.277,40.527,0.000,0
1579707598.687,-3.906,6.836,40.527,-4.395,0
1579707598.691,3.906,5.859,37.109,-0.488,0
1579707598.695,6.348,10.254,37.598,6.836,0
1579707598.699,5.859,8.301,45.898,7.324,0
1579707598.703,2.930,8.789,48.828,1.465,0
1579707598.706,4.883,10.742,49.805,0.977,0
1579707598.710,9.766,10.742,49.805,5.859,0
1579707598.714,5.859,9.277,46.387,-1.953,0
1579707598.718,1.465,5.859,44.922,-6.836,0
1579707598.722,5.859,4.395,39.551,-3.418,0
1579707598.724,13.672,4.395,34.180,-2.930,0
1579707598.728,1.465,2.441,41.992,-6.836,0
1579707598.732,-8.789,1.465,44.922,-4.883,0
1579707598.736,-2.441,1.465,38.086,-2.930,0
1579707598.740,7.324,0.488,40.039,0.977,0
1579707598.744,10.742,0.488,45.898,-3.906,0
1579707598.748,-2.930,-5.371,45.898,-5.859,0
1579707598.751,-2.930,-7.812,43.945,-2.441,0
1579707598.755,-2.441,-3.418,38.574,-5.371,0
1579707598.759,-0.977,4.883,40.039,2.930,0
1579707598.763,4.883,7.324,45.898,7.324,0
1579707598.767,-2.441,6.348,40.527,-0.488,0
1579707598.768,-0.977,8.301,39.062,6.836,0
1579707598.772,4.883,7.324,44.922,13.672,0
1579707598.776,8.789,5.859,45.410,14.648,0
1579707598.780,10.254,6.348,38.574,13.672,0
1579707598.784,11.719,7.324,38.574,14.648,0
1579707598.788,6.836,7.324,41.016,13.672,0
1579707598.792,7.324,8.789,41.992,8.301,0
1579707598.795,11.719,13.184,43.945,1.953,0
1579707598.799,11.719,13.184,43.457,-0.488,0
1579707598.803,8.789,7.324,42.969,8.789,0
1579707598.807,5.371,10.254,41.016,8.301,0
1579707598.811,9.277,15.137,40.039,0.977,0
1579707598.814,9.277,10.742,41.992,5.859,0
1579707598.818,0.000,9.766,40.039,11.230,0
1579707598.822,1.465,12.207,34.180,10.254,0
1579707598.826,11.230,13.184,32.715,4.395,0
1579707598.830,16.113,9.277,33.691,-8.789,0
1579707598.834,24.414,11.230,31.738,-14.160,0
1579707598.838,29.297,14.160,29.785,-4.883,0
1579707598.841,23.438,13.672,29.785,-4.395,0
1579707598.845,19.043,17.578,34.180,-11.230,0
1579707598.849,14.648,16.602,29.297,-2.441,0
1579707598.853,1.953,9.766,27.832,8.301,0
1579707598.857,-8.789,1.953,37.598,12.207,0
1579707598.858,-7.812,2.930,35.645,10.254,0
1579707598.862,-7.812,8.301,34.180,11.230,0
1579707598.866,-4.883,11.230,37.109,14.160,0
1579707598.870,-1.953,10.742,27.832,9.277,0
1579707598.874,-5.371,9.277,27.344,4.395,0
1579707598.878,-10.254,8.301,34.668,1.953,0
1579707598.882,-1.465,11.719,32.227,3.418,0
1579707598.885,3.906,12.695,31.250,3.906,0
1579707598.889,-1.465,8.301,34.668,4.395,0
1579707598.893,-9.766,4.395,36.621,5.371,0
1579707598.897,-2.441,3.906,35.645,7.324,0
1579707598.901,10.742,10.254,35.645,5.859,0
1579707598.903,5.859,10.742,33.691,0.000,0
1579707598.907,-0.488,5.371,32.227,-1.953,0
1579707598.911,-7.324,4.883,30.762,0.977,0
1579707598.915,-10.254,5.371,29.785,2.441,0
1579707598.919,-6.348,7.812,30.762,2.441,0
1579707598.923,-1.953,9.766,30.273,5.859,0
1579707598.927,1.953,6.836,30.762,7.324,0
1579707598.930,0.977,0.977,38.574,10.742,0
1579707598.934,-1.953,2.441,43.945,10.742,0
1579707598.938,0.000,6.348,41.504,1.953,0
1579707598.942,-4.395,-1.465,45.410,1.953,0
1579707598.946,-5.859,0.488,45.898,1.953,0
1579707598.963,-3.418,7.812,36.621,-7.324,0
1579707598.967,1.953,6.836,31.738,0.000,0
1579707598.971,6.836,9.277,41.504,0.488,0
1579707598.975,12.695,11.719,52.246,-1.953,0
1579707598.979,13.672,9.277,48.828,4.395,0
1579707598.983,7.812,6.836,47.363,7.812,0
1579707598.987,12.207,8.789,45.898,17.090,0
1579707598.990,13.672,6.836,41.504,13.672,0
1579707598.994,15.137,4.883,44.434,7.812,0
1579707598.998,16.602,8.789,41.016,8.789,0
1579707599.002,12.695,10.742,31.738,3.418,0
1579707599.006,13.672,10.742,33.691,-0.977,0
1579707599.009,18.066,9.277,36.133,8.789,0
1579707599.013,18.555,3.418,36.621,9.277,0
1579707599.017,16.113,8.301,35.645,-0.977,0
1579707599.021,13.184,14.160,33.203,-2.441,0
1579707599.025,13.672,10.254,34.668,4.395,0
1579707599.029,10.742,7.812,39.062,5.859,0
1579707599.033,4.395,1.465,31.250,-1.953,0
1579707599.036,7.324,4.395,24.902,-1.953,0
1579707599.040,9.766,7.812,30.762,3.906,0
1579707599.044,4.883,2.441,29.297,5.371,0
1579707599.048,13.184,3.906,29.297,3.906,0
1579707599.052,25.391,6.348,28.809,2.930,0
1579707599.053,17.578,5.371,22.949,1.465,0
1579707599.057,21.484,5.859,21.973,5.859,0
1579707599.061,23.438,7.812,22.461,5.859,0
1579707599.065,19.043,5.859,16.602,1.465,0
1579707599.069,13.184,2.441,12.207,0.488,0
1579707599.073,6.348,3.906,16.602,5.371,0
1579707599.077,14.160,5.859,20.996,3.418,0
1579707599.080,18.555,4.395,24.414,-1.953,0
1579707599.084,15.625,4.395,26.367,1.465,0
1579707599.088,10.742,4.883,28.320,4.883,0
1579707599.092,4.883,7.812,27.832,4.395,0
1579707599.096,5.859,5.371,24.414,0.000,0
1579707599.098,10.742,4.883,25.879,9.277,0
1579707599.102,4.395,11.230,28.809,19.531,0
1579707599.106,-2.930,5.371,22.949,14.648,0
1579707599.110,-2.930,0.000,14.160,11.230,0
1579707599.114,-1.465,2.930,7.812,6.348,0
1579707599.118,-4.883,1.953,10.254,6.836,0
1579707599.122,-9.277,1.465,8.301,2.930,0
1579707599.125,1.953,3.906,2.930,1.465,0
1579707599.129,-3.906,3.418,8.301,8.301,0
1579707599.133,-9.766,4.395,13.672,5.859,0
1579707599.137,0.488,4.883,14.160,4.883,0
1579707599.141,3.906,3.906,16.602,14.648,0
1579707599.143,6.348,2.930,13.672,15.137,0
1579707599.147,6.348,1.465,10.254,1.953,0
1579707599.151,4.395,2.930,12.207,0.488,0
1579707599.155,9.766,5.859,10.742,8.789,0
1579707599.159,3.906,5.371,13.184,4.395,0
1579707599.163,3.418,6.348,16.113,0.488,0
1579707599.167,10.254,9.277,21.973,7.812,0
1579707599.170,4.883,6.836,13.184,7.324,0
1579707599.174,2.441,2.441,5.371,4.883,0
1579707599.178,-2.441,7.812,13.672,-1.465,0
1579707599.182,-1.465,9.277,14.648,-1.953,0
1579707599.186,11.230,4.883,19.531,4.883,0
1579707599.188,14.160,6.348,21.484,3.418,0
1579707599.192,12.695,8.301,16.602,-2.930,0
1579707599.196,15.625,8.301,13.672,-6.348,0
1579707599.200,6.836,9.766,16.602,-4.883,0
1579707599.204,10.742,8.789,22.461,2.441,0
1579707599.208,12.207,0.000,19.043,0.977,0
1579707599.212,0.977,-0.488,10.254,-4.395,0
1579707599.215,1.953,6.348,8.789,-2.930,0
1579707599.219,10.254,10.742,16.602,-10.254,0
1579707599.223,0.488,7.812,23.926,-10.254,0
1579707599.227,0.000,0.977,24.902,-7.812,0
1579707599.231,3.418,4.395,22.461,-9.766,0
1579707599.233,0.000,8.789,26.367,-8.301,0
1579707599.237,6.348,10.254,31.250,-3.418,0
1579707599.241,9.277,12.695,32.715,0.488,0
1579707599.245,1.465,12.695,33.691,0.977,0
1579707599.249,7.812,9.766,35.645,10.742,0
1579707599.253,6.836,8.789,34.668,13.184,0
1579707599.257,-5.859,9.277,30.273,3.906,0
1579707599.260,-3.906,5.859,29.785,4.395,0
1579707599.264,6.348,9.766,36.133,10.254,0
1579707599.268,15.137,12.207,42.969,5.859,0
1579707599.272,8.789,7.324,44.922,0.977,0
1579707599.276,8.789,6.836,45.410,6.836,0
1579707599.278,5.371,11.230,52.246,11.719,0
1579707599.282,0.488,8.301,51.270,8.301,0
1579707599.286,8.301,8.301,51.758,13.184,0
1579707599.290,9.277,8.301,55.664,13.184,0
1579707599.294,1.465,2.441,55.176,7.324,0
1579707599.298,0.977,2.930,50.781,8.301,0
1579707599.302,0.977,5.371,40.527,0.488,0
1579707599.305,5.859,2.930,46.387,-4.883,0
1579707599.309,1.953,4.395,54.199,2.441,0
1579707599.313,0.977,6.836,51.758,6.348,0
1579707599.317,7.812,9.277,50.293,4.883,0
1579707599.321,7.324,15.625,53.223,7.324,0
1579707599.339,4.883,9.766,54.688,6.836,0
1579707599.343,7.324,7.324,47.363,5.371,0
1579707599.347,13.672,13.672,39.062,2.930,0
1579707599.351,6.348,12.207,37.109,-1.953,0
1579707599.355,0.000,9.766,37.598,-0.488,0
1579707599.359,4.883,8.301,32.715,5.859,0
1579707599.363,11.230,9.766,20.508,4.883,0
1579707599.366,3.906,14.648,26.855,6.348,0
1579707599.370,2.930,12.207,33.691,7.812,0
1579707599.374,5.371,6.348,21.973,2.441,0
1579707599.378,5.371,7.324,20.996,-2.930,0
1579707599.382,5.371,12.207,26.367,2.441,0
1579707599.399,2.441,10.254,26.367,11.230,0
1579707599.403,0.977,10.254,24.414,7.324,0
1579707599.407,2.930,12.207,17.578,2.441,0
1579707599.411,14.648,10.254,13.184,-3.418,0
1579707599.415,12.207,7.324,18.555,-2.441,0
1579707599.419,3.418,5.371,17.090,-1.953,0
1579707599.423,-0.488,4.395,11.230,-1.465,0
1579707599.426,-3.418,4.395,11.719,0.000,0
1579707599.430,-1.953,1.465,15.625,1.465,0
1579707599.434,-0.977,0.488,14.160,0.000,0
1579707599.438,-3.418,6.836,15.137,-7.324,0
1579707599.442,-0.488,6.836,16.113,-2.441,0
1579707599.429,5.859,4.883,16.113,2.930,0
1579707599.433,4.883,4.883,20.020,2.930,0
1579707599.437,1.953,5.371,22.949,2.441,0
1579707599.441,7.324,9.277,19.043,1.465,0
1579707599.445,13.672,15.625,16.113,2.930,0
1579707599.449,14.160,14.160,14.160,4.395,0
1579707599.453,9.766,10.742,12.207,2.930,0
1579707599.456,4.883,12.207,15.137,10.742,0
1579707599.460,22.461,12.695,19.043,18.555,0
1579707599.464,20.508,7.812,17.090,14.648,0
1579707599.468,6.836,6.836,20.996,2.930,0
1579707599.472,9.277,9.766,21.484,-3.906,0
1579707599.473,6.836,9.766,22.949,0.488,0
1579707599.477,8.301,5.859,21.973,-0.977,0
1579707599.481,9.766,6.836,24.414,-2.441,0
1579707599.485,6.836,11.230,37.598,3.418,0
1579707599.489,6.836,13.184,40.039,7.812,0
1579707599.493,6.348,12.695,38.086,4.395,0
1579707599.497,-2.930,10.254,36.621,0.000,0
1579707599.500,-8.789,7.324,33.691,-3.418,0
1579707599.504,-3.418,5.371,30.762,-4.883,0
1579707599.508,5.859,9.766,33.691,4.395,0
1579707599.512,7.324,13.184,34.668,1.953,0
1579707599.516,10.742,9.277,36.621,5.859,0
1579707599.519,14.648,5.859,35.156,13.672,0
1579707599.523,11.719,9.766,37.109,6.836,0
1579707599.527,7.812,13.672,44.922,15.137,0
1579707599.531,5.371,9.766,42.969,16.602,0
1579707599.535,6.836,9.766,45.898,6.836,0
1579707599.539,13.184,13.672,48.828,11.230,0
1579707599.543,15.625,12.207,50.781,12.695,0
1579707599.546,9.766,9.766,51.758,12.695,0
1579707599.550,10.742,11.719,56.641,23.438,0
1579707599.554,11.230,7.324,53.711,15.625,0
1579707599.558,10.742,5.371,44.434,0.488,0
1579707599.562,11.230,8.301,42.969,1.953,0
1579707599.564,9.277,9.766,42.480,0.488,0
1579707599.568,1.953,7.812,39.062,-3.418,0
1579707599.572,4.883,6.348,38.574,-2.441,0
1579707599.576,0.000,6.836,41.992,-5.859,0
1579707599.580,-3.418,5.371,39.551,-8.301,0
1579707599.584,3.418,3.906,41.016,0.000,0
1579707599.588,3.418,0.488,47.363,3.418,0
1579707599.591,10.254,4.395,55.176,2.441,0
1579707599.595,8.301,9.277,55.664,0.000,0
1579707599.599,16.113,11.719,41.992,-1.953,0
1579707599.603,31.250,16.602,37.109,-1.953,0
1579707599.607,38.086,18.066,49.316,1.465,0
1579707599.609,36.621,16.602,53.223,-1.465,0
1579707599.613,24.414,18.066,50.293,-2.441,0
1579707599.617,15.625,13.184,46.387,1.953,0
1579707599.621,5.371,11.719,43.945,4.883,0
1579707599.625,0.977,16.602,48.340,7.812,0
1579707599.629,-2.930,9.277,42.969,7.324,0
1579707599.633,-5.371,0.488,36.133,0.000,0
1579707599.636,-0.977,2.930,42.480,2.441,0
1579707599.640,0.488,6.348,44.922,0.488,0
1579707599.644,1.465,11.230,42.480,-1.953,0
1579707599.648,0.000,8.301,47.363,4.395,0
1579707599.652,4.883,4.395,47.363,4.395,0
1579707599.653,9.277,6.836,44.922,11.719,0
1579707599.657,4.395,6.348,44.434,19.043,0
1579707599.661,1.465,4.883,44.922,10.742,0
1579707599.665,2.441,4.883,48.340,6.348,0
1579707599.669,4.395,7.812,47.363,7.812,0
1579707599.673,3.418,12.207,44.434,14.648,0
1579707599.677,3.418,9.766,41.016,13.672,0
1579707599.680,4.395,6.836,44.434,6.836,0
1579707599.684,-2.441,4.883,46.875,2.441,0
1579707599.688,-6.836,2.930,44.922,-2.930,0
1579707599.692,-1.465,6.348,47.363,-1.465,0
1579707599.696,6.348,11.230,45.898,-2.930,0
1579707599.698,9.277,10.742,41.992,-1.465,0
1579707599.702,9.766,8.789,41.016,-1.953,0
1579707599.706,14.648,11.230,43.457,0.000,0
1579707599.710,16.602,16.113,46.387,3.418,0
1579707599.714,16.602,17.090,45.410,2.441,0
1579707599.718,17.090,13.672,41.992,4.395,0
1579707599.722,9.277,13.672,37.598,0.977,0
1579707599.725,1.465,11.230,40.039,0.977,0
1579707599.729,3.906,7.324,43.457,11.230,0
1579707599.733,2.441,8.789,38.086,15.137,0
1579707599.737,2.441,11.719,41.504,20.508,0
1579707599.741,5.371,11.230,48.340,16.113,0
1579707599.759,-2.930,2.930,41.504,2.930,0
1579707599.763,6.836,3.906,35.645,4.883,0
1579707599.767,16.602,11.719,43.457,2.441,0
1579707599.771,10.254,11.719,51.270,6.836,0
1579707599.775,13.184,11.719,45.898,7.812,0
1579707599.779,13.672,8.789,43.945,3.418,0
1579707599.783,10.254,4.883,47.852,3.418,0
1579707599.786,9.766,7.324,42.480,1.953,0
1579707599.790,15.137,6.348,43.457,10.742,0
1579707599.794,17.090,6.348,42.969,9.277,0
1579707599.798,14.160,9.766,40.039,2.441,0
1579707599.802,17.578,8.301,41.016,0.000,0
1579707599.803,15.625,6.348,33.203,5.859,0
1579707599.807,6.836,6.348,30.273,10.742,0
1579707599.811,2.441,5.859,35.156,3.418,0
1579707599.815,5.371,2.930,36.133,0.488,0
1579707599.819,5.371,2.930,36.621,2.930,0
1579707599.823,11.719,11.230,37.109,2.441,0
1579707599.827,14.160,13.184,37.598,0.000,0
1579707599.830,10.254,8.301,41.016,-1.465,0
1579707599.834,10.254,7.812,41.504,2.930,0
1579707599.838,15.625,6.836,34.180,3.906,0
1579707599.842,10.254,5.859,34.668,-2.930,0
1579707599.846,1.953,6.348,39.062,-1.953,0
1579707599.848,6.348,8.789,36.621,-1.465,0
1579707599.852,3.418,7.812,26.855,-0.977,0
1579707599.856,0.000,3.418,29.297,1.465,0
1579707599.860,0.000,5.859,34.180,-1.465,0
1579707599.864,0.488,7.324,35.156,-0.488,0
1579707599.868,0.977,9.766,35.645,2.441,0
1579707599.872,1.953,12.695,32.715,4.395,0
1579707599.875,2.441,9.277,34.180,3.418,0
1579707599.879,-0.488,8.301,37.598,0.977,0
1579707599.883,-4.395,5.859,33.203,-1.953,0
1579707599.887,-0.488,5.859,34.668,0.000,0
1579707599.891,8.301,7.324,29.297,5.859,0
1579707599.893,12.695,9.277,23.438,10.254,0
1579707599.897,2.930,8.789,30.273,11.719,0
1579707599.901,-4.883,6.348,38.574,13.184,0
1579707599.905,-6.348,5.371,34.180,8.789,0
1579707599.909,-2.441,8.301,26.855,1.465,0
1579707599.913,3.906,7.812,31.250,4.883,0
1579707599.917,1.953,5.859,34.668,9.766,0
1579707599.920,3.418,8.789,31.250,4.883,0
1579707599.924,9.766,11.719,26.367,2.930,0
1579707599.928,11.230,13.672,28.809,3.906,0
1579707599.932,5.859,13.184,27.344,6.836,0
1579707599.936,1.953,7.324,25.879,8.301,0
1579707599.938,8.301,1.465,24.902,6.348,0
1579707599.942,11.719,-0.977,23.926,7.812,0
1579707599.946,3.906,6.836,27.344,2.441,0
1579707599.950,3.906,11.230,29.297,3.418,0
1579707599.954,5.859,2.930,28.809,5.859,0
1579707599.958,6.836,5.859,24.414,6.836,0
1579707599.962,9.766,8.789,23.926,19.043,0
1579707599.965,12.695,5.859,23.926,14.648,0
1579707599.969,11.230,3.906,23.926,8.301,0
1579707599.973,4.883,4.395,21.484,11.719,0
1579707599.977,4.395,6.836,14.160,13.184,0
1579707599.981,7.324,5.859,10.742,12.695,0
1579707599.983,8.301,4.883,8.301,9.277,0
1579707599.987,12.207,8.301,10.254,2.930,0
1579707599.991,15.137,9.766,11.230,3.906,0
1579707599.995,13.672,8.789,7.324,6.836,0
1579707599.999,16.113,9.277,11.230,8.789,0
1579707600.003,20.508,7.812,12.695,11.719,0
1579707600.007,20.020,8.789,6.836,7.812,0
1579707600.010,15.625,12.207,11.230,7.324,0
1579707600.014,15.137,11.230,20.996,12.207,0
1579707600.018,8.301,5.371,20.508,9.277,0
1579707600.022,6.348,2.441,17.578,0.488,0
1579707600.026,9.277,0.977,17.090,0.977,0
1579707600.029,1.465,3.906,10.254,2.930,0
1579707600.033,5.859,4.883,8.789,5.371,0
1579707600.037,7.812,5.859,14.648,9.277,0
1579707600.041,-0.977,8.789,10.742,6.348,0
1579707600.045,5.371,11.719,7.812,8.789,0
1579707600.049,11.719,13.184,12.207,3.906,0
1579707600.053,12.695,11.719,13.184,2.930,0
1579707600.056,11.719,11.719,17.578,3.418,0
1579707600.060,11.230,13.672,19.043,2.441,0
1579707600.064,12.695,14.648,18.066,7.812,0
1579707600.068,14.648,11.719,15.625,9.766,0
1579707600.072,15.137,15.137,18.555,13.184,0
1579707600.089,13.184,19.043,24.902,22.461,0
1579707600.093,6.836,12.207,18.555,13.672,0
1579707600.097,7.812,9.766,10.742,7.812,0
1579707600.101,11.719,10.254,10.742,7.324,0
1579707600.105,10.742,8.301,11.719,0.000,0
1579707600.109,16.113,7.812,10.254,1.465,0
1579707600.113,21.484,3.418,19.043,11.230,0
1579707600.116,13.184,2.930,30.762,2.930,0
1579707600.120,14.648,2.441,28.809,-1.465,0
1579707600.124,20.508,4.883,31.250,-0.488,0
1579707600.128,16.602,6.348,33.691,-2.930,0
1579707600.132,24.414,1.465,26.855,0.977,0
1579707600.134,20.508,2.441,29.785,5.371,0
1579707600.138,-5.859,0.488,40.039,1.953,0
1579707600.142,-17.090,-2.441,39.551,-6.348,0
1579707600.146,-16.602,-2.930,41.504,-8.789,0
1579707600.150,-13.184,-4.883,45.410,8.301,0
1579707600.154,-10.742,0.000,39.551,2.441,0
1579707600.158,-6.348,2.441,40.527,-13.672,0
1579707600.161,0.000,3.418,45.898,-13.184,0
1579707600.165,1.953,1.465,43.457,-7.324,0
1579707600.169,2.441,-1.465,35.645,-2.930,0
1579707600.173,-3.418,-1.465,34.668,-2.441,0
1579707600.177,-2.441,3.418,43.457,7.812,0
1579707600.179,7.812,7.324,37.109,10.742,0
1579707600.183,13.184,3.418,29.785,6.348,0
1579707600.187,7.324,2.930,38.086,13.184,0
1579707600.191,-0.488,2.441,41.504,10.254,0
1579707600.195,-2.441,1.953,33.691,-1.465,0
1579707600.199,3.418,3.906,29.785,0.488,0
1579707600.203,8.789,8.789,33.203,2.441,0
1579707600.206,6.836,7.812,34.668,3.906,0
1579707600.210,21.484,9.277,41.992,16.602,0
1579707600.214,20.020,12.695,38.086,19.043,0
1579707600.218,13.184,6.836,30.273,8.301,0
1579707600.222,14.648,5.859,33.203,7.324,0
1579707600.224,12.695,6.348,34.180,10.742,0
1579707600.228,19.043,6.836,34.180,8.789,0
1579707600.232,24.414,1.953,39.551,11.230,0
1579707600.236,19.043,0.977,43.457,16.602,0
1579707600.240,6.836,4.395,37.598,9.766,0
1579707600.244,8.301,4.395,36.133,6.348,0
1579707600.248,13.672,3.418,36.621,9.277,0
1579707600.251,15.625,5.859,35.156,15.137,0
1579707600.255,16.113,9.766,33.203,9.766,0
1579707600.259,12.207,6.836,38.086,-0.488,0
1579707600.263,11.719,4.395,45.410,-1.953,0
1579707600.267,2.930,9.277,40.039,-3.418,0
1579707600.269,0.000,8.789,31.738,-0.488,0
1579707600.273,14.648,9.277,32.227,-4.395,0
1579707600.277,16.113,11.230,34.668,-9.766,0
1579707600.281,4.395,11.230,42.480,-0.488,0
1579707600.285,5.859,15.137,45.898,8.789,0
1579707600.289,10.254,14.160,43.945,7.324,0
1579707600.293,19.531,14.648,42.969,1.465,0
1579707600.296,22.461,10.742,41.016,3.906,0
1579707600.300,16.602,15.137,46.875,12.695,0
1579707600.304,7.324,16.602,51.270,15.137,0
1579707600.308,-2.441,10.742,45.898,12.695,0
1579707600.312,5.859,8.789,41.992,15.625,0
1579707600.314,10.254,8.789,44.434,21.973,0
1579707600.318,13.184,12.695,45.410,22.949,0
1579707600.322,19.043,7.324,38.086,18.066,0
1579707600.326,16.113,11.719,40.039,19.043,0
1579707600.330,9.766,15.625,43.457,21.973,0
1579707600.334,6.836,13.672,42.480,20.508,0
1579707600.338,10.254,15.137,42.969,14.648,0
1579707600.341,13.184,10.742,38.574,12.695,0
1579707600.345,3.418,5.859,34.180,6.836,0
1579707600.349,0.488,6.348,37.598,-0.977,0
1579707600.353,15.137,7.324,39.062,3.906,0
1579707600.357,28.320,11.230,35.645,6.348,0
1579707600.359,15.625,13.672,35.156,-11.230,0
1579707600.363,16.602,12.695,39.551,-14.160,0
1579707600.367,32.227,14.160,40.527,-5.859,0
1579707600.371,35.645,16.113,38.574,-8.301,0
1579707600.375,26.367,12.207,35.645,-7.324,0
1579707600.379,27.832,8.789,36.621,2.930,0
1579707600.383,25.879,6.348,38.086,4.395,0
1579707600.386,14.160,3.906,34.180,9.277,0
1579707600.390,11.230,7.324,32.227,11.719,0
1579707600.394,7.812,7.324,35.156,2.930,0
1579707600.398,8.789,8.789,39.062,3.906,0
1579707600.402,6.836,11.719,44.922,0.488,0
1579707600.404,4.395,9.766,40.527,2.441,0
1579707600.408,1.953,7.812,32.227,0.977,0
1579707600.412,-3.418,8.301,31.250,-6.836,0
1579707600.416,-0.488,10.254,28.809,-1.465,0
1579707600.420,6.348,7.324,30.762,-5.371,0
1579707600.424,9.277,9.766,37.598,-0.977,0
1579707600.428,6.348,11.719,33.691,4.395,0
1579707600.431,-3.906,3.906,23.926,-6.836,0
1579707600.435,-5.371,5.859,28.809,-0.488,0
1579707600.439,-3.418,3.418,26.367,10.742,0
1579707600.443,-5.371,3.418,21.484,0.488,0
1579707600.447,-5.371,7.324,31.738,1.953,0
1579707600.464,4.395,8.301,38.086,5.371,0
1579707600.468,6.348,5.371,38.086,6.348,0
1579707600.472,-1.953,1.953,35.645,2.930,0
1579707600.476,-8.789,8.301,36.133,-7.324,0
1579707600.480,-5.371,9.766,40.039,-4.395,0
1579707600.484,7.812,9.277,32.715,2.441,0
1579707600.488,16.113,11.230,29.297,4.883,0
1579707600.491,13.672,9.277,34.668,4.395,0
1579707600.495,12.207,10.254,35.645,5.371,0
1579707600.499,11.719,12.695,36.133,8.301,0
1579707600.503,10.254,8.301,32.715,12.695,0
1579707600.507,6.836,2.930,23.438,12.695,0
1579707600.509,3.418,8.301,26.855,4.883,0
1579707600.513,7.324,11.230,31.250,1.953,0
1579707600.517,7.812,6.836,33.203,6.348,0
1579707600.521,4.395,5.371,36.133,4.395,0
1579707600.525,7.324,6.348,30.762,0.488,0
1579707600.529,3.418,8.301,26.367,-6.836,0
1579707600.533,5.859,9.766,21.973,-8.789,0
1579707600.536,9.766,5.859,21.973,-3.906,0
1579707600.540,9.766,6.836,29.297,7.324,0
1579707600.544,11.230,10.254,30.762,7.324,0
1579707600.548,8.789,4.395,32.227,1.465,0
1579707600.552,2.441,5.371,32.715,1.465,0
1579707600.554,-2.930,7.812,27.344,7.324,0
1579707600.558,2.930,5.371,28.320,11.719,0
1579707600.562,17.090,9.766,33.691,10.254,0
1579707600.566,14.160,5.859,30.273,2.441,0
1579707600.570,4.883,0.000,25.879,-0.488,0
1579707600.574,10.254,4.395,25.879,1.465,0
1579707600.578,11.719,0.000,27.344,4.395,0
1579707600.581,7.324,0.977,30.762,3.418,0
1579707600.585,0.977,4.395,26.855,-2.441,0
1579707600.589,8.301,3.418,24.902,-3.906,0
1579707600.593,10.742,8.789,25.391,-6.836,0
1579707600.597,10.742,11.719,27.832,-4.883,0
1579707600.599,11.719,11.719,27.832,-2.441,0
1579707600.603,10.742,7.324,24.414,-0.977,0
1579707600.607,6.348,4.883,21.973,0.488,0
1579707600.611,6.836,5.859,21.484,3.418,0
1579707600.615,0.488,7.324,25.391,1.953,0
1579707600.619,-7.324,6.836,15.137,2.441,0
1579707600.623,-6.348,7.812,10.254,6.348,0
1579707600.626,-4.395,9.766,20.020,-0.977,0
1579707600.630,-2.930,9.277,22.949,0.000,0
1579707600.634,-11.230,9.277,25.879,1.465,0
1579707600.638,-6.348,8.301,27.344,5.371,0
1579707600.642,-5.371,5.859,26.855,7.812,0
1579707600.644,-12.695,9.277,28.809,4.883,0
1579707600.648,-13.672,11.230,28.809,-2.441,0
1579707600.652,-3.418,6.348,27.344,1.465,0
1579707600.656,0.000,6.348,20.020,7.324,0
1579707600.660,-7.812,10.254,16.602,-4.883,0
1579707600.664,-7.324,18.555,19.531,-8.789,0
1579707600.668,2.930,15.625,26.367,-1.465,0
1579707600.671,9.277,2.930,27.832,0.000,0
1579707600.675,-0.488,3.418,27.344,1.465,0
1579707600.679,-7.812,7.324,26.855,0.488,0
1579707600.683,-0.977,8.301,27.832,0.488,0
1579707600.687,0.977,9.277,28.320,1.953,0
1579707600.689,1.465,10.254,24.414,-4.883,0
1579707600.693,0.977,10.742,25.391,-4.395,0
1579707600.697,3.418,11.230,28.809,2.930,0
1579707600.701,4.395,11.230,28.809,1.465,0
1579707600.705,3.418,9.277,25.879,2.441,0
1579707600.709,4.883,5.859,32.715,10.742,0
1579707600.713,7.324,7.324,35.645,16.602,0
1579707600.716,8.301,9.277,31.738,13.672,0
1579707600.720,5.859,8.301,31.738,8.301,0
1579707600.724,6.348,13.184,30.762,13.184,0
1579707600.728,10.254,13.672,34.180,18.066,0
1579707600.732,11.719,15.625,36.621,14.648,0
1579707600.734,9.277,15.625,34.668,11.719,0
1579707600.738,6.836,13.672,40.527,7.812,0
1579707600.742,6.836,12.695,44.922,5.371,0
1579707600.746,2.930,11.230,44.922,6.348,0
1579707600.750,-0.977,13.672,42.969,6.348,0
1579707600.754,12.207,12.695,47.852,7.812,0
1579707600.758,18.555,15.625,52.734,13.184,0
1579707600.761,11.719,9.277,46.387,17.090,0
1579707600.765,8.789,8.301,44.922,8.301,0
1579707600.769,5.859,17.090,32.715,-5.371,0
1579707600.773,2.441,18.555,27.344,-5.371,0
1579707600.777,-3.418,13.184,33.691,1.465,0
1579707600.779,-2.930,12.207,36.133,2.441,0
1579707600.783,2.441,15.137,33.691,-1.953,0
1579707600.787,3.906,19.043,30.762,-2.930,0
1579707600.791,3.418,20.020,29.785,4.395,0
1579707600.795,15.137,13.184,27.832,7.324,0
1579707600.799,11.719,8.301,26.855,7.324,0
1579707600.803,1.465,11.230,25.391,6.836,0
1579707600.806,-0.488,14.648,28.809,7.324,0
1579707600.810,-3.418,8.789,30.762,3.418,0
1579707600.814,3.418,8.789,24.902,4.883,0
1579707600.818,12.695,13.672,18.555,15.137,0
1579707600.822,14.160,9.277,21.973,18.555,0
1579707600.839,12.695,11.719,28.320,16.113,0
1579707600.843,14.648,13.672,23.926,19.531,0
1579707600.847,7.812,10.742,16.113,17.090,0
1579707600.851,9.766,8.789,16.602,9.277,0
1579707600.855,11.719,12.207,16.602,16.113,0
1579707600.859,4.883,13.184,12.695,21.484,0
1579707600.863,13.184,9.766,16.113,13.184,0
1579707600.866,17.090,6.348,21.973,8.301,0
1579707600.870,12.207,5.859,23.438,11.719,0
1579707600.874,15.137,11.719,20.996,15.137,0
1579707600.878,16.602,14.648,17.090,12.695,0
1579707600.882,13.184,10.254,21.484,5.859,0
1579707600.884,17.090,17.090,26.367,10.254,0
1579707600.888,13.672,17.090,22.949,12.695,0
1579707600.892,5.859,9.277,19.531,0.000,0
1579707600.896,11.230,8.301,19.531,0.488,0
1579707600.900,12.695,5.859,17.090,2.441,0
1579707600.904,14.160,7.812,18.066,4.395,0
1579707600.908,12.695,12.207,21.484,9.277,0
1579707600.911,8.789,13.184,21.484,11.230,0
1579707600.915,-0.977,9.766,25.391,6.836,0
1579707600.919,-9.766,6.836,26.855,-2.441,0
1579707600.923,2.930,14.648,33.691,10.254,0
1579707600.927,9.277,16.113,37.598,12.207,0
1579707600.929,7.324,7.812,26.367,1.465,0
1579707600.933,3.906,10.742,26.367,0.488,0
1579707600.937,-0.488,10.742,29.785,3.906,0
1579707600.941,-5.371,10.254,27.832,5.859,0
1579707600.945,-2.930,10.742,26.367,4.883,0
1579707600.949,4.395,9.766,27.344,4.883,0
1579707600.953,0.000,9.766,30.273,4.883,0
1579707600.956,1.953,10.254,34.668,7.324,0
1579707600.960,1.953,10.742,33.203,4.395,0
1579707600.964,0.000,10.742,25.391,0.000,0
1579707600.968,4.395,9.766,25.391,0.000,0
1579707600.972,3.418,12.207,23.438,3.906,0
1579707600.974,1.465,10.254,21.484,2.930,0
1579707600.978,4.395,10.742,20.508,3.418,0
1579707600.982,3.906,14.648,18.066,12.207,0
1579707600.986,1.953,9.766,18.555,4.883,0
1579707600.990,9.766,3.906,15.625,3.906,0
1579707600.994,6.836,8.789,16.113,12.207,0
1579707600.998,5.859,10.254,17.578,6.348,0
1579707601.001,9.277,11.719,15.137,5.859,0
1579707601.005,0.488,18.066,13.672,4.395,0
1579707601.009,2.930,13.672,18.066,3.906,0
1579707601.013,5.859,11.719,16.113,4.883,0
1579707601.017,6.836,14.648,12.695,3.906,0
1579707601.019,2.930,13.184,15.625,5.371,0
1579707601.023,5.859,16.602,20.996,0.000,0
1579707601.027,12.207,19.531,17.090,-4.395,0
1579707601.031,12.207,14.648,16.113,-5.371,28185
1579707601.035,6.348,10.742,18.555,-3.906,0
1579707601.039,4.883,7.812,18.555,-0.977,0
1579707601.043,8.301,7.812,31.250,-0.488,0
1579707601.046,15.625,7.324,33.691,0.488,0
1579707601.050,25.879,12.695,39.551,8.301,0
1579707601.054,26.367,18.555,43.945,7.812,0
1579707601.058,15.137,10.254,38.574,1.953,0
1579707601.062,12.207,9.277,41.992,1.953,0
1579707601.063,8.789,8.301,31.738,5.371,0
1579707601.067,-0.977,1.465,27.344,5.371,0
1579707601.071,-4.395,2.930,34.668,-5.859,0
1579707601.075,-6.348,4.395,30.273,-5.859,0
1579707601.079,-11.230,0.488,25.879,-9.277,0
1579707601.083,-9.766,2.441,29.785,-5.859,0
1579707601.087,-3.906,1.465,27.344,3.906,0
1579707601.090,2.930,-1.953,28.809,7.324,0
1579707601.094,4.395,6.836,36.621,6.836,0
1579707601.098,-0.977,6.836,33.691,3.906,0
1579707601.102,-4.395,0.977,33.691,5.371,0
1579707601.106,2.441,9.766,39.551,9.277,0
1579707601.109,-0.488,13.184,32.715,8.301,0
1579707601.113,-4.395,12.207,24.414,2.441,0
1579707601.117,0.000,12.207,25.879,0.000,0
1579707601.121,7.324,12.695,25.879,-3.906,0
1579707601.125,6.836,9.277,25.391,-8.301,0
1579707601.129,12.695,5.371,22.461,-8.789,0
1579707601.133,18.066,13.184,18.555,-6.836,0
1579707601.136,15.625,16.113,19.043,-5.859,0
1579707601.140,12.695,7.812,22.461,-8.301,0
1579707601.144,-4.883,8.789,19.043,-10.742,0
1579707601.148,-17.090,11.230,22.461,-9.766,0
1579707601.152,-22.461,8.301,30.762,-4.883,0
1579707601.154,-27.832,7.324,26.367,-4.395,0
1579707601.158,-25.879,11.719,26.855,-1.953,0
1579707601.162,-25.391,7.812,31.738,2.441,0
1579707601.166,-16.113,5.859,41.016,4.395,0
1579707601.170,-14.160,7.812,44.434,6.348,0
1579707601.174,-32.227,6.348,34.180,-6.348,0
1579707601.178,-41.504,9.766,26.855,-9.277,0
1579707601.181,-34.668,9.277,32.227,-1.953,0
1579707601.185,-28.320,8.301,39.062,-7.812,0
1579707601.189,-22.461,10.742,40.527,-6.348,0
1579707601.193,-11.230,12.207,42.480,3.906,0
1579707601.197,-2.441,11.719,37.598,3.906,0
1579707601.213,-9.766,10.742,34.668,-1.465,0
1579707601.217,-20.508,11.230,36.133,0.000,0
1579707601.221,-19.531,9.766,32.227,7.812,0
1579707601.225,-7.812,4.395,29.297,9.766,0
1579707601.229,11.719,11.719,27.832,1.953,0
1579707601.233,21.973,4.883,24.414,2.441,0
1579707601.237,24.902,-0.977,24.902,8.301,0
1579707601.240,24.414,14.648,26.855,9.766,0
1579707601.244,21.484,13.672,29.297,8.301,0
1579707601.248,25.879,11.230,25.391,7.324,0
1579707601.252,27.832,11.719,20.020,3.418,0
1579707601.256,25.391,13.672,26.855,-2.441,0
1579707601.259,28.809,12.207,34.668,9.277,0
1579707601.263,25.391,8.301,37.598,17.090,0
1579707601.267,24.902,7.812,37.598,12.695,0
1579707601.271,39.551,8.301,40.039,20.996,0
1579707601.275,42.480,10.254,47.363,17.090,0
1579707601.279,34.180,4.883,45.410,4.883,0
1579707601.283,27.832,3.906,39.062,4.395,0
1579707601.286,18.555,3.418,35.156,2.930,0
1579707601.290,19.043,7.324,31.738,3.906,0
1579707601.294,29.297,7.812,29.785,3.906,0
1579707601.298,32.715,4.883,29.297,1.465,0
1579707601.302,32.715,8.301,29.785,-4.883,0
1579707601.304,33.691,9.766,21.973,-2.930,0
1579707601.308,36.133,11.230,19.043,4.395,0
1579707601.312,41.504,11.230,24.414,2.930,0
1579707601.316,35.645,9.277,22.949,7.324,0
1579707601.320,30.273,8.789,21.484,5.371,0
1579707601.324,38.086,10.254,22.461,-3.418,0
1579707601.328,30.273,11.230,20.508,-6.836,0
1579707601.331,27.832,8.789,19.043,-4.395,0
1579707601.335,26.367,3.906,18.555,2.930,0
1579707601.339,23.926,0.977,22.461,4.395,0
1579707601.343,33.203,1.953,24.902,6.836,0
1579707601.347,28.809,6.348,20.020,7.324,0
1579707601.349,23.926,4.883,20.996,6.348,0
1579707601.353,24.902,2.930,19.043,7.324,0
1579707601.357,29.297,6.836,18.555,7.324,0
1579707601.361,24.414,11.230,22.461,5.859,0
1579707601.365,19.043,11.230,22.461,9.766,0
1579707601.369,21.484,9.277,18.555,9.277,0
1579707601.373,22.461,7.812,19.531,6.836,0
1579707601.376,24.414,12.695,24.414,4.395,0
1579707601.380,20.020,13.672,19.043,7.324,0
1579707601.384,18.066,10.254,17.090,7.324,0
1579707601.388,18.555,13.184,24.902,11.230,0
1579707601.392,19.531,16.113,22.461,17.578,0
1579707601.394,13.184,14.648,21.973,9.277,0
1579707601.398,9.277,14.160,26.367,2.441,0
1579707601.402,18.066,13.672,28.320,12.695,0
1579707601.406,12.695,5.371,23.438,10.742,0
1579707601.410,7.324,0.488,23.438,3.906,0
1579707601.414,8.301,6.348,25.879,2.441,0
1579707601.418,11.230,9.766,27.344,5.371,0
1579707601.421,15.625,9.766,31.738,8.789,0
1579707601.425,25.879,12.695,32.715,5.859,0
1579707601.429,21.973,12.695,34.180,2.930,0
1579707601.433,16.113,15.137,37.598,3.418,0
1579707601.437,20.508,16.113,35.156,5.859,0
1579707601.439,24.414,17.578,30.762,10.254,0
1579707601.443,19.043,19.531,34.180,6.836,0
1579707601.447,12.207,17.090,37.109,2.930,0
1579707601.451,19.043,15.625,34.668,6.836,0
1579707601.455,14.648,10.254,30.762,8.301,0
1579707601.459,6.836,4.883,27.344,8.301,0
1579707601.463,1.465,2.441,28.809,12.207,0
1579707601.466,-12.207,2.930,28.320,7.812,0
1579707601.470,-4.883,2.930,28.809,9.277,0
1579707601.474,0.488,5.859,30.273,9.277,0
1579707601.478,-7.324,8.301,29.785,-0.488,0
1579707601.482,5.859,13.672,31.250,0.000,0
1579707601.484,12.695,18.555,31.738,6.836,0
1579707601.488,6.836,14.160,35.645,14.648,0
1579707601.492,6.348,11.719,39.551,18.066,0
1579707601.496,10.742,17.090,36.621,19.043,0
1579707601.500,14.648,20.020,37.109,13.184,0
1579707601.504,12.695,17.578,35.156,10.742,0
1579707601.508,8.301,16.113,28.320,11.719,0
1579707601.511,12.695,13.672,25.391,9.277,0
1579707601.515,22.461,11.230,28.809,7.812,0
1579707601.519,20.020,11.719,27.832,8.789,0
1579707601.523,16.602,16.602,26.855,1.953,0
1579707601.527,21.973,23.438,33.203,1.953,0
1579707601.529,7.324,10.742,25.391,-2.441,0
1579707601.533,-4.395,4.883,19.531,-2.930,0
1579707601.537,8.301,8.789,22.949,5.859,0
1579707601.541,13.184,10.742,21.484,2.441,0
1579707601.545,13.184,12.695,28.320,1.953,0
1579707601.549,11.719,8.789,29.785,9.277,0
1579707601.553,6.836,2.441,18.555,1.465,0
1579707601.556,0.000,-1.465,19.043,-9.277,0
1579707601.560,3.418,6.348,23.926,-0.488,0
1579707601.564,7.324,10.254,20.996,6.836,0
1579707601.568,-6.348,5.371,24.414,11.719,0
1579707601.572,-3.906,3.418,27.344,15.137,0
1579707601.574,-5.859,1.953,26.367,9.766,0
1579707601.578,-4.883,3.906,30.273,12.695,0
1579707601.582,9.277,2.441,31.738,13.672,0
1579707601.586,8.789,2.930,30.273,6.348,0
1579707601.590,-0.488,10.742,24.902,-3.906,0
1579707601.594,3.418,6.836,22.461,-2.441,0
1579707601.598,10.742,3.418,27.344,2.930,0
1579707601.601,7.324,7.812,36.621,4.883,0
1579707601.605,1.953,7.812,37.598,5.371,0
1579707601.609,4.395,7.812,36.133,2.441,0
1579707601.613,11.719,10.742,38.086,8.789,0
1579707601.617,11.230,15.137,33.691,16.602,0
1579707601.634,9.277,13.672,27.832,7.324,0
1579707601.638,18.066,10.742,29.297,0.000,0
1579707601.642,10.742,10.742,35.645,2.930,0
1579707601.646,2.441,15.137,36.621,0.977,0
1579707601.650,5.371,12.695,37.598,5.371,0
1579707601.654,0.977,4.883,33.691,11.719,0
1579707601.658,0.488,6.348,31.738,9.277,0
1579707601.661,4.883,3.906,35.156,4.883,0
1579707601.665,7.812,3.906,36.621,6.836,0
1579707601.669,10.742,15.625,32.227,1.953,0
1579707601.673,10.742,18.555,26.855,0.000,0
1579707601.677,4.883,14.160,30.273,9.277,0
1579707601.679,1.465,9.277,31.738,9.766,0
1579707601.683,2.441,7.812,32.227,3.906,0
1579707601.687,4.395,9.277,34.668,9.766,0
1579707601.691,7.812,12.207,32.227,9.766,0
1579707601.695,6.348,10.742,33.203,0.977,0
1579707601.699,15.625,13.184,28.809,0.000,0
1579707601.703,0.977,17.090,23.438,-2.930,0
1579707601.706,-16.602,15.625,25.879,-0.488,0
1579707601.710,-4.395,11.230,28.809,5.371,0
1579707601.714,0.488,8.789,26.367,2.441,0
1579707601.718,5.371,13.672,22.949,1.953,0
1579707601.722,5.859,14.160,33.691,10.254,0
1579707601.724,3.418,11.719,37.109,9.277,0
1579707601.728,8.301,12.695,32.715,5.859,0
1579707601.732,6.836,12.695,31.738,6.348,0
1579707601.736,-1.465,13.184,30.273,5.371,0
1579707601.740,-3.906,13.672,34.180,5.859,0
1579707601.744,5.371,13.672,29.297,5.859,0
1579707601.748,15.625,14.160,20.508,-1.465,0
1579707601.751,4.883,16.602,26.855,-0.977,0
1579707601.755,-11.719,16.113,34.180,4.395,0
1579707601.759,-13.184,13.184,35.156,1.465,0
1579707601.763,-9.766,13.184,36.621,8.301,0
1579707601.767,-8.789,12.695,33.691,15.625,0
1579707601.769,-3.906,13.184,30.762,11.719,0
1579707601.773,-2.441,14.160,32.715,18.555,0
1579707601.777,0.000,14.160,29.297,15.137,0
1579707601.781,-14.160,14.160,27.344,4.883,0
1579707601.785,-14.160,19.043,25.879,-0.977,0
1579707601.789,1.953,19.531,21.484,-0.488,0
1579707601.793,-5.371,12.207,25.879,9.766,0
1579707601.796,-2.441,9.766,30.273,11.719,0
1579707601.800,4.395,9.277,26.367,10.254,0
1579707601.804,-1.953,14.648,29.297,9.277,0
1579707601.808,3.418,21.973,29.785,8.301,0
1579707601.812,5.859,21.484,23.926,12.695,0
1579707601.814,3.418,16.602,19.043,9.766,0
1579707601.818,0.488,12.207,23.438,0.488,0
1579707601.822,1.953,8.301,26.367,6.836,0
1579707601.826,12.695,9.766,26.855,10.254,0
1579707601.830,15.625,10.742,24.414,4.883,0
1579707601.834,-0.977,9.277,20.020,2.930,0
1579707601.838,-3.418,15.137,28.320,5.859,0
1579707601.841,3.418,14.160,26.855,6.348,0
1579707601.845,-5.859,7.324,24.902,1.953,0
1579707601.849,-5.859,10.742,34.668,8.301,0
1579707601.853,1.465,13.184,35.156,12.695,0
1579707601.857,-1.465,9.766,41.992,10.254,0
1579707601.859,-8.301,9.277,41.992,0.488,0
1579707601.863,-12.207,11.719,36.621,0.488,0
1579707601.867,-13.184,14.160,37.598,9.766,0
1579707601.871,3.418,16.602,41.016,13.184,0
1579707601.875,10.254,14.160,40.527,14.160,0
1579707601.879,3.906,11.230,39.062,14.648,0
1579707601.883,4.883,9.766,42.480,15.625,0
1579707601.886,5.371,7.812,41.992,12.695,0
1579707601.890,3.418,7.812,38.086,9.766,0
1579707601.894,7.812,8.301,34.180,4.395,0
1579707601.898,16.602,8.301,34.180,3.906,0
1579707601.902,28.809,7.812,33.691,6.836,0
1579707601.904,31.738,10.254,30.273,-0.488,0
1579707601.908,36.621,17.578,32.227,-1.953,0
1579707601.912,41.016,16.113,33.203,4.395,0
1579707601.916,28.320,11.230,30.762,5.859,0
1579707601.920,20.508,9.766,32.715,9.766,0
1579707601.924,12.695,7.812,39.062,20.508,0
1579707601.928,6.348,10.254,37.598,16.113,0
1579707601.931,1.953,10.254,35.156,7.324,0
1579707601.935,-8.789,12.695,36.133,3.906,0
1579707601.939,-12.695,10.254,38.574,4.883,0
1579707601.943,-9.277,6.348,34.668,10.254,0
1579707601.947,0.977,16.602,39.062,12.695,0
1579707601.949,0.488,16.113,48.828,4.395,0
1579707601.953,-12.695,10.254,39.551,0.000,0
1579707601.957,-20.996,12.695,38.086,-1.953,0
1579707601.961,-24.414,10.254,47.852,-5.859,0
1579707601.965,-24.414,9.277,49.316,-4.883,0
1579707601.969,-12.207,11.230,38.574,0.000,0
1579707601.973,-7.812,12.695,29.297,4.395,0
1579707601.976,-13.672,13.672,34.180,0.977,0
1579707601.980,-10.742,17.578,33.691,0.000,0
1579707601.984,-5.371,15.625,28.809,-0.488,0
1579707601.988,-5.371,7.812,31.250,4.883,0
1579707601.992,-8.301,8.301,32.715,7.812,0
1579707602.009,3.906,9.766,36.621,10.742,0
1579707602.013,-8.301,5.859,40.527,10.742,0
1579707602.017,-7.324,9.277,36.133,4.883,0
1579707602.021,3.418,15.625,35.645,7.324,0
1579707602.025,-5.859,15.625,43.945,6.836,0
1579707602.029,-4.883,14.160,43.457,3.906,0
1579707602.033,-3.906,14.160,36.621,0.000,0
1579707602.036,-6.348,14.648,40.527,-4.883,0
1579707602.040,-2.930,11.230,44.922,2.930,0
1579707602.044,-8.301,11.230,42.969,-1.953,0
1579707602.048,-9.277,8.789,44.434,-9.766,0
1579707602.052,-6.348,9.277,46.387,-5.371,0
1579707602.054,-10.742,9.277,42.969,0.488,0
1579707602.058,-2.930,7.812,41.992,2.930,0
1579707602.062,5.371,11.230,39.062,4.395,0
1579707602.066,1.953,8.789,32.227,2.441,0
1579707602.070,1.953,6.836,32.227,0.977,0
1579707602.074,-1.953,7.324,37.598,3.906,0
1579707602.078,-0.488,6.348,44.434,1.953,0
1579707602.081,6.348,5.859,43.457,-0.488,0
1579707602.085,2.441,6.348,38.086,1.953,0
1579707602.089,6.836,7.324,33.691,4.883,0
1579707602.093,22.461,9.766,35.645,1.465,0
1579707602.097,25.879,9.766,41.504,3.418,0
1579707602.099,21.973,7.812,41.016,3.906,0
1579707602.103,22.949,9.766,39.062,3.418,0
1579707602.107,28.809,13.184,42.480,7.812,0
1579707602.111,28.809,15.625,44.434,5.859,0
1579707602.115,18.066,13.672,35.645,2.930,0
1579707602.119,12.695,13.184,35.156,3.906,0
1579707602.123,6.348,13.184,40.039,-4.395,17025
1579707602.126,21.973,11.230,41.016,1.465,0
1579707602.130,29.785,10.742,37.598,10.742,0
1579707602.134,14.648,10.742,34.668,3.418,0
1579707602.138,17.090,10.254,37.598,1.953,0
1579707602.142,20.508,10.254,38.086,5.859,0
1579707602.144,2.930,12.695,39.551,6.348,0
1579707602.148,0.488,12.695,41.992,2.441,0
1579707602.152,0.488,7.812,34.668,4.395,0
1579707602.156,4.395,9.766,36.133,4.395,0
1579707602.160,10.742,14.648,37.109,6.836,0
1579707602.164,11.719,18.555,27.832,4.395,0
1579707602.168,17.578,13.184,30.273,9.766,0
1579707602.171,20.508,7.324,30.273,14.648,0
1579707602.175,18.555,12.207,33.203,14.160,0
1579707602.179,18.555,12.695,38.086,20.508,0
1579707602.183,12.695,9.766,33.203,14.160,0
1579707602.187,15.625,16.113,31.738,1.465,0
1579707602.189,19.531,15.625,35.645,-1.953,0
1579707602.193,20.020,17.090,40.527,2.441,0
1579707602.197,10.254,18.555,33.203,2.441,0
1579707602.201,-0.977,11.230,22.949,5.859,0
1579707602.205,-1.465,11.230,28.809,3.418,0
1579707602.209,0.977,7.812,28.320,-0.977,0
1579707602.213,-3.906,1.465,24.902,2.441,0
1579707602.216,-13.184,-2.930,26.855,-1.953,0
1579707602.220,-11.719,7.324,35.645,-0.977,0
1579707602.224,-13.184,13.184,39.551,-5.371,0
1579707602.228,-7.812,9.277,40.527,-0.977,0
1579707602.232,0.000,4.883,41.504,9.766,0
1579707602.234,-5.859,4.883,41.016,13.184,0
1579707602.238,-11.230,7.812,44.922,7.812,0
1579707602.242,0.488,8.789,46.875,6.836,0
1579707602.246,-2.930,12.207,43.945,5.371,0
1579707602.250,-6.348,12.695,42.969,2.930,0
1579707602.254,-1.465,10.254,45.410,2.441,0
1579707602.258,6.348,9.277,42.480,5.371,0
1579707602.261,7.324,10.254,41.504,5.371,0
1579707602.265,6.348,10.742,50.781,0.977,0
1579707602.269,14.160,8.301,50.781,9.277,0
1579707602.273,10.254,9.277,49.805,10.254,0
1579707602.277,8.301,7.812,57.129,6.836,0
1579707602.279,6.348,8.789,57.617,10.254,0
1579707602.283,11.230,11.719,54.688,13.184,0
1579707602.287,23.926,4.883,50.293,14.160,0
1579707602.291,19.043,3.906,42.480,8.301,0
1579707602.295,7.812,10.254,42.969,7.812,0
1579707602.299,3.418,11.230,43.457,11.230,0
1579707602.303,8.301,10.254,39.062,13.672,0
1579707602.306,11.719,6.348,34.668,11.230,0
1579707602.310,10.254,4.395,41.504,10.254,0
1579707602.314,5.859,1.465,48.340,13.184,0
1579707602.318,8.789,3.906,49.316,9.766,0
1579707602.322,10.254,4.883,47.852,10.742,0
1579707602.339,2.441,7.324,46.875,3.418,0
1579707602.343,10.742,8.301,48.828,11.230,0
1579707602.347,18.066,7.324,47.363,13.672,0
1579707602.351,15.625,13.184,47.852,6.348,0
1579707602.355,13.184,14.648,48.340,5.859,0
1579707602.359,6.348,16.113,44.434,2.441,0
1579707602.363,13.184,20.996,42.480,5.371,0
1579707602.366,17.578,18.066,47.852,9.277,0
1579707602.370,24.414,23.438,55.664,13.672,0
1579707602.374,28.809,25.879,47.852,17.578,0
1579707602.378,14.160,14.648,41.016,14.160,0
1579707602.382,14.160,14.648,50.781,13.672,0
1579707602.384,12.207,16.113,48.340,8.301,0
1579707602.388,14.648,18.555,38.086,5.371,0
1579707602.392,19.531,17.578,41.504,6.348,0
1579707602.396,12.207,15.625,46.387,8.301,0
1579707602.400,10.254,15.137,45.410,13.184,0
1579707602.404,12.695,14.160,45.898,13.672,0
1579707602.408,12.207,11.719,43.945,14.648,0
1579707602.411,11.719,10.742,42.969,10.254,0
1579707602.415,12.695,15.625,38.086,5.859,0
1579707602.419,15.137,20.020,38.086,10.742,0
1579707602.423,21.973,18.555,41.016,12.207,0
1579707602.427,21.484,14.160,43.945,10.254,0
1579707602.429,14.648,11.719,47.852,9.766,0
1579707602.433,12.695,12.207,49.805,11.719,0
1579707602.437,15.137,19.043,52.246,9.766,0
1579707602.441,18.066,20.996,47.852,7.812,0
1579707602.445,18.555,17.090,43.945,8.301,0
1579707602.449,17.090,21.973,44.922,7.324,0
1579707602.453,11.719,20.020,45.410,4.395,0
1579707602.456,7.812,16.113,49.805,10.742,0
1579707602.460,14.160,20.996,55.176,20.996,0
1579707602.464,12.695,20.996,55.664,16.113,0
1579707602.468,6.836,14.160,51.270,6.836,0
1579707602.472,14.648,14.648,43.945,8.301,0
1579707602.474,17.578,11.230,36.133,15.137,0
1579707602.478,11.719,8.789,37.598,12.207,0
1579707602.482,9.277,3.906,39.551,1.465,0
1579707602.486,7.324,-3.906,40.039,-0.488,0
1579707602.490,19.531,11.719,42.480,10.254,0
1579707602.494,20.508,18.555,44.922,14.648,0
1579707602.498,9.766,12.695,41.504,16.602,0
1579707602.501,16.113,18.066,44.434,27.832,0
1579707602.505,18.555,19.531,46.875,27.344,0
1579707602.509,21.484,16.602,38.574,16.113,0
1579707602.513,21.973,18.066,36.621,11.230,0
1579707602.517,21.484,20.020,40.039,15.137,0
1579707602.519,27.832,20.508,41.992,14.160,0
1579707602.523,27.832,16.602,41.992,12.207,0
1579707602.527,26.855,17.090,42.480,10.742,0
1579707602.531,20.996,17.578,42.480,10.254,0
1579707602.535,24.414,17.578,37.109,12.207,0
1579707602.539,33.203,19.043,32.227,9.766,0
1579707602.543,24.414,15.137,36.133,7.324,0
1579707602.546,15.137,14.648,40.527,11.719,0
1579707602.550,19.043,15.137,36.621,13.672,0
1579707602.554,18.555,15.625,35.156,10.742,0
1579707602.558,14.648,23.438,36.621,17.090,0
1579707602.562,5.859,19.531,36.133,3.906,0
1579707602.564,-3.906,11.230,31.738,0.000,0
1579707602.568,0.000,11.719,37.109,4.883,0
1579707602.572,-2.441,13.184,37.598,3.418,0
1579707602.576,-5.859,13.184,32.715,-1.953,0
1579707602.580,-3.418,13.672,33.691,-6.836,0
1579707602.584,-3.418,11.719,35.645,-3.906,0
1579707602.588,-8.301,10.742,36.133,-1.953,0
1579707602.591,-7.812,11.719,32.227,-2.441,0
1579707602.595,-5.371,10.254,39.062,1.953,0
1579707602.599,3.906,13.184,48.828,9.277,0
1579707602.603,9.277,15.625,50.781,8.301,0
1579707602.607,3.418,17.578,39.551,4.883,0
1579707602.609,6.348,17.578,42.480,2.441,0
1579707602.613,10.254,16.113,52.246,5.371,0
1579707602.617,9.277,16.113,48.340,7.324,0
1579707602.621,9.277,9.277,47.363,-2.441,0
1579707602.625,11.230,4.883,47.363,-0.488,0
1579707602.629,7.812,9.766,44.434,4.883,0
1579707602.633,6.348,7.812,41.992,4.395,0
1579707602.636,9.277,1.953,34.668,4.883,0
1579707602.640,-0.488,-2.930,35.645,-0.488,0
1579707602.644,6.836,6.348,42.480,-4.395,0
1579707602.648,18.555,11.719,40.527,-6.348,0
1579707602.652,16.602,6.348,36.621,-3.418,0
1579707602.654,27.344,7.324,34.180,-4.395,0
1579707602.658,31.250,8.301,31.738,-6.348,0
1579707602.662,25.879,12.207,33.203,-4.883,0
1579707602.666,17.090,9.277,35.156,-4.883,0
1579707602.670,14.648,6.348,37.109,7.324,0
1579707602.674,7.812,8.301,31.738,10.742,0
1579707602.678,0.000,11.230,28.809,3.906,0
1579707602.681,8.301,14.160,32.227,5.371,0
1579707602.685,19.043,11.230,33.203,10.254,0
1579707602.689,22.461,13.184,35.645,13.672,0
1579707602.693,17.578,17.090,39.062,12.207,0
1579707602.697,14.160,17.578,43.457,7.324,0
1579707602.699,10.742,20.508,40.039,0.000,0
1579707602.703,9.766,18.066,34.668,3.418,0
1579707602.707,1.465,15.625,34.668,5.859,0
1579707602.711,-4.395,12.207,44.434,0.488,0
1579707602.715,0.977,9.277,41.992,0.488,0
1579707602.719,1.465,7.812,37.109,-1.953,0
1579707602.723,-4.395,3.418,43.945,-7.812,0
1579707602.726,-0.977,7.324,42.480,0.000,0
1579707602.730,8.789,9.766,43.457,7.324,0
1579707602.734,4.883,4.883,43.457,0.488,0
1579707602.738,5.859,8.789,45.410,3.906,0
1579707602.742,18.066,10.742,48.828,3.418,0
1579707602.759,12.207,10.254,41.992,-6.836,0
1579707602.763,-2.930,13.672,41.016,-1.953,0
1579707602.767,-3.906,10.742,45.410,7.324,0
1579707602.771,-1.953,6.836,47.363,4.395,0
1579707602.775,-9.277,5.859,46.875,7.812,0
1579707602.779,-11.719,11.230,45.898,8.789,0
1579707602.783,8.301,10.254,44.922,7.324,0
1579707602.786,21.484,6.836,44.922,13.672,0
1579707602.790,28.809,14.648,53.223,19.043,0
1579707602.794,25.391,17.578,52.734,14.648,0
1579707602.798,14.648,12.695,47.363,6.348,0
1579707602.802,9.277,12.207,42.969,1.465,0
1579707602.804,-1.953,12.207,38.086,-0.488,0
1579707602.808,3.906,11.230,46.387,9.277,0
1579707602.812,10.742,9.277,44.434,14.648,0
1579707602.816,4.883,9.766,34.180,2.930,0
1579707602.820,2.441,14.648,32.715,-5.859,0
1579707602.824,16.113,13.672,35.156,5.859,0
1579707602.828,18.066,8.789,35.156,-0.488,0
1579707602.831,3.906,11.719,37.598,-2.441,0
1579707602.835,0.488,14.160,42.969,1.953,0
1579707602.839,2.441,12.695,44.434,-5.371,0
1579707602.843,8.301,17.090,47.363,-4.395,0
1579707602.847,14.648,18.066,45.898,-6.348,0
1579707602.849,6.348,10.254,41.992,-10.742,0
1579707602.853,4.883,15.137,46.875,-7.812,0
1579707602.857,9.766,17.090,46.387,-7.812,0
1579707602.861,0.000,6.836,36.133,-15.625,0
1579707602.865,6.836,8.301,37.598,-8.789,0
1579707602.869,7.812,11.230,39.062,-4.395,0
1579707602.873,15.137,11.230,37.109,9.766,0
1579707602.876,12.207,8.789,41.016,12.695,0
1579707602.880,4.883,9.766,38.086,-2.930,0
1579707602.884,12.695,13.184,35.156,0.488,0
1579707602.888,10.742,15.137,37.598,-0.488,0
1579707602.892,0.488,11.719,36.133,0.000,0
1579707602.894,0.000,10.742,35.645,-6.348,0
1579707602.898,3.418,15.625,36.621,-10.742,0
1579707602.902,2.441,15.625,41.504,-8.789,0
1579707602.906,4.883,12.695,42.480,-10.254,0
1579707602.910,4.883,13.184,39.551,-7.812,0
1579707602.914,3.906,11.719,39.551,1.465,0
1579707602.918,0.977,12.695,40.039,3.418,0
1579707602.921,-2.441,14.160,39.062,0.488,0
1579707602.925,-3.906,11.230,39.551,-1.465,0
1579707602.929,-8.789,11.230,42.969,-2.930,0
1579707602.933,-9.277,8.789,45.410,1.953,0
1579707602.937,-5.371,12.207,40.527,-4.395,0
1579707602.939,-9.766,10.742,37.598,-9.766,0
1579707602.943,-5.859,9.277,41.992,0.488,0
1579707602.947,8.789,12.695,45.410,13.672,0
1579707602.951,5.859,12.207,42.480,5.859,0
1579707602.955,6.348,12.695,44.922,-0.488,0
1579707602.959,4.883,12.695,52.246,4.395,0
1579707602.963,-1.465,12.695,46.875,8.789,0
1579707602.966,-0.488,13.184,41.504,15.625,0
1579707602.970,5.859,12.207,50.293,9.766,0
1579707602.974,6.348,9.766,53.711,2.441,0
1579707602.978,0.488,10.254,50.781,0.488,0
1579707602.982,-1.953,16.113,51.758,-3.906,0
1579707602.984,14.648,15.625,52.246,0.488,0
1579707602.988,17.090,9.277,54.199,2.930,0
1579707602.992,6.348,13.184,53.711,0.488,0
1579707602.996,8.301,12.207,48.340,8.301,0
1579707603.000,2.441,7.812,50.781,-0.488,0
1579707603.004,1.953,12.207,46.875,-8.789,0
1579707603.008,0.488,14.648,37.598,-10.742,0
1579707603.011,-5.371,15.137,42.480,-12.207,0
1579707603.015,0.000,14.648,51.758,-6.348,0
1579707603.019,7.812,11.230,56.641,-3.418,0
1579707603.023,-8.789,14.160,51.758,-3.906,0
1579707603.027,-16.113,11.230,49.805,-0.977,0
1579707603.029,-1.465,7.324,52.246,-2.930,0
1579707603.033,4.883,13.184,49.805,1.953,0
1579707603.037,-4.883,14.160,42.969,0.488,0
1579707603.041,-5.859,14.648,46.387,0.000,0
1579707603.045,4.395,18.066,45.410,8.789,0
1579707603.049,11.719,18.066,38.574,8.789,0
1579707603.053,18.066,15.625,47.852,7.812,0
1579707603.056,17.090,15.137,49.805,4.883,0
1579707603.060,12.695,17.578,48.340,5.371,0
1579707603.064,7.324,14.160,50.781,4.883,0
1579707603.068,1.465,7.812,49.316,-2.930,0
1579707603.072,-2.441,5.859,47.852,3.418,0
1579707603.073,-2.441,6.836,44.434,-0.488,0
1579707603.077,-6.836,8.789,43.457,-10.742,0
1579707603.081,-7.812,9.277,46.387,-3.906,0
1579707603.085,-0.488,5.859,46.875,1.953,0
1579707603.089,-8.789,4.883,45.410,-1.953,0
1579707603.093,-7.324,5.371,43.945,2.930,0
1579707603.097,7.324,6.836,47.363,5.371,0
1579707603.100,6.348,14.160,51.270,1.465,0
1579707603.104,3.906,18.066,52.734,1.465,0
1579707603.108,5.859,10.742,52.734,5.371,0
1579707603.112,8.301,13.184,50.781,13.184,0
1579707603.116,16.113,15.625,54.688,21.973,0
1579707603.134,15.625,3.906,58.105,19.531,0
1579707603.138,7.812,3.418,59.082,17.090,0
1579707603.142,18.066,16.113,61.523,16.602,0
1579707603.146,14.160,12.207,50.781,-0.977,0
1579707603.150,0.488,7.812,44.434,-7.812,0
1579707603.154,3.906,8.789,44.922,-2.930,0
1579707603.158,5.371,9.277,41.504,-0.488,0
1579707603.161,-0.488,11.230,43.457,-2.930,0
1579707603.165,-4.395,11.230,46.387,1.465,0
1579707603.169,-7.812,13.672,40.527,5.859,17705
1579707603.173,-6.348,13.672,36.133,-0.977,0
1579707603.177,1.953,11.719,41.504,-2.441,0
1579707603.179,-5.859,10.742,40.527,2.441,0
1579707603.183,-17.090,6.836,39.062,1.465,0
1579707603.187,-17.090,9.277,41.992,-1.953,0
1579707603.191,-4.395,12.695,43.457,-0.977,0
1579707603.195,0.488,11.230,41.992,4.395,0
1579707603.199,1.953,12.207,39.551,0.000,0
1579707603.203,-0.488,14.648,28.320,-6.836,0
1579707603.206,-1.953,12.695,28.809,-2.441,0
1579707603.210,1.953,8.301,39.062,2.930,0
1579707603.214,1.465,8.301,39.551,3.418,0
1579707603.218,-2.441,7.324,44.434,3.418,0
1579707603.222,-5.371,3.906,44.434,1.465,0
1579707603.224,9.277,5.371,40.039,10.742,0
1579707603.228,23.926,10.742,39.551,15.625,0
1579707603.232,29.297,12.207,44.434,13.672,0
1579707603.236,22.461,8.789,41.504,11.719,0
1579707603.240,15.625,8.301,38.574,8.301,0
1579707603.244,12.695,12.207,40.039,5.859,0
1579707603.248,18.555,10.742,43.457,9.277,0
1579707603.251,5.859,6.836,44.922,11.230,0
1579707603.255,4.395,9.766,42.969,12.207,0
1579707603.259,16.602,14.648,46.387,18.066,0
1579707603.263,9.766,16.113,50.781,17.578,0
1579707603.267,16.602,12.695,44.434,12.207,0
1579707603.268,13.184,13.184,41.992,8.789,0
1579707603.272,10.254,14.160,46.875,13.184,0
1579707603.276,18.555,15.137,45.898,11.719,0
1579707603.280,8.301,15.137,41.016,4.395,0
1579707603.284,4.395,8.789,40.527,0.488,0
1579707603.288,6.836,12.695,41.992,9.766,0
1579707603.292,6.348,16.113,39.062,7.812,0
1579707603.295,7.812,11.230,32.715,-6.348,0
1579707603.299,1.953,8.301,32.715,-5.371,0
1579707603.303,0.488,5.859,35.156,-6.348,0
1579707603.307,2.930,10.254,29.297,-7.324,0
1579707603.311,13.184,11.230,27.832,0.977,0
1579707603.314,13.672,5.371,34.180,3.418,0
1579707603.318,12.695,4.395,35.156,3.418,0
1579707603.322,10.254,7.812,27.832,3.418,0
1579707603.326,14.160,9.277,21.973,11.230,0
1579707603.330,9.766,11.230,21.484,12.695,0
1579707603.334,6.836,12.207,19.043,10.742,0
1579707603.338,11.230,9.277,21.484,6.836,0
1579707603.341,2.441,8.301,22.949,10.254,0
1579707603.345,6.348,9.766,27.344,12.207,0
1579707603.349,0.977,10.742,34.668,9.766,0
1579707603.353,-12.207,9.277,32.227,7.812,0
1579707603.357,-4.395,11.230,31.738,2.930,0
1579707603.358,-1.465,10.254,33.691,3.906,0
1579707603.362,-4.395,8.789,34.668,-0.488,0
1579707603.366,5.859,12.207,32.227,0.000,0
1579707603.370,6.836,13.184,30.273,0.000,0
1579707603.374,6.348,12.695,31.250,4.395,0
1579707603.378,20.996,13.672,29.297,3.906,0
1579707603.382,33.203,13.672,27.344,7.324,0
1579707603.385,43.945,12.695,28.320,7.324,0
1579707603.389,48.340,16.113,31.738,0.000,0
1579707603.393,35.156,15.625,35.156,4.883,0
1579707603.397,23.926,14.648,34.180,7.812,0
1579707603.401,10.254,17.578,30.762,15.625,0
1579707603.404,-9.277,18.555,32.715,17.090,0
1579707603.408,-6.348,13.672,38.086,15.625,0
1579707603.412,5.371,13.184,37.598,19.531,0
1579707603.416,10.742,15.625,35.156,13.672,0
1579707603.420,12.207,13.184,38.574,6.348,0
1579707603.424,6.348,12.207,34.668,9.766,0
1579707603.428,-5.859,13.184,27.344,9.766,0
1579707603.431,-12.207,17.090,27.344,2.441,0
1579707603.435,1.953,16.602,29.297,3.906,0
1579707603.439,9.766,14.648,25.879,5.371,0
1579707603.443,12.695,15.137,24.414,0.000,0
1579707603.447,1.953,17.090,29.785,6.348,0
1579707603.449,-0.488,17.090,30.762,18.066,0
1579707603.453,12.695,13.672,24.902,24.414,0
1579707603.457,11.719,12.695,22.461,15.137,0
1579707603.461,15.625,16.113,20.996,8.789,0
1579707603.465,11.230,15.137,20.508,5.371,0
1579707603.469,6.836,13.184,20.020,5.859,0
1579707603.473,12.207,15.137,15.625,8.789,0
1579707603.476,13.672,13.184,22.949,10.742,0
1579707603.480,19.043,11.719,23.438,17.090,0
1579707603.484,15.625,12.695,16.113,12.207,0
1579707603.488,12.695,12.695,21.484,7.812,0
1579707603.492,21.973,13.184,26.367,12.207,0
1579707603.509,24.902,14.160,23.926,14.648,0
1579707603.513,26.855,15.137,23.926,7.324,0
1579707603.517,22.949,15.625,24.414,0.488,0
1579707603.521,28.809,17.578,25.391,10.254,0
1579707603.525,20.508,15.625,25.879,8.301,0
1579707603.529,6.836,13.672,20.996,-0.977,0
1579707603.533,5.859,14.648,20.996,0.977,0
1579707603.536,4.395,13.184,28.320,3.418,0
1579707603.540,5.859,8.789,33.203,-2.441,0
1579707603.544,15.625,14.648,25.879,0.000,0
1579707603.548,20.020,16.602,25.879,12.207,0
1579707603.552,14.160,11.719,30.762,14.648,0
1579707603.554,14.648,11.230,29.297,12.695,0
1579707603.558,12.207,14.160,27.832,12.207,0
1579707603.562,11.719,20.020,26.367,14.648,0
1579707603.566,15.625,21.973,26.855,15.137,0
1579707603.570,23.438,19.043,28.320,12.207,0
1579707603.574,27.832,18.555,29.297,14.648,0
1579707603.578,23.438,18.066,31.250,11.230,0
1579707603.581,20.020,18.066,33.203,9.766,0
1579707603.585,23.926,18.066,33.691,16.602,0
1579707603.589,24.414,15.625,31.250,8.301,0
1579707603.593,17.090,17.578,28.320,10.742,0
1579707603.597,24.902,20.020,27.832,10.742,0
1579707603.599,23.438,16.602,27.832,7.812,0
1579707603.603,23.438,20.508,26.855,9.766,0
1579707603.607,18.555,22.949,24.414,5.371,0
1579707603.611,9.277,21.484,27.832,-0.977,0
1579707603.615,10.742,18.555,29.297,-3.906,0
1579707603.619,8.301,17.090,26.367,-2.441,0
1579707603.623,24.414,18.555,24.902,-0.488,0
1579707603.626,17.090,18.066,29.297,-2.441,0
1579707603.630,-0.977,16.602,25.879,0.488,0
1579707603.634,8.789,15.625,24.414,14.648,0
1579707603.638,10.742,18.555,33.691,19.043,0
1579707603.642,6.348,18.555,33.203,13.184,0
1579707603.644,4.883,17.578,31.250,16.602,0
1579707603.648,1.953,16.602,37.598,15.625,0
1579707603.652,2.930,17.090,36.133,8.301,0
1579707603.656,17.090,16.113,32.227,12.695,0
1579707603.660,8.789,15.625,36.621,12.695,0
1579707603.664,0.000,22.949,33.203,7.812,0
1579707603.668,9.766,24.902,28.809,4.395,0
1579707603.671,5.859,20.996,28.809,8.301,0
1579707603.675,3.418,18.555,28.320,-0.488,0
1579707603.679,8.789,21.973,32.715,0.000,0
1579707603.683,14.648,26.855,33.691,9.766,0
1579707603.687,11.230,25.391,28.809,0.488,0
1579707603.689,-1.465,24.414,31.250,-2.930,0
1579707603.693,-4.395,22.949,32.715,-2.930,0
1579707603.697,-0.488,23.926,30.762,0.488,0
1579707603.701,4.395,22.461,28.320,4.883,0
1579707603.705,4.395,20.508,24.902,0.000,0
1579707603.709,-11.230,14.648,27.344,-0.488,0
1579707603.713,-11.230,15.137,25.391,2.930,0
1579707603.716,-8.789,22.461,22.949,-2.441,0
1579707603.720,-4.395,15.625,23.926,-10.254,0
1579707603.724,4.883,15.625,27.344,3.906,0
1579707603.728,-1.465,16.113,34.180,9.277,0
1579707603.732,-1.465,13.672,32.227,6.836,0
1579707603.734,0.977,13.184,26.367,4.395,0
1579707603.738,-6.348,15.625,25.879,-0.488,0
1579707603.742,2.930,19.531,22.949,1.953,0
1579707603.746,9.277,20.508,24.902,-0.488,0
1579707603.750,5.371,17.090,26.367,-0.488,0
1579707603.754,18.066,18.555,25.391,5.371,0
1579707603.758,14.648,20.508,22.949,3.906,0
1579707603.761,-6.348,18.066,20.020,-4.395,0
1579707603.765,-0.977,15.625,23.926,-3.418,0
1579707603.769,5.859,10.254,28.809,0.000,0
1579707603.773,-0.977,9.766,29.785,0.000,0
1579707603.777,-9.277,9.277,30.273,-5.371,0
1579707603.779,-6.836,8.301,30.762,-6.348,0
1579707603.783,0.000,10.254,33.691,-1.465,0
1579707603.787,10.254,12.207,38.574,0.977,0
1579707603.791,10.254,12.695,39.062,-0.977,0
1579707603.795,5.371,14.160,39.551,2.441,0
1579707603.799,4.883,11.719,39.551,3.906,0
1579707603.803,2.441,16.602,35.156,3.906,0
1579707603.806,2.930,17.578,35.156,8.789,0
1579707603.810,3.418,10.742,39.551,11.719,0
1579707603.814,4.883,12.695,37.109,5.859,0
1579707603.818,1.465,14.160,34.180,4.883,0
1579707603.822,5.859,12.695,33.203,1.465,0
1579707603.824,0.977,11.230,32.227,-0.977,0
1579707603.828,-9.766,16.602,31.738,-8.789,0
1579707603.832,-5.371,16.602,33.203,-7.812,0
1579707603.836,8.789,8.301,37.109,3.906,0
1579707603.840,12.207,13.672,36.133,0.977,0
1579707603.844,10.254,15.137,33.203,7.324,0
1579707603.848,6.836,9.766,33.203,8.301,0
1579707603.851,-0.977,14.160,37.598,4.395,0
1579707603.855,-0.488,18.555,35.645,0.000,0
1579707603.859,0.977,16.602,32.227,-3.418,0
1579707603.863,2.441,18.555,33.691,-4.395,0
1579707603.867,5.371,19.043,33.691,0.000,0
1579707603.883,3.418,15.625,33.691,0.977,0
1579707603.887,6.348,14.648,33.203,1.953,0
1579707603.891,6.348,15.137,35.645,6.836,0
1579707603.895,5.371,14.160,34.668,5.371,0
1579707603.899,11.719,11.719,34.668,4.395,0
1579707603.903,8.301,9.277,36.133,5.859,0
1579707603.907,1.465,11.230,31.250,8.301,0
1579707603.910,9.277,18.066,27.832,6.836,0
1579707603.914,20.020,20.020,31.738,8.301,0
1579707603.918,15.625,18.066,35.645,5.371,0
1579707603.922,5.371,13.672,38.574,8.301,0
1579707603.926,10.742,13.672,36.621,4.883,0
1579707603.929,16.602,18.066,33.691,-3.418,0
1579707603.933,8.301,19.043,33.691,-3.906,0
1579707603.937,6.836,20.508,34.668,4.395,0
1579707603.941,14.160,15.625,38.086,12.695,0
1579707603.945,22.949,16.113,37.598,8.301,0
1579707603.949,19.531,18.555,31.738,3.906,0
1579707603.953,15.625,15.137,31.250,7.812,0
1579707603.956,6.836,14.160,31.738,13.672,0
1579707603.960,3.906,16.113,24.902,1.953,0
1579707603.964,4.883,15.137,21.973,-2.441,0
1579707603.968,-5.859,12.695,29.297,-3.906,0
1579707603.972,-10.742,13.184,28.809,-12.695,0
1579707603.974,-6.348,12.207,24.902,-8.789,0
1579707603.978,-1.953,8.789,31.250,-8.301,0
1579707603.982,-4.883,8.301,35.156,-1.465,0
1579707603.986,-5.859,9.277,33.691,3.906,0
1579707603.990,1.465,10.254,31.250,-2.930,0
1579707603.994,6.348,11.719,28.320,-7.812,0
1579707603.998,6.348,12.695,24.902,-0.977,0
1579707604.001,3.906,12.695,25.391,0.000,0
1579707604.005,7.324,8.789,26.367,-4.883,0
1579707604.009,12.695,7.324,25.391,-4.395,0
1579707604.013,9.277,10.742,23.926,-6.348,0
1579707604.017,5.371,9.277,26.367,0.488,0
1579707604.018,8.301,8.301,29.297,10.742,0
1579707604.022,4.883,11.230,27.344,1.465,0
1579707604.026,9.766,11.719,24.414,-6.348,0
1579707604.030,16.602,11.230,22.461,0.488,0
1579707604.034,21.973,17.090,16.602,9.766,0
1579707604.038,22.949,17.578,20.508,12.695,0
1579707604.042,14.160,14.648,29.297,13.184,0
1579707604.045,8.301,11.230,27.832,15.625,0
1579707604.049,21.484,13.184,30.762,18.066,0
1579707604.053,18.066,15.137,37.598,13.672,0
1579707604.057,17.578,15.137,45.898,17.578,0
1579707604.061,18.066,16.602,39.551,14.648,0
1579707604.064,7.324,15.137,27.832,2.930,0
1579707604.068,1.953,16.602,29.297,-0.977,0
1579707604.072,-9.766,12.695,31.738,0.000,0
1579707604.076,0.488,11.230,30.762,-2.930,0
1579707604.080,11.230,11.719,28.320,0.977,0
1579707604.084,6.348,11.230,34.668,7.324,0
1579707604.088,2.930,13.672,41.504,5.371,0
1579707604.091,0.977,16.602,34.180,4.883,0
1579707604.095,0.977,16.602,33.691,7.324,0
1579707604.099,10.742,16.602,40.527,9.277,0
1579707604.103,12.207,17.578,41.016,11.230,0
1579707604.107,-0.488,15.137,40.527,12.207,0
1579707604.109,-6.836,8.789,36.621,5.371,0
1579707604.113,-1.465,9.766,38.086,-4.395,0
1579707604.117,6.348,14.648,37.598,-1.465,0
1579707604.121,22.949,17.578,30.762,-6.348,0
1579707604.125,30.762,20.508,29.297,-9.277,0
1579707604.129,30.273,22.949,32.227,-1.465,0
1579707604.133,30.273,21.973,37.598,4.395,0
1579707604.136,25.391,18.066,39.062,-1.465,0
1579707604.140,23.926,19.043,37.109,4.883,0
1579707604.144,19.043,19.043,35.156,15.137,0
1579707604.148,13.184,13.672,36.621,18.555,0
1579707604.152,9.277,12.695,37.109,17.578,0
1579707604.154,-5.859,10.742,38.086,11.230,0
1579707604.158,-1.953,10.254,33.203,8.789,0
1579707604.162,9.277,11.719,28.809,8.789,0
1579707604.166,1.953,11.719,31.738,8.301,0
1579707604.170,0.977,16.113,39.062,6.836,0
1579707604.174,-3.418,14.160,38.574,1.953,0
1579707604.178,-10.742,6.836,28.320,-1.953,0
1579707604.181,-1.953,6.836,33.203,1.465,0
1579707604.185,3.906,7.812,40.039,5.859,0
1579707604.189,3.906,7.324,35.156,5.859,0
1579707604.193,2.441,8.789,35.156,9.277,0
1579707604.197,10.254,11.719,37.109,11.230,0
1579707604.199,7.324,9.766,38.086,13.184,0
1579707604.203,-5.371,6.348,37.598,14.648,0
1579707604.207,3.906,8.789,35.156,10.254,0
1579707604.211,13.672,9.277,37.598,15.625,0
1579707604.215,13.184,11.230,33.691,12.695,0
1579707604.219,10.254,14.648,28.809,10.742,0
1579707604.223,9.766,14.160,31.738,16.602,0
1579707604.226,5.371,15.137,34.180,5.859,0
1579707604.230,8.789,13.184,38.086,1.953,0
1579707604.234,6.348,9.277,43.945,2.930,0
1579707604.238,-0.977,14.160,44.434,-1.465,0
1579707604.242,1.953,15.137,46.387,3.418,0
1579707604.259,14.648,11.719,43.457,7.812,17705
1579707604.263,17.090,13.672,37.598,10.254,0
1579707604.267,10.254,16.113,41.016,13.184,0
1579707604.271,13.672,12.207,47.852,13.672,0
1579707604.275,9.766,12.207,50.293,16.602,0
1579707604.279,0.977,15.137,49.316,6.836,0
1579707604.283,-1.953,11.230,44.922,0.000,0
1579707604.286,6.836,18.555,50.293,10.742,0
1579707604.290,20.996,23.438,53.223,15.137,0
1579707604.294,20.020,18.066,42.969,2.441,0
1579707604.298,18.555,14.160,38.574,0.977,0
1579707604.302,12.207,9.277,35.156,8.789,0
1579707604.303,-3.418,10.742,41.016,8.301,0
1579707604.307,1.953,12.207,42.969,6.836,0
1579707604.311,17.578,12.207,38.086,7.812,0
1579707604.315,17.578,12.207,38.574,14.160,0
1579707604.319,13.672,11.230,37.598,13.672,0
1579707604.323,17.090,12.207,29.785,8.301,0
1579707604.327,20.996,17.090,28.809,9.766,0
1579707604.330,18.066,19.531,35.645,5.371,0
1579707604.334,27.832,16.602,36.133,5.859,0
1579707604.338,27.344,12.695,37.109,8.789,0
1579707604.342,22.949,12.207,41.504,13.672,0
1579707604.346,29.785,10.742,43.457,14.648,0
1579707604.349,18.555,9.277,38.574,5.859,0
1579707604.353,12.207,10.742,36.621,10.254,0
1579707604.357,12.695,13.184,36.621,6.836,0
1579707604.361,3.906,16.602,36.133,-5.371,0
1579707604.365,0.000,19.531,36.133,-4.395,0
1579707604.369,-1.953,13.672,33.691,-7.324,0
1579707604.373,0.000,10.254,30.273,-18.555,0
1579707604.376,8.301,14.648,35.156,-11.230,0
1579707604.380,14.648,14.160,34.180,0.000,0
1579707604.384,12.207,9.766,31.738,1.953,0
1579707604.388,-0.977,7.324,36.621,4.883,0
1579707604.392,0.000,7.812,34.668,4.883,0
1579707604.394,11.230,9.277,34.668,6.348,0
1579707604.398,14.648,10.742,33.203,12.695,0
1579707604.402,10.742,10.254,25.391,9.277,0
1579707604.406,10.742,10.742,27.832,8.789,0
1579707604.410,3.906,7.324,33.691,8.301,0
1579707604.414,-6.348,6.836,32.715,4.395,0
1579707604.418,0.977,9.277,29.297,11.230,0
1579707604.421,9.277,10.742,31.250,20.020,0
1579707604.425,8.789,11.230,34.668,27.344,0
1579707604.429,6.348,11.230,37.598,24.902,0
1579707604.433,4.395,16.602,36.133,17.578,0
1579707604.437,7.812,14.160,33.203,10.254,0
1579707604.439,9.277,12.695,32.715,2.441,0
1579707604.443,1.953,13.184,32.227,-1.953,0
1579707604.447,8.789,10.254,31.250,-1.465,0
1579707604.451,18.555,14.648,29.297,7.324,0
1579707604.455,17.578,20.020,28.809,11.719,0
1579707604.459,8.789,19.043,30.273,14.160,0
1579707604.463,3.418,14.648,33.691,11.719,0
1579707604.466,6.836,12.695,32.715,18.066,0
1579707604.470,5.859,13.184,32.227,17.578,0
1579707604.474,4.883,16.602,32.715,10.742,0
1579707604.478,8.789,15.137,30.273,6.836,0
1579707604.482,3.906,10.742,28.809,-1.953,0
1579707604.484,4.883,11.719,31.250,3.906,0
1579707604.488,12.207,14.160,35.645,9.766,0
1579707604.492,8.301,10.742,29.785,6.836,0
1579707604.496,8.301,9.277,26.855,0.488,0
1579707604.500,31.250,13.672,31.250,4.395,0
1579707604.504,31.250,13.672,26.855,4.395,0
1579707604.508,7.324,10.254,30.762,2.930,0
1579707604.511,0.977,10.254,38.086,12.207,0
1579707604.515,5.371,12.207,38.086,16.602,0
1579707604.519,7.812,12.207,35.645,15.625,0
1579707604.523,9.277,15.137,37.598,15.137,0
1579707604.527,10.742,14.648,35.645,10.254,0
1579707604.529,12.207,9.277,31.250,10.254,0
1579707604.533,14.648,8.789,32.227,13.184,0
1579707604.537,16.602,14.648,32.715,9.277,0
1579707604.541,18.066,16.113,27.832,11.719,0
1579707604.545,19.043,14.648,24.902,15.625,0
1579707604.549,22.949,13.672,28.320,14.648,0
1579707604.553,19.043,14.160,26.855,9.277,0
1579707604.556,16.602,11.719,24.902,11.230,0
1579707604.560,9.766,10.254,31.738,10.254,0
1579707604.564,8.301,13.672,38.086,15.625,0
1579707604.568,12.695,15.137,36.621,19.043,0
1579707604.572,11.719,14.160,33.691,2.441,0
1579707604.589,10.742,13.672,31.738,-0.488,0
1579707604.593,12.207,16.602,31.738,7.324,0
1579707604.597,15.137,19.043,35.645,3.906,0
1579707604.601,14.648,19.531,33.691,0.000,0
1579707604.605,11.719,15.625,29.785,-1.953,0
1579707604.609,6.836,9.766,27.832,0.488,0
1579707604.613,13.184,14.648,30.273,6.836,0
1579707604.616,17.578,19.043,32.715,3.906,0
1579707604.620,6.836,19.531,34.180,9.277,0
1579707604.624,6.836,18.066,38.086,15.137,0
1579707604.628,13.184,19.043,39.062,5.371,0
1579707604.632,8.789,22.949,43.457,6.836,0
1579707604.634,9.277,20.020,38.086,16.113,0
1579707604.638,4.883,14.160,30.762,13.184,0
1579707604.642,13.184,16.113,37.598,12.207,0
1579707604.646,8.789,18.555,37.598,10.742,0
1579707604.650,-6.348,18.555,31.738,2.441,0
1579707604.654,4.395,18.066,34.668,5.859,0
1579707604.658,15.137,20.020,31.738,12.695,0
1579707604.661,12.207,18.066,24.414,7.324,0
1579707604.665,7.324,14.160,27.832,11.719,0
1579707604.669,8.789,12.695,26.855,7.812,0
1579707604.673,12.695,11.719,24.902,0.977,0
1579707604.677,10.254,10.742,29.785,9.277,0
1579707604.679,9.766,9.277,31.250,9.277,0
1579707604.683,14.648,11.719,33.203,13.184,0
1579707604.687,3.906,13.672,26.855,6.836,0
1579707604.691,4.395,10.742,22.949,2.930,0
1579707604.695,8.789,8.789,25.879,2.930,0
1579707604.699,13.184,10.254,28.809,1.465,0
1579707604.703,23.438,14.160,29.297,7.812,0
1579707604.706,20.996,15.137,29.297,7.324,0
1579707604.710,18.555,13.672,36.133,7.324,0
1579707604.714,15.625,14.160,33.691,4.395,0
1579707604.718,11.719,14.648,27.832,3.418,0
1579707604.722,10.254,17.578,28.809,3.906,0
1579707604.723,4.395,14.648,29.785,-1.953,0
1579707604.727,11.230,11.719,27.344,-3.906,0
1579707604.731,11.719,20.020,30.762,-5.859,0
1579707604.735,1.465,20.020,32.715,0.488,0
1579707604.739,3.418,8.789,27.832,-2.930,0
1579707604.743,-0.977,4.883,20.996,-11.719,0
1579707604.747,3.906,16.113,27.344,-3.906,0
1579707604.750,8.301,17.090,30.762,-0.488,0
1579707604.754,1.953,12.207,21.973,-11.719,0
1579707604.758,1.465,12.207,26.855,-12.207,0
1579707604.762,-4.883,9.766,29.297,-6.836,0
1579707604.766,-6.836,9.766,29.297,-1.465,0
1579707604.769,-1.465,10.742,31.250,0.488,0
1579707604.773,13.184,14.160,37.109,4.883,0
1579707604.777,18.555,15.625,39.551,9.277,0
1579707604.781,7.324,13.672,37.598,11.719,0
1579707604.785,4.883,13.672,35.156,8.789,0
1579707604.789,10.742,10.254,31.250,4.395,0
1579707604.793,9.277,9.277,28.809,2.441,0
1579707604.796,6.836,11.719,27.344,-3.418,0
1579707604.800,9.766,9.277,26.367,-5.371,0
1579707604.804,5.859,10.254,26.367,-3.418,0
1579707604.808,-4.395,10.742,26.367,-3.906,0
1579707604.812,0.977,14.160,24.414,-3.418,0
1579707604.813,-3.418,18.066,26.367,-3.906,0
1579707604.817,-6.836,16.602,34.180,2.441,0
1579707604.821,-3.418,15.625,41.016,7.812,0
1579707604.825,-10.254,12.207,31.250,-4.883,0
1579707604.829,-9.766,14.648,25.879,-13.672,0
1579707604.833,0.000,20.508,26.855,-13.184,0
1579707604.837,11.719,20.508,30.273,-2.441,0
1579707604.840,7.324,13.184,34.668,7.324,0
1579707604.844,-3.906,12.695,38.086,14.160,0
1579707604.848,3.418,12.695,41.016,20.508,0
1579707604.852,8.789,14.648,37.109,15.625,0
1579707604.856,6.836,16.602,36.133,2.930,0
1579707604.859,14.648,16.113,41.016,3.418,0
1579707604.863,16.113,18.066,44.922,14.648,0
1579707604.867,18.066,20.020,47.363,18.555,0
1579707604.871,18.066,18.555,38.574,11.719,0
1579707604.875,20.020,16.602,31.250,2.930,0
1579707604.879,35.645,19.043,38.086,2.930,0
1579707604.883,43.457,19.043,35.645,4.395,0
1579707604.886,54.199,24.414,40.039,14.648,0
1579707604.890,58.105,24.902,44.922,20.020,0
1579707604.894,23.438,12.695,36.621,6.348,0
1579707604.898,4.395,8.301,37.598,17.090,0
1579707604.902,8.301,8.789,35.645,26.367,0
1579707604.904,5.859,14.648,38.086,9.766,0
1579707604.908,-1.953,20.020,40.039,5.859,0
1579707604.912,-2.930,17.578,35.645,4.883,0
1579707604.916,4.883,12.695,36.621,1.953,0
1579707604.920,-2.930,12.695,40.527,0.488,0
1579707604.924,-1.465,14.648,39.551,-0.977,0
1579707604.928,7.324,13.672,32.227,-6.836,0
1579707604.931,6.348,9.766,31.250,-3.906,0
1579707604.935,10.254,12.695,36.133,1.465,0
1579707604.939,8.789,15.137,38.086,3.418,0
1579707604.943,8.789,11.230,35.645,8.789,0
1579707604.947,4.395,9.277,35.156,9.277,0
1579707604.949,0.488,8.301,41.016,13.184,0
1579707604.953,2.930,8.789,41.016,14.160,0
1579707604.957,-8.301,11.230,36.621,10.254,0
1579707604.961,-6.348,13.672,35.156,4.395,0
1579707604.965,9.277,19.043,36.621,1.465,0
1579707604.969,0.488,19.043,36.621,8.789,0
1579707604.973,-2.930,10.742,35.156,13.672,0
1579707604.976,9.277,11.719,36.133,18.066,0
1579707604.980,17.578,19.043,34.180,20.020,0
1579707604.984,11.230,11.230,29.785,17.578,0
1579707604.988,3.906,8.789,28.809,12.695,0
1579707604.992,2.441,12.207,33.691,16.113,0
1579707605.009,5.371,17.090,32.227,14.160,0
1579707605.013,10.742,20.020,26.367,5.859,0
1579707605.017,10.742,17.578,34.180,9.277,0
1579707605.021,3.418,15.137,38.086,10.742,0
1579707605.025,4.883,13.184,31.738,15.625,0
1579707605.029,10.742,14.160,24.414,18.066,0
1579707605.033,10.742,17.090,24.902,11.719,0
1579707605.036,12.695,18.555,28.320,10.742,0
1579707605.040,12.695,16.602,30.762,17.578,0
1579707605.044,10.254,13.672,29.785,19.043,0
1579707605.048,10.254,14.160,31.250,19.531,0
1579707605.052,13.184,15.137,33.691,19.531,0
1579707605.054,10.254,15.625,33.691,17.090,0
1579707605.058,17.578,17.090,34.180,21.484,0
1579707605.062,33.691,22.949,26.367,21.484,0
1579707605.066,14.648,24.902,20.508,12.207,0
1579707605.070,-0.977,15.625,22.949,13.184,0
1579707605.074,8.301,12.695,23.438,15.625,0
1579707605.078,5.859,15.625,23.926,7.812,0
1579707605.081,5.859,14.160,32.715,8.789,0
1579707605.085,0.000,13.184,28.320,9.277,0
1579707605.089,1.953,14.648,15.137,1.953,0
1579707605.093,10.742,17.090,21.484,4.395,0
1579707605.097,7.324,15.625,29.785,0.000,0
1579707605.099,7.324,13.184,28.809,2.441,0
1579707605.103,8.789,11.230,26.367,7.812,0
1579707605.107,12.695,7.812,26.367,4.395,0
1579707605.111,16.602,11.719,23.438,10.254,0
1579707605.115,9.766,15.625,15.625,3.906,0
1579707605.119,1.465,12.207,20.996,3.906,0
1579707605.123,0.977,9.766,27.832,13.184,0
1579707605.126,-1.953,12.207,28.809,15.625,0
1579707605.130,1.953,12.695,26.855,11.230,0
1579707605.134,10.742,18.066,26.367,8.789,0
1579707605.138,13.672,18.066,32.227,12.695,0
1579707605.142,9.766,20.020,32.715,15.625,0
1579707605.144,1.465,20.508,29.297,13.672,0
1579707605.148,3.418,14.648,27.344,2.441,0
1579707605.152,10.742,14.648,27.344,2.441,0
1579707605.156,1.953,12.695,26.855,0.488,0
1579707605.160,-7.324,8.301,28.809,-0.977,0
1579707605.164,1.465,10.254,32.227,1.465,0
1579707605.168,6.836,13.184,30.273,2.441,0
1579707605.171,7.812,11.719,26.855,4.395,0
1579707605.175,7.324,10.742,29.785,1.953,0
1579707605.179,1.953,11.230,29.297,0.488,0
1579707605.183,2.441,15.137,26.855,4.395,0
1579707605.187,13.184,19.043,28.809,17.090,0
1579707605.189,10.742,15.625,35.156,17.090,0
1579707605.193,2.441,13.184,39.551,13.184,0
1579707605.197,8.789,22.461,40.039,20.020,0
1579707605.201,9.277,20.996,31.250,18.555,0
1579707605.205,2.930,14.648,29.297,6.348,0
1579707605.209,-7.324,14.160,31.738,-0.488,0
1579707605.213,-9.277,9.277,26.367,8.789,0
1579707605.216,0.488,7.812,29.785,7.324,0
1579707605.220,6.348,10.742,30.762,4.883,0
1579707605.224,3.418,16.113,29.785,6.348,0
1579707605.228,8.789,16.113,30.273,7.812,0
1579707605.232,19.043,18.555,31.738,15.137,0
1579707605.234,9.766,19.043,31.738,16.113,0
1579707605.238,9.766,13.184,34.180,14.160,0
1579707605.242,10.742,12.695,29.785,13.184,0
1579707605.246,14.648,17.578,22.949,17.090,0
1579707605.250,14.160,18.555,25.391,8.301,0
1579707605.254,8.789,18.066,24.414,7.324,0
1579707605.258,8.789,22.461,21.484,13.672,0
1579707605.261,8.789,13.184,21.973,3.906,0
1579707605.265,2.441,6.836,22.461,-0.488,0
1579707605.269,7.812,12.207,20.020,2.930,0
1579707605.273,4.883,13.672,19.531,5.371,0
1579707605.277,-0.977,5.371,28.320,15.625,0
1579707605.279,6.836,6.836,31.738,14.160,0
1579707605.283,8.301,17.578,29.785,9.766,0
1579707605.287,7.812,13.672,25.879,12.207,0
1579707605.291,4.395,8.789,22.949,7.812,0
1579707605.295,9.766,13.672,29.297,9.766,0
1579707605.299,17.090,15.625,32.715,11.719,0
1579707605.303,16.113,12.695,32.715,12.207,0
1579707605.306,9.277,13.184,25.391,8.301,0
1579707605.310,1.953,14.648,27.344,-0.977,0
1579707605.314,1.465,18.555,33.203,-3.906,0
1579707605.318,7.812,18.555,30.762,-1.465,0
1579707605.322,3.418,12.695,37.598,-2.930,0
1579707605.324,0.488,8.301,37.598,-1.465,0
1579707605.328,2.930,12.207,36.133,6.836,0
1579707605.332,5.371,13.672,36.621,8.301,0
1579707605.336,1.465,11.230,27.344,3.418,0
1579707605.340,-4.395,8.789,29.297,2.441,0
1579707605.344,1.465,8.301,35.156,5.371,0
1579707605.348,11.230,14.160,27.344,4.395,0
1579707605.351,5.371,14.160,21.973,0.977,0
1579707605.355,-7.324,11.719,33.691,0.000,0
1579707605.359,0.488,14.160,37.109,1.953,0
1579707605.363,7.324,11.719,32.715,6.836,0
1579707605.367,12.207,12.695,36.133,4.395,0
1579707605.384,4.883,12.695,28.809,0.977,0
1579707605.388,-3.418,10.254,26.367,-2.930,0
1579707605.392,4.395,12.207,35.156,-1.465,0
1579707605.396,12.695,15.625,36.621,7.812,0
1579707605.400,12.207,12.207,36.621,16.602,0
1579707605.404,3.906,10.254,37.109,20.508,0
1579707605.408,11.719,9.766,36.621,24.414,0
1579707605.411,18.555,9.277,38.086,18.066,0
1579707605.415,11.719,10.254,35.645,6.836,0
1579707605.419,7.812,10.742,26.367,0.488,0
1579707605.423,0.977,12.207,22.461,3.418,0
1579707605.427,-4.395,13.184,27.832,6.348,0
1579707605.429,4.883,11.719,30.273,3.906,0
1579707605.433,9.766,10.742,22.461,0.488,0
1579707605.437,8.789,15.137,23.926,3.906,0
1579707605.441,7.324,13.672,32.227,7.324,0
1579707605.445,12.207,14.160,28.809,6.836,28341
1579707605.449,7.324,20.020,22.949,9.277,0
1579707605.453,0.000,16.602,24.902,9.766,0
1579707605.456,-3.418,6.348,28.320,7.812,0
1579707605.460,10.254,4.395,31.738,3.906,0
1579707605.464,23.438,11.719,30.762,7.324,0
1579707605.468,14.648,16.113,26.367,14.160,0
1579707605.472,13.184,15.625,24.902,7.812,0
1579707605.474,13.672,15.137,24.902,5.859,0
1579707605.478,11.230,16.113,21.973,0.977,0
1579707605.482,-4.395,16.602,22.461,2.930,0
1579707605.486,-12.695,13.184,27.344,-1.465,0
1579707605.490,-1.465,14.160,34.180,-13.672,0
1579707605.494,10.254,14.160,29.297,-5.859,0
1579707605.498,2.441,11.230,24.902,-6.836,0
1579707605.501,-1.953,15.137,28.809,-14.160,0
1579707605.505,8.301,14.160,24.414,-8.301,0
1579707605.509,11.230,11.230,28.809,-3.906,0
1579707605.513,17.578,11.719,35.156,-1.953,0
1579707605.517,14.160,15.137,34.180,0.977,0
1579707605.518,9.277,9.766,37.109,2.930,0
1579707605.522,4.395,1.465,34.180,3.418,0
1579707605.526,-8.301,3.418,36.133,-0.488,0
1579707605.530,-3.906,9.277,40.039,-0.977,0
1579707605.534,-0.977,7.812,35.156,0.000,0
1579707605.538,-2.441,6.836,32.227,-0.488,0
1579707605.542,2.930,10.742,33.203,-3.906,0
1579707605.545,3.418,9.277,33.691,-4.395,0
1579707605.549,-4.883,9.766,35.156,-8.301,0
1579707605.553,-3.906,10.742,36.133,-5.371,0
1579707605.557,-2.441,7.324,35.645,3.906,0
1579707605.561,7.812,9.766,43.945,8.789,0
1579707605.564,13.672,10.742,40.039,2.930,0
1579707605.568,12.695,6.348,34.180,4.883,0
1579707605.572,18.066,4.883,38.574,13.184,0
1579707605.576,15.625,4.883,35.645,9.277,0
1579707605.580,8.301,8.789,32.715,5.859,0
1579707605.584,3.418,7.324,35.645,12.695,0
1579707605.588,-0.977,5.859,33.691,17.578,0
1579707605.591,20.996,10.742,27.344,9.766,0
1579707605.595,31.738,13.672,34.180,3.418,0
1579707605.599,19.531,11.230,35.645,5.859,0
1579707605.603,26.855,14.648,28.809,2.930,0
1579707605.607,37.598,17.578,34.180,0.977,0
1579707605.609,29.297,17.090,37.598,6.836,0
1579707605.613,10.254,17.090,35.156,13.672,0
1579707605.617,-0.488,15.137,33.203,20.508,0
1579707605.621,2.441,10.254,32.227,18.066,0
1579707605.625,14.160,11.719,38.574,20.508,0
1579707605.629,9.766,12.207,41.016,23.438,0
1579707605.633,1.465,7.324,29.297,11.230,0
1579707605.636,9.277,10.742,28.809,7.324,0
1579707605.640,0.977,13.672,29.297,4.883,0
1579707605.644,-9.277,13.672,24.414,2.441,0
1579707605.648,0.977,10.254,28.809,8.789,0
1579707605.652,3.906,10.742,28.809,14.160,0
1579707605.654,6.836,20.508,29.297,21.484,0
1579707605.658,8.301,19.043,25.879,20.020,0
1579707605.662,7.324,14.160,22.949,12.695,0
1579707605.666,12.695,18.555,28.809,12.695,0
1579707605.670,11.719,20.508,26.855,11.230,0
1579707605.674,19.531,20.508,34.180,17.090,0
1579707605.678,21.484,20.996,41.992,20.508,0
1579707605.681,18.555,19.043,30.273,19.531,0
1579707605.685,24.414,21.973,37.598,24.414,0
1579707605.689,25.391,25.879,45.898,30.273,0
1579707605.693,14.648,22.461,37.598,29.297,0
1579707605.697,13.184,24.414,36.621,20.508,0
1579707605.699,23.438,30.273,40.527,13.184,0
1579707605.703,23.438,25.391,45.410,18.555,0
1579707605.707,23.926,15.137,41.016,22.949,0
1579707605.711,28.320,12.207,35.645,22.461,0
1579707605.715,23.438,17.578,36.621,20.020,0
1579707605.719,16.602,23.926,29.297,7.812,0
1579707605.723,18.555,23.926,29.785,2.441,0
1579707605.726,20.020,19.043,32.715,7.812,0
1579707605.730,24.902,26.855,36.133,12.695,0
1579707605.734,30.273,25.391,40.039,12.207,0
1579707605.738,19.043,9.766,37.109,4.883,0
1579707605.742,18.555,11.230,36.133,8.789,0
1579707605.759,23.926,11.719,37.109,19.043,0
1579707605.763,13.672,8.789,37.109,12.207,0
1579707605.767,13.184,10.742,30.273,8.789,0
1579707605.771,14.648,12.695,31.738,9.766,0
1579707605.775,9.277,12.695,36.621,12.695,0
1579707605.779,14.160,10.742,34.668,11.230,0
1579707605.783,10.742,13.184,32.715,6.836,0
1579707605.786,-0.977,19.531,31.738,9.277,0
1579707605.790,1.953,19.531,37.109,10.742,0
1579707605.794,10.742,18.555,41.504,13.184,0
1579707605.798,25.391,20.508,45.898,12.207,0
1579707605.802,31.250,27.344,49.316,15.625,0
1579707605.803,15.137,22.461,39.551,13.672,0
1579707605.807,13.672,10.254,32.715,8.789,0
1579707605.811,18.066,8.301,31.738,5.371,0
1579707605.815,18.555,10.742,35.645,1.953,0
1579707605.819,15.137,12.207,36.133,0.000,0
1579707605.823,18.066,11.719,39.062,10.254,0
1579707605.827,20.996,14.648,42.480,15.625,0
1579707605.830,19.043,17.090,42.480,10.254,0
1579707605.834,21.973,16.602,37.598,7.324,0
1579707605.838,18.555,16.113,40.527,8.789,0
1579707605.842,11.719,12.695,46.875,12.695,0
1579707605.846,20.020,16.113,48.828,15.137,0
1579707605.848,32.227,20.996,47.363,20.996,0
1579707605.852,14.160,12.695,36.621,17.090,0
1579707605.856,-0.488,8.301,36.133,13.184,0
1579707605.860,2.930,14.160,37.598,14.160,0
1579707605.864,4.395,20.508,32.227,6.836,0
1579707605.868,9.766,20.996,28.320,3.906,0
1579707605.872,7.812,15.137,27.344,11.719,0
1579707605.875,11.719,12.207,29.297,15.137,0
1579707605.879,8.301,11.230,25.879,13.672,0
1579707605.883,4.395,8.301,27.832,11.719,0
1579707605.887,6.836,8.789,33.203,10.254,0
1579707605.891,12.695,13.672,30.762,8.301,0
1579707605.893,18.066,17.578,27.832,7.812,0
1579707605.897,13.184,15.625,29.785,12.695,0
1579707605.901,13.672,16.602,37.598,23.438,0
1579707605.905,15.137,19.043,40.039,23.438,0
1579707605.909,14.648,13.672,36.133,21.973,0
1579707605.913,6.348,7.812,35.156,15.625,0
1579707605.917,5.859,9.766,37.598,13.184,0
1579707605.920,8.301,16.602,41.992,18.066,0
1579707605.924,18.555,18.066,33.203,9.277,0
1579707605.928,25.879,16.602,27.832,9.277,0
1579707605.932,10.742,17.578,34.180,12.207,0
1579707605.936,14.648,14.160,37.109,9.277,0
1579707605.939,14.648,8.301,34.180,8.301,0
1579707605.943,14.648,9.277,34.668,14.648,0
1579707605.947,10.254,11.719,32.715,4.883,0
1579707605.951,6.348,13.184,34.180,5.371,0
1579707605.955,11.719,12.695,40.527,13.672,0
1579707605.959,0.488,7.324,29.297,2.441,0
1579707605.963,-1.953,6.348,21.484,-0.977,0
1579707605.966,0.488,12.207,25.879,0.000,0
1579707605.970,-7.324,16.113,34.668,-5.859,0
1579707605.974,-3.906,15.625,34.668,-5.859,0
1579707605.978,-3.906,14.160,35.156,4.883,0
1579707605.982,4.883,8.789,35.645,5.859,0
1579707605.984,10.254,6.836,32.715,3.418,0
1579707605.988,10.254,11.719,34.180,8.789,0
1579707605.992,7.324,10.254,37.109,8.301,0
1579707605.996,2.441,7.324,35.645,6.836,0
1579707606.000,0.000,6.348,36.621,6.348,0
1579707606.004,1.953,9.277,36.133,11.230,0
1579707606.008,1.953,8.301,31.738,15.625,0
1579707606.011,-8.789,3.418,37.598,7.812,0
1579707606.015,-9.766,3.906,35.645,3.906,0
1579707606.019,-1.465,6.348,29.297,3.418,0
1579707606.023,8.789,7.324,30.762,1.953,0
1579707606.027,16.113,12.695,32.715,4.395,0
1579707606.029,10.742,16.602,34.668,1.953,0
1579707606.033,4.395,11.719,33.203,-2.930,0
1579707606.037,5.859,6.348,36.133,8.789,0
1579707606.041,6.836,7.812,37.598,12.207,0
1579707606.045,6.836,9.766,33.203,2.441,0
1579707606.049,14.648,10.254,33.691,5.371,0
1579707606.053,20.020,17.090,38.574,6.836,0
1579707606.056,7.324,13.672,33.691,0.488,0
1579707606.060,0.977,8.789,37.598,4.883,0
1579707606.064,3.418,13.184,38.086,6.348,0
1579707606.068,-2.930,11.230,30.762,2.441,0
1579707606.072,-1.465,8.789,33.691,-2.441,0
1579707606.074,1.465,11.719,35.645,-6.836,0
1579707606.078,-4.395,15.625,35.645,-5.371,0
1579707606.082,-0.488,14.648,36.133,-4.395,0
1579707606.086,11.230,18.066,38.574,1.465,0
1579707606.090,12.207,21.973,37.598,6.348,0
1579707606.094,15.625,20.508,37.109,10.742,0
1579707606.098,16.113,16.113,41.992,8.789,0
1579707606.101,14.160,16.602,44.434,5.371,0
1579707606.105,10.742,19.043,41.016,4.883,0
1579707606.109,22.461,22.949,39.551,7.812,0
1579707606.113,20.996,20.020,34.180,9.766,0
1579707606.117,8.789,10.742,25.879,4.883,0
1579707606.133,6.836,15.625,33.203,2.930,0
1579707606.137,4.883,16.113,30.762,5.371,0
1579707606.141,16.602,12.695,20.020,8.301,0
1579707606.145,13.184,13.672,24.414,6.836,0
1579707606.149,6.836,16.113,30.273,8.301,0
1579707606.153,3.418,13.184,26.367,7.812,0
1579707606.157,-4.883,11.230,31.250,6.348,0
1579707606.160,3.418,14.160,36.133,9.277,0
1579707606.164,13.184,12.207,30.273,7.812,0
1579707606.168,10.254,12.695,30.762,2.441,0
1579707606.172,2.441,15.137,33.203,4.395,0
1579707606.176,2.930,18.555,34.180,7.324,0
1579707606.179,-1.953,19.043,40.039,5.371,0
1579707606.183,-3.906,19.043,40.527,9.766,0
1579707606.187,-0.488,16.113,39.062,6.348,0
1579707606.191,9.277,13.672,38.086,3.906,0
1579707606.195,9.766,19.043,40.527,11.230,0
1579707606.199,6.836,18.555,40.527,5.859,0
1579707606.203,9.766,16.602,37.598,4.883,0
1579707606.206,8.789,15.137,38.574,9.277,0
1579707606.210,12.207,16.602,37.109,7.812,0
1579707606.214,13.672,19.531,35.645,5.859,0
1579707606.218,5.859,18.555,32.715,4.395,0
1579707606.222,7.812,25.391,29.297,6.348,0
1579707606.224,16.113,23.926,33.691,0.977,0
1579707606.228,12.207,19.531,34.668,1.953,0
1579707606.232,6.836,19.043,31.738,2.441,0
1579707606.236,10.254,9.277,21.484,2.930,0
1579707606.240,13.672,11.719,16.602,0.488,0
1579707606.244,6.348,19.043,22.949,0.000,0
1579707606.248,6.348,18.066,29.297,7.812,0
1579707606.251,10.742,17.090,35.645,20.996,0
1579707606.255,13.184,14.648,34.180,23.926,0
1579707606.259,9.277,11.719,23.926,16.113,0
1579707606.263,5.371,14.160,24.902,11.719,0
1579707606.267,9.766,14.160,30.273,4.395,0
1579707606.269,14.648,17.578,25.391,8.789,0
1579707606.273,16.113,21.973,25.879,6.348,0
1579707606.277,15.625,19.531,36.133,5.859,0
1579707606.281,6.348,16.602,36.621,2.930,0
1579707606.285,14.160,21.484,38.574,1.465,0
1579707606.289,21.484,17.578,40.527,12.207,0
1579707606.293,16.602,13.672,37.109,10.742,0
1579707606.296,19.043,18.555,39.062,14.648,0
1579707606.300,30.762,20.996,37.109,20.020,0
1579707606.304,33.203,21.973,34.180,13.184,0
1579707606.308,26.367,17.090,36.621,15.137,0
1579707606.312,17.090,13.672,39.062,17.090,0
1579707606.314,7.324,14.160,33.203,15.137,0
1579707606.318,18.555,17.578,32.227,12.695,0
1579707606.322,29.785,19.531,32.227,3.418,0
1579707606.326,32.227,19.531,37.598,3.418,0
1579707606.330,29.297,21.484,38.086,1.953,0
1579707606.334,30.762,18.066,31.738,0.488,0
1579707606.338,26.855,18.555,37.109,3.906,0
1579707606.341,17.578,15.625,33.691,0.977,0
1579707606.345,0.488,7.812,30.762,-0.977,0
1579707606.349,-9.766,9.277,34.668,1.465,0
1579707606.353,-6.836,8.789,37.598,5.371,0
1579707606.357,-9.766,9.766,38.574,4.883,0
1579707606.359,-4.883,16.602,38.086,2.930,0
1579707606.363,2.441,14.160,40.527,5.371,0
1579707606.367,3.418,11.719,36.621,9.277,0
1579707606.371,5.859,12.695,37.109,9.766,0
1579707606.375,9.766,10.254,41.504,12.207,0
1579707606.379,11.230,12.695,37.598,18.066,0
1579707606.383,11.230,13.184,32.715,9.277,0
1579707606.386,10.742,9.277,36.133,1.953,0
1579707606.390,1.953,8.789,41.016,6.348,0
1579707606.394,6.348,14.160,39.062,4.883,0
1579707606.398,-1.953,18.066,35.156,-0.977,0
1579707606.402,-17.090,16.602,31.738,-3.906,0
1579707606.404,-14.160,11.230,26.367,-10.254,0
1579707606.408,-0.977,20.996,34.180,-9.766,0
1579707606.412,8.301,23.926,38.086,-1.953,0
1579707606.416,8.789,17.090,28.809,-4.883,0
1579707606.420,0.977,16.113,35.156,-1.953,0
1579707606.424,-7.812,15.137,39.062,-2.441,0
1579707606.428,-2.441,14.160,34.668,-2.441,0
1579707606.431,-1.953,12.695,36.133,-2.930,0
1579707606.435,-1.465,14.648,36.133,-6.836,0
1579707606.439,1.953,15.137,36.133,-0.488,0
1579707606.443,-1.465,15.137,34.180,-6.836,0
1579707606.447,3.418,16.602,38.086,-5.859,0
1579707606.449,9.766,21.973,41.504,-3.418,0
1579707606.453,7.812,22.461,41.992,-5.859,0
1579707606.457,13.184,10.742,42.969,0.488,0
1579707606.461,13.672,9.277,43.457,12.695,0
1579707606.465,12.695,14.648,46.875,15.137,0
1579707606.469,11.230,14.160,48.828,13.184,0
1579707606.473,9.277,12.695,47.852,9.766,0
1579707606.476,17.578,13.672,46.387,17.090,0
1579707606.480,15.625,12.695,39.551,17.578,0
1579707606.484,7.324,12.695,41.992,6.836,0
1579707606.488,7.324,19.531,46.875,6.836,0
1579707606.492,6.836,17.090,41.504,3.418,0
1579707606.509,-0.488,8.301,31.738,-7.812,0
1579707606.513,-1.465,13.184,31.250,-14.160,0
1579707606.517,9.766,19.531,35.156,-8.301,0
1579707606.521,16.113,16.602,40.039,-3.418,0
1579707606.525,13.672,14.160,41.504,0.000,0
1579707606.529,16.113,15.625,41.016,-3.418,0
1579707606.533,12.207,9.766,37.598,-11.230,0
1579707606.536,3.906,4.395,37.598,-11.230,0
1579707606.540,-0.977,5.371,41.504,-5.859,0
1579707606.544,2.441,9.277,39.062,2.441,0
1579707606.548,4.395,9.277,41.016,3.906,0
1579707606.552,4.883,13.184,43.945,6.348,0
1579707606.554,5.859,16.602,44.922,9.766,0
1579707606.558,13.184,14.160,41.504,14.648,0
1579707606.562,15.137,15.625,41.016,5.859,0
1579707606.566,11.230,21.484,52.246,13.184,0
1579707606.570,15.625,17.578,45.898,18.066,0
1579707606.574,20.508,8.301,27.344,9.766,0
1579707606.578,19.043,12.207,33.691,9.277,0
1579707606.581,7.324,10.742,36.133,4.883,0
1579707606.585,6.836,5.859,29.785,8.789,0
1579707606.589,12.207,6.836,30.762,8.301,0
1579707606.593,12.695,8.789,37.598,6.348,0
1579707606.597,12.695,8.789,42.969,12.207,0
1579707606.599,19.043,10.742,43.457,12.207,0
1579707606.603,19.531,13.672,39.551,10.254,0
1579707606.607,17.090,13.672,41.016,11.719,0
1579707606.611,19.531,12.695,43.457,4.883,0
1579707606.615,13.672,14.648,38.086,8.789,0
1579707606.619,11.719,19.043,38.086,19.043,0
1579707606.623,23.438,21.973,42.480,10.742,0
1579707606.626,16.113,17.578,32.715,1.953,0
1579707606.630,4.883,10.742,26.855,8.789,0
1579707606.634,5.859,9.277,32.715,8.301,0
1579707606.638,10.742,11.230,33.691,5.859,17038
1579707606.642,18.066,13.672,33.691,13.672,0
1579707606.644,12.695,15.625,34.668,18.066,0
1579707606.648,9.766,15.137,38.086,20.508,0
1579707606.652,3.906,14.648,40.039,22.949,0
1579707606.656,4.395,14.160,37.109,19.531,0
1579707606.660,3.418,13.184,36.133,12.695,0
1579707606.664,-3.906,18.066,33.691,9.766,0
1579707606.668,0.488,20.996,28.320,2.441,0
1579707606.671,16.602,19.043,26.855,3.906,0
1579707606.675,12.695,16.602,24.414,3.906,0
1579707606.679,9.766,17.578,32.715,0.000,0
1579707606.683,14.648,17.578,36.133,5.859,0
1579707606.687,6.348,16.602,36.621,7.324,0
1579707606.689,4.883,21.484,35.645,-0.488,0
1579707606.693,1.465,22.949,28.320,-3.418,0
1579707606.697,-12.695,18.555,26.367,-8.301,0
1579707606.701,-8.789,15.625,27.832,5.371,0
1579707606.705,4.883,14.648,30.273,14.160,0
1579707606.709,5.859,16.602,31.250,-0.977,0
1579707606.713,2.441,20.020,31.738,0.488,0
1579707606.716,9.766,18.555,29.785,9.277,0
1579707606.720,10.254,15.625,26.855,12.695,0
1579707606.724,9.766,20.020,40.039,18.066,0
1579707606.728,4.395,17.578,44.922,14.160,0
1579707606.732,0.977,13.672,37.109,5.371,0
1579707606.734,0.488,15.625,37.598,2.930,0
1579707606.738,4.883,20.020,39.062,5.859,0
1579707606.742,2.930,17.578,31.250,17.090,0
1579707606.746,-2.441,15.137,38.574,15.625,0
1579707606.750,13.184,17.578,43.945,13.672,0
1579707606.754,16.602,18.066,34.180,15.625,0
1579707606.758,7.812,16.113,38.086,9.277,0
1579707606.761,7.812,16.602,36.621,3.906,0
1579707606.765,11.230,17.090,36.621,3.418,0
1579707606.769,4.883,14.160,41.016,-1.465,0
1579707606.773,4.883,7.812,41.504,0.977,0
1579707606.777,-2.930,6.836,44.434,2.930,0
1579707606.779,-10.742,16.602,41.016,-5.859,0
1579707606.783,-3.906,11.230,34.668,-2.441,0
1579707606.787,1.953,-2.441,36.621,1.465,0
1579707606.791,3.906,6.348,40.039,4.395,0
1579707606.795,4.883,13.184,37.598,2.930,0
1579707606.799,4.883,14.648,33.691,-3.418,0
1579707606.803,6.348,16.602,35.645,7.324,0
1579707606.806,10.742,11.230,36.133,13.672,0
1579707606.810,15.625,11.230,41.992,12.695,0
1579707606.814,8.789,13.184,47.363,16.113,0
1579707606.818,4.883,12.695,43.457,13.184,0
1579707606.822,7.324,13.672,35.645,10.254,0
1579707606.824,-7.812,9.277,36.133,8.301,0
1579707606.828,2.441,13.672,42.480,8.789,0
1579707606.832,20.020,22.461,39.062,13.184,0
1579707606.836,8.301,15.625,32.715,10.254,0
1579707606.840,2.441,11.230,32.227,6.348,0
1579707606.844,4.883,13.672,27.344,10.254,0
1579707606.848,12.695,13.184,27.344,8.301,0
1579707606.851,14.648,11.230,33.203,2.930,0
1579707606.855,10.742,10.742,34.668,5.859,0
1579707606.859,8.789,16.602,33.203,11.719,0
1579707606.863,11.719,16.602,34.668,11.230,0
1579707606.867,10.254,12.207,38.574,10.742,0
1579707606.883,1.953,13.672,42.480,8.301,0
1579707606.887,1.465,17.578,41.992,8.789,0
1579707606.891,9.766,18.555,39.062,7.324,0
1579707606.895,9.766,16.113,36.621,5.371,0
1579707606.899,15.137,18.066,33.691,2.930,0
1579707606.903,22.461,16.113,32.715,9.766,0
1579707606.907,29.785,22.461,34.668,16.113,0
1579707606.910,26.855,24.414,34.180,4.883,0
1579707606.914,17.090,19.043,29.785,0.977,0
1579707606.918,16.113,16.113,20.996,10.254,0
1579707606.922,14.160,12.695,24.414,13.184,0
1579707606.926,10.742,14.160,33.203,13.672,0
1579707606.929,11.719,19.531,32.715,15.137,0
1579707606.933,13.184,23.438,29.297,11.719,0
1579707606.937,17.090,23.926,33.203,14.160,0
1579707606.941,17.578,23.926,38.086,11.719,0
1579707606.945,13.672,23.438,32.227,9.766,0
1579707606.949,20.020,24.902,26.367,5.371,0
1579707606.953,11.719,24.414,30.762,0.000,0
1579707606.956,4.883,21.973,38.086,7.812,0
1579707606.960,12.695,23.438,32.227,8.789,0
1579707606.964,20.020,27.832,32.715,3.418,0
1579707606.968,10.254,21.484,38.086,2.441,0
1579707606.972,1.465,20.020,34.180,-2.441,0
1579707606.974,8.301,19.531,32.227,-3.906,0
1579707606.978,8.789,14.648,32.227,-4.883,0
1579707606.982,11.230,13.672,34.668,-0.977,0
1579707606.986,7.812,17.578,34.180,5.371,0
1579707606.990,15.625,22.461,35.645,1.953,0
1579707606.994,13.672,22.461,33.691,0.000,0
1579707606.998,8.789,22.949,42.480,12.695,0
1579707607.001,10.254,22.461,47.363,12.207,0
1579707607.005,0.000,19.043,38.086,5.371,0
1579707607.009,-1.953,15.625,37.598,7.812,0
1579707607.013,0.977,17.090,41.016,6.348,0
1579707607.017,4.883,14.160,36.621,3.906,0
1579707607.019,3.906,12.207,35.156,7.324,0
1579707607.023,9.766,13.672,37.109,12.695,0
1579707607.027,16.113,14.160,30.762,13.672,0
1579707607.031,19.043,16.602,27.344,9.766,0
1579707607.035,20.996,18.066,33.203,11.719,0
1579707607.039,19.043,16.602,34.668,15.625,0
1579707607.043,15.137,16.113,34.180,19.043,0
1579707607.046,13.184,16.602,33.691,20.996,0
1579707607.050,18.066,19.043,34.668,17.090,0
1579707607.054,25.391,21.973,41.504,19.531,0
1579707607.058,26.367,19.043,41.504,12.695,0
1579707607.062,27.344,15.625,34.180,7.324,0
1579707607.064,30.273,11.719,31.738,4.395,0
1579707607.068,40.527,16.602,33.203,0.000,0
1579707607.072,42.969,16.113,33.691,2.930,0
1579707607.076,32.227,11.719,32.227,6.348,0
1579707607.080,35.645,15.137,30.273,5.371,0
1579707607.084,38.574,13.184,30.273,16.113,0
1579707607.088,15.625,13.672,28.809,25.391,0
1579707607.091,8.789,23.926,34.668,26.367,0
1579707607.095,13.184,21.484,42.480,27.344,0
1579707607.099,7.324,7.324,40.039,19.531,0
1579707607.103,11.230,11.230,30.762,21.484,0
1579707607.107,15.137,14.160,27.832,21.973,0
1579707607.109,10.254,12.695,33.691,21.484,0
1579707607.113,10.254,14.160,36.133,29.297,0
1579707607.117,17.090,15.137,32.715,20.508,0
1579707607.121,16.113,14.160,29.297,10.254,0
1579707607.125,2.930,13.672,26.855,3.418,0
1579707607.129,1.953,17.578,23.926,3.418,0
1579707607.133,10.254,18.555,30.273,8.789,0
1579707607.136,6.348,11.230,29.785,10.742,0
1579707607.140,8.789,12.207,22.461,6.348,0
1579707607.144,11.230,17.578,24.414,5.371,0
1579707607.148,14.160,19.043,28.320,7.812,0
1579707607.152,15.137,19.043,29.785,4.395,0
1579707607.154,13.184,18.066,32.227,8.789,0
1579707607.158,10.742,14.648,34.668,8.789,0
1579707607.162,11.230,14.160,37.109,6.348,0
1579707607.166,13.184,13.184,41.504,13.672,0
1579707607.170,11.719,10.742,39.062,8.789,0
1579707607.174,9.277,9.766,33.203,6.348,0
1579707607.178,10.742,13.184,36.133,10.254,0
1579707607.181,11.230,14.648,40.527,8.301,0
1579707607.185,13.672,15.137,37.109,10.254,0
1579707607.189,7.812,15.625,38.086,5.859,0
1579707607.193,4.883,10.254,38.574,3.906,0
1579707607.197,14.648,7.324,38.574,6.836,0
1579707607.198,2.930,12.695,37.598,3.906,0
1579707607.202,-8.301,5.371,31.250,-5.371,0
1579707607.206,-7.324,1.953,26.367,-4.883,0
1579707607.210,-5.859,16.113,27.344,-1.465,0
1579707607.214,4.883,19.531,26.855,-0.977,0
1579707607.218,13.672,19.531,20.508,2.441,0
1579707607.222,7.324,20.996,22.949,0.000,0
1579707607.225,0.977,14.648,29.785,-6.348,0
1579707607.229,5.371,12.207,37.598,-0.977,0
1579707607.233,6.836,17.578,39.062,5.859,0
1579707607.237,4.883,17.578,31.738,4.395,0
1579707607.241,8.789,19.043,34.668,3.906,0
1579707607.259,15.625,20.020,39.551,6.836,0
1579707607.263,13.672,15.137,39.551,4.883,0
1579707607.267,11.230,20.020,41.016,0.000,0
1579707607.271,9.277,18.555,34.180,-1.465,0
1579707607.275,20.996,15.625,32.227,0.000,0
1579707607.279,27.344,19.531,38.086,1.953,0
1579707607.283,10.742,16.113,33.203,1.953,0
1579707607.286,11.230,18.555,31.738,5.859,0
1579707607.290,18.066,20.508,35.645,10.254,0
1579707607.294,12.695,21.484,32.715,13.184,0
1579707607.298,14.648,17.090,33.691,12.207,0
1579707607.302,19.043,20.020,36.621,9.766,0
1579707607.303,14.160,26.367,34.180,10.742,0
1579707607.307,12.207,24.414,35.156,15.137,0
1579707607.311,12.207,21.973,36.133,6.348,0
1579707607.315,14.160,20.996,34.180,-2.930,0
1579707607.319,9.766,24.414,36.621,4.395,0
1579707607.323,-4.395,19.043,33.691,10.742,0
1579707607.327,9.277,20.996,35.156,13.672,0
1579707607.330,5.859,26.367,36.621,9.277,0
1579707607.334,-8.301,20.996,30.273,1.953,0
1579707607.338,7.324,24.902,32.227,2.441,0
1579707607.342,3.418,22.461,36.621,0.000,0
1579707607.346,-5.371,19.043,33.203,1.953,0
1579707607.349,3.418,22.949,29.785,0.977,0
1579707607.353,9.766,22.949,37.109,1.953,0
1579707607.357,4.395,21.484,35.645,2.930,0
1579707607.361,-7.812,23.438,36.621,-1.953,0
1579707607.365,-1.465,21.973,42.969,1.953,0
1579707607.369,3.906,18.555,40.527,8.789,0
1579707607.373,5.859,20.508,34.180,14.648,0
1579707607.376,6.836,20.996,33.691,13.184,0
1579707607.380,3.418,22.461,36.621,0.488,0
1579707607.384,4.883,19.043,37.598,6.836,0
1579707607.388,9.277,20.020,36.621,15.625,0
1579707607.392,14.160,22.949,36.621,16.113,0
1579707607.394,4.883,18.066,38.086,17.578,0
1579707607.398,-1.953,19.043,36.133,13.672,0
1579707607.402,4.395,23.926,35.645,5.859,0
1579707607.406,6.836,22.949,34.180,0.000,0
1579707607.410,8.301,23.438,33.203,-2.930,0
1579707607.414,8.301,20.996,36.621,4.883,0
1579707607.418,11.719,18.555,34.668,2.441,0
1579707607.421,14.160,21.484,36.621,2.441,0
1579707607.425,10.742,23.438,43.457,8.789,0
1579707607.429,5.859,20.508,44.434,4.883,0
1579707607.433,6.348,17.090,38.086,1.465,0
1579707607.437,11.719,12.695,39.551,-1.465,0
1579707607.439,7.812,13.184,43.457,-0.488,0
1579707607.443,2.441,15.137,38.574,2.441,0
1579707607.447,7.812,12.695,40.039,7.324,0
1579707607.451,6.348,13.672,41.504,4.395,0
1579707607.455,2.441,10.742,37.109,-4.395,0
1579707607.459,4.883,8.301,31.250,-4.883,0
1579707607.463,0.488,7.812,33.203,0.977,0
1579707607.466,6.348,5.371,35.156,6.348,0
1579707607.470,13.184,8.301,33.203,-0.488,0
1579707607.474,14.648,12.207,36.133,-1.953,0
1579707607.478,14.648,13.672,37.109,4.395,0
1579707607.482,17.090,15.137,37.109,11.230,0
1579707607.484,28.320,14.648,41.016,18.555,0
1579707607.488,22.949,13.672,43.457,19.043,0
1579707607.492,7.812,10.742,41.992,13.672,0
1579707607.496,1.953,7.812,37.109,10.742,0
1579707607.500,10.254,8.789,34.668,1.465,0
1579707607.504,15.137,8.789,35.156,-3.418,0
1579707607.508,-6.836,9.766,34.180,-0.977,0
1579707607.511,-11.719,12.695,39.551,-4.395,0
1579707607.515,6.348,15.137,47.363,-4.883,0
1579707607.519,7.812,14.648,41.016,-3.906,0
1579707607.523,2.930,13.672,37.109,1.953,0
1579707607.527,6.836,16.602,36.621,3.906,0
1579707607.529,5.371,14.648,34.180,4.395,0
1579707607.533,12.207,11.719,30.762,7.812,0
1579707607.537,21.973,14.648,30.762,8.301,0
1579707607.541,20.020,9.766,37.109,12.207,0
1579707607.545,12.695,7.324,33.203,9.766,0
1579707607.549,1.465,14.160,22.949,6.348,0
1579707607.553,1.953,19.531,31.250,13.184,0
1579707607.556,-7.324,15.137,34.180,12.695,0
1579707607.560,-11.230,7.812,31.250,15.625,0
1579707607.564,-2.930,6.836,33.691,16.113,0
1579707607.568,-8.301,6.836,33.203,6.836,0
1579707607.572,-9.277,11.719,30.762,8.789,0
1579707607.573,-3.906,12.207,30.273,13.184,0
1579707607.577,1.953,7.812,29.297,10.254,0
1579707607.581,9.277,9.277,26.367,6.836,0
1579707607.585,10.254,13.184,26.367,2.441,0
1579707607.589,6.836,15.625,29.785,4.395,0
1579707607.593,3.418,13.672,26.855,6.836,0
1579707607.597,-1.465,14.160,26.367,4.883,0
1579707607.600,-8.301,12.207,33.691,4.883,0
1579707607.604,-4.395,12.695,39.062,5.371,0
1579707607.608,2.930,15.137,31.738,4.883,0
1579707607.612,-3.418,14.160,25.879,5.859,0
1579707607.616,0.977,16.113,26.367,0.488,0
1579707607.633,7.812,15.625,20.508,-5.371,0
1579707607.637,10.742,13.672,23.438,-4.395,0
1579707607.641,16.113,13.672,29.785,0.977,0
1579707607.645,15.625,9.277,27.832,5.859,0
1579707607.649,8.301,7.812,24.414,4.395,0
1579707607.653,11.230,18.555,27.832,10.254,0
1579707607.657,15.625,22.949,25.879,13.672,0
1579707607.660,9.277,14.160,20.996,0.000,0
1579707607.664,8.789,9.766,16.602,-1.953,0
1579707607.668,2.441,15.137,8.789,1.953,0
1579707607.672,2.441,14.648,1.465,1.953,0
1579707607.676,14.160,13.672,4.395,7.812,0
1579707607.679,7.812,17.090,5.859,3.418,0
1579707607.683,3.418,15.625,2.441,-1.953,0
1579707607.687,5.859,14.648,1.953,-5.371,0
1579707607.691,0.977,16.113,2.930,-2.441,28341
1579707607.695,3.418,12.695,4.395,1.953,0
1579707607.699,-4.395,7.812,5.371,-3.906,0
1579707607.703,-4.395,6.348,7.324,-2.930,0
1579707607.706,8.301,6.836,9.277,7.324,0
1579707607.710,-4.883,10.742,6.836,1.465,0
1579707607.714,-11.230,11.719,3.418,-7.812,0
1579707607.718,-6.836,13.672,7.812,-3.906,0
1579707607.722,-4.883,18.066,12.695,-6.348,0
1579707607.724,-5.859,13.672,9.277,-11.230,0
1579707607.728,-0.977,8.789,9.277,-7.324,0
1579707607.732,3.418,10.254,16.113,6.348,0
1579707607.736,7.812,9.766,21.484,12.207,0
1579707607.740,14.648,13.184,23.438,4.395,0
1579707607.744,5.859,15.625,22.949,1.953,0
1579707607.748,-0.977,8.301,29.297,8.301,0
1579707607.751,4.883,10.254,34.180,14.648,0
1579707607.755,6.836,12.207,30.762,17.578,0
1579707607.759,10.742,8.789,33.203,12.207,0
1579707607.763,21.484,7.324,33.691,9.766,0
1579707607.767,22.461,7.812,29.297,14.160,0
1579707607.768,16.602,12.695,36.133,16.113,0
1579707607.772,10.254,14.160,40.039,10.254,0
1579707607.776,14.648,14.160,42.969,11.230,0
1579707607.780,19.531,12.207,41.992,21.973,0
1579707607.784,7.812,11.230,41.016,16.602,0
1579707607.788,5.371,14.648,46.387,8.789,0
1579707607.792,14.160,14.160,45.410,11.230,0
1579707607.795,15.625,9.277,44.434,10.742,0
1579707607.799,16.113,11.230,43.945,10.254,0
1579707607.803,17.578,15.625,43.945,13.184,0
1579707607.807,14.160,16.113,46.875,15.137,0
1579707607.811,9.277,18.066,51.758,19.531,0
1579707607.814,9.766,18.555,45.898,15.625,0
1579707607.818,-1.953,15.137,41.504,0.977,0
1579707607.822,-0.488,18.066,47.363,-3.906,0
1579707607.826,0.488,18.066,44.434,-1.953,0
1579707607.830,-10.254,13.184,42.969,2.930,0
1579707607.834,-2.930,14.160,46.387,9.277,0
1579707607.838,10.254,14.648,50.781,13.184,0
1579707607.841,16.113,14.160,49.805,12.207,0
1579707607.845,23.926,16.602,50.293,8.301,0
1579707607.849,37.109,20.996,52.246,10.742,0
1579707607.853,38.574,21.484,49.805,13.672,0
1579707607.857,40.039,20.020,52.734,9.277,0
1579707607.859,49.316,28.320,52.246,11.230,0
1579707607.863,40.527,28.809,42.480,10.742,0
1579707607.867,30.762,22.461,47.363,13.672,0
1579707607.871,18.066,19.531,50.781,20.996,0
1579707607.875,10.742,18.066,48.828,20.996,0
1579707607.879,19.043,19.531,50.293,21.484,0
1579707607.883,16.113,16.602,45.898,18.555,0
1579707607.886,12.695,8.789,41.504,12.207,0
1579707607.890,4.883,7.812,43.945,5.859,0
1579707607.894,7.324,14.160,45.410,9.766,0
1579707607.898,17.090,13.672,42.480,13.184,0
1579707607.902,19.043,11.719,42.969,13.184,0
1579707607.904,19.531,9.766,51.270,18.555,0
1579707607.908,9.766,7.324,54.199,19.043,0
1579707607.912,9.277,8.301,48.828,20.508,0
1579707607.916,12.695,8.301,46.387,16.113,0
1579707607.920,7.324,12.207,50.293,17.090,0
1579707607.924,10.742,15.625,51.270,25.879,0
1579707607.928,8.301,6.348,48.828,17.090,0
1579707607.931,9.766,1.953,52.246,9.766,0
1579707607.935,13.672,6.348,52.734,15.625,0
1579707607.939,17.578,10.254,48.340,19.531,0
1579707607.943,16.602,11.230,43.945,17.090,0
1579707607.947,14.648,15.625,49.805,19.531,0
1579707607.949,20.508,13.672,52.734,26.367,0
1579707607.953,7.324,8.301,39.062,14.648,0
1579707607.957,2.930,9.766,37.598,3.906,0
1579707607.961,13.184,8.301,39.062,5.859,0
1579707607.965,15.137,9.766,38.574,3.418,0
1579707607.969,5.371,10.742,37.598,4.883,0
1579707607.973,1.465,5.371,33.691,3.418,0
1579707607.976,8.789,3.418,36.133,1.465,0
1579707607.980,14.648,8.301,37.598,5.859,0
1579707607.984,9.277,11.230,29.785,2.441,0
1579707607.988,5.371,13.184,33.203,-0.977,0
1579707607.992,8.301,12.695,43.945,1.465,0
1579707608.009,8.789,10.254,43.457,-0.488,0
1579707608.013,11.230,11.719,40.527,5.371,0
1579707608.017,2.441,15.137,39.551,5.371,0
1579707608.021,-7.812,15.625,36.621,-2.441,0
1579707608.025,0.000,15.137,40.527,4.883,0
1579707608.029,2.930,9.277,42.969,-0.488,0
1579707608.033,11.719,4.395,36.133,-9.277,0
1579707608.036,15.625,5.859,36.133,-8.301,0
1579707608.040,10.254,12.207,40.527,-0.488,0
1579707608.044,17.578,13.672,37.598,12.207,0
1579707608.048,1.953,7.324,36.621,3.418,0
1579707608.052,-6.348,8.301,38.086,-2.441,0
1579707608.054,5.371,12.695,34.180,-5.371,0
1579707608.058,15.137,13.184,31.738,-1.465,0
1579707608.062,24.414,12.695,31.738,3.906,0
1579707608.066,21.973,12.695,32.715,4.883,0
1579707608.070,18.555,13.184,33.203,13.672,0
1579707608.074,21.973,17.578,25.879,15.625,0
1579707608.078,22.949,24.902,30.273,16.602,0
1579707608.081,17.578,16.602,39.062,11.230,0
1579707608.085,13.672,11.719,37.598,12.695,0
1579707608.089,28.320,17.090,41.016,20.508,0
1579707608.093,31.250,13.184,44.434,12.207,0
1579707608.097,14.160,12.695,39.551,9.277,0
1579707608.099,11.719,17.090,36.621,14.648,0
1579707608.103,15.137,13.184,40.527,17.090,0
1579707608.107,7.812,13.184,37.109,19.043,0
1579707608.111,10.742,16.602,38.574,19.531,0
1579707608.115,12.207,15.625,41.992,16.602,0
1579707608.119,20.508,22.461,44.922,24.414,0
1579707608.123,11.719,23.926,40.527,15.137,0
1579707608.126,-0.488,12.207,35.156,1.953,0
1579707608.130,5.859,7.812,39.551,10.254,0
1579707608.134,5.371,8.301,35.156,12.207,0
1579707608.138,3.418,11.230,38.086,14.160,0
1579707608.142,3.906,11.719,38.086,18.066,0
1579707608.144,2.441,9.766,32.227,10.254,0
1579707608.148,4.883,9.277,34.668,3.906,0
1579707608.152,9.277,6.348,33.691,3.418,0
1579707608.156,8.301,3.906,30.273,5.371,0
1579707608.160,4.883,4.395,32.715,8.301,0
1579707608.164,1.465,9.277,34.668,6.348,0
1579707608.168,-0.977,14.160,33.203,10.254,0
1579707608.171,6.836,9.766,36.621,9.277,0
1579707608.175,12.207,5.859,38.086,8.789,0
1579707608.179,10.254,9.766,34.668,11.719,0
1579707608.183,12.695,10.742,35.156,13.672,0
1579707608.187,10.742,11.719,34.668,19.043,0
1579707608.189,10.742,13.672,32.227,8.789,0
1579707608.193,7.324,11.719,28.809,3.906,0
1579707608.197,7.324,9.766,32.227,15.625,0
1579707608.201,7.324,7.812,38.086,14.160,0
1579707608.205,3.418,15.137,38.574,14.648,0
1579707608.209,9.277,20.508,42.480,19.043,0
1579707608.213,-2.930,13.184,34.180,15.137,0
1579707608.216,0.488,14.160,27.832,14.648,0
1579707608.220,11.230,14.648,34.668,8.789,0
1579707608.224,13.672,11.719,33.203,5.371,0
1579707608.228,13.184,7.812,26.367,3.418,0
1579707608.232,9.277,13.672,35.645,2.930,0
1579707608.234,18.555,20.996,38.086,9.766,0
1579707608.238,9.766,18.555,36.621,4.883,0
1579707608.242,0.488,14.160,42.480,-0.488,0
1579707608.246,16.113,14.160,43.945,10.742,0
1579707608.250,13.672,14.648,43.457,12.695,0
1579707608.254,5.371,12.207,42.480,8.789,0
1579707608.258,2.930,11.719,32.227,10.742,0
1579707608.261,15.137,13.672,27.832,10.254,0
1579707608.265,12.695,19.043,30.762,7.812,0
1579707608.269,11.230,20.508,38.574,4.883,0
1579707608.273,13.672,14.160,40.039,6.836,0
1579707608.277,0.488,8.301,35.156,13.184,0
1579707608.279,6.348,10.254,37.598,14.160,0
1579707608.283,15.137,12.207,38.086,9.277,0
1579707608.287,9.766,15.625,35.156,4.395,0
1579707608.291,-2.441,17.578,31.250,-1.465,0
1579707608.295,-3.906,10.742,30.273,3.418,0
1579707608.299,5.859,8.789,25.879,7.324,0
1579707608.303,5.859,10.254,20.996,3.418,0
1579707608.306,4.883,10.742,19.043,5.371,0
1579707608.310,17.090,11.719,25.391,8.301,0
1579707608.314,20.020,10.742,31.738,9.277,0
1579707608.318,18.555,11.719,31.738,13.184,0
1579707608.322,4.395,10.254,33.691,5.859,0
1579707608.324,-7.324,8.301,31.250,-0.977,0
1579707608.328,1.465,12.695,26.855,4.883,0
1579707608.332,9.277,12.695,32.227,4.395,0
1579707608.336,11.230,12.207,30.273,3.906,0
1579707608.340,4.395,8.789,23.926,1.953,0
1579707608.344,9.277,9.277,28.320,7.324,0
1579707608.348,23.926,12.695,32.227,14.160,0
1579707608.351,11.230,10.254,35.156,4.883,0
1579707608.355,8.301,12.207,37.598,9.277,0
1579707608.359,9.766,14.648,35.645,17.090,0
1579707608.363,1.465,9.277,38.086,5.371,0
1579707608.367,8.301,4.883,40.527,4.883,0
1579707608.384,-2.441,9.277,33.203,6.836,0
1579707608.388,-0.977,13.672,30.762,11.230,0
1579707608.392,15.625,11.719,32.715,15.137,0
1579707608.396,18.066,8.789,35.645,6.836,0
1579707608.400,15.625,6.836,41.016,11.719,0
1579707608.404,11.230,7.324,38.574,14.648,0
1579707608.408,14.160,14.648,40.039,12.695,0
1579707608.411,8.301,13.184,39.551,5.859,0
1579707608.415,5.371,6.836,34.668,4.883,0
1579707608.419,6.348,10.254,41.504,0.488,0
1579707608.423,7.812,10.254,42.969,-2.930,0
1579707608.427,9.766,11.719,37.109,4.883,0
1579707608.429,4.883,1.953,34.668,3.906,0
1579707608.433,-0.977,-3.906,32.227,2.441,0
1579707608.437,7.812,11.719,34.180,9.277,0
1579707608.441,19.043,16.602,41.016,13.184,0
1579707608.445,7.324,12.695,38.086,5.371,0
1579707608.449,6.836,11.230,38.574,0.977,0
1579707608.453,6.348,9.766,44.434,0.488,0
1579707608.456,1.465,10.742,45.898,12.207,0
1579707608.460,0.000,10.254,41.016,9.277,0
1579707608.464,8.789,15.137,41.992,3.418,0
1579707608.468,18.066,17.578,48.340,13.184,0
1579707608.472,12.207,8.789,42.480,6.836,0
1579707608.474,5.859,6.348,42.480,8.301,0
1579707608.478,1.465,9.277,39.551,14.160,0
1579707608.482,1.953,11.230,36.133,8.301,0
1579707608.486,2.930,13.184,45.898,2.930,0
1579707608.490,-0.977,18.555,43.945,8.301,0
1579707608.494,7.324,15.625,38.574,5.371,0
