timestamps,TP9,AF7,AF8,TP10,Right AUX,Marker0
1582734946.535,-35.156,-972.168,13.672,-12.695,0.0,0
1582734946.539,-24.414,-972.168,21.973000000000006,-6.836,0.0,0
1582734946.543,-20.508000000000006,-972.168,22.461,-24.414,0.0,0
1582734946.5470002,-33.691,-972.168,24.902,-56.64100000000001,0.0,0
1582734946.551,-41.992,-972.168,36.621,-60.547,0.0,0
1582734946.555,-56.152,-972.168,39.551,-48.828,0.0,0
1582734946.559,-78.125,-972.168,41.01600000000001,-75.195,0.0,0
1582734946.562,-87.891,-972.168,56.64100000000001,-98.633,0.0,0
1582734946.566,-82.031,-972.168,81.055,-92.773,0.0,0
1582734946.57,-121.582,-972.168,84.961,-122.07,0.0,0
1582734946.574,-164.062,-972.168,93.262,-144.531,0.0,0
1582734946.5779998,-166.99200000000005,-972.168,114.258,-158.691,0.0,0
1582734946.595,-190.918,-972.168,138.184,-198.242,0.0,0
1582734946.599,-210.938,-972.168,154.785,-216.30900000000003,0.0,0
1582734946.603,-228.516,-972.168,178.71099999999996,-216.30900000000003,0.0,0
1582734946.607,-257.812,-972.168,211.914,-230.469,0.0,0
1582734946.611,-252.441,-972.168,211.426,-255.859,0.0,0
1582734946.615,-238.281,-972.168,197.266,-250.0,0.0,0
1582734946.619,-246.582,-972.168,206.055,-237.305,0.0,0
1582734946.6220002,-251.465,-972.168,212.891,-239.258,0.0,0
1582734946.6260002,-231.445,-972.168,192.383,-228.027,0.0,0
1582734946.63,-200.195,-972.168,166.99200000000005,-211.426,0.0,0
1582734946.6339998,-179.199,-971.68,152.344,-187.988,0.0,0
1582734946.6379998,-152.344,-972.168,151.855,-164.551,0.0,0
1582734946.64,-120.605,-972.168,139.648,-155.762,0.0,0
1582734946.644,-108.398,-972.168,125.977,-138.184,0.0,0
1582734946.6479998,-79.59,-972.168,129.395,-112.305,0.0,0
1582734946.6520002,-45.898,-972.168,125.977,-86.914,0.0,0
1582734946.656,-16.113,-972.168,105.469,-63.477,0.0,0
1582734946.66,13.184,-972.168,86.914,-36.133,0.0,0
1582734946.664,30.762,-972.168,89.844,-6.836,0.0,0
1582734946.667,47.852,-972.168,111.816,14.16,0.0,0
1582734946.671,61.035,-972.168,125.977,41.504,0.0,0
1582734946.675,78.125,-972.168,116.699,54.688,0.0,0
1582734946.679,93.75,-972.168,122.07,62.012,0.0,0
1582734946.6829998,97.168,-972.168,139.648,75.684,0.0,0
1582734946.685,108.887,-972.168,126.465,86.914,0.0,0
1582734946.689,124.512,-972.168,102.051,96.191,0.0,0
1582734946.6929998,124.023,-972.168,91.309,97.656,0.0,0
1582734946.697,139.648,-972.168,74.219,108.887,0.0,0
1582734946.701,158.691,-972.168,50.78100000000001,120.117,0.0,0
1582734946.705,152.832,-972.168,33.203,118.652,0.0,0
1582734946.709,150.879,-972.168,36.621,135.254,0.0,0
1582734946.712,155.762,-972.168,41.504,152.344,0.0,0
1582734946.716,169.43400000000003,-972.168,15.137,148.438,0.0,0
1582734946.72,175.78099999999995,-972.168,0.488,145.50799999999995,0.0,0
1582734946.724,164.062,-972.168,22.949,141.602,0.0,0
1582734946.728,147.94899999999996,-972.168,18.555,144.043,0.0,0
1582734946.73,165.52700000000004,-972.168,14.16,157.715,0.0,0
1582734946.734,181.641,-972.168,27.832,160.645,0.0,0
1582734946.738,170.41,-972.168,31.25,154.785,0.0,0
1582734946.742,159.668,-972.168,34.668,152.344,0.0,0
1582734946.746,155.273,-972.168,27.832,160.156,0.0,0
1582734946.75,170.898,-972.168,25.391,164.062,0.0,0
1582734946.754,177.734,-972.168,30.273000000000003,146.484,0.0,0
1582734946.7570002,164.551,-972.168,25.879,131.34799999999998,0.0,0
1582734946.7610002,157.227,-972.168,16.113,137.695,0.0,0
1582734946.765,153.32,-972.168,30.273000000000003,133.789,0.0,0
1582734946.769,142.09,-972.168,53.71100000000001,127.93,0.0,0
1582734946.7729998,133.789,-972.168,49.316,131.836,0.0,0
1582734946.775,129.395,-972.168,48.828,127.93,0.0,0
1582734946.779,117.676,-972.168,64.453,125.0,0.0,0
1582734946.783,107.422,-972.168,65.43,122.559,0.0,0
1582734946.7870002,111.328,-972.168,55.664,118.164,0.0,0
1582734946.791,108.887,-972.168,56.64100000000001,127.93,0.0,0
1582734946.795,113.281,-972.168,56.152,131.34799999999998,0.0,0
1582734946.799,122.559,-972.168,60.059,119.629,0.0,0
1582734946.802,98.633,-972.168,56.64100000000001,110.352,0.0,0
1582734946.806,102.051,-972.168,54.688,113.281,0.0,0
1582734946.81,104.98,-972.168,71.777,108.398,0.0,0
1582734946.814,94.727,-972.168,70.312,98.633,0.0,0
1582734946.8179998,85.449,-972.168,68.359,96.68,0.0,0
1582734946.82,83.49600000000002,-972.168,72.75399999999998,101.074,0.0,0
1582734946.824,100.098,-972.168,75.684,96.68,0.0,0
1582734946.8279998,100.586,-972.168,78.613,93.75,0.0,0
1582734946.832,83.49600000000002,-972.168,88.37899999999998,87.402,0.0,0
1582734946.836,71.289,-972.168,98.145,71.777,0.0,0
1582734946.84,69.824,-972.168,95.703,69.336,0.0,0
1582734946.844,66.406,-972.168,92.773,69.336,0.0,0
1582734946.847,63.965,-972.168,85.449,66.406,0.0,0
1582734946.851,63.965,-972.168,96.68,61.035,0.0,0
1582734946.855,60.547,-972.168,110.84,64.941,0.0,0
1582734946.859,52.734,-972.168,103.516,71.289,0.0,0
1582734946.863,53.71100000000001,-972.168,100.586,62.012,0.0,0
1582734946.865,54.199,-972.168,105.957,43.945,0.0,0
1582734946.869,50.293,-972.168,107.422,51.758,0.0,0
1582734946.873,52.734,-972.168,101.562,60.059,0.0,0
1582734946.877,58.594,-972.168,102.051,54.199,0.0,0
1582734946.881,54.199,-972.168,112.793,60.059,0.0,0
1582734946.885,41.504,-972.168,107.422,54.688,0.0,0
1582734946.889,43.457,-972.168,96.191,43.457,0.0,0
1582734946.8920002,58.105,-972.168,99.121,33.203,0.0,0
1582734946.896,63.477,-972.168,123.047,46.875,0.0,0
1582734946.9,55.664,-972.168,123.535,60.059,0.0,0
1582734946.904,57.617,-972.168,111.816,62.012,0.0,0
1582734946.908,63.965,-972.168,107.91,54.688,0.0,0
1582734946.91,58.594,-972.168,111.328,41.992,0.0,0
1582734946.914,57.129,-972.168,115.723,44.434,0.0,0
1582734946.918,43.457,-972.168,103.027,38.574,0.0,0
1582734946.9220002,37.598,-972.168,102.051,39.062,0.0,0
1582734946.926,39.551,-972.168,107.422,51.27,0.0,0
1582734946.93,38.086,-972.168,105.469,46.875,0.0,0
1582734946.934,33.691,-972.168,99.121,26.367,0.0,0
1582734946.937,37.109,-972.168,107.91,21.484,0.0,0
1582734946.941,43.457,-972.168,126.953,37.598,0.0,0
1582734946.945,43.457,-972.168,117.676,35.156,0.0,0
1582734946.949,51.758,-972.168,100.586,20.02,0.0,0
1582734946.9529998,43.945,-972.168,107.422,28.32,0.0,0
1582734946.97,32.715,-972.168,122.07,29.785,0.0,0
1582734946.974,40.039,-972.168,109.863,29.297,0.0,0
1582734946.978,42.969,-972.168,103.027,39.551,0.0,0
1582734946.982,31.25,-972.168,113.281,33.203,0.0,0
1582734946.986,37.598,-972.168,107.91,24.414,0.0,0
1582734946.99,41.504,-972.168,95.215,33.203,0.0,0
1582734946.994,37.598,-972.168,95.215,33.203,0.0,0
1582734946.9970002,39.062,-972.168,113.77,29.297,0.0,0
1582734947.0010002,33.203,-972.168,121.582,40.039,0.0,0
1582734947.005,33.691,-972.168,111.328,37.598,0.0,0
1582734947.0089998,40.039,-972.168,105.957,40.527,0.0,0
1582734947.0129998,40.527,-972.168,121.094,45.898,0.0,0
1582734947.015,22.949,-972.168,124.023,17.09,0.0,0
1582734947.019,29.297,-972.168,102.051,5.371,0.0,0
1582734947.0229998,31.738000000000003,-972.168,97.168,23.438,0.0,0
1582734947.0270002,13.672,-972.168,112.305,24.414,0.0,0
1582734947.031,16.602,-972.168,104.98,10.742,0.0,0
1582734947.035,14.16,-972.168,95.215,7.812,0.0,0
1582734947.039,5.371,-972.168,111.816,4.395,0.0,0
1582734947.042,17.09,-972.168,116.211,-4.395,0.0,0
1582734947.046,21.484,-972.168,111.816,-6.836,0.0,0
1582734947.05,19.531,-972.168,92.773,-3.418,0.0,0
1582734947.054,28.809,-972.168,94.238,15.625,0.0,0
1582734947.0579998,35.156,-972.168,107.91,17.09,0.0,0
1582734947.06,43.945,-972.168,95.703,14.648,0.0,0
1582734947.064,44.434,-972.168,95.703,22.461,0.0,0
1582734947.0679998,37.598,-972.168,98.633,27.832,0.0,0
1582734947.072,53.223,-972.168,102.051,31.738000000000003,0.0,0
1582734947.076,54.688,-972.168,95.703,40.039,0.0,0
1582734947.08,37.109,-972.168,82.52,43.457,0.0,0
1582734947.084,47.852,-972.168,82.52,37.598,0.0,0
1582734947.087,49.805,-972.168,96.191,31.738000000000003,0.0,0
1582734947.091,35.645,-972.168,87.891,32.227,0.0,0
1582734947.095,36.621,-972.168,81.055,29.785,0.0,0
1582734947.099,37.598,-972.168,105.469,27.344,0.0,0
1582734947.103,41.504,-972.168,106.934,39.062,0.0,0
1582734947.105,42.48,-972.168,101.074,39.551,0.0,0
1582734947.109,33.203,-972.168,100.098,21.484,0.0,0
1582734947.113,30.762,-972.168,99.609,6.836,0.0,0
1582734947.117,34.18,-972.168,94.727,15.625,0.0,0
1582734947.121,38.574,-972.168,95.215,29.297,0.0,0
1582734947.125,37.598,-972.168,85.93799999999997,30.762,0.0,0
1582734947.129,29.785,-972.168,84.961,29.297,0.0,0
1582734947.1320002,34.18,-972.168,100.586,30.273000000000003,0.0,0
1582734947.1360002,35.645,-972.168,81.543,27.832,0.0,0
1582734947.14,38.574,-972.168,90.82,32.715,0.0,0
1582734947.144,41.01600000000001,-972.168,105.469,34.18,0.0,0
1582734947.1479998,37.109,-972.168,89.355,30.273000000000003,0.0,0
1582734947.15,21.973000000000006,-972.168,88.867,29.785,0.0,0
1582734947.154,22.949,-972.168,94.727,24.414,0.0,0
1582734947.158,43.945,-972.168,99.121,42.48,0.0,0
1582734947.1620002,45.898,-972.168,93.75,50.78100000000001,0.0,0
1582734947.166,23.926,-972.168,95.215,25.879,0.0,0
1582734947.17,4.395,-972.168,103.027,12.207,0.0,0
1582734947.174,-1.953,-972.168,116.211,6.348,0.0,0
1582734947.177,13.184,-972.168,115.234,0.977,0.0,0
1582734947.181,18.555,-972.168,103.516,3.418,0.0,0
1582734947.185,-4.883,-972.168,125.0,2.93,0.0,0
1582734947.189,-2.93,-972.168,126.953,-6.836,0.0,0
1582734947.1929998,-0.977,-972.168,107.422,-5.371,0.0,0
1582734947.195,4.395,-972.168,96.191,6.348,0.0,0
1582734947.199,20.508000000000006,-972.168,47.363,24.902,0.0,0
1582734947.2029998,22.949,-972.168,-26.367,32.227,0.0,0
1582734947.207,25.391,-972.168,-91.309,24.414,0.0,0
1582734947.211,23.438,-972.168,-133.30100000000002,20.996,0.0,0
1582734947.215,13.184,-972.168,-151.36700000000005,30.273000000000003,0.0,0
1582734947.219,17.578,-972.168,-170.898,30.762,0.0,0
1582734947.222,38.574,-972.168,-199.219,11.23,0.0,0
1582734947.226,32.227,-972.168,-195.312,11.719,0.0,0
1582734947.23,15.625,-972.168,-174.805,25.879,0.0,0
1582734947.234,12.207,-972.168,-184.57,28.809,0.0,0
1582734947.238,13.184,-972.168,-189.453,28.32,0.0,0
1582734947.24,21.973000000000006,-972.168,-177.734,26.367,0.0,0
1582734947.244,20.02,-972.168,-177.24599999999995,20.508000000000006,0.0,0
1582734947.248,8.301,-972.168,-188.477,27.832,0.0,0
1582734947.252,12.207,-972.168,-177.734,38.086,0.0,0
1582734947.256,14.648,-972.168,-161.13299999999995,21.973000000000006,0.0,0
1582734947.26,20.996,-972.168,-172.363,17.09,0.0,0
1582734947.264,22.949,-972.168,-171.875,23.438,0.0,0
1582734947.2670002,12.207,-972.168,-165.03900000000004,11.23,0.0,0
1582734947.271,10.254,-972.168,-140.625,14.16,0.0,0
1582734947.275,23.926,-972.168,-121.582,33.691,0.0,0
1582734947.279,43.945,-972.168,-124.023,35.645,0.0,0
1582734947.283,44.922,-972.168,-123.535,19.531,0.0,0
1582734947.285,23.438,-972.168,-107.91,24.414,0.0,0
1582734947.289,23.438,-972.168,-92.285,34.18,0.0,0
1582734947.293,48.34,-972.168,-92.773,44.922,0.0,0
1582734947.2970002,32.227,-972.168,-91.309,42.969,0.0,0
1582734947.301,17.09,-972.168,-72.75399999999998,29.297,0.0,0
1582734947.305,25.879,-972.168,-63.477,43.457,0.0,0
1582734947.309,26.367,-972.168,-76.172,48.34,0.0,0
1582734947.312,32.715,-972.168,-58.594,46.875,0.0,0
1582734947.316,31.25,-972.168,-25.879,39.551,0.0,0
1582734947.32,32.715,-972.168,-20.02,36.621,0.0,0
1582734947.324,34.18,-972.168,-20.02,42.48,0.0,0
1582734947.3279998,25.879,-972.168,0.0,39.551,0.0,0
1582734947.345,30.762,-972.168,7.812,41.992,0.0,0
1582734947.349,27.832,-972.168,3.906,48.34,0.0,0
1582734947.353,29.785,-972.168,-0.977,32.227,0.0,0
1582734947.357,30.273000000000003,-972.168,5.859,22.949,0.0,0
1582734947.361,16.602,-972.168,16.602,30.762,0.0,0
1582734947.365,20.508000000000006,-972.168,-9.277,29.297,0.0,0
1582734947.369,31.738000000000003,-972.168,-9.277,22.461,0.0,0
1582734947.3720002,29.785,-972.168,20.996,23.438,0.0,0
1582734947.3760002,24.902,-972.168,19.043,24.902,0.0,0
1582734947.38,22.461,-972.168,16.113,28.809,0.0,0
1582734947.3839998,27.832,-972.168,21.484,32.715,0.0,0
1582734947.3879998,34.18,-972.168,24.902,24.902,0.0,0
1582734947.39,27.344,-972.168,23.438,14.648,0.0,0
1582734947.394,20.02,-972.168,20.02,12.695,0.0,0
1582734947.3979998,23.926,-972.168,26.855,18.066,0.0,0
1582734947.4020002,26.367,-972.168,38.086,26.855,0.0,0
1582734947.406,25.391,-972.168,36.133,22.949,0.0,0
1582734947.41,10.254,-972.168,33.691,11.23,0.0,0
1582734947.414,1.953,-972.168,40.039,12.695,0.0,0
1582734947.417,8.789,-972.168,55.176,13.672,0.0,0
1582734947.421,12.207,-972.168,46.875,14.16,0.0,0
1582734947.425,19.531,-972.168,15.625,15.625,0.0,0
1582734947.429,26.855,-972.168,37.109,16.113,0.0,0
1582734947.4329998,25.391,-972.168,68.848,26.855,0.0,0
1582734947.435,23.926,-972.168,66.895,38.086,0.0,0
1582734947.439,31.25,-972.168,62.5,40.039,0.0,0
1582734947.4429998,38.086,-972.168,52.734,37.109,0.0,0
1582734947.447,38.086,-972.168,48.34,31.25,0.0,0
1582734947.451,34.668,-972.168,56.152,41.504,0.0,0
1582734947.455,29.297,-972.168,43.945,43.945,0.0,0
1582734947.459,30.762,-972.168,53.71100000000001,28.809,0.0,0
1582734947.462,32.227,-972.168,83.008,33.691,0.0,0
1582734947.466,38.574,-972.168,58.594,35.156,0.0,0
1582734947.47,33.203,-972.168,36.133,23.926,0.0,0
1582734947.474,19.043,-972.168,74.707,33.691,0.0,0
1582734947.478,26.855,-972.168,77.148,40.527,0.0,0
1582734947.48,36.621,-972.168,56.152,25.391,0.0,0
1582734947.484,36.133,-972.168,63.477,26.367,0.0,0
1582734947.488,29.785,-972.168,60.059,31.738000000000003,0.0,0
1582734947.492,19.531,-972.168,50.78100000000001,31.25,0.0,0
1582734947.496,35.156,-972.168,52.734,42.969,0.0,0
1582734947.5,28.809,-972.168,51.27,38.574,0.0,0
1582734947.504,17.09,-972.168,42.969,21.973000000000006,0.0,0
1582734947.5070002,35.156,-972.168,50.293,25.391,0.0,0
1582734947.5110002,41.01600000000001,-972.168,36.133,42.48,0.0,0
1582734947.515,47.363,-972.168,32.227,51.27,0.0,0
1582734947.519,53.223,-972.168,39.551,54.199,0.0,0
1582734947.5229998,57.129,-972.168,12.695,64.453,0.0,0
1582734947.525,59.57,-972.168,18.555,71.777,0.0,0
1582734947.529,64.453,-972.168,31.25,74.219,0.0,0
1582734947.533,69.336,-972.168,27.832,69.824,0.0,0
1582734947.5370002,71.289,-972.168,13.672,66.406,0.0,0
1582734947.541,71.777,-972.168,4.883,65.918,0.0,0
1582734947.545,63.965,-972.168,8.301,62.012,0.0,0
1582734947.549,75.195,-972.168,21.973000000000006,60.547,0.0,0
1582734947.552,58.594,-972.168,26.367,55.664,0.0,0
1582734947.556,38.574,-972.168,20.508000000000006,54.199,0.0,0
1582734947.56,43.457,-972.168,44.922,59.57,0.0,0
1582734947.564,44.922,-972.168,50.78100000000001,61.523,0.0,0
1582734947.5679998,47.363,-972.168,39.551,61.523,0.0,0
1582734947.571,45.41,-972.168,41.504,65.918,0.0,0
1582734947.575,38.086,-972.168,56.152,62.988,0.0,0
1582734947.579,41.504,-972.168,58.105,59.57,0.0,0
1582734947.583,43.945,-972.168,43.457,49.316,0.0,0
1582734947.587,41.992,-972.168,38.574,48.828,0.0,0
1582734947.591,51.758,-972.168,29.785,49.805,0.0,0
1582734947.595,52.246,-972.168,41.504,49.316,0.0,0
1582734947.5979998,42.48,-972.168,34.18,50.78100000000001,0.0,0
1582734947.6020002,35.645,-972.168,43.945,42.969,0.0,0
1582734947.606,34.668,-972.168,83.008,49.316,0.0,0
1582734947.61,43.945,-972.168,66.406,50.293,0.0,0
1582734947.6139998,45.41,-972.168,55.664,43.457,0.0,0
1582734947.615,36.133,-972.168,66.406,39.062,0.0,0
1582734947.619,32.715,-972.168,70.312,33.691,0.0,0
1582734947.623,28.32,-972.168,68.359,38.086,0.0,0
1582734947.627,28.32,-972.168,79.102,40.527,0.0,0
1582734947.631,37.598,-972.168,100.098,40.039,0.0,0
1582734947.635,37.598,-972.168,103.027,36.621,0.0,0
1582734947.639,33.691,-972.168,114.746,37.109,0.0,0
1582734947.6420002,33.691,-972.168,139.16,44.922,0.0,0
1582734947.646,27.832,-972.168,181.152,34.668,0.0,0
1582734947.65,26.855,-972.168,200.68400000000003,36.133,0.0,0
1582734947.654,26.855,-972.168,186.523,36.133,0.0,2
1582734947.658,23.926,-972.168,188.477,35.156,0.0,0
1582734947.66,26.855,-972.168,212.891,35.645,0.0,0
1582734947.664,29.785,-972.168,214.844,33.691,0.0,0
1582734947.668,30.762,-972.168,221.191,37.598,0.0,0
1582734947.6720002,27.832,-972.168,230.957,35.156,0.0,0
1582734947.676,31.25,-972.168,230.469,39.062,0.0,0
1582734947.68,20.996,-972.168,232.91,37.598,0.0,0
1582734947.684,10.742,-972.168,222.168,38.086,0.0,0
1582734947.687,16.602,-972.168,239.258,30.762,0.0,0
1582734947.691,34.18,-972.168,275.879,29.785,0.0,0
1582734947.695,37.109,-972.168,266.60200000000003,34.18,0.0,0
1582734947.699,12.207,-972.168,251.953,25.391,0.0,0
1582734947.7029998,16.602,-972.168,269.531,40.527,0.0,0
1582734947.72,34.668,-972.168,287.598,43.457,0.0,0
1582734947.724,31.25,-972.168,259.766,17.578,0.0,0
1582734947.728,18.555,-972.168,245.117,21.973000000000006,0.0,0
1582734947.732,17.09,-972.168,262.207,18.066,0.0,0
1582734947.736,28.32,-972.168,257.812,14.16,0.0,0
1582734947.74,28.809,-972.168,230.957,28.32,0.0,0
1582734947.744,26.855,-972.168,225.586,23.926,0.0,0
1582734947.7470002,30.762,-972.168,252.441,23.438,0.0,0
1582734947.7510002,30.762,-972.168,251.465,32.227,0.0,0
1582734947.755,29.297,-972.168,226.562,27.832,0.0,0
1582734947.7589998,31.25,-972.168,223.633,25.879,0.0,0
1582734947.7629998,21.973000000000006,-972.168,232.91,31.738000000000003,0.0,0
1582734947.765,15.137,-972.168,224.609,29.785,0.0,0
1582734947.769,17.09,-972.168,208.984,31.25,0.0,0
1582734947.7729998,25.391,-972.168,210.938,44.434,0.0,0
1582734947.7770002,39.062,-972.168,219.238,44.434,0.0,0
1582734947.781,39.551,-972.168,197.266,33.203,0.0,0
1582734947.785,32.715,-972.168,191.895,44.922,0.0,0
1582734947.789,41.01600000000001,-972.168,207.52,50.78100000000001,0.0,0
1582734947.792,43.457,-972.168,210.938,38.086,0.0,0
1582734947.796,27.344,-972.168,208.008,37.109,0.0,0
1582734947.8,20.02,-972.168,174.805,26.855,0.0,0
1582734947.804,28.32,-972.168,185.547,14.16,0.0,0
1582734947.8079998,26.855,-972.168,210.938,19.043,0.0,0
1582734947.81,31.738000000000003,-972.168,186.523,25.879,0.0,0
1582734947.814,36.621,-972.168,178.22299999999996,29.297,0.0,0
1582734947.8179998,28.809,-972.168,182.617,26.367,0.0,0
1582734947.822,22.461,-972.168,169.922,15.137,0.0,0
1582734947.826,18.066,-972.168,146.484,18.066,0.0,0
1582734947.83,22.949,-972.168,129.88299999999998,23.926,0.0,0
1582734947.834,38.086,-972.168,150.391,18.555,0.0,0
1582734947.837,33.691,-972.168,184.082,20.996,0.0,0
1582734947.841,28.809,-972.168,203.613,25.879,0.0,0
1582734947.845,39.551,-972.168,234.863,27.344,0.0,0
1582734947.849,32.715,-972.168,291.992,24.902,0.0,0
1582734947.853,31.738000000000003,-972.168,300.293,31.738000000000003,0.0,0
1582734947.855,33.691,-972.168,287.1090000000001,33.691,0.0,0
1582734947.859,29.297,-972.168,300.781,19.531,0.0,0
1582734947.863,19.043,-972.168,312.5,19.043,0.0,0
1582734947.867,4.883,-972.168,315.43,20.996,0.0,0
1582734947.871,23.926,-972.168,323.73,10.742,0.0,0
1582734947.875,37.109,-972.168,320.801,14.16,0.0,0
1582734947.879,23.926,-972.168,334.473,20.996,0.0,0
1582734947.8820002,16.602,-972.168,360.352,16.602,0.0,0
1582734947.8860002,20.996,-972.168,317.383,7.324,0.0,0
1582734947.89,20.508000000000006,-972.168,324.219,12.695,0.0,0
1582734947.894,12.207,-972.168,361.328,26.855,0.0,0
1582734947.8979998,26.367,-972.168,333.496,23.438,0.0,0
1582734947.9,34.18,-972.168,337.891,11.23,0.0,0
1582734947.904,17.09,-972.168,342.285,15.137,0.0,0
1582734947.908,15.625,-972.168,323.242,22.461,0.0,0
1582734947.9120002,33.203,-972.168,310.059,22.949,0.0,0
1582734947.916,27.832,-972.168,307.129,13.672,0.0,0
1582734947.92,15.625,-972.168,302.7340000000001,8.789,0.0,0
1582734947.924,22.949,-972.168,308.105,17.578,0.0,0
1582734947.927,28.32,-972.168,300.293,26.855,0.0,0
1582734947.931,33.691,-972.168,276.855,26.855,0.0,0
1582734947.935,31.25,-972.168,313.965,26.855,0.0,0
1582734947.939,25.391,-972.168,305.176,33.203,0.0,0
1582734947.9429998,24.414,-972.168,269.531,32.715,0.0,0
1582734947.945,19.531,-972.168,293.945,40.527,0.0,0
1582734947.949,10.742,-972.168,273.438,40.527,0.0,0
1582734947.9529998,8.301,-972.168,257.324,38.574,0.0,0
1582734947.957,4.395,-972.168,269.531,43.945,0.0,0
1582734947.961,22.461,-972.168,250.488,30.762,0.0,0
1582734947.965,33.203,-972.168,235.352,26.367,0.0,0
1582734947.969,18.066,-972.168,239.746,23.926,0.0,0
1582734947.972,21.973000000000006,-972.168,218.75,23.438,0.0,0
1582734947.976,30.273000000000003,-972.168,224.609,30.762,0.0,0
1582734947.98,13.672,-972.168,244.141,21.484,0.0,0
1582734947.984,13.672,-972.168,211.914,17.09,0.0,0
1582734947.988,22.461,-972.168,211.426,17.578,0.0,0
1582734947.99,15.625,-972.168,219.727,15.137,0.0,0
1582734947.994,10.742,-972.168,221.68,19.531,0.0,0
1582734947.998,10.742,-972.168,214.355,20.508000000000006,0.0,0
1582734948.002,13.184,-972.168,199.707,20.508000000000006,0.0,0
1582734948.006,16.602,-972.168,194.336,29.297,0.0,0
1582734948.01,27.832,-972.168,192.871,33.203,0.0,0
1582734948.014,43.457,-972.168,185.05900000000003,20.508000000000006,0.0,0
1582734948.0170002,44.434,-972.168,179.688,18.555,0.0,0
1582734948.021,35.645,-972.168,209.473,26.367,0.0,0
1582734948.025,31.25,-972.168,208.008,26.367,0.0,0
1582734948.029,23.438,-972.168,187.012,35.156,0.0,0
1582734948.033,30.273000000000003,-972.168,177.24599999999995,34.668,0.0,0
1582734948.035,45.41,-972.168,183.594,20.02,0.0,0
1582734948.039,40.039,-972.168,182.617,19.043,0.0,0
1582734948.043,26.855,-972.168,166.99200000000005,26.367,0.0,0
1582734948.0470002,20.508000000000006,-972.168,164.062,21.973000000000006,0.0,0
1582734948.051,18.555,-972.168,161.621,16.113,0.0,0
1582734948.055,27.344,-972.168,166.50400000000005,28.32,0.0,0
1582734948.059,27.832,-972.168,138.672,26.367,0.0,0
1582734948.062,15.625,-972.168,128.418,21.973000000000006,0.0,0
1582734948.066,20.508000000000006,-972.168,167.96900000000005,24.902,0.0,0
1582734948.07,24.414,-972.168,174.805,24.902,0.0,0
1582734948.074,22.461,-972.168,165.52700000000004,28.809,0.0,0
1582734948.0779998,26.855,-972.168,169.43400000000003,31.738000000000003,0.0,0
1582734948.095,31.738000000000003,-972.168,168.945,30.273000000000003,0.0,0
1582734948.099,31.738000000000003,-972.168,146.97299999999996,34.18,0.0,0
1582734948.103,29.297,-972.168,133.30100000000002,40.039,0.0,0
1582734948.107,22.949,-972.168,142.578,31.25,0.0,0
1582734948.111,28.809,-972.168,156.738,22.461,0.0,0
1582734948.115,29.297,-972.168,125.0,25.879,0.0,0
1582734948.119,29.785,-972.168,110.84,22.461,0.0,0
1582734948.1220002,30.273000000000003,-972.168,157.227,20.02,0.0,0
1582734948.1260002,22.461,-972.168,151.855,17.578,0.0,0
1582734948.13,28.809,-972.168,134.766,21.484,0.0,0
1582734948.1339998,41.01600000000001,-972.168,128.906,22.949,0.0,0
1582734948.1379998,42.969,-972.168,130.371,32.715,0.0,0
1582734948.14,25.879,-972.168,135.74200000000002,29.785,0.0,0
1582734948.144,23.926,-972.168,131.34799999999998,17.09,0.0,0
1582734948.1479998,28.32,-972.168,144.531,30.762,0.0,0
1582734948.1520002,17.578,-972.168,150.391,39.551,0.0,0
1582734948.156,25.879,-972.168,128.418,29.785,0.0,0
1582734948.16,28.32,-972.168,105.957,23.926,0.0,0
1582734948.164,19.531,-972.168,123.535,25.391,0.0,0
1582734948.167,33.691,-972.168,146.97299999999996,44.922,0.0,0
1582734948.171,30.762,-972.168,145.50799999999995,40.039,0.0,0
1582734948.175,29.785,-972.168,106.445,22.461,0.0,0
1582734948.179,30.762,-972.168,102.051,23.438,0.0,0
1582734948.1829998,17.578,-972.168,135.74200000000002,27.832,0.0,0
1582734948.185,37.109,-972.168,125.977,26.367,0.0,0
1582734948.189,41.504,-972.168,90.82,18.555,0.0,0
1582734948.1929998,29.297,-972.168,96.68,28.809,0.0,0
1582734948.197,21.973000000000006,-972.168,129.88299999999998,30.273000000000003,0.0,0
1582734948.201,23.438,-972.168,111.328,24.414,0.0,0
1582734948.205,21.484,-972.168,94.238,24.414,0.0,0
1582734948.209,17.578,-972.168,120.117,30.273000000000003,0.0,0
1582734948.212,25.879,-972.168,147.94899999999996,35.156,0.0,0
1582734948.216,34.18,-972.168,118.164,33.691,0.0,0
1582734948.22,21.484,-972.168,93.75,27.344,0.0,0
1582734948.224,18.555,-972.168,132.32399999999998,17.09,0.0,0
1582734948.228,24.414,-972.168,137.695,20.508000000000006,0.0,0
1582734948.23,23.438,-972.168,119.629,32.227,0.0,0
1582734948.234,33.203,-972.168,111.816,23.438,0.0,0
1582734948.238,30.273000000000003,-972.168,112.305,20.02,0.0,0
1582734948.242,22.461,-972.168,114.746,26.367,0.0,0
1582734948.246,30.273000000000003,-972.168,105.957,22.949,0.0,0
1582734948.25,39.062,-972.168,104.492,24.902,0.0,0
1582734948.254,31.738000000000003,-972.168,120.117,26.855,0.0,0
1582734948.2570002,27.832,-972.168,134.27700000000002,28.32,0.0,0
1582734948.2610002,33.203,-972.168,106.445,33.691,0.0,0
1582734948.265,27.344,-972.168,108.398,32.227,0.0,0
1582734948.269,21.484,-972.168,134.27700000000002,21.484,0.0,0
1582734948.2729998,22.949,-972.168,118.164,24.902,0.0,0
1582734948.275,23.926,-972.168,120.117,40.527,0.0,0
1582734948.279,25.391,-972.168,133.789,38.086,0.0,0
1582734948.283,30.762,-972.168,129.395,22.461,0.0,0
1582734948.2870002,35.645,-972.168,111.816,29.297,0.0,0
1582734948.291,34.18,-972.168,102.539,35.156,0.0,0
1582734948.295,37.109,-972.168,105.469,25.391,0.0,0
1582734948.299,25.879,-972.168,117.188,25.391,0.0,0
1582734948.302,17.578,-972.168,116.699,29.785,0.0,0
1582734948.306,32.227,-972.168,93.262,23.926,0.0,0
1582734948.31,33.203,-972.168,105.957,20.508000000000006,0.0,0
1582734948.314,17.578,-972.168,117.188,21.484,0.0,0
1582734948.3179998,3.906,-972.168,104.492,15.137,0.0,0
1582734948.32,8.301,-972.168,108.887,12.695,0.0,0
1582734948.324,25.391,-972.168,114.746,19.531,0.0,0
1582734948.3279998,33.203,-972.168,101.074,16.602,0.0,0
1582734948.332,29.297,-972.168,98.145,16.113,0.0,0
1582734948.336,15.137,-972.168,102.539,18.066,0.0,0
1582734948.34,7.324,-972.168,86.426,20.996,0.0,0
1582734948.344,17.09,-972.168,96.68,30.762,0.0,0
1582734948.347,20.02,-972.168,83.984,27.344,0.0,0
1582734948.351,19.043,-972.168,83.984,14.16,0.0,0
1582734948.355,21.484,-972.168,130.371,21.484,0.0,0
1582734948.359,22.461,-972.168,92.285,33.691,0.0,0
1582734948.363,19.043,-972.168,78.613,24.902,0.0,0
1582734948.365,12.207,-972.168,113.281,8.301,0.0,0
1582734948.369,0.977,-972.168,112.793,18.555,0.0,0
1582734948.373,2.441,-972.168,104.492,31.738000000000003,0.0,0
1582734948.377,23.438,-972.168,97.656,19.043,0.0,0
1582734948.381,22.461,-972.168,100.098,7.324,0.0,0
1582734948.385,9.766,-972.168,90.332,10.742,0.0,0
1582734948.389,2.441,-972.168,74.219,7.812,0.0,0
1582734948.3920002,13.184,-972.168,69.824,-2.93,0.0,0
1582734948.396,27.832,-972.168,97.656,-3.418,0.0,0
1582734948.4,23.438,-972.168,104.492,10.742,0.0,0
1582734948.404,12.695,-972.168,90.332,16.113,0.0,0
1582734948.408,11.23,-972.168,99.609,11.23,0.0,0
1582734948.41,19.043,-972.168,109.863,9.766,0.0,0
1582734948.414,18.066,-972.168,90.82,10.742,0.0,0
1582734948.418,24.414,-972.168,86.426,17.578,0.0,0
1582734948.4220002,30.762,-972.168,107.422,22.949,0.0,0
1582734948.426,22.461,-972.168,102.539,18.555,0.0,0
1582734948.43,23.438,-972.168,97.656,18.555,0.0,0
1582734948.434,21.484,-972.168,79.59,17.09,0.0,0
1582734948.437,6.348,-972.168,89.355,11.719,0.0,0
1582734948.441,4.883,-972.168,135.254,12.207,0.0,0
1582734948.445,16.113,-972.168,130.859,15.625,0.0,0
1582734948.449,21.973000000000006,-972.168,111.816,15.137,0.0,0
1582734948.4529998,27.832,-972.168,110.352,13.672,0.0,0
1582734948.455,32.715,-972.168,116.699,20.996,0.0,0
1582734948.459,34.18,-972.168,103.027,28.32,0.0,0
1582734948.4629998,34.668,-972.168,80.566,22.461,0.0,0
1582734948.467,29.785,-972.168,85.449,23.926,0.0,0
1582734948.471,27.832,-972.168,88.37899999999998,29.785,0.0,0
1582734948.475,33.203,-972.168,88.867,33.691,0.0,0
1582734948.479,43.457,-972.168,80.078,28.32,0.0,0
1582734948.482,41.504,-972.168,99.121,19.531,0.0,0
1582734948.486,35.156,-972.168,119.629,26.367,0.0,0
1582734948.49,35.156,-972.168,94.238,30.762,0.0,0
1582734948.494,32.715,-972.168,97.656,30.762,0.0,0
1582734948.498,39.062,-972.168,111.328,25.391,0.0,0
1582734948.515,45.41,-972.168,104.004,22.949,0.0,0
1582734948.519,38.086,-972.168,102.051,17.09,0.0,0
1582734948.5229998,27.832,-972.168,99.121,10.254,0.0,0
1582734948.5270002,32.715,-972.168,97.656,20.02,0.0,0
1582734948.531,48.34,-972.168,109.375,36.621,0.0,0
1582734948.535,42.969,-972.168,105.957,33.691,0.0,0
1582734948.539,25.879,-972.168,105.957,10.254,0.0,0
1582734948.542,23.926,-972.168,116.699,5.859,0.0,0
1582734948.546,27.832,-972.168,114.746,15.625,0.0,0
1582734948.55,20.508000000000006,-972.168,102.051,24.414,0.0,0
1582734948.554,14.16,-972.168,114.258,23.926,0.0,0
1582734948.5579998,19.043,-972.168,128.418,12.695,0.0,0
1582734948.56,10.254,-972.168,113.281,7.324,0.0,0
1582734948.564,6.836,-972.168,107.91,14.16,0.0,0
1582734948.5679998,14.648,-972.168,106.445,22.949,0.0,0
1582734948.572,11.719,-972.168,107.422,16.602,0.0,0
1582734948.576,17.578,-972.168,103.516,8.789,0.0,0
1582734948.58,22.461,-972.168,85.449,16.113,0.0,0
1582734948.584,20.02,-972.168,82.52,14.648,0.0,0
1582734948.587,23.438,-972.168,102.539,18.066,0.0,0
1582734948.591,38.086,-972.168,92.285,31.25,0.0,0
1582734948.595,34.18,-972.168,74.219,30.273000000000003,0.0,0
1582734948.599,23.926,-972.168,104.492,21.484,0.0,0
1582734948.603,28.32,-972.168,109.375,23.926,0.0,0
1582734948.605,30.762,-972.168,97.168,25.879,0.0,0
1582734948.609,37.109,-972.168,96.191,22.949,0.0,0
1582734948.613,38.574,-972.168,100.098,14.648,0.0,0
1582734948.617,37.109,-972.168,97.168,12.207,0.0,0
1582734948.621,29.785,-972.168,86.914,15.137,0.0,0
1582734948.625,21.484,-972.168,81.055,23.438,0.0,0
1582734948.629,20.02,-972.168,92.773,27.344,0.0,0
1582734948.6320002,17.578,-972.168,109.375,24.902,0.0,0
1582734948.6360002,11.23,-972.168,79.102,40.039,0.0,0
1582734948.64,7.812,-972.168,83.49600000000002,37.598,0.0,0
1582734948.644,14.648,-972.168,119.141,27.832,0.0,0
1582734948.6479998,20.996,-972.168,103.516,23.926,0.0,0
1582734948.65,20.508000000000006,-972.168,103.027,20.996,0.0,0
1582734948.654,28.32,-972.168,107.422,21.484,0.0,0
1582734948.658,29.297,-972.168,103.027,26.367,0.0,0
1582734948.6620002,24.414,-972.168,97.656,31.738000000000003,0.0,0
1582734948.666,21.484,-972.168,95.703,22.461,0.0,0
1582734948.67,16.602,-972.168,96.191,14.16,0.0,0
1582734948.674,14.648,-972.168,92.773,17.09,0.0,0
1582734948.677,15.625,-972.168,83.008,25.879,0.0,0
1582734948.681,21.973000000000006,-972.168,69.336,27.832,0.0,0
1582734948.685,18.066,-972.168,103.516,23.926,0.0,0
1582734948.689,15.625,-972.168,104.492,24.902,0.0,0
1582734948.6929998,29.785,-972.168,80.566,17.578,0.0,0
1582734948.695,42.48,-972.168,82.52,17.578,0.0,0
1582734948.699,31.738000000000003,-972.168,92.285,23.438,0.0,0
1582734948.7029998,20.996,-972.168,93.75,30.273000000000003,0.0,0
1582734948.707,20.996,-972.168,92.773,32.227,0.0,0
1582734948.711,15.625,-972.168,90.82,23.926,0.0,0
1582734948.715,23.926,-972.168,85.93799999999997,21.484,0.0,0
1582734948.719,28.32,-972.168,93.75,20.508000000000006,0.0,0
1582734948.722,16.113,-972.168,84.961,18.555,0.0,0
1582734948.726,10.254,-972.168,100.098,17.09,0.0,0
1582734948.73,10.254,-972.168,133.30100000000002,10.742,0.0,0
1582734948.734,13.184,-972.168,100.586,8.301,0.0,0
1582734948.738,17.578,-972.168,89.355,12.695,0.0,0
1582734948.74,24.902,-972.168,110.352,26.367,0.0,0
1582734948.744,26.855,-972.168,101.562,30.762,0.0,0
1582734948.748,20.996,-972.168,79.102,24.902,0.0,0
1582734948.752,23.438,-972.168,84.473,34.668,0.0,0
1582734948.756,29.785,-972.168,92.285,39.062,0.0,0
1582734948.76,27.832,-972.168,79.102,36.133,0.0,0
1582734948.764,24.414,-972.168,67.87100000000001,36.133,0.0,0
1582734948.7670002,31.25,-972.168,70.312,24.414,0.0,0
1582734948.771,36.133,-972.168,115.234,26.367,0.0,0
1582734948.775,28.32,-972.168,127.441,34.18,0.0,0
1582734948.779,26.367,-972.168,93.75,32.227,0.0,0
1582734948.783,21.484,-972.168,88.867,26.855,0.0,0
1582734948.785,16.602,-972.168,107.422,20.996,0.0,0
1582734948.789,22.461,-972.168,106.934,23.926,0.0,0
1582734948.793,20.996,-972.168,92.285,20.508000000000006,0.0,0
1582734948.7970002,18.555,-972.168,87.891,20.02,0.0,0
1582734948.801,23.926,-972.168,97.168,11.23,0.0,0
1582734948.805,33.203,-972.168,88.37899999999998,11.23,0.0,0
1582734948.809,39.551,-972.168,51.758,22.461,0.0,0
1582734948.812,32.715,-972.168,69.824,24.414,0.0,0
1582734948.816,34.18,-972.168,108.398,24.414,0.0,1
1582734948.82,31.738000000000003,-972.168,94.238,23.926,0.0,0
1582734948.824,26.367,-972.168,83.49600000000002,17.578,0.0,0
1582734948.8279998,30.762,-972.168,81.543,9.277,0.0,0
1582734948.83,39.551,-972.168,92.773,17.578,0.0,0
1582734948.834,41.01600000000001,-972.168,87.891,31.738000000000003,0.0,0
1582734948.8379998,32.227,-972.168,75.195,21.973000000000006,0.0,0
1582734948.842,31.25,-972.168,102.051,21.484,0.0,0
1582734948.846,35.156,-972.168,99.121,27.344,0.0,0
1582734948.85,37.109,-972.168,68.848,21.484,0.0,0
1582734948.854,28.32,-972.168,65.43,17.578,0.0,0
1582734948.857,24.414,-972.168,104.492,10.742,0.0,0
1582734948.861,22.461,-972.168,107.91,10.254,0.0,0
1582734948.865,21.484,-972.168,84.961,21.973000000000006,0.0,0
1582734948.869,30.762,-972.168,88.867,23.926,0.0,0
1582734948.873,36.133,-972.168,102.539,23.438,0.0,0
1582734948.89,35.156,-972.168,97.656,24.902,0.0,0
1582734948.894,30.273000000000003,-972.168,71.777,20.02,0.0,0
1582734948.8979998,24.414,-972.168,82.031,19.531,0.0,0
1582734948.9020002,28.809,-971.68,100.098,21.973000000000006,0.0,0
1582734948.906,30.273000000000003,-972.168,80.078,13.184,0.0,0
1582734948.91,21.973000000000006,-972.168,63.965,9.277,0.0,0
1582734948.914,15.625,-972.168,78.125,21.973000000000006,0.0,0
1582734948.917,13.672,-972.168,102.051,24.902,0.0,0
1582734948.921,23.438,-972.168,99.121,17.578,0.0,0
1582734948.925,23.926,-972.168,64.941,11.719,0.0,0
1582734948.929,17.09,-972.168,76.172,18.555,0.0,0
1582734948.9329998,16.113,-972.168,95.215,25.391,0.0,0
1582734948.935,10.742,-972.168,80.566,25.879,0.0,0
1582734948.939,8.789,-972.168,68.359,21.484,0.0,0
1582734948.9429998,14.648,-972.168,76.172,18.555,0.0,0
1582734948.947,20.996,-972.168,78.125,24.414,0.0,0
1582734948.951,25.391,-972.168,66.406,30.762,0.0,0
1582734948.955,23.926,-972.168,63.477,25.879,0.0,0
1582734948.959,24.414,-972.168,65.918,16.113,0.0,0
1582734948.962,20.508000000000006,-972.168,86.426,18.066,0.0,0
1582734948.966,25.879,-972.168,66.406,17.09,0.0,0
1582734948.97,26.367,-972.168,50.78100000000001,15.625,0.0,0
1582734948.974,18.066,-972.168,90.332,20.996,0.0,0
1582734948.978,18.066,-971.68,83.008,17.09,0.0,0
1582734948.98,16.113,-972.168,64.453,15.137,0.0,0
1582734948.984,11.719,-972.168,83.984,24.414,0.0,0
1582734948.988,25.391,-972.168,96.191,28.809,0.0,0
1582734948.992,39.062,-972.168,88.867,34.668,0.0,0
1582734948.996,30.762,-972.168,77.148,30.762,0.0,0
1582734949.0,27.832,-972.168,63.477,25.879,0.0,0
1582734949.004,20.996,-972.168,74.219,21.484,0.0,0
1582734949.0070002,15.137,-972.168,90.82,20.508000000000006,0.0,0
1582734949.0110002,21.484,-972.168,56.64100000000001,21.973000000000006,0.0,0
1582734949.015,23.438,-972.168,66.895,19.531,0.0,0
1582734949.019,15.137,-972.168,107.91,28.32,0.0,0
1582734949.0229998,15.137,-972.168,84.961,34.18,0.0,0
1582734949.025,18.555,-972.168,77.148,29.785,0.0,0
1582734949.029,14.648,-972.168,94.727,25.879,0.0,0
1582734949.033,13.672,-972.168,93.262,20.996,0.0,0
1582734949.0370002,4.395,-972.168,74.707,22.461,0.0,0
1582734949.041,14.648,-972.168,73.73,26.855,0.0,0
1582734949.045,26.367,-972.168,63.965,16.602,0.0,0
1582734949.049,23.926,-972.168,74.707,13.672,0.0,0
1582734949.052,15.625,-972.168,76.66,16.602,0.0,0
1582734949.056,13.672,-972.168,56.152,4.883,0.0,0
1582734949.06,23.926,-972.168,91.797,0.977,0.0,0
1582734949.064,24.414,-972.168,83.008,12.207,0.0,0
1582734949.0679998,19.043,-972.168,72.75399999999998,21.484,0.0,0
1582734949.07,12.695,-972.168,75.684,9.277,0.0,0
1582734949.074,15.625,-972.168,95.215,10.254,0.0,0
1582734949.0779998,16.113,-972.168,94.238,23.438,0.0,0
1582734949.082,11.719,-972.168,75.684,19.531,0.0,0
1582734949.086,14.16,-972.168,73.242,20.508000000000006,0.0,0
1582734949.09,17.578,-972.168,66.895,23.926,0.0,0
1582734949.094,28.32,-972.168,87.891,31.25,0.0,0
1582734949.097,29.785,-972.168,72.266,20.508000000000006,0.0,0
1582734949.101,26.367,-972.168,62.5,10.254,0.0,0
1582734949.105,28.809,-972.168,101.074,20.02,0.0,0
1582734949.109,25.879,-972.168,93.75,26.855,0.0,0
1582734949.113,31.25,-972.168,83.984,25.391,0.0,0
1582734949.115,33.203,-972.168,85.449,12.695,0.0,0
1582734949.119,20.508000000000006,-972.168,90.332,12.695,0.0,0
1582734949.123,9.766,-972.168,89.355,28.32,0.0,0
1582734949.127,17.09,-972.168,76.172,25.879,0.0,0
1582734949.131,23.438,-972.168,77.148,14.16,0.0,0
1582734949.135,15.625,-972.168,68.359,15.625,0.0,0
1582734949.139,15.137,-972.168,64.941,20.996,0.0,0
1582734949.1420002,23.926,-972.168,71.777,16.113,0.0,0
1582734949.146,26.855,-972.168,99.121,14.16,0.0,0
1582734949.15,27.832,-972.168,96.68,30.762,0.0,0
1582734949.154,30.273000000000003,-972.168,72.266,30.273000000000003,0.0,0
1582734949.158,38.086,-972.168,71.777,21.484,0.0,0
1582734949.16,39.062,-972.168,77.637,23.926,0.0,0
1582734949.164,28.32,-972.168,76.172,22.949,0.0,0
1582734949.168,19.043,-972.168,60.547,21.484,0.0,0
1582734949.1720002,31.25,-972.168,54.688,19.043,0.0,0
1582734949.176,43.457,-972.168,62.5,21.973000000000006,0.0,0
1582734949.18,35.645,-972.168,63.965,25.391,0.0,0
1582734949.184,22.949,-972.168,41.01600000000001,20.996,0.0,0
1582734949.187,22.461,-972.168,47.852,20.02,0.0,0
1582734949.191,22.949,-972.168,92.285,26.855,0.0,0
1582734949.195,28.809,-972.168,79.59,21.973000000000006,0.0,0
1582734949.199,33.203,-972.168,51.27,18.555,0.0,0
1582734949.2029998,21.973000000000006,-972.168,62.5,26.855,0.0,0
1582734949.22,19.043,-972.168,75.684,26.855,0.0,0
1582734949.224,20.508000000000006,-972.168,56.152,24.902,0.0,0
1582734949.228,23.438,-972.168,51.758,26.367,0.0,0
1582734949.232,23.438,-972.168,72.75399999999998,32.227,0.0,0
1582734949.236,20.508000000000006,-972.168,74.219,39.551,0.0,0
1582734949.24,22.461,-972.168,52.734,39.062,0.0,0
1582734949.244,26.367,-972.168,46.387,33.203,0.0,0
1582734949.2470002,31.25,-972.168,64.453,23.438,0.0,0
1582734949.2510002,24.902,-972.168,92.773,21.973000000000006,0.0,0
1582734949.255,15.625,-972.168,84.473,20.02,0.0,0
1582734949.2589998,27.344,-972.168,77.637,15.625,0.0,0
1582734949.2629998,32.715,-972.168,88.37899999999998,13.672,0.0,0
1582734949.265,4.883,-972.168,83.984,23.438,0.0,0
1582734949.269,4.395,-972.168,73.242,28.809,0.0,0
1582734949.2729998,22.461,-972.168,76.172,15.625,0.0,0
1582734949.2770002,22.949,-972.168,82.031,9.766,0.0,0
1582734949.281,25.391,-972.168,72.75399999999998,20.508000000000006,0.0,0
1582734949.285,27.344,-972.168,71.777,30.762,0.0,0
1582734949.289,26.855,-972.168,72.75399999999998,20.996,0.0,0
1582734949.292,25.391,-972.168,76.172,10.742,0.0,0
1582734949.296,25.391,-972.168,96.68,13.184,0.0,0
1582734949.3,36.133,-972.168,70.312,16.602,0.0,0
1582734949.304,30.762,-972.168,72.266,17.578,0.0,0
1582734949.3079998,20.508000000000006,-972.168,104.492,14.648,0.0,0
1582734949.31,19.043,-972.168,89.355,10.254,0.0,0
1582734949.314,18.555,-972.168,73.242,5.859,0.0,0
1582734949.3179998,26.367,-972.168,88.37899999999998,9.766,0.0,0
1582734949.322,27.832,-972.168,101.074,20.02,0.0,0
1582734949.326,15.625,-972.168,83.008,16.602,0.0,0
1582734949.33,16.602,-972.168,62.988,11.719,0.0,0
1582734949.334,26.367,-972.168,76.66,10.742,0.0,0
1582734949.337,25.879,-972.168,96.191,10.254,0.0,0
1582734949.341,22.949,-972.168,72.75399999999998,21.973000000000006,0.0,0
1582734949.345,18.555,-972.168,62.012,24.902,0.0,0
1582734949.349,26.367,-972.168,101.562,23.438,0.0,0
1582734949.353,36.133,-972.168,93.75,26.367,0.0,0
1582734949.355,34.18,-972.168,58.105,35.645,0.0,0
1582734949.359,27.832,-972.168,60.059,42.969,0.0,0
1582734949.363,30.762,-972.168,83.984,43.945,0.0,0
1582734949.367,31.25,-972.168,72.75399999999998,31.738000000000003,0.0,0
1582734949.371,27.832,-972.168,63.965,20.02,0.0,0
1582734949.375,33.691,-972.168,55.176,31.25,0.0,0
1582734949.379,32.227,-972.168,63.965,39.062,0.0,0
1582734949.3820002,34.18,-972.168,81.543,34.668,0.0,0
1582734949.3860002,37.598,-972.168,43.457,39.551,0.0,0
1582734949.39,29.297,-972.168,46.387,44.434,0.0,0
1582734949.394,31.738000000000003,-972.168,93.262,37.109,0.0,0
1582734949.3979998,44.922,-972.168,75.195,44.434,0.0,0
1582734949.4,43.457,-972.168,69.824,57.129,0.0,0
1582734949.404,32.715,-972.168,85.93799999999997,48.34,0.0,0
1582734949.408,41.504,-972.168,78.613,40.039,0.0,0
1582734949.4120002,44.922,-972.168,64.941,37.598,0.0,0
1582734949.416,33.691,-972.168,56.64100000000001,30.762,0.0,0
1582734949.42,41.01600000000001,-972.168,60.059,29.297,0.0,0
1582734949.424,46.387,-972.168,71.289,30.762,0.0,0
1582734949.427,40.527,-972.168,66.406,32.715,0.0,0
1582734949.431,36.621,-972.168,62.012,35.645,0.0,0
1582734949.435,34.18,-972.168,106.445,35.645,0.0,0
1582734949.439,27.832,-972.168,111.328,37.109,0.0,0
1582734949.4429998,17.09,-972.168,79.59,44.922,0.0,0
1582734949.445,21.973000000000006,-972.168,79.102,46.387,0.0,0
1582734949.449,24.902,-972.168,92.285,29.785,0.0,0
1582734949.4529998,8.789,-972.168,93.75,20.508000000000006,0.0,0
1582734949.457,10.254,-972.168,84.473,24.414,0.0,0
1582734949.461,16.602,-972.168,85.449,23.438,0.0,0
1582734949.465,16.602,-972.168,78.613,18.066,0.0,0
1582734949.469,20.996,-972.168,60.547,22.949,0.0,0
1582734949.472,24.414,-972.168,39.551,22.949,0.0,0
1582734949.476,25.879,-972.168,58.594,21.484,0.0,0
1582734949.48,25.879,-972.168,106.445,22.949,0.0,0
1582734949.484,21.484,-972.168,93.75,19.043,0.0,0
1582734949.488,28.32,-972.168,82.031,29.297,0.0,0
1582734949.49,31.25,-972.168,89.844,27.344,0.0,0
1582734949.494,19.043,-972.168,91.309,18.066,0.0,0
1582734949.498,14.16,-972.168,92.285,23.926,0.0,0
1582734949.502,30.762,-972.168,86.426,19.043,0.0,0
1582734949.506,27.832,-972.168,84.961,8.301,0.0,0
1582734949.51,20.508000000000006,-972.168,77.148,6.348,0.0,0
1582734949.514,13.672,-972.168,57.129,9.277,0.0,0
1582734949.5170002,4.395,-972.168,65.43,10.742,0.0,0
1582734949.521,9.766,-972.168,117.188,13.184,0.0,0
1582734949.525,25.879,-972.168,112.793,15.625,0.0,0
1582734949.529,20.02,-972.168,86.426,6.836,0.0,0
1582734949.533,10.742,-972.168,95.215,4.395,0.0,0
1582734949.535,20.508000000000006,-972.168,107.91,17.578,0.0,0
1582734949.539,22.949,-972.168,102.051,20.02,0.0,0
1582734949.543,16.602,-972.168,84.961,11.719,0.0,0
1582734949.5470002,10.742,-972.168,87.891,12.207,0.0,0
1582734949.551,11.23,-972.168,94.727,10.742,0.0,0
1582734949.555,9.766,-972.168,73.73,13.672,0.0,0
1582734949.559,19.043,-972.168,48.34,26.367,0.0,0
1582734949.562,20.508000000000006,-972.168,73.73,17.09,0.0,0
1582734949.566,12.207,-972.168,105.469,3.906,0.0,0
1582734949.57,5.859,-972.168,93.262,16.113,0.0,0
1582734949.574,-0.488,-972.168,87.402,24.414,0.0,0
1582734949.5779998,5.371,-972.168,95.703,11.719,0.0,0
1582734949.58,4.883,-972.168,81.055,10.254,0.0,0
1582734949.584,-0.977,-972.168,60.547,17.578,0.0,0
1582734949.5879998,7.812,-972.168,75.195,22.949,0.0,0
1582734949.592,11.23,-972.168,87.402,17.09,0.0,0
1582734949.596,8.301,-972.168,79.59,1.465,0.0,0
1582734949.6,7.812,-972.168,54.199,3.906,0.0,0
1582734949.604,11.719,-972.168,47.363,9.277,0.0,0
1582734949.607,23.438,-972.168,83.008,8.789,0.0,0
1582734949.611,20.02,-972.168,92.285,11.23,0.0,0
1582734949.615,20.996,-972.168,75.684,14.16,0.0,0
1582734949.619,27.344,-972.168,75.684,24.902,0.0,0
1582734949.623,32.715,-972.168,82.52,31.25,0.0,0
1582734949.64,35.156,-972.168,86.914,28.809,0.0,0
1582734949.644,28.809,-972.168,86.914,33.203,0.0,0
1582734949.6479998,22.949,-972.168,82.031,38.086,0.0,0
1582734949.6520002,20.02,-972.168,71.289,31.738000000000003,0.0,0
1582734949.656,25.391,-972.168,69.336,22.461,0.0,0
1582734949.66,36.621,-972.168,72.75399999999998,20.02,0.0,0
1582734949.664,31.738000000000003,-972.168,79.102,17.578,0.0,0
1582734949.667,24.414,-972.168,91.797,19.531,0.0,0
1582734949.671,31.738000000000003,-972.168,89.355,26.367,0.0,0
1582734949.675,33.691,-972.168,76.172,25.391,0.0,0
1582734949.679,32.227,-972.168,81.055,22.949,0.0,0
1582734949.6829998,31.738000000000003,-972.168,95.703,25.391,0.0,0
1582734949.685,31.738000000000003,-972.168,87.891,33.691,0.0,0
1582734949.689,33.203,-972.168,75.684,33.203,0.0,0
1582734949.6929998,29.297,-972.168,82.031,30.762,0.0,0
1582734949.697,27.344,-972.168,83.984,41.992,0.0,0
1582734949.701,36.621,-972.168,75.195,51.758,0.0,0
1582734949.705,33.691,-972.168,67.87100000000001,43.945,0.0,0
1582734949.709,24.902,-972.168,56.64100000000001,33.203,0.0,0
1582734949.712,27.344,-972.168,77.148,35.156,0.0,0
1582734949.716,31.738000000000003,-972.168,81.055,42.969,0.0,0
1582734949.72,30.273000000000003,-972.168,62.988,38.086,0.0,0
1582734949.724,16.113,-972.168,97.656,31.738000000000003,0.0,0
1582734949.728,18.555,-972.168,101.074,38.086,0.0,0
1582734949.73,33.691,-972.168,70.801,37.109,0.0,0
1582734949.734,31.738000000000003,-972.168,66.895,24.902,0.0,0
1582734949.738,22.461,-972.168,80.566,16.602,0.0,0
1582734949.742,19.043,-972.168,81.055,18.066,0.0,0
1582734949.746,26.855,-972.168,71.289,21.973000000000006,0.0,0
1582734949.75,28.809,-972.168,61.523,19.531,0.0,0
1582734949.754,13.184,-972.168,70.801,19.043,0.0,0
1582734949.7570002,10.742,-972.168,91.309,15.625,0.0,0
1582734949.7610002,20.02,-972.168,55.664,15.625,0.0,0
1582734949.765,20.02,-972.168,43.457,19.043,0.0,0
1582734949.769,21.484,-972.168,93.262,16.113,0.0,0
1582734949.7729998,23.926,-972.168,88.867,13.672,0.0,0
1582734949.775,23.438,-972.168,78.613,20.996,0.0,0
1582734949.779,25.391,-972.168,94.238,27.832,0.0,0
1582734949.783,32.715,-972.168,86.426,23.438,0.0,0
1582734949.7870002,36.621,-972.168,67.383,20.996,0.0,0
1582734949.791,29.297,-972.168,67.87100000000001,27.832,0.0,0
1582734949.795,28.809,-972.168,73.73,28.809,0.0,0
1582734949.799,33.203,-972.168,70.801,24.902,0.0,0
1582734949.802,25.391,-972.168,64.941,21.973000000000006,0.0,0
1582734949.806,22.949,-972.168,48.828,21.484,0.0,0
1582734949.81,32.715,-972.168,87.891,33.203,0.0,0
1582734949.814,32.227,-972.168,101.562,41.01600000000001,0.0,0
1582734949.8179998,23.926,-972.168,64.453,36.133,0.0,0
1582734949.82,31.25,-972.168,52.734,28.32,0.0,0
1582734949.824,36.621,-972.168,85.93799999999997,24.414,0.0,0
1582734949.8279998,27.832,-972.168,93.75,23.438,0.0,0
1582734949.832,9.766,-972.168,73.73,21.973000000000006,0.0,0
1582734949.836,12.207,-972.168,68.359,17.09,0.0,0
1582734949.84,25.879,-972.168,51.27,9.766,0.0,0
1582734949.844,28.32,-972.168,60.547,18.066,0.0,0
1582734949.847,29.785,-972.168,53.71100000000001,23.926,0.0,0
1582734949.851,30.273000000000003,-972.168,67.383,24.902,0.0,0
1582734949.855,28.32,-972.168,104.004,34.18,0.0,0
1582734949.859,32.227,-972.168,82.52,31.738000000000003,0.0,0
1582734949.863,35.156,-972.168,69.824,34.18,0.0,2
1582734949.865,28.32,-972.168,87.402,33.691,0.0,0
1582734949.869,26.367,-972.168,91.797,25.391,0.0,0
1582734949.873,26.855,-972.168,75.684,25.879,0.0,0
1582734949.877,23.926,-972.168,58.105,31.25,0.0,0
1582734949.881,19.531,-972.168,68.848,28.809,0.0,0
1582734949.885,20.02,-972.168,72.75399999999998,21.973000000000006,0.0,0
1582734949.889,16.602,-972.168,57.129,26.855,0.0,0
1582734949.8920002,14.16,-972.168,69.336,39.062,0.0,0
1582734949.896,17.09,-972.168,97.656,28.32,0.0,0
1582734949.9,17.09,-972.168,95.703,12.695,0.0,0
1582734949.904,19.531,-972.168,80.566,16.113,0.0,0
1582734949.908,18.555,-972.168,76.66,22.461,0.0,0
1582734949.91,22.949,-972.168,83.49600000000002,21.973000000000006,0.0,0
1582734949.914,20.996,-972.168,89.355,20.996,0.0,0
1582734949.918,17.09,-972.168,74.707,22.461,0.0,0
1582734949.9220002,23.926,-972.168,69.336,20.996,0.0,0
1582734949.926,24.414,-972.168,76.66,21.973000000000006,0.0,0
1582734949.93,18.555,-972.168,66.406,21.973000000000006,0.0,0
1582734949.934,15.137,-972.168,39.062,24.414,0.0,0
1582734949.937,16.113,-972.168,62.012,23.926,0.0,0
1582734949.941,25.391,-972.168,104.004,17.09,0.0,0
1582734949.945,31.738000000000003,-972.168,81.055,23.926,0.0,0
1582734949.949,31.738000000000003,-972.168,71.289,28.32,0.0,0
1582734949.9529998,24.902,-972.168,88.37899999999998,20.508000000000006,0.0,0
1582734949.955,20.02,-972.168,96.191,19.531,0.0,0
1582734949.959,24.414,-972.168,80.078,20.02,0.0,0
1582734949.9629998,21.484,-972.168,71.289,21.973000000000006,0.0,0
1582734949.967,18.066,-972.168,89.844,22.949,0.0,0
1582734949.971,19.531,-972.168,93.262,18.555,0.0,0
1582734949.975,28.809,-972.168,72.266,23.438,0.0,0
1582734949.979,22.461,-972.168,68.359,22.461,0.0,0
1582734949.982,22.949,-972.168,96.191,13.672,0.0,0
1582734949.986,38.574,-972.168,118.164,23.438,0.0,0
1582734949.99,34.668,-972.168,113.77,25.391,0.0,0
1582734949.994,30.762,-972.168,93.75,17.578,0.0,0
1582734949.998,30.762,-972.168,115.234,20.996,0.0,0
1582734950.015,28.32,-972.168,123.047,26.367,0.0,0
1582734950.019,28.809,-972.168,102.539,30.273000000000003,0.0,0
1582734950.0229998,33.203,-972.168,107.422,21.484,0.0,0
1582734950.0270002,31.738000000000003,-972.168,117.676,13.184,0.0,0
1582734950.031,26.855,-972.168,95.703,25.391,0.0,0
1582734950.035,33.203,-972.168,73.73,30.762,0.0,0
1582734950.039,33.203,-972.168,93.75,21.484,0.0,0
1582734950.042,25.391,-972.168,117.188,15.625,0.0,0
1582734950.046,22.461,-972.168,112.305,21.484,0.0,0
1582734950.05,20.02,-972.168,102.051,28.32,0.0,0
1582734950.054,27.344,-972.168,113.281,26.855,0.0,0
1582734950.0579998,28.809,-972.168,114.258,20.996,0.0,0
1582734950.06,29.785,-972.168,99.121,22.461,0.0,0
1582734950.064,40.527,-972.168,103.516,21.484,0.0,0
1582734950.0679998,43.945,-972.168,114.258,23.438,0.0,0
1582734950.072,26.855,-972.168,125.977,24.902,0.0,0
1582734950.076,18.066,-972.168,124.512,19.043,0.0,0
1582734950.08,25.879,-972.168,101.074,23.438,0.0,0
1582734950.084,26.855,-972.168,107.91,31.738000000000003,0.0,0
1582734950.087,26.855,-972.168,125.0,25.391,0.0,0
1582734950.091,27.832,-972.168,102.539,16.602,0.0,0
1582734950.095,24.902,-972.168,89.355,15.625,0.0,0
1582734950.099,28.809,-972.168,132.812,25.879,0.0,0
1582734950.103,27.344,-972.168,137.207,29.785,0.0,0
1582734950.105,22.461,-972.168,110.84,30.762,0.0,0
1582734950.109,26.855,-972.168,111.816,31.738000000000003,0.0,0
1582734950.113,35.156,-972.168,125.488,20.02,0.0,0
1582734950.117,37.109,-972.168,114.258,23.438,0.0,0
1582734950.121,29.297,-972.168,100.098,30.273000000000003,0.0,0
1582734950.125,25.879,-972.168,98.145,29.785,0.0,0
1582734950.129,26.367,-972.168,108.887,32.715,0.0,0
1582734950.1320002,31.738000000000003,-972.168,118.652,34.18,0.0,0
1582734950.1360002,31.25,-972.168,81.543,33.691,0.0,0
1582734950.14,30.273000000000003,-972.168,76.172,37.109,0.0,0
1582734950.144,25.879,-972.168,119.141,40.039,0.0,0
1582734950.1479998,23.438,-972.168,109.863,31.25,0.0,0
1582734950.15,32.715,-972.168,101.562,34.18,0.0,0
1582734950.154,36.621,-972.168,112.305,34.668,0.0,0
1582734950.158,31.738000000000003,-972.168,104.004,27.344,0.0,0
1582734950.1620002,33.691,-972.168,102.539,28.809,0.0,0
1582734950.166,35.645,-972.168,98.633,32.715,0.0,0
1582734950.17,34.18,-972.168,93.75,36.133,0.0,0
1582734950.174,36.621,-972.168,95.215,46.387,0.0,0
1582734950.177,36.621,-972.168,91.309,43.457,0.0,0
1582734950.181,40.527,-972.168,93.75,38.086,0.0,0
1582734950.185,32.715,-972.168,125.488,27.832,0.0,0
1582734950.189,20.02,-972.168,127.441,26.367,0.0,0
1582734950.1929998,20.508000000000006,-972.168,99.121,28.32,0.0,0
1582734950.195,20.996,-972.168,86.426,35.156,0.0,0
1582734950.199,19.043,-972.168,100.098,32.715,0.0,0
1582734950.2029998,27.832,-972.168,96.191,24.414,0.0,0
1582734950.207,27.344,-972.168,86.426,31.738000000000003,0.0,0
1582734950.211,21.973000000000006,-972.168,83.49600000000002,30.273000000000003,0.0,0
1582734950.215,27.344,-972.168,66.895,23.926,0.0,0
1582734950.219,35.645,-972.168,82.031,22.461,0.0,0
1582734950.222,35.156,-972.168,66.406,30.762,0.0,0
1582734950.226,31.738000000000003,-972.168,67.383,33.691,0.0,0
1582734950.23,31.738000000000003,-972.168,102.051,34.18,0.0,0
1582734950.234,28.32,-972.168,105.957,39.062,0.0,0
1582734950.238,22.461,-972.168,101.074,38.086,0.0,0
1582734950.24,27.832,-972.168,96.191,38.574,0.0,0
1582734950.244,45.41,-972.168,101.562,42.48,0.0,0
1582734950.248,43.945,-972.168,83.984,40.039,0.0,0
1582734950.252,43.457,-972.168,73.242,41.504,0.0,0
1582734950.256,49.805,-972.168,93.75,37.598,0.0,0
1582734950.26,42.48,-972.168,85.93799999999997,34.18,0.0,0
1582734950.264,35.645,-972.168,68.359,36.621,0.0,0
1582734950.2670002,25.391,-972.168,84.961,41.01600000000001,0.0,0
1582734950.271,12.695,-972.168,122.07,42.969,0.0,0
1582734950.275,19.531,-972.168,117.188,41.504,0.0,0
1582734950.279,24.414,-972.168,100.586,39.062,0.0,0
1582734950.283,20.996,-972.168,104.492,32.227,0.0,0
1582734950.285,23.926,-972.168,105.957,25.391,0.0,0
1582734950.289,21.484,-972.168,102.539,24.902,0.0,0
1582734950.293,27.832,-972.168,97.168,32.227,0.0,0
1582734950.2970002,24.414,-972.168,95.215,32.715,0.0,0
1582734950.301,16.113,-972.168,114.746,33.203,0.0,0
1582734950.305,24.414,-972.168,108.398,38.574,0.0,0
1582734950.309,24.902,-972.168,82.52,33.691,0.0,0
1582734950.312,17.578,-972.168,101.074,21.973000000000006,0.0,0
1582734950.316,26.367,-972.168,129.88299999999998,30.273000000000003,0.0,0
1582734950.32,34.18,-972.168,119.141,34.668,0.0,0
1582734950.324,30.762,-972.168,107.91,25.879,0.0,0
1582734950.3279998,17.578,-972.168,96.68,22.949,0.0,0
1582734950.33,13.672,-972.168,106.934,26.367,0.0,0
1582734950.334,22.461,-972.168,106.445,25.879,0.0,0
1582734950.3379998,24.902,-972.168,98.633,21.973000000000006,0.0,0
1582734950.342,25.391,-972.168,100.098,16.113,0.0,0
1582734950.346,21.484,-972.168,107.422,13.184,0.0,0
1582734950.35,25.879,-972.168,83.008,24.414,0.0,0
1582734950.354,35.156,-972.168,73.242,32.227,0.0,0
1582734950.357,31.738000000000003,-972.168,123.047,24.414,0.0,0
1582734950.361,22.461,-972.168,134.27700000000002,15.137,0.0,0
1582734950.365,22.949,-972.168,109.375,28.32,0.0,0
1582734950.369,24.902,-972.168,99.609,28.32,0.0,0
1582734950.373,18.555,-972.168,114.746,15.137,0.0,0
1582734950.39,16.113,-972.168,108.398,20.508000000000006,0.0,0
1582734950.394,19.531,-972.168,80.566,32.715,0.0,0
1582734950.3979998,20.02,-972.168,87.402,29.297,0.0,0
1582734950.4020002,27.344,-972.168,109.375,20.508000000000006,0.0,0
1582734950.406,33.203,-972.168,100.586,20.996,0.0,0
1582734950.41,26.855,-972.168,75.684,26.855,0.0,0
1582734950.414,19.043,-972.168,71.289,30.762,0.0,0
1582734950.417,14.648,-972.168,92.773,30.762,0.0,0
1582734950.421,22.949,-972.168,113.281,27.344,0.0,0
1582734950.425,35.645,-972.168,84.961,28.32,0.0,0
1582734950.429,26.855,-972.168,100.098,29.785,0.0,0
1582734950.4329998,18.555,-972.168,120.605,22.949,0.0,0
1582734950.435,30.762,-972.168,101.562,21.484,0.0,0
1582734950.439,36.133,-972.168,85.449,23.438,0.0,0
1582734950.4429998,24.902,-972.168,87.891,22.949,0.0,0
1582734950.447,18.555,-972.168,100.586,18.066,0.0,0
1582734950.451,23.926,-972.168,89.844,20.996,0.0,0
1582734950.455,25.879,-972.168,56.152,26.855,0.0,0
1582734950.459,16.113,-972.168,72.266,24.902,0.0,0
1582734950.462,19.043,-972.168,104.004,15.625,0.0,0
1582734950.466,31.25,-972.168,77.148,18.555,0.0,0
1582734950.47,31.25,-972.168,59.082,14.648,0.0,0
1582734950.474,27.344,-972.168,91.797,11.23,0.0,0
1582734950.478,17.578,-972.168,98.145,20.996,0.0,0
1582734950.48,23.438,-972.168,92.773,25.391,0.0,0
1582734950.484,38.574,-972.168,91.797,27.344,0.0,0
1582734950.488,32.715,-972.168,102.051,25.879,0.0,0
1582734950.492,31.738000000000003,-972.168,96.191,25.879,0.0,0
1582734950.496,32.715,-972.168,79.59,30.273000000000003,0.0,0
1582734950.5,31.25,-972.168,69.824,26.855,0.0,0
1582734950.504,27.344,-972.168,81.055,13.184,0.0,0
1582734950.5070002,25.391,-972.168,100.098,7.812,0.0,0
1582734950.5110002,29.785,-972.168,70.312,16.113,0.0,0
1582734950.515,20.508000000000006,-972.168,77.148,22.949,0.0,0
1582734950.519,15.625,-972.168,112.305,17.578,0.0,0
1582734950.5229998,16.113,-972.168,95.703,17.578,0.0,0
1582734950.525,12.207,-972.168,86.914,21.973000000000006,0.0,0
1582734950.529,20.02,-972.168,96.68,27.344,0.0,0
1582734950.533,30.273000000000003,-972.168,94.238,23.926,0.0,0
1582734950.5370002,29.785,-972.168,82.031,22.949,0.0,0
1582734950.541,22.949,-972.168,64.453,25.391,0.0,0
1582734950.545,24.414,-972.168,70.312,24.902,0.0,0
1582734950.549,33.691,-972.168,106.934,32.227,0.0,0
1582734950.552,34.668,-972.168,96.68,37.598,0.0,0
1582734950.556,25.391,-972.168,84.961,36.133,0.0,0
1582734950.56,26.855,-972.168,131.836,26.855,0.0,0
1582734950.564,40.039,-972.168,126.953,26.855,0.0,0
1582734950.5679998,38.574,-972.168,101.562,28.809,0.0,0
1582734950.57,33.691,-972.168,104.492,22.949,0.0,0
1582734950.574,31.738000000000003,-972.168,106.445,25.391,0.0,0
1582734950.5779998,31.25,-972.168,95.215,27.344,0.0,0
1582734950.582,36.133,-972.168,100.098,27.344,0.0,0
1582734950.586,33.203,-972.168,104.98,25.879,0.0,0
1582734950.59,24.414,-972.168,87.402,28.809,0.0,0
1582734950.594,24.902,-972.168,106.934,36.133,0.0,0
1582734950.597,31.738000000000003,-972.168,96.68,32.227,0.0,0
1582734950.601,28.32,-972.168,83.49600000000002,31.738000000000003,0.0,0
1582734950.605,31.738000000000003,-972.168,123.047,42.48,0.0,0
1582734950.609,35.156,-972.168,108.887,35.645,0.0,0
1582734950.613,30.762,-972.168,92.773,21.484,0.0,0
1582734950.615,25.391,-972.168,87.402,20.02,0.0,0
1582734950.619,17.578,-972.168,92.285,24.902,0.0,0
1582734950.623,15.137,-972.168,88.867,28.32,0.0,0
1582734950.627,21.484,-972.168,83.49600000000002,27.344,0.0,0
1582734950.631,23.438,-972.168,95.215,27.344,0.0,0
1582734950.635,17.578,-972.168,79.102,27.344,0.0,0
1582734950.639,20.02,-972.168,60.547,29.785,0.0,0
1582734950.6420002,24.414,-972.168,68.848,29.785,0.0,0
1582734950.646,22.949,-972.168,113.77,30.273000000000003,0.0,0
1582734950.65,26.367,-972.168,111.816,25.879,0.0,0
1582734950.654,29.785,-972.168,90.332,20.508000000000006,0.0,0
1582734950.658,32.715,-972.168,96.68,35.156,0.0,0
1582734950.66,27.832,-972.168,98.145,36.133,0.0,0
1582734950.664,10.254,-972.168,86.914,16.113,0.0,0
1582734950.668,13.184,-972.168,89.844,21.484,0.0,0
1582734950.6720002,5.859,-972.168,101.562,23.438,0.0,0
1582734950.676,-3.418,-972.168,98.145,6.348,0.0,0
1582734950.68,-10.742,-972.168,85.93799999999997,-14.648,0.0,0
1582734950.684,-30.762,-972.168,59.082,-29.785,0.0,0
1582734950.687,-47.852,-972.168,78.125,-43.945,0.0,0
1582734950.691,-72.266,-972.168,122.07,-61.035,0.0,0
1582734950.695,-90.82,-972.168,113.77,-76.66,0.0,0
1582734950.699,-121.582,-972.168,113.77,-109.375,0.0,0
1582734950.7029998,-167.96900000000005,-972.168,120.605,-155.273,0.0,0
1582734950.72,-200.68400000000003,-972.168,132.812,-188.965,0.0,0
1582734950.724,-229.004,-972.168,117.676,-228.516,0.0,0
1582734950.728,-264.648,-972.168,116.211,-267.578,0.0,0
1582734950.732,-281.738,-972.168,141.113,-279.785,0.0,0
1582734950.736,-282.2270000000001,-972.168,149.414,-285.645,0.0,0
1582734950.74,-283.203,-972.168,134.766,-285.156,0.0,0
1582734950.744,-278.32,-972.168,133.30100000000002,-284.18,0.0,0
1582734950.7470002,-258.301,-972.168,180.176,-273.926,0.0,0
1582734950.7510002,-236.816,-972.168,184.082,-248.535,0.0,0
1582734950.755,-212.402,-972.168,155.273,-225.098,0.0,0
1582734950.7589998,-188.477,-972.168,139.16,-202.637,0.0,0
1582734950.7629998,-160.156,-972.168,138.672,-176.27,0.0,0
1582734950.765,-114.258,-972.168,133.789,-145.996,0.0,0
1582734950.769,-89.355,-972.168,124.512,-122.07,0.0,0
1582734950.7729998,-73.73,-972.168,122.559,-100.098,0.0,0
1582734950.7770002,-42.969,-972.168,121.582,-69.824,0.0,0
1582734950.781,-19.043,-972.168,114.258,-45.41,0.0,0
1582734950.785,2.441,-972.168,92.285,-20.508000000000006,0.0,0
1582734950.789,31.738000000000003,-972.168,78.613,3.906,0.0,0
1582734950.792,52.246,-972.168,92.285,27.344,0.0,0
1582734950.796,52.246,-972.168,101.562,43.457,0.0,0
1582734950.8,70.801,-972.168,64.453,57.617,0.0,0
1582734950.804,87.891,-972.168,56.152,62.988,0.0,0
1582734950.8079998,93.75,-972.168,90.82,73.242,0.0,0
1582734950.81,105.469,-972.168,87.402,92.773,0.0,0
1582734950.814,114.258,-972.168,71.289,107.422,0.0,0
1582734950.8179998,124.512,-972.168,64.453,113.77,0.0,0
1582734950.822,124.023,-972.168,69.336,115.723,0.0,0
1582734950.826,123.535,-972.168,61.035,128.418,0.0,0
1582734950.83,141.113,-972.168,40.039,133.789,0.0,0
1582734950.834,149.90200000000004,-972.168,38.086,136.23,0.0,0
1582734950.837,140.625,-972.168,66.895,141.113,0.0,0
1582734950.841,133.789,-972.168,36.133,134.27700000000002,0.0,0
1582734950.845,129.88299999999998,-972.168,15.625,129.395,0.0,0
1582734950.849,122.07,-972.168,72.75399999999998,135.74200000000002,0.0,0
1582734950.853,123.535,-972.168,55.664,134.766,0.0,0
1582734950.855,129.88299999999998,-972.168,34.668,127.441,0.0,0
1582734950.859,135.74200000000002,-972.168,60.059,127.93,0.0,0
1582734950.863,127.441,-972.168,62.988,131.836,0.0,0
1582734950.867,125.488,-972.168,52.246,134.766,0.0,0
1582734950.871,135.254,-972.168,33.203,131.836,0.0,0
1582734950.875,132.812,-972.168,19.531,121.094,0.0,0
1582734950.879,127.441,-972.168,32.715,126.465,0.0,0
1582734950.8820002,128.418,-972.168,37.598,132.32399999999998,0.0,0
1582734950.8860002,124.023,-972.168,6.348,128.906,0.0,0
1582734950.89,123.047,-972.168,25.879,126.465,0.0,0
1582734950.894,129.395,-972.168,64.941,122.559,0.0,0
1582734950.8979998,128.906,-972.168,38.574,127.441,0.0,0
1582734950.9,124.023,-972.168,29.785,120.605,0.0,0
1582734950.904,117.188,-972.168,45.41,113.281,0.0,0
1582734950.908,107.91,-972.168,62.012,111.816,0.0,0
1582734950.9120002,104.004,-972.168,53.223,110.352,0.0,0
1582734950.916,101.562,-972.168,43.457,107.91,0.0,0
1582734950.92,94.727,-972.168,41.992,98.633,0.0,0
1582734950.924,88.867,-972.168,57.617,102.539,0.0,0
1582734950.927,83.49600000000002,-972.168,65.918,103.027,0.0,0
1582734950.931,85.93799999999997,-972.168,45.41,96.191,0.0,0
1582734950.935,79.102,-972.168,68.848,88.37899999999998,0.0,0
1582734950.939,76.172,-972.168,89.844,82.031,0.0,0
1582734950.9429998,80.078,-972.168,67.383,80.566,0.0,0
1582734950.96,75.195,-972.168,65.43,77.637,0.0,0
1582734950.964,75.195,-972.168,76.66,73.73,0.0,0
1582734950.968,74.707,-972.168,66.895,72.266,0.0,0
1582734950.972,71.777,-972.168,52.246,67.383,0.0,0
1582734950.976,75.195,-972.168,43.945,68.848,0.0,0
1582734950.98,71.289,-972.168,40.039,71.777,0.0,0
1582734950.984,67.383,-972.168,63.477,65.43,0.0,0
1582734950.9870002,58.105,-972.168,54.688,60.059,0.0,0
1582734950.9910002,63.477,-972.168,42.48,61.035,0.0,0
1582734950.995,69.336,-972.168,74.707,59.082,0.0,0
1582734950.9989998,58.594,-972.168,66.406,55.176,0.0,0
1582734951.0029998,55.176,-972.168,58.105,55.664,0.0,2
1582734950.99,57.617,-972.168,55.664,58.105,0.0,0
1582734950.994,61.035,-972.168,70.801,60.547,0.0,0
1582734950.998,59.082,-972.168,60.547,46.875,0.0,0
1582734951.002,54.199,-972.168,50.78100000000001,49.316,0.0,0
1582734951.006,52.246,-972.168,74.219,54.688,0.0,0
1582734951.01,59.082,-972.168,59.082,44.922,0.0,0
1582734951.014,62.5,-972.168,45.41,46.875,0.0,0
1582734951.0170002,52.246,-972.168,60.547,47.363,0.0,0
1582734951.021,49.805,-972.168,80.078,44.434,0.0,0
1582734951.025,50.78100000000001,-972.168,83.984,44.434,0.0,0
1582734951.029,45.41,-972.168,52.246,40.527,0.0,0
1582734951.033,41.504,-972.168,40.527,30.762,0.0,0
1582734951.035,38.086,-972.168,79.59,29.297,0.0,0
1582734951.039,35.156,-972.168,84.473,33.203,0.0,0
1582734951.043,35.645,-972.168,67.87100000000001,30.762,0.0,0
1582734951.0470002,30.762,-972.168,64.941,28.32,0.0,0
1582734951.051,22.461,-972.168,79.59,26.367,0.0,0
1582734951.055,18.555,-972.168,65.918,30.762,0.0,0
1582734951.059,20.508000000000006,-972.168,34.668,31.738000000000003,0.0,0
1582734951.062,27.832,-972.168,55.664,20.996,0.0,0
1582734951.066,26.855,-972.168,104.492,21.484,0.0,0
1582734951.07,26.855,-972.168,91.797,27.832,0.0,0
1582734951.074,29.785,-972.168,77.637,26.367,0.0,0
1582734951.0779998,32.715,-972.168,74.707,29.785,0.0,0
1582734951.08,30.762,-972.168,78.125,33.203,0.0,0
1582734951.084,29.785,-972.168,71.289,35.156,0.0,0
1582734951.0879998,44.922,-972.168,62.988,36.133,0.0,0
1582734951.092,47.852,-972.168,80.078,29.297,0.0,0
1582734951.096,40.527,-972.168,65.43,24.414,0.0,0
1582734951.1,38.086,-972.168,42.969,28.32,0.0,0
1582734951.104,32.227,-972.168,48.828,28.809,0.0,0
1582734951.107,22.949,-972.168,64.941,32.227,0.0,0
1582734951.111,11.23,-972.168,81.055,32.227,0.0,0
1582734951.115,8.301,-972.168,59.57,27.832,0.0,0
1582734951.119,11.719,-972.168,59.57,28.809,0.0,0
1582734951.123,21.484,-972.168,93.262,27.832,0.0,0
1582734951.14,26.367,-972.168,81.055,22.461,0.0,0
1582734951.144,28.32,-972.168,62.988,22.949,0.0,0
1582734951.1479998,35.156,-972.168,61.523,25.879,0.0,0
1582734951.1520002,38.086,-972.168,73.242,26.367,0.0,0
1582734951.156,35.156,-972.168,74.219,21.973000000000006,0.0,0
1582734951.16,30.762,-972.168,61.035,19.043,0.0,0
1582734951.164,25.879,-972.168,64.453,20.996,0.0,0
1582734951.167,24.414,-972.168,85.93799999999997,23.926,0.0,0
1582734951.171,22.461,-972.168,80.078,20.996,0.0,0
1582734951.175,20.508000000000006,-972.168,52.246,22.461,0.0,0
1582734951.179,20.508000000000006,-972.168,68.848,27.344,0.0,0
1582734951.1829998,23.438,-972.168,103.516,29.785,0.0,0
1582734951.185,26.855,-972.168,85.449,30.762,0.0,0
1582734951.189,26.855,-972.168,60.547,33.691,0.0,0
1582734951.1929998,26.367,-972.168,73.73,28.32,0.0,0
1582734951.197,21.484,-972.168,90.332,25.391,0.0,0
1582734951.201,25.391,-972.168,73.242,20.508000000000006,0.0,0
1582734951.205,28.32,-972.168,40.039,10.742,0.0,0
1582734951.209,21.484,-972.168,57.129,6.348,0.0,0
1582734951.212,20.508000000000006,-972.168,90.82,11.719,0.0,0
1582734951.216,25.879,-972.168,67.383,14.16,0.0,0
1582734951.22,22.949,-972.168,42.969,5.859,0.0,0
1582734951.224,11.23,-972.168,91.797,3.418,0.0,0
1582734951.228,15.625,-972.168,85.449,1.465,0.0,0
1582734951.23,21.973000000000006,-972.168,51.27,10.254,0.0,0
1582734951.234,19.043,-972.168,73.242,16.113,0.0,0
1582734951.238,19.043,-972.168,86.914,11.23,0.0,0
1582734951.242,24.902,-972.168,82.031,14.648,0.0,0
1582734951.246,21.973000000000006,-972.168,73.242,13.184,0.0,0
1582734951.25,21.973000000000006,-972.168,65.918,13.184,0.0,0
1582734951.254,29.297,-972.168,60.547,12.695,0.0,0
1582734951.2570002,24.902,-972.168,80.566,12.207,0.0,0
1582734951.2610002,25.391,-972.168,55.176,15.625,0.0,0
1582734951.265,28.32,-972.168,60.059,14.16,0.0,0
1582734951.269,27.344,-972.168,98.633,16.113,0.0,0
1582734951.2729998,27.344,-972.168,86.914,16.602,0.0,0
1582734951.275,28.32,-972.168,73.73,13.672,0.0,0
1582734951.279,32.715,-972.168,72.75399999999998,12.207,0.0,0
1582734951.283,36.133,-972.168,65.43,16.602,0.0,0
1582734951.2870002,29.785,-972.168,56.64100000000001,16.113,0.0,0
1582734951.291,28.809,-972.168,80.566,10.742,0.0,0
1582734951.295,34.18,-972.168,80.566,14.648,0.0,0
1582734951.299,36.621,-972.168,86.426,19.043,0.0,0
1582734951.302,30.762,-972.168,75.684,14.16,0.0,0
1582734951.306,28.32,-972.168,58.105,9.766,0.0,0
1582734951.31,29.297,-972.168,98.633,12.695,0.0,0
1582734951.314,26.367,-972.168,87.402,13.184,0.0,0
1582734951.3179998,26.367,-972.168,51.27,13.184,0.0,0
1582734951.32,25.391,-972.168,60.059,19.043,0.0,0
1582734951.324,30.762,-972.168,77.637,17.578,0.0,0
1582734951.3279998,35.645,-972.168,76.172,18.555,0.0,0
1582734951.332,34.18,-972.168,62.5,23.438,0.0,0
1582734951.336,33.203,-972.168,60.059,19.531,0.0,0
1582734951.34,33.691,-972.168,52.246,21.973000000000006,0.0,0
1582734951.344,33.203,-972.168,63.965,27.832,0.0,0
1582734951.347,36.621,-972.168,48.828,19.531,0.0,0
1582734951.351,45.41,-972.168,45.898,14.648,0.0,0
1582734951.355,39.551,-972.168,98.145,25.391,0.0,0
1582734951.359,28.809,-972.168,74.707,22.461,0.0,0
1582734951.363,29.297,-972.168,53.71100000000001,15.137,0.0,0
1582734951.365,29.297,-972.168,69.336,13.672,0.0,0
1582734951.369,25.391,-972.168,74.219,16.113,0.0,0
1582734951.373,24.902,-972.168,71.777,16.113,0.0,0
1582734951.377,28.809,-972.168,69.824,19.043,0.0,0
1582734951.381,27.832,-972.168,68.359,20.508000000000006,0.0,0
1582734951.385,26.855,-972.168,52.734,14.648,0.0,0
1582734951.389,20.996,-972.168,46.875,20.996,0.0,0
1582734951.3920002,20.02,-972.168,53.71100000000001,24.414,0.0,0
1582734951.396,27.344,-972.168,71.289,16.113,0.0,0
1582734951.4,25.391,-972.168,81.055,22.461,0.0,0
1582734951.404,18.066,-972.168,68.848,14.648,0.0,0
1582734951.408,18.066,-972.168,62.012,5.371,0.0,0
1582734951.41,26.367,-972.168,79.59,8.301,0.0,0
1582734951.414,21.484,-972.168,61.035,6.348,0.0,0
1582734951.418,13.672,-972.168,53.223,10.742,0.0,0
1582734951.4220002,12.695,-972.168,75.684,20.02,0.0,0
1582734951.426,20.508000000000006,-972.168,71.289,21.484,0.0,0
1582734951.43,20.508000000000006,-972.168,49.805,22.949,0.0,0
1582734951.434,17.578,-972.168,24.902,24.902,0.0,0
1582734951.437,14.648,-972.168,40.527,20.02,0.0,0
1582734951.441,15.625,-972.168,83.008,24.902,0.0,0
1582734951.445,27.832,-972.168,76.66,33.203,0.0,0
1582734951.449,32.715,-972.168,73.73,34.18,0.0,0
1582734951.4529998,31.738000000000003,-972.168,56.152,30.273000000000003,0.0,0
1582734951.455,30.273000000000003,-972.168,62.5,31.25,0.0,0
1582734951.459,29.297,-972.168,78.125,29.785,0.0,0
1582734951.4629998,30.273000000000003,-972.168,60.059,24.902,0.0,0
1582734951.467,34.18,-972.168,75.195,31.25,0.0,0
1582734951.471,30.273000000000003,-972.168,67.383,33.691,0.0,0
1582734951.475,29.297,-972.168,40.527,30.273000000000003,0.0,0
1582734951.479,25.391,-972.168,34.18,18.066,0.0,0
1582734951.482,20.508000000000006,-972.168,74.219,15.137,0.0,0
1582734951.486,24.902,-972.168,104.004,32.227,0.0,0
1582734951.49,25.391,-972.168,70.312,35.645,0.0,0
1582734951.494,31.738000000000003,-972.168,50.78100000000001,22.461,0.0,0
1582734951.498,42.969,-972.168,70.312,24.902,0.0,0
1582734951.515,39.551,-972.168,76.172,36.133,0.0,0
1582734951.519,36.133,-972.168,66.895,37.598,0.0,0
1582734951.5229998,28.32,-972.168,52.734,29.297,0.0,0
1582734951.5270002,18.066,-972.168,72.266,26.855,0.0,0
1582734951.531,24.902,-972.168,88.867,33.691,0.0,0
1582734951.535,33.203,-972.168,59.57,35.156,0.0,0
1582734951.539,37.598,-972.168,57.129,23.926,0.0,0
1582734951.542,38.086,-972.168,81.543,20.996,0.0,0
1582734951.546,35.156,-972.168,99.609,25.879,0.0,0
1582734951.55,35.645,-972.168,62.5,25.391,0.0,0
1582734951.554,35.156,-972.168,68.848,17.578,0.0,0
1582734951.5579998,32.715,-972.168,104.492,13.184,0.0,0
1582734951.561,39.551,-972.168,77.148,13.184,0.0,0
1582734951.565,43.457,-972.168,59.57,20.996,0.0,0
1582734951.569,33.691,-972.168,84.473,27.832,0.0,0
1582734951.573,22.949,-972.168,95.215,20.02,0.0,0
1582734951.577,25.879,-972.168,72.266,11.719,0.0,0
1582734951.581,30.273000000000003,-972.168,55.176,12.207,0.0,0
1582734951.585,33.203,-972.168,53.223,13.672,0.0,0
1582734951.5879998,29.785,-972.168,73.73,16.113,0.0,0
1582734951.592,16.113,-972.168,69.824,21.973000000000006,0.0,0
1582734951.596,12.207,-972.168,54.688,20.02,0.0,0
1582734951.6,23.438,-972.168,91.309,20.508000000000006,0.0,0
1582734951.604,27.344,-972.168,92.285,12.695,0.0,0
1582734951.605,29.297,-972.168,70.312,10.254,0.0,0
1582734951.609,31.738000000000003,-972.168,77.637,20.508000000000006,0.0,0
1582734951.613,35.156,-972.168,91.797,21.973000000000006,0.0,0
1582734951.617,28.809,-972.168,83.49600000000002,16.602,0.0,0
1582734951.621,21.484,-972.168,68.848,13.184,0.0,0
1582734951.625,34.668,-972.168,62.012,19.531,0.0,0
1582734951.629,40.039,-972.168,72.266,21.973000000000006,0.0,0
1582734951.6320002,26.367,-972.168,94.727,21.484,0.0,0
1582734951.6360002,26.367,-972.168,61.035,21.973000000000006,0.0,0
1582734951.64,32.715,-972.168,57.129,18.555,0.0,0
1582734951.644,32.227,-972.168,104.492,31.25,0.0,0
1582734951.6479998,31.738000000000003,-972.168,99.609,32.227,0.0,0
1582734951.65,26.855,-972.168,82.52,16.602,0.0,0
1582734951.654,21.973000000000006,-972.168,80.078,20.508000000000006,0.0,0
1582734951.658,17.578,-972.168,90.332,26.367,0.0,0
1582734951.6620002,19.531,-972.168,82.031,27.832,0.0,0
1582734951.666,17.09,-972.168,73.242,20.508000000000006,0.0,0
1582734951.67,14.648,-972.168,70.801,16.602,0.0,0
1582734951.674,16.113,-972.168,79.102,15.137,0.0,0
1582734951.677,16.602,-972.168,69.824,12.695,0.0,0
1582734951.681,21.484,-972.168,48.828,12.695,0.0,0
1582734951.685,18.555,-972.168,89.844,9.766,0.0,0
1582734951.689,8.789,-972.168,110.352,7.324,0.0,0
1582734951.6929998,12.695,-972.168,80.566,7.812,0.0,0
1582734951.695,18.555,-972.168,68.359,10.254,0.0,0
1582734951.699,11.23,-972.168,93.75,3.906,0.0,0
1582734951.7029998,11.719,-972.168,86.914,5.371,0.0,0
1582734951.707,18.066,-972.168,67.87100000000001,13.672,0.0,0
1582734951.711,20.996,-972.168,65.43,15.137,0.0,0
1582734951.715,20.996,-972.168,62.988,11.719,0.0,0
1582734951.719,20.508000000000006,-972.168,67.87100000000001,16.602,0.0,0
1582734951.722,19.531,-972.168,51.27,26.367,0.0,0
1582734951.726,15.137,-972.168,58.105,26.367,0.0,0
1582734951.73,17.09,-972.168,104.004,16.602,0.0,0
1582734951.734,14.648,-972.168,86.426,14.16,0.0,0
1582734951.738,7.812,-972.168,70.801,20.996,0.0,0
1582734951.74,13.184,-972.168,83.008,19.531,0.0,0
1582734951.744,12.207,-972.168,87.891,19.043,0.0,0
1582734951.748,3.418,-972.168,66.406,17.578,0.0,0
1582734951.752,0.488,-972.168,67.383,17.09,0.0,0
1582734951.756,7.812,-972.168,91.797,25.879,0.0,0
1582734951.76,23.926,-972.168,78.125,33.203,0.0,0
1582734951.764,28.809,-972.168,64.453,27.832,0.0,0
1582734951.7670002,22.949,-972.168,58.105,19.531,0.0,0
1582734951.771,25.879,-972.168,84.473,18.066,0.0,0
1582734951.775,20.508000000000006,-972.168,99.121,17.578,0.0,0
1582734951.779,10.742,-972.168,76.66,14.16,0.0,0
1582734951.783,13.184,-972.168,70.801,16.602,0.0,0
1582734951.785,10.254,-972.168,83.984,20.02,0.0,0
1582734951.789,17.09,-972.168,87.402,21.973000000000006,0.0,0
1582734951.793,25.879,-972.168,78.613,22.461,0.0,0
1582734951.7970002,30.273000000000003,-972.168,75.195,21.973000000000006,0.0,0
1582734951.801,35.156,-972.168,86.914,24.414,0.0,0
1582734951.805,31.25,-972.168,75.684,24.902,0.0,0
1582734951.809,30.762,-972.168,36.133,20.996,0.0,0
1582734951.812,36.621,-972.168,51.27,12.207,0.0,0
1582734951.816,41.992,-972.168,100.586,20.508000000000006,0.0,0
1582734951.82,40.527,-972.168,89.844,30.273000000000003,0.0,0
1582734951.824,32.715,-972.168,85.449,26.855,0.0,0
1582734951.8279998,17.09,-972.168,94.727,29.297,0.0,0
1582734951.83,9.277,-972.168,82.031,31.25,0.0,0
1582734951.834,6.348,-972.168,64.941,26.855,0.0,0
1582734951.8379998,18.066,-972.168,52.734,21.973000000000006,0.0,0
1582734951.842,21.973000000000006,-972.168,62.988,14.648,0.0,0
1582734951.846,20.996,-972.168,60.059,18.066,0.0,0
1582734951.85,20.02,-972.168,36.621,22.461,0.0,0
1582734951.854,12.695,-972.168,33.203,13.672,0.0,0
1582734951.857,13.184,-972.168,61.523,5.371,0.0,0
1582734951.861,12.695,-972.168,58.594,5.371,0.0,0
1582734951.865,17.09,-972.168,43.945,9.766,0.0,0
1582734951.869,22.461,-972.168,76.66,16.602,0.0,0
1582734951.873,26.855,-972.168,84.473,22.461,0.0,0
1582734951.89,29.297,-972.168,71.777,17.578,0.0,0
1582734951.894,32.227,-972.168,72.266,20.02,0.0,0
1582734951.8979998,30.762,-972.168,68.359,27.344,0.0,0
1582734951.9020002,31.738000000000003,-972.168,78.613,33.691,0.0,0
1582734951.906,35.156,-972.168,80.078,27.832,0.0,0
1582734951.91,29.785,-972.168,52.734,20.996,0.0,0
1582734951.914,21.484,-972.168,60.547,22.461,0.0,0
1582734951.917,26.367,-972.168,88.867,26.855,0.0,0
1582734951.921,35.645,-972.168,99.609,27.344,0.0,0
1582734951.925,38.574,-972.168,72.266,17.09,0.0,0
1582734951.929,37.109,-972.168,77.637,16.113,0.0,0
1582734951.9329998,35.156,-972.168,100.098,23.438,0.0,0
1582734951.935,33.691,-972.168,84.961,26.855,0.0,0
1582734951.939,31.25,-972.168,83.008,29.785,0.0,0
1582734951.9429998,27.832,-972.168,96.68,32.715,0.0,0
1582734951.947,31.25,-972.168,95.215,29.297,0.0,0
1582734951.951,33.691,-972.168,77.637,37.598,0.0,0
1582734951.955,26.367,-972.168,63.965,41.504,0.0,0
1582734951.959,22.949,-972.168,70.312,37.109,0.0,0
1582734951.962,26.367,-972.168,92.773,40.527,0.0,0
1582734951.966,26.367,-972.168,75.195,41.992,0.0,0
1582734951.97,18.066,-972.168,50.293,30.762,0.0,0
1582734951.974,14.16,-972.168,82.031,27.832,0.0,0
1582734951.978,20.996,-972.168,88.37899999999998,26.855,0.0,0
1582734951.98,32.227,-972.168,66.406,31.25,0.0,0
1582734951.984,30.762,-972.168,67.383,33.203,0.0,0
1582734951.988,25.879,-972.168,65.43,24.414,0.0,0
1582734951.992,24.902,-972.168,62.988,23.926,0.0,0
1582734951.996,31.25,-972.168,69.336,28.809,0.0,0
1582734952.0,40.039,-972.168,55.176,30.273000000000003,0.0,0
1582734952.004,33.691,-972.168,68.359,24.414,0.0,0
1582734952.0070002,34.668,-972.168,94.238,25.879,0.0,0
1582734952.0110002,41.01600000000001,-972.168,56.64100000000001,28.809,0.0,0
1582734952.015,38.086,-972.168,55.176,29.785,0.0,0
1582734952.019,35.645,-972.168,100.586,36.133,0.0,0
1582734952.0229998,31.25,-972.168,86.426,32.715,0.0,0
1582734952.025,27.832,-972.168,83.008,26.367,0.0,1
1582734952.029,29.297,-972.168,89.355,27.832,0.0,0
1582734952.033,35.156,-972.168,86.426,26.367,0.0,0
1582734952.0370002,35.645,-972.168,82.031,32.715,0.0,0
1582734952.041,30.762,-972.168,67.383,40.039,0.0,0
1582734952.045,33.203,-972.168,57.129,36.133,0.0,0
1582734952.049,24.902,-972.168,62.5,28.32,0.0,0
1582734952.052,24.902,-972.168,59.082,24.902,0.0,0
1582734952.056,29.297,-972.168,52.734,28.32,0.0,0
1582734952.06,19.043,-972.168,83.984,25.391,0.0,0
1582734952.064,23.438,-972.168,85.93799999999997,21.973000000000006,0.0,0
1582734952.0679998,20.02,-972.168,60.059,26.367,0.0,0
1582734952.07,7.812,-972.168,62.5,35.156,0.0,0
1582734952.074,5.859,-972.168,76.172,37.598,0.0,0
1582734952.0779998,16.602,-972.168,72.75399999999998,36.133,0.0,0
1582734952.082,21.973000000000006,-972.168,63.477,27.832,0.0,0
1582734952.086,9.766,-972.168,57.129,19.531,0.0,0
1582734952.09,10.254,-972.168,54.688,26.855,0.0,0
1582734952.094,22.461,-972.168,78.125,29.297,0.0,0
1582734952.097,21.973000000000006,-972.168,52.246,22.949,0.0,0
1582734952.101,19.531,-972.168,42.969,21.973000000000006,0.0,0
1582734952.105,15.137,-972.168,85.93799999999997,26.367,0.0,0
1582734952.109,17.578,-972.168,74.707,28.809,0.0,0
1582734952.113,16.602,-972.168,66.406,29.297,0.0,0
1582734952.115,19.531,-972.168,81.543,22.949,0.0,0
1582734952.119,25.391,-972.168,74.219,16.113,0.0,0
1582734952.123,24.902,-972.168,51.27,30.762,0.0,0
1582734952.127,31.738000000000003,-972.168,62.988,41.992,0.0,0
1582734952.131,27.344,-972.168,71.289,35.645,0.0,0
1582734952.135,22.949,-972.168,48.828,41.992,0.0,0
1582734952.139,23.438,-972.168,36.133,37.598,0.0,0
1582734952.1420002,25.879,-972.168,41.504,26.855,0.0,0
1582734952.146,24.902,-972.168,59.57,23.438,0.0,0
1582734952.15,22.949,-972.168,74.219,34.18,0.0,0
1582734952.154,26.367,-972.168,62.012,35.156,0.0,0
1582734952.158,28.809,-972.168,44.922,29.785,0.0,0
1582734952.16,20.508000000000006,-972.168,74.707,33.691,0.0,0
1582734952.164,18.066,-972.168,65.918,25.391,0.0,0
1582734952.168,28.32,-972.168,43.457,25.391,0.0,0
1582734952.1720002,24.414,-972.168,50.293,24.902,0.0,0
1582734952.176,15.137,-972.168,56.152,24.414,0.0,0
1582734952.18,9.766,-972.168,49.805,20.996,0.0,0
1582734952.184,20.02,-972.168,22.949,8.301,0.0,0
1582734952.187,27.344,-972.168,42.969,10.742,0.0,0
1582734952.191,10.742,-972.168,81.543,14.648,0.0,0
1582734952.195,12.695,-972.168,74.707,18.555,0.0,0
1582734952.199,16.602,-972.168,66.406,19.531,0.0,0
1582734952.2029998,13.184,-972.168,73.73,10.254,0.0,0
1582734952.205,22.461,-972.168,71.289,13.672,0.0,0
1582734952.209,23.438,-972.168,63.477,13.184,0.0,0
1582734952.2129998,21.484,-972.168,62.012,12.695,0.0,0
1582734952.217,29.297,-972.168,85.93799999999997,25.391,0.0,0
1582734952.221,39.551,-972.168,93.262,32.715,0.0,0
1582734952.225,38.086,-972.168,58.105,29.297,0.0,0
1582734952.229,30.273000000000003,-972.168,47.363,20.996,0.0,0
1582734952.232,31.25,-972.168,81.543,20.996,0.0,0
1582734952.236,36.133,-972.168,96.68,26.855,0.0,0
1582734952.24,38.086,-972.168,84.961,28.32,0.0,0
1582734952.244,22.461,-972.168,74.219,17.578,0.0,0
1582734952.248,20.02,-972.168,80.566,10.742,0.0,0
1582734952.266,28.32,-972.168,80.566,14.16,0.0,0
1582734952.27,33.691,-972.168,71.289,18.066,0.0,0
1582734952.274,29.785,-972.168,77.637,15.137,0.0,0
1582734952.278,24.902,-972.168,83.49600000000002,10.742,0.0,0
1582734952.282,24.902,-972.168,65.918,7.324,0.0,0
1582734952.286,32.715,-972.168,47.852,7.812,0.0,0
1582734952.29,40.527,-972.168,43.945,14.648,0.0,0
1582734952.293,29.785,-972.168,64.453,11.23,0.0,0
1582734952.2970002,24.414,-972.168,82.52,9.766,0.0,0
1582734952.301,27.344,-972.168,48.34,14.648,0.0,0
1582734952.305,24.414,-972.168,58.594,14.16,0.0,0
1582734952.309,27.344,-972.168,104.004,24.414,0.0,0
1582734952.31,35.645,-972.168,85.93799999999997,24.902,0.0,0
1582734952.314,33.691,-972.168,58.594,21.484,0.0,0
1582734952.3179998,28.809,-972.168,70.801,21.973000000000006,0.0,0
1582734952.322,26.855,-972.168,79.59,21.973000000000006,0.0,0
1582734952.326,26.367,-972.168,72.266,23.926,0.0,0
1582734952.33,32.715,-972.168,50.78100000000001,24.902,0.0,0
1582734952.334,43.945,-972.168,58.594,22.461,0.0,0
1582734952.337,35.156,-972.168,86.914,18.066,0.0,0
1582734952.341,23.926,-972.168,58.105,20.996,0.0,0
1582734952.345,26.855,-972.168,43.945,22.461,0.0,0
1582734952.349,25.879,-972.168,87.891,25.391,0.0,0
1582734952.353,22.461,-972.168,94.238,21.973000000000006,0.0,0
1582734952.355,27.832,-972.168,67.383,19.043,0.0,0
1582734952.359,30.273000000000003,-972.168,68.359,25.391,0.0,0
1582734952.363,30.762,-972.168,88.867,18.066,0.0,0
1582734952.367,28.809,-972.168,85.449,19.531,0.0,0
1582734952.371,23.926,-972.168,70.312,15.137,0.0,0
1582734952.375,20.508000000000006,-972.168,44.922,13.672,0.0,0
1582734952.379,23.438,-972.168,55.176,22.461,0.0,0
1582734952.3820002,27.832,-972.168,88.867,20.508000000000006,0.0,0
1582734952.3860002,24.414,-972.168,62.5,17.578,0.0,0
1582734952.39,29.785,-972.168,61.523,21.973000000000006,0.0,0
1582734952.394,35.645,-972.168,107.422,26.855,0.0,0
1582734952.3979998,44.434,-972.168,81.543,32.227,0.0,0
1582734952.4,46.387,-972.168,66.406,32.715,0.0,0
1582734952.404,33.691,-972.168,83.008,23.438,0.0,0
1582734952.408,28.32,-972.168,85.449,18.555,0.0,0
1582734952.4120002,33.691,-972.168,68.848,26.855,0.0,0
1582734952.416,35.645,-972.168,65.43,39.062,0.0,0
1582734952.42,39.551,-972.168,61.035,32.715,0.0,0
1582734952.424,31.738000000000003,-972.168,77.148,24.414,0.0,0
1582734952.427,27.832,-972.168,76.66,29.297,0.0,0
1582734952.431,38.086,-972.168,49.316,26.367,0.0,0
1582734952.435,25.879,-972.168,78.613,15.137,0.0,0
1582734952.439,10.742,-972.168,84.473,21.973000000000006,0.0,0
1582734952.4429998,17.578,-972.168,69.336,34.18,0.0,0
1582734952.445,20.508000000000006,-972.168,78.125,30.762,0.0,0
1582734952.449,11.23,-972.168,75.195,18.555,0.0,0
1582734952.4529998,16.602,-972.168,60.547,18.066,0.0,0
1582734952.457,16.113,-972.168,67.383,19.531,0.0,0
1582734952.461,7.812,-972.168,77.148,15.137,0.0,0
1582734952.465,16.113,-972.168,61.523,13.672,0.0,0
1582734952.469,20.996,-972.168,73.73,13.184,0.0,0
1582734952.472,26.367,-972.168,54.688,14.648,0.0,0
1582734952.476,35.156,-972.168,54.199,20.508000000000006,0.0,0
1582734952.48,40.039,-972.168,105.957,26.855,0.0,0
1582734952.484,45.41,-972.168,77.637,34.18,0.0,0
1582734952.488,33.691,-972.168,71.289,35.156,0.0,0
1582734952.49,21.484,-972.168,92.285,32.715,0.0,0
1582734952.494,28.32,-972.168,89.355,39.551,0.0,0
1582734952.498,38.574,-972.168,77.637,41.504,0.0,0
1582734952.502,35.645,-972.168,76.172,39.062,0.0,0
1582734952.506,26.367,-972.168,85.93799999999997,38.574,0.0,0
1582734952.51,32.715,-972.168,70.312,35.156,0.0,0
1582734952.514,35.645,-972.168,56.64100000000001,32.715,0.0,0
1582734952.5170002,29.785,-972.168,57.617,32.715,0.0,0
1582734952.521,30.762,-972.168,80.566,31.25,0.0,0
1582734952.525,35.645,-972.168,99.121,37.109,0.0,0
1582734952.529,31.25,-972.168,84.473,41.504,0.0,0
1582734952.533,29.297,-972.168,77.148,39.551,0.0,0
1582734952.535,34.668,-972.168,80.078,40.039,0.0,0
1582734952.539,41.992,-972.168,75.195,41.992,0.0,0
1582734952.543,38.086,-972.168,68.359,37.109,0.0,0
1582734952.5470002,33.691,-972.168,64.453,27.344,0.0,0
1582734952.551,36.133,-972.168,59.082,31.25,0.0,0
1582734952.555,39.062,-972.168,55.664,39.551,0.0,0
1582734952.559,45.898,-972.168,41.504,43.457,0.0,0
1582734952.562,39.062,-972.168,52.734,34.18,0.0,0
1582734952.566,31.25,-972.168,82.031,31.25,0.0,0
1582734952.57,30.762,-972.168,93.262,41.504,0.0,0
1582734952.574,30.762,-972.168,79.102,42.48,0.0,0
1582734952.5779998,34.668,-972.168,61.523,33.203,0.0,0
1582734952.58,38.574,-972.168,82.52,25.879,0.0,0
1582734952.584,40.039,-972.168,81.543,28.32,0.0,0
1582734952.5879998,41.992,-972.168,68.359,36.621,0.0,0
1582734952.592,36.133,-972.168,70.312,33.691,0.0,0
1582734952.596,32.715,-972.168,63.965,28.809,0.0,0
1582734952.6,31.25,-972.168,42.969,29.785,0.0,0
1582734952.604,28.809,-972.168,31.25,37.598,0.0,0
1582734952.607,31.25,-972.168,65.43,38.086,0.0,0
1582734952.611,30.273000000000003,-972.168,88.37899999999998,31.25,0.0,0
1582734952.615,21.973000000000006,-972.168,64.453,31.25,0.0,0
1582734952.619,20.02,-972.168,58.105,25.391,0.0,0
1582734952.623,16.113,-972.168,71.777,26.367,0.0,0
1582734952.64,12.695,-972.168,61.035,24.902,0.0,0
1582734952.644,18.555,-972.168,47.363,23.438,0.0,0
1582734952.6479998,14.648,-972.168,54.199,26.367,0.0,0
1582734952.6520002,6.836,-972.168,73.73,24.902,0.0,0
1582734952.656,3.418,-972.168,71.777,19.531,0.0,0
1582734952.66,13.672,-972.168,38.574,28.809,0.0,0
1582734952.664,20.508000000000006,-972.168,51.27,36.621,0.0,0
1582734952.667,11.23,-972.168,80.078,30.762,0.0,0
1582734952.671,5.371,-972.168,70.312,23.438,0.0,0
1582734952.675,17.578,-972.168,41.01600000000001,18.066,0.0,0
1582734952.679,20.996,-972.168,60.059,18.066,0.0,0
1582734952.6829998,12.207,-972.168,86.914,20.996,0.0,0
1582734952.685,21.973000000000006,-972.168,69.336,27.832,0.0,0
1582734952.689,22.949,-972.168,56.152,29.785,0.0,0
1582734952.6929998,12.207,-972.168,55.664,31.25,0.0,0
1582734952.697,18.066,-972.168,75.684,34.668,0.0,0
1582734952.701,23.926,-972.168,63.477,23.926,0.0,0
1582734952.705,23.438,-972.168,41.992,26.367,0.0,0
1582734952.709,31.738000000000003,-972.168,49.316,37.109,0.0,0
1582734952.712,33.203,-972.168,68.848,29.785,0.0,0
1582734952.716,20.508000000000006,-972.168,58.594,19.531,0.0,0
1582734952.72,19.043,-972.168,34.18,15.625,0.0,0
1582734952.724,21.973000000000006,-972.168,74.707,13.184,0.0,0
1582734952.728,24.902,-972.168,92.285,16.602,0.0,0
1582734952.73,22.461,-972.168,62.5,18.066,0.0,0
1582734952.734,23.438,-972.168,61.523,17.09,0.0,0
1582734952.738,23.926,-972.168,66.895,13.672,0.0,0
1582734952.742,19.043,-972.168,62.988,16.113,0.0,0
1582734952.746,21.484,-972.168,56.64100000000001,16.602,0.0,0
1582734952.75,19.531,-972.168,52.734,15.625,0.0,0
1582734952.754,17.578,-972.168,64.453,16.113,0.0,0
1582734952.7570002,23.438,-972.168,70.801,15.625,0.0,0
1582734952.7610002,32.227,-972.168,67.383,20.02,0.0,0
1582734952.765,26.855,-972.168,70.312,21.973000000000006,0.0,0
1582734952.769,16.113,-972.168,91.797,18.066,0.0,0
1582734952.7729998,17.09,-972.168,87.402,22.949,0.0,0
1582734952.775,24.414,-972.168,60.059,22.461,0.0,0
1582734952.779,27.832,-972.168,71.289,15.625,0.0,0
1582734952.783,23.926,-972.168,101.562,18.555,0.0,0
1582734952.7870002,25.879,-972.168,81.543,14.648,0.0,0
1582734952.791,25.879,-972.168,52.734,14.648,0.0,0
1582734952.795,18.066,-972.168,55.664,19.043,0.0,0
1582734952.799,18.066,-972.168,73.242,23.438,0.0,0
1582734952.802,20.996,-972.168,67.383,16.113,0.0,0
1582734952.806,24.414,-972.168,57.617,10.742,0.0,0
1582734952.81,22.949,-972.168,101.074,20.996,0.0,0
1582734952.814,17.578,-972.168,101.562,25.879,0.0,0
1582734952.8179998,14.16,-972.168,64.453,19.043,0.0,0
1582734952.82,17.09,-972.168,71.289,18.066,0.0,0
1582734952.824,26.367,-972.168,84.961,24.414,0.0,0
1582734952.8279998,26.855,-972.168,77.637,28.809,0.0,0
1582734952.832,25.391,-972.168,76.172,26.855,0.0,0
1582734952.836,25.879,-972.168,80.078,25.391,0.0,0
1582734952.84,17.09,-972.168,78.125,25.391,0.0,0
1582734952.844,20.508000000000006,-972.168,72.266,27.832,0.0,0
1582734952.847,25.879,-972.168,44.922,22.949,0.0,0
1582734952.851,25.391,-972.168,51.758,18.555,0.0,0
1582734952.855,28.809,-972.168,90.82,26.367,0.0,0
1582734952.859,31.25,-972.168,81.055,27.344,0.0,0
1582734952.863,30.762,-972.168,60.547,27.344,0.0,0
1582734952.865,21.484,-972.168,64.453,25.879,0.0,0
1582734952.869,19.043,-972.168,78.125,17.578,0.0,0
1582734952.873,29.785,-972.168,61.035,17.578,0.0,0
1582734952.877,33.203,-972.168,48.828,17.09,0.0,0
1582734952.881,22.949,-972.168,58.105,16.602,0.0,0
1582734952.885,13.184,-972.168,58.105,26.367,0.0,0
1582734952.889,17.578,-972.168,50.78100000000001,27.344,0.0,0
1582734952.8920002,35.156,-972.168,54.199,26.367,0.0,0
1582734952.896,27.832,-972.168,93.75,25.391,0.0,0
1582734952.9,19.043,-972.168,97.168,19.043,0.0,0
1582734952.904,27.344,-972.168,63.477,18.555,0.0,0
1582734952.908,25.879,-972.168,69.824,17.578,0.0,0
1582734952.91,10.254,-972.168,83.49600000000002,20.508000000000006,0.0,0
1582734952.914,9.277,-972.168,80.078,24.902,0.0,0
1582734952.918,18.555,-972.168,68.359,26.855,0.0,0
1582734952.9220002,23.438,-972.168,74.219,34.18,0.0,0
1582734952.926,35.645,-972.168,78.613,38.086,0.0,0
1582734952.93,37.598,-972.168,62.5,34.668,0.0,0
1582734952.934,31.25,-972.168,40.039,22.461,0.0,0
1582734952.937,29.297,-972.168,45.898,22.461,0.0,0
1582734952.941,28.809,-972.168,85.93799999999997,29.297,0.0,0
1582734952.945,28.809,-972.168,77.148,29.785,0.0,0
1582734952.949,28.32,-972.168,68.359,30.273000000000003,0.0,0
1582734952.9529998,32.227,-972.168,70.312,24.902,0.0,0
1582734952.955,38.574,-972.168,66.406,31.738000000000003,0.0,0
1582734952.959,32.715,-972.168,52.246,32.227,0.0,0
1582734952.9629998,23.926,-972.168,44.922,23.926,0.0,0
1582734952.967,24.902,-972.168,61.523,21.973000000000006,0.0,0
1582734952.971,30.273000000000003,-972.168,68.359,22.461,0.0,0
1582734952.975,29.297,-972.168,49.805,25.391,0.0,0
1582734952.979,22.949,-972.168,43.457,17.09,0.0,0
1582734952.982,15.137,-972.168,71.777,8.301,0.0,0
1582734952.986,19.531,-972.168,81.543,6.836,0.0,0
1582734952.99,28.809,-972.168,51.758,16.602,0.0,0
1582734952.994,16.602,-972.168,40.039,20.508000000000006,0.0,0
1582734952.998,10.254,-972.168,67.383,17.578,0.0,0
1582734953.015,25.391,-972.168,86.426,24.414,0.0,0
1582734953.019,35.156,-972.168,67.87100000000001,26.855,0.0,0
1582734953.0229998,28.32,-972.168,70.312,20.996,0.0,0
1582734953.0270002,22.949,-972.168,77.148,30.762,0.0,0
1582734953.031,26.855,-972.168,66.895,34.668,0.0,0
1582734953.035,36.133,-972.168,47.363,29.785,0.0,0
1582734953.039,39.062,-972.168,47.852,29.297,0.0,0
1582734953.042,34.668,-972.168,71.289,31.738000000000003,0.0,0
1582734953.046,31.738000000000003,-972.168,73.242,32.227,0.0,0
1582734953.05,34.18,-972.168,57.129,30.762,0.0,0
1582734953.054,35.156,-972.168,62.5,29.785,0.0,0
1582734953.0579998,23.926,-972.168,80.078,23.926,0.0,0
1582734953.06,18.066,-972.168,73.73,20.996,0.0,0
1582734953.064,24.414,-972.168,65.918,27.832,0.0,0
1582734953.0679998,20.508000000000006,-972.168,56.152,20.02,0.0,0
1582734953.072,14.648,-972.168,59.57,13.184,0.0,0
1582734953.076,15.625,-972.168,49.316,18.066,0.0,0
1582734953.08,10.254,-972.168,34.668,16.602,0.0,0
1582734953.084,14.16,-972.168,47.852,15.625,0.0,0
1582734953.087,18.555,-972.168,75.195,12.207,0.0,0
1582734953.091,15.137,-972.168,43.945,19.531,0.0,0
1582734953.095,18.555,-972.168,28.32,26.367,0.0,0
1582734953.099,25.391,-972.168,62.012,20.508000000000006,0.0,0
1582734953.103,30.762,-972.168,57.129,19.531,0.0,0
1582734953.105,29.297,-972.168,48.34,15.137,0.0,0
1582734953.109,27.832,-972.168,62.5,20.996,0.0,0
1582734953.113,33.691,-972.168,77.148,26.855,0.0,0
1582734953.117,41.01600000000001,-972.168,64.453,20.996,0.0,0
1582734953.121,40.527,-972.168,48.34,26.367,0.0,0
1582734953.125,28.32,-972.168,40.527,30.273000000000003,0.0,2
1582734953.129,29.785,-972.168,60.059,30.273000000000003,0.0,0
1582734953.1320002,31.738000000000003,-972.168,82.031,29.297,0.0,0
1582734953.1360002,28.32,-972.168,42.48,20.02,0.0,0
1582734953.14,23.438,-972.168,42.969,24.414,0.0,0
1582734953.144,20.508000000000006,-972.168,86.914,22.949,0.0,0
1582734953.1479998,20.996,-972.168,70.312,16.113,0.0,0
1582734953.15,11.719,-972.168,64.941,14.16,0.0,0
1582734953.154,9.766,-972.168,60.059,15.137,0.0,0
1582734953.158,17.578,-972.168,64.941,20.02,0.0,0
1582734953.1620002,20.996,-972.168,68.848,24.414,0.0,0
1582734953.166,23.926,-972.168,50.78100000000001,15.625,0.0,0
1582734953.17,30.762,-972.168,44.434,12.695,0.0,0
1582734953.174,33.691,-972.168,58.105,16.113,0.0,0
1582734953.177,38.086,-972.168,46.387,18.066,0.0,0
1582734953.181,36.133,-972.168,33.691,20.02,0.0,0
1582734953.185,27.344,-972.168,76.66,24.414,0.0,0
1582734953.189,18.555,-972.168,86.426,37.109,0.0,0
1582734953.1929998,13.672,-972.168,44.922,39.062,0.0,0
1582734953.195,20.508000000000006,-972.168,37.598,34.668,0.0,0
1582734953.199,16.113,-972.168,68.848,38.574,0.0,0
1582734953.2029998,17.09,-972.168,64.941,41.504,0.0,0
1582734953.207,23.926,-972.168,54.199,33.691,0.0,0
1582734953.211,29.785,-972.168,43.945,32.715,0.0,0
1582734953.215,28.32,-972.168,33.691,31.738000000000003,0.0,0
1582734953.219,26.367,-972.168,36.621,27.344,0.0,0
1582734953.222,38.086,-972.168,20.02,32.227,0.0,0
1582734953.226,42.969,-972.168,34.18,33.691,0.0,0
1582734953.23,42.48,-972.168,70.801,27.344,0.0,0
1582734953.234,33.203,-972.168,70.312,30.762,0.0,0
1582734953.238,23.926,-972.168,71.777,31.25,0.0,0
1582734953.24,31.738000000000003,-972.168,65.918,27.832,0.0,0
1582734953.244,37.109,-972.168,58.594,26.855,0.0,0
1582734953.248,41.992,-972.168,53.223,19.531,0.0,0
1582734953.252,42.969,-972.168,56.64100000000001,31.25,0.0,0
1582734953.256,27.344,-972.168,66.406,33.691,0.0,0
1582734953.26,22.949,-972.168,49.316,24.902,0.0,0
1582734953.264,25.391,-972.168,51.27,28.809,0.0,0
1582734953.2670002,27.344,-972.168,53.71100000000001,22.461,0.0,0
1582734953.271,34.18,-972.168,69.824,24.414,0.0,0
1582734953.275,39.551,-972.168,93.262,28.809,0.0,0
1582734953.279,36.621,-972.168,64.453,21.973000000000006,0.0,0
1582734953.283,32.227,-972.168,65.43,21.973000000000006,0.0,0
1582734953.285,25.391,-972.168,85.449,24.414,0.0,0
1582734953.289,29.785,-971.68,84.473,33.691,0.0,0
1582734953.293,36.133,-971.68,83.984,42.969,0.0,0
1582734953.2970002,34.668,-972.168,74.219,40.039,0.0,0
1582734953.301,37.598,-972.168,69.824,34.18,0.0,0
1582734953.305,40.527,-972.168,62.988,33.203,0.0,0
1582734953.309,41.01600000000001,-972.168,39.062,26.855,0.0,0
1582734953.312,28.809,-972.168,43.457,19.531,0.0,0
1582734953.316,30.273000000000003,-972.168,87.402,23.926,0.0,0
1582734953.32,36.133,-972.168,83.49600000000002,31.738000000000003,0.0,0
1582734953.324,33.691,-970.703,50.293,29.785,0.0,0
1582734953.3279998,32.715,-977.051,51.27,26.855,0.0,0
1582734953.33,30.273000000000003,-948.73,96.191,25.879,0.0,0
1582734953.334,37.109,-940.918,80.078,30.762,0.0,0
1582734953.3379998,38.086,-973.633,57.617,37.109,0.0,0
1582734953.342,37.598,-972.168,65.43,31.25,0.0,0
1582734953.346,44.434,-971.191,73.242,26.855,0.0,0
1582734953.35,39.551,-972.168,47.363,28.809,0.0,0
1582734953.354,37.109,-972.168,32.227,31.738000000000003,0.0,0
1582734953.357,44.434,-972.168,76.66,33.203,0.0,0
1582734953.361,40.527,-972.168,102.051,33.691,0.0,0
1582734953.365,40.527,-972.168,65.918,39.062,0.0,0
1582734953.369,39.551,-972.168,53.71100000000001,41.504,0.0,0
1582734953.373,40.039,-972.168,76.172,37.109,0.0,0
1582734953.39,44.922,-972.168,67.383,34.18,0.0,0
1582734953.394,41.504,-972.168,46.875,39.551,0.0,0
1582734953.3979998,35.645,-972.168,43.457,38.086,0.0,0
1582734953.4020002,37.598,-972.168,72.75399999999998,32.715,0.0,0
1582734953.406,39.062,-972.168,77.148,29.785,0.0,0
1582734953.41,40.527,-972.168,58.105,34.18,0.0,0
1582734953.414,46.875,-972.168,49.316,30.762,0.0,0
1582734953.417,49.316,-972.168,75.195,22.949,0.0,0
1582734953.421,43.457,-972.168,89.355,25.879,0.0,0
1582734953.425,35.645,-972.168,59.082,21.484,0.0,0
1582734953.429,27.832,-972.168,62.988,20.996,0.0,0
1582734953.4329998,32.227,-972.168,83.008,25.391,0.0,0
1582734953.435,43.945,-972.168,82.031,27.832,0.0,0
1582734953.439,38.086,-972.168,83.49600000000002,21.484,0.0,0
1582734953.4429998,30.273000000000003,-972.168,84.961,18.066,0.0,0
1582734953.447,34.18,-972.168,89.844,23.438,0.0,0
1582734953.451,35.645,-972.168,70.312,24.902,0.0,0
1582734953.455,33.691,-972.168,54.199,22.949,0.0,0
1582734953.459,31.25,-972.168,69.336,19.043,0.0,0
1582734953.462,29.785,-972.168,83.984,20.508000000000006,0.0,0
1582734953.466,31.25,-972.168,79.59,32.715,0.0,0
1582734953.47,27.344,-972.168,48.828,34.18,0.0,0
1582734953.474,21.484,-972.168,75.684,19.531,0.0,0
1582734953.478,27.344,-972.168,85.449,19.531,0.0,0
1582734953.48,35.645,-972.168,68.848,29.297,0.0,0
1582734953.484,35.645,-972.168,66.406,29.297,0.0,0
1582734953.488,34.668,-972.168,68.848,29.785,0.0,0
1582734953.492,38.574,-972.168,73.242,31.25,0.0,0
1582734953.496,42.48,-972.168,59.57,34.18,0.0,0
1582734953.5,40.039,-972.168,55.664,42.969,0.0,0
1582734953.504,34.18,-972.168,64.453,34.18,0.0,0
1582734953.5070002,35.156,-972.168,64.941,27.344,0.0,0
1582734953.5110002,41.992,-972.168,43.945,37.109,0.0,0
1582734953.515,45.898,-972.168,62.988,42.48,0.0,0
1582734953.519,41.01600000000001,-972.168,102.051,41.01600000000001,0.0,0
1582734953.5229998,37.109,-972.168,76.66,29.297,0.0,0
1582734953.525,37.598,-972.168,66.895,32.715,0.0,0
1582734953.529,36.621,-972.168,85.449,49.316,0.0,0
1582734953.533,27.832,-972.168,82.52,41.504,0.0,0
1582734953.5370002,22.949,-972.168,66.895,30.273000000000003,0.0,0
1582734953.541,21.484,-972.168,55.664,25.391,0.0,0
1582734953.545,24.414,-972.168,41.992,23.926,0.0,0
1582734953.549,19.531,-972.168,58.594,18.555,0.0,0
1582734953.552,20.996,-972.168,61.523,16.113,0.0,0
1582734953.556,28.809,-972.168,42.969,25.391,0.0,0
1582734953.56,18.066,-972.168,80.566,22.949,0.0,0
1582734953.564,11.23,-972.168,83.008,18.066,0.0,0
1582734953.5679998,13.672,-972.168,65.43,15.625,0.0,0
1582734953.57,17.578,-972.168,70.312,4.883,0.0,0
1582734953.574,9.766,-972.168,81.543,2.93,0.0,0
1582734953.5779998,4.883,-972.168,81.543,5.859,0.0,0
1582734953.582,-9.766,-972.168,68.848,-11.23,0.0,0
1582734953.586,-39.062,-972.168,62.012,-33.203,0.0,0
1582734953.59,-36.621,-972.168,71.777,-25.391,0.0,0
1582734953.594,-52.734,-972.168,90.332,-39.551,0.0,0
1582734953.597,-80.566,-972.168,61.523,-71.777,0.0,0
1582734953.601,-94.238,-972.168,64.941,-91.309,0.0,0
1582734953.605,-138.672,-972.168,116.211,-130.859,0.0,0
1582734953.609,-177.734,-972.168,105.957,-162.59799999999996,0.0,0
1582734953.613,-209.473,-972.168,90.332,-193.359,0.0,0
1582734953.6160002,-242.676,-972.168,94.238,-239.258,0.0,0
1582734953.62,-272.461,-972.168,100.586,-273.438,0.0,0
1582734953.6239998,-287.598,-972.168,99.609,-281.25,0.0,0
1582734953.6279998,-275.879,-972.168,113.281,-279.297,0.0,0
1582734953.6320002,-274.414,-972.168,121.582,-293.457,0.0,0
1582734953.6360002,-286.621,-972.168,106.445,-300.781,0.0,0
1582734953.64,-274.902,-972.168,92.285,-285.156,0.0,0
1582734953.643,-257.324,-972.168,88.867,-273.926,0.0,0
1582734953.647,-250.977,-972.168,125.488,-272.949,0.0,0
1582734953.651,-246.094,-972.168,148.438,-264.648,0.0,0
1582734953.655,-235.352,-972.168,122.559,-241.699,0.0,0
1582734953.659,-212.891,-972.168,109.375,-217.773,0.0,0
1582734953.66,-185.05900000000003,-972.168,118.164,-195.312,0.0,0
1582734953.664,-154.785,-972.168,109.863,-171.875,0.0,0
1582734953.668,-121.582,-972.168,93.262,-151.855,0.0,0
1582734953.6720002,-82.031,-972.168,92.285,-125.488,0.0,0
1582734953.676,-62.5,-972.168,99.609,-92.773,0.0,0
1582734953.68,-45.41,-972.168,90.332,-66.406,0.0,0
1582734953.684,-10.254,-972.168,67.87100000000001,-36.621,0.0,0
1582734953.687,12.695,-972.168,75.684,-11.719,0.0,0
1582734953.691,32.227,-972.168,101.562,2.441,0.0,0
1582734953.695,52.246,-972.168,85.93799999999997,16.602,0.0,0
1582734953.699,63.477,-972.168,59.082,32.715,0.0,0
1582734953.7029998,69.336,-972.168,62.988,52.734,0.0,0
1582734953.705,77.637,-972.168,73.242,65.43,0.0,0
1582734953.709,90.332,-972.168,50.293,67.383,0.0,0
1582734953.7129998,101.074,-972.168,31.738000000000003,82.52,0.0,0
1582734953.717,113.77,-972.168,48.828,103.516,0.0,0
1582734953.721,121.582,-972.168,53.71100000000001,111.816,0.0,0
1582734953.725,119.629,-972.168,16.113,110.84,0.0,0
1582734953.729,125.0,-972.168,13.672,116.211,0.0,0
1582734953.732,129.88299999999998,-972.168,42.969,130.859,0.0,0
1582734953.736,133.789,-972.168,46.875,138.672,0.0,0
1582734953.74,141.113,-972.168,43.457,138.672,0.0,0
1582734953.744,142.09,-972.168,30.273000000000003,133.30100000000002,0.0,0
1582734953.748,145.50799999999995,-972.168,36.621,135.254,0.0,0
1582734953.765,151.855,-972.168,29.297,143.555,0.0,0
1582734953.769,150.879,-972.168,8.789,141.602,0.0,0
1582734953.7729998,145.02,-972.168,10.254,137.207,0.0,0
1582734953.7770002,146.97299999999996,-972.168,25.391,139.16,0.0,0
1582734953.781,155.762,-972.168,22.949,149.90200000000004,0.0,0
1582734953.785,153.32,-972.168,3.906,155.762,0.0,0
1582734953.789,153.809,-972.168,12.207,149.90200000000004,0.0,0
1582734953.792,157.715,-972.168,45.41,146.97299999999996,0.0,0
1582734953.796,153.809,-972.168,51.27,146.97299999999996,0.0,0
1582734953.8,154.297,-972.168,22.461,145.996,0.0,0
1582734953.804,148.92600000000004,-972.168,26.855,145.996,0.0,0
1582734953.8079998,137.207,-972.168,48.828,136.719,0.0,0
1582734953.81,137.695,-972.168,45.41,131.34799999999998,0.0,0
1582734953.814,137.207,-972.168,29.785,125.977,0.0,0
1582734953.8179998,128.906,-972.168,37.109,114.258,0.0,0
1582734953.822,118.164,-972.168,39.551,112.793,0.0,0
1582734953.826,111.816,-972.168,29.297,115.234,0.0,0
1582734953.83,110.84,-972.168,23.926,114.746,0.0,0
1582734953.834,115.234,-972.168,33.203,117.188,0.0,0
1582734953.837,116.699,-972.168,54.199,115.234,0.0,0
1582734953.841,113.281,-972.168,42.48,110.352,0.0,0
1582734953.845,115.234,-972.168,23.926,112.793,0.0,0
1582734953.849,120.117,-972.168,42.969,115.234,0.0,0
1582734953.853,116.699,-972.168,46.875,113.281,0.0,0
1582734953.855,107.422,-972.168,42.48,104.004,0.0,0
1582734953.859,103.516,-972.168,31.25,101.074,0.0,0
1582734953.863,100.098,-972.168,42.48,98.145,0.0,0
1582734953.867,94.238,-972.168,55.664,93.262,0.0,0
1582734953.871,87.891,-972.168,43.945,89.355,0.0,0
1582734953.875,89.355,-972.168,44.434,89.844,0.0,0
1582734953.879,87.891,-972.168,53.223,94.727,0.0,0
1582734953.8820002,79.59,-972.168,64.941,86.914,0.0,0
1582734953.8860002,77.148,-972.168,47.852,74.707,0.0,0
1582734953.89,70.312,-972.168,38.574,74.707,0.0,0
1582734953.894,59.082,-972.168,94.238,72.266,0.0,0
1582734953.8979998,67.383,-971.191,82.031,68.848,0.0,0
1582734953.9,64.453,-971.68,55.176,73.242,0.0,0
1582734953.904,54.688,-972.168,68.359,70.801,0.0,0
1582734953.908,50.78100000000001,-972.168,73.73,63.477,0.0,0
1582734953.9120002,49.805,-972.168,59.57,62.012,0.0,0
1582734953.916,51.27,-972.168,43.457,57.617,0.0,0
1582734953.92,49.805,-972.168,48.828,57.129,0.0,0
1582734953.924,50.78100000000001,-972.168,59.57,53.71100000000001,0.0,0
1582734953.927,49.316,-972.168,52.734,48.34,0.0,0
1582734953.931,45.898,-972.168,53.223,40.527,0.0,0
1582734953.935,43.457,-972.168,82.031,32.227,0.0,0
1582734953.939,44.434,-972.168,83.984,34.668,0.0,0
1582734953.9429998,45.41,-972.168,61.523,44.434,0.0,0
1582734953.945,44.922,-972.168,60.059,49.316,0.0,0
1582734953.949,38.574,-972.168,66.406,52.734,0.0,0
1582734953.9529998,37.109,-972.168,52.246,62.012,0.0,0
1582734953.957,38.574,-972.168,50.78100000000001,60.059,0.0,0
1582734953.961,38.574,-972.168,55.664,55.664,0.0,0
1582734953.965,35.156,-972.168,42.48,51.758,0.0,0
1582734953.969,37.109,-972.168,59.57,46.387,0.0,0
1582734953.972,40.039,-972.168,41.992,41.992,0.0,0
1582734953.976,33.203,-972.168,36.621,39.062,0.0,0
1582734953.98,34.18,-972.168,82.52,43.457,0.0,0
1582734953.984,37.598,-972.168,76.172,48.34,0.0,0
1582734953.988,36.133,-972.168,69.824,46.387,0.0,0
1582734953.99,33.691,-972.168,74.707,47.852,0.0,0
1582734953.994,33.691,-971.191,77.637,41.992,0.0,0
1582734953.998,32.715,-973.633,52.246,30.273000000000003,0.0,0
1582734954.002,26.855,-966.797,64.941,33.203,0.0,0
1582734954.006,25.391,-961.914,75.684,35.645,0.0,0
1582734954.01,32.227,-972.656,47.363,33.691,0.0,0
1582734954.014,36.621,-972.168,49.316,35.156,0.0,0
1582734954.0170002,39.062,-971.68,53.223,35.156,0.0,0
1582734954.021,38.086,-972.168,83.008,40.039,0.0,0
1582734954.025,40.527,-972.168,99.609,46.875,0.0,0
1582734954.029,41.992,-972.168,74.707,44.922,0.0,0
1582734954.033,37.109,-972.168,73.73,44.434,0.0,0
1582734954.035,37.109,-972.168,99.121,42.48,0.0,0
1582734954.039,38.574,-972.168,94.727,39.062,0.0,0
1582734954.043,32.715,-972.168,68.848,32.715,0.0,0
1582734954.0470002,26.855,-972.168,77.637,29.297,0.0,0
1582734954.051,28.32,-972.168,85.449,29.297,0.0,0
1582734954.055,33.691,-971.68,87.402,30.762,0.0,0
1582734954.059,38.574,-973.145,62.988,31.738000000000003,0.0,0
1582734954.062,31.25,-969.238,67.87100000000001,25.879,0.0,0
1582734954.066,36.621,-965.82,113.77,26.855,0.0,0
1582734954.07,39.551,-972.168,101.074,27.832,0.0,0
1582734954.074,33.203,-972.168,88.37899999999998,27.344,0.0,0
1582734954.0779998,28.32,-971.68,66.895,28.809,0.0,0
1582734954.095,32.715,-972.168,74.219,28.32,0.0,0
1582734954.099,40.527,-972.168,74.707,34.18,0.0,0
1582734954.103,37.598,-972.168,68.359,31.25,0.0,0
1582734954.107,35.156,-972.168,81.055,14.648,0.0,0
1582734954.111,30.762,-972.168,68.848,14.16,0.0,0
1582734954.115,31.25,-972.168,45.898,20.508000000000006,0.0,0
1582734954.119,35.156,-972.168,36.133,19.043,0.0,0
1582734954.1220002,29.785,-972.168,80.566,8.789,0.0,0
1582734954.1260002,25.391,-972.168,100.098,14.648,0.0,0
1582734954.13,27.832,-972.168,62.988,20.508000000000006,0.0,0
1582734954.1339998,26.855,-972.168,73.73,19.043,0.0,0
1582734954.1379998,26.367,-972.168,88.37899999999998,20.02,0.0,0
1582734954.14,27.344,-972.168,75.684,13.184,0.0,0
1582734954.144,28.809,-972.168,65.918,16.602,0.0,0
1582734954.1479998,29.297,-972.168,67.87100000000001,20.02,0.0,0
1582734954.1520002,37.109,-972.168,77.637,19.531,0.0,0
1582734954.156,45.41,-972.168,56.64100000000001,24.414,0.0,0
1582734954.16,46.387,-972.168,37.109,27.832,0.0,0
1582734954.164,38.086,-972.168,51.758,25.391,0.0,0
1582734954.167,43.457,-972.168,69.824,29.785,0.0,0
1582734954.171,40.039,-972.168,87.402,30.762,0.0,0
1582734954.175,24.902,-972.168,49.805,22.949,0.0,0
1582734954.179,27.832,-972.168,40.039,22.461,0.0,0
1582734954.1829998,30.273000000000003,-972.168,98.633,25.391,0.0,0
1582734954.185,28.809,-972.168,86.426,25.879,0.0,0
1582734954.189,30.273000000000003,-972.168,72.75399999999998,27.344,0.0,0
1582734954.1929998,26.367,-972.168,73.242,26.855,0.0,0
1582734954.197,25.391,-972.168,72.266,26.855,0.0,0
1582734954.201,23.438,-972.168,76.66,30.762,0.0,0
1582734954.205,15.137,-972.168,63.965,23.926,0.0,0
1582734954.209,17.09,-972.168,56.152,19.043,0.0,0
1582734954.212,23.926,-972.168,64.941,24.414,0.0,0
1582734954.216,31.25,-972.168,65.43,30.273000000000003,0.0,0
1582734954.22,31.25,-972.168,46.875,29.785,0.0,0
1582734954.224,26.367,-972.168,77.637,25.879,0.0,0
1582734954.228,27.832,-972.168,96.191,26.855,0.0,0
1582734954.23,39.551,-972.168,73.73,32.715,0.0,0
1582734954.234,38.574,-972.168,65.918,34.668,0.0,0
1582734954.238,27.344,-972.168,82.52,33.203,0.0,0
1582734954.242,34.668,-972.168,73.73,36.621,0.0,1
1582734954.246,43.945,-972.168,53.71100000000001,40.039,0.0,0
1582734954.25,42.969,-972.168,46.387,40.527,0.0,0
1582734954.254,36.133,-972.168,50.293,40.527,0.0,0
1582734954.2570002,33.203,-972.168,77.148,42.48,0.0,0
1582734954.2610002,37.598,-972.168,57.129,38.086,0.0,0
1582734954.265,34.668,-972.168,59.57,32.227,0.0,0
1582734954.269,27.344,-972.168,93.262,40.039,0.0,0
1582734954.2729998,23.926,-972.168,62.5,32.715,0.0,0
1582734954.275,18.555,-972.168,58.594,28.809,0.0,0
1582734954.279,14.648,-972.168,76.66,34.668,0.0,0
1582734954.283,12.207,-972.168,80.078,26.855,0.0,0
1582734954.2870002,9.766,-972.168,74.707,23.438,0.0,0
1582734954.291,13.672,-972.168,56.64100000000001,29.785,0.0,0
1582734954.295,25.879,-972.168,55.664,31.25,0.0,0
1582734954.299,24.902,-972.168,80.078,23.926,0.0,0
1582734954.302,15.137,-971.68,79.102,23.926,0.0,0
1582734954.306,21.973000000000006,-972.168,46.387,28.32,0.0,0
1582734954.31,29.297,-972.656,78.613,38.574,0.0,0
1582734954.314,31.738000000000003,-962.891,100.586,41.992,0.0,0
1582734954.3179998,33.203,-966.797,70.801,36.133,0.0,0
1582734954.32,31.25,-973.633,64.453,36.621,0.0,0
1582734954.324,31.738000000000003,-971.191,79.59,40.527,0.0,0
1582734954.3279998,43.945,-972.168,87.891,47.363,0.0,0
1582734954.332,52.246,-972.168,63.965,46.387,0.0,0
1582734954.336,39.551,-972.168,64.941,43.945,0.0,0
1582734954.34,37.598,-972.168,65.918,46.875,0.0,0
1582734954.344,41.01600000000001,-972.168,75.195,50.78100000000001,0.0,0
1582734954.347,46.875,-971.68,56.64100000000001,48.34,0.0,0
1582734954.351,40.527,-972.656,50.293,38.574,0.0,0
1582734954.355,27.344,-967.773,88.37899999999998,35.156,0.0,0
1582734954.359,26.367,-967.285,69.336,33.691,0.0,0
1582734954.363,30.762,-972.656,58.594,31.25,0.0,0
1582734954.365,33.691,-972.168,76.172,32.227,0.0,0
1582734954.369,32.227,-972.168,85.449,30.273000000000003,0.0,0
1582734954.373,29.297,-972.168,73.242,32.715,0.0,0
1582734954.377,23.926,-972.168,65.918,34.18,0.0,0
1582734954.381,20.02,-972.168,65.43,25.879,0.0,0
1582734954.385,17.578,-972.168,62.012,19.531,0.0,0
1582734954.389,23.438,-972.168,64.453,24.902,0.0,0
1582734954.3920002,23.926,-971.191,51.27,23.438,0.0,0
1582734954.396,20.02,-975.586,77.637,12.695,0.0,0
1582734954.4,20.508000000000006,-955.078,106.934,20.508000000000006,0.0,0
1582734954.404,23.926,-947.754,82.52,38.574,0.0,0
1582734954.408,32.227,-972.656,65.43,32.227,0.0,0
1582734954.41,35.645,-976.562,76.66,26.367,0.0,0
1582734954.414,24.902,-941.895,83.49600000000002,21.484,0.0,0
1582734954.418,30.762,-948.73,62.5,28.809,0.0,0
1582734954.4220002,45.41,-969.238,78.613,43.945,0.0,0
1582734954.426,41.01600000000001,-955.078,89.355,30.762,0.0,0
1582734954.43,30.273000000000003,-972.168,56.64100000000001,22.949,0.0,0
1582734954.434,38.574,-972.656,36.621,31.25,0.0,0
1582734954.437,52.246,-971.191,52.246,35.645,0.0,0
1582734954.441,47.363,-974.121,100.098,38.574,0.0,0
1582734954.445,30.762,-960.449,94.238,26.367,0.0,0
1582734954.449,20.996,-962.402,76.66,20.508000000000006,0.0,0
1582734954.4529998,29.297,-974.121,76.172,30.273000000000003,0.0,0
1582734954.455,36.621,-971.191,83.49600000000002,26.367,0.0,0
1582734954.459,32.715,-972.168,66.406,22.949,0.0,0
1582734954.4629998,27.344,-972.168,47.363,23.926,0.0,0
1582734954.467,39.062,-972.168,67.87100000000001,33.691,0.0,0
1582734954.471,44.434,-972.168,83.984,35.156,0.0,0
1582734954.475,29.297,-971.68,55.664,22.949,0.0,0
1582734954.479,29.297,-972.168,31.738000000000003,20.02,0.0,0
1582734954.482,21.973000000000006,-973.633,74.707,21.484,0.0,0
1582734954.486,11.719,-953.613,87.891,20.996,0.0,0
1582734954.49,19.531,-959.473,55.664,25.879,0.0,0
1582734954.494,25.879,-975.586,46.387,32.715,0.0,0
1582734954.498,24.414,-970.703,62.5,32.227,0.0,0
1582734954.515,27.832,-972.168,69.336,30.762,0.0,0
1582734954.519,43.457,-972.168,60.547,32.715,0.0,0
1582734954.5229998,29.785,-972.168,50.78100000000001,27.344,0.0,0
1582734954.5270002,9.277,-972.168,57.617,23.926,0.0,0
1582734954.531,20.02,-972.168,53.71100000000001,31.738000000000003,0.0,0
1582734954.535,25.391,-969.238,21.973000000000006,34.668,0.0,0
1582734954.539,20.508000000000006,-979.98,44.434,30.762,0.0,0
1582734954.542,22.461,-930.176,78.125,18.066,0.0,0
1582734954.546,22.949,-899.414,61.035,14.648,0.0,0
1582734954.55,19.531,-959.961,21.484,14.16,0.0,0
1582734954.554,16.602,-979.004,35.645,7.324,0.0,0
1582734954.5579998,20.996,-958.984,72.75399999999998,18.555,0.0,0
1582734954.56,14.16,-940.918,54.688,13.184,0.0,0
1582734954.564,11.719,-966.309,43.457,5.859,0.0,0
1582734954.5679998,16.602,-974.609,67.383,16.602,0.0,0
1582734954.572,15.625,-970.703,73.73,15.137,0.0,0
1582734954.576,12.695,-972.168,59.57,15.625,0.0,0
1582734954.58,18.066,-972.168,46.387,23.438,0.0,0
1582734954.584,27.832,-972.168,57.129,16.602,0.0,0
1582734954.587,20.02,-972.168,60.059,8.789,0.0,0
1582734954.591,17.578,-972.168,39.551,27.344,0.0,0
1582734954.595,15.137,-971.68,25.391,28.32,0.0,0
1582734954.599,14.16,-973.633,69.824,11.719,0.0,0
1582734954.603,21.484,-968.75,88.867,12.695,0.0,0
1582734954.605,21.484,-966.797,64.941,24.414,0.0,0
1582734954.609,24.414,-963.867,68.848,29.297,0.0,0
1582734954.613,30.762,-912.109,88.867,34.18,0.0,0
1582734954.617,35.645,-911.133,73.73,34.668,0.0,0
1582734954.621,33.203,-966.309,39.551,28.32,0.0,0
1582734954.625,23.438,-974.121,36.133,34.668,0.0,0
1582734954.629,24.414,-969.727,54.199,31.25,0.0,0
1582734954.6320002,28.809,-972.656,83.008,26.367,0.0,0
1582734954.6360002,24.414,-969.727,49.316,28.809,0.0,0
1582734954.64,11.23,-977.539,40.527,20.996,0.0,0
1582734954.644,21.973000000000006,-947.754,86.914,27.832,0.0,0
1582734954.6479998,39.551,-912.109,73.242,35.156,0.0,0
1582734954.65,28.32,-954.59,51.758,21.973000000000006,0.0,0
1582734954.654,21.484,-976.562,55.664,22.461,0.0,0
1582734954.658,27.832,-970.215,65.918,32.715,0.0,0
1582734954.6620002,38.574,-972.168,52.246,27.832,0.0,0
1582734954.666,35.645,-972.168,35.645,14.16,0.0,0
1582734954.67,33.203,-972.168,37.109,20.02,0.0,0
1582734954.674,33.203,-972.168,56.152,21.484,0.0,0
1582734954.677,28.809,-969.727,51.27,20.996,0.0,0
1582734954.681,22.949,-978.027,33.691,24.902,0.0,0
1582734954.685,14.16,-948.242,71.777,20.508000000000006,0.0,0
1582734954.689,14.16,-917.48,77.637,22.949,0.0,0
1582734954.6929998,14.16,-962.891,39.551,23.926,0.0,0
1582734954.695,20.02,-976.074,39.062,24.902,0.0,0
1582734954.699,29.785,-969.727,63.965,31.25,0.0,0
1582734954.7029998,29.297,-972.656,54.688,30.762,0.0,0
1582734954.707,19.043,-972.168,33.203,33.691,0.0,0
1582734954.711,18.555,-972.168,50.293,32.715,0.0,0
1582734954.715,25.879,-972.656,45.898,25.879,0.0,0
1582734954.719,27.344,-970.215,49.316,26.367,0.0,0
1582734954.722,22.461,-974.609,45.898,20.02,0.0,0
1582734954.726,26.855,-966.797,43.457,24.414,0.0,0
1582734954.73,28.809,-908.691,77.637,24.902,0.0,0
1582734954.734,28.809,-931.152,55.176,21.484,0.0,0
1582734954.738,35.156,-982.422,48.828,26.367,0.0,0
1582734954.74,39.062,-958.008,62.5,23.438,0.0,0
1582734954.744,41.01600000000001,-915.039,62.988,21.484,0.0,0
1582734954.748,39.551,-927.734,42.48,23.926,0.0,0
1582734954.752,35.645,-975.098,24.414,26.855,0.0,0
1582734954.756,30.273000000000003,-958.008,58.594,29.297,0.0,0
1582734954.76,39.062,-958.008,60.059,34.18,0.0,0
1582734954.764,45.41,-974.609,41.01600000000001,36.621,0.0,0
1582734954.7670002,28.32,-971.191,35.156,25.879,0.0,0
1582734954.771,28.32,-971.191,67.383,23.926,0.0,0
1582734954.775,47.363,-941.895,87.891,32.715,0.0,0
1582734954.779,42.969,-938.965,64.453,35.645,0.0,0
1582734954.783,44.434,-972.656,58.594,34.18,0.0,0
1582734954.785,45.898,-972.656,47.852,30.762,0.0,0
1582734954.789,38.574,-970.703,39.062,28.809,0.0,0
1582734954.793,31.25,-972.656,41.504,27.832,0.0,0
1582734954.7970002,23.926,-972.168,45.898,24.414,0.0,0
1582734954.801,26.855,-967.285,48.34,26.855,0.0,0
1582734954.805,34.668,-969.238,27.832,33.691,0.0,0
1582734954.809,36.621,-974.609,5.371,32.715,0.0,0
1582734954.812,36.621,-968.262,37.598,31.738000000000003,0.0,0
1582734954.816,34.18,-957.52,87.891,28.809,0.0,0
1582734954.82,30.273000000000003,-970.215,68.359,31.738000000000003,0.0,0
1582734954.824,29.297,-973.145,62.988,24.414,0.0,0
1582734954.8279998,29.785,-973.145,71.289,20.02,0.0,0
1582734954.83,21.973000000000006,-947.754,78.125,22.461,0.0,0
1582734954.834,18.555,-951.172,57.129,19.043,0.0,0
1582734954.8379998,27.832,-976.074,59.082,18.555,0.0,0
1582734954.842,25.879,-971.191,55.664,12.695,0.0,0
1582734954.846,19.531,-970.703,41.01600000000001,12.695,0.0,0
1582734954.85,21.484,-971.68,35.156,20.508000000000006,0.0,0
1582734954.854,23.926,-974.121,49.316,17.578,0.0,0
1582734954.857,23.438,-935.059,94.727,11.23,0.0,0
1582734954.861,16.602,-911.133,88.37899999999998,10.742,0.0,0
1582734954.865,12.695,-940.43,63.965,6.348,0.0,0
1582734954.869,21.973000000000006,-973.633,59.57,13.184,0.0,0
1582734954.873,29.785,-966.309,71.777,18.066,0.0,0
1582734954.89,20.996,-925.293,70.312,7.812,0.0,0
1582734954.894,23.438,-948.73,51.758,17.09,0.0,0
1582734954.8979998,41.01600000000001,-977.539,56.64100000000001,35.156,0.0,0
1582734954.9020002,38.086,-970.215,78.613,34.18,0.0,0
1582734954.906,32.715,-972.168,64.941,24.414,0.0,0
1582734954.91,26.367,-972.168,35.645,13.672,0.0,0
1582734954.914,23.926,-972.168,51.758,17.09,0.0,0
1582734954.917,30.762,-972.168,77.637,23.438,0.0,0
1582734954.921,28.32,-972.168,87.402,20.508000000000006,0.0,0
1582734954.925,34.668,-972.168,63.965,28.32,0.0,0
1582734954.929,29.785,-972.168,69.336,30.273000000000003,0.0,0
1582734954.9329998,24.414,-972.168,98.145,29.785,0.0,0
1582734954.935,29.297,-972.168,82.031,30.762,0.0,0
1582734954.939,29.297,-972.168,63.477,31.25,0.0,0
1582734954.9429998,26.855,-972.168,70.312,30.762,0.0,0
1582734954.947,27.832,-972.168,80.566,34.668,0.0,0
1582734954.951,32.715,-972.168,72.75399999999998,35.156,0.0,0
1582734954.955,21.973000000000006,-972.168,63.477,32.715,0.0,0
1582734954.959,15.625,-972.168,58.594,33.691,0.0,0
1582734954.962,25.391,-972.168,79.59,35.645,0.0,0
1582734954.966,33.691,-972.168,79.102,36.621,0.0,0
1582734954.97,34.18,-972.168,31.25,29.297,0.0,0
1582734954.974,34.668,-972.168,56.152,24.902,0.0,0
1582734954.978,31.738000000000003,-972.168,90.82,27.832,0.0,0
1582734954.98,32.227,-972.168,61.523,26.367,0.0,0
1582734954.984,37.109,-971.191,63.965,28.32,0.0,0
1582734954.988,37.598,-971.68,78.125,33.203,0.0,0
1582734954.992,36.133,-972.168,68.848,36.621,0.0,0
1582734954.996,34.18,-972.168,55.664,29.785,0.0,0
1582734955.0,32.715,-972.168,57.129,20.508000000000006,0.0,0
1582734955.004,29.297,-972.168,65.918,18.066,0.0,0
1582734955.0070002,23.438,-971.191,80.566,21.484,0.0,0
1582734955.0110002,29.297,-972.168,47.852,23.926,0.0,0
1582734955.015,36.621,-967.285,47.852,20.996,0.0,0
1582734955.019,25.391,-935.059,91.797,15.137,0.0,0
1582734955.0229998,17.578,-892.09,86.426,21.484,0.0,0
1582734955.025,23.926,-932.617,66.895,32.227,0.0,0
1582734955.029,30.273000000000003,-979.004,61.035,31.738000000000003,0.0,0
1582734955.033,29.297,-969.727,75.684,27.832,0.0,0
1582734955.0370002,22.949,-971.68,63.965,29.785,0.0,0
1582734955.041,22.461,-972.168,60.059,35.645,0.0,0
1582734955.045,24.414,-972.168,53.71100000000001,30.762,0.0,0
1582734955.049,21.484,-972.168,71.777,24.414,0.0,0
1582734955.052,24.902,-972.168,71.777,24.902,0.0,0
1582734955.056,23.926,-971.191,48.34,25.879,0.0,0
1582734955.06,29.297,-975.586,83.984,31.25,0.0,0
1582734955.064,32.715,-956.055,99.609,25.879,0.0,0
1582734955.0679998,22.949,-950.684,58.105,20.508000000000006,0.0,0
1582734955.07,21.484,-974.121,56.152,24.902,0.0,0
1582734955.074,28.809,-933.594,86.914,31.738000000000003,0.0,0
1582734955.0779998,32.715,-900.3910000000002,77.637,32.715,0.0,0
1582734955.082,28.809,-945.801,53.71100000000001,24.414,0.0,0
1582734955.086,34.18,-975.586,56.64100000000001,22.461,0.0,0
1582734955.09,38.574,-970.703,80.078,23.438,0.0,0
1582734955.094,32.227,-971.68,64.941,22.461,0.0,0
1582734955.097,33.203,-971.68,29.785,19.531,0.0,0
1582734955.101,27.832,-972.656,41.992,12.207,0.0,0
1582734955.105,13.672,-970.703,80.566,8.301,0.0,0
1582734955.109,15.137,-966.309,63.965,8.301,0.0,0
1582734955.113,22.949,-967.285,51.758,14.648,0.0,0
1582734955.115,22.949,-978.516,58.594,16.602,0.0,0
1582734955.119,20.996,-936.523,72.266,16.602,0.0,0
1582734955.123,19.531,-887.207,72.266,19.531,0.0,0
1582734955.127,18.066,-955.078,53.223,17.09,0.0,0
1582734955.131,21.973000000000006,-968.75,74.219,20.996,0.0,0
1582734955.135,21.484,-958.496,69.336,25.879,0.0,0
1582734955.139,17.578,-972.656,26.855,25.391,0.0,0
1582734955.1420002,21.973000000000006,-977.539,20.508000000000006,25.391,0.0,0
1582734955.146,18.555,-941.895,76.172,20.508000000000006,0.0,0
1582734955.15,19.531,-924.316,83.984,21.484,0.0,0
1582734955.154,27.344,-967.773,51.27,28.809,0.0,0
1582734955.158,33.691,-962.891,50.293,28.809,0.0,0
1582734955.16,28.32,-930.664,62.988,24.902,0.0,0
1582734955.164,35.645,-921.875,57.129,25.391,0.0,0
1582734955.168,40.527,-958.984,28.32,29.297,0.0,0
1582734955.1720002,36.621,-975.586,35.645,25.879,0.0,0
1582734955.176,36.133,-970.215,53.71100000000001,21.484,0.0,0
