timestamps,TP9,AF7,AF8,TP10,Right AUX,Marker0
1581621311.421,-128.418,54.199,64.941,-99.609,0.0,0
1581621311.425,-112.793,41.01600000000001,61.523,-67.87100000000001,0.0,0
1581621311.429,-83.008,36.133,60.059,-37.109,0.0,0
1581621311.4329998,-66.895,32.227,53.71100000000001,-30.762,0.0,0
1581621311.437,-55.664,15.625,44.922,-21.973000000000006,0.0,0
1581621311.441,-60.547,-16.113,30.762,-15.137,0.0,0
1581621311.445,-51.758,-23.926,29.297,3.906,0.0,0
1581621311.448,-15.137,-3.418,35.156,27.344,0.0,0
1581621311.452,0.977,-5.371,36.621,29.785,0.0,0
1581621311.456,-6.348,-8.301,29.785,32.715,0.0,0
1581621311.46,-1.953,-10.742,22.461,52.246,0.0,0
1581621311.464,15.137,-18.555,24.902,59.082,0.0,0
1581621311.465,24.902,-22.949,24.902,60.547,0.0,0
1581621311.469,23.926,-16.602,19.043,71.777,0.0,0
1581621311.4729998,21.484,-13.672,14.16,84.961,0.0,0
1581621311.4770002,34.668,-18.555,19.043,93.75,0.0,0
1581621311.481,43.457,-28.32,19.043,88.37899999999998,0.0,0
1581621311.485,40.039,-34.18,12.207,83.49600000000002,0.0,0
1581621311.4889998,34.18,-25.391,12.207,95.703,0.0,0
1581621311.492,34.668,-14.16,10.254,108.398,0.0,0
1581621311.496,41.992,-13.672,7.812,104.004,0.0,0
1581621311.5,42.969,-35.645,10.742,91.309,0.0,0
1581621311.504,33.691,-31.25,12.695,97.168,0.0,0
1581621311.508,24.902,0.0,8.789,106.934,0.0,0
1581621311.5110002,30.273000000000003,-9.277,10.742,99.609,0.0,0
1581621311.515,32.227,-14.648,14.648,89.355,0.0,0
1581621311.519,15.137,-3.906,13.184,79.59,0.0,0
1581621311.5229998,-4.395,-11.23,9.766,85.449,0.0,0
1581621311.5270002,-21.973000000000006,-22.461,7.324,88.37899999999998,0.0,0
1581621311.531,-33.691,-22.949,13.672,84.473,0.0,0
1581621311.535,-57.129,-12.695,8.789,76.172,0.0,0
1581621311.538,-79.59,1.953,12.695,67.383,0.0,0
1581621311.542,-90.332,-7.324,18.555,67.87100000000001,0.0,0
1581621311.546,-85.449,-23.438,14.648,62.5,0.0,0
1581621311.55,-64.453,-10.254,24.902,62.988,0.0,0
1581621311.554,-53.223,-8.789,25.391,70.801,0.0,0
1581621311.555,-43.945,-7.812,17.09,73.242,0.0,0
1581621311.559,-26.855,-2.93,16.602,67.87100000000001,0.0,0
1581621311.563,-9.277,0.488,11.719,61.035,0.0,0
1581621311.5670002,-6.836,1.465,11.719,66.406,0.0,0
1581621311.571,-2.93,-0.977,19.531,71.289,0.0,0
1581621311.575,13.184,-6.348,20.02,70.312,0.0,0
1581621311.579,25.879,-7.324,20.996,70.312,0.0,0
1581621311.582,25.391,-8.789,24.414,70.801,0.0,0
1581621311.586,21.484,-13.184,29.297,71.777,0.0,0
1581621311.59,19.531,6.836,29.297,62.988,0.0,0
1581621311.594,26.855,9.766,24.414,54.199,0.0,0
1581621311.5979998,31.738000000000003,-8.789,25.391,52.246,0.0,0
1581621311.6,20.02,1.465,20.996,54.688,0.0,0
1581621311.604,19.043,19.531,16.602,55.176,0.0,0
1581621311.6079998,34.18,23.926,19.531,49.805,0.0,0
1581621311.6120002,40.039,16.113,21.484,43.457,0.0,0
1581621311.6160002,38.086,12.695,20.508000000000006,48.828,0.0,0
1581621311.62,42.48,6.836,18.555,62.012,0.0,0
1581621311.6239998,57.129,8.301,24.414,74.707,0.0,0
1581621311.627,64.453,-0.977,29.785,65.43,0.0,0
1581621311.631,54.688,-10.254,22.461,47.852,0.0,0
1581621311.635,56.64100000000001,14.16,22.949,54.199,0.0,0
1581621311.639,62.5,30.762,25.391,59.082,0.0,0
1581621311.643,68.848,26.367,26.367,56.64100000000001,0.0,0
1581621311.645,77.637,20.02,28.32,54.199,0.0,0
1581621311.649,73.73,20.02,20.02,53.223,0.0,0
1581621311.653,64.941,19.531,16.602,50.78100000000001,0.0,0
1581621311.657,71.289,22.949,22.461,43.457,0.0,0
1581621311.661,80.566,21.484,26.367,41.01600000000001,0.0,0
1581621311.665,73.242,10.742,20.996,45.898,0.0,0
1581621311.669,72.266,5.859,19.043,52.246,0.0,0
1581621311.6720002,79.59,2.93,23.926,46.875,0.0,0
1581621311.676,83.49600000000002,23.438,27.344,34.668,0.0,0
1581621311.68,76.66,30.762,29.297,44.434,0.0,0
1581621311.684,75.684,22.949,23.926,54.199,0.0,0
1581621311.688,88.37899999999998,24.902,21.973000000000006,54.199,0.0,0
1581621311.69,99.609,28.32,25.879,53.71100000000001,0.0,0
1581621311.694,100.586,33.203,22.949,54.199,0.0,0
1581621311.698,91.797,23.926,17.09,55.664,0.0,0
1581621311.702,98.145,28.809,17.578,59.082,0.0,0
1581621311.706,105.957,26.855,22.461,51.758,0.0,0
1581621311.71,106.445,22.461,27.344,43.457,0.0,0
1581621311.714,102.051,17.09,26.855,48.34,0.0,0
1581621311.717,99.121,15.137,22.949,52.734,0.0,0
1581621311.721,102.539,37.109,23.438,45.41,0.0,0
1581621311.725,95.703,32.715,23.926,37.109,0.0,0
1581621311.729,84.961,21.484,20.508000000000006,48.34,0.0,0
1581621311.7329998,83.008,29.785,23.438,52.246,0.0,0
1581621311.736,82.52,38.574,29.297,47.363,0.0,0
1581621311.74,79.59,27.832,26.855,40.039,0.0,0
1581621311.744,69.824,13.672,28.32,42.969,0.0,0
1581621311.748,59.57,21.973000000000006,30.762,50.293,0.0,0
1581621311.752,61.523,28.809,30.273000000000003,40.527,0.0,0
1581621311.756,65.43,12.695,28.32,34.18,0.0,0
1581621311.76,52.734,7.324,24.414,29.785,0.0,0
1581621311.7629998,44.434,21.484,25.391,31.738000000000003,0.0,0
1581621311.7670002,54.688,31.25,30.273000000000003,41.992,0.0,0
1581621311.771,63.965,29.785,33.203,40.039,0.0,0
1581621311.775,62.012,24.902,33.691,35.645,0.0,0
1581621311.779,57.617,31.25,31.25,41.504,0.0,0
1581621311.795,61.035,30.273000000000003,26.367,39.062,0.0,0
1581621311.799,63.477,13.672,23.438,32.227,0.0,0
1581621311.803,65.918,19.043,22.949,27.832,0.0,0
1581621311.8070002,60.059,33.203,20.996,33.691,0.0,0
1581621311.811,61.035,25.879,24.414,36.621,0.0,0
1581621311.815,73.73,10.254,25.391,38.086,0.0,0
1581621311.819,79.102,7.324,23.926,36.621,0.0,0
1581621311.822,80.566,14.648,27.832,25.391,0.0,0
1581621311.826,83.008,33.203,26.855,32.715,0.0,0
1581621311.83,94.238,31.25,26.855,33.691,0.0,0
1581621311.834,104.004,30.762,27.344,25.391,0.0,0
1581621311.8379998,101.562,38.086,31.25,32.715,0.0,0
1581621311.84,102.539,25.391,33.203,45.41,0.0,0
1581621311.844,109.375,29.785,32.227,46.387,0.0,0
1581621311.8479998,109.375,36.621,33.691,28.32,0.0,0
1581621311.8520002,108.887,42.48,31.25,24.902,0.0,0
1581621311.856,101.562,38.086,36.621,37.598,0.0,0
1581621311.86,95.215,23.926,37.109,33.203,0.0,0
1581621311.8639998,102.539,23.926,32.715,26.367,0.0,0
1581621311.867,103.027,31.738000000000003,33.691,16.602,0.0,0
1581621311.871,88.867,22.949,36.133,16.113,0.0,0
1581621311.875,85.93799999999997,9.766,35.645,27.832,0.0,0
1581621311.879,89.844,20.996,31.738000000000003,16.113,0.0,0
1581621311.883,89.355,33.691,28.32,15.137,0.0,0
1581621311.8860002,85.449,19.531,25.391,25.879,0.0,0
1581621311.89,81.055,5.859,26.367,21.973000000000006,0.0,0
1581621311.894,83.984,22.949,26.367,26.855,0.0,0
1581621311.8979998,87.402,39.551,23.926,24.414,0.0,0
1581621311.9020002,78.125,30.762,24.414,22.461,0.0,0
1581621311.906,68.848,10.742,26.367,28.32,0.0,0
1581621311.91,69.824,19.531,27.832,30.273000000000003,0.0,0
1581621311.913,71.777,41.992,30.273000000000003,27.344,0.0,0
1581621311.917,58.594,25.391,30.273000000000003,15.625,0.0,0
1581621311.921,43.457,16.602,30.762,15.137,0.0,0
1581621311.925,39.062,28.809,28.809,24.414,0.0,0
1581621311.929,38.086,22.461,25.879,23.438,0.0,0
1581621311.946,43.457,29.785,29.297,25.879,0.0,0
1581621311.95,37.109,31.738000000000003,35.156,32.715,0.0,0
1581621311.954,31.25,28.32,39.062,41.992,0.0,0
1581621311.958,32.715,29.785,34.668,42.48,0.0,0
1581621311.962,30.273000000000003,27.344,29.297,30.273000000000003,0.0,0
1581621311.966,20.508000000000006,26.367,29.297,32.715,0.0,0
1581621311.97,7.324,21.484,31.738000000000003,38.574,0.0,0
1581621311.9729998,5.859,23.438,31.738000000000003,31.738000000000003,0.0,0
1581621311.9770002,8.789,21.484,32.227,22.949,0.0,0
1581621311.981,0.488,31.25,32.715,12.695,0.0,0
1581621311.985,-15.625,43.945,30.762,19.531,0.0,0
1581621311.9889998,-16.113,26.855,32.227,28.32,0.0,0
1581621311.976,-7.812,23.438,29.297,26.855,0.0,0
1581621311.98,-10.742,31.738000000000003,23.926,19.043,0.0,0
1581621311.984,-8.789,21.973000000000006,30.273000000000003,25.391,0.0,0
1581621311.988,-4.883,19.531,31.738000000000003,37.109,0.0,0
1581621311.992,2.93,26.367,27.832,35.645,0.0,0
1581621311.996,11.23,23.438,33.203,32.227,0.0,0
1581621312.0,3.906,25.879,34.668,30.762,0.0,0
1581621312.0029998,-2.93,32.227,30.762,32.715,0.0,0
1581621312.0070002,2.93,31.25,24.414,32.227,0.0,0
1581621312.0110002,14.16,37.109,20.508000000000006,20.508000000000006,0.0,0
1581621312.015,9.277,32.227,23.438,12.695,0.0,0
1581621312.019,5.859,13.672,23.926,16.602,0.0,0
1581621312.021,16.602,18.555,22.949,15.625,0.0,0
1581621312.025,27.832,35.156,23.438,16.113,0.0,0
1581621312.029,36.133,29.297,23.926,22.461,0.0,0
1581621312.033,36.621,23.926,20.996,33.203,0.0,0
1581621312.0370002,41.504,25.391,21.484,39.062,0.0,0
1581621312.041,55.176,24.902,22.461,34.18,0.0,0
1581621312.045,59.082,25.391,23.438,33.691,0.0,0
1581621312.048,51.758,27.344,23.926,34.668,0.0,0
1581621312.052,50.78100000000001,32.715,22.949,39.062,0.0,0
1581621312.056,56.152,39.551,21.973000000000006,36.133,0.0,0
1581621312.06,61.035,30.762,24.902,25.391,0.0,0
1581621312.064,60.059,22.949,31.738000000000003,29.297,0.0,0
1581621312.066,59.082,34.668,33.203,37.109,0.0,0
1581621312.07,64.941,32.227,26.855,39.062,0.0,0
1581621312.074,72.75399999999998,23.438,28.32,27.832,0.0,0
1581621312.0779998,70.801,35.156,33.691,23.926,0.0,0
1581621312.082,66.895,39.062,28.809,29.297,0.0,0
1581621312.086,73.242,35.645,30.273000000000003,34.668,0.0,0
1581621312.09,79.59,23.926,35.156,27.344,0.0,0
1581621312.093,77.637,8.301,35.156,18.555,0.0,0
1581621312.097,69.336,22.949,30.762,28.809,0.0,0
1581621312.101,66.895,30.762,29.297,34.668,0.0,0
1581621312.105,72.75399999999998,26.855,30.273000000000003,30.273000000000003,0.0,0
1581621312.109,80.566,24.902,29.297,34.18,0.0,0
1581621312.111,75.195,27.344,29.785,32.227,0.0,0
1581621312.115,71.777,28.32,29.297,30.273000000000003,0.0,0
1581621312.119,71.777,31.25,25.391,27.832,0.0,0
1581621312.123,72.266,36.133,25.879,19.531,0.0,0
1581621312.127,68.848,30.273000000000003,28.32,24.902,0.0,0
1581621312.131,61.035,19.043,31.738000000000003,36.621,0.0,0
1581621312.135,63.477,11.719,33.203,36.133,0.0,0
1581621312.1379998,68.848,26.367,34.18,25.391,0.0,0
1581621312.1420002,60.547,36.133,31.25,23.438,0.0,0
1581621312.146,51.27,24.902,29.785,34.18,0.0,0
1581621312.15,53.71100000000001,26.367,32.715,40.039,0.0,0
1581621312.154,61.523,28.809,32.715,40.527,0.0,0
1581621312.171,62.988,28.32,33.691,43.945,0.0,0
1581621312.175,60.547,21.973000000000006,28.809,49.805,0.0,0
1581621312.179,60.059,24.902,17.09,54.199,0.0,0
1581621312.1829998,65.918,38.086,19.531,44.922,0.0,0
1581621312.187,72.266,42.969,33.203,36.621,0.0,0
1581621312.191,66.895,20.02,36.621,47.363,0.0,0
1581621312.195,57.129,14.16,32.715,53.71100000000001,0.0,0
1581621312.198,60.059,32.227,31.738000000000003,45.41,0.0,0
1581621312.202,60.059,27.832,29.297,40.039,0.0,0
1581621312.206,48.828,19.043,29.297,38.574,0.0,0
1581621312.21,40.527,23.438,29.785,47.363,0.0,0
1581621312.214,40.039,28.809,22.949,50.78100000000001,0.0,0
1581621312.216,44.434,23.926,24.902,41.504,0.0,0
1581621312.22,38.086,15.137,31.738000000000003,27.832,0.0,0
1581621312.224,35.645,18.555,27.832,33.691,0.0,0
1581621312.228,47.363,36.621,26.367,49.316,0.0,0
1581621312.232,54.688,25.391,29.785,46.387,0.0,0
1581621312.236,45.898,0.488,32.227,37.598,0.0,0
1581621312.24,36.133,13.184,29.785,42.48,0.0,0
1581621312.2429998,39.062,34.18,25.879,50.78100000000001,0.0,0
1581621312.2470002,49.805,33.203,25.879,49.316,0.0,0
1581621312.2510002,53.223,0.977,25.879,40.039,0.0,0
1581621312.255,36.133,8.789,24.902,33.691,0.0,0
1581621312.2589998,27.832,31.738000000000003,28.32,42.48,0.0,0
1581621312.2610002,38.086,21.973000000000006,31.25,49.805,0.0,0
1581621312.265,41.01600000000001,29.785,25.879,34.18,0.0,0
1581621312.269,47.363,41.992,22.461,32.715,0.0,0
1581621312.2729998,51.758,30.762,32.715,53.71100000000001,0.0,0
1581621312.2770002,35.156,14.648,26.367,43.945,0.0,0
1581621312.281,33.203,12.695,19.531,29.297,0.0,0
1581621312.285,40.527,19.043,32.715,37.109,0.0,0
1581621312.288,29.785,15.625,38.086,42.48,0.0,0
1581621312.292,10.742,-8.301,40.527,34.18,0.0,0
1581621312.296,10.254,-14.648,41.01600000000001,22.949,0.0,0
1581621312.3,20.02,7.324,42.48,25.391,0.0,0
1581621312.304,14.16,7.324,42.969,32.715,0.0,0
1581621312.3070002,8.789,-4.395,41.504,33.203,0.0,0
1581621312.311,7.324,-3.906,39.062,24.902,0.0,0
1581621312.315,9.766,0.488,34.18,21.973000000000006,0.0,0
1581621312.319,5.371,-7.812,31.738000000000003,25.879,0.0,0
1581621312.323,6.348,-23.926,36.621,39.062,0.0,0
1581621312.327,19.043,-21.973000000000006,32.227,41.01600000000001,0.0,0
1581621312.331,28.32,-2.441,27.344,32.715,0.0,0
1581621312.334,32.715,-1.953,28.809,44.922,0.0,0
1581621312.3379998,29.297,-14.16,25.879,55.664,0.0,0
1581621312.342,34.18,-4.395,25.879,54.199,0.0,0
1581621312.346,45.41,13.672,27.832,47.852,0.0,0
1581621312.35,45.41,10.742,23.926,38.086,0.0,0
1581621312.351,37.598,1.953,24.902,43.945,0.0,0
1581621312.355,40.039,4.395,28.809,53.223,0.0,0
1581621312.359,51.27,14.648,28.809,48.828,0.0,0
1581621312.363,47.852,16.602,26.367,32.715,0.0,0
1581621312.367,41.992,14.16,24.414,34.668,0.0,0
1581621312.371,42.48,19.531,29.297,54.688,0.0,0
1581621312.375,43.457,26.855,34.668,55.176,0.0,0
1581621312.3779998,43.457,19.531,29.297,34.18,0.0,0
1581621312.3820002,43.457,11.23,19.531,31.25,0.0,0
1581621312.3860002,42.969,28.32,16.113,39.551,0.0,0
1581621312.39,47.852,20.02,25.879,41.01600000000001,0.0,0
1581621312.394,56.64100000000001,8.301,30.762,34.668,0.0,0
1581621312.396,49.805,20.508000000000006,23.926,26.367,0.0,0
1581621312.4,44.434,30.762,26.367,40.527,0.0,0
1581621312.404,51.27,20.996,28.32,46.387,0.0,0
1581621312.408,57.617,14.648,30.273000000000003,34.668,0.0,0
1581621312.4120002,58.594,32.227,26.367,29.297,0.0,0
1581621312.416,50.78100000000001,29.785,24.902,30.273000000000003,0.0,0
1581621312.42,50.78100000000001,14.648,22.949,36.133,0.0,0
1581621312.423,58.105,11.23,23.926,30.273000000000003,0.0,0
1581621312.427,59.57,25.391,36.621,24.414,0.0,0
1581621312.431,59.57,37.109,37.598,37.109,0.0,0
1581621312.435,55.664,25.879,31.25,44.922,0.0,0
1581621312.439,56.152,25.391,29.785,41.992,0.0,0
1581621312.441,61.523,26.367,33.203,32.715,0.0,0
1581621312.445,53.71100000000001,21.484,30.273000000000003,31.25,0.0,0
1581621312.449,42.969,20.996,24.414,37.109,0.0,0
1581621312.4529998,43.945,23.438,27.344,40.039,0.0,0
1581621312.457,47.363,22.461,38.086,33.203,0.0,0
1581621312.461,41.504,14.648,43.945,23.438,0.0,0
1581621312.465,34.18,6.836,43.945,34.18,0.0,0
1581621312.468,33.691,9.277,44.922,43.457,0.0,0
1581621312.472,42.48,32.715,40.039,34.668,0.0,0
1581621312.476,39.551,24.414,36.621,31.25,0.0,0
1581621312.48,30.762,17.09,35.645,31.25,0.0,0
1581621312.484,31.25,28.809,33.203,33.691,0.0,0
1581621312.486,34.18,24.414,32.227,34.668,0.0,0
1581621312.49,36.621,20.508000000000006,32.715,27.344,0.0,0
1581621312.494,29.785,24.902,33.203,28.32,0.0,0
1581621312.498,27.832,31.738000000000003,35.156,33.691,0.0,0
1581621312.502,29.297,28.32,36.621,28.32,0.0,0
1581621312.506,24.902,20.508000000000006,33.691,23.438,0.0,0
1581621312.51,24.902,14.16,33.203,24.902,0.0,0
1581621312.5129998,20.508000000000006,22.461,29.785,29.297,0.0,0
1581621312.5170002,19.531,40.527,28.32,35.645,0.0,0
1581621312.521,33.203,32.227,31.738000000000003,35.645,0.0,0
1581621312.525,36.133,22.461,30.273000000000003,35.156,0.0,0
1581621312.529,31.25,35.156,33.691,42.48,0.0,0
1581621312.546,29.785,32.715,34.668,50.78100000000001,0.0,0
1581621312.55,24.414,27.344,30.762,39.551,0.0,0
1581621312.554,26.855,31.738000000000003,32.715,23.926,0.0,0
1581621312.5579998,36.133,24.902,39.551,32.715,0.0,0
1581621312.562,30.273000000000003,24.414,39.551,40.527,0.0,0
1581621312.566,23.926,23.926,30.273000000000003,35.645,0.0,0
1581621312.57,29.785,20.02,27.344,27.832,0.0,0
1581621312.573,29.785,29.785,33.203,28.32,0.0,0
1581621312.577,21.973000000000006,31.25,31.738000000000003,36.133,0.0,0
1581621312.581,23.438,35.645,31.738000000000003,38.574,0.0,0
1581621312.585,31.738000000000003,41.504,30.762,36.621,0.0,0
1581621312.589,25.391,38.574,25.391,29.785,0.0,0
1581621312.591,12.207,32.227,30.762,27.344,0.0,0
1581621312.595,15.625,31.738000000000003,31.738000000000003,35.645,0.0,0
1581621312.599,22.949,39.551,24.902,28.32,0.0,0
1581621312.603,23.926,46.387,30.273000000000003,19.531,0.0,0
1581621312.607,18.555,40.039,34.18,26.367,0.0,0
1581621312.611,9.277,21.484,31.738000000000003,26.855,0.0,0
1581621312.615,13.184,15.137,33.203,20.996,0.0,0
1581621312.6179998,18.066,35.645,33.691,18.066,0.0,0
1581621312.6220002,8.301,39.551,32.227,20.996,0.0,0
1581621312.6260002,1.465,16.113,30.273000000000003,24.902,0.0,0
1581621312.63,11.719,25.391,32.715,24.902,0.0,0
1581621312.6339998,19.531,34.668,37.598,19.043,0.0,0
1581621312.6360002,10.742,25.391,34.668,20.996,0.0,0
1581621312.64,2.441,24.414,30.762,34.18,0.0,0
1581621312.644,5.859,27.344,28.809,33.203,0.0,0
1581621312.6479998,10.742,33.691,28.809,18.555,0.0,0
1581621312.6520002,3.906,27.344,27.832,16.113,0.0,0
1581621312.656,-5.859,22.461,26.855,27.832,0.0,0
1581621312.66,-3.418,25.391,25.879,27.832,0.0,0
1581621312.663,8.301,34.668,26.855,18.066,0.0,0
1581621312.667,12.207,24.902,27.832,16.113,0.0,0
1581621312.671,7.812,18.555,24.902,27.832,0.0,0
1581621312.675,14.648,37.598,24.414,33.691,0.0,0
1581621312.679,18.066,25.391,21.973000000000006,28.32,0.0,0
1581621312.681,17.09,18.066,23.926,25.879,0.0,0
1581621312.685,14.648,31.738000000000003,28.809,25.391,0.0,0
1581621312.689,8.789,38.086,29.785,29.785,0.0,0
1581621312.6929998,12.207,30.273000000000003,26.367,29.785,0.0,0
1581621312.697,19.531,30.762,23.926,23.438,0.0,0
1581621312.701,16.602,24.902,28.809,22.949,0.0,0
1581621312.705,11.719,21.973000000000006,26.367,25.879,0.0,0
1581621312.708,18.066,32.227,19.531,31.25,0.0,0
1581621312.712,22.949,22.949,24.414,22.461,0.0,0
1581621312.716,20.508000000000006,27.832,29.297,11.719,0.0,0
1581621312.72,12.695,37.109,26.367,16.602,0.0,0
1581621312.724,13.672,25.391,25.391,26.855,0.0,0
1581621312.726,22.461,28.809,25.879,20.508000000000006,0.0,0
1581621312.73,23.926,38.574,27.832,12.695,0.0,0
1581621312.734,24.414,38.086,33.203,25.879,0.0,0
1581621312.738,28.809,29.297,33.691,37.109,0.0,0
1581621312.742,35.645,22.461,32.715,33.691,0.0,0
1581621312.746,37.598,23.926,35.156,28.809,0.0,0
1581621312.75,33.691,35.645,41.01600000000001,35.645,0.0,0
1581621312.7529998,28.32,28.809,41.01600000000001,42.48,0.0,0
1581621312.7570002,28.32,26.367,33.691,32.715,0.0,0
1581621312.7610002,29.297,45.898,30.273000000000003,24.902,0.0,0
1581621312.765,22.461,36.133,22.461,20.996,0.0,0
1581621312.769,20.02,36.133,19.531,28.809,0.0,0
1581621312.771,25.879,39.062,24.902,33.691,0.0,0
1581621312.775,27.832,40.527,27.344,22.461,0.0,0
1581621312.779,27.832,41.504,29.297,25.391,0.0,0
1581621312.783,22.949,38.574,30.762,32.227,0.0,0
1581621312.7870002,25.391,39.551,37.598,42.48,0.0,0
1581621312.791,38.574,34.668,36.621,39.551,0.0,0
1581621312.795,38.086,30.762,31.25,27.344,0.0,0
1581621312.798,28.809,23.438,35.645,33.203,0.0,0
1581621312.802,34.668,40.039,32.227,36.133,0.0,0
1581621312.806,44.922,53.223,29.785,34.668,0.0,0
1581621312.81,40.039,39.062,32.715,25.391,0.0,0
1581621312.814,33.691,36.133,32.715,21.484,0.0,0
1581621312.816,26.855,47.852,29.297,25.879,0.0,0
1581621312.82,22.949,52.734,25.879,21.973000000000006,0.0,0
1581621312.824,13.184,40.039,25.391,9.766,0.0,0
1581621312.8279998,10.742,20.02,26.367,20.508000000000006,0.0,0
1581621312.832,34.668,17.578,26.855,47.852,0.0,0
1581621312.836,25.879,32.227,24.414,39.551,0.0,0
1581621312.84,12.207,31.738000000000003,23.926,14.16,0.0,0
1581621312.843,29.785,31.738000000000003,21.973000000000006,18.066,0.0,0
1581621312.847,42.48,59.57,23.926,42.48,0.0,0
1581621312.851,52.246,65.43,28.809,55.176,0.0,0
1581621312.855,52.246,56.64100000000001,33.203,46.875,0.0,0
1581621312.859,50.78100000000001,52.734,37.109,41.992,0.0,0
1581621312.86,51.27,54.688,29.785,44.434,0.0,0
1581621312.8639998,41.504,62.988,30.273000000000003,45.41,0.0,0
1581621312.8679998,41.992,56.152,28.32,38.086,0.0,0
1581621312.8720002,46.875,46.875,23.438,33.203,0.0,0
1581621312.8760002,40.527,37.598,26.367,41.504,0.0,0
1581621312.88,33.203,32.715,28.809,53.71100000000001,0.0,0
1581621312.8839998,36.133,35.645,30.762,53.223,0.0,0
1581621312.887,35.645,52.246,23.438,33.691,0.0,0
1581621312.891,21.484,67.383,17.09,26.855,0.0,0
1581621312.895,12.207,57.617,22.461,36.133,0.0,0
1581621312.899,18.555,48.34,23.926,36.133,0.0,0
1581621312.903,25.391,53.71100000000001,21.484,29.297,0.0,0
1581621312.905,23.926,46.875,21.484,21.484,0.0,0
1581621312.909,20.02,33.203,25.391,26.855,0.0,0
1581621312.913,15.625,37.109,29.297,41.504,0.0,0
1581621312.917,19.043,51.27,22.461,35.156,0.0,0
1581621312.921,24.414,54.199,11.23,18.555,0.0,0
1581621312.925,14.16,36.133,17.09,25.879,0.0,2
1581621312.929,3.906,23.438,26.367,27.832,0.0,0
1581621312.9320002,10.742,27.832,23.926,27.832,0.0,0
1581621312.936,17.09,36.621,26.367,30.273000000000003,0.0,0
1581621312.94,7.324,34.668,28.809,29.297,0.0,0
1581621312.944,1.465,32.715,26.855,34.18,0.0,0
1581621312.948,7.812,40.039,26.855,41.992,0.0,0
1581621312.966,13.672,38.086,26.367,41.504,0.0,0
1581621312.97,16.113,30.762,28.809,35.645,0.0,0
1581621312.974,13.184,30.762,24.414,41.01600000000001,0.0,0
1581621312.978,8.789,41.992,21.484,38.574,0.0,0
1581621312.982,15.137,41.01600000000001,26.367,31.738000000000003,0.0,0
1581621312.986,21.973000000000006,33.203,25.391,24.414,0.0,0
1581621312.99,8.789,36.621,23.926,22.949,0.0,0
1581621312.9929998,3.418,38.574,24.414,29.297,0.0,0
1581621312.9970002,10.742,21.484,25.391,20.508000000000006,0.0,0
1581621313.0010002,4.883,6.836,24.902,8.789,0.0,0
1581621313.005,-0.977,14.648,17.578,9.277,0.0,0
1581621313.0089998,5.859,33.691,18.555,23.438,0.0,0
1581621313.0110002,11.23,34.18,23.438,25.879,0.0,0
1581621313.015,16.113,24.902,22.461,12.695,0.0,0
1581621313.019,13.184,34.18,24.414,14.648,0.0,0
1581621313.0229998,8.301,40.039,23.438,29.297,0.0,0
1581621313.0270002,9.766,27.344,23.438,33.203,0.0,0
1581621313.031,16.113,19.043,21.973000000000006,22.949,0.0,0
1581621313.035,14.16,20.02,25.391,15.625,0.0,0
1581621313.038,-2.441,23.438,33.691,19.531,0.0,0
1581621313.042,-4.883,20.02,37.598,26.855,0.0,0
1581621313.046,7.324,20.02,36.133,22.461,0.0,0
1581621313.05,7.812,36.621,28.809,14.16,0.0,0
1581621313.054,-6.836,36.133,27.344,20.508000000000006,0.0,0
1581621313.056,-6.348,21.973000000000006,26.855,31.25,0.0,0
1581621313.06,3.418,20.508000000000006,17.09,21.973000000000006,0.0,0
1581621313.064,5.371,31.738000000000003,16.602,15.625,0.0,0
1581621313.0679998,3.418,25.391,24.414,10.742,0.0,0
1581621313.072,2.441,19.531,30.273000000000003,19.043,0.0,0
1581621313.076,8.301,20.996,31.738000000000003,25.391,0.0,0
1581621313.08,20.508000000000006,23.926,29.785,23.438,0.0,0
1581621313.083,23.438,22.949,31.25,20.996,0.0,0
1581621313.087,23.438,15.625,34.668,23.926,0.0,0
1581621313.091,25.879,23.438,34.18,26.855,0.0,0
1581621313.095,30.762,43.457,29.785,17.09,0.0,0
1581621313.099,34.18,42.48,30.273000000000003,15.137,0.0,0
1581621313.1160002,38.574,27.344,34.668,26.855,0.0,0
1581621313.12,44.434,29.785,39.551,32.227,0.0,0
1581621313.1239998,51.758,30.762,36.133,28.809,0.0,0
1581621313.1279998,63.477,20.02,31.738000000000003,25.879,0.0,0
1581621313.1320002,62.988,24.414,31.738000000000003,29.297,0.0,0
1581621313.1360002,57.617,40.039,28.809,33.691,0.0,0
1581621313.14,68.359,41.01600000000001,31.25,37.598,0.0,0
1581621313.143,74.219,25.879,34.668,23.438,0.0,0
1581621313.147,66.895,19.043,34.18,18.066,0.0,0
1581621313.151,67.383,43.457,36.133,30.273000000000003,0.0,0
1581621313.155,72.266,43.945,37.598,36.133,0.0,0
1581621313.159,77.637,24.902,35.645,29.297,0.0,0
1581621313.146,73.73,27.344,33.691,20.508000000000006,0.0,0
1581621313.15,70.312,32.715,30.762,21.484,0.0,0
1581621313.154,70.801,35.156,27.832,30.273000000000003,0.0,0
1581621313.158,70.801,29.297,25.879,26.367,0.0,0
1581621313.1620002,73.73,10.254,32.227,18.555,0.0,0
1581621313.166,82.031,6.348,38.574,38.086,0.0,0
1581621313.17,76.172,19.043,26.855,44.434,0.0,0
1581621313.173,53.223,31.738000000000003,22.461,13.184,0.0,0
1581621313.177,48.828,41.504,25.391,-5.859,0.0,0
1581621313.181,56.152,44.434,20.508000000000006,5.859,0.0,0
1581621313.185,55.176,32.227,21.484,22.949,0.0,0
1581621313.189,52.246,19.531,24.902,20.02,0.0,0
1581621313.191,52.734,39.062,23.926,3.906,0.0,0
1581621313.195,38.574,54.199,18.066,6.348,0.0,0
1581621313.199,27.832,44.434,19.531,11.23,0.0,0
1581621313.2029998,33.691,35.156,23.438,14.16,0.0,0
1581621313.207,42.969,34.668,22.949,11.719,0.0,0
1581621313.211,46.387,29.785,20.996,3.906,0.0,0
1581621313.215,32.227,21.973000000000006,18.066,17.09,0.0,0
1581621313.218,25.879,22.461,20.996,23.438,0.0,0
1581621313.222,33.203,38.086,23.438,12.695,0.0,0
1581621313.226,37.598,36.621,24.902,15.625,0.0,0
1581621313.23,30.273000000000003,30.273000000000003,22.461,25.391,0.0,0
1581621313.234,20.02,40.527,25.879,27.344,0.0,0
1581621313.236,18.066,41.504,28.809,14.16,0.0,0
1581621313.24,25.391,37.109,31.738000000000003,10.254,0.0,0
1581621313.244,20.508000000000006,39.062,36.133,18.555,0.0,0
1581621313.248,5.371,38.574,28.32,17.578,0.0,0
1581621313.252,10.254,31.25,24.414,17.09,0.0,0
1581621313.256,16.602,24.902,25.879,20.02,0.0,0
1581621313.26,8.789,13.184,24.902,14.16,0.0,0
1581621313.2629998,9.277,24.414,25.879,20.02,0.0,0
1581621313.2670002,9.766,41.992,26.855,33.203,0.0,0
1581621313.271,4.883,25.391,20.508000000000006,19.043,0.0,0
1581621313.275,3.906,19.531,22.949,4.395,0.0,0
1581621313.279,-0.488,31.25,28.32,15.137,0.0,0
1581621313.281,0.977,29.297,30.273000000000003,29.297,0.0,0
1581621313.285,7.812,23.926,33.203,20.996,0.0,0
1581621313.289,8.789,27.344,29.297,15.137,0.0,0
1581621313.293,1.465,32.227,22.461,11.23,0.0,0
1581621313.2970002,-7.324,24.414,26.367,11.23,0.0,0
1581621313.301,-5.859,6.348,30.273000000000003,12.207,0.0,0
1581621313.305,-2.93,0.977,23.926,-2.93,0.0,0
1581621313.3079998,-1.953,18.555,25.391,-0.977,0.0,0
1581621313.312,-6.348,28.32,26.367,2.93,0.0,0
1581621313.316,-1.465,24.902,24.414,2.441,0.0,0
1581621313.32,5.859,28.32,23.926,1.465,0.0,0
1581621313.324,1.465,33.203,22.949,-3.906,0.0,0
1581621313.341,3.906,23.438,24.414,4.395,0.0,0
1581621313.345,8.789,9.766,27.344,13.672,0.0,0
1581621313.349,16.113,12.207,23.926,9.766,0.0,0
1581621313.353,16.602,24.414,22.949,4.883,0.0,0
1581621313.357,13.672,18.555,23.926,4.395,0.0,0
1581621313.361,14.16,9.277,19.531,9.277,0.0,0
1581621313.365,20.508000000000006,12.207,21.973000000000006,8.789,0.0,0
1581621313.3679998,31.25,23.926,29.297,7.324,0.0,0
1581621313.3720002,24.414,27.832,26.367,15.625,0.0,0
1581621313.3760002,19.531,12.207,17.578,15.137,0.0,0
1581621313.38,32.715,26.855,17.09,12.207,0.0,0
1581621313.3839998,41.01600000000001,37.598,17.578,14.648,0.0,0
1581621313.3860002,34.668,23.926,16.602,18.066,0.0,0
1581621313.39,26.855,30.273000000000003,25.391,31.25,0.0,0
1581621313.394,33.691,36.621,27.832,30.762,0.0,0
1581621313.3979998,44.434,24.902,28.809,12.207,0.0,0
1581621313.4020002,40.039,15.137,25.879,8.301,0.0,0
1581621313.406,30.273000000000003,18.555,21.484,19.043,0.0,0
1581621313.41,34.18,26.367,24.414,27.832,0.0,0
1581621313.413,42.969,31.25,25.391,23.926,0.0,0
1581621313.417,41.504,25.879,27.832,18.066,0.0,0
1581621313.421,30.273000000000003,21.973000000000006,26.855,15.625,0.0,0
1581621313.425,26.367,34.18,25.879,16.113,0.0,0
1581621313.429,35.645,35.645,30.762,18.066,0.0,0
1581621313.431,30.273000000000003,18.555,25.879,9.766,0.0,0
1581621313.435,20.996,11.23,21.973000000000006,9.766,0.0,0
1581621313.439,22.949,26.855,22.949,18.066,0.0,0
1581621313.4429998,25.391,24.902,25.879,19.043,0.0,0
1581621313.447,36.133,22.461,25.879,14.16,0.0,0
1581621313.451,30.273000000000003,20.508000000000006,26.855,10.742,0.0,0
1581621313.455,10.742,19.043,32.715,15.137,0.0,0
1581621313.458,17.578,29.297,31.738000000000003,21.973000000000006,0.0,0
1581621313.462,26.855,10.742,34.18,19.043,0.0,0
1581621313.466,23.438,10.742,36.133,11.719,0.0,0
1581621313.47,17.578,42.48,30.273000000000003,23.438,0.0,0
1581621313.474,20.508000000000006,41.01600000000001,22.949,27.344,0.0,0
1581621313.476,33.691,28.809,26.367,20.508000000000006,0.0,0
1581621313.48,32.715,31.738000000000003,32.227,22.461,0.0,0
1581621313.484,18.555,27.344,30.273000000000003,22.461,0.0,0
1581621313.488,21.484,15.137,27.832,28.809,0.0,0
1581621313.492,21.484,17.09,24.414,25.391,0.0,0
1581621313.496,27.344,22.461,25.391,15.137,0.0,0
1581621313.5,26.855,21.484,24.902,19.043,0.0,0
1581621313.5029998,10.742,3.906,22.949,24.414,0.0,0
1581621313.5070002,9.766,7.324,25.391,23.438,0.0,0
1581621313.5110002,16.602,38.574,23.438,11.23,0.0,0
1581621313.515,14.16,34.18,24.902,5.859,0.0,0
1581621313.519,9.766,26.367,30.273000000000003,20.02,0.0,0
1581621313.521,7.324,29.297,22.461,19.531,0.0,0
1581621313.525,13.184,29.297,17.09,7.812,0.0,0
1581621313.529,9.277,27.832,21.973000000000006,6.348,0.0,0
1581621313.533,0.977,24.414,24.414,13.184,0.0,0
1581621313.5370002,7.812,23.438,27.344,26.367,0.0,0
1581621313.541,13.672,11.719,28.809,27.344,0.0,0
1581621313.545,14.16,7.812,23.926,18.066,0.0,0
1581621313.548,6.836,9.766,21.484,20.02,0.0,0
1581621313.552,3.906,20.02,26.367,24.902,0.0,0
1581621313.556,4.883,29.297,29.785,22.461,0.0,0
1581621313.56,8.301,31.25,37.598,15.137,0.0,0
1581621313.564,0.488,28.32,36.621,8.301,0.0,0
1581621313.566,-0.488,18.555,30.762,12.695,0.0,0
1581621313.57,7.812,18.555,28.809,13.184,0.0,0
1581621313.574,8.301,18.066,23.438,1.953,0.0,0
1581621313.5779998,9.277,19.531,22.949,1.953,0.0,0
1581621313.582,1.465,25.879,26.855,14.16,0.0,0
1581621313.586,-0.977,20.996,26.367,15.137,0.0,0
1581621313.59,6.836,9.277,23.926,7.812,0.0,0
1581621313.593,4.883,8.301,22.949,3.906,0.0,0
1581621313.597,3.906,28.32,24.902,8.789,0.0,0
1581621313.601,7.324,31.25,29.297,24.902,0.0,0
1581621313.605,16.602,20.02,29.297,30.762,0.0,0
1581621313.609,13.672,16.113,27.344,12.207,0.0,0
1581621313.611,4.883,27.344,25.879,10.742,0.0,0
1581621313.615,8.301,31.738000000000003,27.832,22.461,0.0,0
1581621313.619,14.648,28.809,29.297,27.832,0.0,0
1581621313.623,22.461,32.715,28.32,22.461,0.0,0
1581621313.627,20.996,29.297,33.691,14.648,0.0,0
1581621313.631,12.695,24.414,34.18,24.902,0.0,0
1581621313.635,12.207,13.184,28.809,26.367,0.0,0
1581621313.6379998,17.09,13.672,32.227,17.578,0.0,0
1581621313.6420002,16.602,33.691,32.715,12.695,0.0,0
1581621313.646,8.301,43.945,27.344,17.09,0.0,0
1581621313.65,13.184,30.762,31.25,28.32,0.0,0
1581621313.654,21.973000000000006,22.461,38.086,23.438,0.0,0
1581621313.671,15.625,29.785,37.109,6.836,0.0,0
1581621313.675,10.254,32.227,32.227,7.812,0.0,0
1581621313.679,6.836,28.809,31.25,16.602,0.0,0
1581621313.6829998,15.137,33.203,32.715,16.602,0.0,0
1581621313.687,30.273000000000003,38.086,35.645,24.902,0.0,0
1581621313.691,27.832,16.602,34.668,28.32,0.0,0
1581621313.695,26.855,10.742,31.25,25.391,0.0,0
1581621313.698,40.039,39.062,27.344,31.738000000000003,0.0,0
1581621313.702,56.152,42.48,25.879,31.25,0.0,0
1581621313.706,56.152,33.203,30.273000000000003,29.785,0.0,0
1581621313.71,42.48,36.621,27.832,33.691,0.0,0
1581621313.714,48.828,35.645,26.367,39.551,0.0,0
1581621313.716,58.594,36.621,32.715,35.645,0.0,0
1581621313.72,49.316,30.762,28.32,27.344,0.0,0
1581621313.724,43.457,21.973000000000006,19.531,34.668,0.0,0
1581621313.728,46.875,33.203,26.367,36.133,0.0,0
1581621313.732,53.223,38.086,32.227,23.438,0.0,0
1581621313.736,53.71100000000001,27.344,30.273000000000003,18.555,0.0,0
1581621313.74,41.01600000000001,26.855,29.297,22.949,0.0,0
1581621313.7429998,37.109,32.715,34.668,32.227,0.0,0
1581621313.7470002,41.504,30.762,38.086,33.691,0.0,0
1581621313.7510002,41.992,20.02,36.621,31.738000000000003,0.0,0
1581621313.755,29.297,26.367,29.297,24.414,0.0,0
1581621313.7589998,22.949,39.551,29.785,30.273000000000003,0.0,0
1581621313.7770002,28.32,39.062,31.25,36.621,0.0,0
1581621313.781,27.344,30.762,20.508000000000006,21.484,0.0,0
1581621313.785,23.438,27.832,20.02,15.137,0.0,0
1581621313.789,9.277,29.297,22.461,19.531,0.0,0
1581621313.793,3.906,25.879,25.391,27.344,0.0,0
1581621313.7970002,13.184,15.625,29.297,24.902,0.0,0
1581621313.801,19.043,6.836,30.762,19.531,0.0,0
1581621313.804,20.508000000000006,21.484,33.203,30.273000000000003,0.0,0
1581621313.8079998,23.926,33.691,34.668,33.691,0.0,0
1581621313.812,27.344,30.762,28.809,26.855,0.0,0
1581621313.816,30.273000000000003,45.898,20.996,21.973000000000006,0.0,0
1581621313.82,23.438,41.01600000000001,28.809,34.18,0.0,0
1581621313.806,20.996,31.738000000000003,37.598,38.574,0.0,0
1581621313.81,24.902,28.809,35.156,24.902,0.0,0
1581621313.814,28.32,34.18,31.25,24.902,0.0,0
1581621313.8179998,29.297,40.527,34.668,35.156,0.0,0
1581621313.822,23.438,37.598,33.203,37.109,0.0,0
1581621313.826,24.414,21.484,24.902,26.855,0.0,0
1581621313.83,28.809,19.531,21.973000000000006,21.484,0.0,0
1581621313.833,21.973000000000006,30.273000000000003,24.902,15.625,0.0,0
1581621313.837,9.766,21.484,21.973000000000006,14.16,0.0,0
1581621313.841,11.23,28.32,20.508000000000006,20.02,0.0,0
1581621313.845,25.879,39.551,26.367,15.137,0.0,0
1581621313.849,21.484,20.02,25.391,7.812,0.0,0
1581621313.851,4.395,22.461,26.367,14.648,0.0,0
1581621313.855,2.93,31.738000000000003,26.855,23.926,0.0,0
1581621313.859,16.113,25.391,27.344,24.902,0.0,0
1581621313.863,14.648,18.555,29.297,18.066,0.0,0
1581621313.867,4.883,19.531,27.344,19.043,0.0,0
1581621313.871,-0.977,20.996,27.344,25.879,0.0,0
1581621313.875,8.789,19.043,31.25,27.344,0.0,0
1581621313.8779998,20.508000000000006,6.348,33.203,19.043,0.0,0
1581621313.8820002,12.695,7.812,34.18,9.277,0.0,0
1581621313.8860002,3.906,40.039,27.344,15.625,0.0,0
1581621313.89,12.207,45.41,21.973000000000006,18.555,0.0,0
1581621313.894,16.602,31.25,23.926,5.371,0.0,0
1581621313.896,14.648,37.109,31.738000000000003,8.301,0.0,0
1581621313.9,13.672,42.969,35.156,25.879,0.0,0
1581621313.904,12.207,29.297,29.297,26.855,0.0,0
1581621313.908,20.02,26.367,29.785,14.648,0.0,0
1581621313.9120002,22.461,24.414,33.203,9.277,0.0,0
1581621313.916,15.137,25.391,31.738000000000003,12.695,0.0,0
1581621313.92,11.719,22.461,32.715,19.531,0.0,0
1581621313.923,17.578,7.812,36.133,16.113,0.0,0
1581621313.927,23.926,19.043,35.156,19.043,0.0,0
1581621313.931,23.438,35.645,27.344,29.785,0.0,0
1581621313.935,14.648,32.715,20.508000000000006,39.062,0.0,0
1581621313.939,18.066,20.02,22.949,36.621,0.0,0
1581621313.941,30.762,22.949,28.809,22.461,0.0,0
1581621313.945,25.391,35.645,31.738000000000003,19.531,0.0,0
1581621313.949,10.742,29.297,29.297,28.32,0.0,0
1581621313.9529998,12.207,27.344,25.879,28.809,0.0,0
1581621313.957,19.531,30.273000000000003,25.391,18.555,0.0,0
1581621313.961,19.043,24.902,30.273000000000003,11.23,0.0,0
1581621313.965,10.742,7.812,28.809,23.438,0.0,0
1581621313.968,11.23,3.906,22.461,31.25,0.0,0
1581621313.972,19.531,26.855,23.438,19.531,0.0,0
1581621313.976,23.926,25.879,29.297,15.625,0.0,0
1581621313.98,21.484,20.996,30.273000000000003,23.926,0.0,0
1581621313.984,14.648,32.715,20.508000000000006,31.25,0.0,0
1581621313.986,20.996,33.691,17.578,20.02,0.0,0
1581621313.99,24.902,31.25,18.555,6.836,0.0,0
1581621313.994,17.578,28.809,20.508000000000006,10.742,0.0,0
1581621313.998,17.09,36.133,23.438,17.09,0.0,0
1581621314.002,26.855,36.621,24.414,21.484,0.0,0
1581621314.006,33.203,20.02,25.391,19.531,0.0,0
1581621314.01,20.996,9.766,23.926,9.277,0.0,0
1581621314.0129998,14.648,20.996,23.438,17.578,0.0,0
1581621314.0170002,20.996,30.273000000000003,22.949,25.879,0.0,0
1581621314.021,15.137,18.555,20.02,12.207,0.0,0
1581621314.025,9.766,16.113,18.066,4.883,0.0,0
1581621314.029,2.93,28.809,22.461,10.254,0.0,0
1581621314.046,0.488,34.668,25.879,15.137,0.0,0
1581621314.05,5.371,28.32,23.438,15.137,0.0,0
1581621314.054,8.789,20.996,21.973000000000006,15.137,0.0,0
1581621314.0579998,5.859,24.902,23.926,17.578,0.0,0
1581621314.062,3.418,28.32,24.414,28.809,0.0,0
1581621314.066,9.277,19.043,26.367,29.785,0.0,0
1581621314.07,14.16,15.625,23.926,15.137,0.0,0
1581621314.073,11.23,33.691,23.926,21.484,0.0,0
1581621314.077,0.0,36.621,25.879,32.227,0.0,0
1581621314.081,3.906,27.832,26.367,33.203,0.0,0
1581621314.085,14.648,18.555,29.785,28.809,0.0,0
1581621314.089,11.719,13.672,34.18,15.137,0.0,0
1581621314.091,-0.488,23.438,36.133,14.16,0.0,0
1581621314.095,4.395,20.508000000000006,32.715,17.09,0.0,0
1581621314.099,20.996,25.391,25.391,21.973000000000006,0.0,0
1581621314.103,19.531,40.039,20.02,15.625,0.0,0
1581621314.107,9.277,35.156,24.414,9.277,0.0,0
1581621314.111,7.812,19.043,33.691,22.949,0.0,0
1581621314.115,19.531,16.113,37.598,25.391,0.0,0
1581621314.1179998,23.926,23.438,30.762,11.719,0.0,0
1581621314.1220002,15.625,27.344,24.902,16.602,0.0,0
1581621314.1260002,11.719,20.508000000000006,26.367,29.785,0.0,0
1581621314.13,20.02,30.762,28.32,26.855,0.0,0
1581621314.1339998,28.32,41.992,29.297,18.555,0.0,1
1581621314.135,21.484,28.32,30.273000000000003,13.672,0.0,0
1581621314.139,15.625,14.648,33.691,22.461,0.0,0
1581621314.143,20.508000000000006,20.02,38.574,22.461,0.0,0
1581621314.147,27.344,30.762,32.227,14.648,0.0,0
1581621314.151,19.531,24.414,19.531,14.16,0.0,0
1581621314.155,5.371,22.461,23.438,15.625,0.0,0
1581621314.159,7.324,25.391,34.18,14.648,0.0,0
1581621314.1620002,14.16,29.297,35.156,14.16,0.0,0
1581621314.166,14.648,16.113,32.715,9.766,0.0,0
1581621314.17,9.277,23.926,34.18,8.789,0.0,0
1581621314.174,16.113,47.363,37.109,26.855,0.0,0
1581621314.178,24.902,39.551,32.227,23.926,0.0,0
1581621314.18,23.926,35.156,29.785,8.789,0.0,0
1581621314.184,21.973000000000006,36.621,34.668,17.09,0.0,0
1581621314.188,16.602,37.598,34.668,29.785,0.0,0
1581621314.1920002,20.996,33.691,35.156,30.762,0.0,0
1581621314.196,27.832,21.973000000000006,35.156,22.461,0.0,0
1581621314.2,31.25,22.461,32.715,23.926,0.0,0
1581621314.204,28.809,21.484,37.109,33.691,0.0,0
1581621314.207,31.738000000000003,20.996,40.527,36.133,0.0,0
1581621314.211,34.18,29.297,37.598,22.949,0.0,0
1581621314.215,36.133,41.992,41.504,19.531,0.0,0
1581621314.219,31.25,51.27,44.434,18.555,0.0,0
1581621314.2229998,20.508000000000006,40.527,38.086,16.602,0.0,0
1581621314.226,23.438,37.109,30.273000000000003,11.23,0.0,0
1581621314.23,24.902,33.203,29.297,0.488,0.0,0
1581621314.234,15.625,32.227,31.738000000000003,4.883,0.0,0
1581621314.238,8.789,34.668,29.785,13.184,0.0,0
1581621314.242,15.625,27.832,23.438,17.09,0.0,0
1581621314.246,19.043,22.949,22.949,7.812,0.0,0
1581621314.25,15.137,21.484,28.32,1.465,0.0,0
1581621314.2529998,15.137,20.02,31.25,11.719,0.0,0
1581621314.2570002,24.414,20.508000000000006,33.691,15.137,0.0,0
1581621314.2610002,39.551,39.551,33.691,11.719,0.0,0
1581621314.265,41.992,40.527,35.156,16.602,0.0,0
1581621314.269,33.203,25.879,36.621,28.809,0.0,0
1581621314.27,34.668,25.879,36.621,33.203,0.0,0
1581621314.274,43.457,34.668,33.691,27.832,0.0,0
1581621314.278,43.945,29.785,38.086,27.832,0.0,0
1581621314.282,37.598,23.926,38.086,30.762,0.0,0
1581621314.286,38.574,26.367,34.18,28.809,0.0,0
1581621314.29,48.828,23.438,38.086,23.438,0.0,0
1581621314.294,49.805,18.066,34.18,22.949,0.0,0
1581621314.2970002,35.156,12.695,28.32,18.066,0.0,0
1581621314.301,40.527,23.438,31.25,27.832,0.0,0
1581621314.305,48.34,42.969,29.297,26.855,0.0,0
1581621314.309,45.41,36.621,29.297,18.066,0.0,0
1581621314.313,39.551,35.156,35.645,23.438,0.0,0
1581621314.316,30.762,47.852,31.738000000000003,22.949,0.0,0
1581621314.32,36.621,41.504,22.949,24.902,0.0,0
1581621314.324,42.969,29.785,24.414,20.996,0.0,0
1581621314.3279998,30.762,33.203,26.367,4.395,0.0,0
1581621314.332,21.973000000000006,35.156,24.414,1.953,0.0,0
1581621314.336,30.762,28.809,27.344,20.996,0.0,0
1581621314.34,32.227,18.066,29.297,20.996,0.0,0
1581621314.343,24.902,17.09,24.902,9.766,0.0,0
1581621314.347,22.949,41.01600000000001,23.926,10.254,0.0,0
1581621314.351,27.344,41.504,24.414,13.184,0.0,0
1581621314.355,38.574,19.531,24.414,18.066,0.0,0
1581621314.359,41.992,22.461,28.809,11.719,0.0,0
1581621314.361,36.133,36.133,36.133,15.625,0.0,0
1581621314.365,33.691,26.367,34.668,27.344,0.0,0
1581621314.369,35.645,20.02,28.32,24.902,0.0,0
1581621314.373,44.434,22.949,27.832,19.531,0.0,0
1581621314.377,42.969,15.625,27.832,21.484,0.0,0
1581621314.381,36.621,13.184,29.785,25.879,0.0,0
1581621314.385,45.41,14.648,31.738000000000003,31.25,0.0,0
1581621314.3879998,50.293,24.414,30.273000000000003,22.949,0.0,0
1581621314.3920002,45.898,39.062,28.809,15.137,0.0,0
1581621314.396,32.715,24.902,23.438,20.996,0.0,0
1581621314.4,29.785,16.602,23.926,30.273000000000003,0.0,0
1581621314.404,35.156,22.949,22.461,23.926,0.0,0
1581621314.406,37.109,26.855,19.531,14.648,0.0,0
1581621314.41,34.668,22.461,24.902,21.973000000000006,0.0,0
1581621314.414,30.273000000000003,20.996,27.832,24.902,0.0,0
1581621314.418,40.039,33.203,24.902,20.02,0.0,0
1581621314.4220002,48.828,25.391,27.832,16.113,0.0,0
1581621314.426,45.41,11.23,28.32,26.855,0.0,0
1581621314.43,41.992,13.184,21.973000000000006,31.25,0.0,0
1581621314.4329998,54.688,34.18,25.879,28.809,0.0,0
1581621314.437,63.477,33.691,27.832,30.273000000000003,0.0,0
1581621314.441,52.734,21.484,29.297,34.668,0.0,0
1581621314.445,49.805,35.156,31.25,40.039,0.0,0
1581621314.449,54.688,35.645,33.203,38.574,0.0,0
1581621314.466,55.176,32.715,33.691,36.133,0.0,0
1581621314.47,50.293,39.551,28.32,26.855,0.0,0
1581621314.474,46.387,39.062,24.902,30.762,0.0,0
1581621314.478,48.828,37.109,32.715,39.062,0.0,0
1581621314.482,55.664,29.297,32.715,29.785,0.0,0
1581621314.486,52.246,25.879,25.391,23.438,0.0,0
1581621314.49,42.48,39.062,25.879,22.461,0.0,0
1581621314.4929998,45.41,36.133,25.391,30.273000000000003,0.0,0
1581621314.4970002,51.758,26.855,28.32,31.25,0.0,0
1581621314.5010002,49.805,24.902,28.809,19.531,0.0,0
1581621314.505,42.969,29.785,25.391,24.414,0.0,0
1581621314.5089998,42.48,35.156,30.273000000000003,26.855,0.0,0
1581621314.5110002,46.387,29.297,31.25,20.996,0.0,0
1581621314.515,53.223,22.461,27.832,22.461,0.0,0
1581621314.519,50.293,13.184,26.367,15.137,0.0,0
1581621314.5229998,41.01600000000001,18.555,25.879,21.484,0.0,0
1581621314.5270002,37.598,29.785,29.297,26.367,0.0,0
1581621314.531,36.133,21.484,24.902,12.207,0.0,0
1581621314.535,39.062,18.555,20.996,6.836,0.0,0
1581621314.538,35.645,27.344,23.438,16.602,0.0,0
1581621314.542,33.691,20.508000000000006,27.832,24.902,0.0,0
1581621314.546,41.504,11.23,31.738000000000003,22.949,0.0,0
1581621314.55,38.574,25.879,27.344,11.719,0.0,0
1581621314.554,30.273000000000003,29.297,23.926,12.207,0.0,0
1581621314.556,29.297,21.973000000000006,26.855,30.762,0.0,0
1581621314.56,35.156,22.949,33.691,29.785,0.0,0
1581621314.564,38.574,33.691,33.203,20.508000000000006,0.0,0
1581621314.5679998,33.203,29.785,27.832,17.578,0.0,0
1581621314.572,22.461,21.484,31.738000000000003,29.297,0.0,0
1581621314.576,21.973000000000006,26.367,31.738000000000003,35.156,0.0,0
1581621314.58,31.738000000000003,32.227,30.273000000000003,21.484,0.0,0
1581621314.583,27.344,27.832,30.273000000000003,15.137,0.0,0
1581621314.587,20.508000000000006,18.555,29.785,16.113,0.0,0
1581621314.591,21.484,35.156,29.785,28.809,0.0,0
1581621314.595,31.25,46.387,25.879,32.715,0.0,0
1581621314.599,27.832,34.18,23.438,20.508000000000006,0.0,0
1581621314.601,11.719,32.715,24.902,20.02,0.0,0
1581621314.605,14.16,33.203,27.344,29.785,0.0,0
1581621314.609,26.855,34.18,24.902,25.879,0.0,0
1581621314.613,20.02,21.973000000000006,22.949,20.996,0.0,0
1581621314.617,13.184,19.043,30.762,22.461,0.0,0
1581621314.621,9.277,27.344,32.227,19.043,0.0,0
1581621314.625,5.859,32.227,20.02,14.648,0.0,0
1581621314.6279998,8.789,25.879,14.648,10.742,0.0,0
1581621314.6320002,6.836,12.695,20.996,8.301,0.0,0
1581621314.6360002,2.93,22.461,21.484,17.09,0.0,0
1581621314.64,2.441,31.25,11.23,21.973000000000006,0.0,0
1581621314.644,15.625,28.809,18.555,8.301,0.0,0
1581621314.646,20.02,28.809,30.273000000000003,4.883,0.0,0
1581621314.65,10.254,36.621,22.461,19.043,0.0,0
1581621314.654,15.137,31.738000000000003,24.414,24.414,0.0,0
1581621314.658,24.414,18.066,28.32,18.066,0.0,0
1581621314.6620002,20.996,11.23,24.902,10.254,0.0,0
1581621314.666,10.742,21.484,18.555,14.16,0.0,0
1581621314.67,13.672,26.367,17.578,29.785,0.0,0
1581621314.673,28.809,11.23,28.32,28.809,0.0,0
1581621314.677,29.785,26.367,24.902,11.719,0.0,0
1581621314.681,19.043,44.922,22.461,10.742,0.0,0
1581621314.685,16.113,35.156,29.785,24.902,0.0,0
1581621314.689,24.902,26.855,32.227,32.227,0.0,0
1581621314.691,29.297,25.391,29.297,23.926,0.0,0
1581621314.695,28.32,25.879,28.32,13.184,0.0,0
1581621314.699,19.531,21.484,32.227,20.508000000000006,0.0,0
1581621314.7029998,17.09,27.344,34.668,32.227,0.0,0
1581621314.707,34.18,27.344,34.668,28.32,0.0,0
1581621314.711,36.621,15.137,29.297,24.902,0.0,0
1581621314.715,25.391,12.695,27.832,28.809,0.0,0
1581621314.718,29.785,8.301,33.691,33.203,0.0,0
1581621314.722,40.527,20.02,34.668,34.18,0.0,0
1581621314.726,42.969,34.668,31.738000000000003,27.832,0.0,0
1581621314.73,35.156,34.18,31.738000000000003,26.367,0.0,0
1581621314.734,29.785,41.504,32.227,38.086,0.0,0
1581621314.736,38.086,46.387,36.621,42.48,0.0,0
1581621314.74,47.363,38.574,40.527,29.297,0.0,0
1581621314.744,40.039,32.227,32.227,31.25,0.0,0
1581621314.748,32.715,30.273000000000003,29.785,42.48,0.0,0
1581621314.752,35.645,33.691,36.621,41.504,0.0,0
1581621314.756,42.969,18.555,40.527,38.086,0.0,0
1581621314.76,36.621,6.348,40.527,27.344,0.0,0
1581621314.7629998,23.926,22.949,36.133,15.625,0.0,0
1581621314.7670002,28.32,41.992,30.273000000000003,23.926,0.0,0
1581621314.771,35.645,32.227,32.715,18.066,0.0,0
1581621314.775,40.039,21.484,40.039,17.578,0.0,0
1581621314.779,27.344,26.367,32.715,27.344,0.0,0
1581621314.781,13.672,23.926,28.809,25.391,0.0,0
1581621314.785,22.461,21.484,33.203,28.809,0.0,0
1581621314.789,24.902,33.691,33.691,18.555,0.0,0
1581621314.793,15.625,40.039,29.785,7.812,0.0,0
1581621314.7970002,12.207,24.414,27.832,25.879,0.0,0
1581621314.801,18.555,9.277,31.25,25.879,0.0,0
1581621314.805,26.367,18.555,31.738000000000003,13.184,0.0,0
1581621314.8079998,20.508000000000006,41.992,29.297,13.672,0.0,0
1581621314.812,10.742,36.133,26.855,22.949,0.0,0
1581621314.816,20.996,30.762,28.32,28.809,0.0,0
1581621314.82,33.203,26.855,30.762,25.391,0.0,0
1581621314.824,25.879,32.227,27.344,20.996,0.0,0
1581621314.841,17.578,29.785,28.32,24.902,0.0,0
1581621314.845,21.484,28.32,35.645,38.086,0.0,0
1581621314.849,29.297,38.574,33.691,33.691,0.0,0
1581621314.853,27.344,35.645,24.902,18.066,0.0,0
1581621314.857,18.555,29.297,24.902,20.996,0.0,0
1581621314.861,11.719,14.16,27.344,26.367,0.0,0
1581621314.865,20.996,20.02,26.367,24.902,0.0,0
1581621314.8679998,28.32,40.039,21.973000000000006,17.09,0.0,0
1581621314.8720002,18.066,34.18,23.438,19.531,0.0,0
1581621314.8760002,8.301,19.531,32.715,30.273000000000003,0.0,0
1581621314.88,16.602,15.137,32.227,31.25,0.0,0
1581621314.8839998,24.902,24.414,26.855,25.879,0.0,0
1581621314.8860002,19.531,30.273000000000003,30.762,24.902,0.0,0
1581621314.89,10.742,32.715,36.133,37.598,0.0,0
1581621314.894,7.812,35.645,37.109,35.156,0.0,0
1581621314.8979998,17.09,30.762,39.062,28.32,0.0,0
1581621314.9020002,23.926,21.973000000000006,35.645,25.879,0.0,0
1581621314.906,17.578,26.855,27.344,27.832,0.0,0
1581621314.91,22.949,40.527,27.344,32.227,0.0,0
1581621314.913,38.086,43.457,33.691,33.691,0.0,0
1581621314.917,35.156,29.785,34.668,29.785,0.0,0
1581621314.921,27.832,21.484,36.133,31.25,0.0,0
1581621314.925,30.762,35.645,34.668,38.574,0.0,0
1581621314.929,32.715,39.551,32.227,35.156,0.0,0
1581621314.931,33.691,35.156,35.156,26.855,0.0,0
1581621314.935,27.832,33.203,33.691,25.391,0.0,0
1581621314.939,21.973000000000006,41.01600000000001,29.785,36.621,0.0,0
1581621314.9429998,29.785,35.156,28.32,39.551,0.0,0
1581621314.947,37.598,25.391,29.297,26.367,0.0,0
1581621314.951,28.32,32.715,26.367,20.996,0.0,0
1581621314.955,23.438,28.809,24.902,25.879,0.0,0
1581621314.958,24.414,27.832,30.762,31.738000000000003,0.0,0
1581621314.962,25.391,27.344,32.715,24.902,0.0,0
1581621314.966,24.902,32.715,25.879,19.043,0.0,0
1581621314.97,19.043,40.039,29.297,23.926,0.0,0
1581621314.974,21.973000000000006,30.762,36.133,29.785,0.0,0
1581621314.976,30.762,21.973000000000006,34.18,32.227,0.0,0
1581621314.98,38.086,25.391,28.809,22.461,0.0,0
1581621314.984,29.297,35.156,25.879,28.32,0.0,0
1581621314.988,14.648,35.645,27.344,37.109,0.0,0
1581621314.992,21.973000000000006,36.133,33.691,29.297,0.0,0
1581621314.996,30.762,36.133,33.691,25.879,0.0,0
1581621315.0,32.227,30.762,33.203,30.762,0.0,0
1581621315.0029998,22.949,28.32,36.621,35.156,0.0,0
1581621315.0070002,28.32,24.902,34.668,34.18,0.0,0
1581621315.0110002,47.852,28.32,29.785,32.715,0.0,0
1581621315.015,42.48,27.832,29.297,28.32,0.0,0
1581621315.019,36.133,37.109,31.25,38.574,0.0,0
1581621315.022,37.109,43.457,31.738000000000003,50.78100000000001,0.0,0
1581621315.026,34.668,40.527,31.25,38.086,0.0,0
1581621315.03,32.227,39.551,31.25,25.391,0.0,0
1581621315.034,25.391,35.645,32.227,29.297,0.0,0
1581621315.038,20.02,28.809,32.227,34.18,0.0,0
1581621315.042,26.855,18.066,31.25,31.738000000000003,0.0,0
1581621315.046,27.832,5.859,35.156,24.902,0.0,0
1581621315.049,15.137,2.441,30.762,28.32,0.0,0
1581621315.053,20.996,27.344,25.391,39.062,0.0,0
1581621315.0570002,32.227,34.668,30.762,33.203,0.0,0
1581621315.061,32.227,28.809,35.645,27.832,0.0,0
1581621315.065,24.902,38.574,32.715,28.809,0.0,0
1581621315.066,14.16,33.691,27.832,30.273000000000003,0.0,0
1581621315.07,16.602,33.203,24.902,31.738000000000003,0.0,0
1581621315.074,21.973000000000006,25.879,25.879,25.879,0.0,0
1581621315.0779998,18.555,21.973000000000006,24.414,17.578,0.0,0
1581621315.082,11.23,33.691,19.043,19.531,0.0,0
1581621315.086,12.207,28.809,15.137,26.855,0.0,0
1581621315.09,29.785,10.254,22.949,28.809,0.0,0
1581621315.093,35.645,14.16,33.203,23.926,0.0,0
1581621315.097,22.949,34.668,31.738000000000003,14.16,0.0,0
1581621315.101,19.043,38.086,29.297,20.02,0.0,0
1581621315.105,29.297,34.18,32.715,23.926,0.0,0
1581621315.109,30.762,27.344,25.879,18.555,0.0,0
1581621315.111,23.926,32.715,22.949,29.785,0.0,0
1581621315.115,25.391,26.855,23.438,36.621,0.0,0
1581621315.119,29.297,20.02,21.484,28.32,0.0,0
1581621315.123,38.086,20.508000000000006,26.367,23.438,0.0,0
1581621315.127,43.945,25.879,27.344,37.109,0.0,0
1581621315.131,34.18,36.133,28.32,43.945,0.0,0
1581621315.135,23.438,31.738000000000003,33.203,37.598,0.0,0
1581621315.1379998,30.762,36.621,32.227,26.855,0.0,0
1581621315.1420002,31.738000000000003,45.898,30.273000000000003,17.09,0.0,0
1581621315.146,17.09,43.945,30.273000000000003,17.578,0.0,0
1581621315.15,18.066,35.156,28.809,21.973000000000006,0.0,0
1581621315.154,24.414,24.414,26.855,14.16,0.0,0
1581621315.171,21.484,26.855,20.02,4.883,0.0,0
1581621315.175,20.02,32.227,16.602,10.742,0.0,0
1581621315.179,20.996,24.902,24.414,25.391,0.0,0
1581621315.1829998,29.785,23.438,29.785,28.32,0.0,0
1581621315.187,36.133,36.133,28.809,23.926,0.0,0
1581621315.191,26.855,29.785,28.809,26.855,0.0,0
1581621315.195,21.484,25.391,24.902,24.902,0.0,0
1581621315.198,34.18,44.434,24.902,25.879,0.0,0
1581621315.202,38.574,35.645,27.832,22.949,0.0,0
1581621315.206,31.738000000000003,20.508000000000006,29.785,19.531,0.0,0
1581621315.21,14.648,25.879,30.273000000000003,20.508000000000006,0.0,0
1581621315.214,9.277,30.762,22.949,14.648,0.0,0
1581621315.216,23.926,29.785,23.926,17.09,0.0,0
1581621315.22,20.02,28.32,23.926,13.672,0.0,0
1581621315.224,9.766,26.367,26.367,14.16,0.0,0
1581621315.228,15.625,25.391,33.691,25.879,0.0,0
1581621315.232,25.879,22.461,30.762,21.973000000000006,0.0,0
1581621315.236,33.691,21.973000000000006,27.832,19.531,0.0,0
1581621315.24,27.832,14.648,26.855,24.902,0.0,0
1581621315.2429998,27.344,12.207,28.809,32.227,0.0,0
1581621315.2470002,38.086,23.438,32.227,32.227,0.0,0
1581621315.2510002,37.598,16.602,32.715,23.438,0.0,0
1581621315.255,23.438,24.902,31.25,19.043,0.0,0
1581621315.2589998,11.23,43.457,32.227,27.832,0.0,0
1581621315.2610002,11.719,31.738000000000003,33.691,30.273000000000003,0.0,0
1581621315.265,14.648,25.391,27.344,12.207,0.0,0
1581621315.269,10.742,29.785,28.809,4.883,0.0,0
1581621315.2729998,2.93,30.762,24.414,18.555,0.0,0
1581621315.2770002,5.371,13.672,19.043,25.391,0.0,0
1581621315.281,18.066,-4.883,23.438,20.996,0.0,0
1581621315.285,18.066,14.648,21.973000000000006,10.742,0.0,0
1581621315.288,12.207,38.086,20.996,17.09,0.0,0
1581621315.292,15.625,30.273000000000003,23.926,32.715,0.0,0
1581621315.296,27.832,21.973000000000006,26.367,29.297,0.0,0
1581621315.3,34.18,33.203,25.391,25.391,0.0,0
1581621315.304,27.344,24.414,22.949,33.203,0.0,0
1581621315.306,23.438,18.066,21.973000000000006,32.227,0.0,0
1581621315.31,20.996,29.785,20.996,21.973000000000006,0.0,0
1581621315.314,21.484,34.668,21.484,15.137,0.0,0
1581621315.3179998,26.367,35.645,25.391,15.625,0.0,2
1581621315.322,22.949,29.297,22.461,23.926,0.0,0
1581621315.326,21.484,25.391,21.484,28.32,0.0,0
1581621315.33,30.762,27.832,30.762,26.367,0.0,0
1581621315.333,36.621,30.273000000000003,35.156,26.367,0.0,0
1581621315.337,29.785,24.414,31.25,27.832,0.0,0
1581621315.341,23.438,29.785,29.297,21.973000000000006,0.0,0
1581621315.345,28.32,40.039,26.367,16.113,0.0,0
1581621315.349,31.25,30.273000000000003,25.879,17.09,0.0,0
1581621315.351,24.902,24.414,34.18,28.32,0.0,0
1581621315.355,16.602,33.691,30.762,36.133,0.0,0
1581621315.359,27.832,34.668,25.391,31.25,0.0,0
1581621315.363,37.598,17.578,25.879,22.949,0.0,0
1581621315.367,32.227,17.578,27.344,31.25,0.0,0
1581621315.371,26.367,18.066,25.391,41.504,0.0,0
1581621315.375,26.855,23.438,18.066,31.25,0.0,0
1581621315.3779998,32.715,15.137,24.414,18.066,0.0,0
1581621315.3820002,24.902,7.324,31.738000000000003,16.113,0.0,0
1581621315.3860002,18.555,37.598,25.879,27.832,0.0,0
1581621315.39,25.391,38.574,26.855,37.598,0.0,0
1581621315.394,32.227,31.738000000000003,29.297,27.832,0.0,0
1581621315.396,36.621,29.785,26.855,22.949,0.0,0
1581621315.4,31.738000000000003,34.18,23.438,29.297,0.0,0
1581621315.404,25.391,32.715,22.461,34.668,0.0,0
1581621315.408,26.855,24.902,26.367,31.738000000000003,0.0,0
1581621315.4120002,23.438,21.484,27.832,20.02,0.0,0
1581621315.416,7.812,17.578,22.461,14.16,0.0,0
1581621315.42,2.441,12.695,18.555,28.809,0.0,0
1581621315.423,15.137,-0.488,21.973000000000006,17.578,0.0,0
1581621315.427,20.996,3.418,18.066,-1.953,0.0,0
1581621315.431,10.254,21.484,11.23,9.277,0.0,0
1581621315.435,6.836,25.391,16.113,15.137,0.0,0
1581621315.439,13.184,29.297,17.09,16.602,0.0,0
1581621315.441,22.949,28.809,16.113,13.672,0.0,0
1581621315.445,20.996,25.391,17.578,10.742,0.0,0
1581621315.449,12.207,20.508000000000006,20.996,21.973000000000006,0.0,0
1581621315.4529998,13.184,19.531,21.484,25.879,0.0,0
1581621315.457,19.043,25.391,17.578,18.555,0.0,0
1581621315.461,21.484,20.508000000000006,21.973000000000006,17.578,0.0,0
1581621315.465,21.973000000000006,11.23,27.344,22.949,0.0,0
1581621315.468,26.855,19.043,26.855,30.762,0.0,0
1581621315.472,36.133,37.109,24.414,21.484,0.0,0
1581621315.476,39.551,25.879,27.832,9.277,0.0,0
1581621315.48,36.133,23.438,31.738000000000003,16.113,0.0,0
1581621315.484,34.668,30.273000000000003,24.414,23.926,0.0,0
1581621315.486,40.527,26.367,18.555,24.414,0.0,0
1581621315.49,44.434,24.902,17.578,9.766,0.0,0
1581621315.494,31.738000000000003,29.785,17.578,9.277,0.0,0
1581621315.498,29.297,32.227,25.879,28.809,0.0,0
1581621315.502,37.598,26.855,29.785,34.18,0.0,0
1581621315.506,31.738000000000003,16.602,26.855,21.973000000000006,0.0,0
1581621315.51,26.855,11.23,25.391,18.555,0.0,0
1581621315.5129998,23.438,27.832,24.902,27.832,0.0,0
1581621315.5170002,22.461,42.969,26.855,31.738000000000003,0.0,0
1581621315.521,36.133,34.18,34.668,31.25,0.0,0
1581621315.525,38.086,29.297,36.133,25.391,0.0,0
1581621315.529,22.949,26.367,32.715,25.391,0.0,0
1581621315.531,18.555,35.645,31.25,34.668,0.0,0
1581621315.535,20.508000000000006,36.621,32.715,32.715,0.0,0
1581621315.539,19.043,24.902,33.691,30.762,0.0,0
1581621315.543,12.695,32.227,30.273000000000003,22.949,0.0,0
1581621315.5470002,10.254,38.574,29.297,22.461,0.0,0
1581621315.551,14.16,17.578,30.762,30.762,0.0,0
1581621315.555,22.949,5.371,30.273000000000003,20.996,0.0,0
1581621315.5579998,23.926,35.156,30.273000000000003,11.23,0.0,0
1581621315.562,12.695,46.875,27.344,19.531,0.0,0
1581621315.566,9.277,35.156,20.996,21.973000000000006,0.0,0
1581621315.57,18.555,31.738000000000003,24.414,18.555,0.0,0
1581621315.574,13.672,34.18,32.227,8.301,0.0,0
1581621315.591,3.906,29.785,27.832,13.672,0.0,0
1581621315.595,13.184,22.949,26.855,25.879,0.0,0
1581621315.599,18.555,26.367,28.809,14.16,0.0,0
1581621315.603,13.184,35.156,27.344,1.465,0.0,0
1581621315.607,4.883,36.133,29.785,18.066,0.0,0
1581621315.611,0.0,28.809,37.109,27.832,0.0,0
1581621315.615,1.953,27.832,41.992,17.09,0.0,0
1581621315.6179998,7.812,31.738000000000003,42.969,14.648,0.0,0
1581621315.6220002,11.719,33.691,41.01600000000001,25.879,0.0,0
1581621315.6260002,7.812,22.949,39.551,31.738000000000003,0.0,0
1581621315.63,15.625,22.949,35.645,32.715,0.0,0
1581621315.6339998,17.09,36.621,33.203,21.973000000000006,0.0,0
1581621315.6360002,12.207,37.598,31.738000000000003,11.719,0.0,0
1581621315.64,10.254,26.367,34.18,24.902,0.0,0
1581621315.644,10.742,26.367,37.598,36.621,0.0,0
1581621315.6479998,18.066,36.133,34.18,30.273000000000003,0.0,0
1581621315.6520002,19.531,36.621,29.297,16.602,0.0,0
1581621315.656,14.16,30.762,29.785,21.484,0.0,0
1581621315.66,16.113,27.344,34.18,34.18,0.0,0
1581621315.663,23.926,30.762,29.297,28.32,0.0,0
1581621315.667,18.555,26.855,24.902,24.902,0.0,0
1581621315.671,11.719,16.113,27.344,25.879,0.0,0
1581621315.675,18.066,19.043,29.297,24.902,0.0,0
1581621315.679,25.391,22.461,22.461,23.438,0.0,0
1581621315.6820002,29.297,40.039,20.508000000000006,18.066,0.0,0
1581621315.686,24.902,47.363,25.391,23.438,0.0,0
1581621315.69,15.137,40.527,22.949,25.879,0.0,0
1581621315.694,17.09,28.809,28.32,22.461,0.0,0
1581621315.698,27.344,15.137,26.367,17.578,0.0,0
1581621315.702,26.855,10.254,19.043,15.625,0.0,0
1581621315.706,16.113,19.043,21.484,27.832,0.0,0
1581621315.709,17.09,35.156,23.926,32.227,0.0,0
1581621315.7129998,22.461,21.973000000000006,27.832,24.414,0.0,0
1581621315.717,24.902,24.414,29.785,24.902,0.0,0
1581621315.721,17.09,42.969,27.832,24.902,0.0,0
1581621315.725,8.789,39.062,23.438,27.344,0.0,0
1581621315.726,18.066,35.156,23.926,22.949,0.0,0
1581621315.73,23.926,26.855,26.367,13.184,0.0,0
1581621315.734,18.555,11.719,26.367,20.996,0.0,0
1581621315.738,20.508000000000006,11.719,26.855,35.156,0.0,0
1581621315.742,28.32,23.926,30.273000000000003,35.156,0.0,0
1581621315.746,36.133,29.785,35.156,29.297,0.0,0
1581621315.75,30.762,37.598,28.32,25.879,0.0,0
1581621315.7529998,20.508000000000006,25.879,21.484,24.414,0.0,0
1581621315.7570002,27.832,22.949,27.832,29.297,0.0,0
1581621315.7610002,34.18,43.945,28.32,24.902,0.0,0
1581621315.765,26.855,34.668,25.879,19.043,0.0,0
1581621315.769,22.461,18.555,29.297,27.832,0.0,0
1581621315.772,23.926,23.438,27.832,32.227,0.0,0
1581621315.776,27.832,30.273000000000003,26.367,31.25,0.0,0
1581621315.78,27.832,34.668,27.832,24.414,0.0,0
1581621315.784,20.02,33.203,23.926,20.02,0.0,0
1581621315.788,13.184,31.738000000000003,20.996,24.414,0.0,0
1581621315.792,23.926,24.414,21.973000000000006,24.902,0.0,0
1581621315.796,29.297,22.461,24.902,16.602,0.0,0
1581621315.799,17.578,19.043,27.832,17.578,0.0,0
1581621315.803,12.207,23.926,20.996,20.996,0.0,0
1581621315.8070002,18.066,42.969,20.996,20.02,0.0,0
1581621315.811,28.809,32.227,27.344,17.09,0.0,0
1581621315.815,25.391,22.949,29.785,14.16,0.0,0
1581621315.816,16.113,28.32,29.785,19.043,0.0,0
1581621315.82,19.043,36.133,27.832,27.344,0.0,0
1581621315.824,30.273000000000003,27.832,30.762,25.879,0.0,0
1581621315.8279998,33.203,33.691,34.18,20.508000000000006,0.0,0
1581621315.832,19.043,44.922,30.273000000000003,20.996,0.0,0
1581621315.836,12.207,34.668,26.855,23.926,0.0,0
1581621315.84,20.02,21.484,28.809,21.973000000000006,0.0,0
1581621315.843,21.484,20.02,29.297,14.648,0.0,0
1581621315.847,19.043,36.133,27.832,17.578,0.0,0
1581621315.851,24.902,38.086,30.762,28.809,0.0,0
1581621315.855,38.086,28.809,38.574,39.062,0.0,0
1581621315.859,40.527,24.902,41.992,33.203,0.0,0
1581621315.861,28.32,32.227,37.109,21.484,0.0,0
1581621315.865,16.113,37.598,33.691,24.414,0.0,0
1581621315.869,14.648,28.809,27.344,30.273000000000003,0.0,0
1581621315.873,25.391,27.832,28.32,28.32,0.0,0
1581621315.877,25.879,27.344,41.01600000000001,20.508000000000006,0.0,0
1581621315.881,22.461,18.066,42.48,28.32,0.0,0
1581621315.885,20.508000000000006,11.23,40.527,32.715,0.0,0
1581621315.8879998,20.02,21.973000000000006,38.086,28.809,0.0,0
1581621315.8920002,19.043,43.457,35.156,24.414,0.0,0
1581621315.896,12.695,38.086,35.645,18.066,0.0,0
1581621315.9,8.789,19.531,34.18,19.531,0.0,0
1581621315.904,14.16,19.043,30.762,18.066,0.0,0
1581621315.906,13.672,40.527,27.832,11.23,0.0,0
1581621315.91,8.301,38.574,27.344,16.113,0.0,0
1581621315.914,13.672,34.18,31.25,27.832,0.0,0
1581621315.918,21.484,40.039,32.715,27.344,0.0,0
1581621315.9220002,24.414,34.668,33.203,20.508000000000006,0.0,0
1581621315.926,13.184,19.043,30.762,23.438,0.0,0
1581621315.93,5.371,19.043,27.344,29.297,0.0,0
1581621315.9329998,12.207,36.621,27.832,18.066,0.0,0
1581621315.937,18.555,36.133,27.344,12.695,0.0,0
1581621315.941,14.648,25.391,27.344,16.602,0.0,0
1581621315.945,9.766,27.832,29.785,23.438,0.0,0
1581621315.949,20.508000000000006,36.133,35.156,34.18,0.0,0
1581621315.966,32.715,29.785,33.691,24.414,0.0,0
1581621315.97,32.715,34.18,24.414,18.555,0.0,0
1581621315.974,24.414,42.48,28.32,29.785,0.0,0
1581621315.978,24.902,41.01600000000001,28.809,30.273000000000003,0.0,0
1581621315.982,37.598,37.598,24.902,30.273000000000003,0.0,0
1581621315.986,46.875,27.832,32.227,30.762,0.0,0
1581621315.99,38.574,17.578,36.133,35.156,0.0,0
1581621315.9929998,28.32,39.551,29.297,40.039,0.0,0
1581621315.9970002,33.691,43.945,31.738000000000003,41.504,0.0,0
1581621316.0010002,35.645,26.367,37.109,34.18,0.0,0
1581621316.005,24.902,31.25,32.715,19.043,0.0,0
1581621316.0089998,13.184,35.645,31.25,19.043,0.0,0
1581621316.0110002,10.254,31.25,29.785,18.066,0.0,0
1581621316.015,17.578,25.879,25.879,8.301,0.0,0
1581621316.019,18.555,31.738000000000003,24.902,11.719,0.0,0
1581621316.0229998,14.16,39.062,28.809,17.09,0.0,0
1581621316.0270002,18.555,29.297,30.273000000000003,22.461,0.0,0
1581621316.031,26.855,19.043,31.25,23.438,0.0,0
1581621316.035,28.809,25.391,27.832,15.625,0.0,0
1581621316.038,25.391,38.574,27.344,20.996,0.0,0
1581621316.042,24.414,26.855,29.297,32.227,0.0,0
1581621316.046,30.762,21.484,30.762,28.32,0.0,0
1581621316.05,35.645,33.203,33.691,20.508000000000006,0.0,0
1581621316.054,28.809,27.832,29.785,30.762,0.0,0
1581621316.056,17.578,28.32,26.855,29.297,0.0,0
1581621316.06,17.09,34.668,29.785,20.508000000000006,0.0,0
1581621316.064,22.461,36.621,26.367,18.066,0.0,0
1581621316.0679998,17.578,41.01600000000001,22.461,16.602,0.0,0
1581621316.072,9.766,33.203,26.855,26.855,0.0,0
1581621316.076,13.184,24.902,26.855,29.297,0.0,0
1581621316.08,24.414,28.32,27.832,19.531,0.0,0
1581621316.083,22.949,34.18,31.738000000000003,8.789,0.0,0
1581621316.087,10.254,29.297,33.691,9.766,0.0,0
1581621316.091,10.254,30.273000000000003,32.715,19.531,0.0,0
1581621316.095,23.438,41.01600000000001,32.227,23.926,0.0,0
1581621316.099,23.926,31.738000000000003,29.785,15.137,0.0,0
1581621316.101,10.742,20.508000000000006,29.297,18.066,0.0,0
1581621316.105,8.789,20.996,25.879,31.738000000000003,0.0,0
1581621316.109,18.066,27.344,20.996,26.367,0.0,0
1581621316.113,22.949,24.414,21.973000000000006,19.043,0.0,0
1581621316.117,20.508000000000006,24.414,29.785,20.996,0.0,0
1581621316.121,23.438,23.438,37.598,28.809,0.0,0
1581621316.125,35.645,19.043,38.086,35.645,0.0,0
1581621316.1279998,41.504,11.23,32.715,28.32,0.0,0
1581621316.1320002,38.086,21.484,26.367,22.949,0.0,0
1581621316.1360002,28.809,51.758,25.391,21.973000000000006,0.0,0
1581621316.14,26.855,55.176,22.949,26.367,0.0,0
1581621316.144,31.25,40.527,22.949,23.438,0.0,0
1581621316.146,24.902,39.551,34.668,17.09,0.0,0
1581621316.15,14.16,41.01600000000001,39.551,23.438,0.0,0
1581621316.154,11.719,31.738000000000003,38.086,23.438,0.0,0
1581621316.158,22.461,30.273000000000003,33.203,27.832,0.0,0
1581621316.1620002,24.902,30.273000000000003,28.809,25.391,0.0,0
1581621316.166,13.672,20.996,27.832,18.555,0.0,0
1581621316.17,6.348,19.043,27.832,30.762,0.0,0
1581621316.173,20.996,12.695,27.832,32.715,0.0,0
1581621316.177,34.668,9.766,30.273000000000003,24.414,0.0,0
1581621316.181,24.902,23.438,29.785,23.438,0.0,0
1581621316.185,16.602,29.785,22.949,30.762,0.0,0
1581621316.189,20.508000000000006,35.156,19.043,34.668,0.0,0
1581621316.191,28.32,39.062,22.949,18.066,0.0,0
1581621316.195,20.02,37.109,25.391,13.672,0.0,0
1581621316.199,12.207,34.18,29.297,32.227,0.0,0
1581621316.2029998,21.484,30.762,31.738000000000003,27.344,0.0,0
1581621316.207,24.414,21.973000000000006,27.344,8.301,0.0,0
1581621316.211,8.789,6.348,21.973000000000006,1.953,0.0,0
1581621316.215,0.0,13.184,20.02,9.766,0.0,0
1581621316.218,4.395,27.344,20.508000000000006,17.578,0.0,0
1581621316.222,16.602,41.992,19.531,14.648,0.0,0
1581621316.226,26.855,42.48,14.648,11.23,0.0,0
1581621316.23,20.02,27.832,14.648,13.184,0.0,0
1581621316.234,19.531,24.414,20.02,19.531,0.0,0
1581621316.236,29.785,38.086,20.508000000000006,24.414,0.0,0
1581621316.24,32.715,21.484,19.043,13.672,0.0,0
1581621316.244,32.227,12.207,21.484,14.16,0.0,0
1581621316.248,29.297,27.344,21.973000000000006,21.973000000000006,0.0,0
1581621316.252,33.691,29.297,20.508000000000006,26.855,0.0,0
1581621316.256,41.992,22.949,23.926,32.715,0.0,0
1581621316.26,35.156,15.625,25.879,26.855,0.0,0
1581621316.2629998,21.973000000000006,21.484,20.508000000000006,26.367,0.0,0
1581621316.2670002,26.367,35.156,20.996,35.156,0.0,0
1581621316.271,35.645,27.832,30.273000000000003,36.621,0.0,0
1581621316.275,30.762,21.484,35.645,32.227,0.0,0
1581621316.279,23.926,24.902,30.762,27.832,0.0,0
1581621316.296,22.949,32.715,27.832,33.691,0.0,0
1581621316.3,25.879,28.32,27.832,30.762,0.0,0
1581621316.304,30.273000000000003,19.043,28.32,13.672,0.0,0
1581621316.3079998,23.926,28.809,30.273000000000003,14.16,0.0,0
1581621316.312,20.02,28.32,29.785,24.414,0.0,0
1581621316.316,32.715,16.602,34.18,30.273000000000003,0.0,0
1581621316.32,35.645,6.836,38.086,17.578,0.0,0
1581621316.323,28.809,20.508000000000006,32.715,17.09,0.0,0
1581621316.327,25.879,37.109,27.832,32.715,0.0,0
1581621316.331,31.25,33.691,28.809,34.668,0.0,0
1581621316.335,36.621,43.945,29.297,26.367,0.0,0
1581621316.339,37.598,47.852,29.297,22.949,0.0,0
1581621316.34,31.25,42.969,29.785,35.645,0.0,0
1581621316.344,33.203,32.715,32.715,45.898,0.0,0
1581621316.3479998,42.969,31.25,25.879,40.039,0.0,0
1581621316.3520002,44.434,39.062,20.508000000000006,26.855,0.0,0
1581621316.356,45.898,25.391,25.391,31.738000000000003,0.0,0
1581621316.36,40.527,24.902,29.297,39.062,0.0,0
1581621316.3639998,35.156,28.809,29.785,32.227,0.0,0
1581621316.367,44.922,36.133,29.785,23.438,0.0,0
1581621316.371,40.039,40.527,27.344,17.09,0.0,0
1581621316.375,25.879,15.137,30.273000000000003,18.555,0.0,0
1581621316.379,36.133,21.973000000000006,36.621,27.344,0.0,0
1581621316.383,48.828,37.109,33.203,25.391,0.0,0
1581621316.3860002,37.598,22.461,26.855,21.973000000000006,0.0,0
1581621316.39,27.344,16.113,26.855,29.785,0.0,0
1581621316.394,30.273000000000003,21.973000000000006,27.832,34.668,0.0,0
1581621316.3979998,35.645,21.973000000000006,24.902,21.973000000000006,0.0,0
1581621316.4020002,36.133,22.949,23.438,12.695,0.0,2
1581621316.406,29.297,27.344,28.32,22.949,0.0,0
1581621316.41,24.414,36.621,28.809,29.785,0.0,0
1581621316.413,30.273000000000003,34.668,28.809,27.832,0.0,0
1581621316.417,38.574,16.602,36.621,22.461,0.0,0
1581621316.421,33.203,17.09,24.414,21.973000000000006,0.0,0
1581621316.425,27.344,42.969,17.578,26.855,0.0,0
1581621316.429,33.203,41.01600000000001,24.902,26.855,0.0,0
1581621316.431,39.062,22.461,28.32,20.508000000000006,0.0,0
1581621316.435,34.668,26.855,31.738000000000003,21.484,0.0,0
1581621316.439,24.902,40.039,31.25,28.809,0.0,0
1581621316.4429998,22.949,41.992,25.391,28.809,0.0,0
1581621316.447,30.762,34.668,25.879,23.438,0.0,0
1581621316.451,29.785,22.461,26.855,18.066,0.0,0
1581621316.455,24.902,19.043,25.391,24.414,0.0,0
1581621316.458,28.809,33.691,30.762,32.227,0.0,0
1581621316.462,25.879,26.855,32.227,21.973000000000006,0.0,0
1581621316.466,20.996,25.391,25.879,12.695,0.0,0
1581621316.47,20.02,22.949,21.484,18.555,0.0,0
1581621316.474,14.16,16.602,20.02,24.902,0.0,0
1581621316.476,17.578,34.668,15.137,22.461,0.0,0
1581621316.48,20.996,34.18,25.879,17.09,0.0,0
1581621316.484,14.16,34.18,35.156,16.113,0.0,0
1581621316.488,8.789,34.668,28.32,20.996,0.0,0
1581621316.492,12.207,30.273000000000003,24.414,23.438,0.0,0
1581621316.496,21.484,24.902,25.879,17.578,0.0,0
1581621316.5,18.555,24.414,32.715,18.066,0.0,0
1581621316.5029998,9.277,21.973000000000006,33.203,27.344,0.0,0
1581621316.5070002,12.695,11.23,22.949,26.855,0.0,0
1581621316.5110002,29.785,27.832,24.414,29.297,0.0,0
1581621316.515,27.832,41.01600000000001,33.691,34.18,0.0,0
1581621316.519,11.23,29.297,40.039,29.297,0.0,0
1581621316.521,14.16,25.879,38.086,26.367,0.0,0
1581621316.525,25.391,24.414,31.738000000000003,33.203,0.0,0
1581621316.529,23.926,23.926,27.832,32.715,0.0,0
1581621316.533,20.996,28.32,34.668,29.785,0.0,0
1581621316.5370002,18.555,24.902,32.227,33.203,0.0,0
1581621316.541,11.719,28.809,23.926,21.484,0.0,0
1581621316.545,12.695,29.785,22.461,14.16,0.0,0
1581621316.548,10.742,19.531,21.973000000000006,19.043,0.0,0
1581621316.552,12.207,26.367,23.438,27.832,0.0,0
1581621316.556,23.438,37.598,24.902,29.785,0.0,0
1581621316.56,24.902,24.902,24.902,11.719,0.0,0
1581621316.564,19.043,18.555,21.484,14.648,0.0,0
1581621316.566,22.461,23.926,20.508000000000006,30.762,0.0,0
1581621316.57,25.391,30.273000000000003,21.484,32.715,0.0,0
1581621316.574,24.902,27.344,15.625,25.879,0.0,0
1581621316.5779998,30.762,17.09,18.066,15.137,0.0,0
1581621316.582,30.273000000000003,20.996,20.996,28.32,0.0,0
1581621316.586,19.043,24.902,14.648,29.297,0.0,0
1581621316.59,20.02,18.066,23.926,11.23,0.0,0
1581621316.593,25.391,14.648,39.551,15.137,0.0,0
1581621316.597,18.555,30.762,37.109,22.461,0.0,0
1581621316.601,12.695,27.832,28.32,27.344,0.0,0
1581621316.605,18.555,18.555,29.785,25.879,0.0,0
1581621316.609,22.949,22.949,31.738000000000003,22.461,0.0,0
1581621316.611,18.555,32.227,28.32,25.391,0.0,0
1581621316.615,18.555,35.645,23.926,31.25,0.0,0
1581621316.619,21.973000000000006,25.391,22.461,30.762,0.0,0
1581621316.623,23.438,36.133,27.344,19.043,0.0,0
1581621316.627,20.508000000000006,37.109,31.738000000000003,19.531,0.0,0
1581621316.631,14.16,20.508000000000006,33.203,36.133,0.0,0
1581621316.635,15.137,11.719,32.227,32.227,0.0,0
1581621316.6379998,20.508000000000006,22.949,31.738000000000003,20.996,0.0,0
1581621316.6420002,26.855,42.48,30.273000000000003,22.461,0.0,0
1581621316.646,27.344,43.945,31.738000000000003,28.32,0.0,0
1581621316.65,22.949,33.203,31.25,39.062,0.0,0
1581621316.654,29.785,30.762,31.738000000000003,37.598,0.0,0
1581621316.656,28.32,27.832,34.668,20.02,0.0,0
1581621316.66,16.113,18.555,26.367,13.184,0.0,0
1581621316.664,18.555,21.484,19.531,27.832,0.0,0
1581621316.668,22.949,23.438,16.602,35.645,0.0,0
1581621316.6720002,24.902,17.09,11.23,22.949,0.0,0
1581621316.676,26.367,3.418,15.625,20.996,0.0,0
1581621316.68,25.879,3.906,28.809,32.715,0.0,0
1581621316.6829998,29.297,30.762,35.156,32.715,0.0,0
1581621316.687,32.227,35.156,36.621,26.855,0.0,0
1581621316.691,31.738000000000003,21.973000000000006,31.738000000000003,24.902,0.0,0
1581621316.695,28.32,18.555,31.738000000000003,35.156,0.0,0
1581621316.699,29.297,36.133,30.273000000000003,41.01600000000001,0.0,0
1581621316.716,36.621,34.668,26.367,34.668,0.0,0
1581621316.72,37.109,26.367,27.832,26.855,0.0,0
1581621316.724,35.156,29.785,31.738000000000003,26.367,0.0,0
1581621316.728,40.527,37.598,34.668,33.203,0.0,0
1581621316.732,41.01600000000001,40.039,30.273000000000003,37.598,0.0,0
1581621316.736,39.062,17.578,27.832,39.062,0.0,0
1581621316.74,41.01600000000001,14.648,29.297,34.18,0.0,0
1581621316.7429998,35.156,36.621,24.414,26.367,0.0,0
1581621316.7470002,39.551,38.086,23.438,35.156,0.0,0
1581621316.7510002,48.828,25.391,28.809,29.785,0.0,0
1581621316.755,44.434,31.25,36.621,20.508000000000006,0.0,0
1581621316.7589998,40.039,45.41,33.691,27.344,0.0,0
1581621316.7610002,41.992,34.668,32.715,35.156,0.0,0
1581621316.765,42.969,20.996,35.156,26.367,0.0,0
1581621316.769,37.598,14.648,32.715,21.973000000000006,0.0,0
1581621316.7729998,30.273000000000003,27.344,37.109,34.18,0.0,0
1581621316.7770002,34.668,36.133,38.574,39.062,0.0,0
1581621316.781,41.01600000000001,20.508000000000006,31.738000000000003,29.785,0.0,0
1581621316.785,44.434,29.785,34.18,23.438,0.0,0
1581621316.788,40.039,44.922,34.18,37.598,0.0,0
1581621316.792,32.715,24.902,31.25,40.527,0.0,0
1581621316.796,41.504,2.441,34.668,30.273000000000003,0.0,0
1581621316.8,48.34,23.438,36.133,24.902,0.0,0
1581621316.804,39.062,39.551,33.691,32.715,0.0,0
1581621316.806,28.32,31.738000000000003,29.785,41.992,0.0,0
1581621316.81,30.762,31.25,33.203,28.32,0.0,0
1581621316.814,34.18,37.109,34.18,15.625,0.0,0
1581621316.8179998,27.344,33.691,26.367,7.812,0.0,0
1581621316.822,26.367,29.297,25.879,18.555,0.0,0
1581621316.826,32.227,25.391,30.762,33.203,0.0,0
1581621316.83,33.203,18.555,27.832,24.902,0.0,0
1581621316.833,32.227,27.344,25.391,17.09,0.0,0
1581621316.837,21.484,26.855,26.855,7.812,0.0,0
1581621316.841,12.207,26.367,23.438,15.625,0.0,0
1581621316.845,19.531,37.109,17.09,17.578,0.0,0
1581621316.849,21.973000000000006,31.738000000000003,22.461,11.719,0.0,0
1581621316.851,16.113,29.297,33.203,19.531,0.0,0
1581621316.855,14.16,21.484,27.344,18.555,0.0,0
1581621316.859,14.16,19.043,22.461,15.137,0.0,0
1581621316.863,14.648,20.996,28.809,7.324,0.0,0
1581621316.867,10.254,18.555,31.738000000000003,5.859,0.0,0
1581621316.871,1.465,22.949,29.785,15.625,0.0,0
1581621316.875,5.371,25.391,25.879,13.184,0.0,0
1581621316.8779998,9.766,22.949,24.902,4.883,0.0,0
1581621316.8820002,10.742,12.207,26.367,9.766,0.0,0
1581621316.8860002,10.742,27.344,22.461,23.926,0.0,0
1581621316.89,9.277,40.039,21.973000000000006,17.09,0.0,0
1581621316.894,17.578,29.297,27.832,12.207,0.0,0
1581621316.897,23.926,22.461,34.18,9.277,0.0,0
1581621316.901,23.926,26.367,35.156,11.23,0.0,0
1581621316.905,23.926,26.855,34.18,30.273000000000003,0.0,0
1581621316.909,29.297,19.043,34.18,32.227,0.0,0
1581621316.913,32.227,24.902,35.645,21.484,0.0,0
1581621316.917,22.461,30.762,35.645,17.578,0.0,0
1581621316.921,12.207,29.785,30.273000000000003,21.973000000000006,0.0,0
1581621316.924,17.578,20.508000000000006,26.367,16.602,0.0,0
1581621316.928,33.691,23.926,26.367,13.672,0.0,0
1581621316.9320002,28.32,38.574,25.879,17.09,0.0,0
1581621316.936,15.625,32.715,24.414,21.973000000000006,0.0,0
1581621316.94,24.414,33.691,26.367,33.203,0.0,0
1581621316.941,35.156,37.109,28.32,30.762,0.0,0
1581621316.945,28.809,33.691,29.297,26.855,0.0,0
1581621316.949,20.996,23.438,30.762,35.156,0.0,0
1581621316.9529998,19.531,16.113,31.738000000000003,34.18,0.0,0
1581621316.957,20.996,27.832,28.32,18.555,0.0,0
1581621316.961,21.973000000000006,34.668,25.391,9.277,0.0,0
1581621316.965,11.23,17.578,28.32,16.113,0.0,0
1581621316.968,9.277,14.16,32.227,17.09,0.0,0
1581621316.972,28.32,35.645,31.738000000000003,22.949,0.0,0
1581621316.976,41.01600000000001,33.203,29.297,27.832,0.0,0
1581621316.98,29.297,23.926,32.715,18.066,0.0,0
1581621316.984,20.02,37.598,35.156,18.555,0.0,0
1581621316.986,25.879,39.062,36.621,28.809,0.0,0
1581621316.99,24.414,32.715,36.621,19.043,0.0,0
1581621316.994,15.625,32.715,34.668,7.324,0.0,0
1581621316.998,15.137,29.297,39.551,19.043,0.0,0
1581621317.002,24.902,34.18,41.992,28.32,0.0,0
1581621317.006,36.133,32.227,41.01600000000001,23.438,0.0,0
1581621317.01,27.832,20.508000000000006,38.574,19.043,0.0,0
1581621317.0129998,16.602,21.973000000000006,33.691,23.926,0.0,0
1581621317.0170002,16.113,36.133,30.762,34.668,0.0,0
1581621317.021,20.508000000000006,34.668,27.832,27.344,0.0,0
1581621317.025,24.902,32.715,32.715,10.254,0.0,0
1581621317.029,20.508000000000006,37.109,34.668,15.137,0.0,0
1581621317.031,15.625,40.039,25.879,29.785,0.0,0
1581621317.035,21.973000000000006,31.25,28.32,33.691,0.0,0
1581621317.039,26.367,24.414,30.762,28.809,0.0,0
1581621317.043,20.996,23.438,31.25,23.438,0.0,0
1581621317.0470002,15.625,28.809,36.621,25.391,0.0,0
1581621317.051,17.578,23.926,32.715,31.738000000000003,0.0,0
1581621317.055,26.855,13.184,27.344,22.949,0.0,0
1581621317.0579998,30.762,27.832,30.762,17.578,0.0,0
1581621317.062,24.902,27.832,32.227,27.832,0.0,0
1581621317.066,20.02,20.02,33.691,32.715,0.0,0
1581621317.07,28.809,22.461,30.762,23.438,0.0,0
1581621317.074,28.32,26.855,28.809,21.484,0.0,0
1581621317.091,16.113,25.391,28.809,28.32,0.0,0
1581621317.095,24.902,18.555,21.973000000000006,35.645,0.0,0
1581621317.099,32.227,31.25,22.949,21.973000000000006,0.0,0
1581621317.103,26.367,38.574,27.832,12.695,0.0,0
1581621317.107,14.648,35.156,21.484,19.531,0.0,0
1581621317.111,7.324,34.18,18.066,26.367,0.0,0
1581621317.115,9.277,27.344,28.32,19.043,0.0,0
1581621317.1179998,16.602,27.344,36.133,8.789,0.0,0
1581621317.1220002,16.602,30.762,32.715,22.461,0.0,0
1581621317.1260002,5.371,15.625,30.273000000000003,23.438,0.0,0
1581621317.13,6.836,18.066,29.785,15.137,0.0,0
1581621317.1339998,18.066,27.832,29.297,13.672,0.0,0
1581621317.1360002,12.207,20.508000000000006,26.367,7.812,0.0,0
1581621317.14,1.953,22.949,24.902,11.719,0.0,0
1581621317.144,8.301,27.344,24.902,21.484,0.0,0
1581621317.1479998,18.555,16.602,24.414,20.508000000000006,0.0,0
1581621317.1520002,17.578,11.719,29.785,10.254,0.0,0
1581621317.156,13.672,19.043,35.156,17.09,0.0,0
1581621317.16,15.625,19.531,33.691,36.621,0.0,0
1581621317.163,23.926,32.715,30.762,29.297,0.0,0
1581621317.167,23.438,32.715,33.691,21.484,0.0,0
1581621317.171,9.277,18.066,33.203,24.902,0.0,0
1581621317.175,5.859,28.32,32.227,23.926,0.0,0
1581621317.179,14.16,28.32,33.691,23.926,0.0,0
1581621317.181,21.484,26.367,35.645,20.508000000000006,0.0,0
1581621317.185,11.719,32.227,36.621,24.414,0.0,0
1581621317.189,4.883,35.156,31.738000000000003,25.879,0.0,0
1581621317.1929998,18.555,29.297,22.949,29.297,0.0,0
1581621317.197,31.738000000000003,19.043,21.484,28.32,0.0,0
1581621317.201,29.297,21.484,25.391,21.973000000000006,0.0,0
1581621317.205,25.391,28.32,25.879,28.32,0.0,0
1581621317.208,33.691,36.133,26.367,32.715,0.0,0
1581621317.212,40.039,23.438,28.809,31.25,0.0,0
1581621317.216,35.156,21.484,29.785,24.902,0.0,0
1581621317.22,24.902,36.621,28.32,31.25,0.0,0
1581621317.224,21.973000000000006,20.02,26.855,35.645,0.0,0
1581621317.226,27.832,13.672,25.879,28.809,0.0,0
1581621317.23,27.832,28.32,27.344,25.391,0.0,0
1581621317.234,18.066,38.086,32.227,19.531,0.0,0
1581621317.238,10.742,28.809,34.18,20.996,0.0,0
1581621317.242,10.254,19.531,27.832,18.555,0.0,0
1581621317.246,10.742,20.508000000000006,24.902,7.812,0.0,0
1581621317.25,10.254,21.973000000000006,23.926,14.16,0.0,0
1581621317.2529998,8.789,16.602,21.973000000000006,23.926,0.0,0
1581621317.2570002,16.113,20.508000000000006,29.297,22.461,0.0,0
1581621317.2610002,30.762,41.01600000000001,31.738000000000003,16.602,0.0,0
1581621317.265,33.203,31.25,26.367,12.695,0.0,0
1581621317.269,23.926,18.555,23.438,22.461,0.0,0
1581621317.271,21.973000000000006,30.273000000000003,25.391,32.715,0.0,0
1581621317.275,25.391,32.227,29.297,26.367,0.0,0
1581621317.279,22.949,20.02,32.715,13.184,0.0,0
1581621317.283,11.23,12.207,31.25,16.602,0.0,0
1581621317.2870002,12.207,18.555,32.715,26.367,0.0,0
1581621317.291,23.926,29.297,34.18,20.508000000000006,0.0,0
1581621317.295,23.926,24.902,27.832,15.137,0.0,0
1581621317.298,13.672,10.742,26.855,9.277,0.0,0
1581621317.302,7.324,22.461,24.414,4.395,0.0,0
1581621317.306,7.812,42.969,18.066,3.418,0.0,0
1581621317.31,12.207,39.062,22.949,1.465,0.0,0
1581621317.314,7.812,33.691,27.832,6.348,0.0,0
1581621317.316,0.977,34.668,24.414,7.812,0.0,0
1581621317.32,13.184,31.738000000000003,26.855,19.043,0.0,0
1581621317.324,20.508000000000006,20.996,31.738000000000003,21.973000000000006,0.0,0
1581621317.3279998,18.066,18.555,34.668,12.695,0.0,0
1581621317.332,27.344,27.832,35.156,33.203,0.0,0
1581621317.336,21.973000000000006,29.785,28.809,29.785,0.0,0
1581621317.34,10.254,19.043,27.832,9.277,0.0,0
1581621317.343,17.09,15.625,29.297,10.742,0.0,0
1581621317.347,10.742,37.598,33.203,20.996,0.0,0
1581621317.351,0.977,40.527,31.25,22.949,0.0,0
1581621317.355,4.395,28.809,23.438,14.648,0.0,0
1581621317.359,6.836,22.949,24.414,7.812,0.0,0
1581621317.361,2.441,29.297,27.832,10.742,0.0,0
1581621317.365,-4.883,32.227,23.926,15.137,0.0,0
1581621317.369,-3.906,25.879,19.043,16.113,0.0,0
1581621317.373,5.859,26.855,17.578,10.254,0.0,0
1581621317.377,8.301,20.508000000000006,20.996,5.371,0.0,0
1581621317.381,8.789,6.836,25.879,16.113,0.0,0
1581621317.385,15.625,13.672,25.391,25.879,0.0,0
1581621317.3879998,23.438,31.25,20.02,12.695,0.0,0
1581621317.3920002,30.762,44.922,14.648,6.348,0.0,0
1581621317.396,26.855,37.598,15.625,17.09,0.0,0
1581621317.4,23.926,25.879,19.531,20.508000000000006,0.0,0
1581621317.404,31.25,24.414,20.02,18.066,0.0,0
1581621317.421,29.297,34.668,20.996,15.625,0.0,0
1581621317.425,16.113,32.715,24.902,14.648,0.0,0
1581621317.429,11.719,30.273000000000003,26.855,24.414,0.0,0
1581621317.4329998,16.113,35.645,29.297,26.367,0.0,0
1581621317.437,21.484,28.32,33.691,15.625,0.0,0
1581621317.441,16.602,13.184,30.273000000000003,15.625,0.0,0
1581621317.445,7.324,8.789,22.461,13.184,0.0,0
1581621317.448,12.207,35.645,22.949,20.508000000000006,0.0,0
1581621317.452,19.531,48.828,23.926,24.902,0.0,0
1581621317.456,17.09,33.691,23.926,17.09,0.0,0
1581621317.46,16.113,30.762,24.902,26.855,0.0,0
1581621317.464,22.461,29.785,24.902,32.227,0.0,0
1581621317.481,27.344,17.578,31.25,27.832,0.0,0
1581621317.485,29.297,21.973000000000006,32.715,21.973000000000006,0.0,0
1581621317.4889998,20.508000000000006,30.273000000000003,25.391,20.996,0.0,0
1581621317.4929998,17.578,29.297,19.043,27.344,0.0,0
1581621317.4970002,26.367,33.691,22.949,23.438,0.0,2
1581621317.5010002,29.297,41.504,26.367,20.508000000000006,0.0,0
1581621317.505,18.555,36.621,20.996,21.484,0.0,0
1581621317.508,15.625,35.156,20.996,21.484,0.0,0
1581621317.512,22.461,36.133,26.367,22.949,0.0,0
1581621317.516,20.996,17.09,28.809,17.09,0.0,0
1581621317.52,20.508000000000006,16.113,24.414,11.23,0.0,0
1581621317.524,20.508000000000006,31.25,20.996,23.438,0.0,0
1581621317.5110002,14.16,27.832,26.367,23.926,0.0,0
1581621317.515,16.113,29.785,30.762,14.16,0.0,0
1581621317.519,26.367,29.785,31.25,15.137,0.0,0
1581621317.5229998,22.949,25.391,26.367,24.902,0.0,0
1581621317.5270002,22.949,23.926,29.297,35.645,0.0,0
1581621317.531,31.25,13.184,36.133,32.227,0.0,0
1581621317.535,35.645,20.508000000000006,29.785,26.367,0.0,0
1581621317.538,27.832,35.156,26.855,19.043,0.0,0
1581621317.542,17.578,24.902,30.762,29.297,0.0,0
1581621317.546,22.461,21.973000000000006,24.902,29.785,0.0,0
1581621317.55,27.344,35.156,22.949,14.648,0.0,0
1581621317.554,21.484,38.086,26.367,20.02,0.0,0
1581621317.556,15.137,23.926,26.855,21.973000000000006,0.0,0
1581621317.56,22.949,14.16,23.926,22.461,0.0,0
1581621317.564,29.297,26.367,22.949,21.484,0.0,0
1581621317.5679998,19.043,25.391,21.484,16.113,0.0,0
1581621317.572,8.301,25.879,19.531,16.113,0.0,0
1581621317.576,12.695,25.879,21.484,21.484,0.0,0
1581621317.58,22.461,22.949,20.996,20.02,0.0,0
1581621317.583,23.438,29.785,23.926,17.578,0.0,0
1581621317.587,21.484,15.625,27.344,23.926,0.0,0
1581621317.591,26.855,6.348,28.809,35.156,0.0,0
1581621317.595,34.668,29.297,31.25,31.25,0.0,0
1581621317.599,36.621,41.992,27.832,24.902,0.0,0
1581621317.601,36.133,34.668,22.949,30.762,0.0,0
1581621317.605,32.227,34.668,22.949,36.621,0.0,0
1581621317.609,32.227,42.969,28.809,39.062,0.0,0
1581621317.613,37.598,33.203,35.645,23.926,0.0,0
1581621317.617,31.25,23.438,29.297,18.066,0.0,0
1581621317.621,22.461,24.902,23.926,25.391,0.0,0
1581621317.625,25.879,23.926,24.902,28.809,0.0,0
1581621317.6279998,31.738000000000003,17.09,24.414,24.902,0.0,0
1581621317.6320002,25.879,16.602,23.438,13.184,0.0,0
1581621317.6360002,19.043,38.574,26.855,23.438,0.0,0
1581621317.64,23.438,41.01600000000001,28.32,33.203,0.0,0
1581621317.644,32.715,28.32,30.762,27.344,0.0,0
1581621317.646,32.715,32.715,29.297,25.879,0.0,0
1581621317.65,35.645,32.227,30.273000000000003,37.109,0.0,0
1581621317.654,38.086,28.809,31.25,45.41,0.0,0
1581621317.658,38.086,34.668,24.414,37.598,0.0,0
1581621317.6620002,43.457,36.133,24.414,35.156,0.0,0
1581621317.666,35.645,30.273000000000003,23.438,33.203,0.0,0
1581621317.67,28.32,22.949,24.902,37.598,0.0,0
1581621317.673,33.203,20.996,32.715,40.039,0.0,0
1581621317.677,40.039,28.32,33.203,30.273000000000003,0.0,0
1581621317.681,34.18,39.062,30.762,23.438,0.0,0
1581621317.685,23.438,31.738000000000003,28.809,30.273000000000003,0.0,0
1581621317.689,25.391,21.973000000000006,32.715,34.18,0.0,0
1581621317.691,28.809,25.879,31.25,25.879,0.0,0
1581621317.695,28.809,34.18,29.297,23.926,0.0,0
1581621317.699,25.879,29.785,31.738000000000003,31.25,0.0,0
1581621317.7029998,20.02,28.809,28.809,36.133,0.0,0
1581621317.707,26.367,30.273000000000003,26.855,30.273000000000003,0.0,0
1581621317.711,29.785,13.672,27.344,17.578,0.0,0
1581621317.715,23.926,15.625,31.25,20.508000000000006,0.0,0
1581621317.718,23.926,26.367,35.156,29.785,0.0,0
1581621317.722,32.227,30.762,34.18,33.203,0.0,0
1581621317.726,27.832,38.574,32.227,19.531,0.0,0
1581621317.73,17.578,37.109,25.391,12.207,0.0,0
1581621317.734,17.578,34.18,17.578,24.414,0.0,0
1581621317.736,20.02,37.598,23.438,27.344,0.0,0
1581621317.74,25.879,37.109,29.297,19.043,0.0,0
1581621317.744,24.902,21.973000000000006,31.25,11.23,0.0,0
1581621317.748,17.578,19.531,32.715,16.113,0.0,0
1581621317.752,16.602,35.645,28.809,17.578,0.0,0
1581621317.756,26.367,28.809,30.273000000000003,20.996,0.0,0
1581621317.76,21.973000000000006,14.648,33.203,21.484,0.0,0
1581621317.7629998,9.277,17.578,30.273000000000003,19.043,0.0,0
1581621317.7670002,15.625,30.762,26.367,30.762,0.0,0
1581621317.771,20.508000000000006,28.32,25.391,30.762,0.0,0
1581621317.775,24.902,26.367,32.227,17.09,0.0,0
1581621317.779,28.809,23.926,44.922,21.973000000000006,0.0,0
1581621317.796,22.949,23.438,38.574,32.227,0.0,0
1581621317.8,30.273000000000003,23.438,25.879,25.879,0.0,0
1581621317.804,41.992,19.531,30.273000000000003,18.066,0.0,0
1581621317.8079998,26.367,30.762,34.668,20.508000000000006,0.0,0
1581621317.812,18.066,33.203,37.109,31.25,0.0,0
1581621317.816,26.367,11.719,36.133,32.715,0.0,0
1581621317.82,26.855,9.277,31.25,19.043,0.0,0
1581621317.823,23.926,39.062,31.738000000000003,20.508000000000006,0.0,0
1581621317.827,18.066,38.086,37.109,35.156,0.0,0
1581621317.831,16.113,23.438,39.551,30.762,0.0,0
1581621317.835,25.391,15.625,38.086,20.508000000000006,0.0,0
1581621317.839,25.879,32.227,37.109,19.531,0.0,0
1581621317.841,17.09,47.852,43.457,30.273000000000003,0.0,0
1581621317.845,14.648,41.01600000000001,47.363,41.992,0.0,0
1581621317.849,23.438,35.645,38.574,32.715,0.0,0
1581621317.853,26.855,34.18,33.691,18.555,0.0,0
1581621317.857,16.602,35.156,36.133,20.996,0.0,0
1581621317.861,11.719,23.438,36.621,29.785,0.0,0
1581621317.865,16.602,19.531,33.691,31.738000000000003,0.0,0
1581621317.8679998,17.578,26.855,32.227,15.625,0.0,0
1581621317.8720002,10.742,23.926,31.25,12.695,0.0,0
1581621317.8760002,2.93,18.066,24.414,27.344,0.0,0
1581621317.88,8.789,33.691,24.902,26.855,0.0,0
1581621317.8839998,21.484,51.27,23.926,16.113,0.0,0
1581621317.8860002,23.438,42.969,24.414,19.531,0.0,0
1581621317.89,17.578,28.809,35.645,28.32,0.0,0
1581621317.894,16.113,27.344,32.715,31.738000000000003,0.0,0
1581621317.8979998,20.996,39.062,25.391,26.855,0.0,0
1581621317.9020002,18.555,40.527,22.461,18.066,0.0,0
1581621317.906,13.184,22.461,23.438,19.531,0.0,0
1581621317.91,14.16,22.949,24.414,24.902,0.0,0
1581621317.913,24.414,37.598,23.438,26.855,0.0,0
1581621317.917,30.762,17.578,23.438,21.484,0.0,0
1581621317.921,18.555,3.906,27.344,19.043,0.0,0
1581621317.925,14.648,24.902,27.832,25.879,0.0,0
1581621317.929,28.809,19.531,30.762,30.762,0.0,0
1581621317.931,24.902,21.484,31.25,24.902,0.0,0
1581621317.935,17.09,34.668,27.832,21.484,0.0,0
1581621317.939,18.555,38.574,29.297,32.715,0.0,0
1581621317.9429998,20.996,35.645,30.762,39.062,0.0,0
1581621317.947,35.645,23.926,32.715,29.297,0.0,0
1581621317.951,34.668,12.207,31.25,20.508000000000006,0.0,0
1581621317.955,17.578,19.043,27.344,28.809,0.0,0
1581621317.958,21.973000000000006,38.086,25.391,35.156,0.0,0
1581621317.962,27.832,25.391,23.926,17.09,0.0,0
1581621317.966,26.367,20.508000000000006,18.066,6.348,0.0,0
1581621317.97,21.484,39.062,13.672,19.531,0.0,0
1581621317.974,16.602,29.297,20.02,25.391,0.0,0
1581621317.976,16.602,27.344,20.02,15.625,0.0,0
1581621317.98,32.227,34.18,24.902,15.625,0.0,0
1581621317.984,39.062,33.691,35.645,24.902,0.0,0
1581621317.988,21.973000000000006,25.391,29.297,26.367,0.0,0
1581621317.992,20.996,20.508000000000006,22.949,23.926,0.0,0
1581621317.996,35.156,25.391,23.438,27.344,0.0,0
1581621318.0,31.25,30.273000000000003,27.832,29.297,0.0,0
1581621318.0029998,20.996,24.414,32.227,35.156,0.0,0
1581621318.0070002,29.785,18.066,29.785,39.551,0.0,0
1581621318.0110002,40.527,35.645,26.367,26.855,0.0,0
1581621318.015,32.227,39.551,24.414,20.02,0.0,0
1581621318.019,21.484,27.344,24.902,21.973000000000006,0.0,0
1581621318.021,22.949,23.438,29.297,26.367,0.0,0
1581621318.025,27.344,33.203,30.273000000000003,27.832,0.0,0
1581621318.029,25.879,37.109,25.879,18.066,0.0,0
1581621318.033,22.949,21.484,21.973000000000006,20.996,0.0,0
1581621318.0370002,20.02,12.207,16.602,27.344,0.0,0
1581621318.041,27.344,19.043,19.531,26.367,0.0,0
1581621318.045,28.32,21.973000000000006,21.484,20.508000000000006,0.0,0
1581621318.048,22.461,4.883,26.367,17.578,0.0,0
1581621318.052,22.461,1.465,29.785,25.879,0.0,0
1581621318.056,26.367,20.996,24.902,26.855,0.0,0
1581621318.06,34.18,20.996,27.832,20.996,0.0,0
1581621318.064,30.273000000000003,20.996,28.809,20.996,0.0,0
1581621318.066,24.902,30.762,29.297,28.32,0.0,0
1581621318.07,28.32,30.273000000000003,30.762,30.273000000000003,0.0,0
1581621318.074,35.156,24.414,22.949,12.207,0.0,0
1581621318.0779998,35.645,26.855,20.02,12.207,0.0,0
1581621318.082,28.809,25.879,24.902,19.531,0.0,0
1581621318.086,29.297,15.137,30.762,21.484,0.0,0
1581621318.09,30.273000000000003,8.301,32.227,21.973000000000006,0.0,0
1581621318.093,26.855,6.836,25.879,7.812,0.0,0
1581621318.097,20.508000000000006,18.066,20.508000000000006,7.324,0.0,0
1581621318.101,18.555,28.809,23.926,20.996,0.0,0
1581621318.105,28.32,23.926,29.297,23.926,0.0,0
1581621318.109,30.762,17.578,24.414,13.672,0.0,0
1581621318.111,22.949,19.531,18.555,7.812,0.0,0
1581621318.115,17.578,16.602,25.391,20.996,0.0,0
1581621318.119,25.879,19.043,23.438,33.203,0.0,0
1581621318.123,32.227,26.367,17.578,28.32,0.0,0
1581621318.127,28.32,32.227,23.926,25.391,0.0,0
1581621318.131,25.391,19.043,28.32,29.785,0.0,0
1581621318.135,26.367,2.93,20.996,35.645,0.0,0
1581621318.1379998,33.203,12.207,26.367,36.621,0.0,0
1581621318.1420002,32.227,22.949,36.621,31.738000000000003,0.0,0
1581621318.146,14.648,28.32,29.297,29.785,0.0,0
1581621318.15,7.324,22.949,26.855,35.645,0.0,0
1581621318.154,17.09,18.066,23.926,27.832,0.0,0
1581621318.156,20.508000000000006,28.809,21.973000000000006,17.578,0.0,0
1581621318.16,8.301,23.926,26.367,19.531,0.0,0
1581621318.164,6.348,17.578,19.531,21.484,0.0,0
1581621318.168,18.066,22.461,18.066,21.484,0.0,0
1581621318.1720002,26.367,26.855,24.902,12.207,0.0,0
1581621318.176,20.996,16.602,24.414,13.184,0.0,0
1581621318.18,18.066,11.719,20.508000000000006,27.832,0.0,0
1581621318.1829998,26.367,27.344,20.996,38.086,0.0,0
1581621318.187,36.621,26.367,27.344,31.738000000000003,0.0,0
1581621318.191,35.156,23.438,26.367,24.414,0.0,0
1581621318.195,20.996,19.531,22.949,26.855,0.0,0
1581621318.199,18.555,19.043,27.344,33.691,0.0,0
1581621318.216,26.855,30.273000000000003,26.367,25.879,0.0,0
1581621318.22,26.367,22.949,20.508000000000006,16.113,0.0,0
1581621318.224,23.438,14.648,21.484,25.879,0.0,0
1581621318.228,17.09,29.785,26.367,36.621,0.0,0
1581621318.232,13.184,40.039,25.391,28.809,0.0,0
1581621318.236,24.414,28.32,27.344,27.344,0.0,0
1581621318.24,26.367,20.996,23.438,24.414,0.0,0
1581621318.2429998,22.461,28.809,17.578,23.926,0.0,0
1581621318.2470002,21.973000000000006,27.832,22.949,31.25,0.0,0
1581621318.2510002,26.855,7.812,17.09,23.438,0.0,0
1581621318.255,30.273000000000003,8.789,16.113,20.508000000000006,0.0,0
1581621318.2589998,21.484,32.227,31.25,28.32,0.0,0
1581621318.2610002,16.113,28.809,32.715,27.344,0.0,0
1581621318.265,19.043,16.113,22.949,22.949,0.0,0
1581621318.269,27.832,16.113,20.508000000000006,26.855,0.0,0
1581621318.2729998,31.738000000000003,25.879,24.902,39.062,0.0,0
1581621318.2770002,29.785,23.926,26.855,46.387,0.0,0
1581621318.281,36.621,13.672,29.297,41.992,0.0,0
1581621318.285,37.109,18.066,28.809,28.32,0.0,0
1581621318.288,24.902,31.738000000000003,28.32,26.855,0.0,0
1581621318.292,24.414,29.785,30.762,40.039,0.0,0
1581621318.296,29.297,13.672,24.414,31.738000000000003,0.0,0
1581621318.3,31.738000000000003,24.902,20.508000000000006,16.602,0.0,0
1581621318.304,28.32,36.133,17.578,21.484,0.0,0
1581621318.306,24.902,26.855,18.555,24.902,0.0,0
1581621318.31,29.785,30.273000000000003,23.438,32.715,0.0,0
1581621318.314,39.062,44.434,30.273000000000003,32.715,0.0,0
1581621318.3179998,36.621,36.133,34.668,32.227,0.0,0
1581621318.322,27.344,25.391,35.156,42.48,0.0,0
1581621318.326,29.297,19.043,35.156,36.133,0.0,0
1581621318.33,38.574,20.02,31.738000000000003,26.367,0.0,0
1581621318.333,35.645,27.344,27.344,23.438,0.0,0
1581621318.337,21.973000000000006,20.996,25.391,23.926,0.0,0
1581621318.341,24.414,24.902,34.18,30.762,0.0,0
1581621318.345,35.156,41.504,37.109,29.297,0.0,0
1581621318.349,32.227,33.691,32.227,18.066,0.0,0
1581621318.351,24.414,29.785,28.809,19.531,0.0,0
1581621318.355,20.996,32.227,29.297,32.227,0.0,0
1581621318.359,19.531,30.762,33.203,32.715,0.0,0
1581621318.363,21.484,37.598,32.227,20.996,0.0,0
1581621318.367,16.602,34.668,32.227,16.602,0.0,0
1581621318.371,12.207,34.18,32.227,24.902,0.0,0
1581621318.375,16.602,34.668,26.855,23.926,0.0,0
1581621318.3779998,17.578,23.438,26.855,10.742,0.0,0
1581621318.3820002,17.09,20.508000000000006,25.391,10.254,0.0,0
1581621318.3860002,15.625,44.434,25.391,21.484,0.0,0
1581621318.39,21.973000000000006,50.293,28.32,28.809,0.0,0
1581621318.394,32.227,31.25,25.879,24.414,0.0,0
1581621318.396,35.645,29.297,25.879,17.578,0.0,0
1581621318.4,36.621,37.598,31.738000000000003,33.203,0.0,0
1581621318.404,37.598,33.691,36.133,39.551,0.0,0
1581621318.408,31.25,36.133,32.715,23.438,0.0,0
1581621318.4120002,31.25,43.945,33.691,17.09,0.0,0
1581621318.416,28.809,32.715,40.527,15.625,0.0,0
1581621318.42,21.973000000000006,33.203,32.715,20.996,0.0,0
1581621318.423,27.832,25.391,31.738000000000003,28.809,0.0,0
1581621318.427,35.156,20.996,33.691,22.461,0.0,0
1581621318.431,32.715,38.086,28.809,12.207,0.0,0
1581621318.435,26.367,32.227,29.785,22.461,0.0,0
1581621318.439,26.367,24.902,30.273000000000003,28.32,0.0,0
1581621318.441,31.25,30.273000000000003,30.762,18.066,0.0,0
1581621318.445,27.344,29.785,30.273000000000003,12.207,0.0,0
1581621318.449,15.625,26.367,31.25,18.555,0.0,0
1581621318.4529998,15.625,29.297,34.18,24.414,0.0,0
1581621318.457,24.414,33.691,36.621,19.531,0.0,0
1581621318.461,25.391,28.32,38.574,20.02,0.0,0
1581621318.465,13.672,10.254,29.785,18.555,0.0,0
1581621318.468,8.301,7.324,21.973000000000006,15.137,0.0,0
1581621318.472,16.602,29.297,26.367,21.484,0.0,0
1581621318.476,17.578,34.668,25.391,20.02,0.0,0
1581621318.48,9.277,27.832,26.367,16.113,0.0,0
1581621318.484,0.977,31.738000000000003,33.203,22.949,0.0,0
1581621318.486,8.789,35.156,32.715,27.344,0.0,0
1581621318.49,20.508000000000006,30.273000000000003,31.25,13.672,0.0,0
1581621318.494,18.066,30.762,32.715,7.812,0.0,0
1581621318.498,12.207,35.156,30.762,24.414,0.0,0
1581621318.502,15.137,29.785,31.738000000000003,28.809,0.0,0
1581621318.506,21.973000000000006,19.043,31.25,24.902,0.0,0
1581621318.51,28.32,11.23,30.273000000000003,21.973000000000006,0.0,0
1581621318.5129998,21.973000000000006,24.414,31.738000000000003,26.855,0.0,0
1581621318.5170002,20.508000000000006,42.969,27.344,36.133,0.0,0
1581621318.521,34.18,40.527,25.879,31.738000000000003,0.0,0
1581621318.525,31.738000000000003,29.785,24.902,22.949,0.0,0
1581621318.529,20.02,29.297,31.25,29.297,0.0,0
1581621318.53,24.414,32.715,34.668,40.527,0.0,0
1581621318.534,31.25,26.367,21.973000000000006,33.203,0.0,0
1581621318.538,36.133,34.668,15.137,25.391,0.0,0
1581621318.542,25.879,41.504,27.832,22.949,0.0,0
1581621318.546,8.789,39.062,41.01600000000001,26.855,0.0,0
1581621318.55,8.789,25.391,35.645,30.273000000000003,0.0,0
1581621318.554,14.16,18.066,28.809,13.672,0.0,0
1581621318.5570002,16.113,32.227,29.785,10.742,0.0,0
1581621318.561,9.766,37.109,34.668,26.367,0.0,0
1581621318.565,10.742,25.879,30.762,24.902,0.0,0
1581621318.569,19.043,25.879,26.855,23.438,0.0,0
1581621318.573,22.461,42.48,31.25,20.02,0.0,0
1581621318.59,19.043,36.133,31.25,18.555,0.0,0
1581621318.594,19.531,26.367,30.762,26.855,0.0,0
1581621318.5979998,24.902,32.715,30.762,20.02,0.0,0
1581621318.6020002,27.832,40.527,32.227,10.742,0.0,0
1581621318.606,20.996,35.645,29.297,19.043,0.0,0
1581621318.61,12.207,20.508000000000006,25.391,29.297,0.0,0
1581621318.6139998,15.137,25.879,24.902,24.414,0.0,0
1581621318.617,18.555,35.645,20.996,14.16,0.0,0
1581621318.621,15.137,27.832,23.438,14.648,0.0,0
1581621318.625,13.672,19.043,24.902,21.973000000000006,0.0,0
1581621318.629,15.625,18.555,25.879,27.344,0.0,0
1581621318.633,28.32,34.668,33.691,19.043,0.0,0
1581621318.6360002,26.367,37.598,36.133,14.648,0.0,0
1581621318.64,12.207,29.297,37.109,21.484,0.0,0
1581621318.644,18.555,34.18,32.715,21.484,0.0,0
1581621318.6479998,25.879,38.086,33.203,17.09,0.0,0
1581621318.6520002,31.25,34.18,40.039,22.461,0.0,0
1581621318.656,28.32,24.902,38.086,26.855,0.0,0
1581621318.66,22.461,25.391,31.25,30.762,0.0,0
1581621318.663,30.762,41.504,22.949,25.879,0.0,0
1581621318.667,31.738000000000003,33.203,23.438,12.207,0.0,0
1581621318.671,24.902,21.484,31.738000000000003,20.02,0.0,1
1581621318.675,25.391,39.062,30.762,31.738000000000003,0.0,0
1581621318.679,25.879,45.898,26.367,28.32,0.0,0
1581621318.681,25.391,34.668,28.809,18.555,0.0,0
1581621318.685,20.508000000000006,28.809,35.645,15.625,0.0,0
1581621318.689,13.672,29.297,31.25,24.902,0.0,0
1581621318.6929998,13.672,26.367,26.855,27.832,0.0,0
1581621318.697,16.113,32.227,27.832,21.484,0.0,0
1581621318.701,9.766,27.344,28.809,12.695,0.0,0
1581621318.705,7.812,29.785,34.18,22.461,0.0,0
1581621318.708,9.766,38.574,34.18,35.156,0.0,0
1581621318.712,17.578,24.414,36.133,30.762,0.0,0
1581621318.716,23.438,30.273000000000003,33.691,24.902,0.0,0
1581621318.72,19.043,37.109,30.762,23.926,0.0,0
1581621318.724,11.23,24.902,31.25,29.297,0.0,0
1581621318.726,15.137,32.227,30.762,30.273000000000003,0.0,0
1581621318.73,21.973000000000006,31.738000000000003,33.203,19.043,0.0,0
1581621318.734,14.16,35.645,24.902,13.184,0.0,0
1581621318.738,7.324,35.156,23.438,17.578,0.0,0
1581621318.742,17.578,27.344,34.18,20.02,0.0,0
1581621318.746,23.438,25.879,35.645,13.184,0.0,0
1581621318.75,23.926,30.762,39.551,18.555,0.0,0
1581621318.7529998,23.926,29.785,40.039,32.715,0.0,0
1581621318.7570002,28.809,20.508000000000006,31.25,26.855,0.0,0
1581621318.7610002,38.086,36.133,30.273000000000003,22.461,0.0,0
1581621318.765,37.598,40.527,34.18,25.391,0.0,0
1581621318.769,30.762,36.621,33.203,31.25,0.0,0
1581621318.771,28.32,35.156,31.25,33.691,0.0,0
1581621318.775,31.738000000000003,36.133,28.809,24.902,0.0,0
1581621318.779,36.621,24.414,30.273000000000003,21.484,0.0,0
1581621318.783,28.32,14.16,32.227,23.438,0.0,0
1581621318.7870002,29.297,34.18,27.344,33.203,0.0,0
1581621318.791,37.598,34.668,25.879,41.01600000000001,0.0,0
1581621318.795,39.062,36.133,26.855,25.391,0.0,0
1581621318.798,35.156,31.25,28.809,20.02,0.0,0
1581621318.802,30.273000000000003,28.809,29.785,31.738000000000003,0.0,0
1581621318.806,40.039,43.945,26.367,37.598,0.0,0
1581621318.81,44.922,43.457,26.367,35.156,0.0,0
1581621318.814,36.133,36.621,28.809,26.367,0.0,0
1581621318.815,22.949,32.715,25.391,26.367,0.0,0
1581621318.819,21.484,28.32,24.414,29.297,0.0,0
1581621318.823,32.227,21.484,20.996,24.414,0.0,0
1581621318.827,30.762,21.973000000000006,21.973000000000006,20.508000000000006,0.0,0
1581621318.831,16.113,23.438,29.297,20.02,0.0,0
1581621318.835,16.113,18.555,29.785,30.762,0.0,0
1581621318.839,32.715,21.973000000000006,27.344,35.156,0.0,0
1581621318.842,32.227,23.926,26.855,20.508000000000006,0.0,0
1581621318.846,26.367,30.273000000000003,24.414,22.461,0.0,0
1581621318.85,27.344,38.574,22.949,38.574,0.0,0
1581621318.854,29.297,32.227,25.391,37.598,0.0,0
1581621318.8579998,37.109,33.691,34.18,31.738000000000003,0.0,0
1581621318.861,29.297,35.645,37.598,26.855,0.0,0
1581621318.865,29.785,35.645,32.715,37.109,0.0,0
1581621318.869,36.621,37.109,36.133,45.898,0.0,0
1581621318.873,35.645,36.133,41.504,39.551,0.0,0
1581621318.877,33.203,25.879,40.039,32.715,0.0,0
1581621318.881,22.949,18.066,37.598,35.645,0.0,0
1581621318.885,18.066,15.625,34.668,36.621,0.0,0
1581621318.8879998,28.809,20.02,33.691,33.203,0.0,0
1581621318.8920002,40.039,32.715,33.691,34.18,0.0,0
1581621318.896,31.25,32.715,30.273000000000003,30.273000000000003,0.0,0
1581621318.9,30.273000000000003,28.809,29.785,36.621,0.0,0
1581621318.904,41.504,32.715,33.203,41.992,0.0,0
1581621318.906,39.062,34.668,34.18,25.391,0.0,0
1581621318.91,27.832,19.043,29.785,20.508000000000006,0.0,0
1581621318.914,22.461,20.996,23.438,33.203,0.0,0
1581621318.918,35.156,30.762,27.832,32.227,0.0,0
1581621318.9220002,41.992,31.25,35.645,26.367,0.0,0
1581621318.926,24.902,19.043,33.691,18.555,0.0,0
1581621318.93,14.648,7.324,28.32,19.043,0.0,0
1581621318.9329998,21.973000000000006,18.066,28.809,22.949,0.0,0
1581621318.937,29.785,22.461,33.203,18.555,0.0,0
1581621318.941,24.414,27.832,33.691,15.625,0.0,0
1581621318.945,21.484,36.133,34.18,20.996,0.0,0
1581621318.949,20.508000000000006,32.715,37.109,23.438,0.0,0
1581621318.966,26.367,33.203,41.01600000000001,20.996,0.0,0
1581621318.97,29.297,20.996,37.598,18.555,0.0,0
1581621318.974,23.438,22.461,32.715,20.508000000000006,0.0,0
1581621318.978,17.09,32.715,30.273000000000003,22.949,0.0,0
1581621318.982,22.949,23.438,25.879,20.02,0.0,0
1581621318.986,33.691,20.996,22.949,25.391,0.0,0
1581621318.99,23.438,25.879,10.254,14.16,0.0,0
1581621318.9929998,18.066,35.645,14.648,4.395,0.0,0
1581621318.9970002,26.367,36.621,33.203,15.625,0.0,0
1581621319.0010002,28.809,14.16,31.25,12.695,0.0,0
1581621319.005,25.391,18.066,26.367,8.301,0.0,0
1581621319.0089998,13.672,38.574,20.508000000000006,14.648,0.0,0
1581621319.0110002,9.766,33.203,15.137,22.461,0.0,0
1581621319.015,22.949,32.715,18.066,13.672,0.0,0
1581621319.019,23.926,35.156,21.973000000000006,15.137,0.0,0
1581621319.0229998,12.207,31.738000000000003,27.344,22.461,0.0,0
1581621319.0270002,14.16,27.344,26.855,17.09,0.0,0
1581621319.031,21.973000000000006,23.926,27.344,21.484,0.0,0
1581621319.035,24.902,25.391,31.738000000000003,16.113,0.0,0
1581621319.038,23.438,33.203,33.203,20.996,0.0,0
1581621319.042,15.137,33.691,29.297,36.133,0.0,0
1581621319.046,10.254,26.367,20.508000000000006,20.996,0.0,0
1581621319.05,17.09,41.504,21.973000000000006,10.742,0.0,0
1581621319.054,16.113,45.898,24.414,13.672,0.0,0
1581621319.056,8.789,34.668,26.855,22.461,0.0,0
1581621319.06,12.207,41.504,31.738000000000003,25.879,0.0,0
1581621319.064,20.02,42.969,31.738000000000003,14.648,0.0,0
1581621319.0679998,18.066,30.273000000000003,31.25,11.23,0.0,0
1581621319.072,13.184,29.785,32.715,11.719,0.0,0
1581621319.076,16.602,28.32,36.133,20.02,0.0,0
1581621319.08,20.996,23.926,32.227,17.09,0.0,0
1581621319.083,20.02,38.086,27.344,6.348,0.0,0
1581621319.087,9.766,36.133,25.391,15.625,0.0,0
1581621319.091,14.648,26.367,24.414,28.809,0.0,0
1581621319.095,31.25,33.691,27.832,22.949,0.0,0
1581621319.099,27.832,36.621,22.949,8.301,0.0,0
1581621319.101,22.461,30.273000000000003,20.996,23.438,0.0,0
1581621319.105,20.508000000000006,26.367,30.273000000000003,33.203,0.0,0
1581621319.109,20.508000000000006,26.855,30.273000000000003,24.414,0.0,0
1581621319.113,27.832,18.066,32.715,19.531,0.0,0
1581621319.117,21.973000000000006,20.996,39.062,18.555,0.0,0
1581621319.121,12.207,29.785,30.762,25.391,0.0,0
1581621319.125,19.043,29.785,29.785,34.18,0.0,0
1581621319.1279998,23.438,21.973000000000006,35.156,22.949,0.0,0
1581621319.1320002,20.02,16.113,33.203,18.066,0.0,0
1581621319.1360002,20.508000000000006,32.227,33.691,33.203,0.0,0
1581621319.14,23.926,43.457,30.762,29.297,0.0,0
1581621319.144,34.18,37.109,30.762,23.926,0.0,0
1581621319.146,36.621,21.484,31.25,23.926,0.0,0
1581621319.15,24.902,23.926,32.227,25.391,0.0,0
1581621319.154,17.578,33.203,31.738000000000003,26.855,0.0,0
1581621319.158,22.461,26.855,29.297,25.879,0.0,0
1581621319.1620002,35.156,27.344,27.344,15.625,0.0,0
1581621319.166,23.926,23.926,26.855,15.137,0.0,0
1581621319.17,16.113,28.809,31.25,27.344,0.0,0
1581621319.173,26.855,24.902,29.297,26.855,0.0,0
1581621319.177,38.086,19.043,18.066,23.926,0.0,0
1581621319.181,39.551,41.01600000000001,12.207,22.461,0.0,0
1581621319.185,24.414,41.992,17.578,20.508000000000006,0.0,0
1581621319.189,24.902,28.32,22.949,29.785,0.0,0
1581621319.191,27.832,18.555,27.832,23.438,0.0,0
1581621319.195,16.602,28.32,24.414,10.254,0.0,0
1581621319.199,8.301,29.785,23.926,13.184,0.0,0
1581621319.2029998,15.137,21.484,29.785,19.043,0.0,0
1581621319.207,20.508000000000006,30.762,30.762,22.461,0.0,0
1581621319.211,20.02,25.879,24.902,14.16,0.0,0
1581621319.215,18.066,7.812,22.461,12.207,0.0,0
1581621319.218,24.414,17.09,28.809,26.855,0.0,0
1581621319.222,32.715,41.992,33.203,29.297,0.0,0
1581621319.226,32.715,41.01600000000001,32.715,23.438,0.0,0
1581621319.23,31.738000000000003,37.598,36.133,27.344,0.0,0
1581621319.234,26.367,43.945,32.715,39.062,0.0,0
1581621319.236,21.484,41.504,25.879,29.785,0.0,0
1581621319.24,26.367,31.25,25.879,22.949,0.0,0
1581621319.244,27.344,27.344,29.297,32.227,0.0,0
1581621319.248,21.484,28.809,31.738000000000003,31.738000000000003,0.0,0
1581621319.252,25.879,38.574,35.645,35.645,0.0,0
1581621319.256,30.762,38.086,35.645,32.227,0.0,0
1581621319.26,22.461,17.09,31.738000000000003,12.207,0.0,0
1581621319.2629998,25.391,25.879,32.715,16.113,0.0,0
1581621319.2670002,32.227,46.387,31.738000000000003,40.527,0.0,0
1581621319.271,41.992,34.18,30.762,27.832,0.0,0
1581621319.275,42.969,29.297,34.18,6.348,0.0,0
1581621319.279,21.973000000000006,30.762,28.32,12.207,0.0,0
1581621319.281,17.578,41.504,25.879,20.508000000000006,0.0,0
1581621319.285,22.949,45.898,30.273000000000003,15.625,0.0,0
1581621319.289,23.926,39.062,26.855,6.836,0.0,0
1581621319.293,15.625,41.01600000000001,26.855,13.184,0.0,0
1581621319.2970002,11.23,41.504,31.25,19.531,0.0,0
1581621319.301,20.996,35.156,34.668,25.391,0.0,0
1581621319.305,21.973000000000006,25.879,34.18,18.555,0.0,0
1581621319.3079998,30.273000000000003,25.879,34.18,18.066,0.0,0
1581621319.312,25.879,27.832,32.227,24.414,0.0,0
1581621319.316,11.719,39.062,26.367,18.066,0.0,0
1581621319.32,20.996,47.363,25.879,16.113,0.0,0
1581621319.324,26.367,44.922,33.203,11.23,0.0,0
1581621319.341,16.602,40.527,27.832,17.578,0.0,0
1581621319.345,9.766,34.668,19.531,20.996,0.0,0
1581621319.349,16.602,34.18,22.949,13.184,0.0,0
1581621319.353,22.461,32.715,25.879,15.625,0.0,0
1581621319.357,19.531,20.996,27.344,19.043,0.0,0
1581621319.361,15.625,15.625,26.367,20.996,0.0,0
1581621319.365,15.625,24.902,24.902,20.02,0.0,0
1581621319.3679998,16.602,40.039,23.926,5.859,0.0,0
1581621319.3720002,8.789,41.504,25.879,2.93,0.0,0
1581621319.3760002,0.488,16.113,35.645,15.137,0.0,0
1581621319.38,8.789,17.578,36.621,23.926,0.0,0
1581621319.3839998,14.16,43.457,31.738000000000003,14.16,0.0,0
1581621319.3860002,4.395,35.645,28.809,6.348,0.0,0
1581621319.39,-0.977,24.902,27.344,11.23,0.0,0
1581621319.394,0.488,22.949,24.414,9.277,0.0,0
1581621319.3979998,5.371,25.391,24.414,6.348,0.0,0
1581621319.4020002,7.812,19.043,24.902,1.465,0.0,0
1581621319.406,6.836,13.672,24.414,9.766,0.0,0
1581621319.41,4.395,15.137,24.414,20.508000000000006,0.0,0
1581621319.413,9.766,26.367,22.461,14.648,0.0,0
1581621319.417,17.09,30.273000000000003,26.855,7.324,0.0,0
1581621319.421,17.578,22.949,32.715,11.719,0.0,0
1581621319.425,12.695,35.156,27.344,16.602,0.0,0
1581621319.429,16.602,36.621,25.391,16.113,0.0,0
1581621319.431,26.367,30.762,29.297,7.812,0.0,0
1581621319.435,26.367,26.367,25.391,10.254,0.0,0
1581621319.439,17.578,24.902,23.926,16.602,0.0,0
1581621319.4429998,19.531,25.391,23.926,20.02,0.0,0
1581621319.447,29.297,26.855,21.973000000000006,21.484,0.0,0
1581621319.451,26.855,31.738000000000003,26.367,23.926,0.0,0
1581621319.455,20.508000000000006,33.203,33.691,34.18,0.0,0
1581621319.458,24.414,31.738000000000003,36.133,31.738000000000003,0.0,0
1581621319.462,26.367,19.531,33.203,21.484,0.0,0
1581621319.466,25.391,23.926,29.785,15.625,0.0,0
1581621319.47,19.043,39.062,27.344,14.16,0.0,0
1581621319.474,15.625,41.01600000000001,29.785,24.414,0.0,0
1581621319.4770002,25.879,42.48,31.738000000000003,27.344,0.0,0
1581621319.481,27.344,34.668,30.762,16.602,0.0,0
1581621319.485,16.113,30.273000000000003,28.809,17.578,0.0,0
1581621319.4889998,8.789,29.785,24.902,28.32,0.0,0
1581621319.4929998,12.207,26.855,21.484,26.367,0.0,0
1581621319.4970002,19.043,21.973000000000006,24.414,14.16,0.0,0
1581621319.5010002,20.02,22.949,28.32,18.555,0.0,0
1581621319.504,19.043,15.625,23.438,33.203,0.0,0
1581621319.508,13.672,13.672,20.508000000000006,26.855,0.0,0
1581621319.512,19.043,37.109,24.902,14.16,0.0,0
1581621319.516,21.973000000000006,41.504,29.785,10.742,0.0,0
1581621319.52,17.578,30.762,27.832,15.625,0.0,0
1581621319.522,20.996,21.973000000000006,21.973000000000006,19.043,0.0,0
1581621319.526,33.691,29.785,26.855,23.438,0.0,0
1581621319.53,35.156,35.156,32.715,19.531,0.0,0
1581621319.534,22.461,25.391,32.715,16.113,0.0,0
1581621319.538,19.531,28.32,27.344,26.855,0.0,0
1581621319.542,22.461,28.32,22.461,27.832,0.0,0
1581621319.546,22.461,30.762,20.996,17.09,0.0,0
1581621319.549,12.695,22.461,20.508000000000006,15.625,0.0,0
1581621319.553,5.371,14.16,22.949,20.508000000000006,0.0,0
1581621319.5570002,11.23,33.691,27.832,17.578,0.0,0
1581621319.561,20.508000000000006,35.645,27.344,19.043,0.0,0
1581621319.565,17.578,28.32,27.344,20.996,0.0,0
1581621319.566,7.324,34.18,30.762,24.902,0.0,0
1581621319.57,22.949,33.203,30.273000000000003,44.922,0.0,0
1581621319.574,42.48,28.809,33.203,47.852,0.0,0
1581621319.5779998,23.926,25.391,34.18,20.508000000000006,0.0,0
1581621319.582,8.789,28.809,30.273000000000003,14.16,0.0,0
1581621319.586,10.254,36.621,30.762,25.879,0.0,0
1581621319.59,9.766,30.273000000000003,29.785,21.484,0.0,0
1581621319.593,8.789,20.996,27.832,1.953,0.0,0
1581621319.597,11.23,30.273000000000003,34.18,-3.906,0.0,0
1581621319.601,13.184,32.715,34.668,7.812,0.0,0
1581621319.605,24.414,27.832,27.344,12.207,0.0,0
1581621319.609,34.18,24.414,25.391,5.859,0.0,0
1581621319.611,22.461,21.484,22.461,3.418,0.0,0
1581621319.615,17.578,34.668,19.531,8.789,0.0,0
1581621319.619,24.902,41.992,24.414,20.02,0.0,0
1581621319.623,32.227,40.527,29.785,16.602,0.0,0
1581621319.627,29.297,30.273000000000003,25.879,11.23,0.0,0
1581621319.631,21.484,20.996,23.926,23.438,0.0,0
1581621319.635,24.902,14.648,28.32,35.156,0.0,0
1581621319.6379998,36.133,16.113,26.855,28.32,0.0,0
1581621319.6420002,30.762,26.367,18.066,10.254,0.0,0
1581621319.646,14.648,19.043,22.949,11.719,0.0,0
1581621319.65,17.578,26.367,33.691,28.32,0.0,0
1581621319.654,19.043,35.156,30.273000000000003,25.879,0.0,0
1581621319.671,15.137,26.367,27.344,5.859,0.0,0
1581621319.675,11.23,21.484,26.367,9.766,0.0,0
1581621319.679,9.766,12.695,27.832,26.367,0.0,0
1581621319.6829998,16.113,17.09,27.832,27.344,0.0,0
1581621319.687,22.949,21.484,27.344,12.695,0.0,0
1581621319.691,15.137,3.418,23.438,3.418,0.0,0
1581621319.695,0.977,0.488,18.066,8.301,0.0,0
1581621319.698,5.859,14.16,20.996,16.602,0.0,0
1581621319.702,15.625,24.414,28.809,16.113,0.0,0
1581621319.706,14.648,20.02,25.391,12.207,0.0,0
1581621319.71,11.719,19.043,14.648,23.438,0.0,0
1581621319.714,16.602,31.738000000000003,23.926,27.832,0.0,0
1581621319.716,23.438,26.855,33.691,27.832,0.0,0
1581621319.72,20.996,15.137,29.297,27.832,0.0,0
1581621319.724,19.531,24.414,24.414,22.949,0.0,0
1581621319.728,24.902,37.598,25.391,30.273000000000003,0.0,0
1581621319.732,29.785,31.738000000000003,28.32,38.086,0.0,0
1581621319.736,34.668,20.508000000000006,29.297,29.785,0.0,0
1581621319.74,32.227,19.043,25.879,32.227,0.0,0
1581621319.7429998,21.973000000000006,28.809,26.855,41.992,0.0,0
1581621319.7470002,26.367,38.086,23.926,44.922,0.0,0
1581621319.7510002,38.086,19.043,20.996,37.109,0.0,0
1581621319.755,35.645,18.066,29.297,32.227,0.0,0
1581621319.7589998,33.203,40.039,32.227,37.109,0.0,0
1581621319.76,35.645,37.598,30.273000000000003,37.109,0.0,0
1581621319.764,36.621,25.391,26.855,28.32,0.0,0
1581621319.768,37.109,27.832,30.762,24.902,0.0,0
1581621319.772,26.367,38.086,37.598,32.227,0.0,0
1581621319.776,19.531,37.598,29.297,35.156,0.0,0
1581621319.78,24.902,32.227,22.949,23.438,0.0,0
1581621319.784,25.879,26.855,26.367,12.207,0.0,0
1581621319.7870002,26.855,20.996,30.762,16.602,0.0,0
1581621319.791,28.809,21.484,32.227,25.391,0.0,0
1581621319.795,31.25,19.043,29.297,21.973000000000006,0.0,0
1581621319.799,36.621,29.785,27.832,8.789,0.0,0
1581621319.803,27.832,35.156,28.809,2.441,0.0,0
1581621319.806,21.973000000000006,30.762,30.273000000000003,8.789,0.0,0
1581621319.81,21.484,23.926,29.297,12.695,0.0,0
1581621319.814,30.273000000000003,26.855,33.691,6.836,0.0,0
1581621319.8179998,30.762,23.926,33.691,4.395,0.0,0
1581621319.822,19.043,13.184,26.367,13.672,0.0,0
1581621319.826,20.508000000000006,19.043,24.902,24.414,0.0,0
1581621319.83,33.203,22.949,29.785,23.926,0.0,0
1581621319.833,35.156,25.879,26.855,17.578,0.0,0
1581621319.837,28.32,20.508000000000006,24.414,17.09,0.0,0
1581621319.841,29.297,18.066,17.09,23.438,0.0,0
1581621319.845,41.01600000000001,30.762,20.508000000000006,30.762,0.0,0
1581621319.849,40.039,28.809,31.738000000000003,21.973000000000006,0.0,0
1581621319.851,23.926,29.785,29.785,20.996,0.0,1
1581621319.855,19.531,38.574,26.855,34.668,0.0,0
1581621319.859,20.02,42.969,26.367,29.297,0.0,0
1581621319.863,20.02,35.156,34.668,16.602,0.0,0
1581621319.867,17.09,23.926,41.01600000000001,20.02,0.0,0
1581621319.871,16.113,24.414,44.922,37.598,0.0,0
1581621319.875,17.09,31.738000000000003,40.039,33.691,0.0,0
1581621319.8779998,21.973000000000006,26.855,30.273000000000003,20.02,0.0,0
1581621319.8820002,16.602,9.766,27.832,16.113,0.0,0
1581621319.8860002,8.301,26.855,27.344,17.578,0.0,0
1581621319.89,11.23,37.109,19.531,27.832,0.0,0
1581621319.894,20.02,21.973000000000006,20.508000000000006,27.832,0.0,0
1581621319.896,24.414,21.484,31.25,12.695,0.0,0
1581621319.9,18.066,25.879,31.25,13.184,0.0,0
1581621319.904,15.625,23.438,31.25,24.902,0.0,0
1581621319.908,21.973000000000006,26.855,32.227,27.832,0.0,0
1581621319.9120002,23.438,28.32,24.902,17.09,0.0,0
1581621319.916,16.113,28.32,23.926,14.648,0.0,0
1581621319.92,19.043,29.785,28.32,19.043,0.0,0
1581621319.923,29.297,18.555,27.344,17.09,0.0,0
1581621319.927,35.156,18.066,27.344,15.625,0.0,0
1581621319.931,37.109,35.645,34.18,17.578,0.0,0
1581621319.935,24.902,23.926,26.855,22.461,0.0,0
1581621319.939,17.09,16.113,19.531,11.23,0.0,0
1581621319.941,27.832,22.461,20.508000000000006,6.348,0.0,0
1581621319.945,28.32,22.949,20.996,6.836,0.0,0
1581621319.949,16.113,20.996,17.578,13.184,0.0,0
1581621319.9529998,16.113,16.602,12.695,25.391,0.0,0
1581621319.957,24.414,20.02,19.531,17.09,0.0,0
1581621319.961,26.855,26.367,22.461,2.93,0.0,0
1581621319.965,25.879,28.809,23.926,12.207,0.0,0
1581621319.968,19.531,27.832,25.391,21.973000000000006,0.0,0
1581621319.972,22.461,31.738000000000003,25.879,16.602,0.0,0
1581621319.976,34.18,38.574,26.855,11.23,0.0,0
1581621319.98,35.645,32.715,31.25,14.16,0.0,0
1581621319.984,34.18,27.832,39.551,33.203,0.0,0
1581621319.986,38.086,33.691,37.598,37.598,0.0,0
1581621319.99,45.41,38.086,31.738000000000003,25.879,0.0,0
1581621319.994,45.41,37.598,34.668,22.461,0.0,0
1581621319.998,42.48,41.504,38.574,37.598,0.0,0
1581621320.002,50.293,40.039,34.18,48.34,0.0,0
1581621320.006,55.176,23.926,35.156,39.062,0.0,0
1581621320.01,53.71100000000001,4.395,40.039,33.691,0.0,0
1581621320.0129998,45.898,23.438,31.738000000000003,39.551,0.0,0
1581621320.0170002,41.992,39.062,23.926,45.898,0.0,0
1581621320.021,53.223,28.32,30.273000000000003,50.293,0.0,0
1581621320.025,52.734,35.645,37.598,41.992,0.0,0
1581621320.029,41.01600000000001,36.621,37.598,39.551,0.0,0
1581621320.031,35.645,36.621,35.156,47.852,0.0,0
1581621320.035,39.551,33.203,32.715,43.945,0.0,0
1581621320.039,43.945,20.02,29.785,36.621,0.0,0
1581621320.043,37.598,21.484,29.297,31.738000000000003,0.0,0
1581621320.0470002,28.32,38.086,28.32,32.715,0.0,0
1581621320.051,21.973000000000006,36.621,24.902,33.203,0.0,0
1581621320.055,29.297,26.855,28.32,25.879,0.0,0
1581621320.0579998,30.273000000000003,40.039,33.691,24.414,0.0,0
1581621320.062,20.508000000000006,37.109,33.691,35.645,0.0,0
1581621320.066,16.602,17.578,32.715,30.273000000000003,0.0,0
1581621320.07,21.973000000000006,21.484,35.156,14.16,0.0,0
1581621320.074,22.461,35.645,31.738000000000003,8.301,0.0,0
1581621320.091,13.184,37.598,28.809,18.066,0.0,0
1581621320.095,16.602,26.855,25.391,30.273000000000003,0.0,0
1581621320.099,32.227,30.273000000000003,24.902,31.738000000000003,0.0,0
1581621320.103,37.598,35.645,36.133,23.926,0.0,0
1581621320.107,27.344,29.297,43.945,26.855,0.0,0
1581621320.111,14.648,13.184,39.551,29.785,0.0,0
1581621320.115,17.09,16.602,31.25,21.484,0.0,0
1581621320.1179998,25.879,31.25,29.297,16.113,0.0,0
1581621320.1220002,19.043,27.832,31.25,13.184,0.0,0
1581621320.1260002,12.695,22.461,29.297,13.672,0.0,0
1581621320.13,19.531,28.809,26.855,23.438,0.0,0
1581621320.1339998,29.785,29.297,30.762,19.531,0.0,0
1581621320.1360002,25.879,20.02,31.738000000000003,11.23,0.0,0
1581621320.14,14.16,27.832,27.344,14.648,0.0,0
1581621320.144,14.648,36.621,25.879,17.578,0.0,0
1581621320.1479998,27.344,37.109,28.809,12.207,0.0,0
1581621320.1520002,30.273000000000003,27.832,27.344,3.418,0.0,0
1581621320.156,20.02,24.414,17.578,18.066,0.0,0
1581621320.16,17.578,31.25,19.531,26.367,0.0,0
1581621320.163,27.832,34.668,32.715,19.043,0.0,0
1581621320.167,32.227,33.203,36.133,15.137,0.0,0
1581621320.171,23.438,25.879,34.18,8.301,0.0,0
1581621320.175,21.484,37.598,37.109,17.09,0.0,0
1581621320.179,24.902,44.434,34.18,25.391,0.0,0
1581621320.1820002,27.832,39.551,31.738000000000003,23.926,0.0,0
1581621320.186,22.949,34.668,31.738000000000003,18.066,0.0,0
1581621320.19,14.648,38.086,28.32,22.949,0.0,0
1581621320.194,18.066,41.992,28.32,39.062,0.0,0
1581621320.198,27.344,32.715,24.902,19.043,0.0,0
1581621320.202,26.367,20.996,22.949,6.348,0.0,0
1581621320.206,22.949,31.25,29.785,25.879,0.0,0
1581621320.209,26.367,41.504,29.297,31.738000000000003,0.0,0
1581621320.2129998,35.156,21.973000000000006,26.855,23.438,0.0,0
1581621320.217,40.039,29.785,28.32,13.184,0.0,0
1581621320.221,34.18,41.992,34.18,13.672,0.0,0
1581621320.225,28.809,26.367,36.621,28.809,0.0,0
1581621320.2270002,29.785,32.227,33.691,25.391,0.0,0
1581621320.231,33.691,35.645,28.809,12.207,0.0,0
1581621320.235,29.785,36.133,31.25,16.113,0.0,0
1581621320.2389998,26.367,36.133,35.156,31.25,0.0,0
1581621320.2429998,29.297,21.484,31.738000000000003,37.598,0.0,0
1581621320.2470002,31.738000000000003,10.254,33.691,30.762,0.0,0
1581621320.2510002,27.344,20.996,28.809,21.973000000000006,0.0,0
1581621320.254,20.996,32.227,23.438,32.227,0.0,0
1581621320.258,23.926,21.973000000000006,33.691,34.18,0.0,0
1581621320.262,30.273000000000003,24.414,36.621,17.09,0.0,0
1581621320.266,27.832,28.809,31.738000000000003,13.672,0.0,0
1581621320.27,14.648,24.414,26.367,19.043,0.0,0
1581621320.271,13.184,28.32,28.809,23.438,0.0,0
