timestamps,TP9,AF7,AF8,TP10,Right AUX,Marker0
1581609739.799,-84.473,28.809,117.18799999999999,-125.0,0.0,0
1581609739.803,-49.805,11.719000000000001,100.098,-133.30100000000002,0.0,0
1581609739.8070002,4.395,-5.371,108.887,-127.441,0.0,0
1581609739.811,-6.348,-31.25,117.18799999999999,-95.70299999999999,0.0,0
1581609739.815,6.348,-24.901999999999997,124.512,-53.223,0.0,0
1581609739.819,57.129,9.277000000000001,119.62899999999999,-23.438000000000002,0.0,0
1581609739.823,46.387,-0.488,117.676,-40.527,0.0,0
1581609739.826,-3.906,-12.207,121.58200000000001,-28.809,0.0,0
1581609739.83,-30.273000000000003,7.324,91.309,17.09,0.0,0
1581609739.8339999,-29.785,43.945,78.125,26.855,0.0,0
1581609739.8379998,-10.742,43.457,121.58200000000001,4.883,0.0,0
1581609739.842,-11.719000000000001,13.672,107.42200000000001,-3.418,0.0,0
1581609739.8439999,-13.672,-10.742,118.164,50.293,0.0,0
1581609739.8479998,-26.366999999999997,-26.366999999999997,112.305,74.219,0.0,0
1581609739.8520002,-44.434,1.465,92.285,15.625,0.0,0
1581609739.856,-61.523,34.18,112.79299999999999,-24.901999999999997,0.0,0
1581609739.86,-101.074,39.062,115.234,-24.901999999999997,0.0,0
1581609739.8639998,-121.094,36.621,90.33200000000001,-37.598,0.0,0
1581609739.8679998,-106.445,17.09,91.309,-76.172,0.0,0
1581609739.871,-86.426,15.137,104.98,-121.58200000000001,0.0,0
1581609739.875,-91.79700000000001,5.371,82.52,-111.32799999999999,0.0,0
1581609739.879,-105.95700000000001,15.137,104.00399999999999,-83.49600000000002,0.0,0
1581609739.883,-75.195,-6.348,148.438,-115.723,0.0,0
1581609739.887,-39.551,-61.523,139.16,-160.156,0.0,0
1581609739.889,-65.43,-0.488,115.234,-166.50400000000005,0.0,0
1581609739.893,-94.238,50.78100000000001,135.254,-159.668,0.0,0
1581609739.897,-69.824,39.062,115.234,-190.43,0.0,0
1581609739.901,-21.97300000000001,32.715,86.426,-199.707,0.0,0
1581609739.905,-9.277000000000001,33.203,106.934,-133.789,0.0,0
1581609739.909,-13.184000000000001,33.203,121.58200000000001,-90.33200000000001,0.0,0
1581609739.9129999,37.598,-1.953,134.27700000000002,-99.609,0.0,0
1581609739.9160001,67.87100000000001,-30.761999999999997,125.488,-132.32399999999998,0.0,0
1581609739.92,41.992,-5.371,124.023,-145.996,0.0,0
1581609739.924,41.504,29.785,167.96900000000005,-126.95299999999999,0.0,0
1581609739.928,46.875,46.387,159.18,-110.84,0.0,0
1581609739.9320002,67.87100000000001,36.133,124.023,-104.492,0.0,0
1581609739.934,62.012,13.184000000000001,112.79299999999999,-124.512,0.0,0
1581609739.938,22.949,17.09,144.043,-105.95700000000001,0.0,0
1581609739.9420002,28.809,26.366999999999997,162.109,-66.895,0.0,0
1581609739.946,46.387,22.949,155.273,-91.79700000000001,0.0,0
1581609739.95,49.316,21.97300000000001,143.555,-149.90200000000004,0.0,0
1581609739.954,46.387,0.488,148.92600000000004,-134.27700000000002,0.0,0
1581609739.958,29.296999999999997,-17.09,167.96900000000005,-54.199,0.0,0
1581609739.961,22.461,-16.602,126.95299999999999,-41.992,0.0,0
1581609739.965,43.945,-15.625,119.141,-101.074,0.0,0
1581609739.9689999,59.082,24.414,154.297,-115.234,0.0,0
1581609739.9729998,33.691,66.406,143.066,-76.172,0.0,0
1581609739.9770002,9.277000000000001,61.035,137.695,-56.64100000000001,0.0,0
1581609739.9789999,28.809,41.504,141.113,-84.961,0.0,0
1581609739.9829998,32.715,17.578,131.836,-114.258,0.0,0
1581609739.9870002,28.809,1.953,100.586,-68.359,0.0,0
1581609739.9910002,40.527,-6.348,59.57,-28.32,0.0,0
1581609739.995,50.293,-2.93,71.289,-55.663999999999994,0.0,0
1581609739.9989998,43.945,13.672,104.00399999999999,-92.773,0.0,0
1581609740.0029998,18.555,33.203,98.633,-78.613,0.0,0
1581609740.006,4.395,35.156,102.051,-23.438000000000002,0.0,0
1581609740.01,53.223,26.366999999999997,132.812,-10.254000000000001,0.0,0
1581609740.014,135.254,9.766,118.164,-44.922,0.0,0
1581609740.018,111.816,-1.465,89.844,-67.383,0.0,0
1581609740.022,40.527,22.949,108.398,-53.223,0.0,0
1581609740.024,32.227,31.25,149.414,-67.383,0.0,0
1581609740.0279999,36.133,12.695,140.625,-125.977,0.0,0
1581609740.032,40.039,-7.812,129.395,-112.79299999999999,0.0,0
1581609740.036,38.574,-19.531,133.789,-9.766,0.0,0
1581609740.04,48.828,2.93,137.695,27.344,0.0,0
1581609740.044,66.895,21.484,133.789,-32.227,0.0,0
1581609740.0479999,35.645,13.184000000000001,106.445,-65.918,0.0,0
1581609740.051,8.789,2.93,132.812,-20.508000000000006,0.0,0
1581609740.055,19.043,2.441,180.176,34.668,0.0,0
1581609740.059,24.901999999999997,4.395,159.668,21.97300000000001,0.0,0
1581609740.063,53.223,10.742,137.207,15.625,0.0,0
1581609740.0670002,20.996,17.09,127.93,24.414,0.0,0
1581609740.069,-46.875,7.324,127.93,34.18,0.0,0
1581609740.073,-48.828,-1.465,124.023,27.344,0.0,0
1581609740.0770001,-23.438000000000002,-1.465,136.719,-12.695,0.0,0
1581609740.081,-34.668,-9.766,153.809,-16.602,0.0,0
1581609740.085,-57.129,2.93,135.254,31.738000000000003,0.0,0
1581609740.089,-25.879,23.438000000000002,112.305,49.805,0.0,0
1581609740.093,-19.043,-7.812,123.535,6.836,0.0,0
1581609740.096,-56.64100000000001,-54.199,158.691,-2.93,0.0,0
1581609740.1,-57.617,-0.488,151.855,62.988,0.0,0
1581609740.1039999,-40.527,69.824,130.859,105.469,0.0,0
1581609740.1079998,-48.34,60.059,121.58200000000001,43.457,0.0,0
1581609740.1120002,-54.199,23.438000000000002,148.92600000000004,-18.066,0.0,0
1581609740.13,-81.055,-32.227,150.879,-5.859,0.0,0
1581609740.1339998,-113.281,-13.672,117.676,20.996,0.0,0
1581609740.1379998,-102.539,43.945,116.211,-5.859,0.0,0
1581609740.1420002,-78.125,43.457,125.977,-24.414,0.0,0
1581609740.1460001,-76.66,18.555,112.79299999999999,-6.836,0.0,0
1581609740.15,-71.777,7.324,133.789,-20.508000000000006,0.0,0
1581609740.154,-50.293,17.09,149.414,-60.547,0.0,0
1581609740.157,-35.156,30.273000000000003,125.488,-103.027,0.0,0
1581609740.161,-22.949,43.457,122.559,-89.355,0.0,0
1581609740.165,-28.32,21.97300000000001,116.211,-30.273000000000003,0.0,0
1581609740.169,-28.32,-4.883,118.164,-6.348,0.0,0
1581609740.1729999,3.418,27.831999999999997,117.18799999999999,-39.062,0.0,0
1581609740.174,16.602,35.645,124.512,-72.75399999999998,0.0,0
1581609740.178,19.531,10.254000000000001,140.137,-25.879,0.0,0
1581609740.1820002,43.945,18.555,145.996,28.809,0.0,0
1581609740.186,53.71100000000001,31.25,134.27700000000002,-13.184000000000001,0.0,0
1581609740.19,11.23,33.691,124.023,-72.266,0.0,0
1581609740.194,-30.761999999999997,26.366999999999997,121.58200000000001,-65.43,0.0,0
1581609740.198,-40.039,20.996,129.395,-29.296999999999997,0.0,0
1581609740.201,-12.695,29.785,130.371,-15.625,0.0,0
1581609740.205,21.484,18.066,86.914,-34.18,0.0,0
1581609740.2089999,25.391,-0.488,90.33200000000001,-37.598,0.0,0
1581609740.2129998,20.508000000000006,3.906,139.16,-17.09,0.0,0
1581609740.217,19.531,28.809,142.09,-9.766,0.0,0
1581609740.2189999,-0.488,39.551,135.254,-53.71100000000001,0.0,0
1581609740.2229998,-19.531,52.733999999999995,126.465,-81.543,0.0,0
1581609740.2270002,-35.156,55.663999999999994,119.141,-59.082,0.0,0
1581609740.231,-54.199,31.738000000000003,126.95299999999999,-59.57,0.0,0
1581609740.235,-41.504,11.719000000000001,131.836,-83.008,0.0,0
1581609740.2389998,-10.254000000000001,16.602,121.58200000000001,-73.242,0.0,0
1581609740.2429998,-10.254000000000001,27.831999999999997,122.559,0.0,0.0,0
1581609740.246,-20.02,37.598,117.676,54.688,0.0,0
1581609740.25,-26.855,48.828,63.965,20.02,0.0,0
1581609740.254,-19.531,27.831999999999997,97.16799999999999,-35.156,0.0,0
1581609740.258,-29.296999999999997,-9.277000000000001,156.25,-35.156,0.0,0
1581609740.262,-51.27,-4.395,140.137,2.441,0.0,0
1581609740.264,-52.246,26.366999999999997,99.12100000000001,-8.301,0.0,0
1581609740.268,-51.27,52.246,79.59,-34.668,0.0,0
1581609740.272,-59.082,22.461,97.16799999999999,14.648,0.0,0
1581609740.276,-87.402,-22.461,96.191,45.41,0.0,0
1581609740.28,-94.727,5.371,98.145,31.25,0.0,0
1581609740.284,-98.145,54.199,102.539,-8.301,0.0,0
1581609740.2879999,-116.211,59.082,115.723,-37.598,0.0,0
1581609740.2910001,-149.90200000000004,26.855,113.77,10.742,0.0,0
1581609740.295,-181.641,-3.418,104.00399999999999,28.809,0.0,0
1581609740.299,-147.461,7.324,141.113,-18.066,0.0,0
1581609740.303,-119.62899999999999,11.23,133.789,-42.968999999999994,0.0,0
1581609740.3070002,-141.113,4.395,91.309,-2.93,0.0,0
1581609740.309,-156.25,45.898,80.078,22.949,0.0,0
1581609740.313,-140.625,66.895,84.961,-41.992,0.0,0
1581609740.3170002,-96.68,48.34,106.934,-77.148,0.0,0
1581609740.321,-61.523,48.828,115.723,-34.668,0.0,0
1581609740.325,-35.645,38.086,102.051,9.766,0.0,0
1581609740.329,-5.859,3.906,114.74600000000001,30.761999999999997,0.0,0
1581609740.333,29.296999999999997,-5.859,118.652,25.391,0.0,0
1581609740.336,18.066,-3.906,72.266,41.992,0.0,0
1581609740.34,-23.438000000000002,5.371,107.42200000000001,70.312,0.0,0
1581609740.3439999,-19.043,32.715,153.809,70.801,0.0,0
1581609740.3479998,-16.602,57.129,128.906,49.805,0.0,0
1581609740.3520002,-30.273000000000003,69.824,110.84,36.133,0.0,0
1581609740.3539999,-28.32,66.406,114.74600000000001,103.027,0.0,0
1581609740.3579998,-11.23,36.133,119.141,127.441,0.0,0
1581609740.3620002,8.301,20.508000000000006,97.656,48.34,0.0,0
1581609740.3660002,33.203,42.968999999999994,97.16799999999999,26.855,0.0,0
1581609740.37,38.574,37.598,124.512,63.477,0.0,0
1581609740.3739998,27.831999999999997,45.898,115.723,91.79700000000001,0.0,0
1581609740.3779998,47.363,47.852,106.934,68.848,0.0,0
1581609740.381,81.543,15.625,115.723,17.578,0.0,0
1581609740.385,102.051,-18.066,125.488,27.831999999999997,0.0,0
1581609740.389,75.684,10.742,122.559,101.074,0.0,0
1581609740.393,40.039,51.27,107.42200000000001,79.59,0.0,0
1581609740.397,21.97300000000001,41.01600000000001,93.262,-37.598,0.0,0
1581609740.399,-3.906,15.625,91.309,-44.922,0.0,0
1581609740.4029999,-13.184000000000001,-7.812,102.051,34.668,0.0,0
1581609740.407,-45.898,28.32,121.094,41.01600000000001,0.0,0
1581609740.411,-55.663999999999994,79.59,138.184,-36.621,0.0,0
1581609740.415,-12.207,84.961,134.766,-103.027,0.0,0
1581609740.419,21.484,57.617,132.812,-91.79700000000001,0.0,0
1581609740.4229999,48.828,23.926,99.609,-51.27,0.0,0
1581609740.426,79.102,30.761999999999997,78.613,-63.965,0.0,0
1581609740.43,111.32799999999999,61.523,98.633,-105.469,0.0,0
1581609740.434,103.027,45.898,95.70299999999999,-125.0,0.0,0
1581609740.438,65.43,12.207,113.77,-122.559,0.0,0
1581609740.4420002,21.484,4.883,122.559,-155.762,0.0,0
1581609740.445,-19.043,11.23,107.91,-242.188,0.0,0
1581609740.449,-84.473,36.621,80.078,-289.062,0.0,0
1581609740.4529998,-180.176,62.988,69.336,-292.48,0.0,0
1581609740.457,-227.53900000000002,67.383,87.891,-309.082,0.0,0
1581609740.461,-253.418,60.547,71.289,-346.191,0.0,0
1581609740.465,-267.578,24.414,46.875,-384.277,0.0,0
1581609740.4689999,-275.39099999999996,-10.742,77.148,-381.348,0.0,0
1581609740.4720001,-270.508,36.621,129.395,-403.809,0.0,0
1581609740.476,-260.254,44.922,133.789,-447.754,0.0,0
1581609740.48,-248.535,26.366999999999997,91.309,-456.543,0.0,0
1581609740.484,-224.12099999999998,47.852,102.051,-410.645,0.0,0
1581609740.488,-187.012,37.109,120.117,-371.094,0.0,0
1581609740.505,-150.391,37.598,82.031,-392.57800000000003,0.0,0
1581609740.5089998,-151.36700000000005,43.945,71.289,-416.504,0.0,0
1581609740.5129998,-172.852,12.695,81.055,-392.57800000000003,0.0,0
1581609740.5170002,-189.94099999999997,-1.953,105.95700000000001,-333.9840000000001,0.0,0
1581609740.5210001,-180.66400000000002,25.879,130.371,-300.293,0.0,0
1581609740.525,-164.551,3.906,109.863,-297.8520000000001,0.0,0
1581609740.529,-188.477,2.93,110.352,-256.348,0.0,0
1581609740.532,-213.86700000000002,41.01600000000001,142.578,-183.105,0.0,0
1581609740.536,-204.59,59.082,134.27700000000002,-137.695,0.0,0
1581609740.54,-154.297,77.148,90.82,-125.0,0.0,0
1581609740.544,-116.699,50.293,101.56200000000001,-131.34799999999998,0.0,0
1581609740.5479999,-106.934,-7.812,144.531,-84.473,0.0,0
1581609740.55,-83.49600000000002,-13.672,117.676,-22.949,0.0,0
1581609740.554,-20.996,12.695,87.402,-37.109,0.0,0
1581609740.5579998,4.395,14.16,119.141,-34.668,0.0,0
1581609740.562,-28.809,25.879,118.652,8.789,0.0,0
1581609740.566,-37.598,47.852,86.914,33.203,0.0,0
1581609740.57,-37.109,53.223,83.49600000000002,7.812,0.0,0
1581609740.574,-49.805,69.824,113.281,-47.363,0.0,0
1581609740.5770001,-81.055,55.663999999999994,137.695,-31.25,0.0,0
1581609740.581,-126.95299999999999,12.207,89.844,26.366999999999997,0.0,0
1581609740.585,-144.043,15.625,58.105,30.273000000000003,0.0,0
1581609740.589,-96.191,36.621,87.402,20.996,0.0,0
1581609740.593,-40.527,30.273000000000003,109.375,40.039,0.0,0
1581609740.595,-57.617,33.691,114.258,63.965,0.0,0
1581609740.599,-70.312,45.41,95.70299999999999,60.059,0.0,0
1581609740.603,-18.066,20.508000000000006,101.56200000000001,26.855,0.0,0
1581609740.607,35.156,17.09,102.051,31.738000000000003,0.0,0
1581609740.611,104.98,33.203,80.078,95.215,0.0,0
1581609740.615,149.90200000000004,26.366999999999997,79.102,136.23,0.0,0
1581609740.619,171.875,12.207,80.078,116.699,0.0,0
1581609740.6220002,213.86700000000002,14.648,85.93799999999996,117.676,0.0,0
1581609740.6260002,196.28900000000002,54.199,64.453,154.785,0.0,0
1581609740.63,174.805,56.152,71.777,153.32,0.0,0
1581609740.6339998,215.82,34.18,91.309,101.074,0.0,0
1581609740.6379998,219.238,20.996,83.008,41.504,0.0,0
1581609740.64,143.555,21.97300000000001,125.977,29.296999999999997,0.0,0
1581609740.644,75.684,40.527,155.762,43.457,0.0,0
1581609740.6479998,70.801,39.062,146.97299999999996,20.996,0.0,0
1581609740.6520002,57.617,29.296999999999997,113.281,-56.64100000000001,0.0,0
1581609740.6560001,29.785,38.574,104.98,-91.309,0.0,0
1581609740.66,-32.227,41.504,97.16799999999999,-69.824,0.0,0
1581609740.664,-66.895,30.761999999999997,45.41,-96.68,0.0,0
1581609740.667,-43.457,41.992,-34.18,-173.34,0.0,0
1581609740.671,-98.633,51.758,-58.105,-250.977,0.0,0
1581609740.675,-146.484,63.477,-10.254000000000001,-236.328,0.0,0
1581609740.679,-133.789,84.473,-12.695,-190.43,0.0,0
1581609740.6829998,-159.18,35.156,-41.992,-251.953,0.0,0
1581609740.685,-207.52,17.09,-47.363,-313.4770000000001,0.0,0
1581609740.689,-226.074,74.707,-10.742,-310.547,0.0,0
1581609740.6929998,-228.02700000000002,94.238,-23.438000000000002,-289.062,0.0,0
1581609740.697,-211.426,77.637,-56.152,-280.27299999999997,0.0,0
1581609740.701,-217.773,7.812,-81.055,-295.41,0.0,0
1581609740.705,-275.39099999999996,-5.371,-104.98,-305.176,0.0,0
1581609740.7089999,-287.598,77.148,-82.031,-269.531,0.0,0
1581609740.7120001,-264.64799999999997,101.074,-87.402,-226.074,0.0,0
1581609740.716,-277.832,80.078,-73.242,-216.797,0.0,0
1581609740.72,-298.34,68.848,-2.441,-196.28900000000002,0.0,0
1581609740.724,-323.73,82.031,65.918,-161.13299999999995,0.0,0
1581609740.728,-375.48800000000006,112.79299999999999,128.906,-186.523,0.0,0
1581609740.73,-389.648,100.586,175.78099999999995,-229.49200000000002,0.0,0
1581609740.734,-386.23,86.426,154.297,-197.75400000000002,0.0,0
1581609740.738,-379.395,54.199,100.098,-167.96900000000005,0.0,0
1581609740.742,-337.89099999999996,15.137,160.156,-163.57399999999996,0.0,0
1581609740.746,-329.59,5.371,190.43,-169.43400000000003,0.0,0
1581609740.75,-360.84,31.25,132.812,-195.312,0.0,0
1581609740.754,-393.066,68.359,146.484,-171.387,0.0,0
1581609740.7570002,-401.855,72.266,179.199,-126.465,0.0,0
1581609740.7610002,-350.098,34.18,202.148,-135.254,0.0,0
1581609740.765,-298.828,31.25,196.28900000000002,-165.52700000000004,0.0,0
1581609740.769,-267.09,61.035,152.832,-135.74200000000002,0.0,0
1581609740.7729998,-267.578,39.062,149.90200000000004,-90.82,0.0,0
1581609740.775,-297.363,18.555,171.387,-116.699,0.0,0
1581609740.779,-296.387,18.066,127.441,-149.90200000000004,0.0,0
1581609740.783,-295.89799999999997,15.137,95.215,-130.371,0.0,0
1581609740.7870002,-304.688,14.648,115.723,-67.383,0.0,0
1581609740.7910001,-275.879,25.391,121.58200000000001,-5.859,0.0,0
1581609740.795,-219.238,28.809,105.469,-20.508000000000006,0.0,0
1581609740.799,-175.78099999999995,-5.371,80.566,-45.898,0.0,0
1581609740.802,-140.137,-21.97300000000001,85.449,3.418,0.0,0
1581609740.806,-67.87100000000001,0.0,95.215,89.844,0.0,0
1581609740.81,-8.301,1.953,65.43,88.37899999999998,0.0,0
1581609740.814,20.02,20.996,58.593999999999994,-3.906,0.0,0
1581609740.8179998,8.301,48.34,66.895,-28.809,0.0,0
1581609740.82,-4.883,45.898,61.523,4.883,0.0,0
1581609740.824,9.766,20.996,24.901999999999997,-6.836,0.0,0
1581609740.8279998,31.738000000000003,14.16,20.02,-5.859,0.0,0
1581609740.832,49.316,49.805,23.926,20.508000000000006,0.0,0
1581609740.836,38.574,32.227,25.879,25.879,0.0,0
1581609740.84,25.879,-15.625,22.949,9.766,0.0,0
1581609740.8439999,35.645,4.883,53.223,-49.316,0.0,0
1581609740.8470001,34.18,-8.301,84.961,-80.566,0.0,0
1581609740.851,34.668,-32.227,50.293,-38.574,0.0,0
1581609740.855,21.97300000000001,11.23,22.949,-13.184000000000001,0.0,0
1581609740.859,41.992,47.852,37.109,-16.602,0.0,0
1581609740.863,84.473,53.223,30.761999999999997,-15.137,0.0,0
1581609740.879,81.055,31.738000000000003,10.742,-9.766,0.0,0
1581609740.883,85.93799999999996,5.859,56.152,-2.441,0.0,0
1581609740.887,111.816,-8.789,104.98,-12.695,0.0,0
1581609740.891,143.555,-19.531,82.52,-60.059,0.0,0
1581609740.895,143.555,9.766,41.992,-57.617,0.0,0
1581609740.899,141.113,34.668,17.578,16.602,0.0,0
1581609740.9029999,158.691,20.508000000000006,63.477,15.625,0.0,0
1581609740.9060001,150.391,-0.488,109.375,-67.87100000000001,0.0,0
1581609740.91,130.371,8.789,63.965,-77.637,0.0,0
1581609740.914,98.145,3.906,56.152,-51.27,0.0,0
1581609740.918,76.66,10.742,116.211,-55.176,0.0,0
1581609740.9220002,91.309,41.504,94.727,-109.375,0.0,0
1581609740.924,84.961,37.109,75.684,-159.18,0.0,0
1581609740.928,34.668,29.785,102.051,-156.738,0.0,0
1581609740.9320002,9.277000000000001,12.207,84.473,-158.691,0.0,0
1581609740.936,17.09,-8.301,92.773,-208.49599999999998,0.0,0
1581609740.94,-1.953,-12.207,104.492,-258.789,0.0,0
1581609740.944,-34.18,32.715,76.66,-215.82,0.0,0
1581609740.948,-32.227,62.5,73.73,-174.805,0.0,0
1581609740.951,-22.461,53.223,119.141,-233.398,0.0,0
1581609740.955,-24.901999999999997,32.227,88.37899999999998,-306.152,0.0,0
1581609740.9589999,-25.391,-7.812,55.663999999999994,-310.547,0.0,0
1581609740.9629998,-43.945,4.883,135.74200000000002,-258.301,0.0,0
1581609740.967,-15.625,21.484,133.789,-238.77,0.0,0
1581609740.9689999,33.203,12.207,53.71100000000001,-251.953,0.0,0
1581609740.9729998,22.461,18.555,52.246,-226.562,0.0,0
1581609740.9770002,5.859,24.901999999999997,82.52,-201.66,0.0,0
1581609740.981,14.16,23.438000000000002,88.37899999999998,-165.52700000000004,0.0,0
1581609740.985,17.578,15.625,23.438000000000002,-166.016,0.0,0
1581609740.9889998,10.742,14.648,-0.488,-206.055,0.0,0
1581609740.9929998,3.906,10.254000000000001,72.75399999999998,-160.645,0.0,0
1581609740.996,14.16,21.484,98.145,-72.75399999999998,0.0,0
1581609741.0,60.059,44.922,68.359,-35.645,0.0,0
1581609741.004,115.234,42.968999999999994,74.707,-13.672,0.0,0
1581609741.008,106.445,30.273000000000003,112.79299999999999,10.742,0.0,0
1581609741.012,61.523,22.461,79.102,33.203,0.0,0
1581609741.014,44.434,20.996,50.293,20.996,0.0,0
1581609741.018,48.828,0.488,54.688,-27.831999999999997,0.0,0
1581609741.022,58.105,-15.137,67.87100000000001,-28.32,0.0,0
1581609741.026,36.621,8.789,71.289,14.16,0.0,0
1581609741.03,49.805,32.227,72.266,29.296999999999997,0.0,0
1581609741.034,105.469,39.551,81.543,27.344,0.0,0
1581609741.0379999,137.207,35.645,98.633,59.082,0.0,0
1581609741.0410001,103.516,47.363,88.37899999999998,52.733999999999995,0.0,0
1581609741.045,87.891,43.457,59.57,34.18,0.0,0
1581609741.049,145.50799999999995,-3.906,94.727,56.152,0.0,0
1581609741.053,157.227,-6.348,95.70299999999999,30.761999999999997,0.0,0
1581609741.0570002,117.18799999999999,30.273000000000003,66.895,5.859,0.0,0
1581609741.06,101.56200000000001,58.593999999999994,80.566,24.414,0.0,0
1581609741.064,110.84,48.828,82.52,6.836,0.0,0
1581609741.0679998,139.16,20.508000000000006,76.66,-11.719000000000001,0.0,0
1581609741.072,141.602,17.578,88.867,32.227,0.0,0
1581609741.076,105.469,8.301,99.609,59.57,0.0,0
1581609741.08,110.84,4.395,97.656,27.344,0.0,0
1581609741.0839999,107.42200000000001,24.901999999999997,79.102,-28.809,0.0,0
1581609741.0870001,56.64100000000001,24.414,63.965,-41.504,0.0,2
1581609741.091,68.359,19.531,61.035,13.184000000000001,0.0,0
1581609741.095,130.371,23.438000000000002,62.012,41.01600000000001,0.0,0
1581609741.099,177.734,13.184000000000001,66.895,-1.953,0.0,0
1581609741.103,187.988,9.277000000000001,83.49600000000002,-33.691,0.0,0
1581609741.1039999,197.266,20.996,108.887,20.508000000000006,0.0,0
1581609741.1079998,230.46900000000002,35.645,98.633,61.035,0.0,0
1581609741.1120002,260.254,51.27,73.242,61.035,0.0,0
1581609741.1160002,258.301,54.688,75.195,66.895,0.0,0
1581609741.12,220.215,33.203,84.961,106.445,0.0,0
1581609741.1239998,216.797,-11.23,62.988,164.062,0.0,0
1581609741.1279998,208.984,-40.039,50.293,151.36700000000005,0.0,0
1581609741.131,152.832,7.812,51.27,113.281,0.0,0
1581609741.135,119.62899999999999,61.035,87.402,90.33200000000001,0.0,0
1581609741.139,138.672,52.733999999999995,136.719,115.723,0.0,0
1581609741.143,171.387,7.324,139.16,125.977,0.0,0
1581609741.147,178.71099999999996,14.16,104.98,63.477,0.0,0
1581609741.149,173.828,58.593999999999994,101.074,63.965,0.0,0
1581609741.1529999,163.086,36.621,102.051,110.84,0.0,0
1581609741.157,163.086,6.836,101.074,97.16799999999999,0.0,0
1581609741.161,187.012,1.465,133.30100000000002,44.922,0.0,0
1581609741.165,187.012,-22.461,120.605,17.578,0.0,0
1581609741.169,145.02,-2.441,62.012,23.926,0.0,0
1581609741.1729999,107.42200000000001,41.01600000000001,20.02,-4.395,0.0,0
1581609741.176,114.74600000000001,55.176,36.621,-47.852,0.0,0
1581609741.18,114.258,31.738000000000003,63.477,-83.008,0.0,0
1581609741.184,72.75399999999998,10.742,43.945,-78.125,0.0,0
1581609741.188,75.195,31.738000000000003,73.73,-24.901999999999997,0.0,0
1581609741.1920002,94.238,31.738000000000003,106.445,-47.363,0.0,0
1581609741.194,75.684,5.859,83.49600000000002,-103.027,0.0,0
1581609741.198,58.105,-6.348,67.383,-62.012,0.0,0
1581609741.2020001,35.645,26.855,59.57,-13.672,0.0,0
1581609741.206,41.992,33.691,83.008,-5.859,0.0,0
1581609741.21,43.945,39.062,65.918,-12.207,0.0,0
1581609741.214,2.93,45.41,58.593999999999994,-45.898,0.0,0
1581609741.218,-52.246,11.23,121.58200000000001,-30.273000000000003,0.0,0
1581609741.221,-66.406,34.668,144.531,25.879,0.0,0
1581609741.225,-42.968999999999994,42.968999999999994,126.465,5.859,0.0,0
1581609741.2289999,-75.684,18.066,123.535,-21.97300000000001,0.0,0
1581609741.2329998,-102.051,32.715,102.539,64.941,0.0,0
1581609741.2370002,-93.75,28.809,112.79299999999999,126.465,0.0,0
1581609741.254,-113.281,4.883,131.34799999999998,64.453,0.0,0
1581609741.258,-134.27700000000002,35.645,108.887,1.465,0.0,0
1581609741.262,-116.699,45.41,72.75399999999998,26.366999999999997,0.0,0
1581609741.266,-106.934,18.066,22.949,127.441,0.0,0
1581609741.27,-125.977,41.504,-5.859,137.207,0.0,0
1581609741.274,-136.23,36.133,-10.742,78.125,0.0,0
1581609741.2779999,-141.113,13.184000000000001,0.488,111.32799999999999,0.0,0
1581609741.2810001,-152.832,19.531,12.207,167.96900000000005,0.0,0
1581609741.285,-152.344,24.901999999999997,7.812,173.34,0.0,0
1581609741.289,-141.113,1.953,-32.227,148.438,0.0,0
1581609741.293,-186.035,14.16,-35.645,113.77,0.0,0
1581609741.2970002,-285.645,78.613,17.09,131.836,0.0,0
1581609741.3,-361.816,66.895,5.371,123.535,0.0,0
1581609741.304,-353.027,38.574,-48.828,9.277000000000001,0.0,0
1581609741.3079998,-285.645,80.078,-70.312,-79.102,0.0,0
1581609741.312,-312.988,65.918,-34.668,-159.668,0.0,0
1581609741.316,-427.73400000000004,3.906,-18.555,-252.44099999999997,0.0,0
1581609741.32,-453.61300000000006,-4.395,-83.49600000000002,-316.895,0.0,0
1581609741.324,-448.24199999999996,9.766,-64.941,-445.801,0.0,0
1581609741.3270001,-513.672,33.203,6.348,-601.0740000000002,0.0,0
1581609741.331,-597.656,29.785,-56.64100000000001,-675.293,0.0,0
1581609741.335,-666.992,-17.578,-120.117,-754.395,0.0,0
1581609741.339,-713.867,-0.977,-134.766,-891.602,0.0,0
1581609741.343,-756.3480000000003,42.968999999999994,-148.438,-966.309,0.0,0
1581609741.345,-844.238,30.273000000000003,-170.41,-969.727,0.0,0
1581609741.349,-956.543,24.414,-195.801,-971.68,0.0,0
1581609741.353,-974.6089999999999,45.41,-165.52700000000004,-972.6560000000001,0.0,0
1581609741.357,-969.238,38.574,-101.074,-972.6560000000001,0.0,0
1581609741.361,-973.145,36.621,-41.992,-972.6560000000001,0.0,0
1581609741.365,-972.6560000000001,14.16,-7.324,-972.168,0.0,0
1581609741.369,-968.262,5.371,21.484,-972.6560000000001,0.0,0
1581609741.3720002,-978.5160000000001,50.78100000000001,20.996,-968.75,0.0,0
1581609741.3760002,-934.082,45.898,10.254000000000001,-979.0039999999999,0.0,0
1581609741.38,-826.66,19.531,44.434,-929.199,0.0,0
1581609741.3839998,-748.535,26.366999999999997,75.195,-826.66,0.0,0
1581609741.3879998,-652.344,25.391,74.707,-772.949,0.0,0
1581609741.39,-567.871,27.831999999999997,75.684,-687.5,0.0,0
1581609741.394,-483.88699999999994,15.625,69.336,-532.227,0.0,0
1581609741.3979998,-397.949,-12.695,94.727,-443.35900000000004,0.0,0
1581609741.4020002,-333.9840000000001,24.901999999999997,131.836,-408.691,0.0,0
1581609741.4060001,-297.8520000000001,56.64100000000001,119.62899999999999,-328.125,0.0,0
1581609741.41,-293.945,62.988,123.04700000000001,-206.543,0.0,0
1581609741.414,-275.39099999999996,72.75399999999998,132.32399999999998,-91.79700000000001,0.0,0
1581609741.417,-233.398,15.137,122.559,-70.312,0.0,0
1581609741.421,-192.38299999999998,-42.48,158.203,-76.172,0.0,0
1581609741.425,-119.141,2.93,229.00400000000002,-10.742,0.0,0
1581609741.429,-48.34,56.64100000000001,204.59,70.801,0.0,0
1581609741.4329998,-25.879,29.785,136.719,106.445,0.0,0
1581609741.435,-3.906,52.246,131.34799999999998,147.94899999999996,0.0,0
1581609741.439,30.273000000000003,55.176,155.762,212.891,0.0,0
1581609741.4429998,50.293,-10.742,175.78099999999995,249.512,0.0,0
1581609741.447,55.176,-6.836,192.38299999999998,235.352,0.0,0
1581609741.451,69.824,25.879,190.918,195.312,0.0,0
1581609741.455,81.055,39.062,174.805,176.75799999999995,0.0,0
1581609741.4589999,63.965,38.574,184.57,219.727,0.0,0
1581609741.4620001,105.469,43.457,170.898,251.953,0.0,0
1581609741.466,178.71099999999996,37.109,153.32,232.91,0.0,0
1581609741.47,257.324,17.09,161.621,239.74599999999998,0.0,0
1581609741.474,339.844,-17.578,179.688,299.805,0.0,0
1581609741.478,378.418,-36.621,189.453,327.637,0.0,0
1581609741.48,393.066,13.184000000000001,189.94099999999997,282.2270000000001,0.0,0
1581609741.484,423.34,62.5,195.312,256.836,0.0,0
1581609741.488,450.195,44.434,151.855,294.434,0.0,0
1581609741.492,473.63300000000004,8.789,122.07,373.535,0.0,0
1581609741.496,520.996,25.391,140.625,388.67199999999997,0.0,0
1581609741.5,563.477,20.508000000000006,134.766,343.26199999999994,0.0,0
1581609741.504,571.289,11.719000000000001,117.676,322.26599999999996,0.0,0
1581609741.5070002,538.086,14.648,122.559,336.914,0.0,0
1581609741.5110002,548.34,7.324,174.805,370.11699999999996,0.0,0
1581609741.515,576.66,16.113,185.547,361.32800000000003,0.0,0
1581609741.519,525.879,29.296999999999997,155.273,328.61300000000006,0.0,0
1581609741.5229998,466.309,42.968999999999994,147.94899999999996,340.332,0.0,0
1581609741.525,446.289,57.617,136.23,310.547,0.0,0
1581609741.529,438.477,37.598,133.789,221.68,0.0,0
1581609741.533,426.75800000000004,28.809,144.043,185.05900000000003,0.0,0
1581609741.5370002,405.273,39.551,166.50400000000005,208.49599999999998,0.0,0
1581609741.5410001,381.348,13.672,157.227,218.262,0.0,0
1581609741.545,386.719,11.23,103.027,190.918,0.0,0
1581609741.549,356.934,30.761999999999997,72.75399999999998,131.34799999999998,0.0,0
1581609741.552,323.242,38.574,123.535,108.398,0.0,0
1581609741.556,360.352,16.602,166.016,155.273,0.0,0
1581609741.56,383.789,3.906,132.32399999999998,109.375,0.0,0
1581609741.564,358.88699999999994,29.296999999999997,119.141,5.371,0.0,0
1581609741.5679998,333.9840000000001,34.18,124.512,9.766,0.0,0
1581609741.57,331.543,19.531,117.676,72.266,0.0,0
1581609741.574,385.74199999999996,-0.488,111.816,138.184,0.0,0
1581609741.5779998,435.54699999999997,16.113,128.418,102.051,0.0,0
1581609741.582,466.79699999999997,43.457,120.605,70.801,0.0,0
1581609741.586,511.23,61.035,109.375,107.42200000000001,0.0,0
1581609741.59,523.438,41.504,125.977,50.293,0.0,0
1581609741.5939999,546.875,18.555,155.273,-23.926,0.0,0
1581609741.5970001,552.734,6.836,157.715,-45.898,0.0,0
1581609741.601,529.297,11.719000000000001,135.254,19.043,0.0,0
1581609741.605,549.805,18.555,115.234,118.164,0.0,0
1581609741.609,635.254,8.301,91.79700000000001,140.137,0.0,0
1581609741.613,660.645,39.062,119.62899999999999,117.676,0.0,0
1581609741.63,603.516,58.105,125.977,132.812,0.0,0
1581609741.6339998,573.242,46.387,101.074,187.988,0.0,0
1581609741.6379998,570.312,7.812,116.211,192.87099999999998,0.0,0
1581609741.6420002,548.34,6.348,112.79299999999999,132.32399999999998,0.0,0
1581609741.6460001,510.254,41.01600000000001,104.00399999999999,104.492,0.0,0
1581609741.65,485.352,49.805,100.098,117.676,0.0,0
1581609741.654,484.375,50.78100000000001,97.16799999999999,138.672,0.0,0
1581609741.657,483.398,24.901999999999997,98.145,128.418,0.0,0
1581609741.661,486.816,13.672,121.094,101.074,0.0,0
1581609741.665,489.25800000000004,24.901999999999997,110.84,126.465,0.0,0
1581609741.669,516.113,28.809,116.699,123.535,0.0,0
1581609741.6729999,532.227,21.97300000000001,128.418,59.57,0.0,0
1581609741.675,483.398,-16.113,103.516,8.301,0.0,0
1581609741.679,433.594,-0.488,120.117,-0.977,0.0,0
1581609741.6829998,412.598,39.062,133.789,-6.836,0.0,0
1581609741.687,414.06199999999995,41.01600000000001,115.723,-20.02,0.0,0
1581609741.691,395.50800000000004,46.875,98.633,-23.926,0.0,0
1581609741.695,375.0,30.761999999999997,104.00399999999999,-33.203,0.0,0
1581609741.699,383.301,6.836,124.512,-32.227,0.0,0
1581609741.7020001,362.305,-5.371,133.30100000000002,-57.617,0.0,0
1581609741.706,353.027,15.625,99.12100000000001,-93.75,0.0,0
1581609741.71,354.004,36.133,109.863,-65.43,0.0,0
1581609741.714,336.426,41.992,150.879,-18.066,0.0,0
1581609741.718,342.773,41.992,119.62899999999999,-12.207,0.0,0
1581609741.72,333.9840000000001,20.508000000000006,89.844,-24.414,0.0,0
1581609741.724,311.52299999999997,39.062,101.56200000000001,4.883,0.0,0
1581609741.728,318.3590000000001,37.598,109.375,90.82,0.0,0
1581609741.732,341.79699999999997,7.812,82.031,142.09,0.0,0
1581609741.736,410.156,-6.836,72.266,136.719,0.0,0
1581609741.74,464.355,4.395,97.656,114.74600000000001,0.0,0
1581609741.744,433.594,39.062,124.512,117.18799999999999,0.0,0
1581609741.7470002,414.551,48.34,140.625,177.24599999999995,0.0,0
1581609741.7510002,433.105,57.129,118.652,188.965,0.0,0
1581609741.755,416.99199999999996,54.688,114.74600000000001,159.18,0.0,0
1581609741.7589998,367.676,16.602,149.90200000000004,203.613,0.0,0
1581609741.7629998,351.074,-21.97300000000001,131.34799999999998,233.887,0.0,0
1581609741.765,355.469,-9.766,92.773,209.96099999999998,0.0,0
1581609741.769,346.68,6.348,95.215,181.15200000000002,0.0,0
1581609741.7729998,309.57,7.324,99.609,129.88299999999998,0.0,0
1581609741.7770002,255.37099999999998,40.527,106.934,125.977,0.0,0
1581609741.7810001,230.957,66.895,134.766,137.207,0.0,0
1581609741.785,240.234,46.875,140.137,97.16799999999999,0.0,0
1581609741.789,254.395,23.438000000000002,142.09,82.031,0.0,0
1581609741.792,203.125,10.742,126.95299999999999,104.492,0.0,0
1581609741.796,187.5,14.648,125.977,121.58200000000001,0.0,0
1581609741.8,236.328,11.23,139.648,78.125,0.0,0
1581609741.804,210.449,-5.371,108.398,19.043,0.0,0
1581609741.8079998,147.461,25.391,113.77,40.527,0.0,0
1581609741.81,114.74600000000001,52.733999999999995,130.859,81.543,0.0,0
1581609741.814,106.934,56.152,131.836,80.566,0.0,0
1581609741.8179998,100.098,43.945,115.234,40.039,0.0,0
1581609741.822,93.262,10.254000000000001,106.445,32.715,0.0,0
1581609741.826,74.219,4.395,108.398,73.73,0.0,0
1581609741.83,77.148,26.855,92.285,112.305,0.0,0
1581609741.8339999,77.148,5.371,94.727,101.074,0.0,0
1581609741.8370001,29.785,-0.977,76.66,44.922,0.0,0
1581609741.841,20.02,42.968999999999994,96.68,65.43,0.0,0
1581609741.845,52.246,72.266,121.094,110.84,0.0,0
1581609741.849,69.336,41.504,105.95700000000001,100.098,0.0,0
1581609741.853,45.898,15.625,106.934,92.773,0.0,0
1581609741.855,3.906,41.504,112.79299999999999,134.27700000000002,0.0,0
1581609741.859,-12.207,33.203,122.07,170.898,0.0,0
1581609741.863,7.812,-1.465,115.234,126.465,0.0,0
1581609741.867,33.691,3.906,108.887,68.848,0.0,0
1581609741.871,0.977,29.785,120.605,72.75399999999998,0.0,0
1581609741.875,-16.113,47.852,102.539,119.141,0.0,0
1581609741.879,35.645,24.901999999999997,96.68,155.762,0.0,0
1581609741.8820002,66.406,13.184000000000001,135.254,118.652,0.0,0
1581609741.8860002,25.391,34.668,160.156,42.968999999999994,0.0,0
1581609741.89,-20.02,36.621,138.184,35.645,0.0,0
1581609741.894,-13.672,46.387,137.207,34.18,0.0,0
1581609741.8979998,14.648,41.01600000000001,148.92600000000004,16.113,0.0,0
1581609741.9,4.883,31.25,135.74200000000002,16.113,0.0,0
1581609741.904,-14.16,41.01600000000001,113.281,33.203,0.0,0
1581609741.908,7.812,37.109,95.215,81.055,0.0,0
1581609741.9120002,5.371,9.766,82.52,60.547,0.0,0
1581609741.9160001,-12.207,36.621,80.566,29.785,0.0,0
1581609741.92,-15.137,61.035,114.74600000000001,75.684,0.0,0
1581609741.924,-13.184000000000001,27.831999999999997,128.906,122.559,0.0,0
1581609741.927,6.348,20.508000000000006,131.34799999999998,120.117,0.0,0
1581609741.931,63.477,22.949,134.27700000000002,102.051,0.0,0
1581609741.935,95.215,5.371,106.934,132.32399999999998,0.0,0
1581609741.939,49.805,1.465,96.191,162.109,0.0,0
1581609741.9429998,35.645,13.184000000000001,114.74600000000001,160.645,0.0,0
1581609741.945,54.688,53.223,123.535,139.16,0.0,0
1581609741.949,58.105,69.824,84.473,146.484,0.0,0
1581609741.9529998,43.457,57.617,88.37899999999998,188.477,0.0,0
1581609741.957,59.57,47.363,121.094,187.5,0.0,0
1581609741.961,92.285,16.602,114.258,146.484,0.0,0
1581609741.965,79.102,-0.977,88.867,129.88299999999998,0.0,0
1581609741.9689999,32.227,-7.324,42.968999999999994,151.855,0.0,0
1581609741.9720001,16.602,6.836,60.547,168.945,0.0,0
1581609741.976,37.109,38.574,106.445,142.578,0.0,0
1581609741.98,62.5,37.598,105.95700000000001,132.32399999999998,0.0,0
1581609741.984,95.215,34.18,129.88299999999998,182.61700000000002,0.0,0
1581609741.988,67.87100000000001,23.926,120.117,196.28900000000002,0.0,0
1581609742.005,44.922,22.461,66.406,155.762,0.0,0
1581609742.0089998,69.336,31.738000000000003,65.918,128.906,0.0,0
1581609742.0129998,60.547,29.296999999999997,79.102,137.207,0.0,0
1581609742.0170002,30.761999999999997,35.645,100.586,143.066,0.0,0
1581609742.0210001,27.831999999999997,43.457,114.74600000000001,111.816,0.0,0
1581609742.025,54.199,25.879,97.16799999999999,88.867,0.0,0
1581609742.029,90.33200000000001,4.883,95.70299999999999,135.74200000000002,0.0,0
1581609742.032,104.492,23.438000000000002,117.676,214.84400000000002,0.0,0
1581609742.036,107.91,35.645,102.539,199.21900000000002,0.0,0
1581609742.04,161.621,19.043,52.733999999999995,131.836,0.0,0
1581609742.044,209.96099999999998,10.254000000000001,75.684,145.996,0.0,0
1581609742.0479999,212.891,20.02,112.79299999999999,228.516,0.0,0
1581609742.05,235.352,26.855,76.66,265.625,0.0,0
1581609742.054,283.203,28.809,81.543,245.605,0.0,0
1581609742.0579998,297.363,17.578,117.18799999999999,226.074,0.0,0
1581609742.062,272.461,-4.395,113.281,261.23,0.0,0
1581609742.066,267.578,4.395,104.00399999999999,319.824,0.0,0
1581609742.07,264.16,28.32,70.312,307.617,0.0,0
1581609742.074,225.09799999999998,48.828,72.75399999999998,255.37099999999998,0.0,0
1581609742.0770001,203.125,55.176,101.074,243.65200000000002,0.0,0
1581609742.081,199.21900000000002,49.316,73.242,302.246,0.0,0
1581609742.085,229.00400000000002,38.574,34.668,328.125,0.0,0
1581609742.089,278.809,12.695,62.5,299.316,0.0,0
1581609742.093,251.953,20.996,92.285,260.254,0.0,0
1581609742.0939999,202.637,20.02,111.32799999999999,221.19099999999997,0.0,0
1581609742.0979998,206.055,23.926,111.32799999999999,209.96099999999998,0.0,0
1581609742.1020002,199.707,53.71100000000001,104.98,162.59799999999996,0.0,0
1581609742.106,147.94899999999996,60.547,104.492,98.633,0.0,0
1581609742.11,98.633,36.621,108.398,95.70299999999999,0.0,0
1581609742.1139998,63.477,6.836,106.934,73.242,0.0,0
1581609742.1179998,56.152,-2.441,103.516,8.789,0.0,0
1581609742.121,51.758,19.531,89.844,-36.133,0.0,0
1581609742.125,-1.465,45.41,52.733999999999995,-30.273000000000003,0.0,0
1581609742.129,-61.035,8.789,80.078,-34.18,0.0,0
1581609742.133,-101.074,7.812,113.77,-125.0,0.0,0
1581609742.137,-160.645,57.617,108.887,-215.332,0.0,0
1581609742.139,-226.562,62.988,136.23,-240.72299999999998,0.0,0
1581609742.143,-276.367,53.223,141.113,-223.63299999999998,0.0,0
1581609742.147,-299.805,8.789,118.164,-223.63299999999998,0.0,0
1581609742.151,-298.34,-21.97300000000001,90.82,-254.395,0.0,0
1581609742.155,-309.57,-1.953,95.215,-236.328,0.0,0
1581609742.159,-331.055,5.859,85.449,-171.875,0.0,0
1581609742.1629999,-311.52299999999997,31.738000000000003,65.43,-145.996,0.0,0
1581609742.1660001,-248.047,44.922,58.593999999999994,-125.977,0.0,0
1581609742.17,-212.40200000000002,5.371,58.105,-118.164,0.0,0
1581609742.174,-240.72299999999998,-16.113,115.234,-145.996,0.0,0
1581609742.178,-260.742,19.043,145.996,-156.738,0.0,0
1581609742.1820002,-227.53900000000002,51.27,146.97299999999996,-183.59400000000002,0.0,0
1581609742.184,-216.30900000000003,41.01600000000001,121.58200000000001,-208.49599999999998,0.0,0
1581609742.188,-220.703,62.5,88.867,-138.184,0.0,0
1581609742.1920002,-211.91400000000002,71.289,103.027,-33.691,0.0,0
1581609742.196,-208.984,36.621,119.62899999999999,-31.25,0.0,0
1581609742.2,-206.543,5.371,121.58200000000001,-62.5,0.0,0
1581609742.204,-238.28099999999998,-19.531,103.516,-56.64100000000001,0.0,0
1581609742.208,-280.27299999999997,4.395,83.49600000000002,-17.578,0.0,0
1581609742.211,-285.156,12.695,69.336,9.277000000000001,0.0,0
1581609742.215,-248.047,0.977,96.68,-22.949,0.0,0
1581609742.2189999,-224.609,7.812,108.398,-28.32,0.0,0
1581609742.2229998,-233.887,44.434,65.918,-15.137,0.0,0
1581609742.2270002,-227.53900000000002,63.965,88.37899999999998,-44.922,0.0,0
1581609742.2289999,-193.359,33.691,133.789,-76.172,0.0,0
1581609742.2329998,-145.996,4.395,140.137,-74.219,0.0,0
1581609742.2370002,-152.344,4.395,108.887,-34.18,0.0,0
1581609742.2410002,-155.273,17.09,93.262,11.719000000000001,0.0,0
1581609742.245,-114.74600000000001,21.97300000000001,97.656,7.812,0.0,0
1581609742.2489998,-64.453,25.391,78.613,-4.883,0.0,0
1581609742.2529998,-23.926,31.738000000000003,73.242,44.922,0.0,0
1581609742.256,-20.996,24.901999999999997,104.492,95.70299999999999,0.0,0
1581609742.26,-0.488,30.761999999999997,101.56200000000001,89.355,0.0,0
1581609742.264,80.566,28.809,69.824,70.801,0.0,0
1581609742.268,117.676,-6.348,81.543,63.965,0.0,0
1581609742.272,121.094,24.901999999999997,107.91,83.008,0.0,0
1581609742.274,162.109,52.733999999999995,137.695,125.488,0.0,0
1581609742.2779999,181.15200000000002,32.715,121.094,93.262,0.0,0
1581609742.282,182.12900000000002,23.926,113.281,47.852,0.0,0
1581609742.286,179.199,20.02,127.93,93.262,0.0,0
1581609742.29,192.87099999999998,27.344,129.395,138.672,0.0,0
1581609742.294,225.09799999999998,10.254000000000001,120.117,113.281,0.0,0
1581609742.2979999,204.59,-0.977,101.074,50.78100000000001,0.0,2
1581609742.301,163.086,33.691,129.88299999999998,50.293,0.0,0
1581609742.305,151.855,64.941,161.621,100.098,0.0,0
1581609742.309,132.32399999999998,36.621,140.625,89.844,0.0,0
1581609742.313,118.652,3.418,143.555,31.25,0.0,0
1581609742.3170002,101.074,23.926,155.273,-17.09,0.0,0
1581609742.319,87.891,29.296999999999997,140.137,12.207,0.0,0
1581609742.323,103.516,27.831999999999997,148.438,73.242,0.0,0
1581609742.3270001,97.16799999999999,60.059,145.02,44.922,0.0,0
1581609742.331,83.008,46.875,145.996,25.879,0.0,0
1581609742.335,48.34,35.645,154.785,67.383,0.0,0
1581609742.339,12.695,64.941,135.74200000000002,76.66,0.0,0
1581609742.343,2.441,24.414,136.719,41.504,0.0,0
1581609742.346,-5.371,-8.301,147.94899999999996,41.992,0.0,0
1581609742.35,-23.438000000000002,22.949,165.52700000000004,62.012,0.0,0
1581609742.3539999,-58.105,33.691,151.855,6.348,0.0,0
1581609742.3579998,-43.457,26.855,153.32,-48.34,0.0,0
1581609742.3620002,-20.508000000000006,16.602,177.24599999999995,-39.551,0.0,0
1581609742.379,-40.527,20.508000000000006,161.13299999999995,-16.602,0.0,0
1581609742.383,-61.523,35.156,177.24599999999995,35.645,0.0,0
1581609742.387,-11.23,31.738000000000003,199.21900000000002,55.176,0.0,0
1581609742.391,59.57,24.901999999999997,181.15200000000002,33.691,0.0,0
1581609742.395,54.688,6.836,159.18,61.035,0.0,0
1581609742.399,30.273000000000003,11.23,157.227,113.77,0.0,0
1581609742.4029999,40.527,36.133,188.477,120.117,0.0,0
1581609742.4060001,51.27,15.137,215.82,69.824,0.0,0
1581609742.41,78.125,3.906,212.891,93.262,0.0,0
1581609742.414,98.633,23.926,181.641,165.03900000000004,0.0,0
1581609742.418,109.375,7.324,184.57,163.57399999999996,0.0,0
1581609742.4220002,87.891,9.277000000000001,229.49200000000002,115.234,0.0,0
1581609742.424,8.301,41.992,218.262,71.289,0.0,0
1581609742.428,-41.01600000000001,73.242,212.40200000000002,88.867,0.0,0
1581609742.4320002,-37.109,41.01600000000001,237.305,117.18799999999999,0.0,0
1581609742.436,-4.883,13.672,222.168,77.148,0.0,0
1581609742.44,1.465,35.645,201.172,35.156,0.0,0
1581609742.444,-1.953,47.363,196.77700000000002,34.668,0.0,0
1581609742.448,1.465,51.27,179.199,72.75399999999998,0.0,0
1581609742.451,30.273000000000003,11.719000000000001,163.086,95.70299999999999,0.0,0
1581609742.455,45.41,-15.137,151.36700000000005,37.109,0.0,0
1581609742.4589999,31.25,-2.441,178.71099999999996,-4.395,0.0,0
1581609742.4629998,34.668,20.996,231.445,19.043,0.0,0
1581609742.467,12.207,42.48,207.03099999999998,-4.883,0.0,0
1581609742.47,13.672,50.78100000000001,171.387,-42.968999999999994,0.0,0
1581609742.474,28.809,62.988,149.414,-46.387,0.0,0
1581609742.478,-24.414,10.742,170.41,-65.43,0.0,0
1581609742.482,-63.965,-29.296999999999997,207.03099999999998,-119.62899999999999,0.0,0
1581609742.486,-52.246,9.766,197.266,-157.227,0.0,0
1581609742.49,-42.968999999999994,44.434,188.965,-151.36700000000005,0.0,0
1581609742.494,-37.598,34.18,183.59400000000002,-104.98,0.0,0
1581609742.4970002,-35.645,4.395,171.875,-65.918,0.0,0
1581609742.5010002,-12.695,7.812,146.97299999999996,-75.684,0.0,0
1581609742.505,30.273000000000003,31.738000000000003,140.625,-102.051,0.0,0
1581609742.5089998,34.668,23.438000000000002,183.105,-97.656,0.0,0
1581609742.5129998,16.113,19.531,203.125,-76.66,0.0,0
1581609742.515,42.48,30.761999999999997,201.66,-59.082,0.0,0
1581609742.519,79.59,37.598,194.824,-66.406,0.0,0
1581609742.5229998,65.43,49.316,189.94099999999997,-31.25,0.0,0
1581609742.5270002,58.105,41.504,167.96900000000005,74.219,0.0,0
1581609742.5310001,104.492,15.625,158.203,147.94899999999996,0.0,0
1581609742.535,128.906,9.277000000000001,162.59799999999996,139.16,0.0,0
1581609742.539,93.75,37.109,156.738,83.008,0.0,0
1581609742.542,67.383,51.758,167.96900000000005,74.219,0.0,0
1581609742.546,76.66,26.366999999999997,163.086,83.984,0.0,0
1581609742.55,126.465,6.348,169.922,55.663999999999994,0.0,0
1581609742.554,155.762,-8.301,176.27,51.27,0.0,0
1581609742.5579998,90.33200000000001,-8.789,153.32,58.593999999999994,0.0,0
1581609742.56,23.926,13.672,140.137,39.062,0.0,0
1581609742.564,50.293,46.387,145.996,43.457,0.0,0
1581609742.5679998,89.844,58.105,121.094,51.758,0.0,0
1581609742.572,81.055,53.223,125.488,60.059,0.0,0
1581609742.576,75.195,23.438000000000002,146.97299999999996,87.402,0.0,0
1581609742.58,79.59,-11.719000000000001,123.04700000000001,99.609,0.0,0
1581609742.5839999,84.961,-8.789,113.77,45.41,0.0,0
1581609742.5870001,62.012,32.715,130.859,-6.836,0.0,0
1581609742.591,41.992,54.688,165.52700000000004,23.926,0.0,0
1581609742.595,59.57,17.578,171.875,26.855,0.0,0
1581609742.599,87.891,46.387,131.34799999999998,12.695,0.0,0
1581609742.603,108.398,44.922,134.27700000000002,16.602,0.0,0
1581609742.605,86.914,10.742,173.828,46.387,0.0,0
1581609742.609,60.547,60.547,165.03900000000004,64.453,0.0,0
1581609742.613,72.75399999999998,86.426,143.066,22.949,0.0,0
1581609742.617,100.586,61.523,162.109,-0.488,0.0,0
1581609742.621,101.56200000000001,28.809,172.363,16.602,0.0,0
1581609742.625,80.566,30.273000000000003,177.734,57.617,0.0,0
1581609742.629,71.289,63.965,163.57399999999996,82.52,0.0,0
1581609742.6320002,84.961,90.82,111.816,48.828,0.0,0
1581609742.6360002,78.613,58.105,127.93,52.246,0.0,0
1581609742.64,73.242,38.574,166.016,114.258,0.0,0
1581609742.644,105.95700000000001,70.801,173.34,139.16,0.0,0
1581609742.6479998,102.539,44.922,166.50400000000005,75.684,0.0,0
1581609742.65,68.359,34.668,159.668,29.785,0.0,0
1581609742.654,26.366999999999997,69.824,157.227,69.824,0.0,0
1581609742.658,19.043,54.688,137.207,115.234,0.0,0
1581609742.6620002,42.968999999999994,43.457,122.559,76.66,0.0,0
1581609742.6660001,70.312,67.87100000000001,120.117,30.761999999999997,0.0,0
1581609742.67,68.848,85.449,141.113,52.733999999999995,0.0,0
1581609742.674,57.129,47.852,139.16,78.125,0.0,0
1581609742.677,73.242,19.043,143.066,73.242,0.0,0
1581609742.681,77.148,2.93,154.785,63.477,0.0,0
1581609742.685,36.133,-2.441,135.74200000000002,56.152,0.0,0
1581609742.689,-4.395,62.012,145.02,47.852,0.0,0
1581609742.6929998,-2.93,81.055,160.156,51.27,0.0,0
1581609742.695,17.578,62.5,146.97299999999996,23.926,0.0,0
1581609742.699,32.715,62.012,116.211,8.301,0.0,0
1581609742.7029998,34.18,45.41,114.74600000000001,61.035,0.0,0
1581609742.707,22.949,-1.953,133.30100000000002,65.918,0.0,0
1581609742.711,20.996,-8.301,122.559,31.25,0.0,0
1581609742.715,13.184000000000001,23.926,108.887,33.203,0.0,0
1581609742.7189999,-14.648,43.945,95.70299999999999,55.176,0.0,0
1581609742.7220001,-20.996,35.156,102.051,58.105,0.0,0
1581609742.726,-0.977,49.316,132.32399999999998,27.831999999999997,0.0,0
1581609742.73,15.625,76.172,145.996,-0.977,0.0,0
1581609742.734,17.578,52.246,136.719,36.621,0.0,0
1581609742.738,43.945,50.293,129.88299999999998,99.12100000000001,0.0,0
1581609742.77,81.055,21.484,125.488,81.543,0.0,0
1581609742.774,66.406,-36.621,122.07,21.97300000000001,0.0,0
1581609742.7779999,48.34,13.184000000000001,112.305,11.23,0.0,0
1581609742.782,52.246,46.387,97.656,26.366999999999997,0.0,0
1581609742.786,51.758,32.715,110.84,20.996,0.0,0
1581609742.79,47.852,45.41,96.191,-4.395,0.0,0
1581609742.794,54.199,54.199,100.098,2.93,0.0,0
1581609742.7970002,62.012,41.992,138.672,67.383,0.0,0
1581609742.801,81.543,40.527,140.137,112.305,0.0,0
1581609742.805,103.516,32.227,105.469,69.824,0.0,0
1581609742.809,83.49600000000002,10.742,98.633,-4.395,0.0,0
1581609742.813,60.547,14.16,94.727,-0.977,0.0,0
1581609742.8,60.059,36.133,85.449,47.852,0.0,0
1581609742.804,99.609,48.828,115.723,12.207,0.0,0
1581609742.8079998,116.699,36.621,126.465,-34.668,0.0,0
1581609742.812,120.605,44.922,108.887,1.953,0.0,0
1581609742.816,132.812,36.133,99.609,29.785,0.0,0
1581609742.82,147.94899999999996,-3.418,90.82,28.809,0.0,0
1581609742.824,155.273,11.719000000000001,91.309,-3.906,0.0,0
1581609742.8270001,128.906,53.71100000000001,104.00399999999999,-27.344,0.0,0
1581609742.831,89.355,50.78100000000001,97.656,-16.602,0.0,0
1581609742.835,73.73,35.156,107.91,-29.296999999999997,0.0,0
1581609742.839,90.33200000000001,4.883,127.441,-69.336,0.0,0
1581609742.843,69.336,-4.395,109.375,-67.87100000000001,0.0,0
1581609742.845,14.16,49.805,77.148,-46.387,0.0,0
1581609742.849,16.113,72.266,100.586,-55.663999999999994,0.0,0
1581609742.853,62.988,45.41,117.18799999999999,-84.473,0.0,0
1581609742.857,87.402,13.184000000000001,83.008,-96.68,0.0,0
1581609742.861,62.012,0.977,104.492,-89.355,0.0,0
1581609742.865,27.344,17.578,127.441,-92.285,0.0,0
1581609742.869,48.828,10.254000000000001,137.207,-103.516,0.0,0
1581609742.8720002,101.074,-5.371,151.855,-77.637,0.0,0
1581609742.8760002,88.37899999999998,32.715,104.492,-32.715,0.0,0
1581609742.88,64.453,60.059,90.82,-14.16,0.0,0
1581609742.8839998,92.285,23.926,131.34799999999998,8.789,0.0,0
1581609742.8879998,114.258,14.648,117.676,13.672,0.0,0
1581609742.89,105.95700000000001,41.992,103.027,5.371,0.0,0
1581609742.894,67.87100000000001,29.296999999999997,107.42200000000001,41.01600000000001,0.0,0
1581609742.8979998,41.992,25.391,129.395,64.941,0.0,0
1581609742.9020002,31.25,24.414,143.555,21.484,0.0,0
1581609742.9060001,-5.859,23.438000000000002,130.371,2.93,0.0,0
1581609742.91,-22.949,0.0,105.95700000000001,50.293,0.0,0
1581609742.914,11.719000000000001,-2.93,92.773,78.613,0.0,0
1581609742.917,63.477,36.621,103.027,53.71100000000001,0.0,0
1581609742.921,99.12100000000001,28.809,100.586,20.508000000000006,0.0,0
1581609742.925,100.098,21.484,103.027,21.484,0.0,0
1581609742.929,91.309,57.129,92.773,24.901999999999997,0.0,0
1581609742.9329998,115.234,68.359,90.82,-5.371,0.0,0
1581609742.935,132.812,34.18,89.844,-48.34,0.0,0
1581609742.939,101.074,16.113,100.586,-53.71100000000001,0.0,0
1581609742.9429998,75.684,29.296999999999997,137.207,-38.086,0.0,0
1581609742.947,51.27,40.527,126.95299999999999,-97.16799999999999,0.0,0
1581609742.951,3.418,24.414,91.79700000000001,-207.03099999999998,0.0,0
1581609742.955,-79.102,8.301,92.773,-266.113,0.0,0
1581609742.9589999,-172.363,23.438000000000002,122.07,-297.363,0.0,0
1581609742.9620001,-237.793,19.531,103.027,-347.656,0.0,0
1581609742.966,-264.64799999999997,22.461,93.75,-407.715,0.0,0
1581609742.97,-285.645,62.5,119.62899999999999,-438.965,0.0,0
1581609742.974,-330.0780000000001,51.758,107.91,-427.246,0.0,0
1581609742.978,-331.055,27.344,99.609,-406.25,0.0,0
1581609742.98,-297.363,26.855,104.492,-451.17199999999997,0.0,0
1581609742.984,-276.367,25.879,100.586,-508.301,0.0,0
1581609742.988,-278.32,29.785,86.426,-462.402,0.0,0
1581609742.992,-265.625,28.809,88.37899999999998,-398.43800000000016,0.0,0
1581609742.996,-220.703,-14.648,113.281,-383.301,0.0,0
1581609743.0,-216.797,-51.27,105.95700000000001,-398.926,0.0,0
1581609743.004,-231.93400000000003,21.97300000000001,83.984,-356.445,0.0,0
1581609743.0070002,-226.562,98.145,98.633,-267.578,0.0,0
1581609743.0110002,-201.66,79.59,131.34799999999998,-235.84,0.0,0
1581609743.015,-193.359,45.41,122.559,-240.234,0.0,0
1581609743.019,-208.00799999999998,48.34,117.676,-229.49200000000002,0.0,0
1581609743.0229998,-206.055,56.152,142.09,-160.156,0.0,0
1581609743.025,-191.40599999999998,33.203,137.695,-112.305,0.0,0
1581609743.029,-180.176,2.441,116.211,-118.164,0.0,0
1581609743.033,-182.12900000000002,14.648,102.539,-129.88299999999998,0.0,0
1581609743.0370002,-191.895,27.831999999999997,105.95700000000001,-148.438,0.0,0
1581609743.0410001,-234.863,19.043,97.16799999999999,-153.32,0.0,0
1581609743.045,-229.49200000000002,37.598,98.145,-146.484,0.0,0
1581609743.049,-220.215,47.363,97.16799999999999,-169.922,0.0,0
1581609743.052,-259.76599999999996,50.78100000000001,101.074,-165.52700000000004,0.0,0
1581609743.056,-260.742,34.18,121.094,-133.789,0.0,0
1581609743.06,-235.352,-1.465,127.441,-125.977,0.0,0
1581609743.064,-236.81599999999997,0.488,136.23,-114.258,0.0,0
1581609743.0679998,-261.23,37.598,113.281,-104.492,0.0,0
1581609743.085,-246.582,67.87100000000001,91.309,-72.75399999999998,0.0,0
1581609743.089,-209.47299999999998,41.504,109.375,-41.01600000000001,0.0,0
1581609743.093,-177.734,2.93,110.84,-23.926,0.0,0
1581609743.0970001,-138.184,43.945,88.867,7.812,0.0,0
1581609743.101,-105.95700000000001,65.43,93.262,20.508000000000006,0.0,0
1581609743.105,-60.547,20.508000000000006,102.051,20.02,0.0,0
1581609743.109,-21.484,-13.184000000000001,88.867,-27.344,0.0,0
1581609743.1120002,0.488,9.277000000000001,118.164,-51.758,0.0,0
1581609743.1160002,28.32,51.27,124.023,4.395,0.0,0
1581609743.12,33.203,44.434,95.215,32.227,0.0,0
1581609743.1239998,38.086,20.996,84.473,-7.324,0.0,0
1581609743.1279998,37.109,26.366999999999997,88.37899999999998,-56.152,0.0,0
1581609743.129,5.371,53.71100000000001,110.352,-47.363,0.0,0
1581609743.133,7.812,37.109,131.836,12.695,0.0,0
1581609743.137,27.831999999999997,-18.555,86.914,12.207,0.0,0
1581609743.141,-12.207,-20.508000000000006,61.035,-47.852,0.0,0
1581609743.145,-34.668,35.156,88.37899999999998,-58.105,0.0,0
1581609743.149,-46.387,45.41,86.914,-49.805,0.0,0
1581609743.1529999,-57.129,38.574,69.824,-67.383,0.0,0
1581609743.1560001,-55.663999999999994,59.57,84.961,-119.141,0.0,0
1581609743.16,-79.59,33.691,127.441,-141.113,0.0,0
1581609743.164,-107.42200000000001,21.97300000000001,117.18799999999999,-102.539,0.0,0
1581609743.168,-98.145,34.18,95.70299999999999,-85.93799999999996,0.0,0
1581609743.1720002,-66.406,5.371,106.445,-89.355,0.0,0
1581609743.174,-83.008,-32.715,88.37899999999998,-101.074,0.0,0
1581609743.178,-125.488,16.113,68.359,-91.309,0.0,0
1581609743.1820002,-148.92600000000004,60.547,84.473,-94.727,0.0,0
1581609743.186,-152.832,23.926,78.125,-145.50799999999995,0.0,0
1581609743.19,-150.879,15.137,73.73,-187.5,0.0,0
1581609743.194,-192.87099999999998,33.691,103.516,-178.22299999999996,0.0,0
1581609743.198,-219.727,34.18,103.516,-139.648,0.0,0
1581609743.201,-191.40599999999998,29.296999999999997,91.79700000000001,-125.0,0.0,0
1581609743.205,-153.32,24.414,61.523,-127.93,0.0,0
1581609743.2089999,-129.88299999999998,-24.901999999999997,69.336,-91.309,0.0,0
1581609743.2129998,-104.98,-25.391,94.727,-12.207,0.0,0
1581609743.217,-90.82,48.828,69.824,-6.836,0.0,0
1581609743.2189999,-85.449,57.129,86.914,-62.5,0.0,0
1581609743.2229998,-75.195,12.207,123.04700000000001,-44.434,0.0,0
1581609743.2270002,-85.449,20.02,125.0,12.207,0.0,0
1581609743.231,-102.051,24.414,102.539,35.156,0.0,0
1581609743.235,-119.62899999999999,20.02,91.79700000000001,16.113,0.0,0
1581609743.2389998,-146.484,40.039,92.773,-9.766,0.0,0
1581609743.2429998,-168.457,50.293,82.52,33.691,0.0,0
1581609743.246,-179.199,15.137,64.453,98.633,0.0,0
1581609743.25,-172.852,-14.648,39.062,104.00399999999999,0.0,0
1581609743.254,-168.945,11.719000000000001,63.477,34.18,0.0,0
1581609743.258,-200.195,35.645,105.469,4.883,0.0,0
1581609743.262,-235.352,55.176,110.84,30.761999999999997,0.0,0
1581609743.264,-238.28099999999998,53.223,133.789,0.488,0.0,0
1581609743.268,-199.21900000000002,26.855,122.07,-67.87100000000001,0.0,0
1581609743.272,-179.199,-2.441,95.215,-100.586,0.0,0
1581609743.276,-202.148,-9.766,73.73,-94.727,0.0,0
1581609743.28,-187.5,21.97300000000001,77.148,-34.668,0.0,0
1581609743.284,-173.34,37.598,76.66,-10.742,0.0,0
1581609743.2879999,-181.15200000000002,51.27,57.129,-75.684,0.0,0
1581609743.2910001,-178.22299999999996,71.289,82.52,-98.145,0.0,0
1581609743.295,-152.832,56.64100000000001,104.492,-78.125,0.0,0
1581609743.299,-147.94899999999996,17.09,115.234,-58.105,0.0,0
1581609743.303,-177.24599999999995,-14.648,101.56200000000001,-68.359,0.0,0
1581609743.3070002,-224.12099999999998,0.488,70.312,-91.309,0.0,0
1581609743.309,-212.40200000000002,38.574,96.191,-62.012,0.0,0
1581609743.313,-157.227,54.199,100.586,-58.105,0.0,0
1581609743.3170002,-124.512,39.062,79.59,-95.215,0.0,0
1581609743.321,-144.043,28.809,88.37899999999998,-95.215,0.0,0
1581609743.325,-176.75799999999995,51.27,94.727,-46.387,0.0,0
1581609743.329,-169.922,46.387,70.312,-39.551,0.0,2
1581609743.333,-146.97299999999996,30.273000000000003,49.316,-89.844,0.0,0
1581609743.336,-129.88299999999998,-2.441,68.359,-76.66,0.0,0
1581609743.34,-135.254,-35.156,87.891,7.812,0.0,0
1581609743.3439999,-104.00399999999999,-8.789,94.238,63.965,0.0,0
1581609743.3479998,-73.73,40.039,74.707,21.484,0.0,0
1581609743.3520002,-81.055,53.223,63.965,4.395,0.0,0
1581609743.3539999,-87.891,44.922,66.406,77.148,0.0,0
1581609743.3579998,-100.586,50.78100000000001,65.918,71.289,0.0,0
1581609743.3620002,-59.082,31.25,93.75,17.09,0.0,0
1581609743.3660002,-13.672,5.371,103.027,12.207,0.0,0
1581609743.37,-42.48,13.672,65.43,59.57,0.0,0
1581609743.3739998,-101.074,18.555,71.289,78.613,0.0,0
1581609743.3779998,-109.375,34.18,103.027,59.57,0.0,0
1581609743.381,-74.219,38.086,99.609,31.738000000000003,0.0,0
1581609743.385,-52.246,25.391,90.33200000000001,19.043,0.0,0
1581609743.389,-37.598,-0.977,64.941,54.688,0.0,0
1581609743.393,-11.719000000000001,-1.465,37.598,50.293,0.0,0
1581609743.397,17.578,16.113,52.246,-24.414,0.0,0
1581609743.399,44.434,17.578,96.68,-41.992,0.0,0
1581609743.4029999,55.663999999999994,34.18,98.145,4.395,0.0,0
1581609743.407,29.785,29.785,81.543,23.926,0.0,0
1581609743.411,25.879,26.366999999999997,85.93799999999996,-13.184000000000001,0.0,0
1581609743.415,47.363,7.812,92.773,-55.176,0.0,0
1581609743.419,13.184000000000001,1.465,98.145,-20.02,0.0,0
1581609743.4229999,-40.039,27.344,47.852,31.738000000000003,0.0,0
1581609743.426,-58.593999999999994,28.809,32.715,7.812,0.0,0
1581609743.43,-40.527,44.922,95.70299999999999,-26.855,0.0,0
1581609743.434,-25.391,48.828,106.445,-19.531,0.0,0
1581609743.438,-31.25,26.366999999999997,101.56200000000001,15.625,0.0,0
1581609743.4420002,-60.059,27.344,86.914,28.809,0.0,0
1581609743.444,-62.012,39.551,64.941,-16.602,0.0,0
1581609743.448,-66.406,13.672,73.242,-37.598,0.0,0
1581609743.4520001,-102.051,-20.02,77.148,-9.766,0.0,0
1581609743.456,-96.191,4.395,73.242,-6.348,0.0,0
1581609743.46,-66.895,39.551,76.172,-35.156,0.0,0
1581609743.464,-66.406,43.457,74.219,-59.082,0.0,0
1581609743.468,-107.91,49.805,79.59,-41.01600000000001,0.0,0
1581609743.471,-118.652,45.41,97.656,-36.621,0.0,0
1581609743.475,-78.613,30.761999999999997,98.633,-58.593999999999994,0.0,0
1581609743.4789999,-82.52,13.672,87.891,-58.105,0.0,0
1581609743.4829998,-127.93,7.812,86.914,-54.199,0.0,0
1581609743.4870002,-146.97299999999996,11.719000000000001,94.727,-41.504,0.0,0
1581609743.505,-104.492,11.719000000000001,85.449,-38.574,0.0,0
1581609743.5089998,-68.359,36.133,84.473,-35.645,0.0,0
1581609743.5129998,-77.637,55.176,91.309,-21.484,0.0,0
1581609743.5170002,-104.98,41.992,74.219,-20.996,0.0,0
1581609743.5210001,-116.211,15.625,77.148,-27.831999999999997,0.0,0
1581609743.525,-112.305,-0.977,63.965,-88.37899999999998,0.0,0
1581609743.529,-115.234,21.97300000000001,61.523,-91.79700000000001,0.0,0
1581609743.532,-109.375,21.484,89.844,-14.648,0.0,0
1581609743.536,-93.75,-5.859,79.102,4.883,0.0,0
1581609743.54,-72.266,36.621,57.617,-4.883,0.0,0
1581609743.544,-65.918,79.59,89.844,9.277000000000001,0.0,0
1581609743.5479999,-64.453,64.453,108.398,28.32,0.0,0
1581609743.55,-66.895,46.875,88.867,21.97300000000001,0.0,0
1581609743.554,-50.293,12.207,75.684,-7.812,0.0,0
1581609743.5579998,-16.113,-28.809,83.008,-16.602,0.0,0
1581609743.562,-19.531,-14.648,77.637,17.09,0.0,0
1581609743.566,-50.293,18.066,56.64100000000001,57.617,0.0,0
1581609743.57,-50.78100000000001,24.901999999999997,58.593999999999994,24.901999999999997,0.0,0
1581609743.574,-22.949,37.109,71.777,-12.207,0.0,0
1581609743.5770001,-1.953,63.477,82.52,20.02,0.0,0
1581609743.581,5.371,39.062,82.031,80.078,0.0,0
1581609743.585,-3.906,0.488,78.125,92.773,0.0,0
1581609743.589,14.648,5.371,112.79299999999999,22.949,0.0,0
1581609743.593,43.457,12.207,128.418,-3.906,0.0,0
1581609743.595,14.16,21.484,117.676,28.809,0.0,0
1581609743.599,7.324,43.945,112.305,37.109,0.0,0
1581609743.603,50.293,31.738000000000003,106.934,32.715,0.0,0
1581609743.607,68.359,3.906,88.867,9.766,0.0,0
1581609743.611,42.968999999999994,6.348,75.195,-4.883,0.0,0
1581609743.615,18.555,33.691,81.055,8.301,0.0,0
1581609743.619,38.086,32.715,76.66,-8.301,0.0,0
1581609743.6220002,71.777,-19.043,82.52,-13.672,0.0,0
1581609743.6260002,67.383,-19.531,82.52,-12.207,0.0,0
1581609743.63,60.059,23.438000000000002,81.543,14.16,0.0,0
1581609743.6339998,77.148,52.733999999999995,99.609,48.828,0.0,0
1581609743.6379998,93.262,29.785,78.125,-16.113,0.0,0
1581609743.64,104.00399999999999,-9.766,69.336,-44.922,0.0,0
1581609743.644,92.773,21.484,81.543,-14.16,0.0,0
1581609743.6479998,78.613,31.738000000000003,78.125,-21.97300000000001,0.0,0
1581609743.6520002,99.609,5.371,70.801,-47.852,0.0,0
1581609743.6560001,98.633,4.395,77.637,-33.691,0.0,0
1581609743.66,67.383,24.414,97.16799999999999,41.992,0.0,0
1581609743.664,94.238,51.758,96.68,59.57,0.0,0
1581609743.667,113.281,51.27,87.891,6.836,0.0,0
1581609743.671,101.56200000000001,22.461,88.37899999999998,-33.691,0.0,0
1581609743.675,87.891,6.348,74.219,-13.184000000000001,0.0,0
1581609743.679,63.477,31.738000000000003,72.75399999999998,47.852,0.0,0
1581609743.6829998,47.852,47.363,75.684,29.785,0.0,0
1581609743.685,55.176,41.992,76.172,-29.296999999999997,0.0,0
1581609743.689,78.613,-13.672,88.867,-30.273000000000003,0.0,0
1581609743.6929998,98.145,-73.242,81.055,21.97300000000001,0.0,0
1581609743.697,107.42200000000001,10.254000000000001,74.219,65.918,0.0,0
1581609743.701,100.586,73.73,81.055,13.184000000000001,0.0,0
1581609743.705,59.57,62.5,78.125,-41.992,0.0,0
1581609743.7089999,7.812,61.523,68.848,5.859,0.0,0
1581609743.7120001,-9.766,50.293,61.523,46.387,0.0,0
1581609743.716,25.879,28.32,90.33200000000001,9.766,0.0,0
1581609743.72,55.176,8.789,124.023,-31.25,0.0,0
1581609743.724,16.113,14.16,100.586,-18.066,0.0,0
1581609743.728,-4.883,16.602,94.727,6.348,0.0,0
1581609743.73,28.809,31.25,79.102,-6.836,0.0,0
1581609743.734,62.5,38.574,98.145,-13.672,0.0,0
1581609743.738,50.78100000000001,11.23,95.70299999999999,1.953,0.0,0
1581609743.742,20.508000000000006,21.484,75.195,39.062,0.0,0
1581609743.746,36.621,40.527,108.887,29.296999999999997,0.0,0
1581609743.75,42.48,31.738000000000003,108.398,-46.387,0.0,0
1581609743.754,-1.953,56.64100000000001,96.191,-67.383,0.0,0
1581609743.7570002,-15.625,64.453,115.234,-34.18,0.0,0
1581609743.7610002,8.789,36.621,127.93,-30.273000000000003,0.0,0
1581609743.765,24.901999999999997,1.953,94.238,-62.012,0.0,0
1581609743.769,16.113,7.324,91.79700000000001,-73.73,0.0,0
1581609743.7729998,12.695,42.48,109.375,-19.531,0.0,0
1581609743.775,19.043,55.176,111.32799999999999,11.719000000000001,0.0,0
1581609743.779,46.387,25.391,99.12100000000001,-8.301,0.0,0
1581609743.783,71.777,-33.691,84.473,-4.395,0.0,0
1581609743.7870002,69.336,15.137,89.844,40.527,0.0,0
1581609743.7910001,46.875,65.918,87.891,64.453,0.0,0
1581609743.795,39.062,48.34,94.727,43.945,0.0,0
1581609743.799,50.78100000000001,15.137,88.867,36.133,0.0,0
1581609743.802,75.195,-7.324,77.148,87.891,0.0,0
1581609743.806,73.242,12.207,93.75,125.977,0.0,0
1581609743.81,53.71100000000001,19.043,86.914,126.95299999999999,0.0,0
1581609743.814,44.434,28.32,82.031,93.262,0.0,0
1581609743.8179998,8.301,53.223,102.539,67.87100000000001,0.0,0
1581609743.82,-12.207,40.039,113.77,109.375,0.0,0
1581609743.824,8.301,8.301,85.93799999999996,127.93,0.0,0
1581609743.8279998,59.082,0.977,62.5,79.59,0.0,0
1581609743.832,92.773,2.93,74.707,33.691,0.0,0
1581609743.836,101.074,38.086,80.566,58.593999999999994,0.0,0
1581609743.84,106.934,80.078,78.125,58.593999999999994,0.0,0
1581609743.8439999,137.695,63.965,89.844,13.672,0.0,0
1581609743.8470001,161.13299999999995,32.715,90.82,-11.23,0.0,0
1581609743.851,123.535,31.738000000000003,66.406,-28.32,0.0,0
1581609743.855,77.637,31.25,60.547,-30.761999999999997,0.0,0
1581609743.859,13.184000000000001,16.113,67.87100000000001,-88.867,0.0,0
1581609743.863,-56.152,-12.695,100.586,-191.895,0.0,0
1581609743.88,-139.648,8.301,110.84,-246.09400000000002,0.0,0
1581609743.8839998,-205.078,48.828,100.098,-255.37099999999998,0.0,0
1581609743.8879998,-212.40200000000002,33.203,96.191,-278.809,0.0,0
1581609743.8920002,-203.125,27.344,115.723,-326.66,0.0,0
1581609743.8960001,-216.797,45.898,87.891,-341.309,0.0,0
1581609743.9,-225.09799999999998,47.363,48.828,-323.73,0.0,0
1581609743.904,-205.56599999999997,41.992,54.199,-347.656,0.0,0
1581609743.907,-190.43,14.648,75.684,-399.414,0.0,0
1581609743.911,-179.199,-7.324,81.055,-394.531,0.0,0
1581609743.915,-193.84799999999998,34.18,79.102,-330.0780000000001,0.0,0
1581609743.919,-194.33599999999998,76.66,98.633,-271.973,0.0,0
1581609743.9229999,-166.016,46.875,111.32799999999999,-295.89799999999997,0.0,0
1581609743.925,-157.715,5.371,106.445,-302.246,0.0,0
1581609743.929,-165.03900000000004,27.344,73.73,-227.53900000000002,0.0,0
1581609743.9329998,-173.34,37.109,57.129,-204.102,0.0,0
1581609743.937,-175.78099999999995,41.504,75.195,-223.63299999999998,0.0,0
1581609743.941,-177.24599999999995,41.504,87.402,-224.609,0.0,0
1581609743.945,-171.387,18.066,89.355,-171.875,0.0,0
1581609743.949,-149.90200000000004,19.531,90.82,-75.195,0.0,0
1581609743.9520001,-117.676,19.043,95.215,-45.41,0.0,0
1581609743.956,-76.172,22.461,56.152,-65.918,0.0,0
1581609743.96,-66.406,56.64100000000001,8.789,-58.593999999999994,0.0,0
1581609743.964,-103.516,63.965,38.574,-41.992,0.0,0
1581609743.968,-111.816,32.715,83.008,-50.293,0.0,0
1581609743.97,-75.195,22.461,88.37899999999998,-64.453,0.0,0
1581609743.974,-66.406,36.133,100.586,-53.71100000000001,0.0,0
1581609743.978,-72.266,15.137,119.62899999999999,-9.277000000000001,0.0,0
1581609743.982,-62.5,-1.465,108.887,43.945,0.0,0
1581609743.986,-47.852,30.273000000000003,82.52,73.73,0.0,0
1581609743.99,-19.043,53.223,52.246,79.59,0.0,0
1581609743.994,-26.366999999999997,33.691,59.082,83.49600000000002,0.0,0
1581609743.9970002,-44.434,8.301,81.543,91.309,0.0,0
1581609744.0010002,-12.207,10.254000000000001,78.125,87.891,0.0,0
1581609744.005,27.344,26.366999999999997,79.59,44.922,0.0,0
1581609744.0089998,66.895,13.672,96.191,62.012,0.0,0
1581609744.0129998,101.56200000000001,4.395,100.586,127.441,0.0,0
1581609744.015,130.371,47.852,97.656,113.77,0.0,0
1581609744.019,207.03099999999998,67.87100000000001,83.984,93.262,0.0,0
1581609744.0229998,266.113,30.273000000000003,41.504,97.16799999999999,0.0,0
1581609744.0270002,270.508,7.324,46.387,123.04700000000001,0.0,0
1581609744.0310001,237.793,21.97300000000001,97.656,102.051,0.0,0
1581609744.035,223.63299999999998,25.391,114.258,39.062,0.0,0
1581609744.039,237.793,-8.789,108.398,26.855,0.0,0
1581609744.042,225.58599999999998,-13.672,80.566,64.453,0.0,0
1581609744.046,215.332,28.809,61.523,107.91,0.0,0
1581609744.05,222.168,58.593999999999994,79.102,73.242,0.0,0
1581609744.054,212.891,58.105,80.566,27.344,0.0,0
1581609744.0579998,183.59400000000002,48.34,81.543,42.968999999999994,0.0,0
1581609744.06,167.96900000000005,42.968999999999994,96.68,59.57,0.0,0
1581609744.064,165.52700000000004,4.883,101.56200000000001,28.32,0.0,0
1581609744.0679998,160.645,-3.418,90.82,-28.32,0.0,0
1581609744.072,134.27700000000002,37.109,66.406,-45.41,0.0,0
1581609744.076,118.164,43.945,72.266,-12.207,0.0,0
1581609744.08,139.16,14.16,103.027,2.93,0.0,0
1581609744.0839999,115.723,11.719000000000001,88.867,-37.598,0.0,0
1581609744.0870001,73.242,36.133,69.824,-46.387,0.0,0
1581609744.091,57.129,37.598,64.941,-6.348,0.0,0
1581609744.095,52.733999999999995,35.645,89.844,-1.465,0.0,0
1581609744.099,56.152,28.32,93.75,-31.25,0.0,0
1581609744.103,59.082,5.371,82.52,-44.922,0.0,0
1581609744.105,50.78100000000001,26.855,106.934,-41.01600000000001,0.0,0
1581609744.109,16.113,41.504,111.816,-51.27,0.0,0
1581609744.113,-4.395,32.227,84.961,-76.172,0.0,0
1581609744.117,24.901999999999997,24.901999999999997,92.773,-86.914,0.0,0
1581609744.121,53.223,21.97300000000001,87.402,-30.761999999999997,0.0,0
1581609744.125,56.64100000000001,39.062,63.965,24.901999999999997,0.0,0
1581609744.129,65.918,10.254000000000001,65.43,5.859,0.0,0
1581609744.1320002,74.219,-21.97300000000001,72.75399999999998,-11.23,0.0,0
1581609744.1360002,77.148,20.508000000000006,118.164,9.277000000000001,0.0,0
1581609744.14,70.801,41.504,137.695,68.848,0.0,0
1581609744.144,67.87100000000001,53.223,116.699,118.164,0.0,0
1581609744.1479998,83.984,41.992,101.074,109.863,0.0,0
1581609744.15,82.52,-11.23,85.449,97.16799999999999,0.0,0
1581609744.154,53.223,30.761999999999997,94.238,116.211,0.0,0
1581609744.158,34.18,67.383,94.727,112.79299999999999,0.0,0
1581609744.1620002,23.926,31.738000000000003,98.633,65.43,0.0,0
1581609744.1660001,8.301,41.504,117.18799999999999,42.968999999999994,0.0,0
1581609744.17,-17.578,56.64100000000001,107.91,75.684,0.0,0
1581609744.174,-44.922,35.156,76.172,94.727,0.0,0
1581609744.177,-11.23,25.879,67.87100000000001,79.102,0.0,0
1581609744.181,20.02,11.719000000000001,76.66,30.761999999999997,0.0,0
1581609744.185,6.836,-4.395,36.621,31.738000000000003,0.0,0
1581609744.189,-9.277000000000001,38.574,47.363,63.965,0.0,0
1581609744.1929998,-4.883,60.059,91.309,40.039,0.0,0
1581609744.195,22.461,65.43,92.285,-5.859,0.0,0
1581609744.199,31.738000000000003,61.035,89.844,-6.348,0.0,0
1581609744.2029998,40.527,15.137,99.12100000000001,36.133,0.0,0
1581609744.207,53.71100000000001,-1.465,97.16799999999999,45.41,0.0,0
1581609744.211,64.453,41.992,83.008,23.438000000000002,0.0,0
1581609744.215,93.75,61.523,71.777,30.273000000000003,0.0,0
1581609744.2189999,102.539,21.97300000000001,52.246,80.566,0.0,0
1581609744.2220001,119.62899999999999,-0.488,62.5,129.395,0.0,0
1581609744.226,129.395,8.789,77.148,91.309,0.0,0
1581609744.23,125.0,24.414,78.613,21.484,0.0,0
1581609744.234,116.211,20.996,99.609,32.227,0.0,0
1581609744.238,91.79700000000001,33.691,102.051,36.621,0.0,0
1581609744.255,93.75,64.941,88.37899999999998,-1.953,0.0,0
1581609744.2589998,93.262,36.133,95.70299999999999,-15.625,0.0,0
1581609744.2629998,79.102,19.531,74.707,-15.137,0.0,0
1581609744.2670002,57.129,41.992,64.941,12.695,0.0,0
1581609744.2710001,41.504,40.527,90.33200000000001,5.371,0.0,0
1581609744.275,55.663999999999994,31.25,80.566,-42.48,0.0,0
1581609744.279,64.941,28.32,79.59,-21.97300000000001,0.0,0
1581609744.282,62.988,27.344,93.75,36.133,0.0,0
1581609744.286,109.863,16.602,89.844,67.383,0.0,0
1581609744.29,135.74200000000002,32.227,71.289,33.203,0.0,0
1581609744.294,110.84,41.992,84.473,4.883,0.0,0
1581609744.2979999,93.75,13.672,107.91,49.805,0.0,0
1581609744.299,88.867,22.461,107.42200000000001,67.87100000000001,0.0,0
1581609744.303,95.215,9.277000000000001,89.844,36.133,0.0,0
1581609744.3070002,84.473,14.648,56.64100000000001,-8.301,0.0,0
1581609744.311,55.176,60.547,45.41,-11.719000000000001,0.0,0
1581609744.315,65.918,76.172,78.125,39.551,0.0,0
1581609744.319,83.49600000000002,61.035,78.613,14.648,0.0,0
1581609744.323,95.70299999999999,12.695,57.129,-41.01600000000001,0.0,0
1581609744.326,125.0,-12.207,95.215,-26.366999999999997,0.0,0
1581609744.33,124.512,-12.207,108.398,12.207,0.0,0
1581609744.3339999,122.559,1.465,89.844,40.527,0.0,0
1581609744.3379998,163.57399999999996,49.805,97.16799999999999,38.574,0.0,0
1581609744.342,166.99200000000005,55.176,78.613,36.621,0.0,0
1581609744.3439999,118.164,36.133,72.75399999999998,41.992,0.0,0
1581609744.3479998,87.402,30.273000000000003,107.91,36.133,0.0,0
1581609744.3520002,91.79700000000001,36.133,111.32799999999999,30.761999999999997,0.0,0
1581609744.356,69.336,42.48,75.684,-14.16,0.0,0
1581609744.36,38.086,28.809,59.082,6.348,0.0,0
1581609744.3639998,43.945,38.574,72.75399999999998,64.453,0.0,0
1581609744.3679998,65.918,34.18,72.266,57.617,0.0,0
1581609744.371,109.375,27.344,67.87100000000001,58.105,0.0,0
1581609744.375,117.18799999999999,37.109,53.71100000000001,82.52,0.0,0
1581609744.379,71.777,30.761999999999997,68.848,102.539,0.0,0
1581609744.383,79.59,25.391,111.816,76.66,0.0,0
1581609744.387,107.91,-7.324,97.656,16.113,0.0,0
1581609744.389,92.773,20.508000000000006,104.00399999999999,20.02,0.0,0
1581609744.393,50.293,62.5,115.723,53.71100000000001,0.0,0
1581609744.397,20.508000000000006,59.082,106.934,60.059,0.0,0
1581609744.401,7.812,59.57,82.031,34.18,0.0,0
1581609744.405,1.953,46.875,68.359,1.953,0.0,0
1581609744.409,-6.348,25.391,83.49600000000002,16.113,0.0,0
1581609744.4129999,2.93,9.277000000000001,104.00399999999999,36.133,0.0,0
1581609744.4160001,30.761999999999997,-16.602,77.148,28.809,0.0,0
1581609744.42,30.273000000000003,6.348,68.848,3.418,0.0,0
1581609744.424,34.668,54.688,120.117,33.691,0.0,0
1581609744.428,11.23,56.64100000000001,102.051,72.266,0.0,0
1581609744.4320002,-19.043,58.593999999999994,65.43,13.184000000000001,0.0,0
1581609744.434,0.0,43.945,89.355,-22.461,0.0,0
1581609744.438,-2.93,-9.766,103.516,-18.066,0.0,0
1581609744.4420002,-28.32,8.301,95.70299999999999,20.996,0.0,0
1581609744.446,-22.949,57.129,63.965,54.199,0.0,0
1581609744.45,-15.625,52.246,58.593999999999994,-3.418,0.0,0
1581609744.454,-34.18,2.441,75.195,-39.551,0.0,0
1581609744.458,-43.457,7.812,109.863,-8.301,0.0,0
1581609744.461,-50.293,57.617,102.051,7.812,0.0,0
1581609744.465,-40.039,59.082,73.73,-10.742,0.0,0
1581609744.4689999,-3.906,30.273000000000003,86.426,-18.555,0.0,0
1581609744.4729998,-5.371,0.977,75.684,8.301,0.0,0
1581609744.4770002,-16.113,-12.207,62.012,51.758,0.0,0
1581609744.4789999,11.23,8.789,72.266,56.64100000000001,0.0,0
1581609744.4829998,15.625,39.062,103.516,4.883,0.0,0
1581609744.4870002,6.836,53.71100000000001,97.16799999999999,1.953,0.0,0
1581609744.4910002,21.97300000000001,27.344,87.402,33.203,0.0,1
1581609744.495,53.223,1.953,94.238,33.691,0.0,0
1581609744.4989998,75.195,28.809,66.895,13.184000000000001,0.0,0
1581609744.5029998,95.215,18.066,69.824,21.97300000000001,0.0,0
1581609744.506,86.914,9.277000000000001,93.75,54.688,0.0,0
1581609744.51,81.543,54.688,114.74600000000001,46.875,0.0,0
1581609744.514,127.93,65.43,104.492,-2.441,0.0,0
1581609744.518,125.0,45.41,57.617,-31.25,0.0,0
1581609744.522,83.49600000000002,3.418,71.289,-10.742,0.0,0
1581609744.524,71.289,-20.508000000000006,108.398,5.859,0.0,0
1581609744.5279999,85.449,-1.953,91.79700000000001,-22.949,0.0,0
1581609744.532,70.801,31.25,58.593999999999994,-49.316,0.0,0
1581609744.536,28.809,61.035,56.64100000000001,-21.484,0.0,0
1581609744.54,28.809,36.133,75.195,18.066,0.0,0
1581609744.544,49.316,28.32,81.543,15.137,0.0,0
1581609744.5479999,73.242,41.504,75.195,-11.719000000000001,0.0,0
1581609744.551,81.055,34.668,78.613,-14.16,0.0,0
1581609744.555,86.914,33.691,95.70299999999999,44.434,0.0,0
1581609744.559,113.281,13.672,74.219,79.59,0.0,0
1581609744.563,123.535,6.348,69.336,20.508000000000006,0.0,0
1581609744.5670002,113.77,15.625,86.426,2.93,0.0,0
1581609744.569,104.492,22.461,105.95700000000001,55.176,0.0,0
1581609744.573,92.773,28.32,98.145,61.035,0.0,0
1581609744.5770001,95.215,25.391,65.918,33.203,0.0,0
1581609744.581,94.727,38.574,73.242,41.01600000000001,0.0,0
1581609744.585,69.336,43.457,69.336,68.359,0.0,0
1581609744.589,47.852,20.996,33.691,108.398,0.0,0
1581609744.593,65.918,14.16,41.01600000000001,102.539,0.0,0
1581609744.596,84.473,22.949,110.352,39.062,0.0,0
1581609744.6,46.875,6.348,118.652,32.715,0.0,0
1581609744.6039999,44.434,4.883,91.79700000000001,79.59,0.0,0
1581609744.6079998,51.758,29.296999999999997,85.449,55.663999999999994,0.0,0
1581609744.6120002,46.387,55.176,90.33200000000001,23.926,0.0,0
1581609744.629,36.133,46.387,84.473,42.48,0.0,0
1581609744.633,19.531,19.531,69.824,64.453,0.0,0
1581609744.637,51.758,22.461,75.684,65.43,0.0,0
1581609744.641,77.637,11.23,79.59,28.32,0.0,0
1581609744.645,71.777,15.137,72.75399999999998,24.901999999999997,0.0,0
1581609744.649,37.109,23.926,69.336,45.898,0.0,0
1581609744.6529999,25.391,37.598,89.355,19.531,0.0,0
1581609744.6560001,73.73,50.293,120.117,3.906,0.0,0
1581609744.66,55.663999999999994,2.441,91.309,-2.441,0.0,0
1581609744.664,21.484,-12.695,59.082,41.01600000000001,0.0,0
1581609744.668,34.668,34.18,74.707,88.37899999999998,0.0,0
1581609744.6720002,48.34,45.898,103.027,67.87100000000001,0.0,0
1581609744.675,37.598,42.48,116.211,46.875,0.0,0
1581609744.679,10.254000000000001,49.805,114.74600000000001,47.363,0.0,0
1581609744.6829998,9.277000000000001,62.5,90.33200000000001,66.895,0.0,0
1581609744.687,30.761999999999997,47.363,70.801,59.082,0.0,0
1581609744.691,40.527,0.977,87.402,28.809,0.0,0
1581609744.695,49.805,11.719000000000001,106.934,56.64100000000001,0.0,0
1581609744.699,60.547,15.625,98.145,99.609,0.0,0
1581609744.7020001,52.733999999999995,-3.906,91.79700000000001,82.52,0.0,0
1581609744.706,27.831999999999997,29.785,96.191,17.578,0.0,0
1581609744.71,9.277000000000001,58.593999999999994,91.79700000000001,-21.484,0.0,0
1581609744.714,3.418,68.848,97.16799999999999,20.02,0.0,0
1581609744.718,14.648,63.965,85.449,41.504,0.0,0
1581609744.72,12.207,22.949,88.37899999999998,-33.691,0.0,0
1581609744.724,6.836,20.508000000000006,95.215,-79.102,0.0,0
1581609744.728,0.0,29.785,98.145,-52.733999999999995,0.0,0
1581609744.732,-7.812,1.465,84.961,-15.625,0.0,0
1581609744.736,-12.207,-22.949,73.73,-19.043,0.0,0
1581609744.74,-44.922,16.602,87.891,-51.758,0.0,0
1581609744.744,-65.918,84.473,93.75,-34.668,0.0,0
1581609744.7470002,-62.5,79.59,97.656,-10.254000000000001,0.0,0
1581609744.7510002,-54.199,38.574,89.355,-39.062,0.0,0
1581609744.755,-49.316,16.113,89.355,-71.777,0.0,0
1581609744.7589998,-47.363,12.207,101.56200000000001,-41.992,0.0,0
1581609744.7629998,-10.742,-8.789,87.402,28.809,0.0,0
1581609744.765,47.363,-17.09,66.406,66.406,0.0,0
1581609744.769,62.988,13.184000000000001,68.359,52.733999999999995,0.0,0
1581609744.7729998,32.227,43.457,77.148,51.27,0.0,0
1581609744.7770002,19.043,65.43,82.031,87.891,0.0,0
1581609744.7810001,24.414,56.152,96.68,86.426,0.0,0
1581609744.785,9.277000000000001,37.109,109.375,56.152,0.0,0
1581609744.789,-15.137,51.758,111.32799999999999,57.129,0.0,0
1581609744.792,-37.598,16.602,74.707,78.613,0.0,0
1581609744.796,-59.57,-36.133,64.941,105.469,0.0,0
1581609744.8,-63.965,-5.859,111.816,95.70299999999999,0.0,0
1581609744.804,-44.434,20.996,93.262,53.71100000000001,0.0,0
1581609744.8079998,-50.293,35.156,52.733999999999995,65.43,0.0,0
1581609744.81,-45.898,69.336,56.152,78.125,0.0,0
1581609744.814,20.996,62.988,92.285,36.621,0.0,0
1581609744.8179998,93.262,42.48,96.68,-12.695,0.0,0
1581609744.822,98.145,40.527,84.961,-29.296999999999997,0.0,0
1581609744.826,82.52,31.738000000000003,73.73,-12.695,0.0,0
1581609744.83,66.895,4.883,59.082,-49.316,0.0,0
1581609744.8339999,65.918,9.277000000000001,76.172,-109.863,0.0,0
1581609744.8370001,10.254000000000001,-4.395,59.57,-190.918,0.0,0
1581609744.841,-91.309,0.0,72.266,-239.25799999999998,0.0,0
1581609744.845,-154.297,42.48,101.074,-254.88299999999998,0.0,0
1581609744.849,-197.266,38.574,84.961,-324.219,0.0,0
1581609744.853,-235.352,26.855,83.49600000000002,-374.023,0.0,0
1581609744.855,-263.184,29.785,92.285,-352.539,0.0,0
1581609744.859,-261.23,44.434,81.543,-325.195,0.0,0
1581609744.863,-265.625,26.366999999999997,71.289,-351.074,0.0,0
1581609744.867,-255.37099999999998,-0.488,80.078,-389.648,0.0,0
1581609744.871,-248.047,26.366999999999997,86.914,-379.88300000000004,0.0,0
1581609744.875,-240.234,41.504,86.914,-319.336,0.0,0
1581609744.879,-217.773,29.296999999999997,75.195,-291.504,0.0,0
1581609744.8820002,-180.66400000000002,18.555,72.75399999999998,-311.035,0.0,0
1581609744.8860002,-152.344,9.277000000000001,105.95700000000001,-283.203,0.0,0
1581609744.89,-146.97299999999996,6.348,104.98,-223.145,0.0,0
1581609744.894,-110.352,7.812,67.383,-186.523,0.0,0
1581609744.8979998,-58.105,25.879,51.27,-155.762,0.0,0
1581609744.9,-66.895,23.438000000000002,65.43,-161.621,0.0,0
1581609744.904,-127.93,16.602,93.262,-122.07,0.0,0
1581609744.908,-145.996,49.316,97.16799999999999,-44.922,0.0,0
1581609744.9120002,-132.812,56.64100000000001,90.82,-34.668,0.0,0
1581609744.9160001,-138.184,34.668,89.355,-38.086,0.0,0
1581609744.92,-132.812,1.465,73.73,-36.621,0.0,0
1581609744.924,-114.258,-3.418,47.852,0.488,0.0,0
1581609744.927,-104.492,2.441,52.733999999999995,17.578,0.0,0
1581609744.931,-71.777,3.906,88.37899999999998,-15.625,0.0,0
1581609744.935,-64.453,37.598,77.148,-8.789,0.0,0
1581609744.939,-94.238,54.199,88.867,-0.488,0.0,0
1581609744.9429998,-78.125,58.105,96.68,7.812,0.0,0
1581609744.945,-48.34,44.434,79.102,8.301,0.0,0
1581609744.949,-35.156,34.668,85.449,24.901999999999997,0.0,0
1581609744.9529998,-28.32,23.438000000000002,62.988,69.824,0.0,0
1581609744.957,3.906,3.418,71.777,85.93799999999996,0.0,0
1581609744.961,39.551,-0.977,69.336,69.824,0.0,0
1581609744.965,53.223,30.273000000000003,26.855,73.242,0.0,0
1581609744.9689999,37.109,32.227,61.035,63.477,0.0,0
1581609744.9720001,32.715,2.441,116.699,55.663999999999994,0.0,0
1581609744.976,95.215,0.488,113.77,45.898,0.0,0
1581609744.98,167.96900000000005,13.672,72.75399999999998,49.316,0.0,0
1581609744.984,209.47299999999998,29.785,51.27,89.844,0.0,0
1581609744.988,234.863,28.809,66.895,123.535,0.0,0
1581609745.005,270.508,35.645,77.148,134.766,0.0,0
1581609745.0089998,290.527,38.574,48.828,81.055,0.0,0
1581609745.0129998,271.973,38.574,67.383,77.637,0.0,0
1581609745.0170002,268.555,41.992,80.566,134.766,0.0,0
1581609745.0210001,284.18,-6.348,66.406,143.066,0.0,0
1581609745.025,277.832,1.465,77.637,119.141,0.0,0
1581609745.029,265.625,65.43,69.824,92.285,0.0,0
1581609745.032,248.535,54.688,60.059,96.68,0.0,0
1581609745.036,206.055,28.809,47.852,108.887,0.0,0
1581609745.04,162.109,24.901999999999997,20.02,57.129,0.0,0
1581609745.044,139.16,16.113,60.547,-2.93,0.0,0
1581609745.0479999,108.887,6.836,95.70299999999999,-8.301,0.0,0
1581609745.05,62.5,19.043,56.152,9.277000000000001,0.0,0
1581609745.054,50.78100000000001,36.133,65.43,-14.648,0.0,0
1581609745.0579998,50.293,21.97300000000001,86.426,-102.051,0.0,0
1581609745.062,19.531,25.391,83.008,-116.699,0.0,0
1581609745.066,-29.785,41.504,56.64100000000001,-101.56200000000001,0.0,0
1581609745.07,-38.574,22.461,26.366999999999997,-152.832,0.0,0
1581609745.074,-16.602,19.531,50.78100000000001,-213.37900000000002,0.0,0
1581609745.0770001,-26.366999999999997,42.48,67.87100000000001,-200.68400000000003,0.0,0
1581609745.081,-45.41,11.719000000000001,53.71100000000001,-145.50799999999995,0.0,0
1581609745.085,-53.223,-4.883,68.359,-166.50400000000005,0.0,0
1581609745.089,-54.688,29.785,96.191,-234.375,0.0,0
1581609745.093,-51.758,39.062,81.055,-235.84,0.0,0
1581609745.095,-54.199,47.852,65.43,-168.945,0.0,0
1581609745.099,-55.663999999999994,47.363,50.293,-122.559,0.0,0
1581609745.103,-27.831999999999997,35.645,54.688,-122.559,0.0,0
1581609745.107,-12.695,12.207,74.707,-136.719,0.0,0
1581609745.111,-27.344,-4.395,63.477,-102.051,0.0,0
1581609745.115,-32.227,14.648,52.246,-29.785,0.0,0
1581609745.119,-5.371,-6.836,47.852,1.465,0.0,0
1581609745.1220002,-8.789,13.672,79.102,-31.738000000000003,0.0,0
1581609745.1260002,-68.359,63.965,84.961,-30.273000000000003,0.0,0
1581609745.13,-96.191,50.293,79.102,27.344,0.0,0
1581609745.1339998,-70.312,34.18,94.727,40.527,0.0,0
1581609745.1379998,-36.621,11.23,62.988,22.949,0.0,0
1581609745.14,-7.812,-9.766,46.875,29.296999999999997,0.0,0
1581609745.144,-25.391,-9.766,61.035,54.688,0.0,0
1581609745.1479998,-42.968999999999994,21.484,75.684,61.035,0.0,0
1581609745.1520002,-48.828,30.761999999999997,91.309,-0.488,0.0,0
1581609745.1560001,-73.242,25.879,83.49600000000002,-48.34,0.0,0
1581609745.16,-92.773,34.668,67.87100000000001,-26.855,0.0,0
1581609745.164,-105.95700000000001,35.156,84.473,-31.25,0.0,0
1581609745.167,-78.613,15.625,93.262,-66.895,0.0,0
1581609745.171,-93.75,-18.555,75.684,-109.375,0.0,0
1581609745.175,-158.203,-13.184000000000001,98.633,-139.16,0.0,0
1581609745.179,-189.453,10.742,95.215,-139.648,0.0,0
1581609745.1829998,-182.12900000000002,16.602,65.918,-166.016,0.0,0
1581609745.185,-147.461,32.715,73.73,-220.215,0.0,0
1581609745.189,-90.82,42.968999999999994,81.055,-212.40200000000002,0.0,0
1581609745.1929998,-55.176,16.602,56.152,-175.293,0.0,0
1581609745.197,-37.109,25.391,30.761999999999997,-171.875,0.0,0
1581609745.201,1.465,31.738000000000003,57.617,-193.359,0.0,0
1581609745.205,11.719000000000001,-36.133,73.73,-184.57,0.0,0
1581609745.2089999,-12.207,-2.441,88.37899999999998,-140.625,0.0,0
1581609745.2120001,-7.812,58.105,83.008,-120.605,0.0,0
1581609745.216,27.831999999999997,31.25,70.312,-169.43400000000003,0.0,0
1581609745.22,35.645,37.109,87.402,-196.77700000000002,0.0,0
1581609745.224,31.738000000000003,45.41,76.172,-98.145,0.0,0
1581609745.228,7.324,23.926,55.176,-51.758,0.0,0
1581609745.23,-2.441,3.418,73.73,-109.863,0.0,0
1581609745.234,7.324,0.977,96.191,-133.789,0.0,0
1581609745.238,-27.344,15.137,78.613,-97.656,0.0,0
1581609745.242,-33.691,39.551,81.543,-51.27,0.0,0
1581609745.246,-5.371,29.785,79.59,-25.391,0.0,0
1581609745.25,18.555,32.715,71.289,-13.672,0.0,0
1581609745.254,47.852,67.383,81.055,9.277000000000001,0.0,0
1581609745.2570002,49.805,69.824,75.684,35.645,0.0,0
1581609745.2610002,36.621,30.761999999999997,83.984,7.324,0.0,0
1581609745.265,66.406,-10.254000000000001,83.008,-42.48,0.0,0
1581609745.269,77.637,-38.574,80.566,-41.01600000000001,0.0,0
1581609745.2729998,38.086,-11.719000000000001,90.82,-20.508000000000006,0.0,0
1581609745.275,22.461,58.105,98.145,-10.742,0.0,0
1581609745.279,43.945,74.707,87.891,-25.879,0.0,0
1581609745.283,31.738000000000003,37.598,65.918,-66.406,0.0,0
1581609745.2870002,10.742,20.996,75.684,-62.988,0.0,0
1581609745.2910001,12.207,37.598,67.383,-41.992,0.0,0
1581609745.295,32.715,16.602,53.71100000000001,-53.223,0.0,0
1581609745.299,51.27,-0.977,55.176,-79.59,0.0,0
1581609745.302,41.992,20.996,47.852,-69.336,0.0,0
1581609745.306,18.066,29.296999999999997,66.895,-58.105,0.0,0
1581609745.31,7.324,29.296999999999997,95.70299999999999,-84.473,0.0,0
1581609745.314,10.254000000000001,27.344,113.77,-131.34799999999998,0.0,0
1581609745.3179998,-2.93,30.761999999999997,124.512,-125.977,0.0,0
1581609745.319,-10.742,13.184000000000001,118.652,-77.148,0.0,0
1581609745.323,3.906,7.812,75.195,-73.73,0.0,0
1581609745.3270001,33.203,20.508000000000006,67.383,-88.867,0.0,0
1581609745.331,32.227,8.789,83.008,-128.418,0.0,0
1581609745.335,15.625,25.391,73.73,-109.863,0.0,0
1581609745.339,18.555,6.348,65.918,-57.617,0.0,0
1581609745.343,15.625,-17.09,72.266,-81.543,0.0,0
1581609745.346,35.156,34.668,114.258,-86.914,0.0,0
1581609745.35,43.945,56.64100000000001,117.18799999999999,-14.648,0.0,0
1581609745.3539999,24.901999999999997,20.02,86.426,58.105,0.0,0
1581609745.3579998,38.574,4.883,68.359,48.828,0.0,0
1581609745.3620002,29.785,39.062,84.473,10.742,0.0,0
1581609745.379,-18.066,50.78100000000001,104.98,29.296999999999997,0.0,0
1581609745.383,-39.062,17.09,86.426,64.453,0.0,0
1581609745.387,-42.48,15.625,88.37899999999998,45.898,0.0,0
1581609745.391,-63.965,47.852,104.98,5.859,0.0,0
1581609745.395,-100.098,25.391,89.844,-15.137,0.0,0
1581609745.399,-112.79299999999999,-2.93,79.102,-13.672,0.0,0
1581609745.4029999,-88.867,3.418,96.191,-6.348,0.0,0
1581609745.4060001,-77.148,6.836,72.266,-36.621,0.0,0
1581609745.41,-90.33200000000001,9.277000000000001,62.012,-71.289,0.0,0
1581609745.414,-102.539,14.16,89.355,-71.777,0.0,0
1581609745.418,-102.539,26.366999999999997,117.18799999999999,-75.684,0.0,0
1581609745.4220002,-62.5,47.852,129.88299999999998,-119.141,0.0,0
1581609745.424,-18.555,60.059,103.516,-125.977,0.0,0
1581609745.428,-17.578,28.809,95.70299999999999,-77.148,0.0,0
1581609745.4320002,-36.133,-21.484,104.492,-59.082,0.0,0
1581609745.436,-35.645,11.23,89.355,-88.37899999999998,0.0,0
1581609745.44,-16.113,66.406,64.453,-122.559,0.0,0
1581609745.444,-29.785,65.918,67.383,-110.84,0.0,0
1581609745.448,-48.34,41.01600000000001,101.074,-40.527,0.0,0
1581609745.451,-13.184000000000001,9.277000000000001,111.32799999999999,14.16,0.0,0
1581609745.455,29.296999999999997,16.113,84.473,23.438000000000002,0.0,0
1581609745.4589999,27.831999999999997,31.25,79.59,21.484,0.0,0
1581609745.4629998,41.01600000000001,3.418,122.559,55.176,0.0,0
1581609745.467,66.895,9.766,118.652,77.637,0.0,0
1581609745.4689999,72.266,29.296999999999997,65.43,40.527,0.0,0
1581609745.4729998,53.71100000000001,54.199,64.453,17.09,0.0,0
1581609745.4770002,37.598,65.43,103.516,58.593999999999994,0.0,0
1581609745.481,39.551,41.992,110.84,99.609,0.0,0
1581609745.485,82.031,2.93,99.12100000000001,119.141,0.0,0
1581609745.4889998,114.74600000000001,-14.648,68.359,110.84,0.0,0
1581609745.4929998,96.68,20.508000000000006,59.57,101.56200000000001,0.0,0
1581609745.496,79.59,41.504,80.566,128.418,0.0,0
1581609745.5,79.102,29.785,63.477,107.91,0.0,0
1581609745.504,102.539,28.32,62.012,63.477,0.0,0
1581609745.508,108.398,23.926,78.613,69.336,0.0,2
1581609745.512,93.75,30.761999999999997,61.035,74.219,0.0,0
1581609745.514,122.07,31.738000000000003,70.801,66.895,0.0,0
1581609745.518,162.109,10.254000000000001,88.867,65.43,0.0,0
1581609745.522,190.918,13.672,92.773,68.848,0.0,0
1581609745.526,154.785,18.066,69.336,77.148,0.0,0
1581609745.53,105.95700000000001,44.922,52.733999999999995,90.33200000000001,0.0,0
1581609745.534,130.859,49.316,78.613,62.988,0.0,0
1581609745.5379999,158.203,44.434,105.95700000000001,20.508000000000006,0.0,0
1581609745.5410001,134.27700000000002,21.484,97.656,33.203,0.0,0
1581609745.545,111.32799999999999,9.277000000000001,74.707,58.105,0.0,0
1581609745.549,132.32399999999998,48.828,82.031,23.926,0.0,0
1581609745.553,145.996,54.199,83.984,-26.366999999999997,0.0,0
1581609745.5570002,145.02,53.71100000000001,79.59,-13.184000000000001,0.0,0
1581609745.559,129.88299999999998,41.01600000000001,71.777,13.672,0.0,0
1581609745.563,122.07,29.296999999999997,73.73,-0.977,0.0,0
1581609745.5670002,151.855,46.875,71.777,-20.508000000000006,0.0,0
1581609745.571,172.852,62.5,59.082,40.039,0.0,0
1581609745.575,180.66400000000002,50.293,57.129,170.898,0.0,0
1581609745.579,194.824,27.344,68.359,239.74599999999998,0.0,0
1581609745.583,199.21900000000002,40.039,76.66,147.461,0.0,0
1581609745.586,151.855,34.18,53.71100000000001,56.64100000000001,0.0,0
1581609745.59,116.211,20.996,63.477,98.145,0.0,0
1581609745.5939999,125.977,44.922,95.70299999999999,136.23,0.0,0
1581609745.5979998,135.74200000000002,41.01600000000001,95.215,107.91,0.0,0
1581609745.6020002,126.465,32.227,89.355,60.547,0.0,0
1581609745.6039999,118.652,21.97300000000001,85.449,108.887,0.0,0
1581609745.6079998,155.762,33.691,64.941,188.965,0.0,0
1581609745.6120002,133.789,60.059,63.965,120.605,0.0,0
1581609745.6160002,86.914,35.156,92.285,-2.93,0.0,0
1581609745.62,79.102,37.109,95.70299999999999,-35.156,0.0,0
1581609745.6239998,76.172,70.312,85.449,11.23,0.0,0
1581609745.6279998,109.863,35.645,59.082,28.32,0.0,0
1581609745.631,151.855,16.602,57.129,19.531,0.0,0
1581609745.635,171.875,44.434,106.445,29.296999999999997,0.0,0
1581609745.639,181.15200000000002,56.64100000000001,80.566,42.968999999999994,0.0,0
1581609745.643,178.22299999999996,44.434,56.152,57.617,0.0,0
1581609745.647,175.293,-5.371,87.402,43.457,0.0,0
1581609745.649,171.875,-11.23,83.49600000000002,2.441,0.0,0
1581609745.6529999,126.95299999999999,39.551,77.148,0.0,0.0,0
1581609745.657,82.031,64.453,84.473,19.531,0.0,0
1581609745.661,102.051,64.453,79.102,15.137,0.0,0
1581609745.665,94.238,63.477,74.707,-5.859,0.0,0
1581609745.669,42.968999999999994,53.223,85.449,4.883,0.0,0
1581609745.6729999,15.625,36.133,78.613,29.296999999999997,0.0,0
1581609745.676,41.504,17.578,87.891,5.371,0.0,0
1581609745.68,89.355,11.719000000000001,93.262,-7.324,0.0,0
1581609745.684,89.355,6.348,55.663999999999994,-7.812,0.0,0
1581609745.688,92.285,39.551,63.965,13.184000000000001,0.0,0
1581609745.6920002,101.074,78.613,85.93799999999996,31.738000000000003,0.0,0
1581609745.695,112.305,55.663999999999994,88.867,-8.301,0.0,0
1581609745.699,130.859,11.719000000000001,93.75,2.93,0.0,0
1581609745.7029998,145.02,-3.418,120.117,77.148,0.0,0
1581609745.707,176.27,10.254000000000001,127.93,127.93,0.0,0
1581609745.711,197.75400000000002,20.02,102.051,124.512,0.0,0
1581609745.715,188.965,55.663999999999994,68.848,104.98,0.0,0
1581609745.7189999,160.156,96.68,57.617,160.156,0.0,0
1581609745.7220001,146.97299999999996,92.773,88.867,241.21099999999998,0.0,0
1581609745.726,125.977,53.223,100.586,202.637,0.0,0
1581609745.73,64.941,7.324,86.914,127.93,0.0,0
1581609745.734,28.809,0.977,90.33200000000001,125.488,0.0,0
1581609745.738,34.668,1.465,107.42200000000001,169.922,0.0,0
1581609745.755,78.613,13.184000000000001,84.961,177.24599999999995,0.0,0
1581609745.7589998,127.93,44.434,36.133,124.512,0.0,0
1581609745.7629998,106.934,34.18,62.988,90.33200000000001,0.0,0
1581609745.7670002,64.941,43.457,122.559,89.355,0.0,0
1581609745.7710001,43.945,60.059,98.633,62.5,0.0,0
1581609745.775,21.484,57.129,65.918,-13.184000000000001,0.0,0
1581609745.779,-8.789,28.809,75.684,-77.637,0.0,0
1581609745.782,-42.968999999999994,22.949,77.637,-91.309,0.0,0
1581609745.786,-83.49600000000002,46.387,62.5,-130.371,0.0,0
1581609745.79,-120.117,50.293,54.199,-217.285,0.0,0
1581609745.794,-132.32399999999998,2.93,64.453,-262.695,0.0,0
1581609745.7979999,-179.688,-19.043,69.336,-279.297,0.0,0
1581609745.8,-257.324,47.363,60.059,-295.41,0.0,0
1581609745.804,-304.199,86.426,64.941,-336.914,0.0,0
1581609745.8079998,-328.125,78.613,88.867,-393.555,0.0,0
1581609745.812,-330.0780000000001,62.012,99.12100000000001,-356.445,0.0,0
1581609745.816,-314.453,12.695,72.266,-276.855,0.0,0
1581609745.82,-310.059,1.465,52.733999999999995,-281.738,0.0,0
1581609745.824,-294.434,21.97300000000001,63.965,-308.105,0.0,0
1581609745.8270001,-239.25799999999998,39.551,41.504,-262.695,0.0,0
1581609745.831,-197.266,23.438000000000002,27.344,-198.24200000000002,0.0,0
1581609745.835,-155.762,3.906,74.219,-181.641,0.0,0
1581609745.839,-93.262,52.733999999999995,125.488,-181.15200000000002,0.0,0
1581609745.843,-50.78100000000001,58.593999999999994,126.95299999999999,-180.176,0.0,0
1581609745.845,-41.504,20.508000000000006,102.051,-137.695,0.0,0
1581609745.849,-62.988,27.831999999999997,84.473,-73.73,0.0,0
1581609745.853,-57.129,45.898,70.312,-19.043,0.0,0
1581609745.857,-30.761999999999997,45.41,54.688,12.695,0.0,0
1581609745.861,-75.684,21.97300000000001,51.27,29.296999999999997,0.0,0
1581609745.865,-104.00399999999999,-2.93,82.52,87.891,0.0,0
1581609745.869,-65.918,4.395,102.051,114.74600000000001,0.0,0
1581609745.8720002,-69.336,7.812,107.91,114.258,0.0,0
1581609745.8760002,-108.398,31.738000000000003,101.56200000000001,149.414,0.0,0
1581609745.88,-120.605,56.152,74.707,155.762,0.0,0
1581609745.8839998,-70.312,48.34,76.172,149.414,0.0,0
1581609745.8879998,-3.418,23.926,85.449,140.625,0.0,0
1581609745.89,37.598,0.488,83.49600000000002,154.785,0.0,0
1581609745.894,51.758,8.301,77.148,187.988,0.0,0
1581609745.8979998,76.66,35.156,85.449,170.41,0.0,0
1581609745.9020002,107.91,22.461,91.79700000000001,116.211,0.0,0
1581609745.9060001,121.58200000000001,3.418,90.33200000000001,104.492,0.0,0
1581609745.91,136.719,28.809,84.473,155.762,0.0,0
1581609745.914,146.484,41.504,72.75399999999998,180.176,0.0,0
1581609745.917,165.52700000000004,-0.488,74.219,180.176,0.0,0
1581609745.921,162.59799999999996,-5.371,62.988,185.05900000000003,0.0,0
1581609745.925,137.695,54.199,62.012,185.547,0.0,0
1581609745.929,156.738,57.617,93.262,191.895,0.0,0
1581609745.9329998,191.40599999999998,26.855,113.77,165.03900000000004,0.0,0
1581609745.935,214.355,21.97300000000001,71.777,130.371,0.0,0
1581609745.939,231.445,21.97300000000001,38.086,123.535,0.0,0
1581609745.9429998,259.76599999999996,30.761999999999997,74.219,153.809,0.0,0
1581609745.947,303.223,31.25,118.652,151.855,0.0,0
1581609745.951,318.848,15.137,109.375,103.027,0.0,0
1581609745.955,301.27,8.789,72.266,83.984,0.0,0
1581609745.9589999,270.508,-7.324,84.473,108.887,0.0,0
1581609745.9620001,258.789,-3.418,71.777,128.418,0.0,0
1581609745.966,272.949,20.02,21.97300000000001,111.816,0.0,0
1581609745.97,277.344,38.086,62.012,84.961,0.0,0
1581609745.974,247.07,49.316,97.16799999999999,80.078,0.0,0
1581609745.978,214.355,38.086,92.773,82.031,0.0,0
1581609745.98,201.172,25.879,93.75,59.57,0.0,0
1581609745.984,188.965,8.789,95.215,48.34,0.0,0
1581609745.988,139.16,8.789,93.262,60.059,0.0,0
1581609745.992,82.52,48.34,78.613,66.406,0.0,0
1581609745.996,80.078,49.316,57.129,73.242,0.0,0
1581609746.0,66.406,28.32,35.645,48.34,0.0,0
1581609746.004,58.105,30.761999999999997,61.523,34.668,0.0,0
1581609746.0070002,57.129,37.109,69.336,65.918,0.0,0
1581609746.0110002,39.062,22.949,90.82,77.148,0.0,0
1581609746.015,62.5,11.719000000000001,104.492,52.733999999999995,0.0,0
1581609746.019,83.984,20.996,91.309,41.992,0.0,0
1581609746.0229998,80.078,26.855,85.93799999999996,79.102,0.0,0
1581609746.025,79.102,26.855,66.895,108.398,0.0,0
1581609746.029,75.195,26.855,79.59,84.961,0.0,0
1581609746.033,65.43,24.901999999999997,80.566,71.289,0.0,0
1581609746.0370002,85.449,48.828,69.824,120.605,0.0,0
1581609746.0410001,119.141,62.012,67.87100000000001,175.78099999999995,0.0,0
1581609746.045,138.184,57.617,41.504,142.578,0.0,0
1581609746.049,144.531,41.504,47.852,93.75,0.0,0
1581609746.052,136.23,0.977,81.543,117.676,0.0,0
1581609746.056,147.461,-0.488,97.656,140.137,0.0,0
1581609746.06,141.113,31.25,90.82,102.539,0.0,0
1581609746.064,117.18799999999999,45.898,94.238,49.316,0.0,0
1581609746.0679998,85.93799999999996,55.176,105.469,52.246,0.0,0
1581609746.07,18.066,40.527,86.914,78.125,0.0,0
1581609746.074,-17.578,22.461,34.18,83.984,0.0,0
1581609746.0779998,-22.949,30.273000000000003,32.715,68.359,0.0,0
1581609746.082,-57.617,23.926,55.663999999999994,33.691,0.0,0
1581609746.086,-72.266,23.438000000000002,63.965,21.484,0.0,0
1581609746.09,-79.102,40.527,81.055,9.277000000000001,0.0,0
1581609746.0939999,-75.195,22.949,93.75,-25.391,0.0,0
1581609746.0970001,-50.78100000000001,9.766,120.117,-18.066,0.0,0
1581609746.101,-42.968999999999994,20.996,108.887,34.668,0.0,0
1581609746.105,-48.828,36.133,79.59,81.055,0.0,0
1581609746.109,-48.828,54.688,71.289,78.125,0.0,0
1581609746.113,-44.434,39.062,78.125,14.16,0.0,0
1581609746.13,-58.593999999999994,1.465,94.727,-29.785,0.0,0
1581609746.1339998,-79.59,21.97300000000001,88.37899999999998,-30.761999999999997,0.0,0
1581609746.1379998,-61.523,45.41,87.891,-25.391,0.0,0
1581609746.1420002,-27.831999999999997,-0.977,101.56200000000001,-24.414,0.0,0
1581609746.1460001,-16.602,-28.32,84.473,-20.02,0.0,0
1581609746.15,-8.789,19.043,51.27,14.648,0.0,0
1581609746.154,-1.465,48.34,76.66,28.32,0.0,0
1581609746.157,4.395,55.663999999999994,108.887,-1.465,0.0,0
1581609746.161,13.672,56.152,95.215,-5.859,0.0,0
1581609746.165,-0.977,51.27,75.684,20.508000000000006,0.0,0
1581609746.169,-2.441,17.578,84.473,54.688,0.0,0
1581609746.1729999,45.898,-11.719000000000001,100.586,62.012,0.0,0
1581609746.175,40.527,9.766,82.52,62.012,0.0,0
1581609746.179,6.836,5.859,83.008,125.0,0.0,0
1581609746.1829998,2.93,15.137,100.586,180.66400000000002,0.0,0
1581609746.187,9.277000000000001,62.012,92.285,206.055,0.0,0
1581609746.191,12.695,72.266,66.895,195.312,0.0,0
1581609746.195,-0.977,44.434,49.316,161.13299999999995,0.0,0
1581609746.199,-8.301,22.949,61.035,176.27,0.0,0
1581609746.2020001,2.441,2.93,81.055,177.24599999999995,0.0,0
1581609746.206,10.742,4.883,62.988,148.438,0.0,0
1581609746.21,14.16,18.066,47.852,122.07,0.0,0
1581609746.214,-6.836,18.555,91.79700000000001,122.559,0.0,0
1581609746.218,-42.968999999999994,29.785,112.79299999999999,130.859,0.0,0
1581609746.22,-44.434,40.039,94.238,105.469,0.0,0
1581609746.224,-45.898,49.316,76.172,82.031,0.0,0
1581609746.228,-50.78100000000001,39.062,59.082,84.961,0.0,0
1581609746.232,-61.523,36.621,56.64100000000001,68.848,0.0,0
1581609746.236,-65.43,32.715,65.918,29.296999999999997,0.0,0
1581609746.24,-60.547,-2.93,81.055,-13.184000000000001,0.0,0
1581609746.244,-78.125,5.859,95.70299999999999,-20.02,0.0,0
1581609746.2470002,-87.402,61.035,111.816,0.977,0.0,0
1581609746.2510002,-69.824,35.645,87.891,-17.09,0.0,0
1581609746.255,-51.758,-12.695,54.688,-54.199,0.0,0
1581609746.2589998,-49.805,23.926,66.406,-32.715,0.0,0
1581609746.2629998,-63.477,46.387,44.434,39.062,0.0,0
1581609746.265,-53.71100000000001,7.812,47.363,73.73,0.0,0
1581609746.269,-41.992,21.484,72.266,45.898,0.0,0
1581609746.2729998,-53.223,65.43,85.93799999999996,37.109,0.0,0
1581609746.2770002,-68.359,46.875,85.449,81.055,0.0,0
1581609746.2810001,-71.289,10.254000000000001,83.49600000000002,136.23,0.0,0
1581609746.285,-39.551,14.648,80.078,115.723,0.0,0
1581609746.289,-29.785,41.992,68.848,68.848,0.0,0
1581609746.292,-68.359,30.273000000000003,23.438000000000002,125.488,0.0,0
1581609746.296,-96.191,1.953,13.184000000000001,184.57,0.0,0
1581609746.3,-92.773,29.296999999999997,73.73,168.945,0.0,0
1581609746.304,-100.586,40.527,90.33200000000001,110.352,0.0,0
1581609746.3079998,-125.0,34.18,81.055,119.141,0.0,0
1581609746.31,-135.74200000000002,16.602,83.008,170.41,0.0,0
1581609746.314,-100.586,4.883,93.262,173.828,0.0,0
1581609746.3179998,-88.37899999999998,10.742,72.75399999999998,127.441,0.0,0
1581609746.322,-107.91,32.227,31.25,95.70299999999999,0.0,0
1581609746.326,-125.488,45.898,22.949,117.676,0.0,0
1581609746.33,-102.539,40.039,42.48,154.785,0.0,0
1581609746.3339999,-58.593999999999994,25.879,58.593999999999994,132.812,0.0,0
1581609746.3370001,-62.988,17.09,47.852,68.359,0.0,0
1581609746.341,-64.941,25.879,78.613,86.426,0.0,0
1581609746.345,-35.156,16.113,119.141,128.418,0.0,0
1581609746.349,-36.621,8.301,89.355,88.867,0.0,0
1581609746.353,-57.617,17.09,68.848,34.668,0.0,0
1581609746.355,-63.965,35.645,76.66,54.199,0.0,0
1581609746.359,-67.87100000000001,56.64100000000001,84.473,62.5,0.0,0
1581609746.363,-48.34,25.879,89.355,49.316,0.0,0
1581609746.367,-51.758,9.277000000000001,67.383,27.831999999999997,0.0,0
1581609746.371,-58.105,39.062,61.035,40.527,0.0,0
1581609746.375,-52.246,39.551,69.824,88.867,0.0,0
1581609746.379,-35.156,35.156,59.57,81.543,0.0,0
1581609746.3820002,-16.602,26.855,63.477,30.761999999999997,0.0,0
1581609746.3860002,-41.504,19.531,80.566,34.668,0.0,0
1581609746.39,-38.086,10.742,70.312,104.00399999999999,0.0,0
1581609746.394,-4.395,-8.789,65.43,138.672,0.0,0
1581609746.3979998,10.742,4.395,71.777,109.863,0.0,0
1581609746.4,12.207,61.035,79.59,87.402,0.0,0
1581609746.404,10.254000000000001,66.895,94.238,138.672,0.0,0
1581609746.408,9.277000000000001,37.109,87.891,178.71099999999996,0.0,0
1581609746.4120002,35.645,30.761999999999997,85.93799999999996,166.99200000000005,0.0,0
1581609746.4160001,41.992,-3.906,87.891,155.762,0.0,0
1581609746.42,13.184000000000001,-28.32,85.449,191.40599999999998,0.0,0
1581609746.424,-3.906,-40.039,82.031,240.234,0.0,0
1581609746.427,15.137,-4.395,86.914,241.21099999999998,0.0,0
1581609746.431,40.039,55.663999999999994,108.887,213.37900000000002,0.0,0
1581609746.435,44.434,33.691,116.699,192.38299999999998,0.0,0
1581609746.439,39.062,-3.418,105.95700000000001,222.65599999999998,0.0,0
1581609746.4429998,27.831999999999997,-2.93,76.172,228.02700000000002,0.0,0
1581609746.46,22.949,20.508000000000006,67.87100000000001,161.621,0.0,0
1581609746.464,17.578,30.761999999999997,69.824,125.0,0.0,0
1581609746.468,3.906,9.277000000000001,77.148,131.34799999999998,0.0,0
1581609746.4720001,14.648,-4.883,87.402,134.766,0.0,0
1581609746.476,42.968999999999994,4.883,85.449,113.77,0.0,0
1581609746.48,27.831999999999997,31.25,73.73,84.961,0.0,0
1581609746.484,-11.719000000000001,52.733999999999995,53.71100000000001,76.66,0.0,0
1581609746.4870002,5.859,47.852,66.895,107.42200000000001,0.0,0
1581609746.4910002,62.988,29.296999999999997,88.867,109.375,0.0,0
1581609746.495,74.707,-2.441,72.75399999999998,52.733999999999995,0.0,0
1581609746.4989998,51.27,0.977,81.055,64.941,0.0,0
1581609746.5029998,28.809,6.836,95.70299999999999,128.906,0.0,0
1581609746.504,25.879,15.137,81.055,128.906,0.0,0
1581609746.508,47.852,50.78100000000001,84.473,99.12100000000001,0.0,0
1581609746.512,6.348,33.203,78.125,95.70299999999999,0.0,0
1581609746.516,-39.551,4.395,70.801,122.07,0.0,0
1581609746.52,-23.926,16.113,72.266,144.531,0.0,0
1581609746.524,-21.97300000000001,32.715,81.543,110.84,0.0,0
1581609746.5279999,-8.301,29.785,97.656,105.95700000000001,0.0,0
1581609746.5310001,9.766,20.996,78.613,157.715,0.0,0
1581609746.535,28.809,41.504,57.129,166.50400000000005,0.0,0
1581609746.539,36.133,58.105,72.266,125.977,0.0,0
1581609746.543,35.156,47.852,89.844,85.93799999999996,0.0,0
1581609746.5470002,39.551,33.691,79.102,103.516,0.0,0
1581609746.549,34.18,-15.625,56.152,136.23,0.0,0
1581609746.553,38.086,12.695,49.805,143.555,0.0,0
1581609746.5570002,29.785,37.598,78.613,121.58200000000001,0.0,0
1581609746.561,-8.789,11.719000000000001,98.145,109.375,0.0,0
1581609746.565,-65.918,45.898,81.055,143.555,0.0,0
1581609746.569,-96.68,55.176,62.5,140.625,0.0,0
1581609746.573,-76.172,34.18,55.663999999999994,117.18799999999999,0.0,0
1581609746.576,-48.828,28.32,70.312,137.207,0.0,0
1581609746.58,-72.75399999999998,60.059,53.223,141.602,0.0,0
1581609746.5839999,-79.102,43.945,23.926,75.195,0.0,0
1581609746.5879998,-33.203,-23.438000000000002,82.031,-13.672,0.0,0
1581609746.592,-45.898,-8.301,120.117,-53.223,0.0,0
1581609746.5939999,-104.492,34.668,87.402,-61.035,0.0,0
1581609746.5979998,-115.723,33.203,78.125,-93.262,0.0,0
1581609746.6020002,-96.68,36.621,81.543,-142.578,0.0,0
1581609746.606,-93.262,64.941,70.312,-165.03900000000004,0.0,0
1581609746.61,-129.395,69.824,63.477,-150.879,0.0,0
1581609746.6139998,-176.75799999999995,29.296999999999997,62.5,-188.965,0.0,0
1581609746.6179998,-238.77,10.742,66.895,-283.203,0.0,0
1581609746.621,-293.457,35.645,86.426,-351.074,0.0,0
1581609746.625,-356.934,42.48,68.848,-374.023,0.0,0
1581609746.629,-415.039,18.066,70.801,-350.586,0.0,1
1581609746.633,-415.039,7.812,95.215,-355.957,0.0,0
1581609746.637,-399.902,32.227,63.477,-395.02,0.0,0
1581609746.639,-408.691,34.668,68.359,-358.398,0.0,0
1581609746.643,-448.73,56.152,89.844,-255.37099999999998,0.0,0
1581609746.647,-454.59,59.57,73.242,-231.93400000000003,0.0,0
1581609746.651,-437.01199999999994,6.348,74.219,-285.156,0.0,0
1581609746.655,-403.809,11.23,95.70299999999999,-317.871,0.0,0
1581609746.659,-372.559,32.227,103.516,-275.39099999999996,0.0,0
1581609746.6629999,-355.469,20.996,100.586,-219.727,0.0,0
1581609746.6660001,-305.176,7.812,89.355,-227.53900000000002,0.0,0
1581609746.67,-237.305,18.066,74.219,-228.02700000000002,0.0,0
1581609746.674,-166.50400000000005,30.273000000000003,93.262,-169.922,0.0,0
1581609746.678,-140.137,40.527,94.238,-82.52,0.0,0
1581609746.6820002,-146.97299999999996,52.733999999999995,71.289,-34.668,0.0,0
1581609746.684,-124.023,53.71100000000001,72.266,-71.777,0.0,0
1581609746.688,-125.488,42.48,83.49600000000002,-63.965,0.0,0
1581609746.6920002,-157.715,47.852,74.707,-20.02,0.0,0
1581609746.696,-157.715,54.688,53.223,-23.438000000000002,0.0,0
1581609746.7,-131.34799999999998,42.968999999999994,76.66,-42.968999999999994,0.0,0
1581609746.704,-121.58200000000001,38.086,115.723,-41.504,0.0,0
1581609746.708,-116.699,25.391,126.465,2.441,0.0,0
1581609746.711,-73.242,5.371,87.891,44.922,0.0,0
1581609746.715,-10.254000000000001,9.766,52.733999999999995,66.406,0.0,0
1581609746.7189999,10.254000000000001,20.996,64.941,53.223,0.0,0
1581609746.7229998,8.301,31.738000000000003,83.984,61.035,0.0,0
1581609746.7270002,9.766,41.504,108.398,89.844,0.0,0
1581609746.7289999,40.527,49.316,122.559,77.637,0.0,0
1581609746.7329998,92.773,49.316,116.211,48.34,0.0,0
1581609746.7370002,121.58200000000001,14.648,82.52,78.125,0.0,0
1581609746.7410002,138.672,8.301,83.49600000000002,151.855,0.0,0
1581609746.745,155.762,37.109,82.031,169.922,0.0,0
1581609746.7489998,207.52,46.875,38.574,152.344,0.0,0
1581609746.7529998,263.184,48.34,26.366999999999997,187.988,0.0,0
1581609746.756,268.066,56.152,48.828,225.58599999999998,0.0,0
1581609746.76,308.105,40.039,73.73,237.305,0.0,0
1581609746.764,360.352,-15.137,68.848,215.332,0.0,0
1581609746.768,366.211,15.137,65.918,157.715,0.0,0
1581609746.772,345.215,65.43,80.078,162.109,0.0,0
1581609746.774,337.402,68.848,90.82,224.12099999999998,0.0,0
1581609746.7779999,365.723,17.09,73.242,247.07,0.0,0
1581609746.782,345.70300000000015,-12.207,36.621,210.938,0.0,0
1581609746.786,299.316,30.273000000000003,21.97300000000001,191.895,0.0,0
1581609746.79,284.18,27.831999999999997,56.152,198.73,0.0,0
1581609746.794,239.25799999999998,49.805,75.684,124.023,0.0,0
1581609746.7979999,179.688,63.477,66.895,37.109,0.0,0
1581609746.801,153.809,31.25,86.426,27.344,0.0,0
1581609746.805,126.465,24.901999999999997,94.727,22.461,0.0,0
1581609746.809,135.254,18.066,79.59,20.508000000000006,0.0,0
1581609746.813,178.22299999999996,-7.324,50.78100000000001,0.977,0.0,0
1581609746.8170002,163.57399999999996,22.949,40.039,-9.277000000000001,0.0,0
1581609746.82,117.676,73.73,83.008,-2.441,0.0,0
1581609746.824,104.00399999999999,61.035,76.66,-19.043,0.0,0
1581609746.8279998,105.469,30.273000000000003,81.543,-22.949,0.0,0
1581609746.832,92.773,37.109,95.70299999999999,-41.504,0.0,0
1581609746.836,48.34,32.715,76.66,-49.316,0.0,0
1581609746.84,31.738000000000003,1.465,59.57,0.0,0.0,0
1581609746.8439999,48.34,20.02,48.828,5.859,0.0,0
1581609746.8470001,42.48,52.733999999999995,53.71100000000001,-35.156,0.0,0
1581609746.851,11.23,23.438000000000002,62.988,-32.227,0.0,0
1581609746.855,12.695,20.508000000000006,77.637,3.418,0.0,0
1581609746.859,37.598,63.965,80.078,14.16,0.0,0
1581609746.863,62.5,36.133,66.406,18.555,0.0,0
1581609746.88,52.246,22.949,74.707,62.988,0.0,0
1581609746.8839998,29.296999999999997,34.668,72.266,110.84,0.0,0
1581609746.8879998,40.039,31.25,43.945,118.652,0.0,0
1581609746.8920002,51.27,61.523,70.312,57.617,0.0,0
1581609746.8960001,42.48,19.531,115.723,31.738000000000003,0.0,0
1581609746.9,-5.371,-11.719000000000001,107.91,75.195,0.0,0
1581609746.904,-34.18,20.02,109.375,82.52,0.0,0
1581609746.907,-33.691,21.484,111.32799999999999,50.293,0.0,0
1581609746.911,-69.824,41.01600000000001,89.355,11.719000000000001,0.0,0
1581609746.915,-123.04700000000001,63.965,100.586,16.602,0.0,0
1581609746.919,-153.32,63.965,118.164,31.25,0.0,0
1581609746.9229999,-151.36700000000005,38.086,96.191,0.0,0.0,0
1581609746.925,-175.293,-2.441,69.336,-15.625,0.0,0
1581609746.929,-227.051,-8.789,66.895,-9.766,0.0,0
1581609746.9329998,-253.418,40.039,83.984,-15.137,0.0,0
1581609746.937,-245.605,62.988,93.262,-48.828,0.0,0
1581609746.941,-187.5,17.578,80.078,-111.32799999999999,0.0,0
1581609746.945,-148.92600000000004,-9.277000000000001,74.219,-102.051,0.0,0
1581609746.949,-188.965,14.16,82.52,-53.71100000000001,0.0,0
1581609746.9520001,-191.895,34.18,90.82,-58.105,0.0,0
1581609746.956,-160.156,48.828,62.988,-106.445,0.0,0
1581609746.96,-146.484,13.672,58.105,-115.723,0.0,0
1581609746.964,-114.258,-15.137,102.051,-41.504,0.0,0
1581609746.968,-100.586,7.812,108.398,-23.926,0.0,0
1581609746.97,-80.078,19.531,90.33200000000001,-49.316,0.0,0
1581609746.974,-43.457,6.348,91.79700000000001,-37.598,0.0,0
1581609746.978,-58.593999999999994,5.859,100.586,-21.97300000000001,0.0,0
1581609746.982,-56.152,7.324,85.449,53.71100000000001,0.0,0
1581609746.986,-10.742,24.414,56.152,61.035,0.0,0
1581609746.99,38.574,45.898,59.57,-6.348,0.0,0
1581609746.994,43.457,23.926,78.125,-5.371,0.0,0
1581609746.9970002,33.203,0.977,111.816,25.391,0.0,0
1581609747.0010002,27.831999999999997,4.883,91.79700000000001,56.152,0.0,0
1581609747.005,25.879,17.09,83.984,39.551,0.0,0
1581609747.0089998,46.387,19.043,106.445,30.273000000000003,0.0,0
1581609747.0129998,53.71100000000001,9.766,85.93799999999996,83.49600000000002,0.0,0
1581609747.015,81.543,25.391,66.895,136.23,0.0,0
1581609747.019,114.258,15.625,45.898,125.0,0.0,0
1581609747.0229998,154.297,-21.97300000000001,56.152,82.52,0.0,0
1581609747.0270002,195.312,12.207,83.008,115.723,0.0,0
1581609747.0310001,234.375,58.105,70.801,152.344,0.0,0
1581609747.035,268.555,9.277000000000001,68.848,102.051,0.0,0
1581609747.039,303.711,-7.812,91.79700000000001,70.312,0.0,0
1581609747.042,297.363,33.691,79.59,77.637,0.0,0
1581609747.046,252.44099999999997,24.901999999999997,54.688,93.75,0.0,0
1581609747.05,268.066,16.113,66.406,120.117,0.0,0
1581609747.054,308.105,26.366999999999997,66.895,84.961,0.0,0
1581609747.0579998,305.176,32.227,65.43,56.64100000000001,0.0,0
1581609747.06,292.48,14.648,79.59,64.453,0.0,0
1581609747.064,324.219,-1.465,86.426,34.18,0.0,0
1581609747.0679998,357.91,33.203,85.449,4.883,0.0,0
1581609747.072,334.473,31.25,58.105,14.648,0.0,0
1581609747.076,306.152,30.761999999999997,51.27,71.777,0.0,0
1581609747.08,294.922,41.01600000000001,53.71100000000001,75.195,0.0,0
1581609747.0839999,304.199,15.137,50.293,55.663999999999994,0.0,0
1581609747.0870001,311.52299999999997,14.16,60.547,84.961,0.0,0
1581609747.091,313.4770000000001,8.789,66.406,119.141,0.0,0
1581609747.095,347.656,8.301,94.727,119.141,0.0,0
1581609747.099,332.52,21.97300000000001,98.633,41.992,0.0,0
1581609747.103,291.504,45.898,73.73,8.301,0.0,0
1581609747.105,293.945,67.383,69.824,78.613,0.0,0
1581609747.109,275.879,50.78100000000001,62.988,119.141,0.0,0
1581609747.113,252.44099999999997,22.461,68.848,108.887,0.0,0
1581609747.117,252.44099999999997,-3.418,59.082,84.961,0.0,0
1581609747.121,243.16400000000002,-14.648,43.457,83.984,0.0,0
1581609747.125,232.91,9.277000000000001,76.172,102.539,0.0,0
1581609747.129,199.21900000000002,42.48,87.891,68.848,0.0,0
1581609747.1320002,163.57399999999996,23.438000000000002,66.406,-1.465,0.0,0
1581609747.1360002,137.207,10.742,81.543,-35.645,0.0,0
1581609747.14,99.12100000000001,44.434,89.844,-28.32,0.0,0
1581609747.144,83.008,66.406,65.43,-17.578,0.0,0
1581609747.1479998,98.633,45.41,63.965,-41.992,0.0,0
1581609747.15,87.402,3.418,79.59,-68.848,0.0,0
1581609747.154,70.312,23.438000000000002,56.152,-52.733999999999995,0.0,0
1581609747.158,58.593999999999994,40.527,33.691,-50.78100000000001,0.0,0
1581609747.1620002,68.848,19.043,51.758,-83.008,0.0,0
1581609747.1660001,47.363,6.348,71.777,-135.74200000000002,0.0,0
1581609747.17,16.602,17.578,90.33200000000001,-123.535,0.0,0
1581609747.174,-1.465,29.785,83.008,-82.031,0.0,0
1581609747.177,-19.043,46.387,72.266,-77.637,0.0,0
1581609747.181,-17.578,40.039,81.543,-120.605,0.0,0
1581609747.185,-57.617,-8.301,54.688,-155.762,0.0,0
1581609747.189,-101.074,19.531,50.293,-121.58200000000001,0.0,0
1581609747.1929998,-101.56200000000001,63.477,70.312,-114.258,0.0,0
1581609747.195,-66.895,40.039,66.406,-147.461,0.0,0
1581609747.199,-81.055,10.254000000000001,58.105,-164.062,0.0,0
1581609747.2029998,-149.414,17.09,86.914,-131.34799999999998,0.0,0
1581609747.207,-151.855,27.344,99.609,-104.98,0.0,0
1581609747.211,-137.695,33.203,72.75399999999998,-162.109,0.0,0
1581609747.215,-166.016,-15.137,68.359,-186.035,0.0,0
1581609747.2189999,-195.312,-60.547,60.547,-145.02,0.0,0
1581609747.2220001,-195.312,7.812,57.129,-143.066,0.0,0
1581609747.226,-152.832,68.848,74.707,-152.832,0.0,0
1581609747.23,-149.414,77.637,50.293,-172.852,0.0,0
1581609747.234,-172.852,64.453,50.293,-150.879,0.0,0
1581609747.238,-188.477,18.555,95.215,-109.863,0.0,0
1581609747.255,-215.332,-2.93,70.312,-135.74200000000002,0.0,0
1581609747.2589998,-222.168,15.137,66.406,-162.59799999999996,0.0,0
1581609747.2629998,-214.355,16.602,90.33200000000001,-155.273,0.0,0
1581609747.2670002,-242.188,-13.672,86.426,-132.32399999999998,0.0,0
1581609747.2710001,-266.113,0.488,54.199,-130.371,0.0,0
1581609747.275,-259.76599999999996,24.901999999999997,33.203,-143.066,0.0,0
1581609747.279,-239.74599999999998,28.32,72.266,-132.32399999999998,0.0,0
1581609747.282,-222.168,46.387,70.801,-104.00399999999999,0.0,0
1581609747.286,-221.68,47.852,48.34,-88.867,0.0,0
1581609747.29,-203.613,23.438000000000002,76.66,-119.62899999999999,0.0,0
1581609747.294,-177.734,17.578,96.68,-130.371,0.0,0
1581609747.2979999,-145.996,-2.93,102.539,-71.777,0.0,0
1581609747.3,-136.23,-11.23,83.984,-10.742,0.0,0
1581609747.304,-123.535,20.508000000000006,67.383,-25.391,0.0,0
1581609747.3079998,-84.961,29.785,65.43,-73.242,0.0,0
1581609747.312,-83.49600000000002,58.593999999999994,87.891,-56.152,0.0,0
1581609747.316,-68.848,30.761999999999997,83.49600000000002,-0.488,0.0,0
1581609747.32,-33.203,-29.785,66.406,19.531,0.0,0
1581609747.324,-31.738000000000003,19.043,64.453,-23.438000000000002,0.0,0
1581609747.3270001,-45.898,69.824,65.43,-34.668,0.0,0
1581609747.331,-69.824,51.758,51.758,22.949,0.0,0
1581609747.335,-82.52,47.852,53.223,41.992,0.0,0
1581609747.339,-76.172,52.246,67.87100000000001,-3.906,0.0,0
1581609747.343,-73.242,28.32,67.383,-41.992,0.0,0
1581609747.345,-69.824,-12.695,74.707,-35.156,0.0,0
1581609747.349,-62.012,-21.484,66.895,-7.324,0.0,0
1581609747.353,-33.203,23.438000000000002,66.406,-8.301,0.0,0
1581609747.357,4.883,40.039,53.71100000000001,-5.859,0.0,0
1581609747.361,-7.324,28.32,44.434,34.668,0.0,0
1581609747.365,-38.086,31.738000000000003,72.266,24.414,0.0,0
1581609747.369,-33.203,61.523,86.914,-20.508000000000006,0.0,0
1581609747.3720002,-25.879,55.663999999999994,72.75399999999998,-42.968999999999994,0.0,0
1581609747.3760002,-37.109,21.97300000000001,41.992,-21.97300000000001,0.0,0
1581609747.38,-44.434,8.789,44.922,47.363,0.0,0
1581609747.3839998,-25.391,-2.441,66.895,84.961,0.0,0
1581609747.3879998,-20.508000000000006,9.277000000000001,41.01600000000001,84.473,0.0,0
1581609747.39,-52.733999999999995,11.719000000000001,52.733999999999995,78.125,0.0,0
1581609747.394,-103.516,21.484,78.125,71.289,0.0,0
1581609747.3979998,-126.465,72.266,83.49600000000002,55.663999999999994,0.0,0
1581609747.4020002,-124.023,60.547,95.215,14.16,0.0,0
1581609747.4060001,-110.84,26.855,96.68,14.16,0.0,0
1581609747.41,-95.215,35.156,73.73,64.941,0.0,0
1581609747.414,-51.27,28.32,63.477,84.473,0.0,0
1581609747.417,25.879,24.414,49.805,91.79700000000001,0.0,0
1581609747.421,48.34,25.879,4.395,63.965,0.0,0
1581609747.425,50.78100000000001,14.16,50.293,51.758,0.0,0
1581609747.429,47.363,-2.441,96.191,68.359,0.0,0
1581609747.4329998,-1.953,-10.742,65.918,-11.23,0.0,0
1581609747.435,-67.383,32.227,67.383,-136.23,0.0,0
1581609747.439,-118.652,59.082,80.566,-193.84799999999998,0.0,0
1581609747.4429998,-166.016,55.176,70.801,-188.477,0.0,0
1581609747.447,-199.21900000000002,35.645,48.34,-211.426,0.0,0
1581609747.451,-199.21900000000002,10.742,36.621,-285.156,0.0,0
1581609747.455,-225.09799999999998,5.371,35.645,-339.844,0.0,0
1581609747.4589999,-253.90599999999998,16.113,40.527,-333.0080000000001,0.0,0
1581609747.4620001,-262.695,-17.578,36.133,-294.434,0.0,0
1581609747.466,-243.16400000000002,-40.039,35.156,-317.383,0.0,0
1581609747.47,-230.46900000000002,38.574,73.73,-389.648,0.0,0
1581609747.474,-218.262,51.27,87.891,-364.746,0.0,0
1581609747.478,-174.31599999999997,-19.531,74.707,-321.777,0.0,0
1581609747.48,-145.50799999999995,5.859,86.426,-346.191,0.0,0
1581609747.484,-160.156,65.918,87.891,-375.0,0.0,0
1581609747.488,-178.71099999999996,43.457,66.895,-328.125,0.0,0
1581609747.492,-163.57399999999996,26.855,59.082,-250.0,0.0,0
1581609747.496,-140.625,23.438000000000002,62.988,-244.141,0.0,0
1581609747.5,-128.906,28.809,69.336,-256.348,0.0,0
1581609747.504,-137.207,37.598,66.406,-223.145,0.0,0
1581609747.5070002,-167.96900000000005,38.574,65.918,-166.50400000000005,0.0,0
1581609747.5110002,-172.363,17.09,85.93799999999996,-121.58200000000001,0.0,0
1581609747.515,-139.16,-12.695,85.93799999999996,-130.859,0.0,0
1581609747.519,-142.09,12.207,79.59,-121.58200000000001,0.0,0
1581609747.5229998,-161.621,32.715,89.844,-63.965,0.0,0
1581609747.525,-177.24599999999995,27.344,96.191,-66.895,0.0,0
1581609747.529,-154.297,28.32,87.402,-95.70299999999999,0.0,0
1581609747.533,-134.766,6.836,54.688,-108.398,0.0,0
1581609747.5370002,-158.203,23.926,24.414,-91.309,0.0,0
1581609747.5410001,-186.523,65.918,55.663999999999994,-57.129,0.0,0
1581609747.545,-208.49599999999998,55.176,69.824,-90.82,0.0,0
1581609747.549,-215.82,22.461,54.688,-129.88299999999998,0.0,0
1581609747.552,-207.52,0.0,77.637,-106.445,0.0,0
1581609747.556,-211.91400000000002,-6.836,97.16799999999999,-51.27,0.0,0
1581609747.56,-221.68,21.97300000000001,62.5,-55.176,0.0,0
1581609747.564,-187.012,60.059,59.57,-78.125,0.0,0
1581609747.5679998,-155.762,30.761999999999997,71.289,-22.949,0.0,0
1581609747.57,-132.32399999999998,14.648,32.715,39.062,0.0,0
1581609747.574,-102.051,43.945,33.203,39.062,0.0,0
1581609747.5779998,-51.27,45.898,98.633,-13.184000000000001,0.0,0
1581609747.582,13.672,40.527,128.418,-8.789,0.0,0
1581609747.586,44.922,28.809,106.934,56.64100000000001,0.0,0
1581609747.59,57.129,27.831999999999997,81.055,97.656,0.0,0
1581609747.5939999,69.824,51.758,78.125,92.773,0.0,0
1581609747.5970001,88.37899999999998,50.78100000000001,85.93799999999996,64.941,0.0,0
1581609747.601,118.164,21.484,68.359,108.398,0.0,0
1581609747.605,124.512,-8.789,55.663999999999994,180.176,0.0,0
1581609747.609,112.79299999999999,4.395,52.733999999999995,180.66400000000002,0.0,0
1581609747.613,94.238,27.831999999999997,58.593999999999994,135.74200000000002,0.0,0
1581609747.6139998,69.336,21.97300000000001,68.359,93.262,0.0,0
