timestamps,TP9,AF7,AF8,TP10,Right AUX,Marker0
1581611422.814,-903.32,-972.168,51.27,327.637,0.0,0
1581611422.8179998,-981.445,-972.168,62.012,365.723,0.0,0
1581611422.822,-532.715,-972.168,75.684,384.76599999999996,0.0,0
1581611422.826,-275.879,-972.168,81.543,395.50800000000004,0.0,0
1581611422.83,-690.43,-972.168,85.449,375.977,0.0,0
1581611422.8339999,-977.539,-972.168,87.891,389.648,0.0,0
1581611422.8379998,-590.82,-972.168,85.93799999999996,403.809,0.0,0
1581611422.841,-226.562,-972.6560000000001,86.914,384.277,0.0,0
1581611422.845,-523.438,-972.168,94.238,386.23,0.0,0
1581611422.849,-854.492,-972.168,97.656,372.559,0.0,0
1581611422.853,-587.891,-972.168,90.33200000000001,377.441,0.0,0
1581611422.857,-93.75,-972.168,93.75,371.094,0.0,0
1581611422.859,-221.68,-972.168,96.68,352.539,0.0,0
1581611422.863,-779.785,-972.168,93.262,360.84,0.0,0
1581611422.867,-879.395,-972.168,90.33200000000001,340.82,0.0,0
1581611422.871,-443.35900000000004,-972.168,85.449,317.383,0.0,0
1581611422.875,-432.129,-972.168,73.242,310.059,0.0,0
1581611422.879,-891.113,-972.168,48.34,306.64099999999996,0.0,0
1581611422.883,-1000.0,-972.6560000000001,31.25,299.805,0.0,0
1581611422.8860002,-786.6210000000003,-972.6560000000001,29.785,260.742,0.0,0
1581611422.89,-570.312,-972.168,34.18,237.305,0.0,0
1581611422.894,-860.84,-972.168,40.527,236.328,0.0,0
1581611422.8979998,-1000.0,-972.168,46.387,225.09799999999998,0.0,0
1581611422.9020002,-870.605,-972.6560000000001,51.27,214.355,0.0,0
1581611422.904,-686.035,-972.168,70.312,177.734,0.0,0
1581611422.908,-862.793,-972.168,85.93799999999996,173.34,0.0,0
1581611422.9120002,-995.117,-972.6560000000001,86.914,190.43,0.0,0
1581611422.9160001,-972.6560000000001,-972.168,92.285,181.15200000000002,0.0,0
1581611422.92,-810.547,-972.168,93.262,169.43400000000003,0.0,0
1581611422.924,-815.43,-972.168,90.33200000000001,135.254,0.0,0
1581611422.928,-998.047,-972.168,93.75,126.95299999999999,0.0,0
1581611422.931,-931.6410000000001,-972.168,104.00399999999999,128.418,0.0,0
1581611422.935,-430.664,-972.6560000000001,110.84,122.07,0.0,0
1581611422.939,-275.39099999999996,-972.168,101.56200000000001,116.699,0.0,0
1581611422.9429998,-805.176,-972.168,98.145,101.56200000000001,0.0,0
1581611422.947,-1000.0,-972.168,105.95700000000001,123.535,0.0,0
1581611422.964,-688.477,-972.168,110.352,117.18799999999999,0.0,0
1581611422.968,-458.98400000000004,-972.168,109.863,81.543,0.0,0
1581611422.9720001,-805.664,-972.168,104.492,78.613,0.0,0
1581611422.976,-1000.0,-972.168,107.42200000000001,67.383,0.0,0
1581611422.98,-744.1410000000003,-972.168,99.12100000000001,51.758,0.0,0
1581611422.984,-334.473,-972.168,76.172,33.691,0.0,0
1581611422.988,-443.848,-972.168,71.289,9.277000000000001,0.0,0
1581611422.9910002,-659.18,-972.6560000000001,78.613,2.93,0.0,0
1581611422.995,-402.344,-972.6560000000001,78.613,-3.906,0.0,0
1581611422.9989998,104.492,-972.6560000000001,76.172,-18.555,0.0,0
1581611423.0029998,130.371,-972.168,76.66,-17.578,0.0,0
1581611423.0070002,-277.832,-972.168,71.289,-7.812,0.0,0
1581611423.0089998,-356.934,-972.168,69.336,-4.395,0.0,0
1581611423.0129998,6.836,-972.168,77.637,-5.859,0.0,0
1581611423.0170002,48.34,-972.168,82.031,2.93,0.0,0
1581611423.0210001,-482.42199999999997,-972.168,82.031,19.043,0.0,0
1581611423.025,-801.27,-972.6560000000001,77.637,44.922,0.0,0
1581611423.029,-479.98,-972.168,78.613,41.992,0.0,0
1581611423.033,-135.74200000000002,-972.168,82.031,16.113,0.0,0
1581611423.036,-410.645,-972.168,79.102,21.97300000000001,0.0,0
1581611423.04,-852.539,-972.168,81.543,29.296999999999997,0.0,0
1581611423.044,-754.883,-972.168,91.79700000000001,32.227,0.0,0
1581611423.0479999,-299.316,-972.6560000000001,99.12100000000001,41.504,0.0,0
1581611423.052,-545.41,-972.168,100.098,33.691,0.0,0
1581611423.054,-1000.0,-972.168,100.098,46.875,0.0,0
1581611423.0579998,-972.168,-972.168,95.70299999999999,66.895,0.0,0
1581611423.062,-776.367,-972.168,93.75,64.941,0.0,0
1581611423.066,-807.617,-972.168,89.844,61.035,0.0,0
1581611423.07,-992.188,-972.168,86.426,65.43,0.0,0
1581611423.074,-968.75,-972.6560000000001,95.70299999999999,78.613,0.0,0
1581611423.0779998,-969.238,-972.168,104.00399999999999,79.59,0.0,0
1581611423.081,-973.145,-972.168,105.95700000000001,66.406,0.0,0
1581611423.085,-972.6560000000001,-972.168,105.469,68.359,0.0,0
1581611423.089,-972.168,-972.168,105.469,63.477,0.0,0
1581611423.093,-972.168,-972.168,102.539,53.223,0.0,0
1581611423.0970001,-972.168,-972.168,101.56200000000001,46.387,0.0,0
1581611423.099,-972.168,-972.168,100.586,27.344,0.0,0
1581611423.103,-972.168,-972.168,105.469,25.391,0.0,0
1581611423.107,-972.168,-972.168,107.42200000000001,18.555,0.0,0
1581611423.111,-972.6560000000001,-972.168,104.00399999999999,2.93,0.0,0
1581611423.115,-971.191,-972.168,107.91,-12.695,0.0,0
1581611423.119,-969.727,-972.168,106.934,-6.348,0.0,0
1581611423.123,-985.84,-972.168,109.863,-5.859,0.0,0
1581611423.1260002,-887.695,-972.168,112.305,-57.617,0.0,0
1581611423.13,-887.695,-972.168,108.887,-92.285,0.0,0
1581611423.1339998,-981.934,-972.168,111.816,-69.336,0.0,0
1581611423.1379998,-982.422,-972.168,110.84,-54.688,0.0,0
1581611423.1420002,-908.203,-972.168,101.074,-63.965,0.0,0
1581611423.144,-889.648,-972.6560000000001,97.656,-69.336,0.0,0
1581611423.1479998,-966.797,-972.6560000000001,100.098,-47.852,0.0,0
1581611423.1520002,-989.7460000000001,-972.168,98.633,-25.879,0.0,0
1581611423.1560001,-913.574,-972.168,102.539,-21.97300000000001,0.0,0
1581611423.16,-627.441,-972.6560000000001,103.516,-24.414,0.0,0
1581611423.164,-753.418,-972.168,101.56200000000001,-37.598,0.0,0
1581611423.168,-1000.0,-972.168,95.70299999999999,-16.113,0.0,0
1581611423.171,-886.7189999999997,-972.6560000000001,83.984,-8.789,0.0,0
1581611423.175,-397.949,-972.6560000000001,89.355,-10.742,0.0,0
1581611423.179,-243.65200000000002,-972.168,100.586,1.465,0.0,0
1581611423.1829998,-672.363,-972.6560000000001,101.56200000000001,19.531,0.0,0
1581611423.187,-765.625,-972.168,101.074,51.27,0.0,0
1581611423.189,-349.121,-972.168,104.492,46.875,0.0,0
1581611423.1929998,-288.086,-972.168,106.445,48.828,0.0,0
1581611423.197,-801.27,-972.168,108.887,61.523,0.0,0
1581611423.201,-971.68,-972.168,104.492,70.801,0.0,0
1581611423.205,-399.902,-972.168,97.16799999999999,77.148,0.0,0
1581611423.2089999,160.156,-972.168,99.609,59.57,0.0,0
1581611423.2129998,56.152,-972.168,96.68,57.617,0.0,0
1581611423.216,-17.578,-972.168,94.727,55.176,0.0,0
1581611423.22,604.004,-972.168,108.398,30.761999999999997,0.0,0
1581611423.224,-952.148,-972.168,115.234,32.227,0.0,0
1581611423.228,964.355,-972.168,99.609,24.414,0.0,0
1581611423.232,796.875,-972.168,93.262,27.831999999999997,0.0,0
1581611423.235,862.793,-972.168,96.68,22.949,0.0,0
1581611423.2389998,-980.957,-972.168,90.82,5.371,0.0,0
1581611423.2429998,997.559,-972.6560000000001,94.727,13.672,0.0,0
1581611423.2470002,874.512,-972.168,98.145,20.02,0.0,0
1581611423.2510002,891.602,-972.168,92.285,17.09,0.0,0
1581611423.255,-987.793,-972.168,98.145,7.324,0.0,0
1581611423.2589998,997.07,-972.168,98.633,10.254000000000001,0.0,0
1581611423.262,997.559,-972.168,97.16799999999999,23.926,0.0,0
1581611423.266,999.512,-972.168,107.42200000000001,28.809,0.0,0
1581611423.27,999.512,-972.168,107.42200000000001,22.949,0.0,0
1581611423.274,999.512,-972.6560000000001,99.12100000000001,2.93,0.0,0
1581611423.2779999,999.512,-972.168,89.844,-0.488,0.0,0
1581611423.28,999.512,-972.168,102.539,11.719000000000001,0.0,0
1581611423.284,999.512,-972.168,111.32799999999999,-1.465,0.0,0
1581611423.2879999,999.512,-972.168,104.492,-15.625,0.0,0
1581611423.292,999.512,-972.168,104.98,-46.875,0.0,0
1581611423.296,999.512,-972.168,104.492,-56.64100000000001,0.0,0
1581611423.3,999.512,-972.168,98.145,-35.156,0.0,0
1581611423.304,999.512,-972.168,97.16799999999999,-63.477,0.0,0
1581611423.3070002,999.512,-972.168,101.56200000000001,-70.801,0.0,0
1581611423.311,999.512,-972.168,108.398,-61.035,0.0,0
1581611423.315,999.512,-972.168,117.18799999999999,-62.988,0.0,0
1581611423.319,999.512,-972.168,119.141,-51.758,0.0,0
1581611423.323,999.512,-972.168,118.652,-61.035,0.0,0
1581611423.339,999.512,-972.168,120.605,-47.852,0.0,0
1581611423.343,999.512,-972.168,112.305,-38.574,0.0,0
1581611423.3470001,999.512,-972.168,103.027,-40.527,0.0,0
1581611423.351,999.512,-972.168,110.84,-36.133,0.0,0
1581611423.355,999.512,-972.168,116.211,-33.203,0.0,0
1581611423.359,999.512,-972.168,106.445,-2.93,0.0,0
1581611423.363,999.023,-972.6560000000001,104.98,-6.348,0.0,0
1581611423.3660002,996.0939999999999,-972.168,104.492,-17.578,0.0,0
1581611423.37,-989.7460000000001,-972.6560000000001,94.238,16.602,0.0,0
1581611423.3739998,947.7539999999999,-972.168,91.309,44.434,0.0,0
1581611423.3779998,919.922,-972.168,85.449,53.71100000000001,0.0,0
1581611423.3820002,-994.6289999999999,-972.168,80.566,51.27,0.0,0
1581611423.3839998,973.145,-972.168,72.266,58.105,0.0,0
1581611423.3879998,429.199,-972.168,64.941,84.961,0.0,0
1581611423.3920002,-28.32,-972.6560000000001,64.453,101.56200000000001,0.0,0
1581611423.3960001,273.926,-972.6560000000001,58.593999999999994,107.42200000000001,0.0,0
1581611423.4,450.195,-972.168,49.805,108.887,0.0,0
1581611423.404,-72.266,-972.168,40.039,110.352,0.0,0
1581611423.408,-465.82,-972.168,38.574,130.859,0.0,0
1581611423.411,-72.266,-972.168,35.645,131.34799999999998,0.0,0
1581611423.415,472.168,-972.168,32.227,115.234,0.0,0
1581611423.419,200.68400000000003,-972.168,37.109,111.32799999999999,0.0,0
1581611423.4229999,-198.73,-972.168,43.457,117.676,0.0,0
1581611423.427,146.484,-972.168,47.852,134.27700000000002,0.0,0
1581611423.429,713.867,-972.6560000000001,51.758,130.859,0.0,0
1581611423.4329998,720.703,-972.6560000000001,54.199,122.07,0.0,0
1581611423.437,307.617,-972.6560000000001,55.176,115.234,0.0,0
1581611423.441,445.31199999999995,-972.168,57.617,105.469,0.0,0
1581611423.445,938.965,-972.168,53.223,95.70299999999999,0.0,0
1581611423.449,-964.8439999999999,-972.168,52.733999999999995,81.543,0.0,0
1581611423.4529998,856.934,-972.168,56.64100000000001,83.008,0.0,0
1581611423.456,800.7810000000003,-972.6560000000001,50.293,70.312,0.0,0
1581611423.46,972.168,-972.168,37.598,57.129,0.0,0
1581611423.464,-974.6089999999999,-972.168,40.039,65.43,0.0,0
1581611423.468,919.922,-972.168,45.898,75.195,0.0,0
1581611423.4720001,686.523,-972.168,43.457,89.355,0.0,0
1581611423.475,806.1519999999997,-972.168,42.48,55.663999999999994,0.0,0
1581611423.4789999,-963.867,-972.168,51.758,51.758,0.0,0
1581611423.4829998,924.805,-972.168,56.152,71.777,0.0,0
1581611423.4870002,562.5,-972.6560000000001,55.663999999999994,77.637,0.0,0
1581611423.4910002,668.457,-972.168,58.593999999999994,98.633,0.0,0
1581611423.495,-989.258,-972.168,56.64100000000001,68.848,0.0,0
1581611423.4989998,-995.605,-972.168,63.965,58.105,0.0,0
1581611423.502,674.805,-972.168,64.941,95.70299999999999,0.0,0
1581611423.506,438.477,-972.168,56.64100000000001,90.33200000000001,0.0,0
1581611423.51,818.8480000000003,-972.168,66.895,79.59,0.0,0
1581611423.514,-930.664,-972.168,72.266,54.688,0.0,0
1581611423.518,716.797,-972.168,66.895,40.527,0.0,0
1581611423.519,547.363,-972.168,76.172,53.71100000000001,0.0,0
1581611423.5229998,917.48,-972.168,80.078,32.715,0.0,0
1581611423.5270002,-970.703,-972.168,69.824,13.672,0.0,0
1581611423.5310001,959.4730000000001,-972.168,70.312,4.883,0.0,0
1581611423.535,946.289,-972.6560000000001,73.73,3.418,0.0,0
1581611423.539,994.1410000000001,-972.168,79.102,0.977,0.0,0
1581611423.543,-996.582,-972.168,86.914,-10.254000000000001,0.0,0
1581611423.546,-999.023,-972.168,83.984,-13.184000000000001,0.0,0
1581611423.55,878.418,-972.168,83.984,-14.16,0.0,0
1581611423.554,866.211,-972.6560000000001,90.82,15.625,0.0,0
1581611423.5579998,-953.613,-972.168,86.914,32.227,0.0,0
1581611423.562,733.887,-972.168,79.102,41.01600000000001,0.0,0
1581611423.565,-109.375,-972.168,79.102,80.566,0.0,0
1581611423.569,-560.547,-972.168,84.961,88.867,0.0,0
1581611423.573,-365.23400000000004,-972.168,94.238,82.52,0.0,0
1581611423.5770001,-271.973,-972.168,99.609,101.56200000000001,0.0,0
1581611423.581,-723.633,-972.168,94.727,109.863,0.0,0
1581611423.585,-1000.0,-972.168,93.75,116.699,0.0,0
1581611423.589,-709.961,-972.168,93.262,112.305,0.0,0
1581611423.592,-469.23800000000006,-972.6560000000001,90.82,99.609,0.0,0
1581611423.596,-829.102,-972.168,97.656,106.934,0.0,0
1581611423.6,-993.6519999999999,-972.168,105.469,116.211,0.0,0
1581611423.6039999,-964.355,-972.168,107.91,131.836,0.0,0
1581611423.6079998,-947.7539999999999,-972.168,111.816,130.859,0.0,0
1581611423.609,-951.172,-972.168,117.676,134.27700000000002,0.0,0
1581611423.613,-963.867,-972.6560000000001,119.62899999999999,165.52700000000004,0.0,0
1581611423.617,-1000.0,-972.168,118.652,166.016,0.0,0
1581611423.621,-785.645,-972.168,118.164,145.02,0.0,0
1581611423.625,-591.797,-972.168,114.258,126.95299999999999,0.0,0
1581611423.629,-883.789,-972.168,112.305,138.672,0.0,0
1581611423.633,-960.449,-972.168,112.79299999999999,145.996,0.0,0
1581611423.6360002,-443.35900000000004,-972.6560000000001,114.74600000000001,137.695,0.0,0
1581611423.64,-13.184000000000001,-972.168,122.559,153.32,0.0,0
1581611423.644,-415.039,-972.168,122.559,171.387,0.0,0
1581611423.6479998,-858.398,-972.6560000000001,119.62899999999999,197.266,0.0,0
1581611423.6520002,-567.383,-972.6560000000001,117.18799999999999,220.703,0.0,0
1581611423.654,-129.88299999999998,-972.6560000000001,116.699,222.168,0.0,0
1581611423.658,-400.39099999999996,-972.168,114.74600000000001,233.398,0.0,0
1581611423.6620002,-927.2460000000001,-972.168,111.32799999999999,247.55900000000003,0.0,0
1581611423.6660001,-769.043,-972.6560000000001,104.98,252.44099999999997,0.0,0
1581611423.67,-215.332,-972.168,93.75,240.234,0.0,0
1581611423.674,-309.57,-972.168,89.355,211.91400000000002,0.0,0
1581611423.678,-857.422,-972.168,92.773,206.543,0.0,0
1581611423.681,-778.32,-972.168,87.891,199.21900000000002,0.0,0
1581611423.685,-26.855,-972.168,87.402,183.59400000000002,0.0,0
1581611423.689,284.18,-972.168,96.191,169.43400000000003,0.0,0
1581611423.6929998,-48.828,-972.168,100.586,162.109,0.0,0
1581611423.697,-81.055,-972.168,92.773,160.156,0.0,0
1581611423.714,480.957,-972.168,83.49600000000002,131.34799999999998,0.0,0
1581611423.718,925.293,-972.168,78.125,119.62899999999999,0.0,0
1581611423.7220001,686.035,-972.6560000000001,77.637,122.07,0.0,0
1581611423.726,396.973,-972.6560000000001,79.102,118.652,0.0,0
1581611423.73,685.547,-972.168,64.941,116.699,0.0,0
1581611423.734,-964.355,-972.168,44.434,104.98,0.0,0
1581611423.738,895.02,-972.168,50.293,91.309,0.0,0
1581611423.7410002,665.5269999999998,-972.168,61.035,106.934,0.0,0
1581611423.745,833.9839999999997,-972.168,57.129,106.445,0.0,0
1581611423.7489998,-979.492,-972.168,60.059,69.824,0.0,0
1581611423.7529998,995.117,-972.168,59.082,46.387,0.0,0
1581611423.7570002,981.445,-972.168,55.176,44.922,0.0,0
1581611423.7589998,982.422,-972.168,51.758,46.875,0.0,0
1581611423.7629998,-998.047,-972.168,42.48,27.344,0.0,0
1581611423.7670002,999.023,-972.168,34.668,5.859,0.0,0
1581611423.7710001,999.023,-972.6560000000001,38.086,9.766,0.0,0
1581611423.775,999.512,-972.6560000000001,45.41,8.789,0.0,0
1581611423.779,999.512,-972.168,42.48,-10.254000000000001,0.0,0
1581611423.783,999.512,-972.168,47.363,-21.484,0.0,0
1581611423.786,999.512,-972.6560000000001,56.64100000000001,-5.859,0.0,0
1581611423.79,999.512,-972.6560000000001,59.57,-9.766,0.0,0
1581611423.794,999.512,-972.168,60.059,-31.25,0.0,0
1581611423.7979999,999.512,-972.168,62.988,-48.828,0.0,0
1581611423.802,999.512,-972.168,61.523,-41.504,0.0,0
1581611423.804,999.512,-972.168,60.547,-18.066,0.0,0
1581611423.8079998,999.512,-972.168,57.129,-20.996,0.0,0
1581611423.812,999.512,-972.168,58.593999999999994,-29.296999999999997,0.0,0
1581611423.816,999.512,-972.168,60.547,-24.414,0.0,0
1581611423.82,999.512,-972.168,60.547,-0.488,0.0,0
1581611423.824,999.512,-972.168,62.988,12.695,0.0,0
1581611423.8279998,999.023,-972.168,64.941,-4.883,0.0,0
1581611423.831,-1000.0,-972.168,71.289,-3.418,0.0,0
1581611423.835,997.559,-972.6560000000001,72.266,-4.883,0.0,0
1581611423.839,993.6519999999999,-972.6560000000001,68.359,-2.441,0.0,0
1581611423.843,997.559,-972.6560000000001,65.43,0.0,0.0,0
1581611423.8470001,-999.512,-972.6560000000001,62.988,-6.348,0.0,2
1581611423.849,-999.512,-972.168,65.918,0.488,0.0,0
1581611423.853,958.9839999999999,-972.168,71.777,15.137,0.0,0
1581611423.857,974.1210000000001,-972.6560000000001,69.824,26.855,0.0,0
1581611423.861,-994.1410000000001,-972.168,73.242,22.461,0.0,0
1581611423.865,997.07,-972.6560000000001,76.66,24.901999999999997,0.0,0
1581611423.869,999.512,-972.168,63.965,44.434,0.0,0
1581611423.873,999.512,-972.168,71.289,46.387,0.0,0
1581611423.8760002,999.512,-972.6560000000001,78.613,33.203,0.0,0
1581611423.88,999.512,-972.168,70.312,0.488,0.0,0
1581611423.8839998,999.512,-972.168,80.078,-16.113,0.0,0
1581611423.8879998,999.512,-972.6560000000001,83.008,10.254000000000001,0.0,0
1581611423.8920002,999.512,-972.168,76.66,15.625,0.0,0
1581611423.894,999.512,-972.168,75.684,22.949,0.0,0
1581611423.8979998,999.512,-972.168,80.078,27.344,0.0,0
1581611423.9020002,-999.023,-972.168,82.52,36.133,0.0,0
1581611423.9060001,988.2810000000001,-972.168,80.078,65.43,0.0,0
1581611423.91,-983.887,-972.168,74.219,63.477,0.0,0
1581611423.914,934.082,-972.168,68.848,75.195,0.0,0
1581611423.918,663.086,-972.168,71.777,80.078,0.0,0
1581611423.921,754.883,-972.6560000000001,69.824,66.406,0.0,0
1581611423.925,994.1410000000001,-972.6560000000001,68.848,57.129,0.0,0
1581611423.929,-986.328,-972.168,74.219,45.898,0.0,0
1581611423.9329998,752.441,-972.168,66.406,49.316,0.0,0
1581611423.937,645.508,-972.6560000000001,63.965,20.996,0.0,0
1581611423.939,938.477,-972.6560000000001,65.43,-9.766,0.0,0
1581611423.9429998,-955.566,-972.168,61.035,-6.836,0.0,0
1581611423.947,772.461,-972.168,54.199,-1.953,0.0,0
1581611423.951,531.25,-972.168,57.129,9.766,0.0,0
1581611423.955,823.242,-972.168,62.988,-4.883,0.0,0
1581611423.9589999,-937.988,-972.168,56.152,-12.207,0.0,0
1581611423.9629998,792.48,-972.168,59.57,0.977,0.0,0
1581611423.966,327.14799999999997,-972.168,68.848,18.066,0.0,0
1581611423.97,580.078,-972.168,77.637,36.621,0.0,0
1581611423.974,-939.453,-972.168,78.613,19.531,0.0,0
1581611423.978,704.59,-972.168,64.453,12.207,0.0,0
1581611423.982,7.812,-972.168,66.895,49.805,0.0,0
1581611423.984,-36.133,-972.6560000000001,73.242,70.312,0.0,0
1581611423.988,419.434,-972.6560000000001,76.66,70.801,0.0,0
1581611423.992,353.51599999999996,-972.168,77.637,50.293,0.0,0
1581611423.996,-225.58599999999998,-972.168,80.566,43.457,0.0,0
1581611424.0,-383.301,-972.168,76.66,54.199,0.0,0
1581611424.004,-9.766,-972.168,75.195,34.18,0.0,0
1581611424.008,125.0,-972.168,74.707,19.531,0.0,0
1581611424.0110002,-311.52299999999997,-972.6560000000001,70.312,10.742,0.0,0
1581611424.015,-480.469,-972.168,78.125,26.855,0.0,0
1581611424.019,-111.816,-972.168,79.102,43.945,0.0,0
1581611424.0229998,143.555,-972.168,78.125,32.715,0.0,0
1581611424.0270002,-208.00799999999998,-972.168,79.102,39.551,0.0,0
1581611424.029,-649.414,-972.168,77.637,46.875,0.0,0
1581611424.033,-512.695,-972.168,81.055,51.758,0.0,0
1581611424.0370002,-34.18,-972.168,76.172,54.199,0.0,0
1581611424.0410001,-51.758,-972.168,70.312,43.457,0.0,0
1581611424.045,-501.95300000000003,-972.168,70.801,49.805,0.0,0
1581611424.049,-484.375,-972.6560000000001,67.87100000000001,57.129,0.0,0
1581611424.053,25.879,-972.168,68.848,32.227,0.0,0
1581611424.056,235.352,-972.6560000000001,75.684,18.066,0.0,0
1581611424.06,-83.008,-972.168,83.49600000000002,32.227,0.0,0
1581611424.064,-162.59799999999996,-972.6560000000001,79.59,44.434,0.0,0
1581611424.0679998,403.32,-972.168,74.707,29.785,0.0,0
1581611424.072,798.828,-972.6560000000001,73.242,8.301,0.0,0
1581611424.074,466.79699999999997,-972.6560000000001,67.87100000000001,14.16,0.0,0
1581611424.0779998,182.12900000000002,-972.168,63.965,27.831999999999997,0.0,0
1581611424.082,587.891,-972.168,70.312,19.531,0.0,0
1581611424.086,-958.9839999999999,-972.168,72.75399999999998,-10.742,0.0,0
1581611424.09,791.992,-972.6560000000001,68.848,-10.254000000000001,0.0,0
1581611424.0939999,263.184,-972.168,71.289,20.996,0.0,0
1581611424.0979998,398.43800000000016,-972.168,75.195,18.555,0.0,0
1581611424.101,958.008,-972.6560000000001,74.219,15.137,0.0,0
1581611424.105,922.363,-972.6560000000001,66.895,4.883,0.0,0
1581611424.109,328.61300000000006,-972.168,57.617,-1.465,0.0,0
1581611424.113,261.23,-972.168,65.918,14.16,0.0,0
1581611424.117,839.8439999999997,-972.168,74.707,1.953,0.0,0
1581611424.1339998,-989.258,-972.168,69.824,-14.648,0.0,0
1581611424.1379998,565.43,-972.168,72.75399999999998,-19.043,0.0,0
1581611424.1420002,348.63300000000015,-972.168,77.148,-15.625,0.0,0
1581611424.1460001,772.461,-972.168,80.078,-6.348,0.0,0
1581611424.15,-941.4060000000001,-972.6560000000001,88.867,-2.441,0.0,0
1581611424.154,688.965,-972.168,87.891,1.465,0.0,0
1581611424.158,241.699,-972.168,81.055,-6.348,0.0,0
1581611424.161,528.809,-972.168,76.66,-10.254000000000001,0.0,0
1581611424.165,975.586,-972.6560000000001,67.87100000000001,-20.02,0.0,0
1581611424.169,632.3240000000002,-972.168,67.383,-26.366999999999997,0.0,0
1581611424.1729999,143.066,-972.6560000000001,68.848,-20.508000000000006,0.0,0
1581611424.177,339.355,-972.6560000000001,67.383,-34.668,0.0,0
1581611424.179,791.0160000000003,-972.6560000000001,66.406,-43.457,0.0,0
1581611424.1829998,770.9960000000003,-972.6560000000001,67.383,-36.621,0.0,0
1581611424.187,319.336,-972.168,68.359,-33.203,0.0,0
1581611424.191,259.277,-972.168,61.523,-35.645,0.0,0
1581611424.195,766.602,-972.6560000000001,51.27,-60.059,0.0,0
1581611424.199,965.332,-972.6560000000001,49.805,-68.359,0.0,0
1581611424.2029998,569.336,-972.168,59.082,-47.363,0.0,0
1581611424.206,488.281,-972.6560000000001,63.965,-31.738000000000003,0.0,0
1581611424.21,893.555,-972.6560000000001,60.059,-43.945,0.0,0
1581611424.214,-969.238,-972.168,60.547,-74.219,0.0,0
1581611424.218,947.2660000000001,-972.6560000000001,73.242,-58.593999999999994,0.0,0
1581611424.2220001,843.262,-972.6560000000001,79.102,-26.855,0.0,0
1581611424.224,918.457,-972.168,82.031,-21.484,0.0,0
1581611424.228,-981.445,-972.168,89.355,-27.831999999999997,0.0,0
1581611424.232,981.934,-972.6560000000001,93.262,-32.715,0.0,0
1581611424.236,738.77,-972.6560000000001,90.33200000000001,-5.859,0.0,0
1581611424.24,781.25,-972.168,85.93799999999996,-5.371,0.0,0
1581611424.244,-985.352,-972.168,78.613,-41.01600000000001,0.0,0
1581611424.248,-996.582,-972.168,80.078,-60.547,0.0,0
1581611424.2510002,975.586,-972.168,85.93799999999996,-57.129,0.0,0
1581611424.255,956.055,-972.168,84.473,-50.78100000000001,0.0,0
1581611424.2589998,994.6289999999999,-972.6560000000001,86.914,-60.059,0.0,0
1581611424.2629998,-993.164,-972.168,92.285,-55.176,0.0,0
1581611424.2670002,984.375,-972.168,91.79700000000001,-31.25,0.0,0
1581611424.269,969.727,-972.168,93.262,-26.366999999999997,0.0,0
1581611424.2729998,999.023,-972.168,99.609,-41.504,0.0,0
1581611424.2770002,-999.023,-972.168,102.051,-42.968999999999994,0.0,0
1581611424.2810001,998.047,-972.6560000000001,94.238,-50.78100000000001,0.0,0
1581611424.285,999.512,-972.168,88.867,-73.242,0.0,0
1581611424.289,999.512,-972.6560000000001,85.93799999999996,-90.33200000000001,0.0,0
1581611424.293,999.512,-972.6560000000001,83.49600000000002,-96.191,0.0,0
1581611424.296,999.512,-972.168,76.66,-97.16799999999999,0.0,0
1581611424.3,999.512,-972.168,70.801,-90.82,0.0,0
1581611424.304,999.512,-972.6560000000001,74.707,-74.219,0.0,0
1581611424.3079998,998.047,-972.6560000000001,70.312,-49.805,0.0,0
1581611424.312,-999.023,-972.6560000000001,67.383,-32.715,0.0,0
1581611424.314,998.535,-972.6560000000001,67.87100000000001,-12.207,0.0,0
1581611424.3179998,972.168,-972.6560000000001,61.523,14.648,0.0,0
1581611424.322,989.258,-972.168,56.64100000000001,17.578,0.0,0
1581611424.326,983.398,-972.6560000000001,53.223,5.371,0.0,0
1581611424.33,569.336,-972.168,53.71100000000001,14.16,0.0,0
1581611424.3339999,56.64100000000001,-972.168,55.663999999999994,36.133,0.0,0
1581611424.3379998,196.77700000000002,-972.6560000000001,59.082,34.18,0.0,0
1581611424.341,448.24199999999996,-972.6560000000001,65.43,10.742,0.0,0
1581611424.345,135.254,-972.6560000000001,66.406,1.465,0.0,0
1581611424.349,-308.594,-972.6560000000001,64.941,29.296999999999997,0.0,0
1581611424.353,-253.418,-972.6560000000001,69.336,42.48,0.0,0
1581611424.357,160.645,-972.6560000000001,71.289,34.18,0.0,0
1581611424.36,120.605,-972.6560000000001,73.242,38.574,0.0,0
1581611424.3639998,-374.023,-972.6560000000001,74.219,49.316,0.0,0
1581611424.3679998,-481.445,-972.6560000000001,70.312,70.801,0.0,0
1581611424.3720002,-55.663999999999994,-972.6560000000001,64.453,90.33200000000001,0.0,0
1581611424.3760002,83.984,-972.6560000000001,60.547,103.516,0.0,0
1581611424.38,-419.434,-972.6560000000001,56.64100000000001,119.62899999999999,0.0,0
1581611424.3839998,-805.176,-972.168,52.733999999999995,105.95700000000001,0.0,0
1581611424.387,-517.578,-972.6560000000001,61.035,88.867,0.0,0
1581611424.391,-168.457,-972.168,63.477,89.844,0.0,0
1581611424.395,-573.73,-972.6560000000001,59.082,82.031,0.0,0
1581611424.399,-1000.0,-972.6560000000001,58.593999999999994,78.613,0.0,0
1581611424.4029999,-814.453,-972.168,62.5,67.87100000000001,0.0,0
1581611424.405,-463.379,-972.6560000000001,67.383,67.383,0.0,0
1581611424.409,-716.797,-972.168,74.707,75.195,0.0,0
1581611424.4129999,-1000.0,-972.168,78.613,75.684,0.0,0
1581611424.417,-964.355,-972.168,78.613,83.49600000000002,0.0,0
1581611424.421,-952.148,-972.6560000000001,84.473,73.242,0.0,0
1581611424.425,-961.914,-972.168,86.914,66.895,0.0,0
1581611424.429,-972.6560000000001,-972.168,86.914,78.125,0.0,0
1581611424.4320002,-978.0269999999999,-972.6560000000001,94.727,75.195,0.0,0
1581611424.436,-953.125,-972.6560000000001,99.609,62.988,0.0,0
1581611424.44,-932.1289999999999,-972.168,90.33200000000001,53.223,0.0,0
1581611424.444,-958.4960000000001,-972.168,78.125,60.547,0.0,0
1581611424.448,-1000.0,-972.168,76.66,67.383,0.0,0
1581611424.464,-864.258,-972.6560000000001,76.66,54.688,0.0,0
1581611424.468,-610.84,-972.6560000000001,72.266,38.574,0.0,0
1581611424.4720001,-800.293,-972.168,68.848,23.438000000000002,0.0,0
1581611424.476,-1000.0,-972.168,65.43,41.01600000000001,0.0,0
1581611424.48,-831.055,-972.168,62.012,55.176,0.0,0
1581611424.484,-450.684,-972.168,58.105,49.316,0.0,0
1581611424.488,-535.156,-972.168,58.105,36.621,0.0,0
1581611424.4910002,-812.012,-972.168,61.523,28.32,0.0,0
1581611424.495,-591.309,-972.168,60.059,50.293,0.0,0
1581611424.4989998,-43.945,-972.6560000000001,56.64100000000001,27.831999999999997,0.0,0
1581611424.5029998,62.988,-972.168,58.593999999999994,6.348,0.0,0
1581611424.5070002,-360.352,-972.168,63.477,14.16,0.0,0
1581611424.51,-531.25,-972.6560000000001,66.895,2.441,0.0,0
1581611424.514,-107.91,-972.6560000000001,65.918,0.488,0.0,0
1581611424.518,162.109,-972.168,65.43,-7.812,0.0,0
1581611424.522,-232.91,-972.168,69.824,8.301,0.0,0
1581611424.526,-534.668,-972.6560000000001,63.965,24.901999999999997,0.0,0
1581611424.53,-205.078,-972.6560000000001,52.733999999999995,15.625,0.0,0
1581611424.534,222.168,-972.168,62.5,24.414,0.0,0
1581611424.5370002,70.801,-972.168,73.242,20.02,0.0,0
1581611424.5410001,-302.7340000000001,-972.168,62.988,18.555,0.0,0
1581611424.545,-151.855,-972.6560000000001,51.27,-5.859,0.0,0
1581611424.549,460.93800000000016,-972.168,58.105,-42.968999999999994,0.0,0
1581611424.553,567.871,-972.6560000000001,67.87100000000001,-49.316,0.0,0
1581611424.555,90.33200000000001,-972.6560000000001,59.57,-54.199,0.0,0
1581611424.559,101.074,-972.6560000000001,50.293,-52.733999999999995,0.0,0
1581611424.563,710.938,-972.168,48.828,-67.87100000000001,0.0,0
1581611424.5670002,862.305,-972.6560000000001,42.968999999999994,-86.426,0.0,0
1581611424.571,377.441,-972.6560000000001,44.922,-68.359,0.0,0
1581611424.575,217.773,-972.6560000000001,54.199,-55.663999999999994,0.0,0
1581611424.579,684.082,-972.6560000000001,60.547,-67.383,0.0,0
1581611424.582,-949.707,-972.168,59.57,-83.984,0.0,0
1581611424.586,608.398,-972.6560000000001,52.733999999999995,-84.961,0.0,0
1581611424.59,150.391,-972.6560000000001,59.082,-70.801,0.0,0
1581611424.5939999,558.105,-972.168,66.895,-82.031,0.0,0
1581611424.5979998,-989.7460000000001,-972.168,61.035,-92.773,0.0,0
1581611424.6,690.43,-972.6560000000001,53.71100000000001,-111.32799999999999,0.0,0
1581611424.6039999,193.359,-972.168,46.875,-117.18799999999999,0.0,0
1581611424.6079998,446.777,-972.168,45.898,-104.492,0.0,0
1581611424.6120002,958.9839999999999,-972.168,48.828,-111.816,0.0,0
1581611424.6160002,937.5,-972.168,53.223,-104.00399999999999,0.0,0
1581611424.62,516.602,-972.168,62.5,-99.609,0.0,0
1581611424.6239998,511.719,-972.6560000000001,67.87100000000001,-107.42200000000001,0.0,0
1581611424.627,916.992,-972.6560000000001,66.406,-95.215,0.0,0
1581611424.631,996.0939999999999,-972.6560000000001,69.824,-92.285,0.0,0
1581611424.635,672.363,-972.6560000000001,73.242,-85.449,0.0,0
1581611424.639,481.934,-972.6560000000001,67.87100000000001,-83.49600000000002,0.0,0
1581611424.643,803.711,-972.6560000000001,63.965,-90.33200000000001,0.0,0
1581611424.644,-945.312,-972.6560000000001,70.801,-88.37899999999998,0.0,0
1581611424.6479998,862.793,-972.6560000000001,76.172,-95.215,0.0,0
1581611424.6520002,613.281,-972.168,72.266,-77.637,0.0,0
1581611424.6560001,819.824,-972.168,72.75399999999998,-92.285,0.0,0
1581611424.66,-957.52,-972.6560000000001,74.707,-111.816,0.0,0
1581611424.664,912.5980000000001,-972.6560000000001,67.383,-90.33200000000001,0.0,0
1581611424.668,644.531,-972.168,67.87100000000001,-88.37899999999998,0.0,0
1581611424.671,705.078,-972.168,72.75399999999998,-84.961,0.0,0
1581611424.675,959.961,-972.6560000000001,70.312,-112.305,0.0,0
1581611424.679,-990.2339999999999,-972.168,69.336,-121.094,0.0,0
1581611424.6829998,716.797,-972.168,68.359,-83.984,0.0,0
1581611424.687,665.039,-972.168,67.383,-84.961,0.0,0
1581611424.69,961.914,-972.168,61.523,-109.863,0.0,0
1581611424.694,-956.543,-972.168,59.57,-131.836,0.0,0
1581611424.698,803.2230000000003,-972.6560000000001,67.383,-125.977,0.0,0
1581611424.7020001,497.559,-972.168,70.312,-102.051,0.0,0
1581611424.706,769.5310000000003,-972.168,69.336,-100.586,0.0,0
1581611424.71,-934.57,-972.168,68.848,-109.375,0.0,0
1581611424.714,794.434,-972.168,72.266,-124.512,0.0,0
1581611424.717,263.184,-972.168,78.125,-118.652,0.0,0
1581611424.721,459.961,-972.168,83.008,-115.723,0.0,0
1581611424.725,-985.84,-972.6560000000001,82.52,-125.488,0.0,0
1581611424.7289999,830.566,-972.168,77.637,-112.305,0.0,0
1581611424.7329998,257.324,-972.6560000000001,81.055,-109.375,0.0,0
1581611424.735,224.609,-972.168,92.285,-110.352,0.0,0
1581611424.7389998,734.375,-972.168,91.79700000000001,-99.609,0.0,0
1581611424.7429998,799.805,-972.168,82.031,-105.469,0.0,0
1581611424.7470002,320.312,-972.6560000000001,82.52,-94.727,0.0,0
1581611424.7510002,250.0,-972.168,85.93799999999996,-81.055,0.0,0
1581611424.755,651.855,-972.168,83.984,-77.637,0.0,0
1581611424.7589998,802.2460000000003,-972.6560000000001,83.49600000000002,-55.176,0.0,0
1581611424.762,341.309,-972.6560000000001,88.37899999999998,-51.27,0.0,0
1581611424.766,48.828,-972.168,97.656,-36.133,0.0,0
1581611424.77,421.875,-972.168,95.215,-26.855,0.0,0
1581611424.774,787.1089999999997,-972.168,92.773,-31.738000000000003,0.0,0
1581611424.7779999,497.559,-972.6560000000001,93.262,-20.508000000000006,0.0,0
1581611424.779,23.926,-972.6560000000001,91.79700000000001,-5.859,0.0,0
1581611424.783,112.305,-972.6560000000001,88.867,3.418,0.0,0
1581611424.7870002,531.25,-972.6560000000001,84.473,-11.23,0.0,0
1581611424.7910001,408.20300000000003,-972.6560000000001,82.52,-21.484,0.0,0
1581611424.795,-130.371,-972.6560000000001,86.914,0.488,0.0,0
1581611424.799,-213.86700000000002,-972.6560000000001,88.867,21.484,0.0,0
1581611424.803,198.73,-972.6560000000001,82.52,14.648,0.0,0
1581611424.806,341.309,-972.6560000000001,82.52,0.488,0.0,0
1581611424.81,-89.355,-972.6560000000001,85.449,15.625,0.0,0
1581611424.814,-379.88300000000004,-972.6560000000001,82.52,40.039,0.0,0
1581611424.8179998,-5.371,-972.6560000000001,82.031,26.855,0.0,0
1581611424.822,304.688,-972.168,81.055,6.348,0.0,0
1581611424.824,-100.586,-972.6560000000001,80.566,-1.953,0.0,0
1581611424.8279998,-513.672,-972.6560000000001,79.102,20.508000000000006,0.0,0
1581611424.832,-241.21099999999998,-972.6560000000001,69.336,20.996,0.0,0
1581611424.836,200.68400000000003,-972.168,69.336,-8.789,0.0,0
1581611424.84,-67.87100000000001,-972.6560000000001,71.777,-12.695,0.0,0
1581611424.8439999,-703.125,-972.6560000000001,61.523,-7.812,0.0,0
1581611424.8479998,-683.5939999999998,-972.6560000000001,60.059,-15.625,0.0,0
1581611424.851,-71.777,-972.6560000000001,66.895,-22.949,0.0,0
1581611424.855,-38.574,-972.168,69.336,-23.438000000000002,0.0,0
1581611424.859,-597.168,-972.168,68.359,-13.672,0.0,0
1581611424.863,-666.992,-972.168,62.988,-26.855,0.0,0
1581611424.867,-139.648,-972.168,61.035,-36.621,0.0,0
1581611424.8839998,49.316,-972.6560000000001,63.477,-29.296999999999997,0.0,0
1581611424.8879998,-434.082,-972.168,66.895,-25.879,0.0,0
1581611424.8920002,-694.336,-972.168,64.453,-17.09,0.0,0
1581611424.8960001,-273.926,-972.168,66.895,-39.062,0.0,0
1581611424.9,69.824,-972.168,71.777,-55.176,0.0,0
1581611424.904,-319.824,-972.6560000000001,66.895,-41.504,0.0,0
1581611424.908,-707.0310000000003,-972.168,67.383,-35.156,0.0,0
1581611424.911,-358.88699999999994,-972.168,69.824,-40.039,0.0,0
1581611424.915,106.934,-972.6560000000001,61.523,-57.617,0.0,0
1581611424.919,-135.74200000000002,-972.168,46.387,-62.5,0.0,0
1581611424.9229999,-548.828,-972.168,41.992,-62.5,0.0,0
1581611424.927,-326.66,-972.168,45.41,-62.012,0.0,0
1581611424.929,221.19099999999997,-972.168,40.527,-58.105,0.0,0
1581611424.9329998,297.363,-972.6560000000001,37.109,-69.336,0.0,0
1581611424.937,-81.055,-972.6560000000001,50.293,-55.663999999999994,0.0,0
1581611424.941,-95.70299999999999,-972.6560000000001,54.688,-35.645,0.0,0
1581611424.945,416.01599999999996,-972.168,49.805,-48.34,0.0,0
1581611424.949,638.672,-972.6560000000001,48.34,-56.64100000000001,0.0,0
1581611424.9529998,192.38299999999998,-972.6560000000001,44.922,-60.547,0.0,0
1581611424.956,-75.684,-972.168,44.922,-53.223,0.0,0
1581611424.96,205.56599999999997,-972.168,37.598,-53.223,0.0,0
1581611424.964,430.176,-972.168,39.551,-61.523,0.0,0
1581611424.968,174.805,-972.168,44.922,-53.223,0.0,0
1581611424.9720001,-279.785,-972.6560000000001,40.039,-57.617,0.0,0
1581611424.974,-127.441,-972.6560000000001,40.039,-63.965,0.0,0
1581611424.978,391.11300000000006,-972.168,38.574,-59.57,0.0,0
1581611424.982,259.277,-972.168,33.203,-54.688,0.0,0
1581611424.986,-284.18,-972.6560000000001,31.25,-41.01600000000001,0.0,0
1581611424.99,-328.125,-972.6560000000001,37.598,-42.968999999999994,0.0,0
1581611424.994,105.469,-972.168,42.48,-41.992,0.0,0
1581611424.998,145.996,-972.168,44.434,-39.062,0.0,0
1581611425.0010002,-340.332,-972.6560000000001,46.387,-31.738000000000003,0.0,0
1581611425.005,-592.285,-972.6560000000001,43.457,-25.879,0.0,0
1581611425.0089998,-83.984,-972.6560000000001,51.27,-55.663999999999994,0.0,0
1581611425.0129998,382.324,-972.6560000000001,54.688,-65.918,0.0,0
1581611425.0170002,8.789,-972.168,45.898,-55.663999999999994,0.0,0
1581611425.019,-277.344,-972.6560000000001,46.875,-68.848,0.0,0
1581611425.0229998,190.918,-972.6560000000001,50.78100000000001,-86.426,0.0,0
1581611425.0270002,684.57,-972.6560000000001,52.733999999999995,-97.656,0.0,0
1581611425.0310001,444.336,-972.6560000000001,54.199,-83.49600000000002,0.0,0
1581611425.035,-20.996,-972.6560000000001,48.828,-61.523,0.0,0
1581611425.039,66.406,-972.6560000000001,51.758,-59.082,0.0,0
1581611425.043,505.85900000000004,-972.168,53.71100000000001,-53.223,0.0,1
1581611425.046,338.379,-972.6560000000001,49.316,-45.41,0.0,0
1581611425.05,-311.035,-972.6560000000001,51.27,-14.648,0.0,0
1581611425.054,-318.3590000000001,-972.6560000000001,60.059,9.766,0.0,0
1581611425.0579998,180.66400000000002,-972.6560000000001,56.64100000000001,1.465,0.0,0
1581611425.062,194.33599999999998,-972.168,53.223,-7.812,0.0,0
1581611425.064,-408.20300000000003,-972.6560000000001,59.57,-12.695,0.0,0
1581611425.0679998,-729.492,-972.6560000000001,59.57,-2.441,0.0,0
1581611425.072,-368.652,-972.168,59.57,0.0,0.0,0
1581611425.076,-93.75,-972.168,61.035,-11.719000000000001,0.0,0
1581611425.08,-513.184,-972.168,58.105,-16.113,0.0,0
1581611425.0839999,-967.773,-972.168,54.199,-23.438000000000002,0.0,0
1581611425.0879998,-699.2189999999997,-972.168,54.199,-18.555,0.0,0
1581611425.091,-254.395,-972.168,50.293,-21.484,0.0,0
1581611425.095,-387.695,-972.6560000000001,53.223,-27.344,0.0,0
1581611425.099,-765.137,-972.6560000000001,56.152,-11.23,0.0,0
1581611425.103,-670.41,-972.6560000000001,47.852,-18.066,0.0,0
1581611425.107,-174.805,-972.168,50.293,-10.254000000000001,0.0,0
1581611425.109,-172.852,-972.168,59.082,-3.418,0.0,0
1581611425.113,-688.965,-972.6560000000001,60.059,1.465,0.0,0
1581611425.117,-823.73,-972.6560000000001,59.082,3.418,0.0,0
1581611425.121,-352.539,-972.6560000000001,60.059,-18.066,0.0,0
1581611425.125,-135.74200000000002,-972.6560000000001,63.965,-14.16,0.0,0
1581611425.129,-640.625,-972.6560000000001,62.012,-1.465,0.0,0
1581611425.133,-969.727,-972.168,55.663999999999994,-10.742,0.0,0
1581611425.1360002,-584.961,-972.168,60.059,-25.879,0.0,0
1581611425.14,-184.57,-972.6560000000001,66.406,-27.344,0.0,0
1581611425.144,-531.738,-972.168,56.64100000000001,-21.97300000000001,0.0,0
1581611425.1479998,-963.867,-972.6560000000001,55.176,-10.742,0.0,0
1581611425.1520002,-711.914,-972.6560000000001,55.176,-12.695,0.0,0
1581611425.154,-205.078,-972.168,49.805,-18.066,0.0,0
1581611425.158,-373.535,-972.6560000000001,45.898,-27.831999999999997,0.0,0
1581611425.1620002,-886.7189999999997,-972.6560000000001,43.457,-12.207,0.0,0
1581611425.1660001,-786.133,-972.6560000000001,40.527,0.977,0.0,0
1581611425.17,-233.398,-972.168,35.645,-7.324,0.0,0
1581611425.174,-213.86700000000002,-972.168,37.598,-13.184000000000001,0.0,0
1581611425.178,-785.645,-972.168,38.574,-31.25,0.0,0
1581611425.181,-827.637,-972.168,42.48,-21.97300000000001,0.0,0
1581611425.185,-176.75799999999995,-972.168,46.387,-19.043,0.0,0
1581611425.189,59.082,-972.6560000000001,39.551,-30.761999999999997,0.0,0
1581611425.1929998,-397.461,-972.6560000000001,37.109,-24.414,0.0,0
1581611425.197,-720.703,-972.168,38.574,-16.602,0.0,0
1581611425.199,-339.355,-972.168,42.48,-11.719000000000001,0.0,0
1581611425.2029998,65.918,-972.6560000000001,44.922,-19.043,0.0,0
1581611425.207,-221.68,-972.168,44.434,-13.184000000000001,0.0,0
1581611425.211,-583.008,-972.168,40.527,-14.648,0.0,0
1581611425.215,-332.52,-972.168,40.527,-30.761999999999997,0.0,0
1581611425.2189999,119.62899999999999,-972.168,45.898,-31.738000000000003,0.0,0
1581611425.2229998,29.296999999999997,-972.168,47.363,-39.062,0.0,0
1581611425.226,-369.629,-972.168,54.688,-33.203,0.0,0
1581611425.23,-376.465,-972.168,52.733999999999995,-45.41,0.0,0
1581611425.234,19.043,-972.168,44.922,-65.918,0.0,0
1581611425.238,104.98,-972.168,51.27,-49.805,0.0,0
1581611425.242,-308.105,-972.6560000000001,56.64100000000001,-24.414,0.0,0
1581611425.2589998,-503.418,-972.6560000000001,54.199,5.371,0.0,0
1581611425.2629998,-2.93,-972.6560000000001,62.012,9.766,0.0,0
1581611425.2670002,310.547,-972.6560000000001,51.758,-7.812,0.0,0
1581611425.2710001,-81.055,-972.168,38.574,12.695,0.0,0
1581611425.275,-412.10900000000004,-972.168,38.574,19.043,0.0,0
1581611425.279,-141.113,-972.168,30.761999999999997,-3.418,0.0,0
1581611425.283,335.9380000000001,-972.168,35.645,-26.855,0.0,0
1581611425.286,231.445,-972.6560000000001,45.898,-31.25,0.0,0
1581611425.29,-171.875,-972.6560000000001,44.922,-15.137,0.0,0
1581611425.294,-68.359,-972.168,39.062,-23.438000000000002,0.0,0
1581611425.2979999,464.355,-972.168,41.992,-45.898,0.0,0
1581611425.302,493.164,-972.168,41.992,-63.477,0.0,0
1581611425.305,-46.875,-972.168,31.738000000000003,-57.617,0.0,0
1581611425.309,-114.258,-972.168,28.809,-27.344,0.0,0
1581611425.313,428.711,-972.168,40.039,-22.949,0.0,0
1581611425.3170002,575.195,-972.6560000000001,47.852,-33.203,0.0,0
1581611425.321,-12.695,-972.6560000000001,41.01600000000001,-40.527,0.0,0
1581611425.325,-357.91,-972.6560000000001,36.133,-37.109,0.0,0
1581611425.329,13.672,-972.6560000000001,31.25,-32.227,0.0,0
1581611425.332,376.95300000000003,-972.168,28.809,-52.246,0.0,0
1581611425.336,-2.93,-972.168,28.809,-53.71100000000001,0.0,0
1581611425.34,-441.406,-972.168,31.25,-58.593999999999994,0.0,0
1581611425.3439999,-7.324,-972.168,44.434,-73.242,0.0,0
1581611425.3479998,538.086,-972.168,44.434,-55.663999999999994,0.0,0
1581611425.349,320.312,-972.168,40.527,-45.41,0.0,0
1581611425.353,-193.84799999999998,-972.168,44.922,-33.691,0.0,0
1581611425.357,-108.887,-972.168,48.34,-37.598,0.0,0
1581611425.361,370.605,-972.168,49.805,-41.01600000000001,0.0,0
1581611425.365,334.961,-972.168,52.733999999999995,-15.625,0.0,0
1581611425.369,-227.051,-972.168,54.688,1.465,0.0,0
1581611425.373,-368.164,-972.6560000000001,54.688,11.719000000000001,0.0,0
1581611425.3760002,127.441,-972.6560000000001,48.34,-14.16,0.0,0
1581611425.38,250.977,-972.168,41.01600000000001,-42.48,0.0,0
1581611425.3839998,-189.94099999999997,-972.168,50.293,-25.879,0.0,0
1581611425.3879998,-356.934,-972.168,52.246,-18.066,0.0,0
1581611425.3920002,8.789,-972.168,45.41,-15.137,0.0,0
1581611425.395,375.48800000000006,-972.168,42.48,-35.645,0.0,0
1581611425.399,107.91,-972.6560000000001,42.968999999999994,-41.504,0.0,0
1581611425.4029999,-274.902,-972.168,47.363,-13.184000000000001,0.0,0
1581611425.407,-55.663999999999994,-972.6560000000001,44.434,-14.16,0.0,0
1581611425.411,424.316,-972.6560000000001,38.574,-30.761999999999997,0.0,0
1581611425.415,296.387,-972.168,38.086,-42.968999999999994,0.0,0
1581611425.419,-195.312,-972.168,45.41,-34.18,0.0,0
1581611425.4220002,-189.453,-972.6560000000001,41.504,-16.602,0.0,0
1581611425.426,300.781,-972.6560000000001,35.156,-31.25,0.0,0
1581611425.43,509.76599999999996,-972.168,41.01600000000001,-37.598,0.0,0
1581611425.434,57.129,-972.168,41.992,-33.691,0.0,0
1581611425.438,-140.625,-972.6560000000001,45.41,-30.761999999999997,0.0,0
1581611425.44,336.426,-972.6560000000001,53.223,-31.25,0.0,0
1581611425.444,594.238,-972.168,54.199,-45.898,0.0,0
1581611425.448,105.469,-972.6560000000001,47.852,-42.48,0.0,0
1581611425.4520001,-281.25,-972.168,48.828,-41.992,0.0,0
1581611425.456,45.898,-972.168,53.71100000000001,-44.922,0.0,0
1581611425.46,406.25,-972.168,57.129,-30.761999999999997,0.0,0
1581611425.464,83.984,-972.6560000000001,54.199,-31.25,0.0,0
1581611425.467,-459.473,-972.6560000000001,48.34,-25.391,0.0,0
1581611425.471,-277.344,-972.168,51.758,-32.715,0.0,0
1581611425.475,312.5,-972.6560000000001,54.199,-34.18,0.0,0
1581611425.4789999,194.33599999999998,-972.168,48.34,-21.97300000000001,0.0,0
1581611425.4829998,-357.42199999999997,-972.6560000000001,55.663999999999994,-19.043,0.0,0
1581611425.484,-344.727,-972.6560000000001,67.87100000000001,-1.953,0.0,0
1581611425.488,168.945,-972.168,71.777,-12.695,0.0,0
1581611425.492,213.86700000000002,-972.168,71.777,-26.366999999999997,0.0,0
1581611425.496,-274.902,-972.168,74.707,-3.906,0.0,0
1581611425.5,-423.34,-972.168,77.148,12.695,0.0,0
1581611425.504,-7.812,-972.6560000000001,74.219,15.137,0.0,0
1581611425.508,236.328,-972.6560000000001,65.918,-6.348,0.0,0
1581611425.5110002,-179.688,-972.6560000000001,63.477,-2.441,0.0,0
1581611425.515,-458.00800000000004,-972.168,66.895,29.296999999999997,0.0,0
1581611425.519,-102.539,-972.168,57.617,32.715,0.0,0
1581611425.5229998,300.293,-972.6560000000001,57.129,24.901999999999997,0.0,0
1581611425.5270002,48.34,-972.6560000000001,57.617,2.93,0.0,0
1581611425.529,-416.99199999999996,-972.6560000000001,52.733999999999995,17.09,0.0,0
1581611425.533,-300.293,-972.6560000000001,51.758,40.527,0.0,0
1581611425.5370002,161.621,-972.6560000000001,53.71100000000001,20.02,0.0,0
1581611425.5410001,113.77,-972.6560000000001,51.27,2.93,0.0,0
1581611425.545,-406.25,-972.6560000000001,40.527,-1.465,0.0,0
1581611425.549,-499.51199999999994,-972.6560000000001,35.156,11.719000000000001,0.0,0
1581611425.553,-56.152,-972.168,38.086,8.301,0.0,0
1581611425.556,135.74200000000002,-972.168,43.945,-10.742,0.0,0
1581611425.56,-225.09799999999998,-972.6560000000001,43.945,5.859,0.0,0
1581611425.564,-483.88699999999994,-972.168,38.574,19.531,0.0,0
1581611425.5679998,-106.934,-972.168,41.01600000000001,12.207,0.0,0
1581611425.572,250.977,-972.168,51.27,5.859,0.0,0
1581611425.589,-80.078,-972.168,52.733999999999995,11.719000000000001,0.0,0
1581611425.593,-495.11699999999996,-972.6560000000001,49.805,20.02,0.0,0
1581611425.5970001,-229.00400000000002,-972.168,46.387,8.301,0.0,0
1581611425.601,286.621,-972.168,49.805,-7.812,0.0,0
1581611425.605,159.668,-972.168,57.617,-8.301,0.0,0
1581611425.609,-396.973,-972.6560000000001,55.663999999999994,0.977,0.0,0
1581611425.613,-371.582,-972.168,59.57,-1.465,0.0,0
1581611425.6160002,257.812,-972.168,68.848,-22.461,0.0,0
1581611425.62,309.57,-972.168,62.988,-19.531,0.0,0
1581611425.6239998,-243.16400000000002,-972.6560000000001,55.663999999999994,-5.859,0.0,0
1581611425.6279998,-352.051,-972.6560000000001,56.152,0.0,0.0,0
1581611425.6320002,175.293,-972.168,63.477,9.277000000000001,0.0,0
1581611425.635,395.02,-972.168,64.941,-3.906,0.0,0
1581611425.639,-76.66,-972.6560000000001,66.895,0.977,0.0,0
1581611425.643,-372.07,-972.168,68.359,26.855,0.0,0
1581611425.647,17.578,-972.6560000000001,65.918,19.043,0.0,0
1581611425.651,387.207,-972.168,62.012,7.812,0.0,0
1581611425.655,18.066,-972.168,63.477,6.836,0.0,0
1581611425.659,-459.961,-972.168,74.219,16.602,0.0,0
1581611425.6620002,-166.016,-972.6560000000001,85.449,25.391,0.0,0
1581611425.6660001,383.789,-972.168,87.891,11.23,0.0,0
1581611425.67,145.996,-972.168,83.49600000000002,0.977,0.0,0
1581611425.674,-370.11699999999996,-972.168,80.078,4.395,0.0,0
1581611425.678,-206.055,-972.168,73.73,2.441,0.0,0
1581611425.679,356.445,-972.6560000000001,72.75399999999998,-3.418,0.0,0
1581611425.6829998,453.125,-972.6560000000001,73.73,-1.953,0.0,0
1581611425.687,49.805,-972.6560000000001,75.195,16.113,0.0,0
1581611425.691,-42.48,-972.168,80.078,20.996,0.0,0
1581611425.695,357.91,-972.168,80.566,12.695,0.0,0
1581611425.699,520.508,-972.168,80.078,8.789,0.0,0
1581611425.7029998,93.262,-972.168,78.125,14.648,0.0,0
1581611425.706,-213.86700000000002,-972.168,74.219,24.901999999999997,0.0,0
1581611425.71,-32.227,-972.168,71.289,15.625,0.0,0
1581611425.714,201.172,-972.168,68.359,6.348,0.0,0
1581611425.718,-21.97300000000001,-972.168,72.75399999999998,19.043,0.0,0
1581611425.7220001,-474.60900000000004,-972.6560000000001,77.637,31.738000000000003,0.0,0
1581611425.725,-354.98,-972.6560000000001,76.172,22.461,0.0,0
1581611425.7289999,98.145,-972.6560000000001,65.918,0.0,0.0,0
1581611425.7329998,30.761999999999997,-972.168,62.5,5.859,0.0,0
1581611425.7370002,-434.57,-972.6560000000001,71.289,18.555,0.0,0
1581611425.7410002,-527.832,-972.6560000000001,74.219,26.855,0.0,0
1581611425.745,-141.113,-972.168,68.848,21.484,0.0,0
1581611425.7489998,-22.949,-972.168,71.289,7.324,0.0,0
1581611425.752,-418.945,-972.6560000000001,78.613,22.461,0.0,0
1581611425.756,-625.977,-972.168,77.148,30.273000000000003,0.0,0
1581611425.76,-151.36700000000005,-972.168,80.078,15.137,0.0,0
1581611425.764,326.66,-972.168,83.008,2.441,0.0,0
1581611425.768,19.043,-972.168,80.078,-19.531,0.0,0
1581611425.769,-258.789,-972.6560000000001,79.59,-22.949,0.0,0
1581611425.7729998,369.629,-972.6560000000001,82.031,-30.761999999999997,0.0,0
1581611425.7770002,-948.242,-972.168,79.59,-48.34,0.0,0
1581611425.7810001,802.7339999999997,-972.168,72.266,-41.992,0.0,0
1581611425.785,211.426,-972.6560000000001,68.359,-45.41,0.0,0
1581611425.789,416.504,-972.6560000000001,69.824,-45.898,0.0,0
1581611425.793,-999.512,-972.168,75.195,-34.18,0.0,0
1581611425.796,876.465,-972.6560000000001,75.195,-24.414,0.0,0
1581611425.8,264.64799999999997,-972.168,77.637,-15.137,0.0,0
1581611425.804,156.738,-972.168,78.613,0.488,0.0,0
1581611425.8079998,592.773,-972.168,75.684,16.113,0.0,0
1581611425.812,594.727,-972.168,76.66,11.23,0.0,0
1581611425.815,8.301,-972.168,71.777,21.97300000000001,0.0,0
1581611425.819,-293.457,-972.168,70.312,30.273000000000003,0.0,0
1581611425.823,-27.831999999999997,-972.168,72.75399999999998,15.625,0.0,0
1581611425.8270001,153.809,-972.168,72.266,10.742,0.0,0
1581611425.831,-223.63299999999998,-972.168,74.707,0.0,0.0,0
1581611425.835,-612.793,-972.6560000000001,72.266,-2.93,0.0,0
1581611425.839,-334.961,-972.6560000000001,67.383,-8.301,0.0,0
1581611425.842,62.012,-972.6560000000001,65.43,-30.761999999999997,0.0,0
1581611425.846,-98.633,-972.168,70.312,-31.25,0.0,0
1581611425.85,-484.86300000000006,-972.168,71.777,0.0,0.0,0
1581611425.8539999,-453.61300000000006,-972.168,63.477,9.766,0.0,0
1581611425.8579998,0.0,-972.6560000000001,65.43,-0.977,0.0,0
1581611425.859,29.296999999999997,-972.6560000000001,65.918,-5.859,0.0,0
1581611425.863,-493.164,-972.6560000000001,59.082,15.625,0.0,0
1581611425.867,-679.199,-972.6560000000001,54.199,31.25,0.0,0
1581611425.871,-248.535,-972.6560000000001,54.199,17.09,0.0,0
1581611425.875,-7.324,-972.168,60.059,3.418,0.0,0
1581611425.879,-463.86699999999996,-972.168,57.129,-0.488,0.0,0
1581611425.883,-818.3589999999997,-972.168,52.246,9.766,0.0,0
1581611425.8860002,-443.35900000000004,-972.168,54.199,-2.93,0.0,0
1581611425.89,62.5,-972.168,57.617,-19.531,0.0,0
1581611425.894,-217.285,-972.168,51.27,-16.602,0.0,0
1581611425.8979998,-718.75,-972.168,46.387,-18.555,0.0,0
1581611425.9020002,-520.508,-972.168,54.688,-11.23,0.0,0
1581611425.904,-11.719000000000001,-972.168,61.523,4.883,0.0,0
1581611425.908,-147.461,-972.168,56.152,6.836,0.0,0
1581611425.9120002,-691.895,-972.168,50.293,-2.93,0.0,0
1581611425.9160001,-652.832,-972.6560000000001,59.57,-0.977,0.0,0
1581611425.92,-75.195,-972.168,66.895,9.277000000000001,0.0,0
1581611425.924,23.438000000000002,-972.168,68.848,15.137,0.0,0
1581611425.928,-529.785,-972.6560000000001,67.87100000000001,19.531,0.0,0
1581611425.931,-623.047,-972.168,69.824,0.488,0.0,0
1581611425.935,-20.02,-972.168,63.477,-14.648,0.0,0
1581611425.939,264.64799999999997,-972.168,60.547,-14.16,0.0,0
1581611425.9429998,-158.691,-972.168,61.523,-13.672,0.0,0
1581611425.947,-493.164,-972.168,58.105,-2.441,0.0,0
1581611425.949,-162.109,-972.168,62.012,-17.09,0.0,0
1581611425.9529998,208.984,-972.6560000000001,61.035,-24.414,0.0,0
1581611425.957,-41.992,-972.168,63.965,5.371,0.0,0
1581611425.961,-434.57,-972.168,66.895,15.137,0.0,0
1581611425.965,-232.91,-972.168,71.289,7.812,0.0,0
1581611425.9689999,191.40599999999998,-972.168,71.777,-10.254000000000001,0.0,0
1581611425.9729998,42.968999999999994,-972.6560000000001,78.125,-33.203,0.0,0
1581611425.976,-414.551,-972.168,89.355,-23.438000000000002,0.0,0
1581611425.98,-459.961,-972.168,83.008,-12.207,0.0,0
1581611425.984,-75.684,-972.6560000000001,71.289,-19.043,0.0,0
1581611425.988,30.761999999999997,-972.168,67.87100000000001,-45.898,0.0,0
1581611425.992,-350.098,-972.168,70.312,-38.574,0.0,0
1581611426.0089998,-524.414,-972.6560000000001,73.242,1.953,0.0,0
1581611426.0129998,-85.93799999999996,-972.168,73.242,1.465,0.0,0
1581611426.0170002,253.90599999999998,-972.6560000000001,70.801,-11.719000000000001,0.0,0
1581611426.0210001,-90.82,-972.168,69.336,-29.296999999999997,0.0,0
1581611426.025,-487.305,-972.168,64.453,-32.715,0.0,0
1581611426.029,-196.77700000000002,-972.6560000000001,62.988,-26.855,0.0,0
1581611426.033,360.84,-972.6560000000001,71.777,-54.688,0.0,0
1581611426.036,293.457,-972.6560000000001,72.266,-64.453,0.0,0
1581611426.04,-158.203,-972.168,64.453,-74.219,0.0,0
1581611426.044,-122.07,-972.168,64.941,-84.961,0.0,0
1581611426.0479999,413.574,-972.6560000000001,71.289,-65.43,0.0,0
1581611426.052,448.73,-972.6560000000001,72.75399999999998,-59.082,0.0,0
1581611426.054,-156.25,-972.6560000000001,65.918,-46.387,0.0,0
1581611426.0579998,-321.777,-972.168,62.5,-45.41,0.0,0
1581611426.062,173.828,-972.168,64.941,-50.78100000000001,0.0,0
1581611426.066,337.89099999999996,-972.168,63.965,-41.01600000000001,0.0,0
1581611426.07,-225.09799999999998,-972.6560000000001,56.152,-32.227,0.0,0
1581611426.074,-582.52,-972.168,52.246,-20.996,0.0,0
1581611426.0779998,-190.918,-972.168,59.57,-48.828,0.0,0
1581611426.081,207.03099999999998,-972.168,60.547,-80.566,0.0,0
1581611426.085,-140.137,-972.168,50.78100000000001,-68.848,0.0,0
1581611426.089,-549.805,-972.168,50.293,-54.199,0.0,0
1581611426.093,-165.03900000000004,-972.168,55.663999999999994,-53.223,0.0,0
1581611426.0970001,335.449,-972.168,47.363,-63.477,0.0,0
1581611426.099,88.37899999999998,-972.168,46.875,-63.965,0.0,0
1581611426.103,-457.031,-972.168,52.246,-27.831999999999997,0.0,0
1581611426.107,-422.36300000000006,-972.6560000000001,52.733999999999995,-13.184000000000001,0.0,0
1581611426.111,31.25,-972.168,59.57,-7.324,0.0,0
1581611426.115,31.25,-972.168,61.523,-8.301,0.0,0
1581611426.119,-519.043,-972.6560000000001,56.152,-6.348,0.0,0
1581611426.123,-670.898,-972.6560000000001,58.593999999999994,4.395,0.0,0
1581611426.1260002,-160.645,-972.168,62.012,0.0,0.0,0
1581611426.13,1.953,-972.168,57.617,2.441,0.0,0
1581611426.1339998,-430.664,-972.168,60.547,-18.066,0.0,1
1581611426.1379998,-634.766,-972.168,64.941,-2.93,0.0,0
1581611426.1420002,-269.043,-972.168,61.523,14.16,0.0,0
1581611426.144,149.90200000000004,-972.168,59.57,-8.789,0.0,0
1581611426.1479998,-90.33200000000001,-972.168,64.941,0.0,0.0,0
1581611426.1520002,-509.277,-972.168,70.312,6.348,0.0,0
1581611426.1560001,-332.52,-972.168,71.777,-2.441,0.0,0
1581611426.16,152.344,-972.168,70.312,-4.395,0.0,0
1581611426.164,57.617,-972.168,70.312,-12.695,0.0,0
1581611426.168,-463.379,-972.168,72.75399999999998,-3.418,0.0,0
1581611426.171,-489.746,-972.168,69.824,-6.348,0.0,0
1581611426.175,-12.207,-972.168,63.477,-23.438000000000002,0.0,0
1581611426.179,196.28900000000002,-972.168,62.012,-17.578,0.0,0
1581611426.1829998,-247.07,-972.168,61.035,-11.719000000000001,0.0,0
1581611426.187,-443.35900000000004,-972.168,57.617,-8.789,0.0,0
1581611426.189,22.461,-972.6560000000001,52.246,-25.391,0.0,0
1581611426.1929998,318.3590000000001,-972.6560000000001,53.223,-25.879,0.0,0
1581611426.197,-78.613,-972.168,52.246,-12.695,0.0,0
1581611426.201,-471.68,-972.168,57.129,-12.207,0.0,0
1581611426.205,-175.293,-972.6560000000001,64.453,-5.371,0.0,0
1581611426.2089999,201.172,-972.6560000000001,60.547,-20.508000000000006,0.0,0
1581611426.2129998,-77.148,-972.6560000000001,60.547,-14.16,0.0,0
1581611426.216,-624.023,-972.168,56.152,7.812,0.0,0
1581611426.22,-478.51599999999996,-972.168,53.71100000000001,3.906,0.0,0
1581611426.224,119.141,-972.168,51.27,-4.883,0.0,0
1581611426.228,38.574,-972.168,50.293,-14.648,0.0,0
1581611426.232,-507.81199999999995,-972.6560000000001,51.758,-9.766,0.0,0
1581611426.234,-553.2230000000002,-972.168,52.246,-0.977,0.0,0
1581611426.238,-60.547,-972.6560000000001,53.223,-12.695,0.0,0
1581611426.242,38.574,-972.168,54.688,-9.277000000000001,0.0,0
1581611426.246,-489.25800000000004,-972.168,59.082,-2.93,0.0,0
1581611426.25,-724.6089999999997,-972.168,60.059,5.371,0.0,0
1581611426.254,-300.781,-972.168,64.453,18.555,0.0,0
1581611426.258,-43.457,-972.168,64.941,14.648,0.0,0
1581611426.2610002,-452.63699999999994,-972.168,60.059,19.531,0.0,0
1581611426.265,-746.0939999999997,-972.168,66.406,21.97300000000001,0.0,0
1581611426.269,-429.199,-972.168,65.43,19.531,0.0,0
1581611426.2729998,-27.344,-972.168,59.082,15.137,0.0,0
1581611426.2770002,-245.11700000000002,-972.168,54.688,10.254000000000001,0.0,0
1581611426.279,-723.633,-972.168,50.78100000000001,20.02,0.0,0
1581611426.283,-644.531,-972.168,51.758,27.831999999999997,0.0,0
1581611426.2870002,-169.922,-972.168,46.387,25.391,0.0,0
1581611426.2910001,-176.75799999999995,-972.168,44.434,20.996,0.0,0
1581611426.295,-664.062,-972.6560000000001,45.41,29.296999999999997,0.0,0
1581611426.299,-774.9019999999997,-972.168,43.457,39.062,0.0,0
1581611426.303,-399.414,-972.168,42.968999999999994,24.414,0.0,0
1581611426.306,-158.691,-972.168,46.387,13.672,0.0,0
1581611426.31,-460.93800000000016,-972.168,48.34,22.949,0.0,0
1581611426.314,-740.7230000000003,-972.168,47.852,22.461,0.0,0
1581611426.3179998,-357.91,-972.6560000000001,50.78100000000001,10.254000000000001,0.0,0
1581611426.322,51.27,-972.168,52.733999999999995,-5.371,0.0,0
1581611426.324,-219.727,-972.168,53.71100000000001,1.465,0.0,0
1581611426.3279998,-649.9019999999998,-972.168,52.246,15.625,0.0,0
1581611426.332,-416.99199999999996,-972.6560000000001,47.363,5.371,0.0,0
1581611426.336,139.16,-972.168,49.316,-13.672,0.0,0
1581611426.34,56.152,-972.168,49.805,-17.578,0.0,0
1581611426.3439999,-509.76599999999996,-972.168,47.363,-9.766,0.0,0
1581611426.3479998,-505.371,-972.6560000000001,55.176,-9.277000000000001,0.0,0
1581611426.351,152.344,-972.168,63.477,0.488,0.0,0
1581611426.355,293.457,-972.168,64.453,4.395,0.0,0
1581611426.359,-253.90599999999998,-972.6560000000001,59.082,-5.371,0.0,0
1581611426.363,-418.457,-972.168,59.57,-4.883,0.0,0
1581611426.367,96.191,-972.168,64.941,-3.906,0.0,0
1581611426.3839998,354.004,-972.168,58.105,-1.465,0.0,0
1581611426.3879998,-110.352,-972.6560000000001,53.223,2.93,0.0,0
1581611426.3920002,-454.102,-972.6560000000001,53.71100000000001,0.0,0.0,0
1581611426.3960001,-84.961,-972.6560000000001,58.593999999999994,-5.859,0.0,0
1581611426.4,312.5,-972.168,60.547,-8.301,0.0,0
1581611426.404,-15.137,-972.6560000000001,56.152,-10.254000000000001,0.0,0
1581611426.408,-446.289,-972.6560000000001,62.5,-5.859,0.0,0
1581611426.411,-177.734,-972.6560000000001,63.477,-11.23,0.0,0
1581611426.415,355.469,-972.168,54.199,-27.831999999999997,0.0,0
1581611426.419,253.90599999999998,-972.168,51.27,-24.414,0.0,0
1581611426.4229999,-141.113,-972.168,58.593999999999994,-10.742,0.0,0
1581611426.427,-2.441,-972.168,58.105,-2.441,0.0,0
1581611426.429,490.23400000000004,-972.168,44.922,-21.484,0.0,0
1581611426.4329998,597.656,-972.168,41.992,-27.344,0.0,0
1581611426.437,162.109,-972.168,50.293,-7.812,0.0,0
1581611426.441,-48.828,-972.168,51.758,6.348,0.0,0
1581611426.445,292.969,-972.168,53.223,11.23,0.0,0
1581611426.449,442.38300000000004,-972.168,51.758,-0.977,0.0,0
1581611426.4529998,-25.879,-972.168,54.199,1.953,0.0,0
1581611426.456,-370.11699999999996,-972.168,60.059,13.184000000000001,0.0,0
1581611426.46,-156.25,-972.168,55.663999999999994,6.348,0.0,0
1581611426.464,185.05900000000003,-972.6560000000001,52.246,-17.09,0.0,0
1581611426.468,75.684,-972.6560000000001,57.617,-25.879,0.0,0
1581611426.4720001,-355.957,-972.6560000000001,57.129,-13.672,0.0,0
1581611426.475,-267.09,-972.6560000000001,52.733999999999995,-22.461,0.0,0
1581611426.4789999,244.141,-972.168,50.293,-41.504,0.0,0
1581611426.4829998,235.84,-972.168,51.27,-45.41,0.0,0
1581611426.4870002,-326.172,-972.6560000000001,53.71100000000001,-30.273000000000003,0.0,0
1581611426.4910002,-416.99199999999996,-972.168,60.059,-14.16,0.0,0
1581611426.495,75.195,-972.168,62.5,-26.366999999999997,0.0,0
1581611426.4989998,227.53900000000002,-972.168,60.547,-32.715,0.0,0
1581611426.502,-149.414,-972.168,58.593999999999994,-14.648,0.0,0
1581611426.506,-398.926,-972.168,49.805,-17.578,0.0,0
1581611426.51,109.863,-972.168,57.129,-35.645,0.0,0
1581611426.514,729.492,-972.168,58.593999999999994,-43.945,0.0,0
1581611426.518,466.79699999999997,-972.168,47.852,-63.477,0.0,0
1581611426.519,101.074,-972.168,49.805,-65.918,0.0,0
1581611426.5229998,467.773,-972.168,55.663999999999994,-77.148,0.0,0
1581611426.5270002,991.211,-972.168,55.663999999999994,-83.008,0.0,0
1581611426.5310001,793.945,-972.168,54.199,-68.359,0.0,0
1581611426.535,239.25799999999998,-972.168,56.152,-41.01600000000001,0.0,0
1581611426.539,235.84,-972.168,53.71100000000001,-20.996,0.0,0
1581611426.543,625.977,-972.6560000000001,54.688,-29.296999999999997,0.0,0
1581611426.546,476.56199999999995,-972.168,57.129,-2.441,0.0,0
1581611426.55,-199.707,-972.168,65.43,24.414,0.0,0
1581611426.554,-362.305,-972.168,76.66,32.715,0.0,0
1581611426.5579998,20.508000000000006,-972.168,68.359,22.461,0.0,0
1581611426.562,97.656,-972.168,60.547,0.977,0.0,0
1581611426.565,-394.531,-972.168,65.43,11.23,0.0,0
1581611426.569,-651.367,-972.168,65.918,16.602,0.0,0
1581611426.573,-271.973,-972.168,65.43,0.0,0.0,0
1581611426.5770001,92.285,-972.168,70.312,-26.855,0.0,0
1581611426.581,-177.734,-972.168,71.777,-36.133,0.0,0
1581611426.585,-583.984,-972.6560000000001,70.312,-8.301,0.0,0
1581611426.589,-316.895,-972.6560000000001,69.336,-3.906,0.0,0
1581611426.592,125.977,-972.168,60.547,-11.719000000000001,0.0,0
1581611426.596,-15.625,-972.168,61.523,-19.043,0.0,0
1581611426.6,-445.31199999999995,-972.6560000000001,73.73,-17.578,0.0,0
1581611426.6039999,-474.121,-972.6560000000001,75.195,10.742,0.0,0
1581611426.6079998,-29.785,-972.168,66.895,10.254000000000001,0.0,0
1581611426.61,21.97300000000001,-972.168,63.477,7.812,0.0,0
1581611426.6139998,-502.93,-972.168,63.477,13.184000000000001,0.0,0
1581611426.6179998,-729.492,-972.168,63.965,15.137,0.0,0
1581611426.6220002,-298.828,-972.168,66.895,15.625,0.0,0
1581611426.6260002,-9.766,-972.168,70.312,5.859,0.0,0
1581611426.63,-449.707,-972.6560000000001,68.359,2.93,0.0,0
1581611426.6339998,-828.613,-972.6560000000001,76.172,-10.742,0.0,0
1581611426.637,-498.04699999999997,-972.168,85.449,-24.901999999999997,0.0,0
1581611426.641,-19.043,-972.6560000000001,87.891,-24.414,0.0,0
1581611426.645,-263.184,-972.6560000000001,91.79700000000001,-19.531,0.0,0
1581611426.649,-754.395,-972.168,94.727,-0.488,0.0,0
1581611426.6529999,-599.121,-972.6560000000001,90.33200000000001,-19.531,0.0,0
1581611426.654,-97.16799999999999,-972.6560000000001,86.426,-36.133,0.0,0
1581611426.658,-149.90200000000004,-972.168,83.984,-20.996,0.0,0
1581611426.6620002,-641.602,-972.168,83.008,-19.531,0.0,0
1581611426.6660001,-638.672,-972.6560000000001,83.984,-16.113,0.0,0
1581611426.67,-82.52,-972.6560000000001,79.102,-30.273000000000003,0.0,0
1581611426.674,27.344,-972.168,71.289,-39.062,0.0,0
1581611426.678,-491.211,-972.168,75.684,-22.949,0.0,0
1581611426.681,-583.496,-972.6560000000001,82.031,-24.901999999999997,0.0,0
1581611426.685,29.785,-972.168,81.543,-23.438000000000002,0.0,0
1581611426.689,356.934,-972.168,75.684,-44.922,0.0,0
1581611426.6929998,-25.391,-972.168,68.848,-55.663999999999994,0.0,0
1581611426.697,-334.961,-972.168,72.75399999999998,-22.461,0.0,0
1581611426.715,-16.113,-972.168,77.148,-22.949,0.0,0
1581611426.7189999,374.023,-972.168,75.684,-33.691,0.0,0
1581611426.7229998,78.613,-972.168,77.637,-43.945,0.0,0
1581611426.7270002,-473.145,-972.168,80.078,-44.922,0.0,0
1581611426.731,-410.156,-972.6560000000001,80.078,-28.32,0.0,0
1581611426.735,-31.25,-972.168,77.637,-27.831999999999997,0.0,0
1581611426.7389998,-140.137,-972.6560000000001,76.172,-23.438000000000002,0.0,0
1581611426.742,-549.805,-972.6560000000001,77.637,-17.578,0.0,0
1581611426.746,-550.781,-972.6560000000001,82.031,0.488,0.0,0
1581611426.75,-114.74600000000001,-972.168,79.102,27.831999999999997,0.0,0
1581611426.754,53.71100000000001,-972.168,72.75399999999998,14.648,0.0,0
1581611426.758,-286.133,-972.6560000000001,77.637,13.184000000000001,0.0,0
1581611426.7589998,-476.074,-972.168,77.148,2.93,0.0,0
1581611426.7629998,-29.785,-972.168,70.801,-46.387,0.0,0
1581611426.7670002,469.23800000000006,-972.168,64.941,-55.176,0.0,0
1581611426.7710001,299.805,-972.6560000000001,62.988,-47.852,0.0,0
1581611426.775,-45.898,-972.168,65.918,-34.668,0.0,0
1581611426.779,178.71099999999996,-972.168,67.383,-45.41,0.0,0
1581611426.783,595.703,-972.168,66.406,-66.895,0.0,0
1581611426.786,408.20300000000003,-972.6560000000001,69.336,-48.828,0.0,0
1581611426.79,-136.719,-972.168,70.312,-37.109,0.0,0
1581611426.794,-278.32,-972.6560000000001,68.848,-35.156,0.0,0
1581611426.7979999,134.27700000000002,-972.6560000000001,72.75399999999998,-33.691,0.0,0
1581611426.802,188.965,-972.168,67.87100000000001,-33.691,0.0,0
1581611426.804,-409.18,-972.6560000000001,59.57,-13.672,0.0,0
1581611426.8079998,-595.215,-972.6560000000001,58.105,-3.418,0.0,0
1581611426.812,-97.656,-972.6560000000001,60.059,-15.625,0.0,0
1581611426.816,172.852,-972.6560000000001,61.523,-44.922,0.0,0
1581611426.82,-258.301,-972.6560000000001,60.059,-43.945,0.0,0
1581611426.824,-574.219,-972.168,62.012,-20.02,0.0,0
1581611426.8279998,-181.15200000000002,-972.6560000000001,70.801,-29.785,0.0,0
1581611426.831,288.086,-972.168,70.312,-44.922,0.0,0
1581611426.835,-50.293,-972.168,61.523,-49.805,0.0,0
1581611426.839,-582.52,-972.6560000000001,65.918,-47.852,0.0,0
1581611426.843,-272.949,-972.168,76.172,-27.344,0.0,0
1581611426.8470001,243.16400000000002,-972.168,75.684,-19.531,0.0,0
1581611426.849,60.547,-972.6560000000001,77.637,-18.066,0.0,0
1581611426.853,-447.754,-972.6560000000001,81.055,-19.043,0.0,0
1581611426.857,-401.36699999999996,-972.168,76.172,-14.16,0.0,0
1581611426.861,97.16799999999999,-972.168,79.102,-15.137,0.0,0
1581611426.865,154.297,-972.168,83.984,-16.113,0.0,0
1581611426.869,-360.84,-972.168,80.078,-6.348,0.0,0
1581611426.873,-537.109,-972.168,75.195,-21.97300000000001,0.0,0
1581611426.8760002,-29.785,-972.168,70.312,-29.296999999999997,0.0,0
1581611426.88,231.93400000000003,-972.6560000000001,67.87100000000001,-32.715,0.0,0
1581611426.8839998,-136.719,-972.168,70.801,-36.133,0.0,0
1581611426.8879998,-338.86699999999996,-972.168,73.73,-15.625,0.0,0
1581611426.8920002,-1.953,-972.168,65.918,-29.785,0.0,0
1581611426.894,409.668,-972.168,63.965,-36.621,0.0,0
1581611426.8979998,226.074,-972.6560000000001,74.219,-25.879,0.0,0
1581611426.9020002,-180.176,-972.6560000000001,77.148,-25.879,0.0,0
1581611426.9060001,-59.082,-972.168,71.289,-23.438000000000002,0.0,0
1581611426.91,447.26599999999996,-972.168,69.824,-44.434,0.0,0
1581611426.914,395.02,-972.168,69.824,-48.828,0.0,0
1581611426.918,-95.215,-972.168,70.801,-24.901999999999997,0.0,0
1581611426.921,-141.113,-972.6560000000001,66.895,-16.602,0.0,0
1581611426.925,314.941,-972.168,64.941,-22.461,0.0,0
1581611426.929,569.336,-972.168,69.824,-47.852,0.0,0
1581611426.9329998,144.043,-972.168,66.895,-39.062,0.0,0
1581611426.937,-130.859,-972.6560000000001,65.918,-23.438000000000002,0.0,0
1581611426.94,295.89799999999997,-972.168,74.707,-40.527,0.0,0
1581611426.944,723.145,-972.168,82.52,-35.645,0.0,0
1581611426.948,332.031,-972.6560000000001,78.613,-26.855,0.0,0
1581611426.9520001,-104.98,-972.6560000000001,83.984,-23.438000000000002,0.0,0
1581611426.956,223.145,-972.168,85.93799999999996,-14.16,0.0,0
1581611426.96,656.738,-972.168,78.125,-21.97300000000001,0.0,0
1581611426.964,419.434,-972.6560000000001,77.637,-27.831999999999997,0.0,0
1581611426.967,-131.34799999999998,-972.6560000000001,72.266,-19.043,0.0,0
1581611426.971,8.301,-972.6560000000001,70.801,-19.531,0.0,0
1581611426.975,650.879,-972.168,69.336,-18.066,0.0,0
1581611426.9789999,643.066,-972.168,56.64100000000001,-17.578,0.0,0
1581611426.9829998,104.00399999999999,-972.6560000000001,56.152,-15.625,0.0,0
1581611426.985,26.855,-972.168,59.57,-12.695,0.0,0
1581611426.9889998,529.785,-972.168,54.688,-7.812,0.0,0
1581611426.9929998,684.57,-972.168,51.27,-8.789,0.0,0
1581611426.9970002,217.773,-972.168,59.57,-6.348,0.0,0
1581611427.0010002,-17.578,-972.168,61.523,5.371,0.0,0
1581611427.005,328.61300000000006,-972.168,52.733999999999995,0.977,0.0,0
1581611427.0089998,614.258,-972.168,45.898,-10.742,0.0,0
1581611427.012,216.30900000000003,-972.168,47.852,-5.859,0.0,0
1581611427.016,-157.227,-972.168,55.663999999999994,10.742,0.0,0
1581611427.02,103.027,-972.168,47.363,4.395,0.0,0
1581611427.024,527.344,-972.168,41.504,-11.719000000000001,0.0,0
1581611427.0279999,350.098,-972.168,48.34,-3.906,0.0,0
1581611427.029,-155.762,-972.168,51.27,3.906,0.0,0
1581611427.033,-130.859,-972.168,51.758,10.254000000000001,0.0,0
1581611427.0370002,333.0080000000001,-972.168,47.852,8.301,0.0,0
1581611427.0410001,343.26199999999994,-972.168,48.34,-9.277000000000001,0.0,0
1581611427.045,-190.43,-972.168,57.129,8.789,0.0,0
1581611427.049,-390.625,-972.168,57.617,26.366999999999997,0.0,0
1581611427.053,-10.254000000000001,-972.168,51.758,-3.418,0.0,0
1581611427.056,288.086,-972.168,53.71100000000001,-24.901999999999997,0.0,0
1581611427.06,-73.73,-972.168,55.176,-6.348,0.0,0
1581611427.064,-454.102,-972.6560000000001,55.176,11.719000000000001,0.0,0
1581611427.0679998,-93.262,-972.168,55.663999999999994,1.953,0.0,0
1581611427.072,331.543,-972.168,55.176,-18.066,0.0,0
1581611427.075,75.195,-972.168,53.71100000000001,-13.672,0.0,0
1581611427.079,-403.809,-972.168,54.688,-4.395,0.0,0
1581611427.083,-247.55900000000003,-972.168,62.5,1.465,0.0,0
1581611427.0870001,267.09,-972.168,62.012,-3.418,0.0,0
1581611427.091,169.922,-972.6560000000001,56.64100000000001,-12.207,0.0,0
1581611427.095,-428.223,-972.6560000000001,47.363,-8.789,0.0,0
1581611427.099,-499.023,-972.6560000000001,45.41,-21.97300000000001,0.0,0
1581611427.1020002,123.535,-972.168,52.733999999999995,-22.461,0.0,0
1581611427.106,305.176,-972.168,56.64100000000001,-18.555,0.0,0
1581611427.11,-230.957,-972.6560000000001,50.78100000000001,-20.508000000000006,0.0,0
1581611427.1139998,-422.852,-972.168,45.898,-4.395,0.0,0
1581611427.1179998,14.16,-972.168,41.01600000000001,-16.602,0.0,0
1581611427.1339998,274.902,-972.168,38.574,-24.901999999999997,0.0,0
1581611427.1379998,-109.375,-972.168,41.504,-7.812,0.0,0
1581611427.1420002,-471.191,-972.168,44.922,-5.371,0.0,0
1581611427.1460001,-130.859,-972.6560000000001,52.733999999999995,-4.883,0.0,0
1581611427.15,312.5,-972.6560000000001,57.617,-13.184000000000001,0.0,0
1581611427.154,32.227,-972.168,51.27,-17.578,0.0,0
1581611427.158,-411.621,-972.168,52.246,-1.953,0.0,0
1581611427.161,-117.18799999999999,-972.6560000000001,62.988,-4.395,0.0,0
1581611427.165,478.51599999999996,-972.6560000000001,66.895,-3.906,0.0,0
1581611427.169,395.996,-972.168,67.87100000000001,-2.93,0.0,0
1581611427.1729999,-83.984,-972.168,71.289,-0.977,0.0,0
1581611427.177,-93.75,-972.168,72.75399999999998,8.789,0.0,0
1581611427.179,317.871,-972.168,76.172,2.441,0.0,0
1581611427.1829998,386.719,-972.168,76.66,0.977,0.0,0
1581611427.187,-160.645,-972.6560000000001,73.73,6.836,0.0,0
1581611427.191,-489.746,-972.168,78.613,17.09,0.0,0
1581611427.195,-178.71099999999996,-972.168,83.984,17.09,0.0,0
1581611427.199,48.34,-972.168,86.914,8.789,0.0,0
1581611427.2029998,-326.66,-972.6560000000001,88.867,0.977,0.0,0
1581611427.206,-663.574,-972.6560000000001,90.82,-4.883,0.0,0
1581611427.21,-437.5,-972.168,84.473,1.953,0.0,0
1581611427.214,-62.012,-972.6560000000001,79.102,-18.066,0.0,0
1581611427.218,-151.855,-972.6560000000001,82.031,-24.901999999999997,0.0,0
1581611427.2220001,-590.332,-972.6560000000001,80.566,0.0,0.0,0
1581611427.224,-550.293,-972.168,79.59,-15.137,0.0,0
1581611427.228,-83.984,-972.168,77.637,-23.438000000000002,0.0,0
1581611427.232,-41.01600000000001,-972.168,79.102,-10.254000000000001,0.0,0
1581611427.236,-496.094,-972.168,70.801,1.953,0.0,0
1581611427.24,-549.805,-972.168,62.5,-2.93,0.0,0
1581611427.244,-0.977,-972.6560000000001,62.988,-22.461,0.0,0
1581611427.248,293.945,-972.168,59.57,-28.809,0.0,0
1581611427.2510002,-53.223,-972.168,55.663999999999994,-42.48,0.0,0
1581611427.255,-307.129,-972.6560000000001,56.64100000000001,-63.965,0.0,0
1581611427.2589998,209.96099999999998,-972.6560000000001,63.477,-86.426,0.0,0
1581611427.2629998,777.3439999999997,-972.168,60.547,-91.79700000000001,0.0,0
1581611427.2670002,469.23800000000006,-972.168,56.152,-73.73,0.0,0
1581611427.269,5.371,-972.6560000000001,58.105,-61.523,0.0,0
1581611427.2729998,218.262,-972.6560000000001,61.035,-47.852,0.0,0
1581611427.2770002,625.0,-972.168,63.477,-50.78100000000001,0.0,0
1581611427.2810001,333.9840000000001,-972.168,60.547,-47.363,0.0,0
1581611427.285,-283.691,-972.6560000000001,61.035,0.0,0.0,0
1581611427.289,-336.914,-972.168,64.941,21.484,0.0,0
1581611427.293,61.523,-972.168,64.453,15.137,0.0,0
1581611427.296,6.836,-972.168,47.852,-7.812,0.0,0
1581611427.3,-586.4259999999998,-972.6560000000001,40.527,-19.531,0.0,0
1581611427.304,-640.137,-972.168,48.34,3.906,0.0,0
1581611427.3079998,-111.32799999999999,-972.168,50.293,-4.395,0.0,0
1581611427.312,133.789,-972.168,49.316,-14.16,0.0,0
1581611427.314,-266.60200000000003,-972.6560000000001,44.434,-24.414,0.0,0
1581611427.3179998,-553.711,-972.6560000000001,44.434,-25.879,0.0,0
1581611427.322,-173.34,-972.6560000000001,38.086,-13.184000000000001,0.0,0
1581611427.326,245.11700000000002,-972.6560000000001,37.109,-18.066,0.0,2
1581611427.33,1.465,-972.168,42.968999999999994,-5.859,0.0,0
1581611427.3339999,-446.289,-972.168,43.457,-1.953,0.0,0
1581611427.3379998,-283.691,-972.6560000000001,36.133,-8.789,0.0,0
1581611427.341,116.699,-972.6560000000001,24.414,1.465,0.0,0
1581611427.345,15.137,-972.6560000000001,25.879,4.395,0.0,0
1581611427.349,-416.504,-972.6560000000001,30.273000000000003,16.602,0.0,0
1581611427.353,-480.957,-972.168,28.32,10.254000000000001,0.0,0
1581611427.357,-65.43,-972.168,29.296999999999997,-4.395,0.0,0
1581611427.359,45.41,-972.168,36.621,0.0,0.0,0
1581611427.363,-365.723,-972.168,39.551,-0.488,0.0,0
1581611427.367,-566.895,-972.6560000000001,28.32,7.812,0.0,0
1581611427.371,-135.254,-972.6560000000001,15.625,-9.277000000000001,0.0,0
1581611427.375,230.957,-972.6560000000001,16.602,-25.879,0.0,0
1581611427.379,-154.785,-972.168,20.508000000000006,-8.789,0.0,0
1581611427.383,-570.312,-972.168,20.996,3.906,0.0,0
1581611427.3860002,-318.3590000000001,-972.168,24.901999999999997,11.23,0.0,0
1581611427.39,162.109,-972.168,41.01600000000001,-1.465,0.0,0
1581611427.394,-48.34,-972.168,45.41,-1.953,0.0,0
1581611427.3979998,-582.031,-972.168,40.039,20.996,0.0,0
1581611427.4020002,-476.56199999999995,-972.168,42.968999999999994,20.508000000000006,0.0,0
1581611427.404,42.48,-972.168,48.34,13.184000000000001,0.0,0
1581611427.408,23.926,-972.168,51.27,-1.953,0.0,0
1581611427.4120002,-479.98,-972.168,53.71100000000001,1.465,0.0,0
1581611427.4160001,-493.652,-972.168,60.547,17.09,0.0,0
1581611427.42,68.848,-972.168,58.105,5.371,0.0,0
1581611427.424,260.254,-972.168,51.758,-1.465,0.0,0
1581611427.428,-210.449,-972.168,48.828,-20.02,0.0,0
1581611427.431,-354.49199999999996,-972.168,50.293,-12.207,0.0,0
1581611427.435,201.172,-972.168,56.64100000000001,9.766,0.0,0
1581611427.439,528.32,-972.6560000000001,55.663999999999994,-0.488,0.0,0
1581611427.4429998,116.699,-972.6560000000001,55.176,-7.324,0.0,0
1581611427.447,-323.242,-972.168,53.223,-17.09,0.0,0
1581611427.464,-146.484,-972.168,42.48,-25.391,0.0,0
1581611427.468,185.547,-972.168,34.668,-19.531,0.0,0
1581611427.4720001,-69.336,-972.168,32.715,-21.484,0.0,0
1581611427.476,-526.855,-972.6560000000001,38.574,0.488,0.0,0
1581611427.48,-397.461,-972.168,47.852,11.23,0.0,0
1581611427.484,55.176,-972.168,44.434,15.137,0.0,0
1581611427.488,44.434,-972.168,45.898,27.344,0.0,0
1581611427.4910002,-330.566,-972.168,55.176,21.97300000000001,0.0,0
1581611427.495,-316.406,-972.6560000000001,53.71100000000001,8.301,0.0,0
1581611427.4989998,198.24200000000002,-972.6560000000001,49.316,-23.438000000000002,0.0,0
1581611427.5029998,531.738,-972.168,51.27,-54.199,0.0,0
1581611427.5070002,312.5,-972.168,53.71100000000001,-60.547,0.0,0
1581611427.5089998,122.559,-972.168,53.223,-50.78100000000001,0.0,0
1581611427.5129998,485.352,-972.168,57.129,-58.593999999999994,0.0,0
1581611427.5170002,841.309,-972.6560000000001,57.129,-74.219,0.0,0
1581611427.5210001,536.133,-972.168,53.223,-73.242,0.0,0
1581611427.525,40.527,-972.6560000000001,56.152,-54.688,0.0,0
1581611427.529,103.516,-972.6560000000001,58.593999999999994,-51.27,0.0,0
1581611427.533,458.496,-972.168,61.035,-40.527,0.0,0
1581611427.536,303.223,-972.6560000000001,59.082,-38.574,0.0,0
1581611427.54,-288.574,-972.6560000000001,50.293,-28.809,0.0,0
1581611427.544,-433.594,-972.6560000000001,48.828,-27.831999999999997,0.0,0
1581611427.5479999,81.055,-972.168,55.176,-48.828,0.0,0
1581611427.552,283.691,-972.168,54.199,-47.852,0.0,0
1581611427.554,-179.199,-972.168,51.27,-47.852,0.0,0
1581611427.5579998,-305.664,-972.168,50.78100000000001,-42.48,0.0,0
1581611427.562,237.793,-972.168,51.758,-31.738000000000003,0.0,0
1581611427.566,562.5,-972.6560000000001,54.688,-35.645,0.0,0
1581611427.57,129.88299999999998,-972.168,46.387,-24.414,0.0,0
1581611427.574,-276.367,-972.6560000000001,36.621,-19.531,0.0,0
1581611427.5779998,28.32,-972.6560000000001,42.968999999999994,-20.996,0.0,0
1581611427.581,484.375,-972.6560000000001,45.41,-12.207,0.0,0
1581611427.585,163.086,-972.168,35.645,0.488,0.0,0
1581611427.589,-386.23,-972.168,35.156,17.09,0.0,0
1581611427.593,-147.94899999999996,-972.168,40.527,4.883,0.0,0
1581611427.5970001,359.86300000000006,-972.168,39.062,-10.742,0.0,0
1581611427.6,290.527,-972.168,30.273000000000003,-9.766,0.0,0
1581611427.6039999,-179.688,-972.168,27.344,-11.719000000000001,0.0,0
1581611427.6079998,-173.34,-972.168,22.949,-18.555,0.0,0
1581611427.6120002,326.66,-972.168,17.09,-42.48,0.0,0
1581611427.6160002,448.73,-972.6560000000001,21.97300000000001,-42.968999999999994,0.0,0
1581611427.62,-72.75399999999998,-972.168,23.438000000000002,-32.715,0.0,0
1581611427.6239998,-318.3590000000001,-972.168,28.809,-28.32,0.0,0
1581611427.627,158.691,-972.6560000000001,31.25,-18.555,0.0,0
1581611427.631,383.301,-972.168,28.809,-46.387,0.0,0
1581611427.635,-8.301,-972.168,36.621,-47.363,0.0,0
1581611427.639,-258.789,-972.168,43.457,-12.207,0.0,0
1581611427.643,-11.23,-972.168,41.01600000000001,-10.742,0.0,0
1581611427.645,392.09,-972.6560000000001,45.898,-27.344,0.0,0
1581611427.649,173.34,-972.168,45.41,-37.598,0.0,0
1581611427.6529999,-304.688,-972.168,47.363,-13.184000000000001,0.0,0
1581611427.657,-193.84799999999998,-972.168,46.875,-2.441,0.0,0
1581611427.661,269.531,-972.168,42.48,-22.949,0.0,0
1581611427.665,250.0,-972.168,52.733999999999995,-8.301,0.0,0
1581611427.669,-257.324,-972.6560000000001,57.129,-0.488,0.0,0
1581611427.6720002,-354.49199999999996,-972.6560000000001,49.805,-5.371,0.0,0
1581611427.676,76.172,-972.6560000000001,45.41,-9.766,0.0,0
1581611427.68,323.73,-972.168,47.852,-20.508000000000006,0.0,0
1581611427.684,-102.051,-972.168,56.152,-0.488,0.0,0
1581611427.688,-436.035,-972.168,61.523,9.766,0.0,0
1581611427.689,-73.242,-972.6560000000001,69.824,6.836,0.0,0
1581611427.6929998,291.992,-972.168,71.289,6.836,0.0,0
1581611427.697,-69.336,-972.168,61.523,14.648,0.0,0
1581611427.701,-510.74199999999996,-972.168,69.824,30.273000000000003,0.0,0
1581611427.705,-305.664,-972.6560000000001,72.266,11.719000000000001,0.0,0
1581611427.7089999,104.00399999999999,-972.168,66.406,0.977,0.0,0
1581611427.7129998,-48.828,-972.168,64.941,15.625,0.0,0
1581611427.716,-596.191,-972.6560000000001,68.359,23.438000000000002,0.0,0
1581611427.72,-543.945,-972.6560000000001,80.078,15.625,0.0,0
1581611427.724,37.598,-972.6560000000001,85.93799999999996,6.348,0.0,0
1581611427.728,26.366999999999997,-972.6560000000001,83.984,13.184000000000001,0.0,0
1581611427.732,-514.16,-972.168,83.49600000000002,21.97300000000001,0.0,0
1581611427.735,-613.77,-972.168,81.055,24.414,0.0,0
1581611427.7389998,-133.30100000000002,-972.6560000000001,74.707,17.578,0.0,0
1581611427.7429998,43.457,-972.6560000000001,67.87100000000001,7.324,0.0,0
1581611427.7470002,-414.06199999999995,-972.168,62.988,20.02,0.0,0
1581611427.7510002,-677.7339999999998,-972.6560000000001,62.5,31.738000000000003,0.0,0
1581611427.755,-356.445,-972.6560000000001,55.663999999999994,27.344,0.0,0
1581611427.7589998,-34.18,-972.6560000000001,54.199,18.066,0.0,0
1581611427.762,-363.281,-972.168,57.617,5.371,0.0,0
1581611427.766,-696.7769999999997,-972.168,65.918,15.625,0.0,0
1581611427.77,-430.664,-972.6560000000001,61.523,25.879,0.0,0
1581611427.774,11.23,-972.6560000000001,54.199,10.254000000000001,0.0,0
1581611427.7779999,-83.49600000000002,-972.6560000000001,56.64100000000001,1.465,0.0,0
1581611427.779,-557.129,-972.6560000000001,52.733999999999995,7.812,0.0,0
1581611427.783,-513.184,-972.6560000000001,53.71100000000001,12.207,0.0,0
1581611427.7870002,-14.16,-972.6560000000001,58.593999999999994,-0.488,0.0,0
1581611427.7910001,96.191,-972.6560000000001,57.129,-11.719000000000001,0.0,0
1581611427.795,-325.684,-972.168,58.593999999999994,10.742,0.0,0
1581611427.799,-523.438,-972.6560000000001,60.059,14.648,0.0,0
1581611427.803,-187.988,-972.6560000000001,60.059,-9.766,0.0,0
1581611427.806,125.0,-972.168,69.336,-20.996,0.0,0
1581611427.81,-145.02,-972.6560000000001,71.777,-14.16,0.0,0
1581611427.814,-499.51199999999994,-972.168,65.43,6.348,0.0,0
1581611427.8179998,-240.72299999999998,-972.168,64.941,-4.395,0.0,0
1581611427.822,185.547,-972.6560000000001,63.477,-18.555,0.0,0
1581611427.824,8.301,-972.168,65.918,-15.137,0.0,0
1581611427.8279998,-465.82,-972.168,64.941,0.488,0.0,0
1581611427.832,-360.84,-972.6560000000001,55.663999999999994,-1.953,0.0,0
1581611427.836,167.48,-972.168,51.27,-22.949,0.0,0
1581611427.84,157.715,-972.168,54.688,-21.97300000000001,0.0,0
1581611427.8439999,-430.664,-972.6560000000001,58.105,-11.23,0.0,0
1581611427.8479998,-535.645,-972.168,60.059,-11.23,0.0,0
1581611427.851,66.406,-972.168,64.453,-32.715,0.0,0
1581611427.855,285.645,-972.6560000000001,60.547,-44.922,0.0,0
1581611427.859,-194.33599999999998,-972.6560000000001,55.663999999999994,-35.156,0.0,0
1581611427.863,-371.582,-972.168,61.035,-25.879,0.0,0
1581611427.867,148.92600000000004,-972.168,64.941,-29.785,0.0,0
1581611427.885,544.434,-972.168,60.547,-40.039,0.0,0
1581611427.889,183.59400000000002,-972.168,56.152,-49.316,0.0,0
1581611427.893,-208.49599999999998,-972.168,62.012,-35.645,0.0,0
1581611427.897,119.62899999999999,-972.168,62.012,-32.227,0.0,0
1581611427.901,528.809,-972.168,57.617,-27.831999999999997,0.0,0
1581611427.905,190.43,-972.6560000000001,62.012,-28.809,0.0,0
1581611427.909,-379.395,-972.6560000000001,62.988,-28.32,0.0,0
1581611427.9120002,-285.645,-972.168,57.129,-6.836,0.0,0
1581611427.9160001,161.13299999999995,-972.6560000000001,51.758,-7.812,0.0,0
1581611427.92,24.414,-972.6560000000001,51.758,-13.184000000000001,0.0,0
1581611427.924,-485.352,-972.168,61.035,-14.16,0.0,0
1581611427.928,-485.84,-972.168,60.547,-18.555,0.0,0
1581611427.929,-17.578,-972.168,60.547,-17.09,0.0,0
1581611427.9329998,165.52700000000004,-972.6560000000001,57.617,-30.273000000000003,0.0,0
1581611427.937,-231.445,-972.168,53.71100000000001,-28.32,0.0,0
1581611427.941,-473.63300000000004,-972.168,62.012,-18.555,0.0,0
1581611427.945,-146.97299999999996,-972.6560000000001,62.012,-33.691,0.0,0
1581611427.949,177.24599999999995,-972.6560000000001,58.105,-22.461,0.0,0
1581611427.9529998,-112.305,-972.6560000000001,54.688,-12.695,0.0,0
1581611427.956,-444.336,-972.6560000000001,58.105,-0.977,0.0,0
1581611427.96,-257.812,-972.168,56.64100000000001,-11.23,0.0,0
1581611427.964,150.391,-972.168,57.129,-41.01600000000001,0.0,0
1581611427.968,178.71099999999996,-972.168,68.359,-23.926,0.0,0
1581611427.9720001,-185.547,-972.168,66.895,-10.254000000000001,0.0,0
1581611427.974,-75.195,-972.168,64.453,-25.391,0.0,0
1581611427.978,530.762,-972.168,62.988,-58.105,0.0,0
1581611427.982,677.7339999999998,-972.168,65.918,-69.824,0.0,0
1581611427.986,209.47299999999998,-972.168,68.848,-38.086,0.0,0
1581611427.99,30.761999999999997,-972.168,66.406,-33.691,0.0,0
1581611427.994,410.156,-972.168,67.383,-35.156,0.0,0
1581611427.998,607.422,-972.168,67.383,-31.738000000000003,0.0,0
1581611428.0010002,128.906,-972.168,65.918,-19.531,0.0,0
1581611428.005,-388.184,-972.168,61.035,18.066,0.0,0
1581611428.0089998,-167.48,-972.168,62.012,27.344,0.0,0
1581611428.0129998,202.148,-972.6560000000001,62.988,30.761999999999997,0.0,0
1581611428.0170002,-235.352,-972.6560000000001,60.059,26.366999999999997,0.0,0
1581611428.019,-806.1519999999997,-972.6560000000001,61.035,44.434,0.0,0
1581611428.0229998,-647.461,-972.168,64.941,52.246,0.0,0
1581611428.0270002,-167.48,-972.168,62.988,20.02,0.0,0
1581611428.0310001,-254.395,-972.6560000000001,62.012,14.648,0.0,0
1581611428.035,-693.3589999999997,-972.168,61.035,2.93,0.0,0
1581611428.039,-644.531,-972.168,52.733999999999995,-7.324,0.0,0
1581611428.043,-118.652,-972.168,51.27,7.812,0.0,0
1581611428.046,14.16,-972.168,47.363,6.836,0.0,0
1581611428.05,-486.32800000000003,-972.6560000000001,44.922,7.324,0.0,0
1581611428.054,-583.008,-972.168,54.688,7.324,0.0,0
1581611428.0579998,-140.137,-972.168,59.082,5.859,0.0,0
1581611428.062,66.895,-972.168,53.71100000000001,26.855,0.0,0
1581611428.065,-338.379,-972.6560000000001,45.41,39.551,0.0,0
1581611428.069,-710.938,-972.6560000000001,49.316,45.898,0.0,0
1581611428.073,-458.496,-972.168,54.688,37.109,0.0,0
1581611428.0770001,-96.68,-972.168,56.152,17.578,0.0,0
1581611428.081,-359.86300000000006,-972.168,51.758,29.296999999999997,0.0,0
1581611428.085,-861.816,-972.168,44.434,37.598,0.0,0
1581611428.089,-738.2810000000003,-972.168,47.852,29.785,0.0,0
1581611428.092,-256.836,-972.168,51.27,-6.836,0.0,0
1581611428.096,-241.21099999999998,-972.168,54.688,-18.555,0.0,0
1581611428.1,-583.984,-972.168,61.035,15.137,0.0,0
1581611428.1039999,-621.094,-972.168,60.059,15.625,0.0,0
1581611428.1079998,-171.875,-972.168,59.082,4.883,0.0,0
1581611428.11,-3.906,-972.168,59.57,-6.836,0.0,0
1581611428.1139998,-465.82,-972.168,53.71100000000001,-5.371,0.0,0
1581611428.1179998,-728.5160000000003,-972.168,50.293,12.207,0.0,0
1581611428.1220002,-321.289,-972.168,54.199,10.742,0.0,0
1581611428.1260002,64.941,-972.168,57.617,0.488,0.0,0
1581611428.13,-270.508,-972.168,53.223,-9.766,0.0,0
1581611428.1339998,-672.852,-972.168,47.852,-5.859,0.0,0
1581611428.137,-380.85900000000004,-972.168,50.293,3.418,0.0,0
1581611428.141,235.84,-972.168,55.176,-11.719000000000001,0.0,0
1581611428.145,177.24599999999995,-972.168,52.733999999999995,-19.043,0.0,0
1581611428.149,-278.809,-972.168,50.293,-18.555,0.0,0
1581611428.1529999,-129.395,-972.168,49.805,-25.879,0.0,0
1581611428.155,437.5,-972.168,45.41,-28.32,0.0,0
1581611428.159,430.176,-972.168,40.527,-37.598,0.0,0
1581611428.1629999,-118.652,-972.6560000000001,44.922,-34.668,0.0,0
1581611428.167,-250.0,-972.168,43.945,-36.133,0.0,0
1581611428.171,157.227,-972.168,41.01600000000001,-46.875,0.0,0
1581611428.175,274.902,-972.168,45.898,-45.41,0.0,0
1581611428.179,-265.625,-972.6560000000001,49.805,-38.086,0.0,0
1581611428.1820002,-507.81199999999995,-972.168,59.082,-19.043,0.0,0
1581611428.186,1.465,-972.168,62.012,-26.366999999999997,0.0,0
1581611428.19,377.93,-972.168,54.688,-35.156,0.0,0
1581611428.194,84.473,-972.168,57.129,-12.207,0.0,0
1581611428.198,-270.508,-972.168,62.012,-9.277000000000001,0.0,0
1581611428.199,10.254000000000001,-972.168,64.941,-31.738000000000003,0.0,0
1581611428.2029998,561.035,-972.168,67.383,-62.012,0.0,0
1581611428.207,522.461,-972.6560000000001,66.406,-75.195,0.0,0
1581611428.211,180.176,-972.168,72.75399999999998,-67.87100000000001,0.0,0
1581611428.215,326.172,-972.6560000000001,64.453,-76.66,0.0,0
1581611428.2189999,776.367,-972.168,50.293,-83.49600000000002,0.0,0
1581611428.2229998,786.133,-972.168,49.316,-97.656,0.0,0
1581611428.226,361.816,-972.6560000000001,49.805,-99.609,0.0,0
1581611428.23,220.703,-972.168,50.293,-76.172,0.0,0
1581611428.234,566.895,-972.168,45.898,-75.684,0.0,0
1581611428.238,717.773,-972.168,50.293,-66.895,0.0,0
1581611428.242,212.891,-972.168,55.663999999999994,-49.805,0.0,0
1581611428.2589998,-238.77,-972.168,51.27,-19.531,0.0,0
1581611428.2629998,-31.25,-972.6560000000001,56.64100000000001,-8.789,0.0,0
1581611428.2670002,291.504,-972.168,57.617,-17.578,0.0,0
1581611428.2710001,-2.441,-972.168,58.105,-17.09,0.0,0
1581611428.275,-477.539,-972.6560000000001,55.663999999999994,-23.926,0.0,0
1581611428.279,-341.79699999999997,-972.6560000000001,56.152,-21.97300000000001,0.0,0
1581611428.283,195.801,-972.168,61.523,-25.879,0.0,0
1581611428.286,222.168,-972.168,61.523,-42.48,0.0,0
1581611428.29,-243.65200000000002,-972.168,68.359,-27.344,0.0,0
1581611428.294,-375.977,-972.168,72.266,-22.461,0.0,0
1581611428.2979999,60.547,-972.168,71.777,-28.809,0.0,0
1581611428.302,245.605,-972.168,75.195,-17.09,0.0,0
1581611428.304,-284.668,-972.168,71.289,-11.23,0.0,0
1581611428.3079998,-537.5980000000002,-972.168,69.824,4.883,0.0,0
1581611428.312,-93.262,-972.168,67.87100000000001,-9.277000000000001,0.0,0
1581611428.316,207.52,-972.6560000000001,65.43,-12.207,0.0,0
1581611428.32,-185.547,-972.168,65.43,16.602,0.0,0
1581611428.324,-561.035,-972.168,68.359,22.949,0.0,0
1581611428.3279998,-229.98,-972.168,71.777,10.254000000000001,0.0,0
1581611428.331,287.598,-972.168,65.43,-14.16,0.0,0
1581611428.335,40.527,-972.168,52.733999999999995,-23.438000000000002,0.0,0
1581611428.339,-507.324,-972.168,49.316,-7.812,0.0,0
1581611428.343,-296.387,-972.168,54.688,0.488,0.0,0
1581611428.3470001,247.55900000000003,-972.6560000000001,59.57,-7.812,0.0,0
1581611428.349,165.03900000000004,-972.6560000000001,63.477,-21.484,0.0,0
1581611428.353,-353.027,-972.6560000000001,70.312,-15.625,0.0,0
1581611428.357,-363.281,-972.168,71.289,-2.93,0.0,0
1581611428.361,139.16,-972.168,64.453,-19.043,0.0,0
1581611428.365,291.992,-972.168,59.082,-26.366999999999997,0.0,0
1581611428.369,-160.156,-972.168,59.57,-16.113,0.0,0
1581611428.373,-378.906,-972.168,63.477,-5.371,0.0,0
1581611428.3760002,75.684,-972.168,56.64100000000001,-9.766,0.0,0
1581611428.38,370.605,-972.6560000000001,46.387,-29.785,0.0,0
1581611428.3839998,42.48,-972.6560000000001,49.316,-33.203,0.0,0
1581611428.3879998,-226.074,-972.168,51.27,-21.97300000000001,0.0,0
1581611428.3920002,-3.906,-972.6560000000001,46.875,-20.02,0.0,0
1581611428.394,411.13300000000004,-972.6560000000001,48.828,-15.625,0.0,0
1581611428.3979998,275.39099999999996,-972.168,53.71100000000001,-15.625,0.0,0
1581611428.4020002,-200.68400000000003,-972.168,57.129,-20.508000000000006,0.0,0
1581611428.4060001,-199.21900000000002,-972.168,53.223,-17.578,0.0,0
1581611428.41,244.141,-972.168,58.105,-18.066,0.0,0
1581611428.414,254.88299999999998,-972.168,66.406,-14.16,0.0,0
1581611428.418,-246.09400000000002,-972.168,65.918,-1.465,0.0,0
1581611428.421,-395.02,-972.168,62.988,4.883,0.0,0
1581611428.425,38.086,-972.168,68.848,-10.254000000000001,0.0,0
1581611428.429,359.86300000000006,-972.168,75.684,-3.906,0.0,0
1581611428.4329998,-27.344,-972.168,65.918,17.578,0.0,0
1581611428.437,-374.51199999999994,-972.168,62.012,13.184000000000001,0.0,0
1581611428.439,-27.344,-972.168,65.918,9.766,0.0,0
1581611428.4429998,372.07,-972.6560000000001,64.941,0.488,0.0,0
1581611428.447,51.758,-972.6560000000001,55.663999999999994,-5.859,0.0,0
1581611428.451,-429.68800000000016,-972.168,53.223,17.09,0.0,0
1581611428.455,-239.74599999999998,-972.168,59.57,20.02,0.0,0
1581611428.4589999,209.96099999999998,-972.168,53.71100000000001,16.602,0.0,0
1581611428.4629998,56.64100000000001,-972.168,49.805,11.23,0.0,0
1581611428.466,-521.484,-972.168,51.758,21.484,0.0,0
1581611428.47,-491.211,-972.6560000000001,49.805,27.831999999999997,0.0,0
1581611428.474,127.441,-972.168,50.293,17.578,0.0,0
1581611428.478,204.59,-972.168,48.34,17.578,0.0,0
1581611428.482,-311.52299999999997,-972.168,45.41,22.461,0.0,2
1581611428.484,-467.285,-972.168,48.828,39.551,0.0,0
1581611428.488,-24.414,-972.168,45.41,33.203,0.0,0
1581611428.492,219.727,-972.168,31.25,6.348,0.0,0
1581611428.496,-172.363,-972.168,31.25,-2.441,0.0,0
1581611428.5,-465.332,-972.168,40.039,-0.977,0.0,0
1581611428.504,-158.203,-972.168,42.968999999999994,-4.883,0.0,0
1581611428.508,208.49599999999998,-972.168,38.574,-9.277000000000001,0.0,0
1581611428.5110002,-42.968999999999994,-972.168,38.086,-16.113,0.0,0
1581611428.515,-366.699,-972.168,45.898,-10.254000000000001,0.0,0
1581611428.519,-160.156,-972.168,45.898,-12.695,0.0,0
1581611428.5229998,287.598,-972.6560000000001,47.363,-20.508000000000006,0.0,0
1581611428.5270002,250.0,-972.6560000000001,53.223,-25.391,0.0,0
1581611428.529,-202.637,-972.168,53.71100000000001,-15.625,0.0,0
1581611428.533,-239.25799999999998,-972.168,56.152,-21.97300000000001,0.0,0
1581611428.5370002,196.77700000000002,-972.168,54.688,-32.227,0.0,0
1581611428.5410001,338.86699999999996,-972.168,47.852,-22.949,0.0,0
1581611428.545,-92.285,-972.168,50.78100000000001,-27.344,0.0,0
1581611428.549,-338.379,-972.168,57.129,-20.996,0.0,0
1581611428.553,-13.184000000000001,-972.168,54.199,-27.344,0.0,0
1581611428.556,330.0780000000001,-972.168,52.246,-46.875,0.0,0
1581611428.56,100.098,-972.168,56.152,-36.133,0.0,0
1581611428.564,-247.55900000000003,-972.168,55.176,-9.766,0.0,0
1581611428.5679998,45.898,-972.168,55.176,-15.137,0.0,0
1581611428.572,563.965,-972.168,53.71100000000001,-40.527,0.0,0
1581611428.574,419.434,-972.168,47.363,-43.945,0.0,0
1581611428.5779998,-41.992,-972.168,47.363,-17.09,0.0,0
1581611428.582,68.359,-972.168,45.41,-14.16,0.0,0
1581611428.586,594.238,-972.168,43.457,-19.531,0.0,0
1581611428.59,574.219,-972.168,41.504,-16.602,0.0,0
1581611428.5939999,-57.129,-972.168,33.691,-13.184000000000001,0.0,0
1581611428.5979998,-281.738,-972.168,34.668,9.766,0.0,0
1581611428.601,194.824,-972.6560000000001,44.434,6.348,0.0,0
1581611428.605,334.473,-972.168,45.898,13.672,0.0,0
1581611428.609,-244.62900000000002,-972.168,47.852,27.344,0.0,0
1581611428.613,-529.785,-972.168,53.71100000000001,26.366999999999997,0.0,0
1581611428.617,-133.789,-972.6560000000001,53.71100000000001,21.484,0.0,0
1581611428.635,184.57,-972.6560000000001,48.828,4.395,0.0,0
1581611428.639,-144.043,-972.168,47.363,2.93,0.0,0
1581611428.643,-531.25,-972.168,45.898,-1.953,0.0,0
1581611428.647,-290.527,-972.168,45.898,-13.184000000000001,0.0,0
1581611428.651,164.062,-972.168,43.457,-2.441,0.0,0
1581611428.655,-25.391,-972.6560000000001,40.527,2.441,0.0,0
1581611428.659,-484.86300000000006,-972.6560000000001,49.805,22.461,0.0,0
1581611428.6620002,-331.055,-972.168,55.663999999999994,20.02,0.0,0
1581611428.6660001,179.688,-972.168,49.805,4.883,0.0,0
1581611428.67,161.13299999999995,-972.168,46.387,7.812,0.0,0
1581611428.674,-263.184,-972.168,54.199,8.789,0.0,0
1581611428.678,-221.68,-972.6560000000001,57.129,2.441,0.0,0
1581611428.679,338.379,-972.6560000000001,50.78100000000001,-23.438000000000002,0.0,0
1581611428.6829998,660.645,-972.168,47.363,-48.34,0.0,0
1581611428.687,334.473,-972.6560000000001,48.828,-48.34,0.0,0
1581611428.691,73.73,-972.168,43.457,-46.387,0.0,0
1581611428.695,389.16,-972.168,42.48,-53.223,0.0,0
1581611428.699,715.332,-972.6560000000001,41.504,-61.523,0.0,0
1581611428.7029998,365.23400000000004,-972.168,32.227,-51.758,0.0,0
1581611428.706,-120.117,-972.168,38.086,-9.766,0.0,0
1581611428.71,-61.523,-972.6560000000001,42.48,7.324,0.0,0
1581611428.714,211.426,-972.168,43.945,4.395,0.0,0
1581611428.718,98.145,-972.6560000000001,48.828,6.836,0.0,0
1581611428.7220001,-463.379,-972.6560000000001,38.574,30.761999999999997,0.0,0
1581611428.724,-618.6519999999998,-972.6560000000001,29.785,52.733999999999995,0.0,0
1581611428.728,-170.898,-972.168,29.296999999999997,30.273000000000003,0.0,0
1581611428.732,-28.32,-972.168,25.391,17.09,0.0,0
1581611428.736,-457.52,-972.168,18.066,9.277000000000001,0.0,0
1581611428.74,-592.773,-972.168,18.066,-9.277000000000001,0.0,0
1581611428.744,-105.469,-972.168,20.02,-13.672,0.0,0
1581611428.748,258.789,-972.168,19.043,-15.137,0.0,0
1581611428.7510002,-8.789,-972.6560000000001,16.602,-14.648,0.0,0
1581611428.755,-393.066,-972.6560000000001,15.625,-18.066,0.0,0
1581611428.7589998,-100.586,-972.168,24.901999999999997,-23.926,0.0,0
1581611428.7629998,447.754,-972.168,28.809,-6.348,0.0,0
1581611428.7670002,156.738,-972.168,16.113,6.348,0.0,0
1581611428.769,-405.76199999999994,-972.6560000000001,14.648,13.672,0.0,0
1581611428.7729998,-308.105,-972.168,20.508000000000006,6.348,0.0,0
1581611428.7770002,154.785,-972.168,14.16,-7.324,0.0,0
1581611428.7810001,54.199,-972.168,10.742,6.348,0.0,0
1581611428.785,-478.51599999999996,-972.168,18.555,14.16,0.0,0
1581611428.789,-536.133,-972.168,26.366999999999997,12.695,0.0,0
1581611428.793,-30.273000000000003,-972.168,26.366999999999997,-9.277000000000001,0.0,0
1581611428.796,162.109,-972.168,18.066,-32.715,0.0,0
1581611428.8,-298.828,-972.168,15.137,-14.648,0.0,0
1581611428.804,-430.176,-972.6560000000001,22.949,-4.395,0.0,0
1581611428.8079998,4.883,-972.168,19.043,-21.484,0.0,0
1581611428.812,260.254,-972.168,25.391,-41.504,0.0,0
1581611428.814,-119.62899999999999,-972.168,38.086,-33.691,0.0,0
1581611428.8179998,-474.121,-972.6560000000001,29.785,-12.695,0.0,0
1581611428.822,-225.09799999999998,-972.168,21.484,-15.137,0.0,0
1581611428.826,154.297,-972.168,26.855,-21.97300000000001,0.0,0
1581611428.83,-48.828,-972.168,29.785,-21.484,0.0,0
1581611428.8339999,-524.414,-972.168,24.414,-13.672,0.0,0
1581611428.8379998,-424.805,-972.168,23.926,-12.695,0.0,0
1581611428.841,71.777,-972.168,20.02,-28.809,0.0,0
1581611428.845,190.43,-972.168,28.809,-36.133,0.0,0
1581611428.849,-71.289,-972.168,37.598,-31.738000000000003,0.0,0
1581611428.853,-71.777,-972.168,36.621,-26.366999999999997,0.0,0
1581611428.857,428.223,-972.168,42.968999999999994,-24.414,0.0,0
1581611428.859,705.078,-972.168,50.293,-30.273000000000003,0.0,0
1581611428.863,309.082,-972.168,50.293,-24.414,0.0,0
1581611428.867,-50.293,-972.6560000000001,46.387,-26.366999999999997,0.0,0
1581611428.871,208.984,-972.168,46.875,-23.438000000000002,0.0,0
1581611428.875,522.461,-972.168,55.176,-19.531,0.0,0
1581611428.879,127.93,-972.6560000000001,62.012,-19.043,0.0,0
1581611428.883,-391.602,-972.168,57.617,4.883,0.0,0
1581611428.8860002,-213.86700000000002,-972.168,55.176,-0.488,0.0,0
1581611428.89,336.426,-972.168,59.57,-7.812,0.0,0
1581611428.894,261.23,-972.168,56.152,9.766,0.0,0
1581611428.8979998,-269.531,-972.168,55.176,22.949,0.0,0
1581611428.9020002,-223.145,-972.168,62.5,20.996,0.0,0
1581611428.905,355.957,-972.6560000000001,65.918,-17.09,0.0,0
1581611428.909,493.164,-972.168,54.688,-42.968999999999994,0.0,0
1581611428.9129999,66.406,-972.168,44.922,-40.039,0.0,0
1581611428.917,13.184000000000001,-972.6560000000001,50.78100000000001,-63.477,0.0,0
1581611428.921,565.918,-972.6560000000001,56.64100000000001,-85.449,0.0,0
1581611428.925,795.41,-972.168,56.64100000000001,-79.59,0.0,0
1581611428.929,248.047,-972.6560000000001,58.593999999999994,-64.941,0.0,0
1581611428.9320002,-121.58200000000001,-972.6560000000001,64.453,-50.78100000000001,0.0,0
1581611428.936,275.879,-972.168,68.359,-54.199,0.0,0
1581611428.94,610.352,-972.6560000000001,63.965,-48.34,0.0,0
1581611428.944,232.91,-972.6560000000001,57.129,-35.645,0.0,0
1581611428.948,-258.301,-972.168,52.733999999999995,-20.508000000000006,0.0,0
1581611428.949,-131.836,-972.6560000000001,54.199,-16.602,0.0,0
1581611428.9529998,256.348,-972.168,51.27,-13.184000000000001,0.0,0
1581611428.957,103.027,-972.168,46.875,-10.742,0.0,0
1581611428.961,-368.164,-972.168,51.27,-18.555,0.0,0
1581611428.965,-332.52,-972.168,50.78100000000001,-20.02,0.0,0
1581611428.9689999,135.74200000000002,-972.168,47.363,-17.09,0.0,0
1581611428.9729998,250.977,-972.168,55.176,-27.344,0.0,0
1581611428.976,-117.676,-972.6560000000001,60.547,-19.043,0.0,0
1581611428.98,-300.781,-972.168,50.78100000000001,-22.461,0.0,0
1581611428.984,15.625,-972.168,38.086,-34.668,0.0,0
1581611428.988,287.1090000000001,-972.6560000000001,39.551,-30.761999999999997,0.0,0
1581611428.992,10.254000000000001,-972.168,46.387,-26.366999999999997,0.0,0
1581611429.0089998,-321.289,-972.168,31.25,-12.207,0.0,0
1581611429.0129998,-74.219,-972.168,20.508000000000006,-15.625,0.0,0
1581611429.0170002,357.42199999999997,-972.168,28.809,-31.738000000000003,0.0,0
1581611429.0210001,190.43,-972.168,33.203,-32.715,0.0,0
1581611429.025,-250.0,-972.168,27.831999999999997,-20.996,0.0,0
1581611429.029,-163.086,-972.6560000000001,32.227,-22.949,0.0,0
1581611429.033,356.445,-972.6560000000001,41.992,-48.828,0.0,0
1581611429.036,410.645,-972.168,37.598,-40.527,0.0,0
1581611429.04,-72.75399999999998,-972.168,31.25,-21.484,0.0,0
1581611429.044,-210.938,-972.168,34.668,-28.32,0.0,0
1581611429.0479999,287.598,-972.6560000000001,45.898,-37.598,0.0,0
1581611429.052,511.23,-972.6560000000001,45.898,-42.48,0.0,0
1581611429.055,-14.16,-972.168,46.387,-24.901999999999997,0.0,0
1581611429.059,-245.605,-972.168,46.875,-4.395,0.0,0
1581611429.063,192.38299999999998,-972.168,45.41,-19.043,0.0,0
1581611429.0670002,523.438,-972.168,44.922,-33.691,0.0,0
1581611429.071,157.715,-972.168,41.504,-32.227,0.0,0
1581611429.075,-291.992,-972.168,40.039,-21.97300000000001,0.0,0
1581611429.079,-28.809,-972.6560000000001,43.945,-18.555,0.0,0
1581611429.082,500.0,-972.6560000000001,54.199,-26.366999999999997,0.0,0
1581611429.086,290.039,-972.6560000000001,58.593999999999994,-24.901999999999997,0.0,0
1581611429.09,-267.578,-972.168,61.035,-16.602,0.0,0
1581611429.0939999,-94.727,-972.168,65.918,-11.23,0.0,0
1581611429.0979998,436.035,-972.6560000000001,56.64100000000001,-18.066,0.0,0
1581611429.099,381.348,-972.168,49.316,-34.18,0.0,0
1581611429.103,-115.234,-972.168,53.71100000000001,-20.02,0.0,0
1581611429.107,-231.93400000000003,-972.6560000000001,54.688,-11.23,0.0,0
1581611429.111,174.805,-972.168,55.663999999999994,-20.996,0.0,0
1581611429.115,374.023,-972.6560000000001,60.059,-17.578,0.0,0
1581611429.119,-97.656,-972.168,58.105,-4.883,0.0,0
1581611429.123,-414.06199999999995,-972.168,62.988,-0.488,0.0,0
1581611429.1260002,-22.461,-972.6560000000001,69.336,-17.09,0.0,0
1581611429.13,259.277,-972.6560000000001,65.43,-23.926,0.0,0
1581611429.1339998,-83.984,-972.168,62.012,-31.25,0.0,0
1581611429.1379998,-403.32,-972.6560000000001,60.059,-17.09,0.0,0
1581611429.1420002,-228.516,-972.168,53.71100000000001,-8.301,0.0,0
1581611429.144,180.176,-972.168,48.828,-18.555,0.0,0
1581611429.1479998,51.27,-972.168,48.828,-13.672,0.0,0
1581611429.1520002,-448.24199999999996,-972.168,51.758,-2.93,0.0,0
1581611429.1560001,-485.352,-972.168,56.152,9.766,0.0,0
1581611429.16,-67.87100000000001,-972.168,60.059,10.742,0.0,0
1581611429.164,-51.27,-972.168,58.105,-1.953,0.0,0
1581611429.168,-581.055,-972.168,55.663999999999994,8.789,0.0,0
1581611429.171,-779.785,-972.168,59.082,32.715,0.0,0
1581611429.175,-385.254,-972.168,58.105,22.461,0.0,0
1581611429.179,-74.219,-972.168,54.688,8.301,0.0,0
1581611429.1829998,-447.26599999999996,-972.168,49.805,10.254000000000001,0.0,0
1581611429.187,-844.727,-972.168,50.293,36.621,0.0,0
1581611429.189,-574.219,-972.168,50.78100000000001,52.246,0.0,0
1581611429.1929998,-191.895,-972.168,52.246,32.715,0.0,0
1581611429.197,-520.508,-972.168,53.71100000000001,25.879,0.0,0
1581611429.201,-983.887,-972.168,48.828,40.039,0.0,0
1581611429.205,-880.8589999999997,-972.168,54.688,48.828,0.0,0
1581611429.2089999,-498.535,-972.168,58.593999999999994,48.34,0.0,0
1581611429.2129998,-624.023,-972.168,57.617,47.852,0.0,0
1581611429.216,-972.168,-972.6560000000001,53.71100000000001,40.039,0.0,0
1581611429.22,-1000.0,-972.168,52.246,27.831999999999997,0.0,0
1581611429.224,-683.105,-972.168,54.688,29.296999999999997,0.0,0
1581611429.228,-591.797,-972.168,53.223,28.809,0.0,0
1581611429.232,-932.617,-972.168,51.758,35.156,0.0,0
1581611429.234,-1000.0,-972.168,53.71100000000001,37.109,0.0,0
1581611429.238,-827.148,-972.6560000000001,55.176,19.043,0.0,0
1581611429.242,-675.7810000000002,-972.6560000000001,53.71100000000001,15.625,0.0,0
1581611429.246,-914.551,-972.168,52.733999999999995,10.254000000000001,0.0,0
1581611429.25,-1000.0,-972.168,57.129,10.742,0.0,0
1581611429.254,-929.688,-972.168,56.152,13.184000000000001,0.0,0
1581611429.258,-783.691,-972.168,51.758,-4.395,0.0,0
1581611429.2610002,-876.465,-972.168,52.733999999999995,-11.23,0.0,0
1581611429.265,-1000.0,-972.168,53.223,-11.23,0.0,0
1581611429.269,-939.941,-972.168,42.48,-1.953,0.0,0
1581611429.2729998,-649.9019999999998,-972.168,32.715,-11.719000000000001,0.0,0
1581611429.2770002,-612.305,-972.6560000000001,28.809,-29.296999999999997,0.0,0
1581611429.279,-931.6410000000001,-972.168,28.809,-6.836,0.0,0
1581611429.283,-975.0980000000001,-972.168,27.831999999999997,-0.488,0.0,0
1581611429.2870002,-620.117,-972.168,24.901999999999997,-11.719000000000001,0.0,0
1581611429.2910001,-472.168,-972.168,23.438000000000002,-20.996,0.0,0
1581611429.295,-835.938,-972.168,21.97300000000001,-21.484,0.0,0
1581611429.299,-1000.0,-972.168,21.97300000000001,12.695,0.0,0
1581611429.303,-953.125,-972.168,24.414,0.488,0.0,0
1581611429.306,-806.6410000000003,-972.168,23.926,-24.901999999999997,0.0,0
1581611429.31,-855.957,-972.6560000000001,26.855,-24.414,0.0,0
1581611429.314,-1000.0,-972.168,21.484,-27.344,0.0,0
1581611429.3179998,-902.832,-972.168,15.137,-21.97300000000001,0.0,0
1581611429.322,-634.2769999999998,-972.168,16.602,-29.785,0.0,0
1581611429.339,-780.273,-972.168,9.277000000000001,-32.227,0.0,0
1581611429.343,-998.047,-972.6560000000001,0.488,-25.391,0.0,0
1581611429.3470001,-979.492,-972.6560000000001,-0.977,-19.531,0.0,0
1581611429.351,-802.2460000000003,-972.6560000000001,7.324,-21.97300000000001,0.0,0
1581611429.355,-794.922,-972.168,9.277000000000001,-25.391,0.0,0
1581611429.359,-976.074,-972.168,3.418,-8.301,0.0,0
1581611429.363,-999.023,-972.168,10.254000000000001,-32.715,0.0,0
1581611429.3660002,-666.5039999999998,-972.168,20.508000000000006,-56.64100000000001,0.0,0
1581611429.37,-295.41,-972.168,21.484,-45.41,0.0,0
1581611429.3739998,-576.66,-972.168,16.602,-52.733999999999995,0.0,0
1581611429.3779998,-687.988,-972.168,16.602,-62.012,0.0,0
1581611429.3820002,-159.668,-972.6560000000001,23.438000000000002,-86.914,0.0,0
1581611429.3839998,273.438,-972.168,25.391,-98.145,0.0,0
1581611429.3879998,-57.129,-972.168,28.809,-74.707,0.0,0
1581611429.3920002,-516.602,-972.6560000000001,33.203,-54.199,0.0,0
1581611429.3960001,-396.973,-972.168,29.296999999999997,-37.109,0.0,0
1581611429.4,-60.059,-972.168,27.831999999999997,-41.992,0.0,0
1581611429.404,-312.012,-972.168,24.414,-56.152,0.0,0
1581611429.408,-897.949,-972.6560000000001,25.391,-19.531,0.0,0
1581611429.411,-922.852,-972.168,36.621,0.488,0.0,0
1581611429.415,-472.168,-972.168,35.156,-7.324,0.0,0
1581611429.419,-499.51199999999994,-972.6560000000001,29.296999999999997,-20.996,0.0,0
1581611429.4229999,-930.176,-972.168,40.039,-33.691,0.0,0
1581611429.427,-969.727,-972.168,51.758,-10.254000000000001,0.0,0
1581611429.429,-577.637,-972.6560000000001,52.733999999999995,-5.371,0.0,0
1581611429.4329998,-250.488,-972.6560000000001,54.199,-3.418,0.0,0
1581611429.437,-517.09,-972.168,50.78100000000001,-11.719000000000001,0.0,0
1581611429.441,-764.648,-972.168,45.41,-12.695,0.0,0
1581611429.445,-401.36699999999996,-972.6560000000001,49.316,-3.418,0.0,0
1581611429.449,-0.977,-972.6560000000001,48.828,-12.207,0.0,0
1581611429.4529998,-262.207,-972.6560000000001,50.293,-2.93,0.0,0
1581611429.456,-642.578,-972.168,54.688,6.836,0.0,0
1581611429.46,-539.5509999999998,-972.168,49.805,4.883,0.0,0
1581611429.464,-183.105,-972.6560000000001,54.688,17.578,0.0,0
1581611429.468,-143.066,-972.168,62.988,10.254000000000001,0.0,0
1581611429.4720001,-579.59,-972.168,61.035,10.742,0.0,0
1581611429.474,-686.523,-972.168,56.64100000000001,-1.953,0.0,0
1581611429.478,-236.81599999999997,-972.168,59.57,-28.809,0.0,0
1581611429.482,-101.074,-972.168,62.012,-24.901999999999997,0.0,0
1581611429.486,-579.59,-972.168,57.617,-23.438000000000002,0.0,0
1581611429.49,-840.82,-972.168,58.593999999999994,-18.066,0.0,0
1581611429.494,-457.031,-972.168,59.57,-34.18,0.0,0
1581611429.498,-116.699,-972.6560000000001,56.64100000000001,-61.035,0.0,0
1581611429.5010002,-418.945,-972.6560000000001,53.223,-47.852,0.0,0
1581611429.505,-902.3439999999999,-972.168,47.363,-27.831999999999997,0.0,0
1581611429.5089998,-638.672,-972.168,52.733999999999995,-34.18,0.0,0
1581611429.5129998,-62.012,-972.6560000000001,57.617,-49.805,0.0,0
1581611429.5170002,-288.086,-972.168,55.663999999999994,-49.805,0.0,0
1581611429.519,-724.1210000000003,-972.168,55.176,-37.109,0.0,0
1581611429.5229998,-536.133,-972.168,49.316,-41.504,0.0,0
1581611429.5270002,-6.348,-972.168,38.574,-40.527,0.0,0
1581611429.5310001,10.742,-972.168,32.715,-44.922,0.0,0
1581611429.535,-463.379,-972.168,35.156,-42.968999999999994,0.0,0
1581611429.539,-528.809,-972.6560000000001,39.062,-24.901999999999997,0.0,0
1581611429.543,-31.25,-972.6560000000001,50.293,-18.066,0.0,0
1581611429.546,182.12900000000002,-972.168,50.293,-14.16,0.0,0
1581611429.55,-216.30900000000003,-972.168,44.434,-12.207,0.0,2
1581611429.554,-320.312,-972.6560000000001,49.805,-2.93,0.0,0
1581611429.5579998,138.184,-972.6560000000001,45.898,4.395,0.0,0
1581611429.562,417.969,-972.168,38.574,-5.371,0.0,0
1581611429.564,56.152,-972.168,40.039,4.395,0.0,0
1581611429.5679998,-373.04699999999997,-972.168,33.203,11.23,0.0,0
1581611429.572,-245.605,-972.6560000000001,26.855,8.789,0.0,0
1581611429.576,155.762,-972.6560000000001,34.18,13.672,0.0,0
1581611429.58,32.715,-972.168,35.156,26.366999999999997,0.0,0
1581611429.5839999,-466.309,-972.168,27.344,52.246,0.0,0
1581611429.5879998,-455.07800000000003,-972.168,21.484,39.551,0.0,0
1581611429.591,-8.301,-972.168,24.901999999999997,23.926,0.0,0
1581611429.595,122.07,-972.168,37.598,19.043,0.0,0
1581611429.599,-126.465,-972.168,43.457,17.09,0.0,0
1581611429.603,-160.645,-972.168,35.645,1.465,0.0,0
1581611429.607,386.23,-972.168,27.344,-44.434,0.0,0
1581611429.609,800.293,-972.168,27.344,-46.875,0.0,0
1581611429.613,498.04699999999997,-972.168,33.691,-34.18,0.0,0
1581611429.617,181.15200000000002,-972.168,34.668,-45.41,0.0,0
1581611429.621,524.414,-972.168,39.062,-41.504,0.0,0
1581611429.625,955.078,-972.6560000000001,37.109,-56.152,0.0,0
1581611429.629,642.578,-972.168,34.668,-49.316,0.0,0
1581611429.633,89.355,-972.168,30.273000000000003,-20.508000000000006,0.0,0
1581611429.6360002,161.621,-972.6560000000001,23.438000000000002,-24.901999999999997,0.0,0
1581611429.64,667.48,-972.168,30.761999999999997,-28.32,0.0,0
1581611429.644,564.941,-972.168,37.598,-35.156,0.0,0
1581611429.6479998,-55.663999999999994,-972.168,35.156,-39.551,0.0,0
1581611429.6520002,-112.79299999999999,-972.168,30.273000000000003,-45.41,0.0,0
1581611429.654,410.156,-972.168,32.227,-58.105,0.0,0
1581611429.658,530.762,-972.168,31.738000000000003,-62.012,0.0,0
1581611429.6620002,26.366999999999997,-972.6560000000001,28.809,-76.172,0.0,0
1581611429.6660001,-159.18,-972.168,29.785,-65.43,0.0,0
1581611429.67,317.383,-972.168,26.855,-60.547,0.0,0
1581611429.674,617.188,-972.168,23.438000000000002,-70.312,0.0,0
1581611429.678,186.523,-972.168,19.531,-61.035,0.0,0
1581611429.681,-143.555,-972.168,23.926,-52.246,0.0,0
1581611429.685,338.379,-972.168,32.227,-43.945,0.0,0
1581611429.689,866.699,-972.168,34.668,-32.715,0.0,0
1581611429.6929998,657.715,-972.168,35.645,-32.227,0.0,0
1581611429.697,238.77,-972.6560000000001,37.598,-13.672,0.0,0
1581611429.699,430.664,-972.168,38.086,-11.23,0.0,0
1581611429.7029998,926.758,-972.168,34.18,-22.461,0.0,0
1581611429.707,911.133,-972.168,31.25,-26.366999999999997,0.0,0
1581611429.711,480.957,-972.6560000000001,29.785,-24.901999999999997,0.0,0
1581611429.715,483.88699999999994,-972.168,27.344,-21.484,0.0,0
1581611429.7189999,889.648,-972.168,27.831999999999997,-41.01600000000001,0.0,0
1581611429.7229998,-968.262,-972.168,39.062,-46.875,0.0,0
1581611429.726,769.5310000000003,-972.168,50.78100000000001,-30.761999999999997,0.0,0
1581611429.73,625.488,-972.168,45.41,-16.602,0.0,0
1581611429.734,892.09,-972.168,37.109,-26.366999999999997,0.0,0
1581611429.738,-956.055,-972.168,32.715,-45.898,0.0,0
1581611429.742,859.863,-972.168,33.203,-38.574,0.0,0
1581611429.7589998,592.285,-972.168,37.109,-22.949,0.0,0
1581611429.7629998,776.855,-972.168,45.41,-21.97300000000001,0.0,0
1581611429.7670002,-966.797,-972.6560000000001,55.663999999999994,-25.879,0.0,0
1581611429.7710001,928.2230000000001,-972.6560000000001,55.176,-30.273000000000003,0.0,0
1581611429.775,586.4259999999998,-972.168,51.27,-20.996,0.0,0
1581611429.779,623.047,-972.168,48.828,-15.625,0.0,0
1581611429.783,974.6089999999999,-972.168,45.898,-28.32,0.0,0
1581611429.786,997.07,-972.168,46.875,-28.809,0.0,0
1581611429.79,644.043,-972.6560000000001,48.34,-13.672,0.0,0
1581611429.794,462.402,-972.168,45.898,-14.16,0.0,0
1581611429.7979999,829.59,-972.168,49.805,-21.484,0.0,0
1581611429.802,-944.824,-972.168,53.71100000000001,-17.578,0.0,0
1581611429.805,747.559,-972.6560000000001,45.41,-8.301,0.0,0
1581611429.809,432.61699999999996,-972.168,41.992,-1.953,0.0,0
1581611429.813,734.863,-972.168,48.828,-1.465,0.0,0
1581611429.8170002,-931.1519999999999,-972.168,51.27,-4.883,0.0,0
1581611429.821,763.184,-972.168,50.293,7.812,0.0,0
1581611429.825,272.949,-972.168,45.41,21.97300000000001,0.0,0
1581611429.829,461.426,-972.168,50.78100000000001,19.531,0.0,0
1581611429.832,969.238,-972.168,59.57,11.23,0.0,0
1581611429.836,786.6210000000003,-972.6560000000001,54.688,20.996,0.0,0
1581611429.84,186.523,-972.168,52.246,35.645,0.0,0
1581611429.8439999,276.367,-972.168,57.617,37.598,0.0,0
1581611429.8479998,788.086,-972.6560000000001,49.316,23.926,0.0,0
1581611429.85,749.023,-972.168,41.504,18.555,0.0,0
1581611429.8539999,220.703,-972.168,40.527,34.18,0.0,0
1581611429.8579998,86.426,-972.168,43.457,53.71100000000001,0.0,0
1581611429.8620002,513.672,-972.168,43.457,58.105,0.0,0
1581611429.8660002,687.5,-972.6560000000001,38.086,30.761999999999997,0.0,0
1581611429.87,217.773,-972.6560000000001,42.968999999999994,38.574,0.0,0
1581611429.8739998,-71.289,-972.168,49.805,58.105,0.0,0
1581611429.877,318.3590000000001,-972.168,46.875,56.152,0.0,0
1581611429.881,604.98,-972.6560000000001,38.574,56.152,0.0,0
1581611429.885,314.941,-972.168,39.551,51.27,0.0,0
1581611429.889,5.371,-972.168,46.387,68.848,0.0,0
1581611429.893,152.344,-972.168,44.922,71.777,0.0,0
1581611429.894,569.336,-972.168,41.992,56.64100000000001,0.0,0
1581611429.8979998,490.23400000000004,-972.168,38.574,46.387,0.0,0
1581611429.9020002,15.137,-972.168,31.738000000000003,38.574,0.0,0
1581611429.9060001,-38.086,-972.168,28.32,41.992,0.0,0
1581611429.91,427.246,-972.168,30.273000000000003,38.086,0.0,0
1581611429.914,520.508,-972.168,30.273000000000003,23.926,0.0,0
1581611429.918,59.57,-972.168,36.621,20.02,0.0,0
1581611429.921,-158.691,-972.168,39.551,23.926,0.0,0
1581611429.925,195.801,-972.168,38.574,18.066,0.0,0
1581611429.929,624.512,-972.168,46.387,1.953,0.0,0
1581611429.9329998,383.301,-972.168,41.992,0.0,0.0,0
1581611429.937,44.922,-972.168,31.738000000000003,-2.441,0.0,0
1581611429.939,366.699,-972.168,29.296999999999997,-17.09,0.0,0
1581611429.9429998,854.98,-972.6560000000001,31.738000000000003,-12.695,0.0,0
1581611429.947,651.855,-972.6560000000001,34.668,-7.324,0.0,0
1581611429.951,152.832,-972.168,40.039,13.672,0.0,0
1581611429.955,194.824,-972.168,39.062,19.531,0.0,0
1581611429.9589999,533.203,-972.168,31.738000000000003,1.953,0.0,0
1581611429.9629998,436.035,-972.168,35.156,23.926,0.0,0
1581611429.966,-187.988,-972.168,37.109,41.992,0.0,0
1581611429.97,-348.145,-972.168,41.504,45.898,0.0,0
1581611429.974,245.11700000000002,-972.168,56.64100000000001,43.945,0.0,0
1581611429.978,430.664,-972.168,57.129,28.32,0.0,0
1581611429.982,46.387,-972.168,54.199,39.062,0.0,0
1581611429.985,-23.438000000000002,-972.168,51.758,27.344,0.0,0
1581611429.9889998,479.98,-972.6560000000001,46.387,6.348,0.0,0
1581611429.9929998,848.145,-972.6560000000001,41.01600000000001,0.977,0.0,0
1581611429.9970002,507.81199999999995,-972.168,41.504,-0.977,0.0,0
1581611430.0010002,94.727,-972.6560000000001,44.434,11.23,0.0,0
1581611430.005,248.047,-972.6560000000001,47.363,19.531,0.0,0
1581611430.0089998,572.754,-972.168,41.992,28.809,0.0,0
1581611430.012,323.242,-972.6560000000001,40.039,15.625,0.0,0
1581611430.016,-50.78100000000001,-972.6560000000001,45.41,23.438000000000002,0.0,0
1581611430.02,112.305,-972.168,32.715,52.246,0.0,0
1581611430.024,633.789,-972.6560000000001,31.738000000000003,31.25,0.0,0
1581611430.0279999,806.6410000000003,-972.168,41.992,23.926,0.0,0
1581611430.029,491.699,-972.168,40.527,18.066,0.0,0
1581611430.033,526.367,-972.168,36.621,-4.395,0.0,0
1581611430.0370002,920.898,-972.168,32.715,-20.508000000000006,0.0,0
1581611430.0410001,-966.797,-972.6560000000001,29.296999999999997,-32.715,0.0,0
1581611430.045,925.7810000000001,-972.6560000000001,35.645,-16.602,0.0,0
1581611430.049,812.988,-972.168,33.691,-13.184000000000001,0.0,0
1581611430.053,928.711,-972.168,23.926,-20.02,0.0,0
1581611430.056,-968.262,-972.168,28.809,-11.719000000000001,0.0,0
1581611430.06,916.992,-972.168,36.133,-1.465,0.0,0
1581611430.064,580.078,-972.6560000000001,33.203,20.996,0.0,0
1581611430.0679998,619.629,-972.168,40.527,10.742,0.0,0
1581611430.072,998.535,-972.168,48.34,-6.836,0.0,0
1581611430.074,826.66,-972.168,46.875,11.719000000000001,0.0,0
1581611430.0779998,272.461,-972.168,51.758,24.901999999999997,0.0,0
1581611430.082,223.145,-972.168,62.012,23.926,0.0,0
1581611430.086,694.824,-972.168,66.895,1.465,0.0,0
1581611430.09,755.8589999999997,-972.168,65.918,2.441,0.0,0
1581611430.0939999,309.082,-972.168,61.523,20.02,0.0,0
1581611430.0979998,194.33599999999998,-972.6560000000001,57.129,13.672,0.0,0
1581611430.101,711.426,-972.168,59.57,13.184000000000001,0.0,0
1581611430.105,-970.215,-972.168,58.105,4.883,0.0,0
1581611430.109,624.512,-972.168,48.34,10.254000000000001,0.0,0
1581611430.113,252.44099999999997,-972.168,43.457,35.645,0.0,0
1581611430.117,542.969,-972.6560000000001,44.922,43.457,0.0,0
1581611430.1339998,906.738,-972.168,49.316,48.34,0.0,0
1581611430.1379998,576.66,-972.6560000000001,54.199,38.086,0.0,0
1581611430.1420002,85.93799999999996,-972.168,61.035,42.48,0.0,0
1581611430.1460001,235.84,-972.168,62.5,53.71100000000001,0.0,0
1581611430.15,685.547,-972.168,54.199,29.785,0.0,0
1581611430.154,546.387,-972.168,49.805,14.648,0.0,0
1581611430.158,20.508000000000006,-972.168,50.78100000000001,18.555,0.0,0
1581611430.161,10.742,-972.168,52.733999999999995,8.789,0.0,0
1581611430.165,481.445,-972.168,55.663999999999994,7.812,0.0,0
1581611430.169,515.625,-972.168,50.78100000000001,8.789,0.0,0
1581611430.1729999,32.715,-972.6560000000001,47.363,10.254000000000001,0.0,0
1581611430.177,-124.512,-972.6560000000001,43.457,7.812,0.0,0
1581611430.179,232.91,-972.168,37.598,2.93,0.0,0
1581611430.1829998,464.844,-972.168,35.156,11.719000000000001,0.0,0
1581611430.187,81.543,-972.6560000000001,35.645,2.441,0.0,0
1581611430.191,-297.8520000000001,-972.6560000000001,37.109,7.812,0.0,0
1581611430.195,-70.312,-972.168,39.551,7.812,0.0,0
1581611430.199,313.4770000000001,-972.6560000000001,39.062,-19.531,0.0,0
1581611430.2029998,171.387,-972.6560000000001,39.551,-10.742,0.0,0
1581611430.206,-140.625,-972.168,39.062,3.418,0.0,0
1581611430.21,-29.296999999999997,-972.168,41.504,-9.277000000000001,0.0,0
1581611430.214,372.07,-972.168,47.363,-40.527,0.0,0
1581611430.218,467.773,-972.168,56.64100000000001,-51.758,0.0,0
1581611430.2220001,97.656,-972.168,57.617,-28.809,0.0,0
1581611430.224,-1.953,-972.168,55.176,-22.949,0.0,0
1581611430.228,409.18,-972.168,62.5,-33.203,0.0,0
1581611430.232,520.02,-972.6560000000001,57.617,-56.152,0.0,0
1581611430.236,-1.465,-972.168,54.688,-36.621,0.0,0
1581611430.24,-331.543,-972.168,51.758,-3.906,0.0,0
1581611430.244,-54.199,-972.168,45.41,-1.953,0.0,0
1581611430.248,248.047,-972.168,54.688,3.906,0.0,0
1581611430.2510002,5.371,-972.6560000000001,67.383,-1.465,0.0,0
1581611430.255,-411.621,-972.6560000000001,71.289,31.25,0.0,0
1581611430.2589998,-178.22299999999996,-972.168,75.195,61.523,0.0,0
1581611430.2629998,413.086,-972.6560000000001,79.59,37.109,0.0,0
1581611430.2670002,324.707,-972.168,78.125,5.859,0.0,0
1581611430.269,-106.445,-972.168,77.637,-4.395,0.0,0
1581611430.2729998,19.531,-972.6560000000001,80.078,-14.648,0.0,0
1581611430.2770002,581.055,-972.6560000000001,82.52,-37.109,0.0,0
1581611430.2810001,620.117,-972.168,84.473,-45.898,0.0,0
1581611430.285,119.62899999999999,-972.168,87.402,-43.945,0.0,0
1581611430.289,-83.984,-972.168,87.891,-48.828,0.0,0
1581611430.293,279.785,-972.6560000000001,93.75,-52.733999999999995,0.0,0
1581611430.296,450.684,-972.168,92.773,-44.434,0.0,0
1581611430.3,-46.875,-972.6560000000001,85.93799999999996,-31.738000000000003,0.0,0
