timestamps,TP9,AF7,AF8,TP10,Right AUX,Marker0
1582733180.043,148.438,35.156,18.066,117.188,0.0,0
1582733180.0470002,147.94899999999996,31.738000000000003,16.602,112.305,0.0,0
1582733180.051,140.137,30.762,15.625,97.656,0.0,0
1582733180.055,143.066,29.297,18.066,103.516,0.0,0
1582733180.059,150.879,25.391,20.996,117.676,0.0,0
1582733180.063,169.43400000000003,33.203,16.602,107.422,0.0,0
1582733180.0670002,159.668,34.668,13.184,99.121,0.0,0
1582733180.07,151.36700000000005,25.391,16.602,83.49600000000002,0.0,0
1582733180.074,143.066,29.785,20.508000000000006,64.941,0.0,0
1582733180.0779998,126.465,28.809,20.02,71.777,0.0,0
1582733180.082,139.648,22.461,16.602,75.195,0.0,0
1582733180.086,148.438,24.902,18.555,86.914,0.0,0
1582733180.0879998,147.94899999999996,30.762,19.531,96.191,0.0,0
1582733180.092,135.74200000000002,26.855,17.09,79.102,0.0,0
1582733180.096,123.535,16.113,17.578,82.52,0.0,0
1582733180.1,129.88299999999998,20.02,16.113,78.613,0.0,0
1582733180.104,135.254,27.344,16.113,67.383,0.0,0
1582733180.1079998,127.93,29.297,20.02,78.613,0.0,0
1582733180.1120002,126.465,32.715,20.02,82.031,0.0,0
1582733180.115,135.254,30.273000000000003,18.555,72.75399999999998,0.0,0
1582733180.119,134.766,26.367,21.484,61.523,0.0,0
1582733180.123,128.906,27.344,22.949,78.613,0.0,0
1582733180.127,123.047,30.762,20.996,70.801,0.0,0
1582733180.131,143.555,29.297,19.043,68.848,0.0,0
1582733180.133,129.395,26.855,16.113,75.684,0.0,0
1582733180.137,119.141,25.879,18.066,65.43,0.0,0
1582733180.141,123.047,28.809,20.508000000000006,75.195,0.0,0
1582733180.145,113.281,30.273000000000003,21.973000000000006,67.383,0.0,0
1582733180.149,117.676,31.25,24.902,66.895,0.0,0
1582733180.153,115.234,30.273000000000003,24.902,71.777,0.0,0
1582733180.157,123.047,26.855,21.973000000000006,67.383,0.0,0
1582733180.16,139.16,26.367,20.508000000000006,55.176,0.0,0
1582733180.164,112.305,23.926,21.484,51.27,0.0,0
1582733180.168,78.125,21.484,21.973000000000006,59.082,0.0,0
1582733180.1720002,86.426,24.414,20.996,57.129,0.0,0
1582733180.176,93.75,21.484,18.066,55.664,0.0,0
1582733180.178,90.332,18.555,19.531,58.105,0.0,0
1582733180.1820002,88.867,25.879,22.949,60.059,0.0,0
1582733180.186,90.332,29.297,23.926,41.01600000000001,0.0,0
1582733180.19,90.332,27.832,26.855,43.945,0.0,0
1582733180.194,102.539,20.508000000000006,27.832,56.64100000000001,0.0,0
1582733180.198,96.68,12.207,29.297,51.27,0.0,0
1582733180.202,96.191,23.438,28.32,52.734,0.0,0
1582733180.205,95.215,30.273000000000003,24.902,41.504,0.0,0
1582733180.209,63.477,28.32,20.996,39.062,0.0,0
1582733180.2129998,66.895,29.785,19.043,44.922,0.0,0
1582733180.217,85.93799999999997,27.344,20.508000000000006,45.898,0.0,0
1582733180.221,97.656,22.949,21.973000000000006,46.387,0.0,0
1582733180.2529998,91.309,28.809,20.508000000000006,41.504,0.0,0
1582733180.2570002,80.078,32.715,21.484,36.133,0.0,0
1582733180.2610002,83.984,28.809,20.02,43.945,0.0,0
1582733180.265,83.984,24.414,18.555,50.78100000000001,0.0,0
1582733180.269,76.66,28.32,19.531,49.316,0.0,0
1582733180.2729998,78.613,28.809,17.09,45.898,0.0,0
1582733180.2770002,88.867,27.832,20.508000000000006,50.293,0.0,0
1582733180.28,85.449,26.855,24.902,55.664,0.0,0
1582733180.284,83.49600000000002,21.973000000000006,20.508000000000006,49.316,0.0,0
1582733180.288,91.797,24.414,20.02,45.898,0.0,0
1582733180.292,76.172,26.367,20.508000000000006,50.293,0.0,0
1582733180.296,76.66,30.273000000000003,18.066,46.875,0.0,0
1582733180.283,92.285,29.297,20.996,43.945,0.0,0
1582733180.2870002,75.684,19.531,25.391,50.293,0.0,0
1582733180.291,63.965,13.672,23.926,49.805,0.0,0
1582733180.295,66.895,20.02,23.438,51.758,0.0,0
1582733180.299,66.406,35.645,23.926,56.152,0.0,0
1582733180.303,66.895,36.133,24.414,56.152,0.0,0
1582733180.3070002,66.406,28.809,22.461,57.129,0.0,0
1582733180.31,56.152,25.879,21.973000000000006,55.664,0.0,0
1582733180.314,62.012,17.578,27.832,57.617,0.0,0
1582733180.3179998,71.289,17.09,28.32,63.477,0.0,0
1582733180.322,71.289,28.32,25.391,58.594,0.0,0
1582733180.326,71.289,33.203,26.367,59.082,0.0,0
1582733180.3279998,58.105,26.367,28.32,56.152,0.0,0
1582733180.332,58.105,21.973000000000006,26.855,63.965,0.0,0
1582733180.336,73.73,23.926,22.461,63.477,0.0,0
1582733180.34,73.242,24.414,21.484,52.734,0.0,0
1582733180.344,68.359,26.367,20.508000000000006,67.383,0.0,0
1582733180.3479998,74.219,27.832,24.414,63.477,0.0,0
1582733180.3520002,81.543,29.297,28.32,69.824,0.0,0
1582733180.355,74.707,30.762,25.391,75.195,0.0,0
1582733180.359,94.727,29.297,26.855,60.059,0.0,0
1582733180.363,99.121,26.367,26.367,59.57,0.0,0
1582733180.367,71.289,23.438,24.414,59.082,0.0,0
1582733180.371,70.312,16.113,24.902,65.918,0.0,0
1582733180.373,67.87100000000001,19.043,20.508000000000006,67.383,0.0,0
1582733180.377,66.895,26.367,20.02,65.918,0.0,0
1582733180.381,78.613,29.297,19.531,66.406,0.0,0
1582733180.385,79.59,27.344,19.531,56.64100000000001,0.0,0
1582733180.389,67.383,28.809,23.926,55.176,0.0,0
1582733180.393,49.316,29.297,22.461,65.43,0.0,0
1582733180.397,48.34,22.461,22.461,64.453,0.0,0
1582733180.4,69.824,21.973000000000006,22.461,62.5,0.0,0
1582733180.404,75.684,21.973000000000006,20.02,51.27,0.0,0
1582733180.408,62.5,24.902,20.02,47.363,0.0,0
1582733180.4120002,58.594,30.762,20.508000000000006,61.035,0.0,0
1582733180.416,79.102,32.227,20.02,62.5,0.0,0
1582733180.418,81.055,28.32,25.391,63.965,0.0,0
1582733180.4220002,62.012,21.973000000000006,28.32,57.129,0.0,0
1582733180.426,64.941,10.742,26.367,67.87100000000001,0.0,0
1582733180.43,62.988,18.066,25.879,71.777,0.0,0
1582733180.434,60.059,36.133,26.367,55.176,0.0,0
1582733180.438,64.453,40.039,21.973000000000006,63.965,0.0,0
1582733180.4420002,49.316,35.645,20.508000000000006,75.684,0.0,0
1582733180.445,50.293,31.738000000000003,23.926,70.312,0.0,0
1582733180.449,67.87100000000001,33.203,22.949,59.57,0.0,0
1582733180.4529998,77.148,32.227,22.949,55.176,0.0,0
1582733180.457,64.453,31.738000000000003,25.879,64.453,0.0,0
1582733180.461,51.758,29.297,27.344,66.406,0.0,0
1582733180.4629998,55.176,21.484,29.297,58.594,0.0,0
1582733180.467,53.223,21.484,25.879,65.918,0.0,0
1582733180.471,54.688,26.367,23.926,60.059,0.0,0
1582733180.475,60.547,29.785,25.391,65.43,0.0,0
1582733180.479,55.176,31.25,23.926,47.852,0.0,0
1582733180.4829998,57.129,30.762,24.414,33.691,0.0,0
1582733180.4870002,69.336,33.203,24.902,61.523,0.0,0
1582733180.49,62.988,31.25,23.926,71.777,0.0,0
1582733180.494,63.477,30.273000000000003,22.949,65.918,0.0,0
1582733180.498,63.965,35.156,22.949,60.547,0.0,0
1582733180.502,51.758,34.18,21.484,54.199,0.0,0
1582733180.506,48.828,30.762,22.461,52.246,0.0,0
1582733180.508,58.594,34.18,22.461,51.758,0.0,0
1582733180.512,81.055,34.18,19.043,51.27,0.0,0
1582733180.516,64.941,25.391,19.043,57.129,0.0,0
1582733180.52,41.992,23.926,22.949,46.387,0.0,0
1582733180.524,55.176,28.809,21.973000000000006,48.34,0.0,0
1582733180.528,32.227,23.926,21.973000000000006,45.41,0.0,0
1582733180.532,28.809,22.461,23.438,41.504,0.0,0
1582733180.535,44.922,30.762,21.973000000000006,56.152,0.0,0
1582733180.539,41.01600000000001,33.691,24.414,51.758,0.0,0
1582733180.543,40.527,29.785,27.344,49.316,0.0,0
1582733180.5470002,38.086,26.855,25.391,49.316,0.0,0
1582733180.551,20.02,22.949,26.855,45.41,0.0,0
1582733180.553,28.809,24.902,26.855,37.109,0.0,0
1582733180.5570002,43.945,30.273000000000003,21.973000000000006,36.133,0.0,0
1582733180.561,40.527,26.855,21.973000000000006,43.945,0.0,0
1582733180.565,38.086,24.414,22.949,51.758,0.0,0
1582733180.569,49.805,26.367,22.461,56.152,0.0,0
1582733180.573,60.059,27.344,23.926,47.852,0.0,0
1582733180.577,50.293,28.32,26.367,40.527,0.0,0
1582733180.58,38.574,27.344,27.344,39.062,0.0,0
1582733180.584,41.01600000000001,23.438,23.926,62.988,0.0,0
1582733180.5879998,30.762,21.484,22.461,64.941,0.0,0
1582733180.592,45.898,20.996,24.414,59.57,0.0,0
1582733180.596,49.805,25.391,22.461,63.477,0.0,0
1582733180.613,18.066,29.297,20.508000000000006,53.223,0.0,0
1582733180.617,30.273000000000003,31.25,22.461,59.57,0.0,0
1582733180.621,46.387,34.18,24.902,67.87100000000001,0.0,0
1582733180.625,26.367,30.273000000000003,21.973000000000006,55.176,0.0,0
1582733180.629,34.668,22.461,21.973000000000006,50.78100000000001,0.0,0
1582733180.633,50.78100000000001,26.855,23.438,57.129,0.0,0
1582733180.637,43.457,35.156,20.996,58.594,0.0,0
1582733180.64,32.715,35.156,22.461,57.129,0.0,0
1582733180.644,35.156,33.691,25.391,60.547,0.0,0
1582733180.6479998,33.691,30.273000000000003,24.414,56.152,0.0,0
1582733180.6520002,24.902,29.785,23.926,53.223,0.0,0
1582733180.656,38.574,27.832,24.902,63.477,0.0,0
1582733180.658,41.01600000000001,22.949,25.391,62.012,0.0,0
1582733180.6620002,33.691,22.461,25.879,54.688,0.0,0
1582733180.666,62.012,25.879,26.855,66.406,0.0,0
1582733180.67,75.195,28.32,22.461,63.965,0.0,0
1582733180.674,52.246,25.879,21.484,50.293,0.0,0
1582733180.678,38.574,26.855,23.926,56.152,0.0,0
1582733180.6820002,38.574,26.367,24.414,62.5,0.0,0
1582733180.685,37.598,24.414,23.438,58.594,0.0,0
1582733180.689,38.574,28.809,23.926,60.547,0.0,0
1582733180.6929998,40.527,30.762,23.926,56.152,0.0,0
1582733180.697,58.105,36.133,20.02,52.734,0.0,0
1582733180.701,59.57,35.645,20.996,61.035,0.0,0
1582733180.7029998,49.805,29.785,22.949,51.758,0.0,0
1582733180.707,66.406,24.414,24.902,43.457,0.0,0
1582733180.711,64.941,21.484,26.855,47.363,0.0,0
1582733180.715,63.965,30.762,27.344,59.082,0.0,0
1582733180.719,59.57,37.598,24.414,61.523,0.0,0
1582733180.7229998,38.086,32.715,20.996,57.129,0.0,0
1582733180.7270002,26.367,29.785,21.973000000000006,50.293,0.0,0
1582733180.73,20.996,34.18,24.414,42.48,0.0,0
1582733180.734,32.715,26.855,24.902,43.945,0.0,0
1582733180.738,43.945,20.02,26.855,46.387,0.0,0
1582733180.742,27.832,28.32,26.367,52.246,0.0,0
1582733180.746,40.527,32.715,24.902,54.199,0.0,0
1582733180.7489998,54.688,32.715,25.391,67.383,0.0,0
1582733180.7529998,34.18,33.691,21.973000000000006,45.41,0.0,0
1582733180.7570002,32.715,33.691,21.973000000000006,29.785,0.0,0
1582733180.7610002,41.992,30.273000000000003,22.461,46.875,0.0,0
1582733180.765,34.18,26.367,16.602,56.64100000000001,0.0,0
1582733180.769,42.48,30.273000000000003,12.695,55.176,0.0,0
1582733180.7729998,51.758,27.344,17.09,53.71100000000001,0.0,0
1582733180.776,46.875,22.949,17.578,56.152,0.0,0
1582733180.78,52.246,30.273000000000003,15.137,47.852,0.0,0
1582733180.784,53.71100000000001,38.086,18.066,48.828,0.0,0
1582733180.788,54.688,41.504,18.066,59.082,0.0,0
1582733180.792,61.523,42.969,19.043,53.71100000000001,0.0,0
1582733180.794,62.012,35.645,19.531,51.758,0.0,0
1582733180.798,46.387,24.414,18.555,53.71100000000001,0.0,0
1582733180.802,48.34,23.926,19.531,58.105,0.0,0
1582733180.806,28.809,23.438,21.973000000000006,45.898,0.0,0
1582733180.81,27.832,23.926,24.414,50.78100000000001,0.0,0
1582733180.814,41.504,26.855,23.438,83.984,0.0,0
1582733180.8179998,33.691,29.785,23.438,81.055,0.0,0
1582733180.821,26.367,34.18,23.438,57.129,0.0,0
1582733180.825,31.25,35.645,23.438,50.293,0.0,0
1582733180.829,36.621,26.855,23.438,62.012,0.0,0
1582733180.833,44.434,19.531,22.949,65.43,0.0,0
1582733180.837,36.133,31.738000000000003,23.926,49.316,0.0,0
1582733180.839,27.344,27.832,22.461,43.945,0.0,0
1582733180.843,35.156,18.066,21.973000000000006,41.01600000000001,0.0,0
1582733180.847,32.227,28.809,27.344,49.805,0.0,0
1582733180.851,30.762,32.715,25.879,57.129,0.0,0
1582733180.855,24.902,26.367,23.926,46.875,0.0,0
1582733180.859,43.945,22.949,25.391,53.223,0.0,0
1582733180.863,52.246,21.484,23.438,48.34,0.0,0
1582733180.8660002,41.992,20.508000000000006,21.484,35.156,0.0,0
1582733180.87,40.527,27.832,22.949,36.133,0.0,0
1582733180.8739998,46.387,28.32,21.973000000000006,46.387,0.0,0
1582733180.8779998,61.035,22.949,25.391,44.922,0.0,0
1582733180.8820002,48.828,31.25,28.809,51.758,0.0,0
1582733180.883,33.203,36.621,26.367,52.734,0.0,0
1582733180.887,52.734,34.668,22.949,45.41,0.0,0
1582733180.891,74.219,29.785,21.973000000000006,41.504,0.0,0
1582733180.895,53.71100000000001,22.949,23.926,40.039,0.0,0
1582733180.899,35.645,24.414,23.438,36.621,0.0,0
1582733180.903,44.922,27.832,23.438,34.18,0.0,0
1582733180.907,35.645,28.32,24.414,45.898,0.0,0
1582733180.91,45.41,29.297,25.391,41.504,0.0,0
1582733180.914,65.43,26.855,25.391,41.992,0.0,0
1582733180.918,40.039,20.508000000000006,24.902,46.875,0.0,0
1582733180.9220002,36.133,23.438,26.855,39.062,0.0,0
1582733180.926,48.34,34.18,27.344,44.922,0.0,0
1582733180.929,55.176,31.738000000000003,24.902,48.34,0.0,0
1582733180.9329998,74.219,34.18,22.461,47.363,0.0,0
1582733180.937,78.613,26.855,24.902,43.945,0.0,0
1582733180.941,55.176,24.902,25.879,41.504,0.0,0
1582733180.945,49.805,34.668,22.461,48.34,0.0,0
1582733180.949,47.852,28.809,20.996,49.316,0.0,0
1582733180.9529998,57.129,31.738000000000003,21.484,45.898,0.0,0
1582733180.956,50.78100000000001,35.156,21.973000000000006,46.387,0.0,0
1582733180.96,48.828,34.668,24.414,53.71100000000001,0.0,0
1582733180.964,62.5,37.598,25.391,50.78100000000001,0.0,0
1582733180.968,41.992,34.668,22.461,45.898,0.0,0
1582733180.972,39.551,31.738000000000003,27.344,44.922,0.0,0
1582733180.988,53.223,29.297,28.32,52.246,0.0,0
1582733180.992,45.41,33.691,25.391,59.57,0.0,0
1582733180.996,62.012,30.273000000000003,25.391,58.594,0.0,0
1582733181.0,72.75399999999998,24.414,25.391,52.246,0.0,0
1582733181.004,42.969,25.391,26.367,56.64100000000001,0.0,0
1582733181.008,45.898,26.367,27.344,51.758,0.0,0
1582733181.012,40.527,20.02,23.926,43.457,0.0,0
1582733181.015,26.367,20.02,22.461,52.246,0.0,0
1582733181.019,41.01600000000001,25.391,24.414,46.875,0.0,0
1582733181.0229998,44.922,27.832,25.391,41.992,0.0,0
1582733181.0270002,48.828,33.691,24.414,47.363,0.0,0
1582733181.031,60.547,29.785,24.902,42.969,0.0,0
1582733181.036,40.039,29.297,23.438,33.691,0.0,0
1582733181.04,53.71100000000001,32.227,20.508000000000006,41.01600000000001,0.0,0
1582733181.044,73.73,26.855,19.531,52.246,0.0,0
1582733181.048,38.086,32.715,21.973000000000006,41.01600000000001,0.0,0
1582733181.052,18.066,35.156,20.996,39.551,0.0,0
1582733181.056,27.344,33.203,18.066,45.898,0.0,0
1582733181.06,39.062,31.25,19.043,45.41,0.0,0
1582733181.063,37.109,20.02,21.484,48.34,0.0,0
1582733181.0670002,45.898,12.695,22.461,55.664,0.0,0
1582733181.071,50.78100000000001,21.973000000000006,20.02,48.34,0.0,0
1582733181.075,26.855,28.32,16.602,35.645,0.0,0
1582733181.079,19.531,24.414,19.043,41.01600000000001,0.0,0
1582733181.079,20.508000000000006,30.273000000000003,21.973000000000006,49.805,0.0,0
1582733181.083,29.297,32.227,25.391,58.594,0.0,0
1582733181.087,27.344,30.762,26.367,43.945,0.0,0
1582733181.091,7.812,29.297,25.879,41.992,0.0,0
1582733181.095,14.16,26.855,26.855,40.527,0.0,0
1582733181.099,30.762,25.879,26.367,38.086,0.0,0
1582733181.103,27.344,22.949,23.438,39.551,0.0,0
1582733181.106,23.926,22.949,23.926,34.18,0.0,0
1582733181.11,18.066,23.926,26.855,26.367,0.0,0
1582733181.1139998,10.254,26.367,24.414,25.879,0.0,0
1582733181.1179998,28.809,26.367,22.461,42.48,0.0,0
1582733181.1220002,33.691,19.531,23.438,41.992,0.0,0
1582733181.1239998,22.949,20.996,25.391,40.039,0.0,0
1582733181.1279998,18.555,27.832,24.902,32.715,0.0,0
1582733181.1320002,6.348,27.344,25.879,25.391,0.0,0
1582733181.1360002,8.789,16.602,26.367,31.738000000000003,0.0,0
1582733181.14,21.973000000000006,22.949,25.879,31.25,0.0,0
1582733181.144,23.438,29.785,23.438,20.02,0.0,0
1582733181.1479998,21.484,25.391,22.949,34.18,0.0,0
1582733181.151,11.719,27.344,23.926,28.32,0.0,0
1582733181.155,5.859,29.297,22.461,-6.348,0.0,0
1582733181.159,15.137,27.832,23.926,6.836,0.0,0
1582733181.163,18.066,21.973000000000006,26.367,28.32,0.0,0
1582733181.167,13.672,21.973000000000006,30.273000000000003,32.715,0.0,0
1582733181.168,23.926,25.391,29.297,18.555,0.0,0
1582733181.1720002,12.695,26.855,24.902,8.789,0.0,0
1582733181.176,12.695,23.438,30.273000000000003,35.645,0.0,0
1582733181.18,17.09,14.648,36.133,37.109,0.0,0
1582733181.184,9.766,17.578,33.691,35.645,0.0,0
1582733181.188,18.555,21.484,29.297,32.227,0.0,0
1582733181.1920002,24.414,21.484,24.414,21.484,0.0,0
1582733181.195,11.23,23.438,24.902,12.207,0.0,0
1582733181.199,-0.488,22.949,26.855,11.23,0.0,0
1582733181.2029998,8.789,21.484,24.902,24.902,0.0,0
1582733181.207,17.578,20.996,27.344,27.832,0.0,0
1582733181.211,42.969,15.625,28.32,28.32,0.0,0
1582733181.2129998,43.945,12.695,24.902,39.551,0.0,0
1582733181.217,21.973000000000006,19.531,24.414,42.48,0.0,0
1582733181.221,28.32,28.809,24.414,54.199,0.0,0
1582733181.225,37.109,34.18,21.973000000000006,50.78100000000001,0.0,0
1582733181.229,45.898,30.273000000000003,21.973000000000006,30.762,0.0,0
1582733181.2329998,27.832,24.414,23.926,23.926,0.0,0
1582733181.2370002,12.695,23.438,24.902,27.344,0.0,0
1582733181.24,30.762,20.02,24.414,39.551,0.0,0
1582733181.244,40.527,14.648,25.391,38.574,0.0,0
1582733181.248,26.367,21.484,24.902,33.691,0.0,0
1582733181.252,26.855,32.715,23.926,30.273000000000003,0.0,0
1582733181.256,55.664,35.156,21.484,34.18,0.0,0
1582733181.258,43.945,35.156,21.484,33.203,0.0,0
1582733181.262,14.16,30.762,24.414,34.18,0.0,0
1582733181.266,24.902,29.297,21.973000000000006,41.01600000000001,0.0,0
1582733181.27,37.598,24.902,20.508000000000006,44.434,0.0,0
1582733181.274,42.969,22.461,20.996,52.734,0.0,0
1582733181.278,56.64100000000001,22.949,22.461,46.875,0.0,0
1582733181.282,41.992,24.902,24.902,34.18,0.0,0
1582733181.285,14.16,28.32,24.414,40.039,0.0,0
1582733181.289,30.273000000000003,22.461,23.926,56.64100000000001,0.0,0
1582733181.293,36.621,24.414,22.949,59.57,0.0,0
1582733181.2970002,34.668,24.902,25.391,49.805,0.0,0
1582733181.301,68.359,24.902,25.391,60.547,0.0,0
1582733181.304,48.828,32.227,26.367,48.34,0.0,0
1582733181.3079998,11.719,36.621,29.297,32.715,0.0,0
1582733181.312,34.668,33.691,27.832,56.152,0.0,0
1582733181.316,47.852,34.18,26.367,52.246,0.0,0
1582733181.32,33.203,27.344,27.344,56.64100000000001,0.0,0
1582733181.324,52.246,16.602,30.273000000000003,53.71100000000001,0.0,0
1582733181.3279998,56.64100000000001,23.438,28.809,42.48,0.0,0
1582733181.331,41.504,27.344,27.344,58.594,0.0,0
1582733181.335,31.25,26.855,31.25,61.035,0.0,0
1582733181.339,29.297,32.715,29.297,58.594,0.0,0
1582733181.343,47.363,33.691,27.832,60.059,0.0,1
1582733181.347,43.457,30.273000000000003,24.902,48.828,0.0,0
1582733181.363,28.32,28.32,37.109,46.387,0.0,0
1582733181.367,44.434,26.855,84.473,48.34,0.0,0
1582733181.371,38.086,28.809,109.863,39.551,0.0,0
1582733181.375,7.324,33.203,108.887,44.434,0.0,0
1582733181.379,26.367,31.738000000000003,109.863,50.78100000000001,0.0,0
1582733181.383,41.01600000000001,27.832,108.398,38.086,0.0,0
1582733181.387,22.461,29.297,104.004,34.668,0.0,0
1582733181.39,33.203,28.32,97.656,54.199,0.0,0
1582733181.394,56.152,30.273000000000003,89.355,60.547,0.0,0
1582733181.3979998,47.363,34.18,84.473,48.828,0.0,0
1582733181.4020002,45.41,33.691,83.008,40.527,0.0,0
1582733181.406,23.926,26.367,78.613,53.71100000000001,0.0,0
1582733181.408,23.438,25.879,74.219,65.43,0.0,0
1582733181.4120002,36.133,31.25,73.73,62.012,0.0,0
1582733181.416,36.621,29.785,68.848,49.805,0.0,0
1582733181.42,46.875,32.227,62.012,50.78100000000001,0.0,0
1582733181.424,63.477,35.156,58.594,69.824,0.0,0
1582733181.428,41.01600000000001,29.297,59.57,70.801,0.0,0
1582733181.4320002,14.16,23.926,62.5,72.266,0.0,0
1582733181.435,40.039,31.25,65.918,65.43,0.0,0
1582733181.439,54.199,34.18,65.43,39.062,0.0,0
1582733181.4429998,42.969,31.738000000000003,62.012,59.57,0.0,0
1582733181.447,56.64100000000001,22.949,60.547,77.637,0.0,0
1582733181.451,61.035,5.859,59.57,62.012,0.0,0
1582733181.4529998,45.41,18.066,58.594,65.918,0.0,0
1582733181.457,46.875,38.086,54.199,63.477,0.0,0
1582733181.461,44.922,40.039,55.664,57.617,0.0,0
1582733181.465,66.895,31.25,55.176,67.383,0.0,0
1582733181.469,56.152,22.461,51.27,62.012,0.0,0
1582733181.4729998,38.086,22.461,48.34,58.594,0.0,0
1582733181.4770002,39.551,25.391,50.293,58.594,0.0,0
1582733181.48,38.574,30.762,49.316,49.316,0.0,0
1582733181.484,39.551,31.738000000000003,42.48,43.457,0.0,0
1582733181.488,45.41,34.18,43.457,51.758,0.0,0
1582733181.492,67.383,34.668,46.875,68.359,0.0,0
1582733181.496,56.64100000000001,29.785,46.875,53.71100000000001,0.0,0
1582733181.498,43.945,27.344,44.922,49.316,0.0,0
1582733181.502,49.805,22.949,40.527,67.383,0.0,0
1582733181.506,54.688,20.508000000000006,40.527,73.242,0.0,0
1582733181.51,50.293,26.367,40.527,61.523,0.0,0
1582733181.514,43.457,28.32,35.645,59.082,0.0,0
1582733181.518,41.992,24.902,36.133,62.012,0.0,0
1582733181.522,63.965,24.902,37.598,46.387,0.0,0
1582733181.525,52.246,30.762,34.668,29.297,0.0,0
1582733181.529,21.973000000000006,33.691,32.715,44.922,0.0,0
1582733181.533,32.227,31.738000000000003,31.25,32.715,0.0,0
1582733181.5370002,43.457,28.809,32.227,36.621,0.0,0
1582733181.541,41.01600000000001,28.809,31.25,73.73,0.0,0
1582733181.543,42.969,27.344,31.25,67.383,0.0,0
1582733181.5470002,46.387,21.484,33.203,49.316,0.0,0
1582733181.551,41.01600000000001,25.391,34.18,45.898,0.0,0
1582733181.555,29.297,30.273000000000003,33.691,44.922,0.0,0
1582733181.559,39.551,31.25,34.668,51.758,0.0,0
1582733181.563,50.78100000000001,29.785,31.25,50.78100000000001,0.0,0
1582733181.5670002,45.898,30.273000000000003,28.32,46.387,0.0,0
1582733181.57,52.734,32.227,28.32,50.78100000000001,0.0,0
1582733181.574,77.637,29.785,25.879,43.945,0.0,0
1582733181.5779998,44.922,27.344,27.344,40.527,0.0,0
1582733181.582,27.344,32.227,30.273000000000003,46.387,0.0,0
1582733181.586,32.227,34.18,29.297,34.668,0.0,0
1582733181.589,39.062,23.926,27.832,46.387,0.0,0
1582733181.593,38.574,21.484,28.32,48.828,0.0,0
1582733181.597,24.902,21.484,30.273000000000003,34.18,0.0,0
1582733181.601,58.594,24.902,26.367,42.48,0.0,0
1582733181.605,55.664,33.691,22.949,53.223,0.0,0
1582733181.609,33.203,32.715,26.855,53.223,0.0,0
1582733181.613,34.18,27.832,24.414,57.617,0.0,0
1582733181.6160002,33.691,22.461,23.926,59.082,0.0,0
1582733181.62,43.945,22.949,25.391,56.152,0.0,0
1582733181.6239998,45.41,24.902,22.949,65.43,0.0,0
1582733181.6279998,33.691,23.438,25.391,61.035,0.0,0
1582733181.6320002,26.855,24.414,23.926,46.387,0.0,0
1582733181.6339998,27.344,28.809,24.902,43.457,0.0,0
1582733181.6379998,26.855,28.809,27.832,59.57,0.0,0
1582733181.6420002,20.508000000000006,24.414,24.902,61.523,0.0,0
1582733181.646,22.461,20.02,25.391,57.129,0.0,0
1582733181.65,40.527,19.043,25.391,57.617,0.0,0
1582733181.654,43.457,27.832,22.949,56.64100000000001,0.0,0
1582733181.658,28.809,35.156,20.02,60.059,0.0,0
1582733181.661,45.41,29.297,22.461,49.316,0.0,0
1582733181.665,50.78100000000001,22.949,25.879,44.434,0.0,0
1582733181.669,31.25,28.809,23.438,56.152,0.0,0
1582733181.673,50.293,30.273000000000003,20.508000000000006,55.664,0.0,0
1582733181.677,57.129,32.715,21.973000000000006,61.523,0.0,0
1582733181.679,46.875,32.715,22.461,55.176,0.0,0
1582733181.6829998,51.758,27.344,21.484,45.41,0.0,0
1582733181.687,48.34,25.879,20.02,61.523,0.0,0
1582733181.691,62.012,28.809,19.531,64.453,0.0,0
1582733181.695,58.105,37.598,20.508000000000006,52.246,0.0,0
1582733181.699,55.176,30.273000000000003,22.949,59.082,0.0,0
1582733181.7029998,59.082,26.855,20.996,62.012,0.0,0
1582733181.706,38.086,33.691,19.531,54.199,0.0,0
1582733181.71,32.715,35.156,20.508000000000006,56.152,0.0,0
1582733181.714,51.27,33.203,18.555,51.758,0.0,0
1582733181.718,49.805,33.691,19.043,55.176,0.0,0
1582733181.722,9.277,34.18,23.926,43.945,0.0,0
1582733181.7389998,0.0,32.227,23.926,34.668,0.0,0
1582733181.7429998,13.672,23.926,25.879,43.945,0.0,0
1582733181.7470002,20.508000000000006,16.113,27.832,52.734,0.0,0
1582733181.7510002,32.227,17.09,24.902,49.805,0.0,0
1582733181.755,42.969,17.09,25.879,41.504,0.0,0
1582733181.7589998,30.273000000000003,27.344,23.438,32.227,0.0,0
1582733181.7629998,15.137,38.086,19.531,27.344,0.0,0
1582733181.766,19.531,37.598,19.531,27.832,0.0,0
1582733181.77,18.555,36.133,20.02,28.32,0.0,0
1582733181.774,25.391,35.156,18.555,28.32,0.0,0
1582733181.778,27.344,30.273000000000003,16.602,27.832,0.0,0
1582733181.782,20.02,28.32,14.648,35.645,0.0,0
1582733181.784,26.367,24.902,14.16,38.086,0.0,0
1582733181.788,22.461,19.531,17.578,37.598,0.0,0
1582733181.792,11.23,19.043,17.09,26.367,0.0,0
1582733181.796,21.484,26.855,15.625,23.438,0.0,0
1582733181.8,27.832,27.832,16.113,29.297,0.0,0
1582733181.804,21.484,32.227,17.578,21.484,0.0,0
1582733181.8079998,30.273000000000003,40.527,18.555,27.344,0.0,0
1582733181.811,38.086,32.715,18.555,30.762,0.0,0
1582733181.815,27.832,25.879,20.02,25.391,0.0,0
1582733181.819,15.137,31.738000000000003,15.137,22.461,0.0,0
1582733181.823,17.578,31.738000000000003,14.648,24.902,0.0,0
1582733181.827,23.438,30.762,17.09,34.668,0.0,0
1582733181.829,34.668,27.344,16.602,38.086,0.0,0
1582733181.833,35.645,19.531,18.066,28.32,0.0,0
1582733181.837,32.715,25.879,19.043,20.508000000000006,0.0,0
1582733181.841,31.25,33.691,17.578,27.344,0.0,0
1582733181.845,25.879,30.273000000000003,18.555,32.715,0.0,0
1582733181.849,37.109,16.602,20.996,47.852,0.0,0
1582733181.853,41.01600000000001,21.484,18.555,42.48,0.0,0
1582733181.856,42.969,37.109,18.555,38.574,0.0,0
1582733181.86,57.617,34.18,16.113,30.273000000000003,0.0,0
1582733181.8639998,39.062,25.879,12.695,15.137,0.0,0
1582733181.8679998,46.387,19.043,19.531,37.598,0.0,0
1582733181.8720002,57.617,21.484,20.996,52.246,0.0,0
1582733181.8739998,36.621,25.879,18.066,41.01600000000001,0.0,0
1582733181.8779998,41.01600000000001,30.273000000000003,19.531,21.484,0.0,0
1582733181.8820002,40.527,35.645,20.996,37.598,0.0,0
1582733181.8860002,33.203,31.25,19.043,46.387,0.0,0
1582733181.89,58.105,27.832,21.973000000000006,42.969,0.0,0
1582733181.894,56.64100000000001,28.809,23.926,43.457,0.0,0
1582733181.8979998,33.691,28.32,24.902,31.25,0.0,0
1582733181.901,33.203,28.809,22.949,43.945,0.0,0
1582733181.905,31.25,24.902,20.508000000000006,50.78100000000001,0.0,0
1582733181.909,25.879,20.996,21.484,31.25,0.0,0
1582733181.913,34.668,22.949,20.996,31.25,0.0,0
1582733181.917,48.34,23.926,20.996,37.598,0.0,0
1582733181.919,39.551,22.949,19.043,43.945,0.0,0
1582733181.923,47.852,20.996,18.066,38.086,0.0,0
1582733181.927,52.734,23.926,23.438,25.391,0.0,0
1582733181.931,19.531,26.855,25.879,34.18,0.0,0
1582733181.935,19.531,25.879,26.855,51.27,0.0,0
1582733181.939,32.715,27.832,29.297,48.828,0.0,0
1582733181.9429998,35.645,26.855,30.273000000000003,40.039,0.0,0
1582733181.946,36.133,23.438,27.344,49.805,0.0,0
1582733181.95,36.621,21.484,24.902,46.875,0.0,0
1582733181.954,39.551,24.414,25.879,44.922,0.0,0
1582733181.958,34.668,28.809,28.809,38.574,0.0,0
1582733181.962,39.062,30.762,28.32,45.41,0.0,0
1582733181.964,38.086,26.855,26.855,79.102,0.0,0
1582733181.968,23.438,24.902,24.902,86.914,0.0,0
1582733181.972,32.227,23.438,25.391,87.402,0.0,0
1582733181.976,37.598,22.949,28.32,84.961,0.0,0
1582733181.98,25.879,25.879,28.32,72.266,0.0,0
1582733181.984,14.648,30.273000000000003,28.32,83.984,0.0,0
1582733181.988,21.973000000000006,29.297,27.832,83.49600000000002,0.0,0
1582733181.9910002,22.461,20.02,27.344,71.777,0.0,0
1582733181.995,20.508000000000006,22.949,25.879,76.66,0.0,0
1582733181.9989998,16.602,30.762,24.414,83.984,0.0,0
1582733182.0029998,29.297,30.762,23.438,70.801,0.0,0
1582733182.0070002,20.508000000000006,29.785,21.973000000000006,45.898,0.0,0
1582733182.0089998,5.371,26.367,25.391,68.359,0.0,0
1582733182.0129998,18.066,26.855,21.973000000000006,87.891,0.0,0
1582733182.0170002,30.273000000000003,26.855,22.461,71.777,0.0,0
1582733182.021,39.062,26.367,24.414,67.383,0.0,0
1582733182.025,23.438,22.949,23.926,66.406,0.0,0
1582733182.029,28.32,19.531,23.926,75.195,0.0,0
1582733182.033,41.01600000000001,30.762,20.508000000000006,77.637,0.0,0
1582733182.036,41.01600000000001,35.156,18.066,56.152,0.0,0
1582733182.04,36.621,23.926,19.043,64.453,0.0,0
1582733182.044,34.18,27.832,20.996,59.57,0.0,0
1582733182.048,27.832,31.25,20.02,60.547,0.0,0
1582733182.052,30.273000000000003,29.297,18.066,71.289,0.0,0
1582733182.054,55.664,26.855,20.02,63.477,0.0,0
1582733182.0579998,32.227,27.832,20.996,57.129,0.0,0
1582733182.062,-3.418,30.273000000000003,18.555,42.48,0.0,0
1582733182.066,4.395,28.32,18.555,30.762,0.0,0
1582733182.07,19.531,26.855,19.043,43.945,0.0,0
1582733182.074,25.391,25.879,16.602,41.504,0.0,0
1582733182.0779998,18.555,28.809,17.578,33.691,0.0,0
1582733182.081,16.113,30.762,19.531,40.039,0.0,0
1582733182.085,33.691,25.391,18.555,47.363,0.0,0
1582733182.089,41.992,27.832,18.555,37.598,0.0,0
1582733182.093,26.367,31.738000000000003,20.508000000000006,40.039,0.0,0
1582733182.097,22.461,32.715,21.484,41.01600000000001,0.0,0
1582733182.099,18.066,28.809,21.484,40.039,0.0,0
1582733182.103,23.438,24.414,21.484,47.852,0.0,0
1582733182.107,24.414,22.461,21.484,37.598,0.0,0
1582733182.111,28.809,20.508000000000006,19.531,35.156,0.0,0
1582733182.115,34.668,28.809,17.578,39.062,0.0,0
1582733182.119,31.738000000000003,30.273000000000003,15.625,37.109,0.0,0
1582733182.123,29.297,30.762,17.578,32.227,0.0,0
1582733182.1260002,33.691,29.297,23.438,39.551,0.0,0
1582733182.13,44.434,23.926,26.367,45.41,0.0,0
1582733182.1339998,38.574,27.832,25.879,33.203,0.0,0
1582733182.1379998,20.996,34.18,22.949,31.738000000000003,0.0,0
1582733182.1420002,20.02,31.25,22.949,39.062,0.0,0
1582733182.159,33.203,28.32,25.879,37.598,0.0,0
1582733182.163,48.34,34.18,27.832,49.316,0.0,0
1582733182.167,62.012,25.391,30.273000000000003,59.57,0.0,0
1582733182.171,66.406,16.602,33.203,57.129,0.0,0
1582733182.175,58.594,25.391,30.762,53.71100000000001,0.0,0
1582733182.179,26.855,33.203,26.855,39.551,0.0,0
1582733182.1829998,13.672,28.32,26.367,29.297,0.0,0
1582733182.186,30.273000000000003,24.902,26.367,43.945,0.0,0
1582733182.19,29.297,27.344,26.367,52.246,0.0,0
1582733182.194,47.852,26.367,26.855,49.316,0.0,0
1582733182.198,58.105,27.832,25.391,47.363,0.0,0
1582733182.202,43.457,28.32,24.414,41.992,0.0,0
1582733182.204,33.691,26.855,22.461,38.086,0.0,0
1582733182.208,35.156,29.297,21.973000000000006,36.133,0.0,0
1582733182.212,41.992,34.668,22.949,45.898,0.0,0
1582733182.216,49.316,31.738000000000003,24.902,59.082,0.0,0
1582733182.22,57.129,34.668,24.902,56.64100000000001,0.0,0
1582733182.224,37.598,35.645,23.926,40.527,0.0,0
1582733182.228,23.926,29.785,22.949,38.574,0.0,0
1582733182.231,39.551,27.344,19.531,42.48,0.0,0
1582733182.235,40.527,23.926,21.484,29.297,0.0,0
1582733182.2389998,22.461,21.973000000000006,27.344,34.668,0.0,0
1582733182.2429998,33.691,25.391,26.367,48.34,0.0,0
1582733182.2470002,42.969,29.785,23.926,47.363,0.0,0
1582733182.2489998,34.668,20.508000000000006,23.926,40.527,0.0,0
1582733182.2529998,51.758,24.414,21.973000000000006,43.457,0.0,0
1582733182.2570002,40.039,37.109,20.508000000000006,31.738000000000003,0.0,0
1582733182.2610002,24.414,35.645,20.508000000000006,23.438,0.0,0
1582733182.265,41.504,29.297,22.949,43.457,0.0,0
1582733182.269,29.785,21.484,23.438,44.922,0.0,0
1582733182.2729998,25.391,27.832,24.902,31.738000000000003,0.0,0
1582733182.276,26.367,29.297,24.414,41.992,0.0,0
1582733182.28,38.086,27.344,23.438,44.922,0.0,0
1582733182.284,56.64100000000001,34.668,22.461,35.156,0.0,0
1582733182.288,61.035,35.645,22.949,45.898,0.0,0
1582733182.292,54.199,26.367,25.391,54.199,0.0,0
1582733182.294,50.78100000000001,25.391,25.879,62.988,0.0,0
1582733182.298,39.551,32.715,21.973000000000006,47.363,0.0,0
1582733182.302,36.133,38.086,20.02,36.621,0.0,0
1582733182.306,63.965,37.598,25.391,60.547,0.0,0
1582733182.31,53.223,33.203,25.879,52.246,0.0,0
1582733182.314,30.762,24.414,22.949,46.875,0.0,0
1582733182.3179998,31.738000000000003,25.879,23.438,66.406,0.0,0
1582733182.321,33.203,35.645,20.508000000000006,58.594,0.0,0
1582733182.325,34.18,38.086,19.531,40.039,0.0,0
1582733182.329,45.898,41.01600000000001,21.484,45.41,0.0,0
1582733182.333,46.875,34.18,20.508000000000006,55.176,0.0,0
1582733182.337,30.762,26.367,23.438,47.852,0.0,0
1582733182.3379998,28.809,30.273000000000003,27.344,44.922,0.0,0
1582733182.342,29.297,32.715,24.414,47.852,0.0,0
1582733182.346,30.273000000000003,32.715,21.973000000000006,49.316,0.0,0
1582733182.35,39.551,32.227,23.438,55.176,0.0,0
1582733182.354,29.785,26.855,25.879,45.41,0.0,0
1582733182.3579998,27.344,25.391,25.391,44.922,0.0,0
1582733182.3620002,31.738000000000003,32.227,22.949,49.316,0.0,0
1582733182.365,27.344,32.227,20.508000000000006,38.574,0.0,0
1582733182.369,30.762,29.297,19.043,39.062,0.0,0
1582733182.373,27.344,31.25,17.578,45.898,0.0,0
1582733182.377,30.762,31.25,20.02,37.109,0.0,0
1582733182.381,24.414,20.508000000000006,24.414,38.574,0.0,0
1582733182.383,20.508000000000006,15.625,23.438,56.64100000000001,0.0,0
1582733182.387,42.48,24.902,19.043,58.594,0.0,0
1582733182.391,39.551,36.133,20.508000000000006,56.152,0.0,0
1582733182.395,25.391,38.574,23.926,35.156,0.0,0
1582733182.399,20.996,35.645,22.949,37.598,0.0,0
1582733182.403,28.809,32.715,21.973000000000006,61.523,0.0,0
1582733182.407,36.621,29.297,20.996,46.387,0.0,0
1582733182.41,37.109,26.367,22.461,15.625,0.0,0
1582733182.414,42.969,25.879,21.484,36.621,0.0,0
1582733182.418,34.668,28.32,21.973000000000006,56.152,0.0,0
1582733182.4220002,38.086,31.738000000000003,19.043,54.199,0.0,0
1582733182.426,44.434,31.738000000000003,14.16,57.129,0.0,0
1582733182.428,43.457,25.879,17.09,52.246,0.0,0
1582733182.4320002,46.387,27.344,16.113,49.805,0.0,0
1582733182.436,36.133,34.18,18.066,49.805,0.0,0
1582733182.44,20.996,33.691,20.02,42.969,0.0,0
1582733182.444,24.902,29.297,24.414,51.27,0.0,0
1582733182.448,21.973000000000006,24.902,26.855,53.71100000000001,0.0,0
1582733182.452,14.16,23.926,24.414,44.434,0.0,0
1582733182.455,36.133,19.043,23.926,55.664,0.0,0
1582733182.459,60.547,19.531,26.367,56.64100000000001,0.0,0
1582733182.4629998,43.457,24.902,24.902,45.898,0.0,0
1582733182.467,11.719,17.09,20.996,49.316,0.0,0
1582733182.471,9.766,23.926,17.578,41.504,0.0,0
1582733182.488,32.715,37.109,19.043,47.363,0.0,0
1582733182.492,23.438,32.227,22.949,54.688,0.0,0
1582733182.496,22.461,31.738000000000003,25.391,48.828,0.0,0
1582733182.5,41.992,32.227,23.926,50.293,0.0,0
1582733182.504,59.57,26.367,20.02,47.852,0.0,0
1582733182.508,53.71100000000001,25.879,20.02,48.34,0.0,0
1582733182.512,32.715,26.855,20.996,41.992,0.0,0
1582733182.515,33.203,22.949,20.02,53.223,0.0,0
1582733182.519,31.738000000000003,23.438,17.578,64.453,0.0,0
1582733182.5229998,26.367,25.391,16.602,48.828,0.0,0
1582733182.5270002,33.203,21.484,18.555,55.664,0.0,1
1582733182.531,28.809,29.785,18.066,61.035,0.0,0
1582733182.533,30.762,34.668,17.09,48.34,0.0,0
1582733182.5370002,50.293,30.762,19.043,39.062,0.0,0
1582733182.541,37.109,26.855,21.484,41.992,0.0,0
1582733182.545,26.855,26.855,22.461,44.434,0.0,0
1582733182.549,30.762,30.762,20.996,44.434,0.0,0
1582733182.553,26.855,29.297,22.461,51.27,0.0,0
1582733182.5570002,18.555,24.902,23.926,58.105,0.0,0
1582733182.56,37.598,26.855,21.973000000000006,53.71100000000001,0.0,0
1582733182.564,48.828,23.926,21.484,44.922,0.0,0
1582733182.5679998,25.879,19.043,20.508000000000006,31.738000000000003,0.0,0
1582733182.572,23.926,21.484,21.973000000000006,46.387,0.0,0
1582733182.576,29.297,21.973000000000006,22.949,53.71100000000001,0.0,0
1582733182.5779998,26.367,29.297,21.973000000000006,45.898,0.0,0
1582733182.582,35.156,32.715,21.973000000000006,49.805,0.0,0
1582733182.586,54.688,33.203,20.02,54.199,0.0,0
1582733182.59,50.78100000000001,34.18,19.531,58.105,0.0,0
1582733182.594,41.504,31.25,21.484,54.199,0.0,0
1582733182.5979998,44.922,34.18,22.461,55.176,0.0,0
1582733182.6020002,50.78100000000001,33.691,21.973000000000006,54.199,0.0,0
1582733182.605,62.988,25.879,24.902,59.57,0.0,0
1582733182.609,55.664,22.461,26.855,45.898,0.0,0
1582733182.613,34.18,23.438,27.832,35.156,0.0,0
1582733182.617,34.18,28.32,29.785,44.922,0.0,0
1582733182.621,41.504,35.156,26.855,47.363,0.0,0
1582733182.623,31.738000000000003,34.18,21.484,31.25,0.0,0
1582733182.627,23.926,30.273000000000003,19.043,25.879,0.0,0
1582733182.631,32.227,32.227,19.043,36.621,0.0,0
1582733182.635,56.152,32.715,21.484,44.434,0.0,0
1582733182.639,52.734,23.438,25.391,41.01600000000001,0.0,0
1582733182.643,23.438,20.996,23.438,41.01600000000001,0.0,0
1582733182.647,23.438,21.484,23.926,41.504,0.0,0
1582733182.65,20.996,27.344,23.926,40.527,0.0,0
1582733182.654,35.156,29.297,22.949,41.992,0.0,0
1582733182.658,50.293,28.809,24.902,44.434,0.0,0
1582733182.6620002,43.945,33.203,21.973000000000006,47.852,0.0,0
1582733182.666,42.969,33.691,17.578,44.434,0.0,0
1582733182.668,55.176,36.133,17.578,44.434,0.0,0
1582733182.6720002,54.688,39.062,22.461,48.34,0.0,0
1582733182.676,40.527,37.598,22.949,48.34,0.0,0
1582733182.68,43.945,31.738000000000003,23.438,45.898,0.0,0
1582733182.684,56.64100000000001,24.902,23.926,39.062,0.0,0
1582733182.688,62.5,15.625,23.926,42.48,0.0,0
1582733182.6920002,57.129,21.973000000000006,23.438,55.176,0.0,0
1582733182.695,42.48,35.156,22.461,35.156,0.0,0
1582733182.699,42.969,38.574,20.996,36.133,0.0,0
1582733182.7029998,44.922,40.527,20.996,56.152,0.0,0
1582733182.707,33.203,36.621,22.461,46.387,0.0,0
1582733182.711,29.297,30.762,20.02,45.41,0.0,0
1582733182.714,43.945,28.32,20.996,43.945,0.0,0
1582733182.718,47.363,31.25,24.414,42.48,0.0,0
1582733182.722,33.691,26.855,24.414,36.133,0.0,0
1582733182.726,37.109,22.461,24.902,38.086,0.0,0
1582733182.73,38.574,20.02,25.391,43.945,0.0,0
1582733182.734,30.273000000000003,20.02,23.438,38.086,0.0,0
1582733182.738,25.879,29.297,24.414,46.387,0.0,0
1582733182.7410002,28.32,31.738000000000003,22.461,52.246,0.0,0
1582733182.745,34.18,29.785,17.09,49.805,0.0,0
1582733182.7489998,39.551,31.738000000000003,17.578,40.527,0.0,0
1582733182.7529998,43.945,27.344,21.484,34.18,0.0,0
1582733182.7570002,37.598,25.879,23.438,36.133,0.0,0
1582733182.7589998,27.344,31.25,24.414,27.832,0.0,0
1582733182.7629998,30.762,36.621,23.438,38.086,0.0,0
1582733182.7670002,34.668,34.18,21.973000000000006,54.688,0.0,0
1582733182.771,43.457,26.367,21.973000000000006,49.316,0.0,0
1582733182.775,53.223,27.832,23.926,49.805,0.0,0
1582733182.779,50.293,32.227,25.391,47.852,0.0,0
1582733182.783,54.199,31.25,24.414,37.109,0.0,0
1582733182.786,44.922,31.25,21.484,38.086,0.0,0
1582733182.79,27.344,33.691,20.02,32.715,0.0,0
1582733182.794,27.832,32.715,21.973000000000006,35.645,0.0,0
1582733182.798,25.879,28.32,23.438,39.551,0.0,0
1582733182.802,14.648,22.461,22.461,32.227,0.0,0
1582733182.804,22.461,20.508000000000006,22.461,32.227,0.0,0
1582733182.8079998,37.109,22.461,23.438,34.18,0.0,0
1582733182.812,53.71100000000001,20.996,21.484,46.875,0.0,0
1582733182.816,48.34,31.25,23.926,40.527,0.0,0
1582733182.82,19.043,33.203,25.391,34.668,0.0,0
1582733182.824,13.672,26.855,23.926,36.133,0.0,0
1582733182.8279998,24.414,27.832,22.949,35.156,0.0,0
1582733182.831,28.809,28.32,20.996,33.691,0.0,0
1582733182.835,27.832,31.738000000000003,21.973000000000006,40.039,0.0,0
1582733182.839,26.367,35.645,20.508000000000006,32.715,0.0,0
1582733182.843,42.969,33.203,17.578,26.367,0.0,0
1582733182.847,49.805,26.367,19.531,35.645,0.0,0
1582733182.8639998,31.25,22.949,23.438,38.086,0.0,0
1582733182.8679998,35.156,25.879,21.484,40.039,0.0,0
1582733182.8720002,47.363,30.762,19.043,44.922,0.0,0
1582733182.8760002,32.715,31.25,19.043,41.504,0.0,0
1582733182.88,24.414,33.203,20.02,33.691,0.0,0
1582733182.8839998,50.78100000000001,27.832,18.555,40.039,0.0,0
1582733182.8879998,41.992,22.461,19.043,48.34,0.0,0
1582733182.891,45.41,28.32,18.555,45.898,0.0,0
1582733182.895,54.688,35.645,16.113,39.062,0.0,0
1582733182.899,32.227,32.227,20.508000000000006,49.805,0.0,0
1582733182.903,14.648,25.879,24.902,46.387,0.0,0
1582733182.907,25.391,28.32,25.879,43.457,0.0,0
1582733182.909,36.621,32.227,25.391,41.992,0.0,0
1582733182.913,30.273000000000003,31.738000000000003,25.879,38.086,0.0,0
1582733182.917,36.621,26.367,25.879,42.969,0.0,0
1582733182.921,59.57,24.902,25.879,44.922,0.0,0
1582733182.925,45.41,28.32,28.32,38.086,0.0,0
1582733182.929,26.367,32.227,28.32,41.01600000000001,0.0,0
1582733182.9329998,26.367,35.156,29.297,48.828,0.0,0
1582733182.936,27.832,30.762,28.32,51.758,0.0,0
1582733182.94,43.457,26.855,28.32,45.898,0.0,0
1582733182.944,45.898,28.32,29.785,43.457,0.0,0
1582733182.948,41.992,28.809,29.297,53.71100000000001,0.0,0
1582733182.952,56.152,29.785,29.297,51.758,0.0,0
1582733182.954,60.059,32.715,29.297,41.01600000000001,0.0,0
1582733182.958,41.992,36.621,25.391,50.78100000000001,0.0,0
1582733182.962,36.621,33.691,26.367,48.34,0.0,0
1582733182.966,33.691,29.297,26.367,36.133,0.0,0
1582733182.97,30.762,29.785,23.926,45.41,0.0,0
1582733182.974,29.297,31.25,22.949,43.945,0.0,0
1582733182.978,26.855,28.809,21.973000000000006,41.992,0.0,0
1582733182.981,24.414,22.949,23.438,48.34,0.0,0
1582733182.985,25.879,20.02,25.391,32.227,0.0,0
1582733182.9889998,32.715,29.785,24.902,32.227,0.0,0
1582733182.9929998,11.719,34.668,26.367,40.039,0.0,0
1582733182.9970002,22.461,29.297,27.344,32.715,0.0,0
1582733182.9989998,41.992,26.855,26.367,47.363,0.0,0
1582733183.0029998,34.18,32.715,26.367,55.176,0.0,0
1582733183.0070002,28.32,33.203,23.926,49.805,0.0,0
1582733183.0110002,30.273000000000003,27.832,24.902,50.293,0.0,0
1582733183.015,26.367,27.344,26.367,45.41,0.0,0
1582733183.019,27.344,26.367,25.879,25.391,0.0,0
1582733183.0229998,32.715,26.367,26.855,28.809,0.0,0
1582733183.026,35.645,22.461,27.344,60.059,0.0,0
1582733183.03,44.434,25.391,27.344,43.457,0.0,0
1582733183.034,35.156,35.645,26.367,28.809,0.0,0
1582733183.038,26.367,35.156,24.902,47.363,0.0,0
1582733183.042,42.48,34.18,22.461,48.34,0.0,0
1582733183.044,41.01600000000001,40.527,20.02,41.992,0.0,0
1582733183.048,50.78100000000001,34.668,22.461,47.852,0.0,0
1582733183.052,62.988,23.926,26.367,50.293,0.0,0
1582733183.056,37.598,30.273000000000003,26.367,45.41,0.0,0
1582733183.06,19.531,35.156,25.879,42.969,0.0,0
1582733183.064,20.02,30.762,25.391,37.109,0.0,0
1582733183.0679998,25.391,21.484,24.902,44.922,0.0,0
1582733183.071,29.785,21.484,25.391,35.645,0.0,0
1582733183.075,32.715,35.156,23.438,20.508000000000006,0.0,0
1582733183.079,41.01600000000001,38.086,22.461,23.438,0.0,0
1582733183.083,23.926,29.297,24.902,19.043,0.0,0
1582733183.087,-0.977,27.832,26.367,38.574,0.0,0
1582733183.092,7.812,30.762,28.32,53.71100000000001,0.0,0
1582733183.096,11.719,32.715,32.715,54.199,0.0,0
1582733183.1,21.484,31.738000000000003,34.668,55.176,0.0,0
1582733183.104,23.926,29.297,32.227,48.34,0.0,0
1582733183.1079998,20.996,28.809,29.297,39.551,0.0,0
1582733183.1120002,20.02,24.414,27.832,46.875,0.0,0
1582733183.1160002,22.461,21.484,26.367,45.41,0.0,0
1582733183.119,31.25,21.973000000000006,27.344,37.109,0.0,0
1582733183.123,33.203,29.785,30.273000000000003,40.039,0.0,0
1582733183.127,31.738000000000003,33.203,27.344,36.133,0.0,0
1582733183.131,24.902,32.715,25.879,43.945,0.0,0
1582733183.135,23.926,34.18,25.879,41.992,0.0,0
1582733183.135,36.621,37.109,22.949,43.945,0.0,0
1582733183.139,30.273000000000003,34.18,20.996,52.246,0.0,0
1582733183.143,30.762,32.715,22.461,39.551,0.0,0
1582733183.147,23.438,36.621,19.531,42.48,0.0,0
1582733183.151,37.598,32.227,20.02,50.293,0.0,0
1582733183.155,57.129,30.273000000000003,24.414,43.457,0.0,0
1582733183.159,33.691,30.273000000000003,21.484,30.273000000000003,0.0,0
1582733183.1620002,40.039,26.367,21.973000000000006,40.527,0.0,0
1582733183.166,37.109,29.297,23.926,50.78100000000001,0.0,0
1582733183.17,20.996,31.738000000000003,21.973000000000006,26.367,0.0,0
1582733183.174,10.254,30.762,21.973000000000006,27.832,0.0,0
1582733183.178,25.879,30.762,21.484,41.992,0.0,0
1582733183.179,40.039,33.203,20.02,39.062,0.0,0
1582733183.1829998,36.621,35.645,20.996,46.387,0.0,0
1582733183.187,36.621,31.738000000000003,21.973000000000006,42.48,0.0,0
1582733183.191,35.645,32.715,22.949,31.25,0.0,0
1582733183.195,35.645,36.133,22.461,31.738000000000003,0.0,0
1582733183.199,37.109,29.297,18.555,28.809,0.0,0
1582733183.2029998,40.527,24.902,18.066,25.879,0.0,0
1582733183.206,39.551,32.715,22.949,39.062,0.0,0
1582733183.21,28.32,35.156,23.926,58.105,0.0,0
1582733183.214,32.227,30.273000000000003,20.996,57.129,0.0,0
1582733183.218,38.086,33.203,20.508000000000006,46.875,0.0,0
1582733183.222,30.273000000000003,33.691,21.484,36.621,0.0,0
1582733183.2389998,28.32,36.621,19.531,39.062,0.0,0
1582733183.2429998,46.387,37.598,21.484,44.434,0.0,0
1582733183.2470002,46.875,25.879,23.926,39.062,0.0,0
1582733183.2510002,38.086,24.902,22.461,38.574,0.0,0
1582733183.255,25.391,34.18,21.973000000000006,34.18,0.0,0
1582733183.2589998,23.926,36.621,20.02,32.715,0.0,0
1582733183.2629998,27.344,32.715,20.996,27.344,0.0,0
1582733183.266,22.461,24.902,20.508000000000006,25.879,0.0,0
1582733183.27,29.785,21.484,20.508000000000006,39.062,0.0,0
1582733183.274,42.969,19.043,22.949,41.992,0.0,0
1582733183.278,54.199,20.02,21.484,33.691,0.0,0
1582733183.282,49.805,34.668,21.484,31.25,0.0,0
1582733183.284,30.762,36.621,22.949,41.504,0.0,0
1582733183.288,18.066,30.273000000000003,22.949,48.34,0.0,0
1582733183.292,43.457,29.297,20.996,39.551,0.0,0
1582733183.296,52.734,25.879,22.461,31.738000000000003,0.0,0
1582733183.3,17.578,29.297,24.414,37.109,0.0,0
1582733183.304,8.301,30.273000000000003,24.414,40.039,0.0,0
1582733183.3079998,25.879,28.809,26.367,52.246,0.0,0
1582733183.311,39.551,28.809,27.344,49.805,0.0,0
1582733183.315,39.062,23.926,25.391,37.109,0.0,0
1582733183.319,44.922,28.809,20.996,24.414,0.0,0
1582733183.323,39.062,29.297,20.02,12.207,0.0,0
1582733183.327,36.621,21.973000000000006,22.461,25.879,0.0,0
1582733183.329,37.598,25.879,24.414,41.992,0.0,0
1582733183.333,19.043,31.25,26.367,45.898,0.0,0
1582733183.337,40.039,30.762,28.809,57.129,0.0,0
1582733183.341,67.383,27.832,27.344,46.387,0.0,0
1582733183.345,31.25,25.879,21.973000000000006,35.645,0.0,0
1582733183.349,25.879,25.391,19.531,40.039,0.0,0
1582733183.353,38.574,30.762,19.531,35.156,0.0,0
1582733183.356,30.273000000000003,29.785,19.043,31.738000000000003,0.0,0
1582733183.36,34.18,29.785,22.461,39.551,0.0,0
1582733183.3639998,41.992,35.645,22.949,20.996,0.0,0
1582733183.3679998,39.551,29.785,21.973000000000006,23.438,0.0,0
1582733183.3720002,18.555,19.531,24.414,28.809,0.0,0
1582733183.3739998,22.461,25.879,24.902,17.578,0.0,0
1582733183.3779998,40.039,34.18,23.926,27.832,0.0,0
1582733183.3820002,39.062,29.297,24.414,35.645,0.0,0
1582733183.3860002,31.25,28.809,25.879,23.926,0.0,0
1582733183.39,23.926,34.668,25.879,21.973000000000006,0.0,0
1582733183.394,46.387,32.715,27.344,40.527,0.0,0
1582733183.3979998,48.34,33.203,27.344,33.203,0.0,0
1582733183.401,28.32,31.738000000000003,26.855,27.344,0.0,0
1582733183.405,43.945,29.785,23.438,29.785,0.0,0
1582733183.409,57.617,30.762,21.973000000000006,30.273000000000003,0.0,0
1582733183.413,53.223,28.809,27.344,43.457,0.0,0
1582733183.417,45.41,29.297,25.879,41.01600000000001,0.0,0
1582733183.419,30.273000000000003,31.25,20.508000000000006,24.902,0.0,0
1582733183.423,34.18,31.25,21.484,24.902,0.0,0
1582733183.427,56.152,29.297,25.391,32.227,0.0,0
1582733183.431,39.062,30.273000000000003,24.414,19.043,0.0,0
1582733183.435,18.066,31.25,21.973000000000006,27.832,0.0,0
1582733183.439,13.672,25.879,21.484,38.574,0.0,0
1582733183.4429998,19.043,24.414,21.484,39.551,0.0,0
1582733183.446,28.32,25.879,21.973000000000006,40.039,0.0,0
1582733183.45,31.25,29.785,23.926,40.527,0.0,0
1582733183.454,45.898,31.25,26.367,50.293,0.0,0
1582733183.458,54.199,26.367,23.438,52.246,0.0,0
1582733183.462,43.457,25.391,26.855,39.062,0.0,0
1582733183.4629998,27.832,27.832,31.25,30.273000000000003,0.0,0
1582733183.467,26.855,27.832,27.344,39.062,0.0,0
1582733183.471,36.621,32.227,24.902,36.621,0.0,0
1582733183.475,27.832,36.133,25.391,29.297,0.0,0
1582733183.479,30.273000000000003,32.227,23.438,35.645,0.0,0
1582733183.4829998,43.457,27.832,21.973000000000006,46.875,0.0,0
1582733183.4870002,41.992,30.273000000000003,23.438,65.43,0.0,0
1582733183.49,44.922,35.645,25.391,44.922,0.0,0
1582733183.494,43.457,33.203,26.855,31.25,0.0,0
1582733183.498,22.949,32.227,26.855,56.64100000000001,0.0,0
1582733183.502,27.832,29.297,26.855,52.734,0.0,0
1582733183.506,41.504,29.297,24.414,40.039,0.0,0
1582733183.508,30.762,31.25,21.484,37.598,0.0,0
1582733183.512,23.438,28.809,17.09,37.598,0.0,0
1582733183.516,25.879,27.344,20.508000000000006,43.945,0.0,0
1582733183.52,24.902,30.273000000000003,22.461,37.598,0.0,0
1582733183.524,40.039,28.32,20.508000000000006,33.691,0.0,0
1582733183.528,33.691,27.832,23.926,37.598,0.0,0
1582733183.532,28.32,33.691,26.367,36.133,0.0,0
1582733183.535,31.25,28.809,27.832,41.01600000000001,0.0,0
1582733183.539,27.344,22.461,26.367,41.01600000000001,0.0,0
1582733183.543,25.391,24.414,23.926,44.434,0.0,0
1582733183.5470002,24.902,30.762,26.367,43.945,0.0,0
1582733183.551,20.02,32.715,26.855,33.691,0.0,0
1582733183.553,24.414,30.273000000000003,26.855,52.734,0.0,0
1582733183.5570002,33.691,27.344,27.832,40.039,0.0,0
1582733183.561,32.227,26.367,28.32,41.01600000000001,0.0,0
1582733183.565,38.574,26.855,29.785,59.082,0.0,0
1582733183.569,41.992,28.32,30.273000000000003,58.594,0.0,0
1582733183.573,43.457,26.367,28.809,49.805,0.0,0
1582733183.577,41.992,27.344,26.855,41.992,0.0,0
1582733183.58,34.18,32.227,22.461,41.504,0.0,0
1582733183.584,29.785,32.227,22.461,47.852,0.0,0
1582733183.5879998,41.01600000000001,32.715,27.832,52.734,0.0,0
1582733183.592,40.039,34.18,27.832,44.434,0.0,0
1582733183.596,34.668,32.715,26.367,35.156,0.0,0
1582733183.613,27.832,25.879,28.809,50.78100000000001,0.0,0
1582733183.617,21.973000000000006,28.32,28.32,45.898,0.0,0
1582733183.621,21.484,35.156,24.902,37.598,0.0,0
1582733183.625,22.461,29.297,24.414,46.875,0.0,0
1582733183.629,34.668,23.926,23.926,44.922,0.0,0
1582733183.633,31.738000000000003,31.25,24.414,37.598,0.0,2
1582733183.637,21.484,35.156,25.391,32.227,0.0,0
1582733183.64,20.508000000000006,34.668,23.926,29.297,0.0,0
1582733183.644,33.203,31.738000000000003,22.949,37.109,0.0,0
1582733183.6479998,49.316,26.855,24.902,48.828,0.0,0
1582733183.6520002,36.621,28.809,28.32,41.01600000000001,0.0,0
1582733183.656,26.855,32.227,26.855,33.203,0.0,0
1582733183.658,39.551,32.227,24.414,45.898,0.0,0
1582733183.6620002,20.996,34.668,23.438,39.551,0.0,0
1582733183.666,19.531,30.762,19.531,9.766,0.0,0
1582733183.67,29.297,24.414,22.949,25.879,0.0,0
1582733183.674,25.391,29.785,27.344,35.645,0.0,0
1582733183.678,18.555,34.668,25.391,28.809,0.0,0
1582733183.6820002,8.301,34.18,25.879,26.367,0.0,0
1582733183.685,29.785,27.344,24.902,41.992,0.0,0
1582733183.689,39.062,24.414,25.391,53.71100000000001,0.0,0
1582733183.6929998,30.273000000000003,27.832,25.391,43.945,0.0,0
1582733183.697,29.297,22.461,23.438,36.621,0.0,0
1582733183.701,22.461,23.926,21.484,27.832,0.0,0
1582733183.7029998,27.344,27.344,20.996,32.227,0.0,0
1582733183.707,29.297,25.879,20.996,33.203,0.0,0
1582733183.711,15.625,26.367,23.438,39.062,0.0,0
1582733183.715,13.184,28.809,25.879,33.203,0.0,0
1582733183.719,13.672,34.668,25.391,26.855,0.0,0
1582733183.7229998,26.367,33.691,26.367,36.621,0.0,0
1582733183.7270002,37.598,27.832,29.785,40.039,0.0,0
1582733183.73,34.668,31.738000000000003,29.785,53.223,0.0,0
1582733183.734,48.828,36.621,25.879,51.27,0.0,0
1582733183.738,51.758,28.32,26.367,40.527,0.0,0
1582733183.742,31.25,26.855,25.879,37.598,0.0,0
1582733183.746,36.133,25.879,24.414,43.457,0.0,0
1582733183.748,39.062,22.461,27.832,43.457,0.0,0
1582733183.752,24.414,28.32,25.879,30.273000000000003,0.0,0
1582733183.756,28.32,35.645,23.438,37.598,0.0,0
1582733183.76,32.227,34.18,23.438,50.293,0.0,0
1582733183.764,26.367,30.762,26.855,58.105,0.0,0
1582733183.768,34.668,38.574,30.762,54.688,0.0,0
1582733183.772,51.758,41.504,28.809,56.64100000000001,0.0,0
1582733183.775,43.457,39.551,26.855,55.664,0.0,0
1582733183.779,32.227,35.156,27.344,34.668,0.0,0
1582733183.783,32.227,31.25,26.367,36.133,0.0,0
1582733183.7870002,33.203,34.668,23.926,42.969,0.0,0
1582733183.791,34.668,35.645,22.949,33.203,0.0,0
1582733183.794,29.297,35.645,23.438,42.48,0.0,0
1582733183.798,33.203,29.785,23.438,56.152,0.0,0
1582733183.802,41.992,29.297,23.438,45.898,0.0,0
1582733183.806,25.879,37.109,24.414,49.316,0.0,0
1582733183.81,20.508000000000006,38.574,26.855,55.176,0.0,0
1582733183.814,28.809,40.527,29.297,50.78100000000001,0.0,0
1582733183.8179998,43.945,41.992,27.832,55.664,0.0,0
1582733183.821,33.691,41.504,25.391,47.852,0.0,0
1582733183.825,12.207,38.086,25.391,33.691,0.0,0
1582733183.829,29.785,37.598,25.879,51.758,0.0,0
1582733183.833,38.086,32.227,26.855,47.852,0.0,0
1582733183.837,40.039,33.203,27.344,39.551,0.0,0
1582733183.839,48.34,38.086,25.391,44.922,0.0,0
1582733183.843,53.223,36.621,21.973000000000006,45.898,0.0,0
1582733183.847,27.832,40.039,20.508000000000006,44.922,0.0,0
1582733183.851,29.297,36.621,19.043,37.598,0.0,0
1582733183.855,45.41,30.273000000000003,18.066,39.062,0.0,0
1582733183.859,25.879,35.156,21.973000000000006,44.922,0.0,0
1582733183.863,39.551,42.48,24.902,58.594,0.0,0
1582733183.8660002,51.27,42.969,20.508000000000006,47.852,0.0,0
1582733183.87,47.363,38.086,20.508000000000006,34.668,0.0,0
1582733183.8739998,32.227,36.133,23.438,36.133,0.0,0
1582733183.8779998,22.461,37.109,23.438,44.922,0.0,0
1582733183.8820002,36.133,37.598,26.367,43.457,0.0,0
1582733183.883,36.621,35.156,25.879,50.78100000000001,0.0,0
1582733183.887,28.809,33.691,22.949,54.199,0.0,0
1582733183.891,20.02,40.527,24.414,22.949,0.0,0
1582733183.895,26.367,38.574,23.438,27.344,0.0,0
1582733183.899,33.203,34.668,22.949,41.504,0.0,0
1582733183.903,38.086,37.109,25.879,50.293,0.0,0
1582733183.907,31.738000000000003,38.086,26.855,49.805,0.0,0
1582733183.91,17.09,38.574,27.344,40.039,0.0,0
1582733183.914,21.973000000000006,35.645,26.855,37.109,0.0,0
1582733183.918,36.133,29.785,25.879,34.18,0.0,0
1582733183.9220002,39.062,33.203,24.902,34.668,0.0,0
1582733183.926,35.156,39.062,26.855,43.945,0.0,0
1582733183.929,29.785,34.668,31.738000000000003,49.316,0.0,0
1582733183.9329998,18.555,38.086,30.273000000000003,38.574,0.0,0
1582733183.937,14.16,43.457,26.855,29.785,0.0,0
1582733183.941,38.086,36.621,26.367,45.41,0.0,0
1582733183.945,51.758,32.715,25.391,51.758,0.0,0
1582733183.949,30.762,39.551,25.391,44.922,0.0,0
1582733183.9529998,19.531,39.062,25.391,39.062,0.0,0
1582733183.956,18.066,35.156,23.926,30.762,0.0,0
1582733183.96,27.344,33.691,23.438,37.109,0.0,0
1582733183.964,35.645,36.133,24.414,28.809,0.0,0
1582733183.968,30.273000000000003,40.527,23.926,27.344,0.0,0
1582733183.972,12.695,40.039,21.973000000000006,42.48,0.0,0
1582733183.9889998,15.137,37.598,22.461,39.062,0.0,0
1582733183.9929998,18.555,39.062,23.438,43.457,0.0,0
1582733183.9970002,20.508000000000006,34.668,23.926,45.41,0.0,0
1582733184.0010002,14.648,27.832,23.926,33.691,0.0,0
1582733184.005,18.066,30.762,22.949,20.508000000000006,0.0,0
1582733184.0089998,36.621,35.156,22.461,32.715,0.0,0
1582733184.0129998,20.996,35.156,22.461,47.363,0.0,0
1582733184.016,6.348,31.25,23.438,37.109,0.0,0
1582733184.02,18.066,26.855,23.438,36.133,0.0,0
1582733184.024,31.25,30.762,23.438,34.18,0.0,0
1582733184.028,29.297,35.645,23.926,41.504,0.0,0
1582733184.032,28.809,33.203,22.461,44.922,0.0,0
1582733184.034,38.086,35.156,23.438,41.01600000000001,0.0,0
1582733184.038,51.27,41.504,22.949,34.668,0.0,0
1582733184.042,21.973000000000006,41.992,20.508000000000006,28.809,0.0,0
1582733184.046,12.695,37.109,24.414,41.01600000000001,0.0,0
1582733184.05,26.367,34.18,24.902,46.387,0.0,0
1582733184.054,26.855,24.902,21.973000000000006,38.574,0.0,0
1582733184.0579998,23.438,23.926,22.461,41.504,0.0,0
1582733184.061,31.25,46.387,23.438,41.504,0.0,0
1582733184.065,31.738000000000003,60.059,24.414,30.762,0.0,0
1582733184.069,22.461,64.941,22.949,22.461,0.0,0
1582733184.073,21.973000000000006,68.848,21.484,36.133,0.0,0
1582733184.077,28.32,68.359,22.461,45.898,0.0,0
1582733184.079,35.645,71.777,21.973000000000006,38.086,0.0,0
1582733184.083,41.992,78.613,19.043,41.01600000000001,0.0,0
1582733184.087,27.344,76.172,21.484,46.875,0.0,0
1582733184.091,12.695,66.895,25.879,41.992,0.0,0
1582733184.095,29.785,69.336,23.926,33.203,0.0,0
1582733184.099,21.973000000000006,74.707,23.926,34.18,0.0,0
1582733184.103,13.184,73.242,25.879,47.363,0.0,0
1582733184.106,25.879,68.359,24.902,38.086,0.0,0
1582733184.11,28.32,66.406,21.973000000000006,29.785,0.0,0
1582733184.1139998,40.039,67.383,19.043,45.898,0.0,0
1582733184.1179998,45.41,62.5,19.531,48.828,0.0,0
1582733184.1220002,35.156,64.941,21.973000000000006,44.922,0.0,0
1582733184.1239998,37.109,65.918,22.461,45.41,0.0,0
1582733184.1279998,41.992,54.199,21.973000000000006,52.246,0.0,0
1582733184.1320002,30.762,56.64100000000001,20.508000000000006,51.27,0.0,0
1582733184.1360002,19.043,58.105,20.996,35.645,0.0,0
1582733184.14,24.902,53.223,22.949,41.992,0.0,0
1582733184.144,27.832,58.105,20.996,53.223,0.0,0
1582733184.1479998,32.227,56.64100000000001,19.043,51.758,0.0,0
1582733184.151,58.594,53.223,19.531,45.41,0.0,0
1582733184.155,39.551,52.734,21.484,32.227,0.0,0
1582733184.159,7.812,44.434,23.438,14.648,0.0,0
1582733184.163,20.996,46.387,20.02,20.508000000000006,0.0,0
1582733184.167,20.996,49.805,17.578,41.992,0.0,0
1582733184.169,32.227,49.316,20.508000000000006,39.551,0.0,0
1582733184.173,30.762,49.805,21.484,33.203,0.0,0
1582733184.177,17.578,45.41,21.973000000000006,40.039,0.0,0
1582733184.181,21.973000000000006,39.551,24.902,46.875,0.0,0
1582733184.185,38.086,38.086,23.926,46.875,0.0,0
1582733184.189,41.504,43.457,22.461,30.273000000000003,0.0,0
1582733184.1929998,21.973000000000006,44.922,25.391,32.715,0.0,0
1582733184.196,15.625,41.992,24.902,46.387,0.0,0
1582733184.2,31.25,33.691,20.508000000000006,44.922,0.0,0
1582733184.204,41.992,36.621,19.531,41.504,0.0,0
1582733184.208,50.293,40.527,20.508000000000006,39.062,0.0,0
1582733184.212,30.273000000000003,33.203,22.949,43.945,0.0,0
1582733184.214,11.719,35.645,24.902,40.039,0.0,0
1582733184.218,25.879,41.504,22.949,33.203,0.0,0
1582733184.222,23.926,41.992,22.949,45.898,0.0,0
1582733184.226,23.926,41.01600000000001,25.879,51.27,0.0,0
1582733184.23,17.09,35.645,26.855,51.27,0.0,0
1582733184.234,13.672,32.715,25.391,46.875,0.0,0
1582733184.238,33.203,33.203,23.438,38.574,0.0,0
1582733184.2410002,30.762,36.621,18.555,33.203,0.0,0
1582733184.245,1.465,37.598,18.066,29.785,0.0,0
1582733184.2489998,9.766,27.832,20.508000000000006,41.992,0.0,0
1582733184.2529998,30.762,24.902,19.043,36.621,0.0,0
1582733184.2570002,25.879,25.391,21.484,32.715,0.0,0
1582733184.2589998,18.555,28.32,23.438,37.598,0.0,0
1582733184.2629998,8.301,33.203,21.973000000000006,31.738000000000003,0.0,0
1582733184.2670002,21.484,35.645,20.996,19.531,0.0,0
1582733184.271,21.484,36.621,19.531,18.555,0.0,0
1582733184.275,19.043,34.18,21.973000000000006,20.996,0.0,0
1582733184.279,19.531,32.227,24.902,25.879,0.0,0
1582733184.283,-2.441,29.297,21.973000000000006,26.855,0.0,0
1582733184.286,7.324,32.227,22.461,25.879,0.0,0
1582733184.29,16.602,36.133,23.438,31.25,0.0,0
1582733184.294,20.996,32.715,21.484,33.691,0.0,0
1582733184.298,25.879,27.832,21.484,44.434,0.0,0
1582733184.302,38.086,26.855,25.391,34.18,0.0,0
1582733184.304,29.785,31.738000000000003,23.438,20.508000000000006,0.0,0
1582733184.3079998,10.254,29.785,19.043,34.668,0.0,0
1582733184.312,18.066,27.832,23.438,41.992,0.0,0
1582733184.316,23.438,30.762,24.414,35.156,0.0,0
1582733184.32,25.391,33.691,20.996,29.785,0.0,0
1582733184.324,20.996,35.645,20.996,32.227,0.0,0
1582733184.3279998,26.855,21.973000000000006,24.414,28.32,0.0,0
1582733184.331,27.832,19.043,25.391,33.691,0.0,0
1582733184.335,28.32,28.32,23.438,41.504,0.0,0
1582733184.339,25.879,33.203,23.438,48.828,0.0,0
1582733184.343,23.926,34.18,21.973000000000006,40.527,0.0,0
1582733184.347,24.902,34.18,19.043,29.297,0.0,0
1582733184.3639998,7.324,33.691,18.066,43.457,0.0,0
1582733184.3679998,13.184,31.738000000000003,19.531,35.645,0.0,0
1582733184.3720002,22.461,29.297,19.531,26.367,0.0,0
1582733184.3760002,14.16,30.762,21.973000000000006,32.227,0.0,0
1582733184.38,31.25,28.32,25.391,29.785,0.0,0
1582733184.3839998,41.992,21.973000000000006,23.926,20.996,0.0,0
1582733184.3879998,22.949,25.391,20.996,19.531,0.0,0
1582733184.391,21.973000000000006,30.273000000000003,20.508000000000006,33.691,0.0,0
1582733184.395,26.367,26.855,22.949,36.621,0.0,0
1582733184.399,20.996,25.391,25.391,23.438,0.0,0
1582733184.403,28.809,33.203,22.949,23.438,0.0,0
1582733184.407,39.551,43.945,23.438,26.367,0.0,0
1582733184.424,30.273000000000003,35.156,24.414,25.879,0.0,0
1582733184.428,19.531,28.809,20.508000000000006,30.273000000000003,0.0,0
1582733184.4320002,33.203,32.715,20.996,27.344,0.0,0
1582733184.436,50.293,26.367,21.973000000000006,35.645,0.0,0
1582733184.44,35.156,25.391,24.902,34.18,0.0,0
1582733184.444,33.203,34.18,24.902,25.879,0.0,0
1582733184.448,28.809,37.109,21.973000000000006,17.09,0.0,0
1582733184.451,37.598,36.621,21.973000000000006,11.23,0.0,0
1582733184.455,56.152,34.18,20.996,27.832,0.0,0
1582733184.459,40.527,31.25,21.973000000000006,27.832,0.0,0
1582733184.4629998,40.527,37.109,21.973000000000006,19.043,0.0,0
1582733184.467,42.48,35.645,19.531,26.367,0.0,0
1582733184.454,45.898,25.391,19.531,29.785,0.0,0
1582733184.458,49.316,35.156,20.02,32.227,0.0,0
1582733184.462,51.758,37.598,23.438,32.715,0.0,0
1582733184.466,53.71100000000001,26.855,26.367,39.062,0.0,0
1582733184.47,45.41,32.715,23.438,36.133,0.0,0
1582733184.474,45.898,44.922,20.02,31.738000000000003,0.0,0
1582733184.478,39.062,36.621,20.508000000000006,34.668,0.0,0
1582733184.481,23.926,27.344,20.996,41.992,0.0,0
1582733184.485,28.32,30.762,20.996,40.527,0.0,0
1582733184.4889998,37.109,28.809,22.949,36.621,0.0,0
1582733184.4929998,40.039,26.367,22.461,32.227,0.0,0
1582733184.4970002,39.062,33.691,22.461,39.062,0.0,0
1582733184.4989998,34.18,34.18,26.367,44.434,0.0,0
1582733184.5029998,21.484,32.715,26.855,33.691,0.0,0
1582733184.5070002,23.926,33.203,26.855,37.598,0.0,0
1582733184.5110002,42.48,34.668,29.785,42.969,0.0,0
1582733184.515,39.062,38.086,28.809,44.434,0.0,0
1582733184.519,20.508000000000006,29.785,25.879,34.668,0.0,0
1582733184.5229998,28.32,20.02,24.414,23.926,0.0,0
1582733184.526,34.18,22.461,24.414,40.527,0.0,0
1582733184.53,15.137,31.25,25.879,37.598,0.0,0
1582733184.534,12.207,20.508000000000006,27.344,29.785,0.0,0
1582733184.538,35.156,17.578,26.855,32.715,0.0,0
1582733184.542,37.109,28.809,27.344,32.715,0.0,0
1582733184.543,24.414,34.668,24.902,41.504,0.0,0
1582733184.5470002,23.926,29.785,24.414,39.551,0.0,0
1582733184.551,21.973000000000006,20.508000000000006,23.926,28.809,0.0,0
1582733184.555,48.828,27.344,21.484,30.273000000000003,0.0,0
1582733184.559,49.805,26.367,22.949,25.879,0.0,0
1582733184.563,23.438,21.484,23.438,49.805,0.0,0
1582733184.5670002,17.09,27.344,24.902,37.598,0.0,0
1582733184.57,34.668,35.645,21.973000000000006,22.461,0.0,0
1582733184.574,43.945,30.762,24.414,42.969,0.0,0
1582733184.5779998,28.809,18.066,31.25,43.945,0.0,0
1582733184.582,29.297,25.391,26.855,46.875,0.0,0
1582733184.586,33.203,29.297,26.367,39.551,0.0,0
1582733184.5879998,31.25,30.273000000000003,30.762,41.992,0.0,0
1582733184.592,31.738000000000003,33.691,29.785,54.688,0.0,0
1582733184.596,29.297,33.691,26.367,32.227,0.0,0
1582733184.6,56.152,33.203,29.297,44.922,0.0,0
1582733184.604,61.035,28.32,28.809,44.434,0.0,0
1582733184.6079998,32.715,30.273000000000003,25.879,26.367,0.0,0
1582733184.6120002,49.805,37.109,29.297,39.551,0.0,0
1582733184.615,75.195,38.086,29.785,43.945,0.0,0
1582733184.619,65.43,34.18,27.832,44.922,0.0,0
1582733184.623,49.805,35.156,26.367,44.922,0.0,0
1582733184.627,42.969,41.992,26.855,46.875,0.0,0
1582733184.631,47.852,39.062,26.855,50.78100000000001,0.0,0
1582733184.633,50.293,27.832,25.391,43.457,0.0,0
1582733184.637,45.41,34.668,24.414,33.203,0.0,0
1582733184.641,39.062,44.922,26.855,39.062,0.0,0
1582733184.645,37.598,42.969,28.809,14.648,0.0,0
1582733184.649,30.273000000000003,33.691,28.32,17.578,0.0,0
1582733184.653,21.973000000000006,20.996,25.391,49.316,0.0,0
1582733184.657,43.945,22.461,26.367,47.852,0.0,0
1582733184.66,39.062,34.18,26.855,25.391,0.0,0
1582733184.664,25.879,40.527,24.414,20.508000000000006,0.0,0
1582733184.668,38.574,40.527,24.414,35.156,0.0,0
1582733184.6720002,33.691,39.062,24.902,33.691,0.0,0
1582733184.676,28.809,33.691,22.949,37.109,0.0,0
1582733184.678,22.949,28.32,22.949,26.367,0.0,0
1582733184.6820002,21.973000000000006,26.855,26.367,11.23,0.0,0
1582733184.686,36.133,31.25,24.902,39.551,0.0,0
1582733184.69,33.691,28.32,21.973000000000006,26.855,0.0,0
1582733184.694,31.738000000000003,27.832,24.414,10.742,0.0,0
1582733184.698,23.926,37.598,26.367,33.691,0.0,0
1582733184.702,19.043,36.621,25.391,41.01600000000001,0.0,0
1582733184.705,32.715,35.156,25.879,37.598,0.0,0
1582733184.709,47.852,41.504,22.949,35.645,0.0,0
1582733184.7129998,56.152,32.715,21.973000000000006,38.086,0.0,0
1582733184.717,23.438,32.227,24.902,25.391,0.0,0
1582733184.721,5.371,39.551,26.855,24.414,0.0,2
1582733184.738,24.902,28.32,29.785,38.574,0.0,0
1582733184.742,31.25,20.02,30.273000000000003,38.086,0.0,0
1582733184.746,37.109,31.25,30.273000000000003,27.832,0.0,0
1582733184.75,23.926,33.691,28.32,22.461,0.0,0
1582733184.754,-0.488,26.855,26.367,40.527,0.0,0
1582733184.758,20.02,31.738000000000003,25.391,43.945,0.0,0
1582733184.762,32.227,38.086,24.414,28.32,0.0,0
1582733184.765,29.785,35.645,23.926,39.062,0.0,0
1582733184.769,37.598,25.879,28.809,44.434,0.0,0
1582733184.7729998,39.062,25.391,28.809,31.738000000000003,0.0,0
1582733184.7770002,26.855,29.297,23.926,24.414,0.0,0
1582733184.781,22.461,31.738000000000003,21.973000000000006,20.996,0.0,0
1582733184.783,17.09,33.203,22.949,29.785,0.0,0
1582733184.7870002,9.766,31.25,21.973000000000006,37.109,0.0,0
1582733184.791,20.508000000000006,28.809,20.508000000000006,36.133,0.0,0
1582733184.795,5.859,32.227,22.949,35.645,0.0,0
1582733184.799,7.812,31.738000000000003,26.367,42.969,0.0,0
1582733184.803,15.625,25.391,23.438,46.875,0.0,0
1582733184.8070002,10.742,24.414,24.414,34.668,0.0,0
1582733184.81,18.555,28.809,27.344,32.227,0.0,0
1582733184.814,19.043,27.344,25.879,28.32,0.0,0
1582733184.8179998,13.184,30.762,24.902,19.531,0.0,0
1582733184.822,16.113,32.715,20.996,31.738000000000003,0.0,0
1582733184.826,27.344,27.832,20.508000000000006,42.969,0.0,0
1582733184.8279998,17.09,28.32,24.902,45.41,0.0,0
1582733184.832,20.02,34.668,24.414,35.156,0.0,0
1582733184.836,36.133,24.414,23.438,42.48,0.0,0
1582733184.84,28.809,20.996,24.414,53.223,0.0,0
1582733184.844,3.906,34.18,23.438,37.598,0.0,0
1582733184.8479998,10.742,29.297,23.926,22.461,0.0,0
1582733184.8520002,14.16,29.297,27.344,18.555,0.0,0
1582733184.855,12.207,32.227,28.809,35.645,0.0,0
1582733184.859,26.367,29.297,23.438,49.805,0.0,0
1582733184.863,13.672,37.598,18.066,33.691,0.0,0
1582733184.867,14.648,39.062,20.02,28.809,0.0,0
1582733184.871,25.879,33.691,20.508000000000006,30.273000000000003,0.0,0
1582733184.873,6.348,28.32,20.996,30.762,0.0,0
1582733184.877,24.414,28.809,21.484,22.461,0.0,0
1582733184.881,28.809,27.344,21.484,22.949,0.0,0
1582733184.885,-2.441,27.344,25.879,25.391,0.0,0
1582733184.889,16.602,29.785,28.32,27.344,0.0,0
1582733184.893,23.926,30.762,25.391,37.109,0.0,0
1582733184.897,0.0,32.227,24.414,28.32,0.0,0
1582733184.9,2.441,31.25,24.902,25.879,0.0,0
1582733184.904,10.254,31.25,24.902,31.738000000000003,0.0,0
1582733184.908,28.809,29.297,27.344,33.203,0.0,0
1582733184.9120002,30.273000000000003,29.785,25.391,33.203,0.0,0
1582733184.916,12.695,30.273000000000003,26.855,30.762,0.0,0
1582733184.919,13.184,26.367,27.832,49.316,0.0,0
1582733184.923,16.602,23.926,24.902,45.41,0.0,0
1582733184.927,10.742,25.879,25.391,27.344,0.0,0
1582733184.931,25.879,31.25,26.367,36.133,0.0,0
1582733184.935,27.832,30.762,25.391,45.898,0.0,0
1582733184.939,14.648,20.508000000000006,28.32,52.246,0.0,0
1582733184.9429998,17.09,18.555,32.227,49.316,0.0,0
1582733184.946,13.184,28.809,28.809,41.01600000000001,0.0,0
1582733184.95,17.578,34.668,25.879,37.598,0.0,0
1582733184.954,27.344,25.879,28.809,40.527,0.0,0
1582733184.958,27.832,20.02,31.25,41.992,0.0,0
1582733184.962,23.438,34.668,28.32,35.645,0.0,0
1582733184.9629998,17.578,39.551,22.461,27.832,0.0,0
1582733184.967,7.324,33.203,22.461,30.273000000000003,0.0,0
1582733184.971,11.719,28.32,24.902,32.227,0.0,0
1582733184.975,14.648,29.297,23.926,40.039,0.0,0
1582733184.979,10.254,30.273000000000003,21.484,41.992,0.0,0
1582733184.9829998,25.391,27.832,23.926,33.691,0.0,0
1582733184.9870002,19.531,32.715,28.809,24.414,0.0,0
1582733184.99,0.977,35.645,28.809,19.043,0.0,0
1582733184.994,1.465,32.227,27.344,31.738000000000003,0.0,0
1582733184.998,9.277,28.32,27.344,41.01600000000001,0.0,0
1582733185.002,18.555,29.785,25.391,31.738000000000003,0.0,0
1582733185.006,32.227,28.32,24.902,41.504,0.0,0
1582733185.0089998,14.648,29.785,24.414,36.621,0.0,0
1582733185.0129998,-10.254,34.18,23.926,24.414,0.0,0
1582733185.0170002,-11.23,31.738000000000003,23.926,29.297,0.0,0
1582733185.021,-1.953,29.785,22.461,35.645,0.0,0
1582733185.025,-1.953,23.926,23.926,35.645,0.0,0
1582733185.029,0.0,26.855,21.484,23.926,0.0,0
1582733185.033,14.648,29.297,19.043,33.691,0.0,0
1582733185.036,22.949,26.367,23.438,33.691,0.0,0
1582733185.04,26.855,31.25,26.367,41.992,0.0,0
1582733185.044,12.695,30.762,28.32,47.852,0.0,0
1582733185.048,6.348,29.297,28.32,47.363,0.0,0
1582733185.052,7.812,35.156,25.391,38.086,0.0,0
1582733185.054,12.207,29.785,22.949,34.18,0.0,0
1582733185.0579998,27.832,28.32,23.926,47.852,0.0,0
1582733185.062,31.25,38.086,24.902,44.922,0.0,0
1582733185.066,17.09,36.621,23.438,45.41,0.0,0
1582733185.07,6.836,24.414,21.973000000000006,41.504,0.0,0
1582733185.074,22.949,25.391,20.508000000000006,34.668,0.0,0
1582733185.0779998,25.879,36.133,20.508000000000006,34.18,0.0,0
1582733185.081,46.387,32.715,21.484,39.551,0.0,0
1582733185.085,34.668,25.879,22.949,42.969,0.0,0
1582733185.089,2.441,33.203,22.461,39.062,0.0,0
1582733185.093,10.742,38.086,18.066,21.484,0.0,0
1582733185.097,16.113,34.18,17.578,23.438,0.0,0
1582733185.1139998,22.461,34.668,20.996,31.25,0.0,0
1582733185.1179998,21.484,31.738000000000003,20.508000000000006,30.273000000000003,0.0,0
1582733185.1220002,11.23,33.203,21.484,38.086,0.0,0
1582733185.1260002,11.719,27.832,23.438,31.738000000000003,0.0,0
1582733185.13,29.785,20.02,23.438,37.109,0.0,0
1582733185.1339998,25.879,29.785,20.996,34.18,0.0,0
1582733185.1379998,7.812,32.227,21.484,24.414,0.0,0
1582733185.141,21.973000000000006,26.855,25.879,35.156,0.0,0
1582733185.145,29.785,32.227,25.879,26.367,0.0,0
1582733185.149,22.949,36.621,23.926,15.625,0.0,0
1582733185.153,20.996,32.715,19.531,37.598,0.0,0
1582733185.157,28.809,27.832,20.02,45.898,0.0,0
1582733185.159,29.297,27.344,26.855,41.504,0.0,0
1582733185.163,3.418,24.902,28.32,47.852,0.0,0
1582733185.167,-5.859,22.949,24.902,41.01600000000001,0.0,0
1582733185.171,14.16,26.367,21.973000000000006,30.273000000000003,0.0,0
1582733185.175,16.602,25.879,23.926,32.715,0.0,0
1582733185.179,14.16,22.461,24.902,38.086,0.0,0
1582733185.1829998,16.602,28.32,23.926,39.551,0.0,0
1582733185.186,30.273000000000003,36.621,21.973000000000006,37.598,0.0,0
1582733185.19,28.809,32.227,23.438,37.109,0.0,0
1582733185.194,25.391,26.367,25.391,24.414,0.0,0
1582733185.198,26.855,25.879,25.879,14.16,0.0,0
1582733185.202,6.348,22.461,25.391,40.527,0.0,0
1582733185.204,8.789,21.484,23.438,38.574,0.0,0
1582733185.208,15.137,23.926,22.461,28.32,0.0,0
1582733185.212,27.344,23.438,22.461,41.01600000000001,0.0,0
1582733185.216,33.203,27.832,17.578,33.203,0.0,0
1582733185.22,18.555,32.715,18.066,27.832,0.0,0
1582733185.224,27.344,27.832,20.996,33.691,0.0,0
1582733185.228,23.926,29.297,17.578,35.645,0.0,0
1582733185.231,10.254,34.18,19.043,29.785,0.0,0
1582733185.235,12.695,33.203,23.926,22.949,0.0,0
1582733185.2389998,18.066,28.809,23.438,20.02,0.0,0
1582733185.2429998,27.344,27.344,20.996,39.551,0.0,0
1582733185.2470002,13.672,19.531,20.996,47.363,0.0,0
1582733185.2489998,3.418,17.578,23.438,35.645,0.0,0
1582733185.2529998,34.668,33.691,20.02,38.086,0.0,0
1582733185.2570002,34.18,42.969,18.555,39.062,0.0,0
1582733185.2610002,25.391,39.062,20.996,32.227,0.0,0
1582733185.265,23.926,35.645,22.949,40.039,0.0,0
1582733185.269,25.391,28.32,25.879,42.969,0.0,0
1582733185.2729998,27.344,21.484,23.438,44.434,0.0,0
1582733185.276,24.902,26.855,20.996,45.41,0.0,0
1582733185.28,14.16,30.762,20.996,31.25,0.0,0
1582733185.284,21.484,30.273000000000003,22.461,27.344,0.0,0
1582733185.288,23.438,28.32,24.902,33.203,0.0,0
1582733185.292,24.414,30.762,25.879,40.039,0.0,0
1582733185.294,39.551,33.203,25.879,43.457,0.0,0
1582733185.298,35.156,29.785,25.879,39.062,0.0,0
1582733185.302,16.602,26.855,25.879,29.297,0.0,0
1582733185.306,8.789,27.832,23.926,34.668,0.0,0
1582733185.31,18.066,31.25,23.438,41.01600000000001,0.0,0
1582733185.314,23.438,34.18,27.832,34.668,0.0,0
1582733185.3179998,25.391,34.668,28.809,45.898,0.0,0
1582733185.321,21.484,34.18,26.855,29.785,0.0,0
1582733185.325,15.137,28.809,25.879,13.184,0.0,0
1582733185.329,2.441,23.926,24.414,20.02,0.0,0
1582733185.333,-8.789,27.832,24.902,21.973000000000006,0.0,0
1582733185.337,-2.93,30.762,27.344,21.484,0.0,0
1582733185.339,7.324,30.762,28.32,12.207,0.0,0
1582733185.343,-8.301,31.738000000000003,23.926,-1.465,0.0,0
1582733185.347,-30.762,29.785,20.508000000000006,-20.02,0.0,0
1582733185.351,-23.438,32.715,19.531,-15.625,0.0,0
1582733185.355,-18.555,35.156,22.461,-7.812,0.0,0
1582733185.359,-31.738000000000003,34.668,22.461,-25.879,0.0,0
1582733185.363,-51.758,35.156,25.391,-50.293,0.0,0
1582733185.3660002,-64.453,25.391,30.762,-53.71100000000001,0.0,0
1582733185.37,-77.637,25.391,28.809,-58.594,0.0,0
1582733185.3739998,-97.656,25.879,23.926,-68.848,0.0,0
1582733185.3779998,-103.027,23.438,24.414,-78.125,0.0,0
1582733185.3820002,-107.422,28.32,24.414,-96.191,0.0,0
1582733185.3839998,-113.77,27.344,24.902,-95.703,0.0,0
1582733185.3879998,-123.047,26.367,28.32,-99.121,0.0,0
1582733185.3920002,-130.859,16.602,26.367,-125.977,0.0,0
1582733185.396,-131.34799999999998,10.254,25.879,-107.91,0.0,0
1582733185.4,-128.906,9.277,31.738000000000003,-104.004,0.0,0
1582733185.404,-125.0,13.672,34.668,-125.977,0.0,0
1582733185.408,-125.488,29.785,33.691,-128.418,0.0,0
1582733185.411,-112.305,25.391,35.156,-125.977,0.0,0
1582733185.415,-103.027,14.16,34.18,-112.305,0.0,0
1582733185.419,-114.258,23.926,33.203,-106.445,0.0,0
1582733185.423,-109.863,28.32,33.691,-120.117,0.0,0
1582733185.427,-108.887,24.902,34.18,-123.535,0.0,0
1582733185.429,-100.586,23.438,32.715,-110.352,0.0,0
1582733185.4329998,-89.844,22.949,32.227,-90.82,0.0,0
1582733185.437,-81.055,8.301,32.715,-73.242,0.0,0
1582733185.441,-67.87100000000001,5.371,31.738000000000003,-53.71100000000001,0.0,0
1582733185.445,-64.941,17.09,31.25,-62.012,0.0,0
1582733185.449,-66.895,22.949,32.715,-72.75399999999998,0.0,0
1582733185.4529998,-57.129,30.762,38.574,-70.801,0.0,0
1582733185.456,-40.039,27.832,40.527,-60.547,0.0,0
1582733185.46,-41.992,23.438,32.715,-47.363,0.0,0
1582733185.464,-41.01600000000001,21.484,26.855,-52.246,0.0,0
1582733185.468,-35.156,16.602,27.832,-39.551,0.0,0
1582733185.472,-8.789,18.066,29.297,-31.25,0.0,0
1582733185.4889998,-4.395,17.578,30.273000000000003,-34.668,0.0,0
1582733185.4929998,-17.578,11.23,30.762,-18.555,0.0,0
1582733185.4970002,8.301,9.277,29.785,11.719,0.0,0
1582733185.5010002,29.785,7.324,30.273000000000003,17.09,0.0,0
1582733185.505,27.344,11.23,28.809,17.09,0.0,0
1582733185.5089998,18.066,22.949,26.855,20.508000000000006,0.0,0
1582733185.5129998,33.691,31.738000000000003,29.785,27.832,0.0,0
1582733185.516,48.34,30.273000000000003,28.809,36.621,0.0,0
1582733185.52,64.453,25.879,24.414,29.297,0.0,0
1582733185.524,67.87100000000001,24.902,23.438,23.438,0.0,0
1582733185.528,49.316,24.902,22.461,41.01600000000001,0.0,0
1582733185.532,46.875,22.461,24.902,57.129,0.0,0
1582733185.534,59.57,20.02,23.438,48.34,0.0,0
1582733185.538,71.289,25.391,19.531,51.758,0.0,0
1582733185.542,63.965,29.297,17.578,61.523,0.0,0
1582733185.546,53.223,31.738000000000003,18.555,58.594,0.0,0
1582733185.55,67.383,32.715,22.461,62.5,0.0,0
1582733185.554,74.219,25.879,22.461,65.43,0.0,0
1582733185.5579998,77.637,27.344,20.508000000000006,73.242,0.0,0
1582733185.561,73.242,29.297,23.926,73.242,0.0,0
1582733185.565,54.688,28.809,24.414,73.242,0.0,0
1582733185.569,64.453,38.086,20.508000000000006,78.125,0.0,0
1582733185.573,87.402,42.48,18.066,86.914,0.0,0
1582733185.577,93.75,39.062,17.09,82.031,0.0,0
1582733185.5779998,104.492,33.203,13.672,75.195,0.0,0
1582733185.582,115.723,25.879,14.648,94.238,0.0,0
1582733185.586,100.586,31.738000000000003,16.113,103.516,0.0,0
1582733185.59,91.309,38.574,13.672,83.008,0.0,0
1582733185.594,94.727,32.715,13.184,71.289,0.0,0
1582733185.5979998,98.633,36.621,13.184,97.168,0.0,0
1582733185.6020002,113.281,41.504,12.695,113.77,0.0,0
1582733185.605,114.258,44.922,13.184,102.051,0.0,0
1582733185.609,120.605,40.039,14.648,85.93799999999997,0.0,0
1582733185.613,123.047,37.598,14.648,82.52,0.0,0
1582733185.617,103.516,38.574,16.113,83.008,0.0,0
1582733185.621,94.727,35.645,15.625,75.195,0.0,0
1582733185.623,83.49600000000002,32.227,17.09,73.73,0.0,0
1582733185.627,84.961,30.762,18.066,93.262,0.0,0
1582733185.631,81.055,30.273000000000003,15.137,96.191,0.0,0
1582733185.635,71.777,30.762,15.625,76.66,0.0,0
1582733185.639,71.777,33.691,18.555,79.102,0.0,0
1582733185.643,60.547,31.738000000000003,18.555,92.773,0.0,0
1582733185.647,70.801,26.855,19.043,96.68,0.0,0
1582733185.65,83.984,24.902,22.461,100.586,0.0,0
1582733185.654,86.426,28.809,21.484,97.168,0.0,0
1582733185.658,101.074,30.273000000000003,20.508000000000006,99.121,0.0,0
1582733185.6620002,83.008,32.227,20.996,100.098,0.0,0
1582733185.666,55.176,35.645,16.602,89.355,0.0,0
1582733185.668,79.59,39.062,12.695,91.309,0.0,0
1582733185.6720002,83.008,40.039,15.137,82.031,0.0,0
1582733185.676,77.148,38.086,17.578,79.59,0.0,0
1582733185.68,81.543,35.156,14.648,88.37899999999998,0.0,0
1582733185.684,64.453,28.809,13.184,76.172,0.0,0
1582733185.688,67.87100000000001,24.414,15.625,68.848,0.0,0
1582733185.6920002,74.219,26.855,16.113,80.566,0.0,0
1582733185.695,69.336,31.738000000000003,17.09,67.87100000000001,0.0,0
1582733185.699,59.082,34.668,17.578,54.688,0.0,0
1582733185.7029998,55.664,29.297,19.531,59.082,0.0,0
1582733185.707,75.684,26.855,21.973000000000006,53.71100000000001,0.0,0
1582733185.711,75.684,33.691,21.973000000000006,59.082,0.0,0
1582733185.7129998,54.199,36.621,19.531,68.359,0.0,0
1582733185.717,54.688,34.668,18.555,73.73,0.0,0
1582733185.721,59.57,31.738000000000003,19.043,63.965,0.0,0
1582733185.725,51.27,31.738000000000003,18.066,56.152,0.0,0
1582733185.729,55.176,31.25,18.066,68.359,0.0,0
1582733185.7329998,57.129,33.691,20.02,70.801,0.0,0
1582733185.7370002,52.734,37.109,21.973000000000006,62.5,0.0,0
1582733185.74,60.547,35.156,23.926,54.688,0.0,0
1582733185.744,66.406,30.762,21.973000000000006,65.918,0.0,1
1582733185.748,56.152,35.645,20.02,61.523,0.0,0
1582733185.752,63.477,37.109,22.461,67.87100000000001,0.0,0
1582733185.756,54.688,31.738000000000003,22.461,74.219,0.0,0
1582733185.7729998,38.574,33.691,18.555,63.477,0.0,0
1582733185.7770002,61.523,29.297,18.555,64.941,0.0,0
1582733185.781,64.453,23.438,20.02,59.082,0.0,0
1582733185.785,53.223,32.227,24.902,60.059,0.0,0
1582733185.789,54.688,36.621,21.484,62.5,0.0,0
1582733185.793,47.363,33.691,17.09,62.988,0.0,0
1582733185.7970002,54.688,34.668,20.996,49.805,0.0,0
1582733185.8,62.5,36.621,20.508000000000006,48.34,0.0,0
1582733185.804,60.059,35.645,20.508000000000006,60.059,0.0,0
1582733185.8079998,47.852,35.156,20.02,53.71100000000001,0.0,0
1582733185.812,50.78100000000001,35.645,20.02,44.922,0.0,0
1582733185.816,69.824,35.645,22.461,63.477,0.0,0
1582733185.803,60.059,37.598,23.926,66.406,0.0,0
1582733185.8070002,44.922,30.273000000000003,24.902,55.176,0.0,0
1582733185.811,63.477,24.414,25.879,57.129,0.0,0
1582733185.815,85.449,37.109,21.484,65.918,0.0,0
1582733185.819,65.918,44.434,20.996,59.082,0.0,0
1582733185.823,32.227,41.01600000000001,19.531,52.734,0.0,0
1582733185.827,36.133,34.668,17.09,58.105,0.0,0
1582733185.83,55.664,31.738000000000003,18.066,64.941,0.0,0
1582733185.834,59.57,34.18,18.555,64.453,0.0,0
1582733185.8379998,63.477,28.809,20.996,58.594,0.0,0
1582733185.842,61.523,32.715,22.461,46.875,0.0,0
1582733185.846,50.78100000000001,34.668,21.484,34.668,0.0,0
1582733185.863,37.109,27.344,22.461,41.992,0.0,0
1582733185.867,21.973000000000006,27.344,23.438,50.293,0.0,0
1582733185.871,27.832,27.344,23.438,54.199,0.0,0
1582733185.875,56.64100000000001,25.391,25.879,50.78100000000001,0.0,0
1582733185.879,54.199,29.297,23.438,48.34,0.0,0
1582733185.883,18.066,37.109,20.02,35.645,0.0,0
1582733185.887,19.043,33.203,20.508000000000006,17.578,0.0,0
1582733185.89,24.902,25.879,21.484,32.715,0.0,0
1582733185.894,30.762,28.809,21.484,46.387,0.0,0
1582733185.8979998,53.223,30.273000000000003,22.461,58.105,0.0,0
1582733185.9020002,56.152,23.438,26.367,60.547,0.0,0
1582733185.906,67.383,28.809,27.832,55.176,0.0,0
1582733185.908,63.477,33.691,25.391,53.71100000000001,0.0,0
1582733185.9120002,41.01600000000001,32.227,20.508000000000006,52.734,0.0,0
1582733185.916,47.363,33.203,21.973000000000006,60.547,0.0,0
1582733185.92,50.293,35.645,23.926,65.918,0.0,0
1582733185.924,49.316,40.527,23.438,50.293,0.0,0
1582733185.928,50.78100000000001,40.039,22.949,44.434,0.0,0
1582733185.9320002,40.527,31.738000000000003,22.461,43.945,0.0,0
1582733185.935,42.969,30.273000000000003,24.902,39.062,0.0,0
1582733185.939,78.613,35.645,23.926,50.293,0.0,0
1582733185.9429998,64.453,37.598,21.973000000000006,47.852,0.0,0
1582733185.947,24.902,31.738000000000003,22.461,33.691,0.0,0
1582733185.951,33.203,29.785,24.414,37.598,0.0,0
1582733185.9529998,34.668,32.715,25.391,53.71100000000001,0.0,0
1582733185.957,42.48,30.273000000000003,24.414,55.176,0.0,0
1582733185.961,52.734,30.762,21.973000000000006,53.71100000000001,0.0,0
1582733185.965,50.78100000000001,33.203,23.438,55.176,0.0,0
1582733185.969,46.387,30.273000000000003,24.414,36.133,0.0,0
1582733185.9729998,41.01600000000001,31.25,23.926,39.062,0.0,0
1582733185.9770002,27.344,36.621,26.367,51.27,0.0,0
1582733185.98,25.879,40.527,26.367,47.363,0.0,0
1582733185.984,41.01600000000001,24.902,25.879,49.805,0.0,0
1582733185.988,38.574,21.484,24.414,30.762,0.0,0
1582733185.992,41.504,39.551,22.949,31.25,0.0,0
1582733185.996,34.668,39.062,21.973000000000006,47.363,0.0,0
1582733185.9989998,18.555,32.715,22.949,46.875,0.0,0
1582733186.0029998,29.785,29.297,22.461,56.152,0.0,0
1582733186.0070002,32.227,24.902,22.949,51.758,0.0,0
1582733186.0110002,35.645,30.762,23.926,49.805,0.0,0
1582733186.015,43.457,37.109,22.461,50.293,0.0,0
1582733186.019,27.832,36.621,21.973000000000006,42.48,0.0,0
1582733186.0229998,29.785,33.203,21.973000000000006,28.32,0.0,0
1582733186.026,35.645,31.738000000000003,20.508000000000006,35.156,0.0,0
1582733186.03,44.434,25.391,22.461,31.738000000000003,0.0,0
1582733186.034,49.316,28.809,21.484,25.879,0.0,0
1582733186.038,23.926,36.621,20.02,32.227,0.0,0
1582733186.042,12.695,35.645,21.973000000000006,27.344,0.0,0
1582733186.044,29.297,35.156,19.043,29.297,0.0,0
1582733186.048,32.715,32.227,20.02,38.574,0.0,0
1582733186.052,30.273000000000003,22.461,27.344,48.828,0.0,0
1582733186.056,34.668,21.973000000000006,27.832,43.457,0.0,0
1582733186.06,27.832,35.156,23.926,24.414,0.0,0
1582733186.064,20.508000000000006,36.621,23.926,29.297,0.0,0
1582733186.0679998,33.203,35.645,25.879,44.434,0.0,0
1582733186.071,61.035,34.18,24.902,47.363,0.0,0
1582733186.075,38.574,30.762,23.926,28.32,0.0,0
1582733186.079,19.043,30.762,24.902,35.645,0.0,0
1582733186.083,28.809,31.738000000000003,25.391,49.805,0.0,0
1582733186.087,35.645,32.715,22.461,48.34,0.0,0
1582733186.089,48.828,31.738000000000003,22.949,55.664,0.0,0
1582733186.093,40.527,26.855,26.367,35.156,0.0,0
1582733186.097,46.875,25.879,25.879,44.922,0.0,0
1582733186.101,44.922,38.086,25.879,62.5,0.0,0
1582733186.105,30.273000000000003,40.039,23.438,55.664,0.0,0
1582733186.109,52.734,38.086,21.973000000000006,49.805,0.0,0
1582733186.113,56.64100000000001,35.156,23.438,41.992,0.0,0
1582733186.1160002,27.344,28.809,20.508000000000006,35.156,0.0,0
1582733186.12,20.996,26.855,21.484,24.414,0.0,0
1582733186.1239998,41.504,16.113,25.879,39.551,0.0,0
1582733186.1279998,43.945,16.602,25.391,54.688,0.0,0
1582733186.1320002,35.156,30.762,24.414,51.27,0.0,0
1582733186.1339998,34.18,32.715,23.438,47.363,0.0,0
1582733186.1379998,25.879,33.203,23.926,41.01600000000001,0.0,0
1582733186.1420002,20.02,32.227,24.902,39.551,0.0,0
1582733186.146,34.18,38.574,25.391,41.01600000000001,0.0,0
1582733186.15,27.344,35.645,29.297,40.039,0.0,0
1582733186.154,18.555,25.391,28.32,43.457,0.0,0
1582733186.158,26.367,30.273000000000003,23.926,39.551,0.0,0
1582733186.161,28.32,35.156,22.949,29.297,0.0,0
1582733186.165,25.391,25.879,24.414,38.574,0.0,0
1582733186.169,23.438,20.02,25.879,45.898,0.0,0
1582733186.173,24.902,27.832,25.391,44.434,0.0,0
1582733186.177,37.109,35.156,22.461,38.574,0.0,0
1582733186.179,43.457,31.738000000000003,22.461,49.316,0.0,0
1582733186.1829998,36.621,25.391,23.926,39.062,0.0,0
1582733186.187,18.555,29.297,23.926,27.344,0.0,0
1582733186.191,29.297,33.691,20.996,51.758,0.0,0
1582733186.195,40.039,34.668,18.066,49.316,0.0,0
1582733186.199,44.922,36.133,17.09,45.41,0.0,0
1582733186.2029998,33.691,31.738000000000003,19.531,31.738000000000003,0.0,0
1582733186.206,20.508000000000006,28.809,20.02,28.32,0.0,0
1582733186.21,23.926,32.715,18.066,42.48,0.0,0
1582733186.214,23.926,35.156,19.531,33.691,0.0,0
1582733186.218,28.809,31.25,20.02,40.039,0.0,0
1582733186.222,24.414,24.902,20.508000000000006,51.27,0.0,0
1582733186.2389998,16.602,22.461,23.438,38.574,0.0,0
1582733186.2429998,12.695,24.902,21.973000000000006,16.113,0.0,0
1582733186.2470002,11.23,27.344,19.043,30.273000000000003,0.0,0
1582733186.2510002,2.93,32.227,21.484,32.715,0.0,0
1582733186.255,4.395,29.785,20.508000000000006,24.414,0.0,0
1582733186.2589998,18.555,18.066,19.531,32.227,0.0,0
1582733186.2629998,32.715,23.926,22.461,34.18,0.0,0
1582733186.266,31.738000000000003,40.039,22.461,33.691,0.0,0
1582733186.27,16.113,32.715,25.879,32.227,0.0,0
1582733186.274,8.789,25.391,27.832,32.715,0.0,0
1582733186.278,5.859,30.273000000000003,25.879,40.039,0.0,0
1582733186.282,13.184,32.227,26.367,38.086,0.0,0
1582733186.284,32.227,33.691,28.32,31.738000000000003,0.0,0
1582733186.288,27.344,33.203,27.344,30.762,0.0,0
1582733186.292,21.484,32.227,25.879,39.551,0.0,0
1582733186.296,28.809,27.832,25.879,38.574,0.0,0
1582733186.3,24.902,29.297,25.879,32.715,0.0,0
1582733186.304,22.949,29.297,24.902,24.414,0.0,0
1582733186.3079998,22.461,19.043,24.902,32.227,0.0,0
1582733186.311,12.695,21.973000000000006,25.879,41.992,0.0,0
1582733186.315,3.418,28.32,24.414,23.438,0.0,0
1582733186.319,23.926,28.32,25.391,14.648,0.0,0
1582733186.323,16.113,28.809,20.996,25.879,0.0,0
1582733186.327,9.766,23.926,20.508000000000006,27.832,0.0,0
1582733186.3279998,21.484,23.438,25.879,18.555,0.0,0
1582733186.332,0.977,33.203,20.996,16.602,0.0,0
1582733186.336,-4.883,31.738000000000003,18.066,21.973000000000006,0.0,0
1582733186.34,13.672,23.438,21.484,29.297,0.0,0
1582733186.344,11.23,27.344,22.949,26.367,0.0,0
1582733186.3479998,21.973000000000006,35.645,21.484,28.809,0.0,0
1582733186.3520002,26.855,33.691,19.531,35.645,0.0,0
1582733186.355,21.484,23.926,20.02,20.996,0.0,0
1582733186.359,14.16,28.32,20.508000000000006,7.812,0.0,0
1582733186.363,8.301,34.18,19.043,17.578,0.0,0
1582733186.367,24.414,32.227,20.02,18.555,0.0,0
1582733186.371,32.715,31.738000000000003,21.484,25.879,0.0,0
1582733186.3739998,30.762,32.715,21.973000000000006,24.902,0.0,0
1582733186.3779998,27.832,30.762,19.531,22.949,0.0,0
1582733186.3820002,41.992,33.203,22.949,31.25,0.0,0
1582733186.3860002,51.27,38.086,24.414,34.18,0.0,0
1582733186.39,44.922,37.109,20.996,17.578,0.0,0
1582733186.394,31.738000000000003,34.18,21.484,6.348,0.0,0
1582733186.3979998,17.578,30.762,23.926,25.391,0.0,0
1582733186.401,19.531,26.855,22.949,33.691,0.0,0
1582733186.405,13.184,24.902,22.949,32.715,0.0,0
1582733186.409,18.555,24.414,23.438,24.414,0.0,0
1582733186.413,29.785,27.832,19.043,18.555,0.0,0
1582733186.417,53.223,36.621,17.578,32.715,0.0,0
1582733186.419,32.227,37.109,21.484,27.344,0.0,0
1582733186.423,4.883,31.25,20.996,24.902,0.0,0
1582733186.427,23.926,24.902,21.973000000000006,27.832,0.0,0
1582733186.431,25.391,26.855,22.949,30.762,0.0,0
1582733186.435,19.531,29.785,22.461,22.461,0.0,0
1582733186.439,14.648,27.344,22.461,24.414,0.0,0
1582733186.4429998,29.785,28.809,23.926,38.574,0.0,0
1582733186.446,38.086,31.738000000000003,23.926,39.551,0.0,0
1582733186.45,32.715,30.273000000000003,23.926,42.48,0.0,0
1582733186.454,38.574,28.809,23.926,37.598,0.0,0
1582733186.458,38.086,32.227,19.043,28.32,0.0,0
1582733186.462,25.391,33.203,19.531,20.508000000000006,0.0,0
1582733186.464,24.414,28.32,24.902,17.578,0.0,0
1582733186.468,28.809,23.926,26.367,39.062,0.0,0
1582733186.472,17.578,24.902,25.391,41.01600000000001,0.0,0
1582733186.476,18.555,28.32,26.367,40.039,0.0,0
1582733186.48,31.738000000000003,32.715,24.902,48.828,0.0,0
1582733186.484,28.32,33.691,25.879,42.48,0.0,0
1582733186.488,27.344,28.809,25.879,46.875,0.0,0
1582733186.4910002,25.879,26.855,25.391,35.645,0.0,0
1582733186.495,10.254,30.273000000000003,28.32,31.25,0.0,0
1582733186.4989998,30.762,26.855,28.32,37.598,0.0,0
1582733186.5029998,18.555,27.832,25.391,39.551,0.0,0
1582733186.5070002,7.812,38.086,24.414,51.27,0.0,0
1582733186.5089998,29.297,41.01600000000001,24.414,40.527,0.0,0
1582733186.5129998,10.742,33.203,22.461,27.832,0.0,0
1582733186.5170002,5.371,26.367,26.367,39.062,0.0,0
1582733186.521,4.883,26.367,28.32,17.578,0.0,0
1582733186.525,24.902,33.203,22.949,19.531,0.0,0
1582733186.529,30.762,34.668,20.508000000000006,43.457,0.0,0
1582733186.533,21.973000000000006,30.273000000000003,23.438,43.945,0.0,0
1582733186.536,34.18,32.227,23.926,39.062,0.0,0
1582733186.54,34.18,33.691,21.973000000000006,39.062,0.0,0
1582733186.544,57.617,30.762,21.973000000000006,44.922,0.0,0
1582733186.548,59.082,32.227,21.484,48.828,0.0,0
1582733186.552,30.273000000000003,35.156,23.438,39.062,0.0,0
1582733186.554,28.809,36.133,27.832,31.738000000000003,0.0,0
1582733186.5579998,9.766,40.527,29.297,41.992,0.0,0
1582733186.562,18.066,36.133,27.344,27.344,0.0,0
1582733186.566,17.578,28.32,25.391,33.691,0.0,0
1582733186.57,16.602,24.902,26.367,53.223,0.0,0
1582733186.574,29.297,29.785,28.809,53.223,0.0,0
1582733186.5779998,32.715,26.367,31.25,44.434,0.0,0
1582733186.581,19.043,25.391,26.367,35.645,0.0,0
1582733186.585,2.93,35.156,23.438,41.504,0.0,0
1582733186.589,14.16,34.18,26.855,38.086,0.0,0
1582733186.593,12.695,28.32,25.879,20.508000000000006,0.0,0
1582733186.597,1.465,27.344,24.902,21.484,0.0,0
1582733186.6139998,3.906,30.273000000000003,25.391,37.109,0.0,0
1582733186.6179998,6.836,30.273000000000003,21.973000000000006,35.645,0.0,0
1582733186.6220002,4.883,27.344,23.926,23.438,0.0,0
1582733186.6260002,-1.465,31.25,27.832,24.414,0.0,0
1582733186.63,5.859,30.762,25.879,32.227,0.0,0
1582733186.6339998,17.578,20.508000000000006,24.414,27.344,0.0,0
1582733186.6379998,24.902,16.113,20.02,20.996,0.0,0
1582733186.641,22.461,31.25,19.043,27.832,0.0,0
1582733186.645,12.207,41.01600000000001,20.508000000000006,26.367,0.0,0
1582733186.649,10.742,32.227,20.02,32.715,0.0,0
1582733186.653,2.93,27.832,20.508000000000006,41.504,0.0,0
1582733186.657,20.02,31.25,20.996,30.762,0.0,0
1582733186.659,34.18,32.715,20.996,21.973000000000006,0.0,0
1582733186.663,2.93,36.133,21.973000000000006,29.785,0.0,0
1582733186.667,8.789,35.645,22.461,34.668,0.0,0
1582733186.671,23.438,28.809,22.461,27.344,0.0,0
1582733186.675,9.766,32.227,21.973000000000006,39.551,0.0,0
1582733186.679,21.484,35.645,20.508000000000006,48.828,0.0,0
1582733186.6829998,27.344,32.227,20.02,38.086,0.0,0
1582733186.686,5.859,33.203,18.555,28.809,0.0,0
1582733186.69,22.461,33.203,20.508000000000006,28.809,0.0,0
1582733186.694,24.414,30.762,23.926,27.344,0.0,0
1582733186.698,10.742,25.391,23.926,19.043,0.0,0
1582733186.702,21.484,18.066,21.484,11.23,0.0,0
1582733186.704,12.695,21.484,20.996,19.531,0.0,0
1582733186.708,17.578,34.668,21.973000000000006,36.133,0.0,0
1582733186.712,24.902,37.598,22.461,38.574,0.0,0
1582733186.716,12.695,34.668,21.484,32.227,0.0,0
1582733186.72,24.414,30.762,21.484,26.855,0.0,0
1582733186.724,44.922,32.715,24.902,15.625,0.0,0
1582733186.728,26.367,36.133,23.438,17.09,0.0,0
1582733186.731,17.578,34.668,23.926,35.645,0.0,0
1582733186.735,15.137,29.785,26.855,31.25,0.0,0
1582733186.7389998,25.879,29.785,25.879,20.508000000000006,0.0,0
1582733186.7429998,40.527,25.391,25.391,26.367,0.0,0
1582733186.7470002,32.715,24.902,28.32,34.668,0.0,0
1582733186.748,27.344,36.621,27.832,31.25,0.0,0
1582733186.752,27.344,38.086,27.344,38.086,0.0,0
1582733186.756,26.855,36.133,27.832,36.133,0.0,0
1582733186.76,42.48,37.109,28.809,29.785,0.0,0
1582733186.764,38.086,36.133,29.297,33.691,0.0,0
1582733186.768,18.555,33.691,26.367,20.02,0.0,0
1582733186.772,24.414,33.203,24.902,14.648,0.0,0
1582733186.775,16.113,31.738000000000003,24.902,32.715,0.0,0
1582733186.779,18.555,26.367,28.32,24.902,0.0,0
1582733186.783,34.18,24.902,32.227,25.879,0.0,0
1582733186.7870002,29.785,28.32,30.273000000000003,40.527,0.0,0
1582733186.791,29.785,34.18,24.902,35.645,0.0,0
1582733186.793,28.809,35.645,24.414,31.25,0.0,0
1582733186.7970002,43.457,37.109,24.414,26.855,0.0,0
1582733186.801,48.34,34.668,22.949,29.297,0.0,0
1582733186.805,10.254,34.668,21.484,20.02,0.0,0
1582733186.809,8.301,33.203,25.391,10.254,0.0,0
1582733186.813,20.996,27.832,26.367,33.203,0.0,0
1582733186.8170002,16.602,31.738000000000003,22.461,47.852,0.0,0
1582733186.82,11.719,28.809,20.02,30.762,0.0,0
1582733186.824,27.832,26.367,18.066,19.531,0.0,0
1582733186.8279998,30.273000000000003,35.645,20.996,31.738000000000003,0.0,0
1582733186.832,10.742,34.18,20.996,34.668,0.0,0
1582733186.836,8.301,31.25,20.996,22.461,0.0,0
1582733186.8379998,19.531,36.621,22.949,32.227,0.0,0
1582733186.842,3.906,33.203,22.949,33.691,0.0,0
1582733186.846,-4.395,27.344,22.949,23.926,0.0,0
1582733186.85,35.645,29.785,24.414,32.227,0.0,0
1582733186.854,30.273000000000003,29.297,26.855,20.996,0.0,0
1582733186.8579998,-13.184,25.391,25.879,5.859,0.0,0
1582733186.8620002,3.906,32.227,23.926,16.602,0.0,0
1582733186.865,20.996,36.133,22.461,41.992,0.0,0
1582733186.869,13.672,30.762,18.555,49.316,0.0,0
1582733186.873,10.742,28.809,19.531,46.387,0.0,0
1582733186.877,11.23,33.691,25.391,41.504,0.0,0
1582733186.881,18.555,31.738000000000003,25.391,47.363,0.0,0
1582733186.883,35.645,32.715,21.973000000000006,43.457,0.0,0
1582733186.887,23.438,34.18,23.438,29.297,0.0,0
1582733186.891,-16.113,23.438,25.391,21.484,0.0,0
1582733186.895,-21.484,23.438,23.438,16.113,0.0,0
1582733186.899,-1.465,30.762,23.926,22.461,0.0,0
1582733186.903,10.742,33.203,24.414,31.738000000000003,0.0,0
1582733186.907,12.695,31.738000000000003,25.391,38.086,0.0,0
1582733186.91,34.668,26.855,27.344,28.809,0.0,0
1582733186.914,45.898,27.344,29.297,22.949,0.0,0
1582733186.918,22.949,30.762,24.902,21.484,0.0,0
1582733186.9220002,3.906,29.297,19.531,20.508000000000006,0.0,0
1582733186.926,13.184,24.902,20.996,28.809,0.0,0
1582733186.928,29.297,27.832,22.949,34.668,0.0,0
1582733186.9320002,24.902,30.762,23.926,25.879,0.0,0
1582733186.936,9.766,26.367,23.438,28.32,0.0,0
1582733186.94,9.277,22.949,24.902,43.945,0.0,0
1582733186.944,22.461,25.391,27.344,34.18,0.0,0
1582733186.948,17.578,27.832,25.879,26.367,0.0,0
1582733186.952,8.789,26.367,23.926,31.738000000000003,0.0,1
1582733186.955,11.719,23.926,25.879,22.949,0.0,0
1582733186.959,1.465,23.926,26.367,18.555,0.0,0
1582733186.9629998,8.301,24.902,22.461,21.973000000000006,0.0,0
1582733186.967,11.23,20.508000000000006,22.461,20.02,0.0,0
1582733186.971,18.066,20.996,24.902,29.297,0.0,0
1582733186.988,15.137,22.461,26.367,39.551,0.0,0
1582733186.992,23.438,20.02,26.855,30.273000000000003,0.0,0
1582733186.996,21.484,29.785,21.973000000000006,18.555,0.0,0
1582733187.0,-3.906,36.621,20.996,22.949,0.0,0
1582733187.004,8.789,29.297,24.414,39.551,0.0,0
1582733187.008,17.578,27.344,26.367,45.898,0.0,0
1582733187.012,17.09,26.367,27.344,39.062,0.0,0
1582733187.015,18.066,20.02,25.391,37.598,0.0,0
1582733187.019,19.043,22.949,22.461,31.738000000000003,0.0,0
1582733187.0229998,17.09,27.344,24.414,21.484,0.0,0
1582733187.0270002,16.602,25.391,26.855,12.207,0.0,0
1582733187.031,9.766,24.414,25.879,23.438,0.0,0
1582733187.033,-1.953,24.902,25.391,29.785,0.0,0
1582733187.0370002,-5.371,25.879,27.832,24.902,0.0,0
1582733187.041,5.371,24.902,24.902,42.48,0.0,0
1582733187.045,8.301,30.762,21.973000000000006,50.293,0.0,0
1582733187.049,5.859,30.762,24.414,45.898,0.0,0
1582733187.053,19.043,20.996,23.438,41.01600000000001,0.0,0
1582733187.0570002,18.555,25.391,21.484,31.738000000000003,0.0,0
1582733187.06,-4.883,29.785,22.461,27.344,0.0,0
1582733187.064,-24.414,30.273000000000003,23.438,26.855,0.0,0
1582733187.0679998,-0.977,28.809,22.949,29.297,0.0,0
1582733187.072,41.504,26.855,22.461,26.855,0.0,0
1582733187.076,11.719,31.25,20.02,27.832,0.0,0
1582733187.0779998,-4.395,34.18,19.043,24.902,0.0,0
1582733187.082,20.508000000000006,34.668,22.949,27.344,0.0,0
1582733187.086,18.555,28.32,23.438,39.551,0.0,0
1582733187.09,7.324,23.926,23.438,40.039,0.0,0
1582733187.094,6.348,28.32,23.438,35.645,0.0,0
1582733187.0979998,30.762,30.762,20.508000000000006,34.668,0.0,0
1582733187.1020002,33.691,26.367,20.996,38.086,0.0,0
1582733187.105,29.785,27.832,22.461,41.504,0.0,0
1582733187.109,29.297,29.785,22.461,34.668,0.0,0
1582733187.113,26.855,25.879,19.531,28.32,0.0,0
1582733187.117,35.156,25.879,20.508000000000006,24.414,0.0,0
1582733187.121,36.621,30.273000000000003,24.414,21.484,0.0,0
1582733187.123,26.367,33.203,21.973000000000006,36.133,0.0,0
1582733187.127,29.297,25.391,19.531,35.645,0.0,0
1582733187.131,46.387,15.625,20.508000000000006,17.578,0.0,0
1582733187.135,21.484,24.902,21.973000000000006,20.996,0.0,0
1582733187.139,16.113,35.156,21.973000000000006,43.457,0.0,0
1582733187.143,22.949,40.527,24.414,41.504,0.0,0
1582733187.147,21.484,41.504,24.902,27.832,0.0,0
1582733187.15,20.02,39.551,24.902,32.715,0.0,0
1582733187.154,-3.418,31.738000000000003,26.367,17.578,0.0,0
1582733187.158,4.883,29.297,25.391,-1.953,0.0,0
1582733187.1620002,5.859,31.738000000000003,22.461,25.391,0.0,0
1582733187.166,13.672,24.902,20.508000000000006,43.945,0.0,0
1582733187.168,-3.418,16.602,20.996,25.879,0.0,0
1582733187.1720002,-18.555,23.438,20.508000000000006,25.391,0.0,0
1582733187.176,-3.418,30.273000000000003,21.973000000000006,40.527,0.0,0
1582733187.18,-17.09,29.785,24.414,43.457,0.0,0
1582733187.184,-31.25,21.484,28.32,42.48,0.0,0
1582733187.188,-8.301,18.555,29.297,38.086,0.0,0
1582733187.1920002,-11.719,25.391,26.855,31.738000000000003,0.0,0
1582733187.195,-9.277,29.785,27.344,30.273000000000003,0.0,0
1582733187.199,0.488,32.227,27.344,25.879,0.0,0
1582733187.2029998,-19.043,23.926,25.391,18.066,0.0,0
1582733187.207,-21.973000000000006,19.043,24.414,32.227,0.0,0
1582733187.211,-25.879,28.809,27.344,38.574,0.0,0
1582733187.214,-20.02,27.832,26.855,37.109,0.0,0
1582733187.218,9.277,26.367,27.344,37.598,0.0,0
1582733187.222,1.953,32.715,27.344,30.762,0.0,0
1582733187.226,-11.23,33.691,23.926,26.855,0.0,0
1582733187.23,7.812,32.227,25.879,35.645,0.0,0
1582733187.234,9.277,31.25,22.949,40.039,0.0,0
1582733187.238,2.441,21.484,19.531,38.574,0.0,0
1582733187.2410002,0.0,24.414,25.879,39.551,0.0,0
1582733187.245,3.906,43.945,29.297,32.715,0.0,0
1582733187.2489998,-3.906,45.898,27.344,27.344,0.0,0
1582733187.2529998,15.137,39.062,27.344,37.109,0.0,0
1582733187.2570002,14.16,36.621,28.809,38.086,0.0,0
1582733187.2589998,-16.113,32.227,27.832,33.691,0.0,0
1582733187.2629998,-9.277,28.809,26.855,32.715,0.0,0
1582733187.2670002,-8.301,27.344,27.344,29.297,0.0,0
1582733187.271,-11.23,22.949,28.32,32.715,0.0,0
1582733187.275,-22.461,20.02,32.715,33.203,0.0,0
1582733187.279,-22.949,26.855,34.668,29.297,0.0,0
1582733187.283,-5.371,33.691,32.227,43.457,0.0,0
1582733187.286,-15.625,35.156,30.273000000000003,34.18,0.0,0
1582733187.29,-24.902,36.621,30.273000000000003,22.949,0.0,0
1582733187.294,-26.855,33.691,30.762,41.01600000000001,0.0,0
1582733187.298,-34.668,32.715,29.297,39.551,0.0,0
1582733187.302,-24.414,29.297,29.785,38.086,0.0,0
1582733187.304,-25.879,29.785,29.785,45.898,0.0,0
1582733187.3079998,-32.227,31.25,29.297,44.434,0.0,0
1582733187.312,-26.367,23.926,29.785,47.363,0.0,0
1582733187.316,-29.785,26.855,29.297,42.48,0.0,0
1582733187.32,-15.137,35.645,28.809,39.062,0.0,0
1582733187.324,0.0,37.598,25.391,41.504,0.0,0
1582733187.3279998,-13.184,35.645,23.926,36.133,0.0,0
1582733187.331,-12.695,33.691,26.367,43.945,0.0,0
1582733187.335,-13.672,30.762,27.344,41.992,0.0,0
1582733187.339,-11.719,29.297,26.367,34.668,0.0,0
1582733187.343,-5.859,21.484,26.855,46.875,0.0,0
1582733187.347,1.465,16.602,25.879,46.387,0.0,0
1582733187.3639998,-3.418,23.438,22.949,30.762,0.0,0
1582733187.3679998,-1.953,31.738000000000003,23.438,32.715,0.0,0
1582733187.3720002,-13.672,38.086,25.391,34.18,0.0,0
1582733187.3760002,-14.16,34.668,25.879,25.391,0.0,0
1582733187.38,-0.488,32.715,26.367,25.879,0.0,0
1582733187.3839998,0.488,31.738000000000003,25.391,34.668,0.0,0
1582733187.3879998,-6.348,25.391,24.902,38.086,0.0,0
1582733187.391,10.254,29.297,22.949,37.598,0.0,0
1582733187.395,21.973000000000006,30.762,21.484,27.832,0.0,0
1582733187.399,-3.418,22.461,23.926,11.719,0.0,0
1582733187.403,-8.789,24.414,25.391,7.812,0.0,0
1582733187.407,-0.977,26.855,26.367,29.297,0.0,0
1582733187.409,12.207,27.344,29.297,39.551,0.0,0
1582733187.413,28.809,31.25,29.785,29.297,0.0,0
1582733187.417,29.785,30.762,28.32,14.16,0.0,0
1582733187.421,34.18,27.832,25.879,14.16,0.0,0
1582733187.425,34.668,21.973000000000006,24.414,34.668,0.0,0
1582733187.429,40.527,24.414,26.367,23.438,0.0,0
1582733187.4329998,52.246,32.715,24.902,23.438,0.0,0
1582733187.436,54.199,26.855,24.902,41.992,0.0,0
1582733187.44,68.359,20.508000000000006,28.32,33.691,0.0,0
1582733187.444,75.684,26.367,26.855,18.555,0.0,0
1582733187.448,79.102,29.297,25.391,21.484,0.0,0
1582733187.452,73.73,27.832,24.414,30.273000000000003,0.0,0
1582733187.454,71.777,22.949,25.391,32.227,0.0,0
1582733187.458,64.453,20.508000000000006,26.367,39.062,0.0,0
1582733187.462,54.688,26.855,22.949,26.855,0.0,0
1582733187.466,68.848,34.18,21.973000000000006,23.926,0.0,0
1582733187.47,72.75399999999998,32.227,22.461,33.203,0.0,0
1582733187.474,55.176,25.879,26.855,32.227,0.0,0
1582733187.478,46.875,31.738000000000003,29.785,29.297,0.0,0
1582733187.481,40.039,35.645,25.879,25.879,0.0,0
1582733187.485,56.64100000000001,33.203,21.484,27.344,0.0,0
1582733187.4889998,72.266,27.832,23.438,19.531,0.0,0
1582733187.4929998,46.875,27.344,22.949,38.574,0.0,0
1582733187.4970002,28.32,33.203,20.02,19.531,0.0,0
1582733187.4989998,41.504,38.086,20.02,-2.93,0.0,0
1582733187.5029998,48.828,34.18,22.461,29.785,0.0,0
1582733187.5070002,46.387,27.344,26.855,42.969,0.0,0
1582733187.5110002,67.383,20.996,24.414,40.527,0.0,0
1582733187.515,56.64100000000001,22.461,23.926,27.832,0.0,0
1582733187.519,44.434,30.762,24.414,18.066,0.0,0
1582733187.5229998,57.617,34.668,22.949,28.32,0.0,0
1582733187.526,44.434,37.598,24.414,29.785,0.0,0
1582733187.53,31.738000000000003,37.598,27.344,25.879,0.0,0
1582733187.534,41.01600000000001,33.691,27.344,22.461,0.0,0
1582733187.538,55.176,35.156,24.414,44.922,0.0,0
1582733187.542,68.848,33.203,25.391,50.293,0.0,0
1582733187.544,68.848,28.32,26.855,35.156,0.0,0
1582733187.548,31.738000000000003,21.973000000000006,27.832,32.227,0.0,0
1582733187.552,29.297,19.043,28.809,29.297,0.0,0
1582733187.556,53.71100000000001,23.438,26.855,31.738000000000003,0.0,0
1582733187.56,33.691,29.785,28.32,27.832,0.0,0
1582733187.564,22.949,36.133,27.344,16.602,0.0,0
1582733187.5679998,36.621,37.109,25.391,24.414,0.0,0
1582733187.571,43.945,28.809,26.367,31.25,0.0,0
1582733187.575,46.387,24.902,25.879,22.461,0.0,0
1582733187.579,38.086,31.738000000000003,28.809,24.414,0.0,0
1582733187.583,28.809,29.297,31.25,29.785,0.0,0
1582733187.587,26.367,22.949,29.785,18.066,0.0,0
1582733187.589,33.203,26.855,25.879,22.461,0.0,0
1582733187.593,34.668,27.344,25.391,23.438,0.0,0
1582733187.597,40.039,23.926,25.879,21.484,0.0,0
1582733187.601,57.129,20.996,26.367,27.344,0.0,0
1582733187.605,56.152,19.531,27.344,24.902,0.0,0
1582733187.609,54.199,24.902,27.832,13.184,0.0,0
1582733187.613,53.223,36.133,27.832,18.066,0.0,0
1582733187.6160002,26.855,37.598,29.297,25.879,0.0,0
1582733187.62,25.879,34.668,27.344,17.09,0.0,0
1582733187.6239998,51.758,32.227,26.367,23.926,0.0,0
1582733187.6279998,62.012,31.25,25.879,21.484,0.0,0
1582733187.6320002,57.617,32.227,25.879,19.531,0.0,0
1582733187.6339998,41.504,36.133,25.879,19.531,0.0,0
1582733187.6379998,42.48,38.086,24.414,11.719,0.0,0
1582733187.6420002,58.105,34.18,24.902,25.391,0.0,0
1582733187.646,54.688,31.25,27.344,30.273000000000003,0.0,0
1582733187.65,44.434,28.809,26.855,26.855,0.0,0
1582733187.654,59.57,22.949,26.855,39.551,0.0,0
1582733187.658,55.664,21.484,27.344,36.133,0.0,0
1582733187.661,29.297,23.926,27.344,33.691,0.0,0
1582733187.665,23.438,21.973000000000006,31.738000000000003,38.574,0.0,0
1582733187.669,21.484,31.25,29.785,26.367,0.0,0
1582733187.673,17.09,30.273000000000003,24.414,24.414,0.0,0
1582733187.677,10.742,21.484,21.973000000000006,37.598,0.0,0
1582733187.679,13.184,28.809,25.391,36.133,0.0,0
1582733187.6829998,31.25,34.18,29.297,35.645,0.0,0
1582733187.687,21.484,29.785,27.832,30.273000000000003,0.0,0
1582733187.691,16.602,27.832,26.855,31.25,0.0,0
1582733187.695,22.949,27.832,26.855,32.227,0.0,0
1582733187.699,44.434,23.926,25.391,32.715,0.0,0
1582733187.7029998,46.387,27.832,25.879,28.809,0.0,0
1582733187.706,7.324,27.832,27.344,6.348,0.0,0
1582733187.71,0.0,27.832,26.367,11.23,0.0,0
1582733187.714,19.531,33.691,26.855,22.949,0.0,0
1582733187.718,22.949,33.691,26.367,27.832,0.0,0
1582733187.722,27.832,29.297,22.949,32.227,0.0,0
1582733187.7389998,30.762,25.879,22.949,24.902,0.0,0
1582733187.7429998,30.273000000000003,18.555,24.414,24.902,0.0,0
1582733187.7470002,20.508000000000006,19.531,25.879,27.832,0.0,0
1582733187.7510002,20.996,32.715,21.973000000000006,26.367,0.0,0
1582733187.755,26.367,37.598,18.555,31.25,0.0,0
1582733187.7589998,30.273000000000003,29.785,22.461,24.902,0.0,0
1582733187.7629998,44.434,29.785,23.438,9.277,0.0,0
1582733187.766,39.062,30.762,22.461,23.438,0.0,0
1582733187.77,23.926,22.461,25.879,30.762,0.0,0
1582733187.774,16.113,25.391,23.438,23.926,0.0,0
1582733187.778,26.855,26.855,24.414,31.25,0.0,0
1582733187.782,30.762,22.949,30.273000000000003,33.203,0.0,0
1582733187.784,31.25,25.879,30.762,21.484,0.0,0
1582733187.788,29.297,28.809,28.32,20.508000000000006,0.0,0
1582733187.792,24.902,29.297,29.297,33.203,0.0,0
1582733187.796,43.945,34.18,28.809,42.48,0.0,0
1582733187.8,43.945,30.273000000000003,26.855,28.809,0.0,0
1582733187.804,27.832,27.344,28.809,20.996,0.0,0
1582733187.8079998,29.785,30.762,29.785,34.18,0.0,0
1582733187.811,24.902,27.344,28.809,28.809,0.0,0
1582733187.815,20.02,26.367,27.344,34.668,0.0,0
1582733187.819,28.809,23.926,27.832,32.715,0.0,0
1582733187.823,52.734,25.879,30.762,21.484,0.0,0
1582733187.827,39.551,32.227,29.297,23.438,0.0,0
1582733187.8279998,31.25,29.297,28.809,35.156,0.0,0
1582733187.832,33.203,28.809,31.738000000000003,35.156,0.0,0
1582733187.836,-0.488,33.203,32.715,31.25,0.0,0
1582733187.84,9.277,34.18,31.738000000000003,32.227,0.0,0
1582733187.844,15.137,32.715,29.785,31.25,0.0,0
1582733187.8479998,1.953,28.32,25.879,33.691,0.0,0
1582733187.8520002,21.484,34.18,25.391,16.113,0.0,0
1582733187.855,12.695,29.785,23.438,12.695,0.0,0
1582733187.859,11.23,24.902,25.879,24.902,0.0,0
1582733187.863,16.602,36.621,28.32,29.785,0.0,0
1582733187.867,31.738000000000003,33.691,26.367,29.785,0.0,0
1582733187.871,31.25,26.855,29.297,15.137,0.0,0
1582733187.873,9.277,29.297,30.273000000000003,14.648,0.0,0
1582733187.877,21.484,28.809,28.809,38.086,0.0,0
1582733187.881,21.973000000000006,32.227,26.855,21.973000000000006,0.0,0
1582733187.885,17.09,29.785,29.785,18.555,0.0,0
1582733187.889,16.113,20.02,32.227,34.668,0.0,0
1582733187.893,20.02,29.297,31.25,31.738000000000003,0.0,0
1582733187.897,23.438,38.086,32.715,33.691,0.0,0
1582733187.9,13.184,37.109,32.227,42.48,0.0,0
1582733187.904,30.273000000000003,30.273000000000003,27.832,35.645,0.0,0
1582733187.908,32.227,25.879,27.832,34.18,0.0,0
1582733187.9120002,17.09,31.738000000000003,29.785,37.598,0.0,0
1582733187.916,40.039,39.062,28.32,25.391,0.0,0
1582733187.918,30.273000000000003,34.18,30.273000000000003,37.598,0.0,0
1582733187.9220002,7.324,27.344,33.203,47.363,0.0,0
1582733187.926,20.02,30.273000000000003,30.762,31.25,0.0,0
1582733187.93,9.766,28.32,26.855,18.066,0.0,0
1582733187.934,14.16,23.926,26.855,29.297,0.0,0
1582733187.938,10.254,23.926,26.367,38.086,0.0,0
1582733187.9420002,8.789,29.785,25.391,32.227,0.0,0
1582733187.945,6.836,34.668,25.391,25.879,0.0,0
1582733187.949,5.859,26.367,27.344,29.785,0.0,0
1582733187.9529998,17.578,24.414,30.762,31.25,0.0,0
1582733187.957,17.578,33.691,29.297,25.391,0.0,0
1582733187.961,14.648,37.109,29.785,22.461,0.0,0
1582733187.9629998,30.762,35.645,32.227,37.109,0.0,0
1582733187.967,38.086,31.738000000000003,31.738000000000003,41.504,0.0,0
1582733187.971,5.371,30.762,30.762,36.133,0.0,0
1582733187.975,0.977,27.832,30.762,39.551,0.0,0
1582733187.979,19.531,29.297,29.297,43.945,0.0,0
1582733187.9829998,36.621,36.133,29.297,43.457,0.0,0
1582733187.9870002,37.109,32.227,29.785,46.387,0.0,0
1582733187.99,41.01600000000001,21.973000000000006,30.762,34.668,0.0,0
1582733187.994,45.898,29.785,31.738000000000003,30.762,0.0,0
1582733187.998,26.367,40.039,29.297,35.645,0.0,0
1582733188.002,18.066,37.598,30.273000000000003,35.645,0.0,0
1582733188.006,30.273000000000003,32.715,31.738000000000003,32.715,0.0,0
1582733188.008,34.668,26.855,31.738000000000003,22.949,0.0,0
1582733188.012,22.949,27.832,34.668,29.785,0.0,0
1582733188.016,28.32,25.391,40.527,36.133,0.0,0
1582733188.02,35.645,25.391,42.48,26.855,0.0,0
1582733188.024,23.926,33.691,37.598,15.137,0.0,1
1582733188.028,13.672,31.738000000000003,38.574,27.344,0.0,0
1582733188.032,10.254,29.785,39.551,32.715,0.0,0
1582733188.035,3.418,31.25,38.574,29.297,0.0,0
1582733188.039,14.16,29.297,40.039,21.484,0.0,0
1582733188.043,19.043,30.273000000000003,36.621,17.09,0.0,0
1582733188.0470002,9.277,39.062,34.18,23.926,0.0,0
1582733188.051,17.09,40.527,33.691,31.738000000000003,0.0,0
1582733188.053,17.09,27.832,35.156,29.785,0.0,0
1582733188.0570002,4.883,29.785,36.133,26.855,0.0,0
1582733188.061,6.348,40.527,35.156,31.738000000000003,0.0,0
1582733188.065,12.695,38.574,37.109,21.484,0.0,0
1582733188.069,26.855,36.133,36.621,19.531,0.0,0
1582733188.073,27.832,32.227,34.668,33.691,0.0,0
1582733188.077,13.184,31.738000000000003,35.156,34.18,0.0,0
1582733188.08,7.812,31.25,36.621,23.926,0.0,0
1582733188.084,13.184,29.785,34.668,30.762,0.0,0
1582733188.0879998,19.043,30.762,35.156,33.691,0.0,0
1582733188.092,5.371,26.367,36.133,22.949,0.0,0
1582733188.096,0.977,23.438,31.738000000000003,12.695,0.0,0
1582733188.113,20.996,25.879,33.203,31.738000000000003,0.0,0
1582733188.117,22.949,32.227,38.574,52.246,0.0,0
1582733188.121,15.625,35.156,34.18,43.945,0.0,0
1582733188.125,15.137,35.645,30.762,30.273000000000003,0.0,0
1582733188.129,14.648,35.645,33.691,38.086,0.0,0
1582733188.133,8.789,31.738000000000003,36.621,48.828,0.0,0
1582733188.137,39.551,25.879,35.156,32.715,0.0,0
1582733188.14,36.621,33.691,31.25,32.715,0.0,0
1582733188.144,-3.906,39.062,31.25,41.01600000000001,0.0,0
1582733188.1479998,5.859,32.715,30.762,27.344,0.0,0
1582733188.1520002,3.906,34.668,32.715,29.785,0.0,0
1582733188.156,5.371,28.32,35.156,39.062,0.0,0
1582733188.158,19.531,20.02,32.715,31.738000000000003,0.0,0
1582733188.1620002,28.809,25.391,32.715,41.504,0.0,0
1582733188.166,30.273000000000003,25.391,31.25,39.062,0.0,0
1582733188.17,25.391,20.508000000000006,31.738000000000003,33.691,0.0,0
1582733188.174,16.113,26.855,29.297,33.691,0.0,0
1582733188.178,18.555,30.273000000000003,25.879,36.621,0.0,0
1582733188.1820002,22.949,34.668,27.832,36.133,0.0,0
1582733188.185,35.156,38.086,28.32,35.156,0.0,0
1582733188.189,54.199,30.273000000000003,27.344,30.273000000000003,0.0,0
1582733188.1929998,19.043,27.832,30.762,13.672,0.0,0
1582733188.197,-12.207,25.391,29.785,11.23,0.0,0
1582733188.201,6.836,22.461,27.832,23.926,0.0,0
1582733188.204,36.133,25.879,27.344,26.367,0.0,0
1582733188.208,45.898,32.715,25.391,30.273000000000003,0.0,0
1582733188.212,21.973000000000006,35.156,22.461,29.297,0.0,0
1582733188.216,14.16,30.273000000000003,20.508000000000006,17.09,0.0,0
1582733188.22,15.625,29.297,22.461,26.855,0.0,0
1582733188.224,22.461,28.32,24.902,36.133,0.0,0
1582733188.228,26.855,29.297,26.367,35.645,0.0,0
1582733188.231,22.949,27.344,27.344,33.203,0.0,0
1582733188.235,40.527,23.438,25.879,32.715,0.0,0
1582733188.2389998,48.34,25.391,25.879,34.18,0.0,0
1582733188.2429998,16.113,19.043,24.902,27.344,0.0,0
1582733188.2470002,10.742,22.461,24.902,28.32,0.0,0
1582733188.2489998,32.227,30.762,25.879,23.438,0.0,0
1582733188.2529998,37.598,33.203,25.391,31.25,0.0,0
1582733188.2570002,21.484,35.156,25.391,41.504,0.0,0
1582733188.2610002,24.414,26.367,24.902,38.574,0.0,0
1582733188.265,28.32,19.531,26.367,33.203,0.0,0
1582733188.269,29.297,16.113,22.949,31.25,0.0,0
1582733188.2729998,36.133,20.508000000000006,19.531,39.551,0.0,0
1582733188.276,42.969,37.109,22.949,31.25,0.0,0
1582733188.28,51.27,41.992,22.949,18.066,0.0,0
1582733188.284,30.273000000000003,36.621,21.484,28.809,0.0,0
1582733188.288,18.555,33.691,26.367,37.598,0.0,0
1582733188.292,27.344,30.762,28.32,34.18,0.0,0
1582733188.294,31.25,35.645,28.809,30.273000000000003,0.0,0
1582733188.298,36.621,38.086,27.832,34.668,0.0,0
1582733188.302,29.297,32.715,25.391,40.039,0.0,0
1582733188.306,20.02,31.25,26.367,32.715,0.0,0
1582733188.31,33.203,32.227,28.32,33.203,0.0,0
1582733188.314,42.969,31.738000000000003,27.832,31.738000000000003,0.0,0
1582733188.3179998,27.832,35.156,28.32,28.32,0.0,0
1582733188.321,15.625,30.273000000000003,29.785,49.805,0.0,0
1582733188.325,24.902,25.391,29.297,39.551,0.0,0
1582733188.329,29.297,28.809,28.809,19.531,0.0,0
1582733188.333,32.715,32.715,28.809,45.898,0.0,0
1582733188.337,23.926,32.227,28.32,25.879,0.0,0
1582733188.339,1.465,30.762,31.738000000000003,22.949,0.0,0
1582733188.343,20.508000000000006,30.273000000000003,30.762,44.434,0.0,0
1582733188.347,41.01600000000001,29.785,28.32,31.25,0.0,0
1582733188.351,28.809,28.32,27.344,39.062,0.0,0
1582733188.355,24.902,28.809,25.879,47.363,0.0,0
1582733188.359,20.02,28.32,25.879,43.457,0.0,0
1582733188.363,17.09,23.926,29.297,51.27,0.0,0
1582733188.3660002,21.484,28.809,28.809,43.457,0.0,0
1582733188.37,22.949,37.598,28.32,29.297,0.0,0
1582733188.3739998,34.668,33.691,29.785,36.621,0.0,0
1582733188.3779998,30.762,32.227,26.855,50.293,0.0,0
1582733188.3820002,54.688,34.668,26.855,47.363,0.0,0
1582733188.3839998,59.57,23.926,29.297,38.086,0.0,0
1582733188.3879998,9.277,27.344,27.832,39.062,0.0,0
1582733188.3920002,3.906,37.598,25.879,31.738000000000003,0.0,0
1582733188.396,20.02,36.133,24.414,25.391,0.0,0
1582733188.4,15.137,32.715,20.996,28.809,0.0,0
1582733188.404,30.273000000000003,29.785,21.484,36.133,0.0,0
1582733188.408,36.133,34.18,23.438,28.809,0.0,0
1582733188.411,28.809,38.086,21.973000000000006,18.066,0.0,0
1582733188.415,41.01600000000001,30.762,26.367,21.484,0.0,0
1582733188.419,40.527,23.438,29.297,30.273000000000003,0.0,0
1582733188.423,25.879,27.832,22.949,30.762,0.0,0
1582733188.427,-0.488,33.203,21.484,28.32,0.0,0
1582733188.429,-11.719,33.203,25.391,30.762,0.0,0
1582733188.4329998,-9.277,29.297,23.438,20.02,0.0,0
1582733188.437,-7.324,26.855,22.949,28.32,0.0,0
1582733188.441,-9.277,31.738000000000003,22.949,32.715,0.0,0
1582733188.445,-4.883,29.785,23.438,35.645,0.0,0
1582733188.449,8.301,25.391,25.879,29.785,0.0,0
1582733188.4529998,1.953,26.367,27.344,11.719,0.0,0
1582733188.456,-3.418,24.902,28.809,19.531,0.0,0
1582733188.46,4.883,26.855,25.879,33.203,0.0,0
1582733188.464,20.508000000000006,24.902,26.855,40.039,0.0,0
1582733188.468,11.23,17.578,30.273000000000003,34.18,0.0,0
1582733188.472,-11.23,27.344,25.879,18.555,0.0,0
1582733188.4889998,-15.137,38.086,20.996,20.02,0.0,0
1582733188.4929998,-3.906,35.645,20.996,32.715,0.0,0
1582733188.4970002,2.93,34.18,25.879,35.645,0.0,0
1582733188.5010002,-9.277,30.762,26.367,28.809,0.0,0
1582733188.505,0.977,24.414,24.902,37.598,0.0,0
1582733188.5089998,17.09,20.508000000000006,25.391,43.945,0.0,0
1582733188.5129998,6.348,24.414,27.832,24.414,0.0,0
1582733188.516,3.418,21.973000000000006,26.367,23.438,0.0,0
1582733188.52,-7.324,19.043,24.414,36.133,0.0,0
1582733188.524,-8.789,24.414,27.344,31.25,0.0,0
1582733188.528,2.441,30.273000000000003,26.855,24.902,0.0,0
1582733188.532,11.23,32.227,23.926,23.438,0.0,0
1582733188.534,21.484,26.855,23.926,22.461,0.0,0
1582733188.538,13.184,30.762,21.973000000000006,23.438,0.0,0
1582733188.542,-5.371,37.109,23.438,30.762,0.0,0
1582733188.546,-12.207,34.668,24.902,34.18,0.0,0
1582733188.55,-5.371,23.438,27.832,11.719,0.0,0
1582733188.554,5.371,26.855,28.809,15.625,0.0,0
1582733188.5579998,5.859,34.668,22.949,29.785,0.0,0
1582733188.561,10.742,30.273000000000003,23.926,24.414,0.0,0
1582733188.565,19.043,30.762,25.391,39.062,0.0,0
1582733188.569,6.836,31.738000000000003,24.414,32.227,0.0,0
1582733188.573,-3.906,26.855,25.391,16.602,0.0,0
1582733188.577,-4.395,21.484,25.391,25.391,0.0,0
1582733188.579,-5.371,24.414,21.973000000000006,19.531,0.0,0
1582733188.583,-6.348,37.598,17.578,4.395,0.0,0
1582733188.587,3.418,41.01600000000001,18.555,7.812,0.0,0
1582733188.591,-2.441,39.551,20.02,21.973000000000006,0.0,0
1582733188.595,3.906,32.227,22.461,22.949,0.0,0
1582733188.599,18.555,24.414,26.367,18.066,0.0,0
1582733188.603,13.184,35.156,25.391,15.625,0.0,0
1582733188.606,13.184,35.645,23.438,13.184,0.0,0
1582733188.61,3.906,23.926,21.484,14.648,0.0,0
1582733188.6139998,9.277,23.438,23.438,24.414,0.0,0
1582733188.6179998,6.348,31.25,25.391,32.227,0.0,0
1582733188.6220002,7.812,35.645,24.414,30.273000000000003,0.0,0
1582733188.6239998,23.926,30.762,25.391,24.414,0.0,0
1582733188.6279998,5.371,25.879,24.414,25.879,0.0,0
1582733188.6320002,-9.766,23.438,22.461,30.273000000000003,0.0,0
1582733188.6360002,-5.371,29.785,27.344,21.973000000000006,0.0,0
1582733188.64,5.371,35.645,27.344,1.953,0.0,0
1582733188.644,11.23,34.668,21.973000000000006,9.277,0.0,0
1582733188.6479998,18.066,20.02,24.414,27.832,0.0,0
1582733188.651,18.555,21.484,24.902,25.879,0.0,0
1582733188.655,15.625,33.691,23.926,18.066,0.0,0
1582733188.659,11.719,30.762,27.344,13.184,0.0,0
1582733188.663,8.789,30.762,23.926,24.902,0.0,0
1582733188.667,17.578,30.273000000000003,20.508000000000006,28.809,0.0,0
1582733188.669,11.23,28.32,21.973000000000006,35.156,0.0,0
1582733188.673,1.465,29.297,23.926,40.527,0.0,0
1582733188.677,1.465,33.691,24.902,23.926,0.0,0
1582733188.681,9.766,29.785,26.367,20.996,0.0,0
1582733188.685,7.812,23.438,29.297,21.973000000000006,0.0,0
1582733188.689,-20.02,31.738000000000003,24.902,20.508000000000006,0.0,0
1582733188.6929998,-34.18,31.25,20.996,29.785,0.0,0
1582733188.696,-29.297,28.809,20.996,27.344,0.0,0
1582733188.7,-15.137,29.297,22.949,23.438,0.0,0
1582733188.704,-21.973000000000006,21.484,25.391,24.902,0.0,0
1582733188.708,-35.645,19.531,25.391,17.578,0.0,0
1582733188.712,-40.039,29.297,21.973000000000006,11.719,0.0,0
1582733188.714,-40.527,31.738000000000003,20.996,9.277,0.0,0
1582733188.718,-22.949,27.344,20.508000000000006,10.742,0.0,0
1582733188.722,-9.277,29.297,25.391,22.461,0.0,0
1582733188.726,-17.09,25.391,30.762,32.227,0.0,0
1582733188.73,-28.32,18.555,27.832,28.32,0.0,0
1582733188.734,-35.645,26.855,25.879,38.086,0.0,0
1582733188.738,-13.184,33.203,26.855,36.621,0.0,0
1582733188.7410002,-3.418,32.715,25.391,22.461,0.0,0
1582733188.745,-30.762,29.297,24.414,25.879,0.0,0
1582733188.7489998,-26.855,20.996,25.879,27.832,0.0,0
1582733188.7529998,-21.484,26.855,27.832,32.715,0.0,0
1582733188.7570002,-18.555,35.156,30.762,36.133,0.0,0
1582733188.7589998,-28.809,34.18,30.273000000000003,31.738000000000003,0.0,0
1582733188.7629998,-33.691,25.391,31.738000000000003,33.203,0.0,0
1582733188.7670002,-16.113,18.066,30.273000000000003,38.574,0.0,0
1582733188.771,-23.926,29.785,27.832,32.715,0.0,0
1582733188.775,-53.71100000000001,34.18,26.855,19.531,0.0,0
1582733188.779,-52.734,32.715,25.879,22.461,0.0,0
