timestamps,TP9,AF7,AF8,TP10,Marker0
1582218248.763,24.414,43.945,36.133,58.594,0
1582218248.767,20.996,33.203,26.855,59.570,0
1582218248.771,23.438,32.227,17.090,29.785,0
1582218248.775,24.902,2.441,30.762,19.531,0
1582218248.779,5.371,-16.113,31.250,32.715,0
1582218248.783,1.953,17.578,8.789,43.457,0
1582218248.787,20.020,25.879,19.531,32.715,0
1582218248.790,29.297,26.367,49.805,14.648,0
1582218248.794,22.461,44.922,54.688,26.855,0
1582218248.798,9.277,48.828,35.645,42.969,0
1582218248.802,22.461,40.039,25.391,33.691,0
1582218248.806,41.992,20.020,27.832,22.949,0
1582218248.808,29.785,16.113,36.621,33.691,0
1582218248.812,21.973,32.227,35.156,51.270,0
1582218248.816,21.973,20.020,37.598,42.969,0
1582218248.820,28.809,-9.277,18.066,22.949,0
1582218248.824,32.227,-1.953,-3.418,27.344,0
1582218248.828,19.043,32.227,7.812,56.152,0
1582218248.832,19.043,35.645,17.578,59.082,0
1582218248.835,29.785,25.879,25.879,29.785,0
1582218248.839,31.738,27.832,27.344,26.855,0
1582218248.843,25.879,36.621,30.762,43.457,0
1582218248.847,6.836,30.273,35.645,42.969,0
1582218248.851,7.324,24.414,41.016,28.809,0
1582218248.868,26.855,-4.395,42.480,29.297,0
1582218248.872,17.090,-16.113,22.949,38.086,0
1582218248.876,-5.859,16.602,-0.977,42.480,0
1582218248.880,0.000,34.668,1.465,26.367,0
1582218248.884,16.113,46.387,8.789,4.395,0
1582218248.888,10.254,46.387,11.230,14.648,0
1582218248.892,0.000,18.555,27.344,30.762,0
1582218248.895,12.695,13.672,51.758,34.180,0
1582218248.899,22.461,24.902,51.270,12.207,0
1582218248.903,12.207,3.906,19.531,-3.418,0
1582218248.907,-5.371,-17.090,11.230,13.184,0
1582218248.911,-14.160,4.883,22.461,20.508,0
1582218248.913,7.812,41.992,10.254,4.883,0
1582218248.917,11.230,40.039,6.348,-11.230,0
1582218248.921,-17.090,35.645,28.320,-4.395,0
1582218248.925,-13.184,37.598,48.340,18.555,0
1582218248.929,9.277,19.043,43.457,12.207,0
1582218248.933,20.020,11.719,43.457,-4.395,0
1582218248.937,15.625,23.926,45.898,11.719,0
1582218248.940,4.395,38.086,25.391,23.926,0
1582218248.944,8.789,36.621,6.836,14.160,0
1582218248.948,7.324,36.133,13.672,-8.789,0
1582218248.952,9.766,50.781,23.438,-11.230,0
1582218248.956,-2.930,40.527,34.180,3.418,0
1582218248.958,1.465,14.648,32.715,8.301,0
1582218248.962,31.738,20.508,19.531,0.488,0
1582218248.966,27.344,38.574,17.090,-1.953,0
1582218248.970,-8.301,39.062,32.715,8.301,0
1582218248.974,-22.461,24.902,53.711,9.277,0
1582218248.978,2.930,17.578,41.016,3.418,0
1582218248.982,18.555,24.902,29.297,0.488,0
1582218248.985,0.977,25.879,41.016,14.160,0
1582218248.989,-12.207,20.508,51.758,38.086,0
1582218248.993,12.695,17.090,51.270,30.762,0
1582218248.997,43.945,16.602,52.734,21.484,0
1582218249.001,35.645,9.277,45.410,44.922,0
1582218249.003,30.273,3.906,36.621,66.406,0
1582218249.007,49.316,3.418,39.062,68.848,0
1582218249.011,45.898,-5.859,33.203,47.852,0
1582218249.015,49.316,12.695,38.086,51.270,0
1582218249.019,40.527,10.254,56.152,73.242,0
1582218249.023,25.879,-6.348,43.457,67.383,0
1582218249.027,40.527,19.043,32.227,46.387,0
1582218249.030,41.992,31.738,24.414,41.016,0
1582218249.034,18.555,35.645,20.508,49.805,0
1582218249.038,16.602,26.367,58.105,57.617,0
1582218249.042,36.621,19.043,74.219,40.527,0
1582218249.046,40.527,26.855,62.012,27.832,0
1582218249.048,41.504,35.645,54.199,45.898,0
1582218249.052,43.457,23.926,57.617,53.223,0
1582218249.056,38.086,23.438,66.406,47.363,0
1582218249.060,45.410,27.344,43.457,29.785,0
1582218249.064,40.527,12.695,11.719,25.879,0
1582218249.068,18.066,28.809,29.297,37.109,0
1582218249.072,18.066,47.363,49.805,35.156,0
1582218249.075,34.180,38.086,61.035,34.180,0
1582218249.079,38.086,25.879,75.684,50.781,0
1582218249.083,24.902,20.996,77.148,78.125,0
1582218249.087,33.691,38.086,61.035,87.402,0
1582218249.091,51.758,48.828,57.129,73.242,0
1582218249.093,45.898,36.133,58.594,60.059,0
1582218249.097,22.949,28.320,45.898,55.664,0
1582218249.101,14.648,26.367,54.688,56.641,0
1582218249.105,46.875,23.926,69.336,42.480,0
1582218249.109,62.500,27.344,70.312,32.715,0
1582218249.113,54.199,16.113,64.941,53.711,0
1582218249.117,34.668,4.883,49.316,62.500,0
1582218249.120,34.180,42.969,40.039,45.410,0
1582218249.124,51.270,52.246,51.758,27.344,0
1582218249.128,44.922,54.199,50.293,34.180,0
1582218249.132,26.367,46.875,53.711,54.199,0
1582218249.136,22.949,29.297,39.551,48.340,0
1582218249.138,37.109,36.621,17.578,30.762,0
1582218249.142,41.504,34.180,48.340,33.203,0
1582218249.146,21.484,4.395,60.059,48.828,0
1582218249.150,14.648,6.348,40.039,49.805,0
1582218249.154,38.086,31.250,51.758,47.363,0
1582218249.158,39.062,49.316,51.270,39.062,0
1582218249.162,5.859,47.363,34.668,23.926,0
1582218249.165,-6.348,32.227,56.152,18.066,0
1582218249.169,16.602,20.020,64.941,14.648,0
1582218249.173,35.645,7.812,59.082,23.438,0
1582218249.177,10.254,11.719,52.246,44.434,0
1582218249.181,-28.320,16.113,38.574,34.668,0
1582218249.198,-0.488,29.297,55.176,36.621,0
1582218249.202,52.734,51.270,61.035,50.293,0
1582218249.206,20.508,41.992,34.668,34.180,0
1582218249.210,-15.625,13.672,30.273,29.785,0
1582218249.214,17.578,3.418,46.875,25.391,0
1582218249.218,58.594,18.066,60.547,19.043,0
1582218249.222,68.359,6.348,59.082,22.461,0
1582218249.225,45.410,12.695,60.547,25.391,0
1582218249.229,41.992,48.828,60.059,36.621,0
1582218249.233,44.434,34.180,43.945,20.996,0
1582218249.237,43.945,24.414,68.359,10.742,0
1582218249.241,44.434,46.387,84.473,42.480,0
1582218249.243,24.902,32.227,58.105,31.738,0
1582218249.247,21.973,7.812,41.504,-4.395,0
1582218249.251,39.062,15.625,41.016,-16.602,0
1582218249.255,35.645,8.301,56.152,-6.836,0
1582218249.259,22.949,3.418,62.500,12.207,0
1582218249.263,30.762,34.180,47.852,10.254,0
1582218249.267,36.621,44.922,35.645,-0.488,0
1582218249.270,30.273,44.434,40.527,9.766,0
1582218249.274,18.066,38.574,57.617,19.531,0
1582218249.278,16.602,37.598,52.246,16.113,0
1582218249.282,30.762,48.340,48.828,0.977,0
1582218249.286,24.414,29.297,54.199,-13.184,0
1582218249.288,6.836,4.395,50.781,2.441,0
1582218249.292,1.465,11.719,54.199,8.789,0
1582218249.296,13.184,22.461,77.637,-2.930,0
1582218249.300,21.973,36.621,87.402,-10.742,0
1582218249.304,9.766,49.316,56.152,-3.906,0
1582218249.308,7.324,34.668,44.922,9.766,0
1582218249.312,22.949,32.715,51.270,13.672,0
1582218249.315,33.203,34.180,60.059,9.766,0
1582218249.319,22.461,23.926,77.148,2.930,0
1582218249.323,4.883,11.719,70.801,12.207,0
1582218249.327,19.043,6.348,45.410,15.625,0
1582218249.331,46.875,27.832,40.527,17.578,0
1582218249.333,32.715,46.875,65.430,11.719,0
1582218249.337,5.859,37.598,74.219,1.953,0
1582218249.341,7.324,9.277,70.801,-4.395,0
1582218249.345,22.461,30.273,50.293,-21.484,0
1582218249.349,24.414,51.758,31.738,-22.461,0
1582218249.353,8.301,37.109,32.715,-12.207,0
1582218249.357,4.395,20.508,37.598,-4.883,0
1582218249.360,16.113,8.301,54.199,-16.602,0
1582218249.364,23.926,15.625,55.664,-29.785,0
1582218249.368,18.066,28.809,60.059,-8.301,0
1582218249.372,13.672,24.902,75.684,12.207,0
1582218249.376,20.996,21.484,62.988,6.836,0
1582218249.378,31.250,37.598,66.406,-6.836,0
1582218249.382,21.973,52.246,88.867,-2.930,0
1582218249.386,-1.953,47.363,83.496,8.789,0
1582218249.390,-6.348,29.785,76.172,7.812,0
1582218249.394,3.418,19.531,72.754,-5.859,0
1582218249.398,11.230,22.949,77.637,2.930,0
1582218249.402,0.977,5.859,78.613,25.879,0
1582218249.405,-8.301,-3.418,78.125,26.855,0
1582218249.409,7.812,18.066,86.426,28.320,0
1582218249.413,9.277,40.039,103.027,15.625,0
1582218249.417,-13.184,42.480,114.258,32.227,0
1582218249.421,-14.160,18.066,116.211,51.758,0
1582218249.423,-16.602,16.113,115.234,3.418,0
1582218249.427,-31.250,33.691,104.492,-21.973,0
1582218249.431,-48.828,37.109,93.750,-20.508,0
1582218249.435,-70.312,26.367,88.867,-14.648,0
1582218249.439,-84.961,21.484,86.914,-21.484,0
1582218249.443,-66.406,28.320,79.590,-46.875,0
1582218249.447,-57.129,22.461,69.824,-43.457,0
1582218249.450,-79.590,23.926,73.242,-26.367,0
1582218249.454,-82.031,1.465,78.125,-26.367,0
1582218249.458,-70.312,-9.766,78.613,-45.410,0
1582218249.462,-71.777,25.391,67.383,-51.270,0
1582218249.466,-82.031,20.508,45.898,-32.227,0
1582218249.468,-81.055,12.695,33.691,-5.371,0
1582218249.472,-71.777,29.297,61.523,-7.812,0
1582218249.476,-69.336,25.879,88.379,-22.949,0
1582218249.480,-66.406,12.207,72.266,2.441,0
1582218249.484,-58.105,9.277,56.641,27.832,0
1582218249.488,-34.668,15.137,62.500,20.508,0
1582218249.492,7.324,21.484,65.430,10.254,0
1582218249.495,14.648,36.621,71.289,29.785,0
1582218249.499,-5.859,33.691,65.918,38.574,0
1582218249.503,3.906,29.297,40.039,29.785,0
1582218249.507,9.277,27.832,38.574,21.973,0
1582218249.511,-10.254,10.742,34.180,15.625,0
1582218249.513,-26.855,-12.207,20.020,28.320,0
1582218249.517,-19.043,-17.578,36.621,28.320,0
1582218249.521,8.301,22.461,60.547,5.859,0
1582218249.525,24.414,61.035,63.965,12.695,0
1582218249.529,14.160,57.129,36.621,28.809,0
1582218249.533,24.902,43.457,12.695,38.086,0
1582218249.537,45.410,25.879,13.184,43.457,0
1582218249.540,35.156,8.301,28.809,19.531,0
1582218249.544,10.742,19.531,25.879,10.742,0
1582218249.548,-1.465,40.527,11.230,20.996,0
1582218249.552,7.324,26.367,12.695,20.508,0
1582218249.556,21.973,4.883,29.297,6.348,0
1582218249.573,22.949,23.926,42.480,18.555,0
1582218249.577,8.789,40.039,29.785,51.758,0
1582218249.581,18.066,41.016,25.391,53.711,0
1582218249.585,42.480,40.039,25.391,29.297,0
1582218249.589,40.527,36.621,26.855,34.180,0
1582218249.593,18.066,44.922,20.020,63.477,0
1582218249.597,20.996,46.387,2.441,72.754,0
1582218249.600,38.086,37.109,6.348,61.035,0
1582218249.604,50.293,40.039,12.695,55.176,0
1582218249.608,12.207,40.039,28.809,52.734,0
1582218249.612,-30.273,23.438,45.410,44.434,0
1582218249.616,-8.789,22.461,26.855,35.156,0
1582218249.618,17.090,21.484,25.391,22.461,0
1582218249.622,14.160,4.395,21.484,31.250,0
1582218249.626,-3.418,6.348,10.254,33.691,0
1582218249.630,3.906,21.484,3.418,19.531,0
1582218249.634,19.531,23.926,-5.859,10.254,0
1582218249.638,11.719,22.949,4.395,15.137,0
1582218249.642,-5.859,18.555,13.672,14.160,0
1582218249.645,-3.906,20.020,-0.977,2.441,0
1582218249.649,22.949,28.809,-7.324,-2.930,0
1582218249.653,27.344,23.926,25.391,-0.488,0
1582218249.657,-8.789,6.836,35.156,-5.859,0
1582218249.661,-20.996,13.184,5.371,-2.441,0
1582218249.663,7.324,21.484,-13.672,-3.418,0
1582218249.667,20.020,16.602,-10.742,-12.695,0
1582218249.671,8.301,30.273,-11.719,1.953,0
1582218249.675,18.066,26.367,-14.160,11.719,0
1582218249.679,36.621,22.949,-12.695,-5.371,0
1582218249.683,38.086,34.180,-30.762,-16.602,0
1582218249.687,24.902,23.926,-43.945,-16.113,0
1582218249.690,1.465,24.414,-32.715,-11.719,0
1582218249.694,-0.488,34.180,-25.391,-15.137,0
1582218249.698,11.230,24.414,-28.320,-33.203,0
1582218249.702,19.043,36.133,-29.785,-31.250,0
1582218249.706,6.836,59.082,-30.273,-15.137,0
1582218249.708,-3.418,49.316,-33.203,-13.184,0
1582218249.712,20.020,37.109,-27.344,-20.996,0
1582218249.716,35.156,31.738,-26.367,-29.785,0
1582218249.720,0.488,19.531,-40.039,-23.926,0
1582218249.724,0.488,8.301,-27.344,-8.789,0
1582218249.728,31.250,0.488,-10.254,-10.254,0
1582218249.732,26.855,32.715,-7.324,-30.762,0
1582218249.735,8.301,64.941,-23.926,-23.438,0
1582218249.739,-6.836,49.805,-38.086,0.000,0
1582218249.743,11.230,41.992,-18.555,-8.301,0
1582218249.747,14.648,47.852,-12.207,-24.414,0
1582218249.751,-13.184,35.645,-26.367,-40.527,0
1582218249.753,-26.367,22.461,-20.508,-33.691,0
1582218249.757,-21.484,10.742,-6.348,-26.855,0
1582218249.761,-4.395,-1.953,-0.488,-51.270,0
1582218249.765,-1.465,19.531,0.488,-45.410,0
1582218249.769,-20.996,52.246,-14.160,-22.461,0
1582218249.773,-24.902,51.270,-29.297,-17.090,0
1582218249.777,-5.859,25.391,-24.414,-29.297,0
1582218249.780,-0.977,13.184,-0.977,-35.645,0
1582218249.784,-11.719,16.113,0.977,-12.695,0
1582218249.788,-16.113,25.391,-15.625,-1.953,0
1582218249.792,-3.906,26.855,-6.836,-10.742,0
1582218249.796,11.719,31.738,-2.930,-2.930,0
1582218249.798,4.883,28.809,-16.113,4.883,0
1582218249.802,-7.812,35.645,-24.902,-0.488,0
1582218249.806,3.418,45.898,-14.160,-0.977,0
1582218249.810,23.438,28.809,17.578,-5.371,0
1582218249.814,18.555,13.672,10.254,0.977,0
1582218249.818,7.812,12.207,-12.207,18.555,0
1582218249.822,18.555,27.344,-14.160,20.020,0
1582218249.825,25.879,30.273,-2.930,0.488,0
1582218249.829,10.742,32.715,10.254,-4.395,0
1582218249.833,7.324,44.922,-3.906,21.973,0
1582218249.837,18.555,43.457,-1.953,37.598,0
1582218249.841,16.602,26.855,6.836,22.461,0
1582218249.843,22.949,19.043,14.648,9.277,0
1582218249.847,25.879,30.762,11.719,28.320,0
1582218249.851,13.184,35.156,-16.602,40.039,0
1582218249.855,23.926,29.297,-7.812,18.555,0
1582218249.859,31.250,8.301,-7.324,2.441,0
1582218249.863,21.484,6.836,-12.207,16.113,0
1582218249.867,6.348,29.297,7.812,30.273,0
1582218249.870,6.348,17.090,10.254,19.043,0
1582218249.874,19.531,10.742,8.301,-4.395,0
1582218249.878,16.602,9.766,20.020,4.395,0
1582218249.882,4.883,1.953,10.254,28.320,0
1582218249.886,16.113,15.137,1.465,37.109,0
1582218249.888,26.367,35.156,0.488,26.855,0
1582218249.892,23.438,54.688,-3.418,10.742,0
1582218249.896,-2.441,45.410,9.766,14.648,0
1582218249.900,-25.879,14.160,24.902,10.254,0
1582218249.904,0.488,14.648,18.066,-0.977,0
1582218249.908,26.855,12.695,8.301,2.930,0
1582218249.912,15.137,1.465,15.625,23.438,0
1582218249.915,-11.230,6.348,24.902,40.527,0
1582218249.919,5.859,19.043,40.527,19.531,0
1582218249.923,35.156,31.250,15.137,-4.883,0
1582218249.927,18.555,34.180,-6.836,5.859,0
1582218249.931,-16.113,45.410,-1.953,15.137,0
1582218249.948,-15.625,51.758,7.324,12.207,0
1582218249.952,21.973,20.508,-2.930,8.789,0
1582218249.956,31.738,10.254,-31.738,14.648,0
1582218249.960,20.996,28.320,-1.465,39.062,0
1582218249.964,0.977,11.719,23.926,28.809,0
1582218249.968,4.883,14.160,20.996,-4.395,0
1582218249.972,16.602,34.180,22.461,-7.324,0
1582218249.975,0.000,39.062,12.207,11.719,0
1582218249.979,0.977,25.391,-5.859,20.996,0
1582218249.983,29.297,17.090,-12.207,18.555,0
1582218249.987,42.480,18.066,4.395,15.625,0
1582218249.991,26.367,18.066,-5.371,21.973,0
1582218249.993,7.812,30.762,-13.672,31.250,0
1582218249.997,7.324,39.062,12.695,17.578,0
1582218250.001,30.273,34.668,25.879,13.672,0
1582218250.005,37.598,28.320,32.227,33.691,0
1582218250.009,4.883,14.160,28.320,28.809,0
1582218250.013,-6.836,24.414,12.695,20.996,0
1582218250.017,12.695,31.738,16.113,14.648,0
1582218250.020,5.859,8.789,14.648,11.230,0
1582218250.024,-14.160,15.625,11.719,19.531,0
1582218250.028,-14.160,32.715,21.484,17.578,0
1582218250.032,9.766,35.156,16.113,14.160,0
1582218250.036,23.926,37.109,6.348,18.066,0
1582218250.038,2.930,25.391,7.812,34.180,0
1582218250.042,12.207,11.719,33.203,50.781,0
1582218250.046,43.945,6.836,39.062,38.086,0
1582218250.050,44.434,32.227,24.414,20.020,0
1582218250.054,12.695,48.340,25.391,23.438,0
1582218250.058,-10.254,32.227,32.227,21.973,0
1582218250.062,0.000,36.133,27.832,10.254,0
1582218250.065,20.996,24.902,-4.395,3.906,0
1582218250.069,31.250,9.766,-4.395,13.184,0
1582218250.073,15.137,20.996,15.625,28.809,0
1582218250.077,23.926,13.184,11.719,34.668,0
1582218250.081,38.574,9.766,13.184,21.484,0
1582218250.083,32.715,25.879,28.320,12.695,0
1582218250.087,8.301,45.410,41.992,24.902,0
1582218250.091,-0.977,55.664,45.898,24.902,0
1582218250.095,20.508,37.598,34.180,15.625,0
1582218250.099,43.457,20.508,-1.465,22.461,0
1582218250.103,29.297,19.531,5.371,31.738,0
1582218250.107,13.672,15.625,38.086,33.203,0
1582218250.110,21.973,33.691,44.434,18.555,0
1582218250.114,18.066,38.574,31.738,-0.488,0
1582218250.118,7.812,28.809,22.949,5.859,0
1582218250.122,5.859,41.504,24.414,21.973,0
1582218250.126,19.531,41.504,9.277,26.367,0
1582218250.128,36.133,25.879,4.883,10.742,0
1582218250.132,21.973,21.973,26.855,1.953,0
1582218250.136,5.859,17.578,32.715,21.484,0
1582218250.140,22.461,5.371,26.855,35.645,0
1582218250.144,36.133,17.578,46.387,21.484,0
1582218250.148,38.086,36.621,42.969,14.648,0
1582218250.152,26.367,23.926,26.855,29.785,0
1582218250.155,22.461,19.531,31.738,43.457,0
1582218250.159,25.391,35.156,32.715,24.414,0
1582218250.163,28.809,20.020,42.969,2.930,0
1582218250.167,25.391,17.578,24.902,16.602,0
1582218250.171,12.695,27.344,1.953,29.297,0
1582218250.173,27.832,32.715,28.809,26.367,0
1582218250.177,37.598,40.527,28.809,15.137,0
1582218250.181,30.273,21.973,20.020,21.484,0
1582218250.185,23.438,-5.371,49.805,37.598,0
1582218250.189,17.578,-13.672,53.711,30.762,0
1582218250.193,30.762,25.391,33.203,20.508,0
1582218250.197,30.762,50.781,31.250,21.973,0
1582218250.200,1.465,37.109,9.766,30.762,0
1582218250.204,0.488,41.504,14.160,34.668,0
1582218250.208,23.926,52.246,51.270,15.625,0
1582218250.212,10.254,40.527,55.664,-8.789,0
1582218250.216,-15.137,16.113,51.270,-0.977,0
1582218250.218,2.930,-2.441,40.039,20.996,0
1582218250.222,42.480,-0.977,32.227,10.742,0
1582218250.226,46.387,24.414,13.672,-7.812,0
1582218250.230,33.203,41.504,-4.883,7.812,0
1582218250.234,20.508,50.293,-5.859,24.414,0
1582218250.238,15.137,43.945,-3.906,19.043,0
1582218250.242,26.367,23.438,28.320,5.371,0
1582218250.245,22.949,20.508,51.270,9.766,0
1582218250.249,8.301,20.996,57.129,28.809,0
1582218250.253,14.648,13.184,59.082,34.668,0
1582218250.257,34.180,5.371,41.016,35.156,0
1582218250.261,34.668,-6.348,10.742,28.809,0
1582218250.263,25.879,20.996,-3.906,38.086,0
1582218250.267,36.133,48.828,-3.418,54.688,0
1582218250.271,42.480,44.434,21.484,21.973,0
1582218250.275,31.250,27.832,30.273,6.836,0
1582218250.279,7.324,22.949,27.344,10.254,0
1582218250.283,-10.254,34.180,22.949,4.883,0
1582218250.287,17.090,24.414,8.789,13.672,0
1582218250.290,34.668,19.043,3.418,5.859,0
1582218250.294,23.926,29.785,-5.371,16.602,0
1582218250.298,18.066,32.227,13.672,36.621,0
1582218250.302,17.578,20.508,45.410,23.926,0
1582218250.306,33.691,12.695,70.312,7.812,0
1582218250.308,43.457,23.926,55.176,13.672,0
1582218250.312,17.090,23.926,15.137,24.414,0
1582218250.316,16.602,4.395,7.324,27.832,0
1582218250.320,43.457,-6.348,22.949,20.508,0
1582218250.324,30.762,7.812,12.207,10.742,0
1582218250.328,5.371,29.785,-8.301,14.648,0
1582218250.332,0.000,29.785,13.672,22.461,0
1582218250.335,11.719,26.367,24.414,14.648,0
1582218250.339,14.160,40.527,19.531,-5.859,0
1582218250.343,4.883,48.828,20.508,7.324,0
1582218250.347,9.766,40.527,17.578,33.203,0
1582218250.351,15.137,11.230,17.578,21.973,0
1582218250.369,0.488,-6.836,22.461,-11.230,0
1582218250.373,-9.766,-1.953,34.180,-4.395,0
1582218250.377,-11.230,9.766,37.109,22.949,0
1582218250.381,5.859,20.020,32.715,26.855,0
1582218250.385,39.062,14.160,20.508,21.484,0
1582218250.389,34.668,-9.277,16.602,17.090,0
1582218250.393,5.859,5.859,24.414,21.973,0
1582218250.396,3.906,33.691,27.344,14.648,0
1582218250.400,13.672,20.020,20.508,-5.371,0
1582218250.404,22.949,13.672,17.578,-1.465,0
1582218250.408,5.371,28.320,34.180,12.695,0
1582218250.412,2.441,35.156,49.316,16.113,0
1582218250.414,28.320,24.902,36.621,-3.906,0
1582218250.418,27.344,31.250,-10.254,-8.789,0
1582218250.422,17.578,40.527,-10.742,9.277,0
1582218250.426,13.184,36.133,38.574,11.230,0
1582218250.430,10.254,38.086,39.551,6.836,0
1582218250.434,14.648,19.043,22.949,-6.836,0
1582218250.438,6.836,13.672,24.902,-15.137,0
1582218250.441,-1.465,20.020,37.109,2.930,0
1582218250.445,4.883,21.973,26.367,-1.953,0
1582218250.449,22.949,30.762,16.113,-25.391,0
1582218250.453,36.133,29.785,32.227,-29.785,0
1582218250.457,14.648,29.785,33.203,-19.043,0
1582218250.459,-5.371,17.578,23.438,-12.207,0
1582218250.463,15.625,5.859,19.043,-26.855,0
1582218250.467,13.672,6.348,32.227,-33.691,0
1582218250.471,-6.348,18.555,23.926,-16.113,0
1582218250.475,-10.254,20.508,0.977,3.418,0
1582218250.479,-4.883,21.484,6.348,0.488,0
1582218250.483,9.766,39.551,0.488,-7.812,0
1582218250.486,16.113,46.875,-10.742,27.832,0
1582218250.490,4.883,27.832,-7.812,44.922,0
1582218250.494,-4.395,20.020,6.348,36.621,0
1582218250.498,4.395,27.344,-13.184,35.156,0
1582218250.502,-0.977,31.738,-26.367,27.832,0
1582218250.504,-12.207,45.898,-18.555,49.805,0
1582218250.508,-3.906,62.012,-10.742,59.570,0
1582218250.512,-0.488,37.598,6.836,39.551,0
1582218250.516,-6.836,16.602,-13.184,31.738,0
1582218250.520,-15.137,38.086,-35.645,41.504,0
1582218250.524,-20.996,37.598,-11.719,43.945,0
1582218250.528,-8.301,21.484,-7.324,28.320,0
1582218250.531,6.348,3.906,-36.621,26.855,0
1582218250.535,-16.113,2.441,-48.340,27.344,0
1582218250.539,-21.973,21.973,-17.578,23.926,0
1582218250.543,-10.742,22.461,15.625,9.766,0
1582218250.547,-3.906,14.160,-1.953,-15.625,0
1582218250.549,0.977,20.996,-13.184,-12.207,0
1582218250.553,-7.812,55.176,-10.254,24.414,0
1582218250.557,6.836,59.082,-17.578,27.344,0
1582218250.561,28.809,36.133,-10.742,-12.207,0
1582218250.565,9.766,24.414,-13.184,-33.691,0
1582218250.569,-26.367,21.973,-11.719,-23.438,0
1582218250.573,-13.184,15.137,7.812,-3.418,0
1582218250.576,19.531,2.441,1.953,-4.883,0
1582218250.580,20.020,4.395,0.977,-13.184,0
1582218250.584,2.930,28.320,18.555,-7.324,0
1582218250.588,3.906,48.828,15.625,8.789,0
1582218250.592,24.414,32.227,5.371,13.672,0
1582218250.594,47.852,22.949,3.906,11.230,0
1582218250.598,51.758,40.039,7.324,40.527,0
1582218250.602,37.598,39.551,7.324,60.059,0
1582218250.606,62.988,28.320,5.371,58.105,0
1582218250.610,78.613,29.297,7.812,54.688,0
1582218250.614,62.500,30.273,-5.859,60.547,0
1582218250.618,42.480,26.855,-8.789,75.195,0
1582218250.621,36.621,20.508,16.602,67.871,0
1582218250.625,64.941,14.648,31.738,46.387,0
1582218250.629,82.520,14.160,-8.301,51.270,0
1582218250.633,67.871,8.301,-27.344,58.594,0
1582218250.637,49.316,9.766,7.324,59.570,0
1582218250.639,59.570,23.438,29.785,44.922,0
1582218250.643,48.340,28.320,36.621,20.020,0
1582218250.647,30.762,15.625,44.922,38.574,0
1582218250.651,49.316,16.602,49.805,55.664,0
1582218250.655,66.406,28.809,28.320,47.363,0
1582218250.659,77.148,38.574,16.113,31.250,0
1582218250.663,56.152,36.621,12.695,36.133,0
1582218250.666,31.738,19.043,11.719,44.434,0
1582218250.670,46.875,23.438,0.488,40.527,0
1582218250.674,62.988,41.992,-6.836,36.621,0
1582218250.678,76.172,35.645,18.555,28.809,0
1582218250.682,71.777,20.996,41.992,42.480,0
1582218250.684,62.988,20.508,48.340,50.781,0
1582218250.688,71.777,9.766,24.902,28.809,0
1582218250.692,69.824,6.836,5.371,15.137,0
1582218250.696,43.945,19.531,23.438,28.320,0
1582218250.700,41.992,31.250,47.852,37.598,0
1582218250.704,68.359,33.203,26.855,33.691,0
1582218250.708,62.500,32.715,10.742,21.973,0
1582218250.711,39.062,31.250,38.574,27.344,0
1582218250.715,27.832,34.180,53.711,40.527,0
1582218250.719,37.598,27.832,38.086,31.250,0
1582218250.723,57.617,15.137,20.508,27.344,0
1582218250.727,59.082,3.418,24.414,41.504,0
1582218250.744,50.293,7.812,22.949,56.641,0
1582218250.748,62.988,40.039,4.883,59.570,0
1582218250.752,70.312,45.410,-0.977,39.551,0
1582218250.756,44.434,26.367,25.879,25.391,0
1582218250.760,31.250,37.598,33.691,38.086,0
1582218250.764,30.273,31.250,13.672,30.273,0
1582218250.768,43.457,9.766,25.879,5.371,0
1582218250.771,60.547,23.438,33.691,11.719,0
1582218250.775,39.551,19.531,14.160,38.574,0
1582218250.779,34.180,24.902,31.738,46.875,0
1582218250.783,54.688,56.152,36.621,34.180,0
1582218250.787,67.383,56.152,25.879,21.973,0
1582218250.789,39.062,25.879,30.273,20.996,0
1582218250.793,10.254,10.254,39.551,30.273,0
1582218250.797,39.062,27.832,22.949,18.066,0
1582218250.801,53.223,22.949,9.766,-3.418,0
1582218250.805,32.715,21.973,31.250,3.906,0
1582218250.809,21.484,23.438,30.273,27.832,0
1582218250.813,31.738,17.090,21.484,26.367,0
1582218250.816,49.316,43.457,23.926,1.465,0
1582218250.820,46.387,54.199,25.391,0.000,0
1582218250.824,32.227,50.293,30.273,29.785,0
1582218250.828,26.855,45.410,36.621,28.809,0
1582218250.832,18.066,28.809,47.852,5.371,0
1582218250.834,20.996,27.344,48.828,11.230,0
1582218250.838,25.879,40.039,38.086,10.742,0
1582218250.842,10.742,23.438,38.086,8.789,0
1582218250.846,19.531,-3.418,51.270,18.066,0
1582218250.850,29.785,18.555,39.062,12.695,0
1582218250.854,12.207,39.551,22.949,8.301,0
1582218250.858,-7.812,24.902,32.227,14.160,0
1582218250.861,-6.836,27.344,22.949,-0.977,0
1582218250.865,13.184,45.410,25.879,-10.742,0
1582218250.869,11.230,38.574,41.504,-0.488,0
1582218250.873,-12.695,36.621,42.480,25.391,0
1582218250.877,-9.766,18.066,22.949,27.344,0
1582218250.879,6.836,6.348,32.715,3.418,0
1582218250.883,3.906,25.391,61.035,11.230,0
1582218250.887,-8.301,19.043,63.965,22.461,0
1582218250.891,-18.555,21.484,57.617,9.766,0
1582218250.895,-24.902,31.738,37.598,-12.695,0
1582218250.899,-7.812,28.320,38.086,-15.137,0
1582218250.903,8.789,22.461,44.434,11.719,0
1582218250.906,0.977,-6.348,40.527,20.508,0
1582218250.910,9.277,0.488,40.527,6.836,0
1582218250.914,17.090,43.945,49.316,-3.906,0
1582218250.918,-9.277,58.105,73.730,-0.488,0
1582218250.922,-19.043,60.547,70.312,20.508,0
1582218250.924,-0.977,48.828,44.434,27.344,0
1582218250.928,18.555,39.062,39.551,12.695,0
1582218250.932,21.484,26.855,30.762,11.719,0
1582218250.936,10.742,1.465,46.875,22.461,0
1582218250.940,1.953,-3.906,56.641,22.949,0
1582218250.944,20.020,22.949,48.828,18.066,0
1582218250.948,34.668,41.504,70.801,23.438,0
1582218250.951,12.695,37.598,66.406,32.715,0
1582218250.955,4.395,35.645,35.645,31.738,0
1582218250.959,30.273,28.809,29.785,27.832,0
1582218250.963,26.367,25.879,42.480,15.625,0
1582218250.967,-3.418,30.273,50.293,14.160,0
1582218250.969,-5.859,20.020,61.523,35.645,0
1582218250.973,22.949,17.090,56.152,37.109,0
1582218250.977,34.668,25.879,26.367,21.484,0
1582218250.981,17.578,30.273,29.297,25.879,0
1582218250.985,2.441,37.598,42.969,34.668,0
1582218250.989,1.953,22.949,30.762,24.902,0
1582218250.993,25.879,5.371,32.715,20.508,0
1582218250.996,21.973,14.160,54.688,32.227,0
1582218251.000,1.465,33.203,65.918,32.715,0
1582218251.004,5.859,34.668,64.453,29.785,0
1582218251.008,33.691,42.480,56.641,33.203,0
1582218251.012,37.109,42.480,34.668,15.625,0
1582218251.013,8.789,37.598,20.996,12.207,0
1582218251.017,-0.977,43.945,35.156,20.020,0
1582218251.021,10.254,39.551,18.555,10.254,0
1582218251.025,19.531,26.855,-5.859,4.883,0
1582218251.029,9.277,24.902,-2.930,16.602,0
1582218251.033,-2.930,37.598,-2.930,31.738,0
1582218251.037,14.160,5.859,15.137,23.926,0
1582218251.040,20.020,-4.395,36.621,5.859,0
1582218251.044,8.789,38.086,25.391,12.207,0
1582218251.048,-4.883,42.969,4.883,32.715,0
1582218251.052,1.953,45.410,-5.859,43.945,0
1582218251.056,33.691,55.664,14.160,25.879,0
1582218251.073,31.738,40.527,46.875,19.531,0
1582218251.077,5.371,20.020,61.035,28.809,0
1582218251.081,0.977,3.906,38.086,23.438,0
1582218251.085,14.160,15.137,18.555,4.883,0
1582218251.089,7.812,43.457,41.992,-18.066,0
1582218251.093,-12.695,54.199,49.316,-4.883,0
1582218251.097,-18.066,37.598,18.555,13.184,0
1582218251.100,2.930,23.438,1.465,10.254,0
1582218251.104,14.160,29.297,22.461,5.859,0
1582218251.108,2.930,38.574,35.645,23.438,0
1582218251.112,0.977,30.762,39.551,45.898,0
1582218251.116,5.371,-1.953,48.340,29.297,0
1582218251.118,2.441,-11.230,39.551,-2.441,0
1582218251.122,-18.066,5.859,21.973,-2.930,0
1582218251.126,-35.156,21.484,36.133,11.230,0
1582218251.130,-20.020,12.695,57.129,14.648,0
1582218251.134,13.184,5.371,45.410,7.324,0
1582218251.138,22.461,36.133,53.711,5.371,0
1582218251.142,3.418,47.852,38.086,17.578,0
1582218251.145,3.418,30.273,4.883,28.809,0
1582218251.149,14.160,31.250,37.109,22.949,0
1582218251.153,13.672,20.996,69.824,7.812,0
1582218251.157,-13.184,6.348,52.246,3.418,0
1582218251.161,-15.625,26.855,28.809,21.484,0
1582218251.164,16.602,43.945,32.227,23.926,0
1582218251.168,12.695,34.668,54.688,0.488,0
1582218251.172,-1.465,30.273,62.012,0.000,0
1582218251.176,1.953,40.527,53.711,20.508,0
1582218251.180,6.348,40.527,62.012,8.789,0
1582218251.184,18.555,34.180,56.152,-12.207,0
1582218251.188,12.695,35.645,39.551,5.371,0
1582218251.191,-8.301,32.227,46.387,3.906,0
1582218251.195,-15.625,31.738,56.641,-16.602,0
1582218251.199,-3.906,24.902,60.059,-21.973,0
1582218251.203,-10.254,20.996,55.176,-31.250,0
1582218251.207,-51.758,32.715,56.641,-38.086,0
1582218251.208,-63.965,40.527,77.637,-34.668,0
1582218251.212,-48.340,41.504,88.867,-44.922,0
1582218251.216,-48.828,43.457,85.938,-75.195,28475
1582218251.220,-74.707,49.805,86.426,-79.102,0
1582218251.224,-93.262,37.109,99.609,-67.383,0
1582218251.228,-98.145,32.227,112.793,-90.820,0
1582218251.232,-90.820,50.781,104.004,-123.535,0
1582218251.235,-97.168,58.105,95.703,-118.164,0
1582218251.239,-131.348,64.941,111.816,-115.723,0
1582218251.243,-128.906,71.289,116.211,-113.770,0
1582218251.247,-107.910,74.707,95.703,-124.512,0
1582218251.251,-123.535,71.777,131.348,-141.113,0
1582218251.253,-141.602,65.430,165.039,-128.906,0
1582218251.257,-134.277,60.059,156.738,-118.652,0
1582218251.261,-102.539,67.871,154.297,-124.512,0
1582218251.265,-90.332,63.477,147.949,-132.812,0
1582218251.269,-113.281,42.969,132.812,-125.488,0
1582218251.273,-114.258,56.641,127.441,-118.164,0
1582218251.277,-94.238,81.543,125.488,-121.582,0
1582218251.280,-83.984,71.777,106.445,-115.234,0
1582218251.284,-101.562,49.316,97.656,-109.375,0
1582218251.288,-111.328,58.594,133.301,-94.727,0
1582218251.292,-81.055,78.613,158.203,-80.078,0
1582218251.296,-52.734,56.641,142.578,-81.543,0
1582218251.298,-51.758,38.086,131.348,-67.383,0
1582218251.302,-52.734,52.246,105.957,-46.875,0
1582218251.306,-30.273,49.805,86.914,-31.738,0
1582218251.310,0.488,50.293,104.980,-18.555,0
1582218251.314,10.254,57.617,104.492,-10.742,0
1582218251.318,6.836,56.152,90.820,9.277,0
1582218251.322,11.230,41.016,89.355,25.879,0
1582218251.325,34.180,31.738,80.566,24.414,0
1582218251.329,44.922,24.414,72.754,21.973,0
1582218251.333,38.086,27.344,67.383,39.062,0
1582218251.337,43.945,34.668,51.270,56.641,0
1582218251.341,64.453,29.297,47.363,55.664,0
1582218251.343,89.844,29.785,52.734,55.664,0
1582218251.347,86.914,17.578,50.293,73.242,0
1582218251.351,69.824,10.742,34.180,87.402,0
1582218251.355,82.520,35.645,14.648,77.148,0
1582218251.359,101.074,46.387,39.551,53.223,0
1582218251.363,97.168,21.973,52.246,63.477,0
1582218251.367,83.008,2.441,20.020,97.656,0
1582218251.370,86.914,3.906,4.395,99.121,0
1582218251.374,90.820,8.301,29.785,75.684,0
1582218251.378,92.285,16.602,-31.738,77.637,0
1582218251.382,79.102,17.090,-8.789,96.191,0
1582218251.386,53.711,1.465,99.609,85.938,0
1582218251.388,60.059,16.602,95.215,55.176,0
1582218251.392,74.707,25.879,83.496,48.340,0
1582218251.396,62.500,8.301,62.988,65.918,0
1582218251.400,51.758,5.859,33.691,76.660,0
1582218251.404,66.406,6.348,32.227,64.941,0
1582218251.408,78.613,-17.090,50.781,49.805,0
1582218251.412,69.336,-4.883,59.570,51.758,0
1582218251.415,48.828,22.949,52.246,55.176,0
1582218251.419,53.223,14.648,41.992,50.781,0
1582218251.423,69.336,13.672,45.410,43.945,0
1582218251.427,71.289,17.578,61.523,49.805,0
1582218251.431,68.359,14.648,57.129,70.801,0
1582218251.433,95.215,22.949,36.133,97.168,0
1582218251.437,112.305,23.926,30.273,83.496,0
1582218251.441,81.543,11.719,57.617,45.410,0
1582218251.445,62.500,13.184,93.262,55.664,0
1582218251.449,67.383,4.395,97.168,74.219,0
1582218251.453,80.078,-1.465,57.617,60.547,0
1582218251.457,87.891,6.836,64.453,43.945,0
1582218251.460,67.383,14.648,83.984,53.711,0
1582218251.464,58.105,18.555,50.293,69.824,0
1582218251.468,69.336,22.949,58.594,61.523,0
1582218251.472,78.125,22.461,90.820,35.645,0
1582218251.476,68.359,15.625,89.844,32.715,0
1582218251.508,57.129,15.625,67.383,52.734,0
1582218251.512,58.105,30.762,45.410,51.270,0
1582218251.516,62.500,15.137,41.992,28.809,0
1582218251.520,57.129,-0.977,42.969,20.020,0
1582218251.524,39.551,7.324,66.406,31.250,0
1582218251.528,36.621,18.555,67.871,28.320,0
1582218251.532,48.828,31.738,75.195,8.301,0
1582218251.535,54.688,42.480,69.824,4.883,0
1582218251.539,51.270,39.551,22.949,20.996,0
1582218251.543,62.988,33.691,42.480,43.945,0
1582218251.547,54.199,16.113,82.520,18.555,0
1582218251.551,34.180,7.324,72.266,-13.184,0
1582218251.539,22.949,4.395,56.641,-1.953,0
1582218251.543,18.066,-23.926,63.965,19.531,0
1582218251.547,13.672,-34.668,74.219,17.090,0
1582218251.551,9.277,-13.184,74.219,-4.883,0
1582218251.555,8.301,10.254,66.406,1.465,0
1582218251.559,-6.836,32.227,59.082,19.043,0
1582218251.563,-2.930,22.949,56.152,13.184,0
1582218251.566,14.160,2.441,72.266,-8.301,0
1582218251.570,6.348,-3.418,67.383,-14.160,0
1582218251.574,-7.324,-1.953,54.199,3.418,0
1582218251.578,6.348,-1.953,60.059,14.648,0
1582218251.582,27.832,-7.812,55.176,4.395,0
1582218251.584,36.133,-1.465,39.551,1.465,0
1582218251.588,32.227,20.996,39.062,23.926,0
1582218251.592,14.648,31.738,57.129,26.367,0
1582218251.596,9.766,15.137,56.641,1.953,0
1582218251.600,22.461,16.113,37.109,-8.789,0
1582218251.604,21.973,29.297,25.391,4.883,0
1582218251.608,10.254,18.555,32.715,23.926,0
1582218251.611,19.043,4.883,51.758,21.484,0
1582218251.615,28.320,-4.395,58.594,3.906,0
1582218251.619,10.742,-3.906,44.922,-4.883,0
1582218251.623,-4.395,10.742,41.992,8.789,0
1582218251.627,-3.906,18.066,43.457,14.160,0
1582218251.629,9.277,9.277,33.203,-8.301,0
1582218251.633,15.625,20.508,29.785,-15.625,0
1582218251.637,2.930,36.621,13.672,11.230,0
1582218251.641,6.836,27.832,-7.812,27.344,0
1582218251.645,30.273,10.254,19.043,15.625,0
1582218251.649,42.969,10.254,24.414,13.672,0
1582218251.653,31.738,32.227,23.438,26.855,0
1582218251.656,6.836,45.898,41.016,25.391,0
1582218251.660,6.836,31.738,38.086,4.883,0
1582218251.664,25.391,21.484,41.992,-6.348,0
1582218251.668,28.809,34.180,31.250,12.695,0
1582218251.672,13.672,34.668,0.000,26.367,0
1582218251.674,14.648,20.508,4.883,19.043,0
1582218251.678,41.504,15.625,2.441,17.090,0
1582218251.682,42.969,31.250,-8.301,26.367,0
1582218251.686,20.996,40.039,28.320,42.480,0
1582218251.690,11.719,20.996,52.246,41.016,0
1582218251.694,13.672,6.348,49.805,10.742,0
1582218251.698,6.348,10.254,30.273,-3.906,0
1582218251.701,-14.160,14.160,20.508,12.207,0
1582218251.705,-15.137,13.184,24.902,28.320,0
1582218251.709,7.812,31.250,16.113,28.809,0
1582218251.713,25.879,47.852,6.836,19.043,0
1582218251.717,17.578,25.879,3.418,27.344,0
1582218251.719,3.418,-6.836,29.785,38.086,0
1582218251.723,22.949,7.324,51.270,39.551,0
1582218251.727,37.598,31.250,16.602,31.250,0
1582218251.731,15.137,31.250,11.719,13.672,0
1582218251.735,-3.906,36.133,33.203,20.020,0
1582218251.739,4.883,41.992,27.344,25.879,0
1582218251.743,20.996,31.738,53.223,12.695,0
1582218251.746,15.625,17.578,41.992,9.277,0
1582218251.750,-5.859,19.531,17.090,17.090,0
1582218251.754,-1.953,24.902,37.109,30.273,0
1582218251.758,13.184,9.766,46.875,16.602,0
1582218251.762,23.926,17.090,36.133,6.836,0
1582218251.764,17.578,28.320,17.090,29.297,0
1582218251.768,2.441,14.648,-6.348,42.969,0
1582218251.772,16.113,17.578,10.254,32.715,0
1582218251.776,36.133,26.367,28.809,16.602,0
1582218251.780,2.441,18.555,50.293,12.207,0
1582218251.784,-34.180,2.930,62.012,14.160,0
1582218251.788,-19.043,-13.184,43.457,5.859,0
1582218251.791,10.742,-9.766,53.223,4.395,0
1582218251.795,5.371,1.953,57.617,10.742,0
1582218251.799,-18.066,-15.137,35.156,21.973,0
1582218251.803,-3.906,-21.484,4.883,25.391,0
1582218251.807,25.879,11.719,-3.906,19.531,0
1582218251.809,41.504,49.316,16.602,33.203,0
1582218251.813,10.742,27.344,18.555,35.645,0
1582218251.817,-12.695,2.441,12.695,19.043,0
1582218251.821,8.301,10.742,38.086,3.906,0
1582218251.825,33.203,10.742,41.504,0.977,0
1582218251.829,33.203,15.137,14.648,18.555,0
1582218251.833,20.508,13.672,23.926,29.785,0
1582218251.836,39.551,8.301,49.316,23.926,0
1582218251.840,52.734,10.254,57.617,9.766,0
1582218251.844,33.691,33.691,23.438,10.254,0
1582218251.848,16.602,22.461,6.348,29.785,0
1582218251.852,27.832,17.578,22.461,37.109,0
1582218251.869,43.457,42.969,37.109,28.320,0
1582218251.873,36.621,29.785,42.480,18.555,0
1582218251.877,16.113,8.301,37.598,24.902,0
1582218251.881,16.602,19.043,43.945,35.156,0
1582218251.885,38.086,31.250,41.992,25.391,0
1582218251.889,31.738,16.602,14.648,2.930,0
1582218251.893,4.883,-11.230,0.000,7.812,0
1582218251.896,4.395,0.977,36.133,29.297,0
1582218251.900,20.020,34.668,38.574,27.832,0
1582218251.904,12.207,28.320,42.480,16.602,0
1582218251.908,-6.836,25.879,48.340,32.227,0
1582218251.912,-18.066,39.551,15.625,39.062,0
1582218251.914,-28.320,28.809,23.926,23.438,0
1582218251.918,-9.766,7.324,34.668,16.113,0
1582218251.922,-6.348,16.113,28.320,12.695,0
1582218251.926,-17.578,24.902,17.090,24.414,0
1582218251.930,4.883,20.020,34.668,27.344,0
1582218251.934,35.645,14.648,68.359,12.695,0
1582218251.938,43.945,18.066,27.344,33.203,0
1582218251.941,20.020,35.645,-11.719,50.293,0
1582218251.945,4.395,28.809,25.879,34.180,0
1582218251.949,9.277,9.277,63.965,4.883,0
1582218251.953,15.137,22.461,53.223,-12.695,0
1582218251.957,9.766,27.344,32.715,10.254,0
1582218251.959,23.438,23.438,44.434,36.621,0
1582218251.963,55.176,20.020,30.273,34.668,0
1582218251.967,57.617,5.859,12.207,9.766,0
1582218251.971,47.852,27.344,30.273,19.043,0
1582218251.975,38.574,52.734,32.715,40.039,0
1582218251.979,28.320,43.945,28.320,21.973,0
1582218251.983,31.738,24.902,23.926,-10.254,0
1582218251.986,28.320,33.203,6.836,-21.973,0
1582218251.990,12.695,30.762,2.441,-2.930,0
1582218251.994,23.926,16.113,4.395,14.160,0
1582218251.998,49.316,-6.836,15.625,3.906,0
1582218252.002,48.340,11.230,33.203,-3.418,0
1582218252.004,28.809,49.316,43.457,7.812,0
1582218252.008,22.461,41.992,50.781,20.508,0
1582218252.012,33.203,31.250,24.902,11.230,0
1582218252.016,43.457,35.156,-13.184,2.441,0
1582218252.020,40.039,40.527,3.906,28.320,0
1582218252.024,21.973,26.855,35.645,36.621,0
1582218252.028,18.555,15.625,30.273,13.672,0
1582218252.031,28.320,13.184,23.438,7.324,0
1582218252.035,23.438,19.531,35.645,16.113,0
1582218252.039,6.348,14.160,39.551,24.902,0
1582218252.043,5.371,0.000,40.039,10.254,0
1582218252.047,28.809,26.855,41.016,0.488,0
1582218252.049,30.273,57.617,49.316,11.719,0
1582218252.053,1.953,39.551,33.691,20.508,0
1582218252.057,-3.418,24.902,4.883,20.996,0
1582218252.061,28.809,32.227,16.602,11.719,0
1582218252.065,32.227,18.066,28.320,6.348,0
1582218252.069,13.184,17.090,24.902,24.414,0
1582218252.073,14.160,16.602,13.184,38.574,0
1582218252.076,18.555,-3.418,34.180,16.113,0
1582218252.080,31.738,15.137,60.547,3.418,0
1582218252.084,26.855,53.711,45.410,25.391,0
1582218252.088,6.348,44.434,35.156,31.250,0
1582218252.092,14.160,27.344,40.039,9.277,0
1582218252.094,28.320,28.320,44.922,-8.301,0
1582218252.098,26.367,19.531,33.691,-3.418,0
1582218252.102,13.184,11.230,3.418,22.949,0
1582218252.106,14.648,25.879,27.344,27.832,0
1582218252.110,31.738,43.945,55.664,9.766,0
1582218252.114,31.738,40.039,40.039,5.859,0
1582218252.118,15.137,41.504,32.227,14.648,0
1582218252.121,15.137,42.969,41.504,15.137,0
1582218252.125,35.645,22.461,39.551,11.719,0
1582218252.129,50.293,7.324,37.598,22.461,0
1582218252.133,32.715,15.137,30.273,29.297,0
1582218252.137,16.113,29.297,21.484,18.066,0
1582218252.139,18.066,38.574,19.043,-0.977,0
1582218252.143,38.574,45.410,20.020,-2.930,0
1582218252.147,34.668,52.734,22.949,10.742,0
1582218252.151,1.953,40.527,17.090,15.137,0
1582218252.155,0.488,31.738,27.344,3.418,0
1582218252.159,35.645,25.879,36.621,0.977,0
1582218252.163,41.016,22.461,41.992,19.043,0
1582218252.166,20.020,28.320,28.320,35.156,0
1582218252.170,25.391,23.926,24.902,34.668,0
1582218252.174,47.852,33.203,54.199,26.367,0
1582218252.178,41.992,28.320,36.621,25.391,0
1582218252.182,22.949,13.672,1.465,37.598,0
1582218252.199,26.855,35.156,-1.953,49.805,0
1582218252.203,38.574,45.898,0.000,34.668,0
1582218252.207,35.156,38.574,19.531,8.789,0
1582218252.211,23.926,40.527,55.664,19.043,0
1582218252.215,17.090,48.828,64.941,32.227,0
1582218252.219,30.762,41.992,47.363,27.832,0
1582218252.223,47.363,31.250,40.039,21.484,0
1582218252.226,48.828,32.227,30.762,39.551,0
1582218252.230,45.410,22.949,13.184,59.082,0
1582218252.234,27.344,7.324,-4.883,36.133,0
1582218252.238,22.949,12.695,-2.930,7.812,0
1582218252.242,22.949,17.578,38.086,9.766,0
1582218252.243,3.418,27.832,55.176,19.531,0
1582218252.247,1.953,45.410,55.664,16.113,0
1582218252.251,30.273,46.387,36.621,7.324,0
1582218252.255,30.273,28.320,-0.488,2.930,0
1582218252.259,11.230,31.250,-18.555,14.160,0
1582218252.263,16.113,55.176,10.254,26.367,0
1582218252.267,29.297,31.250,58.594,20.020,0
1582218252.270,24.414,-26.367,57.129,3.906,0
1582218252.274,1.953,-15.625,25.879,5.371,0
1582218252.278,-0.488,32.715,20.508,17.578,0
1582218252.282,15.137,37.109,22.949,13.184,0
1582218252.286,16.113,40.527,20.996,0.977,0
1582218252.288,0.488,48.828,3.418,-3.418,0
1582218252.292,-9.277,40.527,0.977,7.812,0
1582218252.296,11.230,19.531,45.410,17.578,0
1582218252.300,33.691,11.719,56.152,5.371,0
1582218252.304,22.461,15.625,44.922,2.930,0
1582218252.308,9.766,33.203,25.879,20.508,0
1582218252.312,17.578,46.387,-1.953,28.320,0
1582218252.315,34.180,30.273,-3.418,13.672,0
1582218252.319,34.180,22.949,19.531,6.836,0
1582218252.323,28.809,30.762,44.434,25.879,0
1582218252.327,25.391,20.996,41.016,29.785,0
1582218252.331,30.762,4.883,24.414,18.555,0
1582218252.333,37.109,20.508,28.809,13.672,0
1582218252.337,24.902,33.203,22.461,14.160,0
1582218252.341,19.043,40.039,7.812,24.902,0
1582218252.345,23.438,28.320,16.113,21.973,0
1582218252.349,41.504,24.902,23.438,11.230,0
1582218252.353,22.949,25.879,25.879,16.113,0
1582218252.357,-2.441,6.348,22.949,22.461,0
1582218252.360,6.836,24.902,-2.930,17.090,0
1582218252.364,11.230,30.762,-3.418,2.930,0
1582218252.368,4.883,11.230,14.160,-5.371,0
1582218252.372,5.371,33.203,31.738,9.766,0
1582218252.376,4.883,39.551,31.738,21.484,17031
1582218252.378,13.672,24.902,18.066,6.348,0
1582218252.382,19.043,39.062,19.043,-6.348,0
1582218252.386,15.625,21.484,12.207,17.578,0
1582218252.390,12.695,-4.883,10.742,32.227,0
1582218252.394,-5.859,16.602,28.320,-3.906,0
1582218252.398,-3.418,43.457,32.227,-20.508,0
1582218252.402,0.488,42.480,28.320,1.465,0
1582218252.405,3.418,23.926,26.367,27.832,0
1582218252.409,21.484,25.391,15.625,25.391,0
1582218252.413,39.551,24.902,19.043,12.207,0
1582218252.417,47.363,15.137,24.902,20.996,0
1582218252.421,25.391,10.742,28.809,30.273,0
1582218252.423,7.812,23.438,31.738,21.973,0
1582218252.427,20.996,42.480,43.457,3.906,0
1582218252.431,27.832,42.969,27.344,0.488,0
1582218252.435,12.207,28.809,-0.977,21.484,0
1582218252.439,12.695,27.832,23.926,36.133,0
1582218252.443,27.344,14.648,15.137,17.578,0
1582218252.447,30.762,19.043,-7.812,0.488,0
1582218252.450,18.066,43.945,5.859,10.254,0
1582218252.454,14.648,31.738,33.691,21.484,0
1582218252.458,28.809,30.273,51.270,11.230,0
1582218252.462,46.387,61.035,39.062,3.418,0
1582218252.466,32.715,54.199,21.973,8.301,0
1582218252.468,3.906,24.902,16.113,18.066,0
1582218252.472,9.277,15.625,26.367,19.531,0
1582218252.476,27.344,21.484,13.184,8.789,0
1582218252.480,24.902,22.461,-3.906,13.184,0
1582218252.484,20.996,23.438,14.648,31.738,0
1582218252.488,17.578,15.625,30.762,30.273,0
1582218252.492,32.715,26.855,29.297,21.484,0
1582218252.495,41.504,56.152,29.297,16.113,0
1582218252.499,12.207,43.457,24.902,23.438,0
1582218252.503,-4.395,8.789,3.906,35.156,0
1582218252.507,16.602,-4.395,11.230,26.855,0
1582218252.511,25.391,18.555,43.457,12.695,0
1582218252.513,11.230,39.551,37.109,15.625,0
1582218252.517,2.441,24.414,21.484,29.785,0
1582218252.521,16.113,31.738,39.551,26.367,0
1582218252.525,36.621,50.293,45.410,12.207,0
1582218252.529,28.809,46.875,32.227,19.043,0
1582218252.533,15.137,27.832,29.297,35.645,0
1582218252.537,11.719,-8.789,33.691,30.762,0
1582218252.540,28.320,-13.184,20.020,14.160,0
1582218252.544,34.180,23.438,-1.953,14.160,0
1582218252.548,18.555,41.504,0.000,31.738,0
1582218252.552,14.648,36.621,17.090,41.016,0
1582218252.556,36.621,21.484,34.668,29.297,0
1582218252.574,43.457,15.625,39.062,19.043,0
1582218252.578,14.648,6.348,44.434,26.855,0
1582218252.582,10.254,12.695,35.156,32.715,0
1582218252.586,31.250,30.762,20.508,22.461,0
1582218252.590,31.738,9.766,18.555,6.348,0
1582218252.594,20.020,23.926,4.395,19.043,0
1582218252.598,8.789,41.992,10.742,30.273,0
1582218252.601,14.648,23.926,14.160,18.555,0
1582218252.605,40.527,29.297,10.742,18.066,0
1582218252.609,44.922,36.621,36.621,34.668,0
1582218252.613,26.855,26.855,60.059,44.922,0
1582218252.617,29.297,28.320,63.965,33.203,0
1582218252.619,30.273,22.949,42.480,11.230,0
1582218252.623,21.484,10.254,8.301,16.602,0
1582218252.627,26.367,24.902,-10.254,46.387,0
1582218252.631,22.949,43.945,7.812,36.621,0
1582218252.635,22.461,45.410,42.480,5.859,0
1582218252.639,25.391,38.574,66.895,4.883,0
1582218252.643,3.906,15.625,70.312,16.602,0
1582218252.646,7.324,15.625,62.988,40.039,0
1582218252.650,21.484,24.414,37.109,30.273,0
1582218252.654,27.344,19.531,1.465,6.348,0
1582218252.658,14.648,27.344,18.555,18.555,0
1582218252.662,-8.789,39.551,56.152,27.344,0
1582218252.664,-9.766,38.086,60.547,20.996,0
1582218252.668,7.324,29.785,35.156,1.953,0
1582218252.672,9.277,37.109,34.180,2.930,0
1582218252.676,-2.441,35.645,49.805,31.250,0
1582218252.680,10.742,24.902,46.875,36.133,0
1582218252.684,26.855,15.137,36.621,25.879,0
1582218252.688,15.137,3.906,25.391,11.719,0
1582218252.691,6.836,25.391,33.691,16.113,0
1582218252.695,3.906,52.246,39.062,30.762,0
1582218252.699,7.812,28.809,40.039,6.348,0
1582218252.703,34.180,21.484,41.992,8.789,0
1582218252.707,30.762,40.527,21.973,28.809,0
1582218252.709,6.348,30.273,12.207,24.902,0
1582218252.713,11.230,17.090,35.156,10.742,0
1582218252.717,24.414,15.625,41.016,-1.465,0
1582218252.721,14.160,-8.301,36.133,6.348,0
1582218252.725,-7.324,12.207,45.410,16.602,0
1582218252.729,-1.465,56.152,52.734,21.973,0
1582218252.733,21.484,40.039,44.434,11.719,0
1582218252.736,16.113,28.320,31.738,1.465,0
1582218252.740,-4.395,36.621,21.484,12.695,0
1582218252.744,-3.418,9.277,27.832,7.324,0
1582218252.748,12.207,-8.789,42.480,-12.695,0
1582218252.752,22.949,9.277,34.668,-8.301,0
1582218252.754,5.859,22.461,27.832,-1.465,0
1582218252.758,-3.418,27.344,10.742,6.348,0
1582218252.762,5.859,32.227,4.395,-3.418,0
1582218252.766,4.395,34.668,29.297,-15.625,0
1582218252.770,2.930,7.324,20.508,6.836,0
1582218252.774,-2.930,-1.953,8.301,24.414,0
1582218252.778,5.371,30.273,30.762,20.020,0
1582218252.781,26.855,40.527,39.551,6.348,0
1582218252.785,16.113,35.645,38.086,12.695,0
1582218252.789,-2.441,30.762,49.805,27.344,0
1582218252.793,11.230,23.926,51.270,27.344,0
1582218252.797,28.320,18.555,32.715,15.137,0
1582218252.799,21.973,10.254,21.973,6.348,0
1582218252.803,9.277,22.461,23.438,23.926,0
1582218252.807,11.230,30.273,38.086,46.387,0
1582218252.811,29.297,15.137,52.246,40.527,0
1582218252.815,37.109,11.230,38.086,23.926,0
1582218252.819,24.414,5.371,35.156,32.715,0
1582218252.823,18.555,5.859,41.016,41.016,0
1582218252.826,19.531,31.738,20.020,28.320,0
1582218252.830,27.344,40.039,12.695,9.766,0
1582218252.834,20.508,40.039,40.527,13.672,0
1582218252.838,4.883,50.293,28.320,26.367,0
1582218252.842,19.531,34.180,20.996,24.902,0
1582218252.844,33.691,17.578,48.340,4.883,0
1582218252.848,20.508,20.508,52.734,-1.465,0
1582218252.852,-8.301,28.809,26.367,10.742,0
1582218252.856,-9.766,26.855,19.043,9.766,0
1582218252.860,10.254,36.133,35.645,-3.906,0
1582218252.864,19.531,54.199,36.133,2.441,0
1582218252.868,16.602,55.664,35.645,28.320,0
1582218252.871,20.996,38.086,21.484,31.250,0
1582218252.875,41.016,34.180,1.465,17.090,0
1582218252.879,42.969,37.109,9.277,9.277,0
1582218252.883,25.391,26.855,33.691,21.484,0
1582218252.887,21.973,17.578,41.504,38.086,0
1582218252.889,39.062,20.020,20.996,31.738,0
1582218252.893,46.875,23.438,7.812,16.113,0
1582218252.897,23.926,32.227,15.137,18.066,0
1582218252.901,0.977,48.828,23.926,27.344,0
1582218252.905,0.977,45.410,39.062,19.531,0
1582218252.909,18.066,38.086,40.039,8.301,0
1582218252.913,26.367,38.086,39.062,23.926,0
1582218252.916,5.859,20.996,22.949,28.320,0
1582218252.920,0.000,19.043,22.949,21.484,0
1582218252.924,18.555,20.996,47.363,21.973,0
1582218252.928,15.137,17.090,55.664,16.113,0
1582218252.932,-8.789,6.348,53.711,25.391,0
1582218252.934,-10.254,12.695,32.227,38.574,0
1582218252.938,9.277,50.781,4.883,27.344,0
1582218252.942,19.043,52.246,21.973,12.695,0
1582218252.946,6.348,49.316,56.641,19.043,0
1582218252.950,-5.859,39.551,40.039,27.344,0
1582218252.954,0.000,20.996,4.883,18.066,0
1582218252.958,19.531,23.926,-0.977,6.836,0
1582218252.961,27.832,28.320,21.973,9.277,0
1582218252.965,14.160,24.902,50.781,26.855,0
1582218252.969,18.066,29.785,33.691,35.645,0
1582218252.973,42.480,33.203,17.090,17.578,0
1582218252.977,42.969,23.438,37.598,17.090,0
1582218252.994,27.832,35.645,48.340,39.062,0
1582218252.998,32.227,41.016,38.574,46.875,0
1582218253.002,49.805,38.574,28.320,30.762,0
1582218253.006,56.641,35.156,15.137,20.996,0
1582218253.010,43.457,20.996,0.000,44.922,0
1582218253.014,34.668,32.227,26.367,52.246,0
1582218253.018,41.016,45.410,52.246,35.156,0
1582218253.021,31.738,28.320,39.551,14.160,0
1582218253.025,12.695,8.301,17.090,15.137,0
1582218253.029,-3.906,20.508,-10.254,26.367,0
1582218253.033,8.301,59.570,7.812,22.461,0
1582218253.037,26.855,55.664,48.340,-3.418,0
1582218253.039,20.508,35.156,35.156,-0.488,0
1582218253.043,5.371,38.086,31.738,22.461,0
1582218253.047,10.742,45.410,38.574,18.555,0
1582218253.051,36.621,50.781,44.434,16.113,0
1582218253.055,12.207,34.668,37.598,2.441,0
1582218253.059,-26.367,26.367,20.020,3.418,0
1582218253.063,-21.484,14.160,30.762,18.555,0
1582218253.066,2.441,7.812,24.414,6.836,0
1582218253.070,15.137,27.344,8.789,-2.930,0
1582218253.074,-3.418,29.297,27.832,1.953,0
1582218253.078,-19.531,19.043,43.457,9.766,0
1582218253.082,0.488,20.020,31.250,6.836,0
1582218253.084,24.902,20.996,49.805,-5.859,0
1582218253.088,10.254,26.855,73.242,11.230,0
1582218253.092,-6.836,37.598,45.898,30.273,0
1582218253.096,19.043,46.387,29.785,22.949,0
1582218253.100,30.762,43.945,14.648,3.906,0
1582218253.104,0.000,33.691,-17.578,-14.160,0
1582218253.108,-6.348,25.879,12.695,7.812,0
1582218253.111,12.207,16.602,60.547,25.391,0
1582218253.115,11.719,13.184,54.688,2.441,0
1582218253.119,17.090,17.578,43.457,-1.953,0
1582218253.123,20.996,22.461,44.922,18.555,0
1582218253.127,20.996,21.973,27.344,29.297,0
1582218253.129,37.109,15.625,16.602,13.184,0
1582218253.133,39.551,31.738,19.531,-3.906,0
1582218253.137,15.625,56.152,2.930,15.625,0
1582218253.141,9.277,45.410,6.836,31.738,0
1582218253.145,26.855,28.809,38.574,14.648,0
1582218253.149,51.270,49.805,57.617,-3.418,0
1582218253.153,54.199,49.316,57.617,7.812,0
1582218253.156,40.039,28.320,32.715,22.949,0
1582218253.160,11.230,32.227,3.418,28.320,0
1582218253.164,-2.441,21.973,23.926,13.184,0
1582218253.168,23.926,19.531,43.457,0.000,0
1582218253.172,33.203,32.227,19.043,11.719,0
1582218253.174,17.090,21.973,1.953,10.254,0
1582218253.178,43.457,4.395,25.391,-0.977,0
1582218253.182,78.125,25.879,51.270,8.301,0
1582218253.186,49.316,39.062,42.969,20.508,0
1582218253.190,15.625,27.344,26.367,16.113,0
1582218253.194,26.367,30.762,21.973,13.184,0
1582218253.198,44.922,30.273,12.207,11.230,0
1582218253.201,19.531,45.898,5.371,23.438,0
1582218253.205,28.320,38.574,30.273,36.621,0
1582218253.209,65.918,13.184,39.551,26.367,0
1582218253.213,65.430,-1.465,39.551,6.348,0
1582218253.217,52.734,29.297,37.598,10.742,0
1582218253.219,31.250,58.105,29.785,29.297,0
1582218253.223,41.016,38.574,39.551,30.762,0
1582218253.227,53.223,42.480,26.855,19.043,0
1582218253.231,51.758,50.293,27.344,23.926,0
1582218253.235,34.180,48.828,55.176,32.227,0
1582218253.239,49.805,44.434,39.062,38.574,0
1582218253.243,76.172,31.250,5.371,21.973,0
1582218253.246,44.922,21.484,25.879,1.953,0
1582218253.250,44.434,31.738,46.875,19.531,0
1582218253.254,53.223,30.273,42.480,41.504,0
1582218253.258,54.688,15.625,34.180,30.762,0
1582218253.262,66.895,32.715,33.691,15.137,0
1582218253.264,48.828,54.199,41.016,15.625,0
1582218253.268,40.039,53.711,36.133,28.809,0
1582218253.272,50.293,39.551,27.832,37.109,0
1582218253.276,66.406,27.344,27.344,30.273,0
1582218253.280,64.941,41.016,23.926,29.785,0
1582218253.284,16.113,22.461,-0.488,23.926,0
1582218253.288,16.113,19.043,-1.465,12.207,0
1582218253.291,44.434,43.457,21.484,2.441,0
1582218253.295,52.734,30.273,27.832,7.324,0
1582218253.299,41.992,27.832,27.344,18.066,0
1582218253.303,42.480,38.574,23.926,34.180,0
1582218253.307,62.988,33.691,25.879,32.227,0
1582218253.308,66.895,38.574,29.785,18.066,0
1582218253.312,41.992,45.410,26.855,36.133,0
1582218253.316,14.160,34.180,20.508,41.016,0
1582218253.320,44.434,20.996,-4.395,29.785,0
1582218253.324,96.680,32.227,-3.906,34.180,0
1582218253.328,55.176,44.922,13.672,33.691,0
1582218253.332,-8.301,32.227,16.602,31.738,0
1582218253.335,10.254,28.809,21.484,31.738,0
1582218253.339,45.410,35.645,31.738,17.090,0
1582218253.343,37.109,20.996,31.250,10.742,0
1582218253.347,25.391,9.277,20.508,22.461,0
1582218253.351,20.996,29.297,4.883,24.902,0
1582218253.368,50.781,38.574,6.836,15.625,0
1582218253.372,65.430,12.695,20.996,11.719,0
1582218253.376,37.598,9.766,38.574,34.180,0
1582218253.380,20.508,43.945,38.574,44.922,0
1582218253.384,41.504,50.293,7.324,27.344,0
1582218253.388,53.223,32.227,-4.883,3.418,0
1582218253.392,36.133,21.973,17.090,6.836,0
1582218253.395,18.066,18.066,31.738,16.113,0
1582218253.399,7.324,27.344,49.805,1.465,0
1582218253.403,34.180,33.691,53.223,-6.836,0
1582218253.407,50.781,24.414,44.434,-2.441,0
1582218253.411,26.855,32.715,45.410,23.438,0
1582218253.413,24.902,58.594,4.395,35.156,0
1582218253.417,38.574,58.105,-20.020,19.531,0
1582218253.421,44.434,38.574,9.277,16.113,0
1582218253.425,38.574,27.344,37.109,28.809,0
1582218253.429,32.227,37.109,33.691,41.504,0
1582218253.433,41.504,48.340,34.668,18.066,0
1582218253.437,43.945,41.504,35.156,15.137,0
1582218253.440,36.133,46.387,2.441,39.551,0
1582218253.444,16.602,30.762,20.508,25.391,0
1582218253.448,17.578,4.395,36.133,10.254,0
1582218253.452,39.551,18.066,32.227,12.207,0
1582218253.456,33.203,35.645,50.293,26.855,0
1582218253.458,19.043,27.832,55.176,33.691,0
1582218253.462,34.668,30.273,28.809,30.273,0
1582218253.466,44.922,54.688,5.859,31.738,0
1582218253.470,35.156,44.922,23.926,30.762,0
1582218253.474,46.387,30.762,33.203,50.781,0
1582218253.478,54.688,37.109,26.367,63.477,0
1582218253.482,38.086,15.625,20.020,24.902,0
1582218253.485,33.691,0.488,29.297,10.254,0
1582218253.489,30.273,8.301,26.367,29.297,0
1582218253.493,6.348,35.156,-4.395,23.438,0
1582218253.497,19.043,59.082,13.672,11.230,0
1582218253.501,39.551,50.781,49.805,10.254,0
1582218253.503,28.809,35.645,36.621,26.855,27025
1582218253.507,26.367,20.020,31.250,45.410,0
1582218253.511,41.992,21.973,27.344,40.527,0
1582218253.515,66.895,43.457,2.441,31.250,0
1582218253.519,47.852,41.504,14.648,39.551,0
1582218253.523,16.113,29.297,28.320,47.852,0
1582218253.527,37.598,43.457,31.738,38.574,0
1582218253.530,52.246,55.176,39.551,20.020,0
1582218253.534,35.645,48.828,35.156,12.207,0
1582218253.538,10.742,39.551,32.715,17.578,0
1582218253.542,23.438,35.156,26.855,26.367,0
1582218253.546,63.965,46.875,17.090,22.461,0
1582218253.548,37.598,42.969,19.531,19.531,0
1582218253.552,4.395,18.555,36.133,26.855,0
1582218253.556,10.742,14.160,32.227,17.090,0
1582218253.560,21.484,19.531,28.809,13.672,0
1582218253.564,32.227,1.465,40.527,14.648,0
1582218253.568,38.574,35.156,47.852,25.879,0
1582218253.572,28.809,75.195,43.945,38.086,0
1582218253.575,25.391,58.105,30.762,19.043,0
1582218253.579,33.203,39.062,33.203,1.953,0
1582218253.583,24.902,29.785,27.832,10.254,0
1582218253.587,25.879,34.180,14.648,28.809,0
1582218253.591,27.344,31.738,19.043,33.691,0
1582218253.593,35.156,23.926,15.137,8.789,0
1582218253.597,34.180,34.180,31.738,5.859,0
1582218253.601,5.859,37.598,57.617,34.668,0
1582218253.605,1.953,25.391,64.941,38.086,0
1582218253.609,34.180,34.668,55.176,19.531,0
1582218253.613,49.805,55.664,31.250,20.996,0
1582218253.617,22.949,48.828,9.766,41.016,0
1582218253.620,-9.766,33.203,12.695,41.016,0
1582218253.624,16.113,21.973,41.504,22.949,0
1582218253.628,44.922,18.555,51.270,4.883,0
1582218253.632,20.020,23.926,54.688,7.812,0
1582218253.636,4.395,28.809,44.434,24.902,0
1582218253.638,6.348,33.691,47.852,21.973,0
1582218253.642,24.414,46.387,32.227,13.672,0
1582218253.646,25.879,31.250,0.000,24.414,0
1582218253.650,14.648,13.672,12.695,41.992,0
1582218253.654,20.996,27.344,31.250,47.363,0
1582218253.658,34.668,43.457,51.758,35.645,0
1582218253.662,36.133,36.133,55.664,34.180,0
1582218253.665,25.879,7.812,44.922,46.875,0
1582218253.669,37.598,21.484,64.453,59.082,0
1582218253.673,62.012,41.504,49.805,52.246,0
1582218253.677,59.082,41.504,15.137,35.156,0
1582218253.681,15.137,37.109,16.113,33.203,0
1582218253.688,5.371,21.973,20.508,34.180,0
1582218253.692,48.828,25.879,21.973,31.738,0
1582218253.696,54.688,30.273,25.879,25.391,0
1582218253.700,32.715,36.621,47.363,25.879,0
1582218253.704,18.555,31.738,43.457,34.668,0
1582218253.708,25.391,12.695,29.297,32.715,0
1582218253.712,46.387,24.414,19.531,21.973,0
1582218253.715,49.805,47.852,12.695,31.250,0
1582218253.719,16.602,44.922,24.902,38.574,0
1582218253.723,4.883,33.203,32.227,27.344,0
1582218253.727,30.273,40.527,36.133,16.602,0
1582218253.731,24.902,35.156,46.387,1.465,0
1582218253.744,3.906,32.227,33.691,16.113,0
1582218253.748,9.766,46.387,22.461,40.039,0
1582218253.752,23.926,33.691,30.273,25.879,0
1582218253.756,30.273,4.395,41.992,11.230,0
1582218253.760,13.184,5.859,34.180,22.461,0
1582218253.764,6.836,29.785,19.531,34.180,0
1582218253.768,23.926,48.828,34.668,24.902,0
1582218253.771,35.645,51.270,20.020,14.648,0
1582218253.775,20.996,53.223,29.785,19.043,0
1582218253.779,1.953,55.664,46.387,33.691,0
1582218253.783,8.789,43.945,42.969,35.645,0
1582218253.787,18.555,8.789,31.250,27.344,0
1582218253.789,11.230,10.254,18.555,26.855,0
1582218253.793,-2.930,30.762,31.738,31.250,0
1582218253.797,1.953,32.715,29.297,38.574,0
1582218253.801,21.973,45.898,7.812,35.156,0
1582218253.805,30.762,51.758,9.277,29.297,0
1582218253.809,13.672,39.551,15.625,44.434,0
1582218253.813,8.301,39.551,35.156,51.270,0
1582218253.816,33.691,36.133,62.988,46.387,0
1582218253.820,48.340,1.465,55.664,44.434,0
1582218253.824,32.715,-2.930,42.969,45.410,0
1582218253.828,22.949,42.969,40.527,50.781,0
1582218253.832,26.855,74.707,38.086,38.086,0
1582218253.834,34.180,73.242,25.391,21.484,0
1582218253.838,25.879,48.828,12.207,23.438,0
1582218253.842,5.371,21.973,8.789,30.762,0
1582218253.846,8.301,13.184,32.227,28.809,0
1582218253.850,21.973,28.320,55.176,11.719,0
1582218253.854,25.879,35.156,49.316,11.230,0
1582218253.858,20.508,31.738,50.781,45.898,0
1582218253.861,7.812,18.555,38.574,47.852,0
1582218253.865,6.836,11.230,26.367,5.859,0
1582218253.869,9.766,31.738,26.855,-11.719,0
1582218253.873,-2.930,56.152,18.555,17.090,0
1582218253.877,-7.812,59.082,29.785,41.992,0
1582218253.879,1.465,23.926,26.855,23.926,0
1582218253.883,19.043,21.484,25.879,9.277,0
1582218253.887,12.695,30.762,42.480,23.926,0
1582218253.891,-4.883,19.043,33.691,34.668,0
1582218253.895,4.395,32.715,26.855,20.020,0
1582218253.899,20.508,35.156,35.645,1.953,0
1582218253.903,20.020,39.062,38.086,10.254,0
1582218253.906,0.977,28.809,18.555,23.926,0
1582218253.910,3.418,-13.184,8.301,19.531,0
1582218253.914,24.902,2.441,37.109,5.859,0
1582218253.918,35.645,30.762,38.086,14.160,0
1582218253.922,16.602,22.461,30.762,40.039,0
1582218253.924,16.113,31.250,41.992,45.410,0
1582218253.928,34.668,44.434,39.551,32.227,0
1582218253.932,32.715,39.551,51.270,20.996,0
1582218253.936,11.719,41.992,55.176,26.855,0
1582218253.940,5.859,38.086,37.109,41.016,0
1582218253.944,29.297,31.738,19.043,36.133,0
1582218253.948,38.574,4.395,7.324,19.531,0
1582218253.951,18.555,-10.742,17.578,21.484,0
1582218253.955,0.000,22.461,41.504,29.785,0
1582218253.959,17.090,30.762,56.641,32.227,0
1582218253.963,36.621,8.301,44.434,17.578,0
1582218253.967,24.902,2.930,34.180,10.742,0
1582218253.969,15.137,25.391,30.273,40.039,0
1582218253.973,29.297,49.316,22.949,52.734,0
1582218253.977,31.738,55.176,30.762,19.531,0
1582218253.981,26.367,37.598,14.648,3.906,0
1582218253.985,10.742,26.367,16.113,17.090,0
1582218253.989,-1.465,24.902,48.340,24.902,0
1582218253.993,18.555,28.320,33.691,12.695,0
1582218253.996,28.320,25.391,10.254,2.930,0
1582218254.000,19.043,12.207,24.902,13.672,0
1582218254.004,11.719,5.859,43.457,26.367,0
1582218254.008,15.625,10.742,29.785,21.484,0
1582218254.012,31.250,34.180,24.414,8.301,0
1582218254.014,31.250,44.434,20.508,18.555,0
1582218254.018,21.484,48.340,11.719,40.527,0
1582218254.022,24.414,45.410,24.414,41.992,0
1582218254.026,37.598,23.926,44.434,17.578,0
1582218254.030,30.273,30.762,48.828,8.789,0
1582218254.034,24.902,52.246,30.762,34.668,0
1582218254.038,25.391,51.270,20.020,39.551,0
1582218254.041,7.812,35.645,22.949,0.488,0
1582218254.045,16.113,32.227,31.250,-17.090,0
1582218254.049,8.301,33.691,31.250,0.488,0
1582218254.053,-5.859,33.203,25.879,6.836,0
1582218254.057,3.906,31.250,27.832,-13.672,0
1582218254.059,13.184,30.273,34.668,-35.156,0
1582218254.063,-10.254,29.785,38.086,-30.762,0
1582218254.067,-27.344,25.879,44.922,-13.672,0
1582218254.071,-15.137,26.367,49.316,-20.020,0
1582218254.075,-18.555,20.508,44.922,-42.969,0
1582218254.079,-38.574,17.578,50.781,-41.504,0
1582218254.083,-60.059,31.738,63.965,-26.367,0
1582218254.086,-71.777,18.066,59.082,-42.480,0
1582218254.090,-46.875,6.348,56.152,-58.105,0
1582218254.094,-71.289,25.879,55.176,-69.824,0
1582218254.098,-117.676,30.273,43.457,-69.336,0
1582218254.102,-100.586,39.551,38.086,-63.965,0
1582218254.119,-81.055,23.926,47.852,-77.148,0
1582218254.123,-78.125,20.508,76.660,-90.820,0
1582218254.127,-94.727,45.898,106.445,-82.031,0
1582218254.131,-99.121,28.809,125.977,-68.359,0
1582218254.135,-87.402,21.484,107.422,-80.566,0
1582218254.139,-100.586,41.992,83.496,-103.027,0
1582218254.143,-118.652,41.992,85.449,-92.285,0
1582218254.146,-108.398,24.902,80.078,-64.941,0
1582218254.150,-91.309,26.367,62.988,-61.523,0
1582218254.154,-68.848,42.969,69.824,-59.570,0
1582218254.158,-48.828,57.129,106.934,-41.504,0
1582218254.162,-68.359,55.176,118.652,-36.621,0
1582218254.164,-83.008,49.805,102.539,-48.828,0
1582218254.168,-37.109,45.410,83.008,-49.805,0
1582218254.172,-15.625,38.574,83.984,-43.457,0
1582218254.176,-26.367,32.715,84.961,-22.949,0
1582218254.180,-29.785,29.297,80.078,-9.277,0
1582218254.184,-5.371,25.879,47.852,-11.719,0
1582218254.188,23.438,27.832,31.250,-0.977,0
1582218254.191,12.695,35.645,65.430,10.254,0
1582218254.195,-1.953,46.387,71.777,15.625,0
1582218254.199,15.625,56.152,44.922,20.020,0
1582218254.203,38.086,42.480,32.227,24.902,0
1582218254.207,36.133,31.738,36.621,38.574,0
1582218254.209,26.367,19.531,22.949,49.316,0
1582218254.213,37.598,-6.348,22.949,44.434,0
1582218254.217,59.570,6.836,35.156,35.156,0
1582218254.221,43.945,27.832,41.992,25.879,0
1582218254.225,28.809,31.250,51.758,43.457,0
1582218254.229,36.621,30.762,45.898,55.664,0
1582218254.233,58.594,29.297,20.996,41.504,0
1582218254.236,71.289,32.227,0.977,38.574,0
1582218254.240,53.223,22.949,8.789,48.340,0
1582218254.244,47.363,7.324,26.855,60.059,0
1582218254.248,61.035,13.184,21.484,48.340,0
1582218254.252,60.547,17.090,22.949,34.180,0
1582218254.254,55.664,8.789,52.734,52.246,0
1582218254.258,53.711,38.574,40.527,65.430,0
1582218254.262,57.129,59.570,26.855,55.176,0
1582218254.266,70.312,36.621,40.527,45.410,0
1582218254.270,57.129,27.344,14.648,46.387,0
1582218254.274,48.340,29.297,8.789,58.105,0
1582218254.278,55.176,22.949,38.086,67.383,0
1582218254.281,59.570,20.020,16.602,51.270,0
1582218254.285,58.594,20.508,-3.906,33.203,0
1582218254.289,48.340,16.602,32.715,42.969,0
1582218254.293,48.340,27.344,42.969,54.199,0
1582218254.297,52.246,31.738,28.809,35.645,0
1582218254.299,56.641,23.926,32.715,27.832,0
1582218254.303,54.199,-2.441,31.738,53.223,0
1582218254.307,45.410,6.348,28.809,62.012,0
1582218254.311,46.875,46.387,3.906,44.922,0
1582218254.315,56.152,41.992,2.930,36.133,0
1582218254.319,52.734,26.367,35.645,54.688,0
1582218254.323,36.621,21.973,38.574,61.523,0
1582218254.326,36.133,11.230,18.066,48.828,0
1582218254.330,43.457,11.719,5.859,28.320,0
1582218254.334,30.762,15.625,20.996,19.043,0
1582218254.338,25.391,33.691,37.598,44.922,0
1582218254.342,36.621,32.715,29.297,56.152,0
1582218254.344,47.363,29.785,19.531,32.227,0
1582218254.348,45.898,47.852,19.531,26.367,0
1582218254.352,20.996,43.457,18.066,49.805,0
1582218254.356,24.902,27.832,25.879,59.082,0
1582218254.360,47.363,7.324,14.648,48.340,0
1582218254.364,50.781,3.906,-5.371,38.086,0
1582218254.368,45.898,29.297,11.230,52.246,0
1582218254.371,43.457,42.969,52.246,69.336,0
1582218254.375,49.805,38.086,57.129,44.922,0
1582218254.379,49.805,21.484,39.551,15.137,0
1582218254.383,35.156,30.273,26.367,21.973,0
1582218254.387,30.273,30.762,26.855,45.410,0
1582218254.388,43.945,23.926,14.648,45.898,0
1582218254.392,61.523,31.738,-21.484,32.227,0
1582218254.396,58.594,20.996,-30.762,31.250,0
1582218254.400,20.508,-1.953,1.953,27.344,0
1582218254.404,4.395,3.906,45.898,25.879,0
1582218254.408,37.109,16.113,49.316,28.320,0
1582218254.412,51.758,7.324,22.949,34.668,0
1582218254.415,35.645,30.762,20.508,34.180,0
1582218254.419,12.695,32.715,25.879,11.719,0
1582218254.423,20.996,8.789,20.508,-2.441,0
1582218254.427,38.574,19.043,1.465,1.953,0
1582218254.431,13.672,17.090,-4.883,-1.465,0
1582218254.433,-0.977,19.531,-0.977,4.395,0
1582218254.437,16.602,39.062,4.395,7.812,0
1582218254.441,18.066,37.109,16.113,-9.766,0
1582218254.445,19.531,26.367,26.367,3.418,0
1582218254.449,12.695,36.133,21.484,37.598,0
1582218254.453,20.996,40.039,-4.395,47.363,0
1582218254.457,56.152,36.621,-8.789,34.668,0
1582218254.460,58.594,36.621,-6.348,21.484,0
1582218254.464,52.734,27.344,-17.090,49.805,0
1582218254.468,64.941,26.855,-12.207,65.430,0
1582218254.472,61.523,28.809,14.648,21.484,0
1582218254.476,36.133,33.691,32.715,1.953,0
1582218254.494,18.066,30.273,17.090,12.695,0
1582218254.498,15.137,35.645,-2.441,16.113,0
1582218254.502,32.715,63.477,9.766,14.648,0
1582218254.506,45.898,44.922,16.602,12.695,0
1582218254.510,28.809,17.090,13.184,27.832,0
1582218254.514,15.625,26.855,26.855,37.109,0
1582218254.518,33.203,46.875,37.109,22.949,0
1582218254.521,42.480,34.668,19.043,12.695,0
1582218254.525,28.320,26.855,17.090,15.625,0
1582218254.529,31.250,17.578,38.574,33.691,0
1582218254.533,44.922,16.113,44.434,40.527,0
1582218254.537,49.805,38.574,30.762,20.508,0
1582218254.538,52.734,29.785,-1.465,15.625,0
1582218254.542,46.875,42.969,-10.254,40.527,0
1582218254.546,39.551,58.105,7.324,49.805,0
1582218254.550,50.293,38.086,34.180,19.531,0
1582218254.554,55.176,45.410,62.988,11.719,0
1582218254.558,35.156,54.199,55.664,35.645,0
1582218254.562,16.113,34.180,31.250,35.645,21560
1582218254.565,28.320,17.090,4.883,21.484,0
1582218254.569,45.898,29.297,-17.578,8.301,0
1582218254.573,37.598,43.457,0.000,20.508,0
1582218254.577,20.996,26.855,27.832,34.668,0
1582218254.581,19.043,27.344,36.621,20.020,0
1582218254.583,33.203,29.785,35.645,6.348,0
1582218254.587,28.809,18.555,37.109,11.230,0
1582218254.591,16.602,21.484,19.531,33.203,0
1582218254.595,23.926,22.949,-18.066,51.270,0
1582218254.599,29.297,19.043,-10.254,40.527,0
1582218254.603,23.438,31.250,38.574,15.625,0
1582218254.607,4.395,48.340,60.059,9.766,0
1582218254.610,3.906,59.570,65.918,23.926,0
1582218254.614,20.996,43.945,47.852,15.137,0
1582218254.618,24.414,10.254,20.508,-3.906,0
1582218254.622,17.090,-3.906,18.555,11.719,0
1582218254.626,21.484,2.930,6.348,39.551,0
1582218254.628,39.062,15.137,-19.531,43.945,0
1582218254.632,42.480,5.859,-1.465,24.414,0
1582218254.636,20.996,3.418,32.227,16.113,0
1582218254.640,8.789,33.203,38.086,24.902,0
1582218254.644,19.531,42.969,30.273,20.508,0
1582218254.648,22.949,33.203,23.438,6.348,0
1582218254.652,9.277,20.508,19.043,4.395,0
1582218254.655,-8.789,4.395,33.691,21.973,0
1582218254.659,0.977,6.836,53.711,35.645,0
1582218254.663,19.043,28.320,31.250,18.555,0
1582218254.667,16.602,47.363,17.578,11.719,0
1582218254.671,13.672,32.715,31.738,31.738,0
1582218254.673,16.113,22.461,50.293,43.945,0
1582218254.677,30.273,35.156,32.227,29.785,0
1582218254.681,38.574,16.113,7.324,8.789,0
1582218254.685,23.926,-6.836,5.859,17.578,0
1582218254.689,11.719,19.531,0.488,24.414,0
1582218254.693,28.809,57.617,8.301,25.879,0
1582218254.697,40.527,46.387,18.066,13.184,0
1582218254.700,18.555,34.180,25.391,-3.418,0
1582218254.704,-1.465,32.715,22.949,-1.465,0
1582218254.708,12.207,28.320,36.133,17.090,0
1582218254.712,43.945,21.484,47.852,23.926,0
1582218254.716,41.504,7.324,33.691,16.602,0
1582218254.718,20.508,14.648,33.691,28.320,0
1582218254.722,14.648,28.320,37.598,29.297,0
1582218254.726,23.438,34.668,25.879,11.230,0
1582218254.730,38.574,43.457,7.324,8.789,0
1582218254.734,25.879,33.691,13.184,31.738,0
1582218254.738,13.184,35.156,30.762,35.645,0
1582218254.742,31.250,30.762,33.691,20.508,0
1582218254.745,43.945,13.184,27.832,17.578,0
1582218254.749,19.531,11.719,20.508,15.137,0
1582218254.753,2.930,-5.371,27.832,19.043,0
1582218254.757,15.137,17.090,36.621,15.625,0
1582218254.761,34.668,44.434,47.852,6.836,0
1582218254.763,25.879,41.016,24.902,9.766,0
1582218254.767,-11.230,22.949,8.301,16.113,0
1582218254.771,5.859,8.789,34.668,16.113,0
1582218254.775,30.762,27.832,47.363,7.324,0
1582218254.779,20.020,39.062,25.391,6.836,0
1582218254.783,8.789,34.668,12.207,20.508,0
1582218254.787,6.348,16.602,43.457,32.715,0
1582218254.790,16.113,21.484,51.758,15.625,0
1582218254.794,21.973,36.621,28.809,-0.977,0
1582218254.798,16.602,20.996,10.742,16.602,0
1582218254.802,8.301,7.324,1.953,22.461,0
1582218254.806,26.367,20.996,-8.301,15.625,0
1582218254.809,46.875,55.664,15.137,12.207,0
1582218254.813,31.738,70.312,36.621,16.602,0
1582218254.817,11.230,35.645,36.621,29.297,0
1582218254.821,9.277,14.648,35.645,21.973,0
1582218254.825,18.555,24.414,25.879,5.371,0
1582218254.829,34.180,20.996,12.207,18.555,0
1582218254.833,20.996,18.555,19.531,33.203,0
1582218254.836,0.488,18.066,19.043,20.508,0
1582218254.840,16.602,22.461,17.090,11.719,0
1582218254.844,25.391,35.645,22.949,12.207,0
1582218254.848,13.184,35.156,23.926,30.273,0
1582218254.852,14.160,39.551,44.434,36.133,0
1582218254.869,27.832,37.109,51.758,21.484,0
1582218254.873,34.180,11.719,7.812,10.254,0
1582218254.877,19.043,4.883,-20.020,9.766,0
1582218254.881,6.836,21.484,-12.207,20.020,0
1582218254.885,30.762,27.344,4.883,19.043,0
1582218254.889,22.461,7.324,42.480,-5.371,0
1582218254.893,-2.441,24.902,34.668,-14.160,0
1582218254.896,-5.371,60.059,18.555,1.953,0
1582218254.900,0.977,46.387,32.715,5.371,0
1582218254.904,20.996,22.949,36.621,-5.371,0
1582218254.908,18.555,15.625,25.391,-3.906,0
1582218254.912,-2.441,16.113,26.855,10.742,0
1582218254.914,8.789,35.645,25.879,23.926,0
1582218254.918,32.715,34.180,1.953,21.973,0
1582218254.922,33.691,32.227,5.371,15.137,0
1582218254.926,19.043,28.320,40.039,24.902,0
1582218254.930,3.418,16.113,50.781,36.621,0
1582218254.934,0.977,5.371,26.855,18.555,0
1582218254.938,15.137,16.113,11.719,4.883,0
1582218254.941,18.555,34.180,23.926,24.902,0
1582218254.945,1.953,22.461,33.691,40.039,0
1582218254.949,13.184,25.391,12.207,34.180,0
1582218254.953,36.621,37.598,6.836,19.043,0
1582218254.957,25.391,29.297,43.945,23.438,0
1582218254.959,4.883,31.250,37.598,35.156,0
1582218254.963,3.418,30.273,13.672,24.414,0
1582218254.967,29.297,36.133,46.387,8.789,0
1582218254.971,25.879,45.410,65.430,7.324,0
1582218254.975,-0.977,32.715,49.805,18.555,0
1582218254.979,6.348,30.762,15.625,22.949,0
1582218254.983,24.414,25.391,-2.930,21.484,0
1582218254.986,23.926,15.137,4.883,15.625,0
1582218254.990,5.859,10.254,15.137,10.254,0
1582218254.994,-9.277,11.719,14.648,19.531,0
1582218254.998,8.789,22.949,20.020,20.020,0
1582218255.002,27.344,7.812,30.762,16.602,0
1582218255.004,11.719,11.230,14.160,22.949,0
1582218255.008,-7.812,36.133,32.715,35.156,0
1582218255.012,9.766,37.598,59.570,35.156,0
1582218255.016,20.020,43.457,54.688,21.973,0
1582218255.020,0.977,42.480,59.570,26.855,0
1582218255.024,-5.859,23.438,59.570,36.621,0
1582218255.028,6.836,4.883,38.574,35.156,0
1582218255.031,32.227,24.902,21.484,35.645,0
1582218255.035,35.156,30.273,19.043,23.438,0
1582218255.039,11.230,23.438,39.062,22.949,0
1582218255.043,3.906,30.762,56.641,34.668,0
1582218255.047,24.902,10.742,43.945,26.855,0
1582218255.049,32.715,24.902,51.758,20.020,0
1582218255.053,12.695,51.758,52.246,22.461,0
1582218255.057,0.488,27.832,39.551,33.691,0
1582218255.061,16.113,8.789,44.922,31.250,0
1582218255.065,20.508,23.438,23.438,1.953,0
1582218255.069,4.395,24.414,13.672,-5.371,0
1582218255.073,-2.441,17.090,33.691,16.113,0
1582218255.076,0.000,18.555,48.340,18.555,0
1582218255.080,10.254,23.438,43.457,1.465,0
1582218255.084,9.277,21.973,25.879,0.000,0
1582218255.088,-6.348,12.207,37.598,25.879,0
1582218255.092,-5.859,-19.531,62.012,35.156,0
1582218255.094,18.555,-13.184,50.293,37.598,0
1582218255.098,33.203,34.180,34.668,25.391,0
1582218255.102,21.484,54.199,41.016,23.926,0
1582218255.106,21.484,61.035,44.922,39.551,0
1582218255.110,31.738,42.969,37.598,16.602,0
1582218255.114,21.973,11.230,35.645,-8.301,0
1582218255.118,3.418,16.602,54.688,-2.930,0
1582218255.121,-14.648,26.855,62.500,12.207,0
1582218255.125,-1.465,18.066,61.523,11.719,0
1582218255.129,33.691,20.508,37.598,4.883,0
1582218255.133,28.320,38.574,3.906,14.160,0
1582218255.137,7.324,46.875,22.461,27.832,0
1582218255.139,26.367,27.832,46.387,35.645,0
1582218255.143,40.527,24.414,41.016,16.113,0
1582218255.147,23.438,26.367,40.527,-4.395,0
1582218255.151,12.207,24.414,57.129,19.043,0
1582218255.155,4.883,30.762,50.293,24.414,0
1582218255.159,9.277,29.297,37.598,5.371,0
1582218255.163,23.926,15.137,27.344,-2.930,0
1582218255.166,16.602,12.695,11.719,9.766,0
1582218255.170,5.371,24.902,24.414,26.367,0
1582218255.174,20.508,41.504,41.504,21.973,0
1582218255.178,28.320,49.316,45.410,4.883,0
1582218255.182,4.395,21.973,60.547,1.953,0
1582218255.184,2.930,11.719,59.082,18.555,0
1582218255.188,22.949,32.715,42.480,24.902,0
1582218255.192,40.039,27.344,33.203,10.254,0
1582218255.196,40.039,24.414,38.086,11.719,0
1582218255.200,15.625,18.066,27.832,18.066,0
1582218255.204,4.395,10.254,6.836,15.137,0
1582218255.208,31.250,30.273,20.508,13.672,0
1582218255.211,37.109,41.016,46.387,1.465,0
1582218255.215,-4.883,35.156,58.105,2.441,0
1582218255.219,-22.949,26.855,47.852,4.395,0
1582218255.223,0.000,20.508,44.434,-4.883,0
1582218255.227,22.949,10.254,43.945,8.301,0
1582218255.244,8.789,-2.441,29.785,23.926,0
1582218255.248,-2.441,22.949,35.645,20.020,0
1582218255.252,12.207,31.250,33.691,-3.418,0
1582218255.256,0.488,11.230,22.949,-15.625,0
1582218255.260,-3.418,21.484,43.945,5.859,0
1582218255.264,7.812,25.879,44.434,32.715,0
1582218255.268,10.254,11.230,32.227,22.461,0
1582218255.271,21.484,17.090,47.852,-12.695,0
1582218255.275,21.973,31.738,57.617,0.488,0
1582218255.279,17.578,3.906,50.293,33.203,0
1582218255.283,16.113,-5.371,28.809,30.273,0
1582218255.287,35.645,48.340,18.555,27.344,0
1582218255.289,41.016,53.711,23.926,23.926,0
1582218255.293,-7.324,16.602,25.391,12.207,0
1582218255.297,-33.691,1.953,40.039,8.789,0
1582218255.301,-15.137,6.348,60.059,12.207,0
1582218255.305,1.953,25.391,45.410,5.371,0
1582218255.309,4.395,37.598,26.367,11.230,0
1582218255.313,3.906,34.668,42.480,30.273,0
1582218255.316,14.648,7.324,50.293,25.391,0
1582218255.320,26.855,19.531,39.551,15.625,0
1582218255.324,13.184,20.996,28.809,17.090,0
1582218255.328,-2.441,5.371,25.879,16.113,0
1582218255.332,14.648,18.555,26.855,18.555,0
1582218255.334,27.344,41.992,20.020,9.277,0
1582218255.338,24.414,49.805,32.715,10.742,0
1582218255.342,19.043,39.551,52.734,23.438,0
1582218255.346,12.207,32.715,27.344,12.207,0
1582218255.350,22.461,12.695,20.996,-0.977,0
1582218255.354,23.438,3.418,48.828,-2.441,0
1582218255.358,10.254,27.832,39.551,13.672,0
1582218255.361,10.254,22.949,21.973,29.297,0
1582218255.365,21.484,20.508,30.273,14.648,0
1582218255.369,28.809,28.809,47.363,-4.395,0
1582218255.373,33.203,33.691,40.527,12.695,0
1582218255.377,23.438,31.250,46.875,40.527,0
1582218255.378,30.762,17.578,37.109,35.645,0
1582218255.382,47.363,27.832,7.324,10.254,0
1582218255.386,39.062,40.039,16.113,20.996,0
1582218255.390,20.996,35.156,40.527,46.387,0
1582218255.394,11.230,36.133,22.949,34.668,0
1582218255.398,34.180,45.898,7.812,6.348,0
1582218255.402,42.969,55.664,18.555,8.301,0
1582218255.405,34.180,65.430,6.348,29.785,0
1582218255.409,38.086,48.828,9.766,29.785,0
1582218255.413,42.969,25.879,15.625,6.348,0
1582218255.417,29.297,3.418,25.879,-3.906,0
1582218255.421,16.113,-10.742,42.969,15.137,0
1582218255.423,13.184,40.039,28.809,29.785,0
1582218255.427,20.996,74.707,15.625,28.320,0
1582218255.431,32.227,47.852,2.441,12.207,0
1582218255.435,27.832,36.133,8.789,28.320,0
1582218255.439,8.789,45.410,42.969,39.551,0
1582218255.443,7.812,38.086,41.016,22.461,0
1582218255.447,32.227,24.414,24.902,13.184,0
1582218255.450,35.156,35.156,32.715,20.996,0
1582218255.454,15.137,47.852,16.113,26.855,0
1582218255.458,22.461,53.711,2.930,23.438,0
1582218255.462,42.480,54.199,29.785,9.766,0
1582218255.466,35.645,46.875,45.410,-0.977,0
1582218255.468,16.113,24.902,49.805,14.648,0
1582218255.472,29.785,20.020,50.781,34.668,0
1582218255.476,45.410,38.086,20.996,21.484,0
1582218255.480,43.945,24.414,0.000,12.695,0
1582218255.484,35.156,17.090,20.508,36.621,0
1582218255.488,19.043,57.129,25.391,34.180,0
1582218255.492,31.738,69.824,30.273,21.484,0
1582218255.495,39.062,29.785,35.156,-1.465,0
1582218255.499,19.043,15.625,31.250,-10.742,0
1582218255.503,6.348,37.109,19.043,4.883,0
1582218255.507,6.348,34.668,24.902,11.719,0
1582218255.511,22.461,16.602,30.762,5.371,0
1582218255.513,32.227,20.996,3.906,0.000,0
1582218255.517,12.695,44.434,8.789,17.090,0
1582218255.521,8.301,53.223,26.855,23.438,0
1582218255.525,31.250,46.875,44.434,11.719,0
1582218255.529,41.992,41.992,50.781,14.648,0
1582218255.533,16.602,34.668,26.367,21.973,0
1582218255.537,1.953,35.645,0.977,23.438,0
1582218255.540,17.090,33.203,-3.906,17.090,0
1582218255.544,20.996,31.738,-4.395,3.906,0
1582218255.548,-2.441,23.438,4.395,4.883,0
1582218255.552,-14.648,31.250,32.715,16.602,0
1582218255.556,4.395,50.781,45.410,11.719,0
1582218255.558,8.301,27.344,23.438,-11.719,0
1582218255.562,2.441,17.090,9.766,-4.395,0
1582218255.566,6.348,28.320,39.551,21.973,0
1582218255.570,2.441,20.020,32.227,18.555,0
1582218255.574,9.277,36.621,13.184,-1.953,0
1582218255.578,11.719,56.152,24.902,0.977,0
1582218255.582,-3.418,22.461,3.418,23.926,25600
1582218255.585,3.906,9.766,-4.883,29.297,0
1582218255.589,16.602,18.066,13.184,3.418,0
1582218255.593,17.578,26.367,41.504,-9.277,0
1582218255.597,11.719,54.688,35.156,12.207,0
1582218255.601,10.254,54.199,12.695,31.250,0
1582218255.619,20.020,38.086,21.484,18.066,0
1582218255.623,29.297,34.668,21.973,0.488,0
1582218255.627,11.719,41.016,39.551,1.465,0
1582218255.631,-2.930,37.109,46.875,11.719,0
1582218255.635,9.766,7.324,36.621,15.137,0
1582218255.639,25.879,36.133,24.414,2.441,0
1582218255.643,20.020,67.871,13.672,10.254,0
1582218255.646,6.348,37.109,26.367,31.738,0
1582218255.650,4.883,15.137,37.109,39.551,0
1582218255.654,26.855,20.996,22.461,25.391,0
1582218255.658,30.762,21.973,29.785,10.254,0
1582218255.662,-1.465,14.648,46.387,10.742,0
1582218255.663,-1.465,26.855,47.363,15.625,0
1582218255.667,37.109,48.340,27.832,17.578,0
1582218255.671,49.316,36.621,-10.254,10.254,0
1582218255.675,27.832,32.715,9.277,26.855,0
1582218255.679,10.742,33.203,55.176,28.809,0
1582218255.683,5.859,22.461,50.781,4.395,0
1582218255.687,25.391,33.691,32.715,1.953,0
1582218255.690,32.227,39.551,29.785,17.090,0
1582218255.694,12.695,25.391,34.668,30.762,0
1582218255.698,13.672,30.762,32.715,22.949,0
1582218255.702,15.137,18.066,27.832,-2.441,0
1582218255.706,10.742,-1.465,37.109,2.930,0
1582218255.708,-1.465,0.000,30.273,29.297,0
1582218255.712,-0.488,17.578,24.414,26.367,0
1582218255.716,23.926,51.270,24.902,1.465,0
1582218255.720,27.832,70.312,22.461,-3.906,0
1582218255.724,17.090,66.406,26.367,9.277,0
1582218255.728,11.230,45.410,5.371,15.625,0
1582218255.732,30.762,37.598,12.207,11.719,0
1582218255.735,55.176,46.387,55.176,12.207,0
1582218255.739,34.180,25.879,41.016,27.344,0
1582218255.743,10.742,9.277,12.207,35.645,0
1582218255.747,12.207,34.180,30.762,20.508,0
1582218255.751,13.184,40.039,42.480,-5.859,0
1582218255.754,5.371,37.598,27.832,-11.230,0
1582218255.758,-0.977,26.855,27.832,15.137,0
1582218255.762,12.695,13.184,27.832,22.461,0
1582218255.766,26.367,26.855,39.062,8.789,0
1582218255.770,21.484,40.527,43.457,3.418,0
1582218255.774,0.977,53.223,26.367,6.348,0
1582218255.778,2.441,37.598,26.367,18.555,0
1582218255.781,39.062,15.625,26.367,22.949,0
1582218255.785,40.527,3.418,36.133,20.996,0
1582218255.789,20.996,13.672,36.133,25.391,0
1582218255.793,-0.488,5.371,20.508,22.461,0
1582218255.797,6.836,2.930,26.367,12.695,0
1582218255.799,43.457,42.480,28.320,12.695,0
1582218255.803,30.762,43.457,25.879,22.949,0
1582218255.807,5.859,21.484,45.410,18.555,0
1582218255.811,13.672,7.812,58.594,8.301,0
1582218255.815,25.879,11.230,37.109,-0.488,0
1582218255.819,22.461,22.949,22.949,5.371,0
1582218255.823,13.672,25.391,41.016,27.344,0
1582218255.826,12.695,38.086,20.996,29.297,0
1582218255.830,37.598,38.086,8.301,16.113,0
1582218255.834,44.922,38.574,34.180,15.625,0
1582218255.838,5.371,45.410,35.156,20.996,0
1582218255.842,-13.184,36.133,28.809,19.043,0
1582218255.844,4.883,4.395,39.062,4.395,0
1582218255.848,15.625,-10.254,45.410,-7.324,0
1582218255.852,-2.441,29.785,31.250,4.883,0
1582218255.856,2.441,58.594,6.836,27.344,0
1582218255.860,33.691,42.480,0.000,31.738,0
1582218255.864,38.086,17.090,14.160,15.137,0
1582218255.868,19.531,9.277,32.227,22.461,0
1582218255.871,7.324,18.066,41.504,41.504,0
1582218255.875,23.926,23.438,29.297,44.434,0
1582218255.879,30.762,20.996,11.719,13.672,0
1582218255.883,14.648,48.340,32.715,-7.812,0
1582218255.887,2.441,62.012,44.922,10.254,0
1582218255.889,-6.836,29.785,24.902,6.348,0
1582218255.893,4.883,16.113,6.348,-13.672,0
1582218255.897,11.719,23.438,1.465,-7.324,0
1582218255.901,-1.465,29.297,15.137,3.418,0
1582218255.905,6.348,28.809,39.551,9.766,0
1582218255.909,26.367,10.254,34.668,9.766,0
1582218255.913,19.043,-6.348,21.484,-3.906,0
1582218255.916,4.883,12.695,26.367,9.277,0
1582218255.920,-4.883,42.969,32.227,21.484,0
1582218255.924,0.000,49.316,27.344,10.254,0
1582218255.928,19.043,26.855,37.109,4.395,0
1582218255.932,20.996,16.113,62.500,11.719,0
1582218255.934,8.789,24.902,41.504,28.320,0
1582218255.938,6.836,25.391,31.250,19.531,0
1582218255.942,10.254,22.461,37.598,-2.441,0
1582218255.946,3.418,16.113,30.762,-2.930,0
1582218255.950,-6.836,16.602,39.551,14.160,0
1582218255.954,-0.977,37.598,34.180,22.949,0
1582218255.958,27.832,42.969,31.250,10.742,0
1582218255.961,29.297,13.184,38.086,-0.977,0
1582218255.965,4.395,11.719,35.156,18.066,0
1582218255.969,4.883,27.344,29.297,28.809,0
1582218255.973,34.668,38.086,27.344,19.043,0
1582218255.977,44.922,39.551,20.020,9.766,0
1582218255.994,26.855,27.344,23.438,14.160,0
1582218255.998,8.789,26.855,45.898,33.203,0
1582218256.002,8.301,28.809,54.199,24.414,0
1582218256.006,22.949,21.973,41.016,1.465,0
1582218256.010,17.578,15.137,35.156,5.371,0
1582218256.014,-0.488,17.090,36.621,24.414,0
1582218256.018,0.488,12.695,17.578,18.555,0
1582218256.021,19.531,20.996,1.465,-1.465,0
1582218256.025,20.508,33.203,26.367,6.348,0
1582218256.029,0.000,18.066,33.691,16.602,0
1582218256.033,-0.488,18.555,24.902,11.719,0
1582218256.037,18.066,16.602,36.133,4.395,0
1582218256.039,38.574,1.953,37.598,3.906,0
1582218256.043,31.250,23.438,42.969,21.484,0
1582218256.047,14.160,56.152,29.297,22.949,0
1582218256.051,30.762,58.105,12.695,14.160,0
1582218256.055,38.574,44.434,36.133,6.348,0
1582218256.059,15.137,36.621,49.805,1.465,0
1582218256.063,8.301,17.090,28.320,18.066,0
1582218256.066,25.879,30.762,2.930,23.438,0
1582218256.070,32.715,28.809,-1.953,9.766,0
1582218256.074,21.973,-4.883,19.531,10.742,0
1582218256.078,5.859,25.391,47.363,19.531,0
1582218256.082,-0.488,57.617,45.410,10.742,0
1582218256.084,18.555,51.758,41.992,-4.395,0
1582218256.088,20.508,45.410,45.410,-10.254,0
1582218256.092,4.395,29.785,41.016,17.090,0
1582218256.096,10.254,35.645,4.395,36.133,0
1582218256.100,23.926,34.668,-25.879,16.602,0
1582218256.104,35.156,11.230,23.926,4.883,0
1582218256.108,17.090,26.855,69.824,25.391,0
1582218256.111,-4.395,40.039,51.270,41.992,0
1582218256.115,19.531,38.086,32.227,25.391,0
1582218256.119,41.016,45.898,22.949,5.859,0
1582218256.123,24.414,50.781,33.203,2.930,0
1582218256.127,11.719,49.316,29.785,13.184,0
1582218256.129,20.508,18.555,20.508,4.395,0
1582218256.133,29.785,24.414,33.203,-12.695,0
1582218256.137,21.484,44.922,35.156,-5.371,0
1582218256.141,2.930,40.039,44.922,6.836,0
1582218256.145,4.395,32.227,50.293,17.578,0
1582218256.149,31.250,-3.418,34.180,20.996,0
1582218256.153,30.273,5.371,19.043,15.625,0
1582218256.156,9.277,28.320,29.297,24.902,0
1582218256.160,-4.883,33.691,31.738,18.066,0
1582218256.164,-3.906,58.594,28.809,0.977,0
1582218256.168,1.953,55.176,35.156,-8.789,0
1582218256.172,-6.836,53.711,45.898,8.301,0
1582218256.174,-5.859,64.453,59.570,33.691,0
1582218256.178,6.348,52.246,28.809,18.555,0
1582218256.182,20.020,28.809,4.395,6.348,0
1582218256.186,22.949,23.438,27.344,24.414,0
1582218256.190,12.695,23.438,29.785,40.039,0
1582218256.194,6.348,2.930,23.438,23.926,0
1582218256.198,13.672,9.766,40.527,-3.418,0
1582218256.201,17.578,32.715,53.223,-7.812,0
1582218256.205,0.000,43.945,31.738,10.254,0
1582218256.209,-7.812,43.945,22.949,17.090,0
1582218256.213,14.648,41.016,10.742,11.230,0
1582218256.217,20.020,25.391,-13.672,4.883,0
1582218256.219,3.906,21.973,31.250,24.414,0
1582218256.223,3.418,19.043,69.336,42.480,0
1582218256.227,21.484,7.324,54.199,29.297,0
1582218256.231,23.926,26.367,27.832,10.254,0
1582218256.235,-0.977,33.203,17.578,1.953,0
1582218256.239,-10.742,21.484,28.809,16.113,0
1582218256.243,6.836,30.273,33.691,16.113,0
1582218256.246,34.180,39.062,19.531,2.441,0
1582218256.250,46.875,27.832,5.859,18.066,0
1582218256.254,32.715,27.832,19.531,25.879,0
1582218256.258,30.273,16.113,19.531,20.508,0
1582218256.262,48.828,14.648,9.277,7.324,0
1582218256.264,45.898,37.598,19.531,3.418,0
1582218256.268,22.461,26.855,12.695,24.414,0
1582218256.272,17.578,13.672,6.348,22.949,0
1582218256.276,29.785,38.086,12.695,1.465,0
1582218256.280,29.297,43.457,19.531,-7.812,0
1582218256.284,20.508,25.879,22.461,7.324,0
1582218256.288,15.137,39.062,40.039,20.020,0
1582218256.291,29.297,41.992,47.852,10.742,0
1582218256.295,54.688,31.250,6.348,10.742,0
1582218256.299,41.992,34.668,-0.488,15.625,0
1582218256.303,12.695,26.367,18.066,15.137,0
1582218256.307,24.902,9.277,-4.395,12.695,0
1582218256.309,30.273,11.230,-6.836,-9.277,0
1582218256.313,7.812,28.809,18.066,-12.695,0
1582218256.317,-4.883,42.480,34.180,11.230,0
1582218256.321,0.000,43.457,23.438,17.578,0
1582218256.325,5.859,14.160,0.488,-5.859,0
1582218256.329,3.906,14.160,-4.883,-14.160,0
1582218256.333,-3.418,20.508,12.207,6.348,0
1582218256.336,-1.465,8.301,22.461,16.602,0
1582218256.340,9.277,28.809,31.738,6.348,0
1582218256.344,10.742,43.457,28.809,-7.812,0
1582218256.348,-3.906,35.645,25.391,-8.789,0
1582218256.352,-12.207,27.344,8.789,4.883,0
1582218256.369,2.930,26.855,4.883,1.465,0
1582218256.373,24.414,22.949,26.855,-15.137,0
1582218256.377,17.090,1.953,14.160,-17.090,0
1582218256.381,-6.836,-6.836,11.230,-0.977,0
1582218256.385,1.465,23.926,24.414,11.230,0
1582218256.389,23.926,39.062,22.461,5.859,0
1582218256.393,18.555,29.297,-3.418,-2.930,0
1582218256.396,1.953,26.367,1.465,3.906,0
1582218256.400,7.812,22.461,19.043,14.160,0
1582218256.404,27.832,14.160,5.859,10.742,0
1582218256.408,17.090,23.926,13.672,-7.812,0
1582218256.412,-1.465,22.949,29.297,-3.906,0
1582218256.414,-1.953,9.766,28.320,8.301,0
1582218256.418,14.648,20.020,20.020,-2.441,0
1582218256.422,39.062,23.438,6.348,-0.488,0
1582218256.426,31.250,15.137,30.273,16.602,0
1582218256.430,4.395,25.391,12.695,15.625,0
1582218256.434,3.906,35.645,0.488,6.836,0
1582218256.438,20.020,24.902,32.715,-4.395,0
1582218256.441,16.602,20.508,24.902,-2.930,0
1582218256.445,-4.883,26.855,23.926,7.812,0
1582218256.449,-5.371,42.480,32.227,6.348,0
1582218256.453,18.555,39.551,28.809,-1.953,0
1582218256.457,25.879,13.672,20.020,5.371,0
1582218256.459,11.230,16.113,14.648,24.414,0
1582218256.463,-5.371,26.855,24.902,19.043,0
1582218256.467,11.719,19.531,20.020,-0.977,0
1582218256.471,21.973,22.461,15.625,-10.254,0
1582218256.475,0.977,17.578,34.668,-0.488,0
1582218256.479,-5.371,16.113,40.527,21.484,0
1582218256.483,13.184,12.695,21.484,21.973,0
1582218256.486,24.414,17.090,24.902,9.766,0
1582218256.490,13.672,51.758,24.414,18.555,0
1582218256.494,-17.578,47.363,8.789,19.043,0
1582218256.498,-17.578,21.484,22.949,5.371,0
1582218256.502,7.812,22.461,33.203,-11.230,0
1582218256.504,5.371,37.109,30.273,-7.812,0
1582218256.508,-4.883,37.109,42.969,12.207,0
1582218256.512,-4.883,24.414,50.781,8.789,0
1582218256.516,22.461,32.227,37.109,4.395,0
1582218256.520,23.926,27.344,10.254,10.254,0
1582218256.524,-18.555,26.855,6.836,16.113,0
1582218256.528,-34.180,22.461,25.391,6.348,0
1582218256.531,-14.160,9.277,41.016,-9.766,0
1582218256.535,-14.648,17.090,38.574,-28.809,0
1582218256.539,-23.438,21.973,31.738,-21.973,0
1582218256.543,-9.277,25.879,20.020,13.672,0
1582218256.547,13.672,22.461,27.832,17.090,0
1582218256.548,17.578,17.090,22.461,-2.441,0
1582218256.552,-1.465,6.348,9.766,0.977,0
1582218256.556,-10.742,0.977,30.762,19.531,0
1582218256.560,8.789,17.578,42.480,24.902,0
1582218256.564,22.949,10.254,40.039,9.766,0
1582218256.568,21.973,15.625,28.320,14.648,0
1582218256.572,12.207,54.688,14.648,34.668,0
1582218256.575,8.301,52.246,44.922,24.902,0
1582218256.579,21.973,25.391,48.828,11.719,0
1582218256.583,32.227,31.738,21.484,12.695,0
1582218256.587,23.438,27.832,19.531,16.113,0
1582218256.591,12.207,27.344,26.367,20.996,0
1582218256.593,20.020,35.156,26.855,5.859,0
1582218256.597,36.621,16.602,43.457,0.977,0
1582218256.601,31.250,32.227,56.641,17.090,0
1582218256.605,13.184,46.875,43.457,19.043,0
1582218256.609,29.297,55.664,32.715,12.207,0
1582218256.613,46.387,52.246,24.902,1.953,0
1582218256.617,33.203,29.785,26.855,10.254,0
1582218256.620,8.301,31.738,34.668,16.113,0
1582218256.624,3.906,24.902,16.113,-0.977,0
1582218256.628,23.438,12.695,18.066,-10.254,0
1582218256.632,30.762,11.719,37.109,-1.465,0
1582218256.636,19.043,28.320,38.574,15.625,0
1582218256.638,20.508,44.434,38.086,11.230,0
1582218256.642,31.250,49.805,42.969,5.371,0
1582218256.646,25.879,39.062,36.621,2.441,0
1582218256.650,16.602,33.691,21.973,9.766,0
1582218256.654,6.836,49.805,16.602,29.785,0
1582218256.658,16.602,45.410,7.324,20.508,0
1582218256.662,34.180,22.949,23.926,6.836,0
1582218256.665,20.020,7.812,49.805,17.090,0
1582218256.669,4.883,22.461,60.059,30.762,0
1582218256.673,11.719,39.551,55.664,29.297,0
1582218256.677,28.809,41.016,27.344,8.301,0
1582218256.681,19.531,6.836,20.508,10.254,0
1582218256.683,9.766,19.531,20.996,41.504,0
1582218256.687,25.391,53.711,29.785,46.875,0
1582218256.691,32.227,32.227,49.316,24.902,0
1582218256.695,24.414,24.902,37.109,20.996,0
1582218256.699,6.348,30.762,32.715,30.273,0
1582218256.703,7.324,30.273,33.691,40.039,0
1582218256.707,34.180,29.785,17.090,33.691,0
1582218256.710,42.969,34.180,30.762,11.719,27090
1582218256.714,9.277,36.621,40.527,7.324,0
1582218256.718,-3.906,34.180,26.855,15.137,0
1582218256.722,17.578,20.996,20.508,19.531,0
1582218256.726,37.109,18.555,19.043,18.066,0
1582218256.743,34.668,29.785,28.809,24.902,0
1582218256.747,13.672,30.273,31.738,26.367,0
1582218256.751,13.184,18.555,43.945,14.648,0
1582218256.755,29.785,17.090,47.363,4.395,0
1582218256.759,35.156,27.344,24.414,11.719,0
1582218256.763,15.137,29.785,12.695,29.297,0
1582218256.767,13.672,15.137,23.926,29.297,0
1582218256.770,29.785,-0.977,33.203,19.043,0
1582218256.774,31.250,11.719,23.926,12.695,0
1582218256.778,11.719,41.992,37.109,17.578,0
1582218256.782,-4.395,51.758,28.320,19.531,0
1582218256.786,8.301,23.438,28.320,0.488,0
1582218256.788,18.066,20.996,22.949,-5.371,0
1582218256.792,8.789,14.648,10.254,15.625,0
1582218256.796,6.348,12.207,37.109,26.367,0
1582218256.800,14.160,33.691,41.016,19.531,0
1582218256.804,20.996,31.250,28.320,6.348,0
1582218256.808,19.531,31.250,38.574,17.090,0
1582218256.812,7.324,27.344,32.227,30.273,0
1582218256.815,10.742,15.625,27.832,27.832,0
1582218256.819,26.367,17.090,28.320,19.531,0
1582218256.823,28.809,5.371,13.184,16.113,0
1582218256.827,8.789,-3.418,15.137,23.926,0
1582218256.831,20.508,27.832,35.645,41.504,0
1582218256.833,42.480,44.922,40.039,34.668,0
1582218256.837,29.297,39.551,30.273,2.930,0
1582218256.841,12.207,43.457,13.184,4.395,0
1582218256.845,7.812,30.273,27.344,18.066,0
1582218256.849,27.832,12.207,41.504,17.578,0
1582218256.853,41.992,13.672,48.340,13.672,0
1582218256.857,34.180,29.297,57.617,19.531,0
1582218256.860,24.414,35.156,31.250,31.738,0
1582218256.864,28.320,46.875,6.836,30.762,0
1582218256.868,33.203,53.223,25.879,6.348,0
1582218256.872,26.367,48.828,38.574,-3.418,0
1582218256.876,16.602,30.762,43.457,15.137,0
1582218256.879,22.461,2.930,47.363,25.391,0
1582218256.883,42.969,22.949,38.574,25.391,0
1582218256.887,42.480,39.551,33.203,23.926,0
1582218256.891,14.160,20.996,10.254,29.297,0
1582218256.895,22.461,35.645,3.418,42.969,0
1582218256.899,44.434,48.828,39.551,29.785,0
1582218256.903,41.016,53.223,62.012,25.879,0
1582218256.906,17.578,49.805,32.227,40.527,0
1582218256.910,-5.371,13.184,25.879,33.691,0
1582218256.914,13.672,23.438,44.434,17.090,0
1582218256.918,23.438,38.574,34.180,6.836,0
1582218256.922,14.160,32.715,27.832,16.113,0
1582218256.924,0.000,21.973,35.156,30.762,0
1582218256.928,0.488,16.113,23.926,29.297,0
1582218256.932,28.320,13.672,16.602,22.461,0
1582218256.936,37.109,17.090,39.062,24.902,0
1582218256.940,17.578,16.113,32.715,41.016,0
1582218256.944,12.695,23.926,3.906,38.086,0
1582218256.948,29.785,41.016,18.066,14.160,0
1582218256.951,25.879,50.293,39.551,3.418,0
1582218256.955,17.090,31.250,34.180,16.113,0
1582218256.959,31.738,19.043,41.504,33.203,0
1582218256.963,34.668,31.738,31.250,18.066,0
1582218256.967,27.832,21.484,29.297,2.930,0
1582218256.969,22.949,6.348,42.480,26.367,0
1582218256.973,19.043,30.273,37.109,46.875,0
1582218256.977,15.625,53.711,6.348,34.668,0
1582218256.981,28.320,42.480,8.789,19.043,0
1582218256.985,27.344,43.457,35.156,21.484,0
1582218256.989,11.230,43.457,42.969,32.715,0
1582218256.993,26.367,24.902,18.555,36.133,0
1582218256.996,50.781,14.648,-1.465,31.250,0
1582218257.000,48.828,14.648,20.020,36.621,0
1582218257.004,32.227,22.461,25.391,39.062,0
1582218257.008,20.508,16.602,18.066,30.762,0
1582218257.012,26.855,32.227,29.297,17.090,0
1582218257.014,30.273,41.992,42.480,10.254,0
1582218257.018,20.508,10.254,19.043,24.414,0
1582218257.022,19.043,18.066,-11.719,35.645,0
1582218257.026,36.133,33.203,21.973,33.203,0
1582218257.030,41.016,20.508,34.668,21.973,0
1582218257.034,19.531,34.180,22.949,21.484,0
1582218257.038,7.324,45.898,15.137,30.273,0
1582218257.041,25.879,45.898,21.484,26.367,0
1582218257.045,45.898,32.715,57.129,20.996,0
1582218257.049,22.949,31.738,38.574,19.531,0
1582218257.053,-8.301,23.438,-0.977,21.484,0
1582218257.057,-2.930,4.395,2.441,13.184,0
1582218257.059,23.438,15.625,20.996,3.418,0
1582218257.063,27.832,51.270,20.996,7.812,0
1582218257.067,18.555,61.035,6.836,25.879,0
1582218257.071,11.719,39.551,14.160,31.250,0
1582218257.075,27.344,24.902,43.457,11.719,0
1582218257.079,29.297,-1.953,52.734,0.977,0
1582218257.083,18.555,6.348,34.180,24.902,0
1582218257.086,27.832,42.969,9.766,44.434,0
1582218257.090,41.504,42.969,7.812,32.227,0
1582218257.094,37.109,33.203,7.324,12.207,0
1582218257.098,15.137,39.551,2.930,17.090,0
1582218257.102,9.766,41.016,17.578,35.645,0
1582218257.119,34.180,18.066,33.691,43.457,0
1582218257.123,53.711,0.977,39.062,29.297,0
1582218257.127,40.527,11.230,46.387,27.344,0
1582218257.131,16.602,22.461,37.598,36.133,0
1582218257.135,20.508,33.691,26.855,30.273,0
1582218257.139,42.480,42.969,-6.836,23.926,0
1582218257.143,41.504,39.551,-29.297,24.414,0
1582218257.146,27.832,47.363,-4.395,35.156,0
1582218257.150,22.461,49.805,25.879,42.480,0
1582218257.154,35.156,37.598,61.035,31.738,0
1582218257.158,41.992,38.086,69.336,20.996,0
1582218257.162,21.973,33.691,52.734,20.020,0
1582218257.164,9.766,51.758,14.160,29.297,0
1582218257.168,10.742,38.086,0.488,19.043,0
1582218257.172,23.438,6.836,1.465,-0.488,0
1582218257.176,23.926,32.715,15.625,7.812,0
1582218257.180,13.184,51.758,41.504,23.926,0
1582218257.184,22.461,45.410,47.363,27.832,0
1582218257.188,31.738,41.992,38.574,5.859,0
1582218257.191,20.508,51.758,35.645,-5.371,0
1582218257.195,11.719,60.059,37.109,15.625,0
1582218257.199,5.859,50.781,18.066,14.160,0
1582218257.203,10.742,42.969,25.879,-10.742,0
1582218257.207,20.996,45.898,40.527,-4.395,0
1582218257.209,1.465,38.574,30.273,5.859,0
1582218257.213,-9.766,28.809,22.461,3.906,0
1582218257.217,15.625,38.086,18.555,0.977,0
1582218257.221,20.996,42.480,12.207,-16.113,0
1582218257.225,-6.836,34.668,25.391,-18.555,0
1582218257.229,-24.414,35.645,33.203,-10.742,0
1582218257.233,-27.832,37.109,39.062,-16.113,0
1582218257.236,-20.996,36.133,44.922,-33.203,0
1582218257.240,-40.039,38.574,41.992,-45.410,0
1582218257.244,-76.172,35.645,54.199,-41.016,0
1582218257.248,-70.312,34.180,67.383,-47.852,0
1582218257.252,-60.059,29.297,62.988,-73.730,0
1582218257.254,-82.520,17.578,15.625,-88.379,0
1582218257.258,-104.492,24.902,-8.301,-76.172,0
1582218257.262,-117.676,33.203,42.969,-74.219,0
1582218257.266,-109.863,29.785,99.609,-94.727,0
1582218257.270,-101.562,19.531,118.164,-105.469,0
1582218257.274,-129.883,25.879,122.559,-101.562,0
1582218257.278,-139.160,36.133,112.793,-88.867,0
1582218257.281,-112.793,35.645,78.125,-87.402,0
1582218257.285,-100.586,35.645,80.566,-109.375,0
1582218257.289,-107.422,14.160,77.148,-106.934,0
1582218257.293,-116.211,5.371,78.125,-85.449,0
1582218257.297,-105.469,17.090,100.098,-84.473,0
1582218257.299,-82.031,37.598,101.074,-89.844,0
1582218257.303,-77.637,41.504,92.773,-80.566,0
1582218257.307,-82.031,22.461,64.453,-53.223,0
1582218257.311,-77.148,34.668,43.945,-41.016,0
1582218257.315,-53.223,55.176,61.523,-48.828,0
1582218257.319,-34.180,59.570,70.801,-33.203,0
1582218257.323,-48.340,31.738,65.918,-19.043,0
1582218257.326,-41.016,21.973,76.172,-0.977,0
1582218257.330,-9.766,42.969,69.824,10.742,0
1582218257.334,10.254,41.016,32.715,-2.930,0
1582218257.338,7.812,6.836,8.301,11.230,0
1582218257.342,14.160,5.859,25.879,35.156,0
1582218257.344,37.598,20.508,40.039,32.227,0
1582218257.348,33.691,24.414,42.480,18.555,0
1582218257.352,29.297,28.320,36.133,30.762,0
1582218257.356,39.062,23.438,31.738,53.711,0
1582218257.360,47.852,37.598,25.391,42.969,0
1582218257.364,56.152,38.574,8.789,20.020,0
1582218257.368,55.176,20.020,-7.812,26.855,0
1582218257.371,40.039,13.672,-10.742,47.363,0
1582218257.375,45.898,17.578,18.555,50.293,0
1582218257.379,63.477,19.531,30.762,33.691,0
1582218257.383,63.965,23.926,5.371,39.062,0
1582218257.387,67.871,29.785,1.465,65.430,0
1582218257.389,60.547,29.785,4.883,69.824,0
1582218257.393,63.965,26.855,-5.371,53.223,0
1582218257.397,86.426,35.645,8.301,45.898,0
1582218257.401,80.078,34.180,19.043,67.871,0
1582218257.405,61.035,14.648,21.484,86.914,0
1582218257.409,66.406,11.230,15.137,76.172,0
1582218257.413,79.102,38.086,9.277,67.383,0
1582218257.416,70.312,50.293,14.648,68.848,0
1582218257.420,55.664,27.344,20.508,79.102,0
1582218257.424,56.152,26.855,10.254,79.590,0
1582218257.428,81.055,29.785,9.277,64.453,0
1582218257.432,76.172,24.902,4.883,51.758,0
1582218257.434,50.781,40.527,15.137,58.105,0
1582218257.438,59.082,31.738,24.414,73.730,0
1582218257.442,73.730,25.391,1.953,65.430,0
1582218257.446,62.012,38.086,0.000,53.711,0
1582218257.450,43.945,34.668,12.695,68.848,0
1582218257.454,43.457,18.555,10.742,74.219,0
1582218257.458,50.781,16.113,12.207,56.641,0
1582218257.461,53.711,38.086,19.043,41.504,0
1582218257.465,55.176,36.621,6.836,50.781,0
1582218257.469,47.852,16.602,-3.418,63.965,0
1582218257.473,49.316,20.020,21.973,41.992,0
1582218257.477,75.195,38.086,48.340,40.527,0
1582218257.494,61.035,31.250,38.574,58.105,0
1582218257.498,31.738,15.625,3.418,62.500,0
1582218257.502,39.551,26.855,-4.883,68.359,0
1582218257.506,52.246,38.574,18.066,46.387,0
1582218257.510,37.598,40.527,33.203,29.297,0
1582218257.514,20.508,20.020,49.316,44.434,0
1582218257.518,31.250,13.672,55.176,52.246,0
1582218257.521,38.574,27.832,31.250,32.227,0
1582218257.525,45.410,24.902,33.203,28.809,0
1582218257.529,37.598,42.480,22.949,50.293,0
1582218257.533,29.785,43.457,-20.996,48.828,0
1582218257.537,28.320,16.113,-2.441,20.020,0
1582218257.539,22.461,15.625,47.363,5.371,0
1582218257.543,10.254,29.785,70.801,17.578,0
1582218257.547,-5.371,3.418,49.805,31.250,0
1582218257.551,14.648,-13.184,34.180,39.551,0
1582218257.555,37.109,29.297,31.738,6.836,0
1582218257.559,18.066,48.340,-4.395,-17.090,0
1582218257.563,5.859,36.621,-12.695,-0.488,0
1582218257.566,22.461,38.574,11.230,6.348,0
1582218257.570,50.781,46.875,-39.062,10.254,0
1582218257.574,50.781,42.969,-48.828,13.672,0
1582218257.578,19.043,17.578,10.254,17.578,0
1582218257.582,7.324,14.648,22.461,18.555,0
1582218257.584,15.625,41.504,28.320,-2.441,0
1582218257.588,19.043,37.598,33.691,-17.578,0
1582218257.592,10.254,14.160,28.809,-3.906,0
1582218257.596,6.836,14.160,17.578,14.648,0
1582218257.600,22.461,19.531,3.906,8.789,0
1582218257.604,33.691,34.180,-1.465,4.883,0
1582218257.608,10.254,41.016,2.441,10.254,0
1582218257.611,17.090,24.902,27.344,20.020,0
1582218257.615,37.598,10.254,32.227,25.391,0
1582218257.619,32.715,19.043,16.602,4.395,0
1582218257.623,26.855,37.109,24.414,2.930,0
1582218257.627,25.391,43.945,19.531,25.879,0
1582218257.629,29.785,32.227,24.902,24.902,0
1582218257.633,43.945,12.695,25.391,9.766,0
1582218257.637,41.504,8.789,0.488,-5.371,0
1582218257.641,25.391,20.020,16.602,5.859,0
1582218257.645,15.625,42.480,34.180,14.648,0
1582218257.649,35.156,44.922,36.133,5.859,0
1582218257.653,50.293,24.414,51.270,-1.465,0
1582218257.656,16.602,0.000,45.898,-3.906,0
1582218257.660,0.488,28.809,-6.348,11.230,0
1582218257.664,16.113,41.016,-25.391,8.789,0
1582218257.668,26.367,9.766,22.461,-3.418,0
1582218257.672,7.324,22.461,46.875,7.812,0
1582218257.674,-6.348,42.480,52.246,16.113,0
1582218257.678,13.672,30.762,45.410,11.230,0
1582218257.682,37.109,14.648,39.551,7.324,0
1582218257.686,34.668,4.395,36.133,8.301,0
1582218257.690,13.184,14.648,27.832,16.602,0
1582218257.694,11.230,38.574,21.484,21.484,0
1582218257.698,37.598,49.805,11.230,24.902,0
1582218257.701,48.340,41.992,16.602,18.066,0
1582218257.705,17.578,26.367,51.270,20.508,0
1582218257.709,13.672,26.367,61.523,35.156,0
1582218257.713,35.156,27.344,40.527,30.762,0
1582218257.717,43.457,11.230,38.086,11.230,0
1582218257.719,24.414,0.977,26.367,5.859,0
1582218257.723,13.184,26.367,6.348,20.996,0
1582218257.727,13.672,52.734,12.207,21.973,0
1582218257.731,15.625,28.320,11.719,-3.418,0
1582218257.735,10.254,22.461,33.691,-13.184,0
1582218257.739,-8.301,38.086,50.293,16.602,0
1582218257.743,20.996,47.363,25.879,36.621,0
1582218257.746,36.621,41.504,30.762,13.184,0
1582218257.750,3.906,16.113,42.480,-3.418,0
1582218257.754,-8.789,8.789,38.086,20.020,0
1582218257.758,13.184,3.418,18.555,33.691,0
1582218257.762,29.297,5.371,1.465,20.996,0
1582218257.763,20.508,22.461,20.508,6.836,0
1582218257.767,18.066,41.016,33.203,15.625,0
1582218257.771,5.371,44.922,28.809,25.391,0
1582218257.775,8.789,25.879,38.086,18.066,0
1582218257.779,46.875,21.973,38.574,13.672,0
1582218257.783,42.969,22.949,12.207,22.461,0
1582218257.787,16.602,7.812,3.906,26.367,0
1582218257.790,20.508,4.883,14.648,25.391,0
1582218257.794,30.273,4.883,12.695,11.230,0
1582218257.798,17.090,16.602,20.508,-0.488,0
1582218257.802,-1.953,32.715,39.062,11.230,0
1582218257.806,5.859,26.367,44.922,14.160,0
1582218257.808,28.320,22.949,22.461,9.766,0
1582218257.812,26.855,31.250,8.301,10.742,0
1582218257.816,22.949,35.645,34.180,32.715,0
1582218257.820,26.855,15.625,20.508,42.969,0
1582218257.824,24.414,1.953,3.906,5.371,0
1582218257.828,29.297,16.602,32.227,-1.465,0
1582218257.832,18.066,25.879,39.062,10.254,0
1582218257.835,6.836,28.809,18.555,13.672,0
1582218257.839,22.949,17.578,-2.441,15.625,0
1582218257.843,40.527,24.902,9.766,6.348,0
1582218257.847,39.551,48.828,37.598,19.043,0
1582218257.851,28.320,47.852,33.203,40.527,0
1582218257.868,30.273,20.508,1.465,40.527,0
1582218257.872,47.852,25.879,9.766,25.879,0
1582218257.876,38.086,37.109,35.645,20.020,0
1582218257.880,20.508,23.438,23.438,37.109,0
1582218257.884,22.949,20.508,4.395,46.387,0
1582218257.888,35.156,26.367,5.859,41.992,0
1582218257.892,36.133,20.020,38.086,25.391,0
1582218257.895,7.324,18.555,51.270,20.508,0
1582218257.899,-3.906,31.738,39.551,26.367,0
1582218257.903,16.602,23.926,45.410,21.484,0
1582218257.907,26.367,21.973,20.020,8.789,0
1582218257.911,8.301,33.203,0.000,1.465,0
1582218257.913,1.465,30.273,28.809,15.625,0
1582218257.917,17.578,18.066,31.250,21.484,17040
1582218257.921,32.227,36.133,40.527,6.348,0
1582218257.925,32.227,51.758,47.363,15.137,0
1582218257.929,21.973,20.996,30.762,35.156,0
1582218257.933,32.227,7.812,37.598,38.086,0
1582218257.937,38.574,21.973,35.156,19.043,0
1582218257.940,20.020,24.414,18.066,0.488,0
1582218257.944,2.441,24.902,13.672,16.602,0
1582218257.948,-2.930,36.621,28.809,20.996,0
1582218257.952,13.672,54.199,46.875,10.254,0
1582218257.956,21.484,49.805,41.504,11.230,0
1582218257.958,11.230,32.715,23.438,23.438,0
1582218257.962,9.766,6.348,-4.883,42.480,0
1582218257.966,22.461,2.441,-9.277,32.715,0
1582218257.970,34.180,28.809,-1.465,20.996,0
1582218257.974,23.438,34.668,19.043,35.645,0
1582218257.978,3.418,40.039,40.527,46.387,0
1582218257.982,12.695,48.340,18.555,36.133,0
1582218257.985,23.438,36.621,7.812,6.348,0
1582218257.989,7.812,20.508,15.137,-4.395,0
1582218257.993,-12.695,11.719,27.832,11.719,0
1582218257.997,3.418,25.391,31.250,26.367,0
1582218258.001,35.156,36.133,-5.859,26.855,0
1582218258.003,38.086,36.133,4.395,19.531,0
1582218258.007,18.555,38.574,38.086,28.320,0
1582218258.011,8.301,35.156,25.391,25.391,0
1582218258.015,31.738,37.598,20.020,20.020,0
1582218258.019,39.551,27.832,29.297,20.508,0
1582218258.023,9.766,36.133,33.691,10.742,0
1582218258.027,-2.930,30.762,42.480,17.090,0
1582218258.030,7.324,15.137,14.160,16.602,0
1582218258.034,16.113,29.297,-2.441,-4.883,0
1582218258.038,15.625,44.922,18.066,3.906,0
1582218258.042,-0.977,33.203,20.508,14.160,0
1582218258.046,-1.953,26.367,9.277,5.371,0
1582218258.048,28.320,22.949,12.695,2.441,0
1582218258.052,33.691,14.648,32.227,7.812,0
1582218258.056,15.625,16.602,53.223,30.273,0
1582218258.060,23.926,8.301,50.781,39.551,0
1582218258.064,40.039,28.320,45.410,22.949,0
1582218258.068,28.809,62.500,23.926,16.113,0
1582218258.072,4.883,49.316,3.906,26.855,0
1582218258.075,0.488,36.133,20.996,36.621,0
1582218258.079,17.578,43.457,31.738,15.625,0
1582218258.083,19.531,42.480,11.719,-2.930,0
1582218258.087,9.277,20.020,9.766,9.766,0
1582218258.091,-1.465,-20.996,28.809,24.902,0
1582218258.094,13.672,4.395,27.832,21.973,0
1582218258.098,36.133,37.598,-0.977,12.207,0
1582218258.102,23.438,25.879,-2.930,19.531,0
1582218258.106,-3.418,34.668,45.898,20.996,0
1582218258.110,-5.371,38.086,42.480,7.324,0
1582218258.114,6.836,26.367,21.484,-11.719,0
1582218258.118,11.230,31.738,32.227,-13.672,0
1582218258.121,8.789,32.227,31.250,5.371,0
1582218258.125,5.859,11.719,20.996,15.625,0
1582218258.129,13.672,2.930,6.836,2.930,0
1582218258.133,22.949,4.395,8.789,2.441,0
1582218258.137,15.137,20.508,33.203,21.973,0
1582218258.139,10.254,44.922,21.973,32.715,0
1582218258.143,12.207,48.340,6.836,15.625,0
1582218258.147,4.395,22.461,37.109,7.324,0
1582218258.151,-4.883,22.949,44.922,22.461,0
1582218258.155,-8.789,36.133,38.574,20.508,0
1582218258.159,7.812,35.645,21.484,18.555,0
1582218258.163,30.762,36.133,4.883,18.066,0
1582218258.166,31.250,26.855,19.531,20.996,0
1582218258.170,29.297,16.602,51.758,38.086,0
1582218258.174,32.715,32.715,48.828,44.922,0
1582218258.178,35.645,25.391,-0.488,24.414,0
1582218258.182,22.949,13.672,-0.977,8.789,0
1582218258.184,6.348,37.598,29.297,28.809,0
1582218258.188,12.207,43.457,47.852,35.645,0
1582218258.192,31.250,29.785,51.758,12.207,0
1582218258.196,29.785,20.020,40.527,3.418,0
1582218258.200,6.348,23.926,16.113,12.207,0
1582218258.204,2.441,43.457,0.488,30.762,0
1582218258.208,15.625,13.672,16.113,24.902,0
1582218258.211,26.855,-15.137,27.344,3.906,0
1582218258.215,14.160,12.207,8.789,7.812,0
1582218258.219,-15.625,22.461,23.438,14.648,0
1582218258.223,-1.953,36.621,56.641,12.695,0
1582218258.227,25.879,53.223,45.410,9.277,0
1582218258.244,26.855,46.875,11.230,18.555,0
1582218258.248,12.695,30.762,-12.207,35.645,0
1582218258.252,12.207,0.977,11.230,31.250,0
1582218258.256,35.156,16.602,38.574,19.531,0
1582218258.260,36.621,23.438,40.039,22.949,0
1582218258.264,11.230,8.789,50.293,32.227,0
1582218258.268,-9.277,35.645,31.250,34.668,0
1582218258.271,0.000,41.992,-5.371,20.508,0
1582218258.275,14.648,28.809,4.883,8.301,0
1582218258.279,9.766,0.977,31.250,24.902,0
1582218258.283,0.488,-13.672,41.016,45.410,0
1582218258.287,5.371,18.066,22.461,32.715,0
1582218258.289,22.461,48.828,-0.977,22.461,0
1582218258.293,21.484,55.664,12.207,35.156,0
1582218258.297,9.277,39.062,43.457,44.922,0
1582218258.301,12.207,29.785,45.410,40.039,0
1582218258.305,23.438,27.344,26.367,29.297,0
1582218258.309,12.207,16.602,20.020,21.973,0
1582218258.313,-1.953,-3.906,44.922,33.203,0
1582218258.316,-0.488,7.812,46.387,35.156,0
1582218258.320,8.301,38.086,20.020,9.766,0
1582218258.324,7.812,49.316,19.531,-2.441,0
1582218258.328,-11.230,42.969,28.809,12.207,0
1582218258.332,-23.438,8.789,35.645,23.438,0
1582218258.334,0.000,13.184,35.645,20.020,0
1582218258.338,15.625,32.715,27.344,10.742,0
1582218258.342,9.766,-13.184,17.090,22.949,0
1582218258.346,10.742,-21.973,36.133,44.922,0
1582218258.350,22.949,15.625,32.227,44.434,0
1582218258.354,31.250,30.273,14.160,25.391,0
1582218258.358,16.602,41.992,27.832,15.625,0
1582218258.361,4.883,36.621,34.180,32.227,0
1582218258.365,13.672,29.785,38.086,34.180,0
1582218258.369,22.461,41.016,41.016,12.207,0
1582218258.373,29.785,14.648,41.992,7.324,0
1582218258.377,19.043,-25.391,18.066,31.250,0
1582218258.379,13.184,11.719,-5.859,39.062,0
1582218258.383,33.691,45.410,20.996,17.578,0
1582218258.387,38.086,46.387,47.852,6.836,0
1582218258.391,20.020,42.969,42.480,20.508,0
1582218258.395,18.555,43.457,37.109,32.227,0
1582218258.399,39.551,54.688,51.758,31.250,0
1582218258.403,53.223,45.898,47.852,25.391,0
1582218258.406,41.016,17.578,1.953,32.227,0
1582218258.410,28.320,10.254,-3.906,52.246,0
1582218258.414,39.062,17.090,41.504,42.480,0
1582218258.418,42.969,19.043,48.828,5.859,0
1582218258.422,19.531,34.668,11.230,-5.371,0
1582218258.424,-2.441,24.414,18.555,9.277,0
1582218258.428,2.930,4.883,46.875,13.672,0
1582218258.432,26.855,27.344,41.504,4.883,0
1582218258.436,37.598,31.250,23.438,13.184,0
1582218258.440,24.902,36.621,12.695,40.039,0
1582218258.444,9.277,61.523,37.598,39.062,0
1582218258.448,17.090,51.270,42.969,19.531,0
1582218258.451,25.391,41.016,21.973,8.789,0
1582218258.455,-0.977,18.066,4.883,9.766,0
1582218258.459,-16.602,-1.953,10.254,14.648,0
1582218258.463,5.859,16.602,47.363,11.230,0
1582218258.467,17.578,8.789,62.012,4.883,0
1582218258.469,20.996,9.277,47.363,14.648,0
1582218258.473,21.973,29.785,35.156,31.250,0
1582218258.477,34.180,43.945,45.898,34.668,0
1582218258.481,57.129,32.227,37.109,29.785,0
1582218258.485,33.691,9.277,28.809,7.812,0
1582218258.489,4.883,34.180,26.367,5.371,0
1582218258.493,23.926,47.852,0.000,26.855,0
1582218258.496,33.691,24.902,7.812,14.160,0
1582218258.500,18.066,34.668,31.250,-5.859,0
1582218258.504,7.812,56.152,46.875,10.742,0
1582218258.508,0.000,25.391,53.223,13.672,0
1582218258.512,9.277,3.418,37.598,-3.418,0
1582218258.514,22.949,35.156,23.438,-1.953,0
1582218258.518,-0.488,44.434,10.742,7.812,0
1582218258.522,-11.230,33.691,-3.418,12.695,0
1582218258.526,17.090,35.645,-4.883,9.766,0
1582218258.530,23.438,26.855,29.297,-6.836,0
1582218258.534,1.465,7.324,45.898,-5.371,0
1582218258.538,-2.441,7.324,38.086,27.832,0
1582218258.541,20.020,20.996,31.738,37.109,0
1582218258.545,29.785,33.203,32.227,15.625,0
1582218258.549,13.184,41.016,19.531,8.789,0
1582218258.553,-10.254,44.434,4.883,19.531,0
1582218258.557,-14.160,38.574,4.883,10.254,0
1582218258.559,3.418,9.766,33.203,-11.230,0
1582218258.563,11.719,0.977,48.828,-9.766,0
1582218258.567,15.625,39.551,28.320,8.301,0
1582218258.571,12.207,43.457,18.066,17.090,0
1582218258.575,20.508,23.926,22.461,14.648,0
1582218258.579,32.227,16.113,19.531,5.371,0
1582218258.583,14.160,21.973,29.297,8.301,0
1582218258.586,-14.160,16.113,43.945,16.113,0
1582218258.590,-3.418,-5.371,50.781,7.324,0
1582218258.594,24.414,11.719,44.434,-3.418,0
1582218258.598,20.020,45.898,17.578,-0.977,0
1582218258.602,7.324,41.016,12.695,10.742,0
1582218258.619,17.578,26.367,2.930,19.043,0
1582218258.623,33.203,26.855,-14.160,8.789,0
1582218258.627,27.344,34.180,6.348,-3.906,0
1582218258.631,10.742,29.785,51.758,-0.488,0
1582218258.635,9.277,18.555,58.105,14.160,0
1582218258.639,15.137,22.461,35.645,3.418,0
1582218258.643,16.113,24.414,40.039,-11.719,0
1582218258.646,13.184,24.414,33.203,10.254,0
1582218258.650,6.836,17.090,20.020,18.066,0
1582218258.654,16.113,21.484,21.484,9.766,0
1582218258.658,36.621,40.039,31.738,12.695,0
1582218258.662,25.879,33.203,37.598,19.043,0
1582218258.664,5.371,35.156,27.344,30.273,0
1582218258.668,12.207,44.922,21.484,19.043,0
1582218258.672,33.691,50.781,21.973,10.742,0
1582218258.676,39.551,36.621,33.691,21.973,0
1582218258.680,10.254,11.230,44.434,17.578,0
1582218258.684,-3.418,18.555,41.992,16.113,0
1582218258.688,12.207,35.156,41.992,3.906,0
1582218258.691,19.531,32.227,43.457,-0.977,0
1582218258.695,4.395,4.395,30.762,19.531,0
1582218258.699,-0.977,12.207,9.277,30.273,0
1582218258.703,40.039,29.785,-2.930,39.062,0
1582218258.707,46.387,32.715,20.508,30.273,0
1582218258.709,5.371,48.340,51.270,11.230,0
1582218258.713,-0.488,36.133,69.336,20.508,0
1582218258.717,18.066,39.551,49.805,23.926,0
1582218258.721,37.109,46.387,10.742,8.789,0
1582218258.725,31.250,21.484,23.438,2.930,0
1582218258.729,7.812,23.926,24.902,16.602,0
1582218258.733,1.953,39.062,13.184,14.648,0
1582218258.736,18.555,33.691,38.086,-2.930,0
1582218258.740,26.855,15.137,30.273,5.371,0
1582218258.744,9.277,18.066,20.996,11.719,0
1582218258.748,2.930,25.391,49.805,9.277,0
1582218258.752,22.461,30.762,40.527,0.488,0
1582218258.754,20.020,20.508,14.160,-11.230,0
1582218258.758,-1.953,16.602,24.414,2.930,0
1582218258.762,-5.371,9.277,29.785,14.160,0
1582218258.766,17.578,14.648,25.391,20.996,0
1582218258.770,16.113,38.574,26.855,1.953,0
1582218258.774,-6.348,26.367,23.926,-5.371,0
1582218258.778,-11.230,17.578,41.016,14.160,0
1582218258.781,5.859,33.691,62.012,3.906,0
1582218258.785,26.855,36.621,31.250,0.977,0
1582218258.789,12.695,28.809,12.695,2.930,0
1582218258.793,-13.672,21.973,22.949,-1.465,0
1582218258.797,-6.348,14.648,31.250,8.301,0
1582218258.799,19.531,7.324,37.598,-1.953,0
1582218258.803,25.879,26.367,32.227,-2.441,0
1582218258.807,4.883,51.270,41.504,17.090,0
1582218258.811,7.324,19.531,47.363,26.367,0
1582218258.815,32.715,-6.348,29.297,17.578,0
1582218258.819,25.879,2.930,21.484,3.906,0
1582218258.823,3.418,5.859,20.508,6.836,0
1582218258.826,3.906,41.992,39.551,28.809,0
1582218258.830,18.555,60.059,55.176,26.855,0
1582218258.834,18.555,36.133,52.246,-4.883,0
1582218258.838,-1.953,16.602,37.109,-4.395,0
1582218258.842,-6.348,22.461,23.926,21.484,0
1582218258.844,7.324,16.602,34.180,20.020,0
1582218258.848,12.695,9.277,29.785,-0.977,0
1582218258.852,0.000,17.578,23.438,1.953,0
1582218258.856,-12.207,11.230,31.738,13.672,0
1582218258.860,-7.324,34.180,29.785,13.184,0
1582218258.864,-1.465,44.922,35.156,-4.395,0
1582218258.868,5.859,26.855,29.297,-4.395,0
1582218258.871,0.488,21.484,-3.418,15.137,0
1582218258.875,-4.883,23.438,0.000,19.043,0
1582218258.879,14.648,25.879,46.387,12.695,0
1582218258.883,35.645,30.762,58.594,8.789,0
1582218258.887,27.344,20.020,30.762,21.484,0
1582218258.888,8.789,11.719,13.184,24.902,0
1582218258.892,17.578,22.461,29.297,6.836,0
1582218258.896,30.273,37.598,24.414,-1.953,0
1582218258.900,18.066,36.133,20.020,5.859,0
1582218258.904,9.766,38.574,47.363,21.973,0
1582218258.908,18.066,42.969,54.688,29.785,0
1582218258.912,27.832,42.969,36.133,19.043,0
1582218258.915,26.855,38.086,9.277,31.738,0
1582218258.919,7.324,21.484,21.484,44.922,0
1582218258.923,12.207,15.137,20.020,40.527,0
1582218258.927,37.598,-0.488,-5.859,30.762,0
1582218258.931,27.344,3.418,20.020,16.602,0
1582218258.933,-7.324,33.691,58.594,26.855,0
1582218258.937,-14.648,44.434,41.992,25.391,0
1582218258.941,-8.301,45.898,19.043,4.395,0
1582218258.945,-1.953,34.668,27.832,-5.371,0
1582218258.949,0.488,30.273,26.855,7.324,0
1582218258.953,-7.324,23.926,24.902,25.879,0
1582218258.957,6.348,19.043,32.227,16.113,0
1582218258.960,23.926,20.020,24.414,0.000,0
1582218258.964,22.461,12.207,-4.883,13.672,0
1582218258.968,7.812,13.184,0.000,23.438,0
1582218258.972,9.277,34.180,30.762,20.508,0
1582218258.976,35.645,56.152,45.410,20.508,0
1582218258.993,31.738,43.945,50.293,15.625,0
1582218258.997,-1.953,38.086,40.527,11.230,0
1582218259.001,2.930,30.762,30.273,14.160,0
1582218259.005,31.250,16.113,14.160,14.648,0
1582218259.009,33.203,21.973,25.391,4.395,0
1582218259.013,8.301,30.273,34.668,17.090,0
1582218259.017,-4.395,34.668,24.414,25.391,0
1582218259.020,10.254,30.762,32.715,16.602,0
1582218259.024,29.785,50.293,41.992,17.090,0
1582218259.028,19.531,45.410,23.438,25.391,0
1582218259.032,7.812,24.414,14.160,44.434,0
1582218259.036,17.090,29.785,35.156,36.133,0
1582218259.039,26.367,32.227,33.203,11.719,0
1582218259.043,19.043,31.250,28.809,13.672,0
1582218259.047,5.859,42.969,42.480,27.344,0
1582218259.051,15.137,41.992,42.480,31.250,0
1582218259.055,27.832,45.898,16.602,12.207,0
1582218259.059,23.438,40.527,-0.488,-3.418,0
1582218259.063,11.230,12.207,21.484,19.531,0
1582218259.066,15.625,19.043,54.199,39.062,0
1582218259.070,38.086,29.297,35.156,30.273,0
1582218259.074,29.785,15.137,3.906,7.812,0
1582218259.078,2.930,26.855,16.602,5.859,0
1582218259.082,-6.348,57.617,22.461,17.578,18501
1582218259.083,9.766,51.270,23.438,16.113,0
1582218259.087,31.738,17.578,34.668,9.766,0
1582218259.091,32.715,10.742,41.992,19.043,0
1582218259.095,33.203,13.184,45.410,45.898,0
1582218259.099,31.738,15.625,24.902,43.945,0
1582218259.103,22.461,22.949,1.465,15.137,0
1582218259.107,16.113,33.203,25.391,11.230,0
1582218259.110,1.953,27.832,28.809,26.367,0
1582218259.114,-3.418,9.277,14.648,21.484,0
1582218259.118,14.648,24.902,41.992,15.137,0
1582218259.122,24.414,57.129,68.848,14.160,0
1582218259.126,9.277,36.621,48.340,20.020,0
1582218259.128,7.324,21.484,14.648,27.832,0
1582218259.132,28.320,46.875,18.066,16.113,0
1582218259.136,37.598,44.434,30.273,8.789,0
1582218259.140,36.621,17.090,22.949,29.785,0
1582218259.144,20.996,1.465,29.297,36.133,0
1582218259.148,12.207,20.508,41.992,8.789,0
1582218259.152,22.949,31.250,46.387,-4.883,0
1582218259.155,23.926,25.879,33.203,12.695,0
1582218259.159,19.043,42.480,23.926,32.227,0
1582218259.163,24.902,47.852,18.066,30.273,0
1582218259.167,42.969,33.203,24.902,19.043,0
1582218259.171,24.902,21.973,15.137,6.348,0
1582218259.173,7.324,20.996,19.531,22.461,0
1582218259.177,12.695,30.762,29.785,30.762,0
1582218259.181,20.508,61.035,16.602,12.207,0
1582218259.185,25.879,48.340,40.039,3.418,0
1582218259.189,5.859,18.066,61.035,1.465,0
1582218259.193,4.883,20.508,39.062,18.066,0
1582218259.197,25.879,16.602,4.883,20.508,0
1582218259.200,31.738,18.066,0.488,5.371,0
1582218259.204,5.859,20.996,19.043,0.000,0
1582218259.208,-6.348,22.949,20.508,10.742,0
1582218259.212,11.230,34.668,9.277,15.625,0
1582218259.216,26.855,36.133,27.344,9.766,0
1582218259.218,27.832,31.738,20.508,19.531,0
1582218259.222,13.184,12.695,4.883,20.996,0
1582218259.226,9.766,-16.602,29.297,14.160,0
1582218259.230,23.926,-6.836,52.246,5.371,0
1582218259.234,17.578,30.762,44.922,-8.789,0
1582218259.238,11.230,43.945,21.973,9.766,0
