timestamps,TP9,AF7,AF8,TP10,Marker0
1582146984.912,-229.492,-86.426,-1000.000,-27.832,0
1582146984.916,-245.117,-114.258,999.512,4.395,0
1582146984.920,-261.230,-122.070,999.512,7.324,0
1582146984.924,-278.809,-122.070,999.512,-39.551,0
1582146984.928,-269.531,-144.043,999.512,-44.434,0
1582146984.932,-267.090,-183.594,999.512,-64.941,0
1582146984.936,-312.012,-220.215,999.512,-82.520,0
1582146984.939,-332.520,-187.500,999.512,-52.734,0
1582146984.943,-349.609,-158.691,999.512,-63.965,0
1582146984.947,-322.266,-191.406,999.512,-83.496,0
1582146984.951,-291.992,-203.613,999.512,-95.215,0
1582146984.955,-324.707,-192.383,999.512,-123.047,0
1582146984.972,-354.492,-196.777,999.512,-120.605,0
1582146984.976,-341.797,-228.516,999.512,-99.121,0
1582146984.980,-322.754,-214.355,999.512,-84.473,0
1582146984.984,-307.617,-192.383,999.512,-92.773,0
1582146984.988,-278.809,-207.520,999.512,-74.707,0
1582146984.992,-282.715,-275.879,999.512,-21.973,0
1582146984.996,-268.066,-273.438,999.512,-13.184,0
1582146984.999,-245.605,-191.895,999.512,-18.066,0
1582146985.003,-252.441,-212.891,999.512,-0.488,0
1582146985.007,-240.234,-267.578,999.512,5.859,0
1582146985.011,-236.816,-244.141,999.512,24.902,0
1582146985.015,-208.008,-202.148,999.512,39.062,0
1582146985.017,-184.570,-224.121,999.512,31.738,0
1582146985.021,-195.312,-240.234,999.512,41.016,0
1582146985.025,-194.336,-229.492,999.512,38.574,0
1582146985.029,-196.289,-237.793,999.512,-9.766,0
1582146985.033,-179.688,-261.719,999.512,-52.734,0
1582146985.037,-179.199,-283.691,999.512,-78.613,0
1582146985.041,-176.758,-276.367,999.512,-97.168,0
1582146985.044,-141.113,-239.258,999.512,-134.277,0
1582146985.048,-82.031,-229.980,999.512,-139.648,0
1582146985.052,-94.238,-274.902,999.512,-157.715,0
1582146985.056,-144.531,-220.703,999.512,-204.102,0
1582146985.060,-114.746,-197.266,999.512,-174.316,0
1582146985.062,-92.285,-249.512,999.512,-147.461,0
1582146985.066,-125.488,-239.746,999.512,-156.250,0
1582146985.070,-132.324,-209.473,999.512,-146.973,0
1582146985.074,-116.699,-212.891,999.512,-157.227,0
1582146985.078,-96.191,-227.051,999.512,-175.781,0
1582146985.082,-121.582,-228.516,999.512,-181.641,0
1582146985.086,-142.090,-197.754,999.512,-214.844,0
1582146985.089,-131.836,-152.832,999.512,-229.492,0
1582146985.093,-131.836,-181.641,999.512,-223.633,0
1582146985.097,-185.547,-166.016,999.512,-279.297,0
1582146985.101,-240.234,-75.195,999.512,-339.844,0
1582146985.105,-267.090,-93.750,999.512,-324.707,0
1582146985.107,-265.137,-109.375,999.512,-333.008,0
1582146985.111,-247.070,-95.703,999.512,-389.648,0
1582146985.115,-248.047,-75.195,999.512,-361.328,0
1582146985.119,-233.887,-90.820,999.512,-332.520,0
1582146985.123,-220.215,-109.863,999.512,-342.285,0
1582146985.127,-213.379,-109.863,999.512,-315.430,0
1582146985.131,-194.824,-103.516,999.512,-291.504,0
1582146985.134,-164.062,-95.703,999.512,-263.672,0
1582146985.138,-150.879,-127.930,999.512,-222.656,0
1582146985.142,-133.789,-73.730,999.512,-171.387,0
1582146985.146,-131.348,-39.062,999.512,-164.062,0
1582146985.150,-127.441,-111.816,999.512,-150.391,0
1582146985.152,-108.887,-155.762,999.512,-130.371,0
1582146985.156,-84.473,-138.184,999.512,-100.098,0
1582146985.160,-63.477,-124.512,999.512,-72.754,0
1582146985.164,-70.312,-141.113,999.512,-41.016,0
1582146985.168,-48.828,-168.945,999.512,-25.391,0
1582146985.172,-22.949,-188.477,999.512,-43.945,0
1582146985.176,-34.180,-178.711,999.512,-58.105,0
1582146985.179,-30.273,-208.984,999.512,-58.594,0
1582146985.183,-15.137,-216.309,999.512,-47.852,0
1582146985.187,-21.973,-146.484,999.512,-52.734,0
1582146985.191,-21.484,-162.109,999.512,-40.527,0
1582146985.195,-12.207,-190.918,999.512,-23.926,0
1582146985.197,-19.531,-207.520,999.512,-40.039,0
1582146985.201,-8.789,-199.219,999.512,-35.645,0
1582146985.205,43.457,-200.195,999.512,-31.250,0
1582146985.209,34.180,-211.914,999.512,-52.734,0
1582146985.213,-18.066,-222.656,999.512,-45.898,0
1582146985.217,-39.062,-223.633,999.512,-27.344,0
1582146985.221,-26.855,-208.008,999.512,-48.828,0
1582146985.224,1.953,-222.656,999.512,-71.289,0
1582146985.228,5.371,-192.383,999.512,-73.730,0
1582146985.232,-0.488,-165.527,999.512,-64.941,0
1582146985.236,15.625,-221.191,999.512,-48.828,0
1582146985.240,2.441,-238.770,999.512,-80.566,0
1582146985.242,-39.062,-216.797,999.512,-125.977,0
1582146985.246,-59.570,-217.285,999.512,-145.996,0
1582146985.250,-66.895,-251.465,999.512,-168.457,0
1582146985.254,-47.852,-275.879,999.512,-169.434,0
1582146985.258,-51.758,-240.234,999.512,-162.598,0
1582146985.262,-67.871,-256.836,999.512,-167.969,0
1582146985.266,-86.426,-324.219,999.512,-175.293,0
1582146985.269,-110.352,-315.918,999.512,-187.500,0
1582146985.273,-107.910,-270.020,999.512,-192.871,0
1582146985.277,-125.000,-293.457,999.512,-173.828,0
1582146985.281,-117.188,-324.707,999.512,-195.312,0
1582146985.285,-100.098,-341.797,999.512,-218.262,0
1582146985.287,-105.957,-358.887,999.512,-246.094,0
1582146985.291,-109.863,-377.930,999.512,-269.043,0
1582146985.295,-119.141,-410.156,999.512,-286.133,0
1582146985.299,-110.840,-429.199,999.512,-320.312,0
1582146985.303,-133.301,-422.852,999.512,-336.426,0
1582146985.307,-146.973,-476.074,999.512,-330.078,0
1582146985.311,-90.820,-488.770,999.512,-285.156,0
1582146985.314,-74.219,-397.461,999.512,-313.965,0
1582146985.318,-147.949,-409.180,999.512,-366.699,0
1582146985.322,-153.320,-537.109,999.512,-354.980,0
1582146985.326,-119.141,-560.547,999.512,-315.430,0
1582146985.330,-146.484,-530.273,999.512,-297.363,0
1582146985.347,-155.762,-560.059,999.512,-304.199,0
1582146985.351,-142.090,-614.746,999.512,-301.758,0
1582146985.355,-140.625,-637.207,999.512,-300.781,0
1582146985.359,-136.230,-641.113,999.512,-313.965,0
1582146985.363,-145.020,-689.453,999.512,-354.004,0
1582146985.367,-122.559,-784.668,999.512,-346.680,0
1582146985.371,-112.793,-799.316,999.512,-326.172,0
1582146985.374,-132.324,-793.945,999.512,-330.078,0
1582146985.378,-116.699,-840.332,999.512,-314.453,0
1582146985.382,-125.488,-868.164,999.512,-304.688,0
1582146985.386,-150.391,-878.418,999.512,-279.785,0
1582146985.390,-145.508,-868.652,999.512,-285.645,0
1582146985.392,-112.305,-895.020,999.512,-281.250,0
1582146985.396,-108.887,-900.391,999.512,-260.254,0
1582146985.400,-125.488,-907.227,999.512,-253.906,0
1582146985.404,-109.863,-923.828,999.512,-225.586,0
1582146985.408,-74.219,-902.344,999.512,-206.543,0
1582146985.412,-45.898,-899.902,999.512,-148.438,0
1582146985.416,-45.410,-905.762,999.512,-121.582,0
1582146985.419,-52.246,-887.207,999.512,-113.770,0
1582146985.423,-26.367,-904.297,999.512,-75.195,0
1582146985.427,19.531,-921.387,999.512,-60.059,0
1582146985.431,22.461,-853.516,999.512,-87.402,0
1582146985.435,23.438,-807.617,999.512,-45.898,0
1582146985.438,14.160,-821.777,999.512,-13.672,0
1582146985.442,33.203,-800.293,999.512,-15.137,0
1582146985.446,61.523,-785.645,999.512,27.344,0
1582146985.450,68.848,-804.199,999.512,43.945,0
1582146985.454,79.590,-799.805,999.512,83.008,0
1582146985.458,94.727,-778.809,999.512,104.980,0
1582146985.462,89.355,-731.934,999.512,104.980,0
1582146985.465,57.129,-681.641,999.512,113.281,0
1582146985.469,79.102,-715.332,999.512,132.812,0
1582146985.473,120.605,-715.332,999.512,159.668,0
1582146985.477,117.188,-633.789,999.512,172.852,0
1582146985.481,119.141,-644.531,999.512,172.363,0
1582146985.483,151.367,-659.180,999.512,205.566,0
1582146985.487,171.875,-632.324,999.512,231.445,0
1582146985.491,159.180,-604.004,999.512,220.215,0
1582146985.495,145.020,-601.562,999.512,188.965,0
1582146985.499,141.113,-608.887,999.512,185.547,0
1582146985.503,133.789,-591.797,999.512,202.148,0
1582146985.507,128.906,-550.293,999.512,184.082,0
1582146985.510,156.250,-537.109,999.512,189.453,0
1582146985.514,157.715,-544.922,999.512,208.984,0
1582146985.518,142.578,-501.465,999.512,226.074,0
1582146985.522,168.457,-479.004,999.512,220.215,0
1582146985.526,197.266,-490.723,999.512,203.125,0
1582146985.527,201.172,-454.102,999.512,201.660,0
1582146985.531,201.172,-409.180,999.512,185.059,0
1582146985.535,217.773,-402.832,999.512,183.105,0
1582146985.539,226.074,-423.340,999.512,174.805,0
1582146985.543,216.309,-426.758,999.512,171.875,0
1582146985.547,205.566,-428.223,999.512,174.805,0
1582146985.551,192.383,-395.996,999.512,163.574,0
1582146985.554,212.891,-389.648,999.512,152.832,0
1582146985.558,236.816,-416.504,999.512,149.902,0
1582146985.562,205.078,-348.145,999.512,131.348,0
1582146985.566,190.918,-307.129,999.512,109.863,0
1582146985.570,214.844,-308.105,999.512,150.391,0
1582146985.572,204.590,-300.293,999.512,167.480,0
1582146985.576,161.621,-303.223,999.512,129.395,0
1582146985.580,135.254,-312.500,999.512,118.164,0
1582146985.584,151.367,-297.363,999.512,133.789,0
1582146985.588,170.410,-279.297,999.512,129.395,0
1582146985.592,158.691,-302.734,999.512,124.023,0
1582146985.596,153.320,-294.434,999.512,127.930,0
1582146985.599,148.926,-296.875,999.512,108.398,0
1582146985.603,158.203,-257.812,999.512,100.098,0
1582146985.607,167.480,-208.008,999.512,87.891,0
1582146985.611,134.766,-241.699,999.512,79.590,0
1582146985.615,117.676,-252.441,999.512,82.031,0
1582146985.617,151.367,-207.031,999.512,69.824,0
1582146985.621,158.691,-187.988,999.512,65.918,0
1582146985.625,128.418,-216.309,999.512,59.082,0
1582146985.629,110.352,-204.590,999.512,51.270,0
1582146985.633,100.586,-191.895,999.512,61.035,0
1582146985.637,110.840,-197.754,999.512,50.781,0
1582146985.641,116.699,-210.938,999.512,72.754,0
1582146985.644,87.891,-188.965,999.512,76.172,0
1582146985.648,92.285,-125.488,999.512,28.320,0
1582146985.652,95.215,-136.230,999.512,22.461,0
1582146985.656,47.852,-128.418,999.512,-13.672,0
1582146985.660,15.625,-123.047,999.512,-42.969,0
1582146985.662,15.625,-148.438,999.512,-31.250,0
1582146985.666,38.574,-148.926,999.512,-19.531,0
1582146985.670,9.277,-159.668,999.512,-40.527,0
1582146985.674,-55.664,-166.992,999.512,-86.426,0
1582146985.678,-38.086,-116.211,999.512,-95.703,0
1582146985.682,-11.230,-102.539,999.512,-109.863,0
1582146985.686,-19.043,-128.418,999.512,-121.582,0
1582146985.689,-26.855,-106.445,999.512,-121.094,0
1582146985.693,-8.789,-71.777,999.512,-125.977,0
1582146985.697,23.438,-110.352,999.512,-109.375,0
1582146985.701,19.043,-93.750,999.512,-108.887,0
1582146985.705,5.859,-48.340,999.512,-95.703,0
1582146985.722,54.688,-60.059,999.512,-92.285,0
1582146985.726,101.074,-77.148,999.512,-104.004,0
1582146985.730,91.309,-96.191,999.512,-90.332,0
1582146985.734,125.488,-99.121,999.512,-45.898,0
1582146985.738,132.812,-97.656,999.512,-37.109,0
1582146985.742,126.953,-149.414,999.512,-78.125,0
1582146985.746,171.387,-141.602,999.512,-63.477,0
1582146985.749,171.387,-64.453,999.512,-63.965,0
1582146985.753,140.625,-68.848,999.512,-26.367,0
1582146985.757,175.781,-106.445,999.512,-0.977,0
1582146985.761,195.801,-121.582,999.512,-68.359,0
1582146985.765,209.473,-95.703,999.512,-87.402,0
1582146985.768,241.699,-83.496,999.512,-49.316,0
1582146985.772,199.219,-97.656,999.512,-25.391,0
1582146985.776,191.406,-113.281,999.512,-33.203,0
1582146985.780,237.793,-131.836,999.512,-32.227,0
1582146985.784,246.582,-158.691,999.512,-12.695,0
1582146985.788,228.027,-179.688,999.512,12.695,0
1582146985.792,229.980,-162.109,999.512,11.230,0
1582146985.795,266.602,-144.531,999.512,5.371,0
1582146985.799,247.070,-183.594,999.512,12.207,0
1582146985.803,206.055,-208.496,999.512,-3.418,0
1582146985.807,236.816,-150.879,999.512,2.441,0
1582146985.811,250.000,-126.953,999.512,7.812,0
1582146985.812,216.797,-171.387,999.512,18.066,0
1582146985.816,182.129,-169.922,999.512,12.695,0
1582146985.820,169.922,-150.391,999.512,5.859,0
1582146985.824,173.828,-155.762,999.512,5.371,0
1582146985.828,185.059,-162.598,999.512,-4.395,0
1582146985.832,190.430,-194.824,999.512,16.113,0
1582146985.836,166.992,-189.453,999.512,1.465,0
1582146985.839,169.434,-150.879,999.512,3.418,0
1582146985.843,204.590,-202.637,999.512,44.434,0
1582146985.847,215.820,-209.473,999.512,60.059,0
1582146985.851,181.152,-144.043,999.512,55.664,0
1582146985.855,159.180,-190.430,999.512,59.082,0
1582146985.857,173.340,-212.402,999.512,68.848,0
1582146985.861,165.527,-178.223,999.512,72.266,0
1582146985.865,152.344,-166.504,999.512,71.289,0
1582146985.869,163.086,-166.504,999.512,91.309,0
1582146985.873,181.641,-163.574,999.512,106.934,0
1582146985.877,197.266,-169.434,999.512,112.793,0
1582146985.881,185.059,-143.555,999.512,149.902,0
1582146985.884,180.176,-128.418,999.512,172.852,0
1582146985.888,185.547,-180.664,999.512,155.273,0
1582146985.892,173.340,-130.371,999.512,148.926,0
1582146985.896,180.664,-87.891,999.512,140.137,0
1582146985.900,166.992,-133.789,999.512,163.574,0
1582146985.903,175.781,-120.605,999.512,190.430,0
1582146985.907,196.289,-79.102,999.512,161.621,0
1582146985.911,187.012,-99.609,999.512,162.109,0
1582146985.915,175.293,-125.488,999.512,182.617,0
1582146985.919,168.457,-109.863,999.512,166.992,0
1582146985.923,186.035,-89.355,999.512,164.551,0
1582146985.927,187.500,-50.293,999.512,166.504,0
1582146985.930,148.926,-80.566,999.512,152.344,0
1582146985.934,130.859,-99.121,999.512,160.645,0
1582146985.938,135.742,-25.391,999.512,146.484,0
1582146985.942,129.395,-26.367,999.512,114.258,0
1582146985.946,110.840,-38.086,999.512,124.512,0
1582146985.947,95.215,-30.762,999.512,137.207,0
1582146985.951,100.586,-42.969,999.512,130.371,0
1582146985.955,92.285,-61.523,999.512,126.953,0
1582146985.959,91.309,-52.734,999.512,121.582,0
1582146985.963,78.125,-36.621,999.512,128.906,0
1582146985.967,70.801,-57.129,999.512,134.766,0
1582146985.971,71.289,-53.223,999.512,129.883,0
1582146985.974,74.707,-59.082,999.512,139.160,0
1582146985.978,70.312,-32.715,999.512,132.812,0
1582146985.982,69.336,4.395,999.512,121.094,0
1582146985.986,62.988,-32.715,999.512,108.398,0
1582146985.990,69.824,-69.824,999.512,97.168,0
1582146985.992,62.012,-39.062,999.512,88.867,0
1582146985.996,15.625,-30.273,999.512,89.355,0
1582146986.000,12.695,-55.176,999.512,80.078,0
1582146986.004,43.457,-28.809,999.512,61.523,0
1582146986.008,32.715,-10.254,999.512,58.594,0
1582146986.012,4.883,-32.227,999.512,62.012,0
1582146986.016,34.668,-73.730,999.512,51.270,0
1582146986.019,44.434,-59.082,999.512,44.434,0
1582146986.023,27.344,-22.461,999.512,40.527,17050
1582146986.027,22.949,-40.527,999.512,21.484,0
1582146986.031,18.066,-24.902,999.512,-9.766,0
1582146986.035,46.875,-6.348,999.512,4.883,0
1582146986.037,72.266,-3.418,999.512,34.180,0
1582146986.041,53.711,-24.902,999.512,6.836,0
1582146986.045,34.668,-12.695,999.512,8.789,0
1582146986.049,58.105,7.324,999.512,38.086,0
1582146986.053,86.426,-6.348,999.512,44.922,0
1582146986.057,96.680,-33.203,999.512,73.730,0
1582146986.061,105.469,-59.082,999.512,102.051,0
1582146986.064,125.977,-15.625,999.512,104.980,0
1582146986.068,134.277,40.039,999.512,104.492,0
1582146986.072,127.441,5.371,999.512,127.441,0
1582146986.076,124.512,-14.648,999.512,134.277,0
1582146986.080,124.023,-8.301,999.512,109.375,0
1582146986.097,125.000,-6.348,999.512,120.605,0
1582146986.101,149.902,-6.348,999.512,146.973,0
1582146986.105,144.043,-4.395,999.512,118.652,0
1582146986.109,105.957,24.902,999.512,86.914,0
1582146986.113,124.023,10.742,999.512,64.453,0
1582146986.117,126.953,-62.012,999.512,52.734,0
1582146986.121,112.305,-27.344,999.512,65.918,0
1582146986.124,101.562,76.660,999.512,74.219,0
1582146986.128,89.355,56.641,999.512,74.707,0
1582146986.132,86.914,21.484,999.512,47.363,0
1582146986.136,96.680,23.926,999.512,28.320,0
1582146986.140,92.773,23.926,999.512,20.996,0
1582146986.142,93.750,10.254,999.512,7.812,0
1582146986.146,67.383,14.160,999.512,-6.836,0
1582146986.150,75.195,7.324,999.512,-23.438,0
1582146986.154,95.215,11.230,999.512,-30.273,0
1582146986.158,49.316,20.020,999.512,-36.133,0
1582146986.162,21.484,-14.648,999.512,-39.062,0
1582146986.166,34.180,2.930,999.512,-45.410,0
1582146986.169,17.578,36.133,999.512,-58.105,0
1582146986.173,-7.812,12.695,999.512,-53.711,0
1582146986.177,6.836,-33.691,999.512,-54.199,0
1582146986.181,-9.766,14.648,999.512,-91.309,0
1582146986.185,-44.922,58.105,999.512,-73.242,0
1582146986.187,-67.871,23.438,999.512,-50.293,0
1582146986.191,-59.570,3.906,999.512,-69.824,0
1582146986.195,-77.148,17.578,999.512,-76.660,0
1582146986.199,-103.027,20.020,999.512,-60.059,0
1582146986.203,-100.586,-6.836,999.512,-70.801,0
1582146986.207,-115.723,-30.273,999.512,-62.012,0
1582146986.211,-136.230,6.348,999.512,-66.406,0
1582146986.214,-151.367,30.273,999.512,-100.586,0
1582146986.218,-161.133,-44.922,999.512,-104.004,0
1582146986.222,-163.086,-37.598,999.512,-101.562,0
1582146986.226,-147.949,58.105,999.512,-103.027,0
1582146986.230,-166.504,35.156,999.512,-104.004,0
1582146986.232,-202.148,12.695,999.512,-90.332,0
1582146986.236,-177.734,12.207,999.512,-100.586,0
1582146986.240,-134.277,-6.348,999.512,-89.844,0
1582146986.244,-113.770,-1.465,999.512,-86.914,0
1582146986.248,-137.695,-0.977,999.512,-91.309,0
1582146986.252,-157.715,-10.254,999.512,-96.680,0
1582146986.256,-137.207,3.418,999.512,-104.004,0
1582146986.259,-141.602,21.973,999.512,-98.633,0
1582146986.263,-162.109,-16.113,999.512,-90.332,0
1582146986.267,-162.598,3.418,999.512,-66.406,0
1582146986.271,-140.137,43.457,999.512,-46.387,0
1582146986.275,-110.352,8.789,999.512,-44.434,0
1582146986.277,-140.137,-17.578,999.512,-63.477,0
1582146986.281,-159.180,-0.977,999.512,-67.383,0
1582146986.285,-109.863,6.836,999.512,-15.137,0
1582146986.289,-111.328,8.789,999.512,-9.277,0
1582146986.293,-157.715,-8.301,999.512,-65.918,0
1582146986.297,-175.293,-17.578,999.512,-51.758,0
1582146986.301,-166.504,6.348,999.512,-20.020,0
1582146986.304,-155.762,-18.555,999.512,-27.344,0
1582146986.308,-138.672,-30.762,999.512,-33.203,0
1582146986.312,-135.742,37.598,999.512,-29.297,0
1582146986.316,-142.578,37.109,999.512,-18.066,0
1582146986.320,-139.160,-5.859,999.512,-16.602,0
1582146986.322,-152.344,-8.789,999.512,-4.395,0
1582146986.326,-166.016,-0.488,999.512,-5.859,0
1582146986.330,-170.410,-18.066,999.512,-20.508,0
1582146986.334,-161.621,-14.160,999.512,-20.508,0
1582146986.338,-133.789,-12.695,999.512,-29.785,0
1582146986.342,-143.066,-30.273,999.512,-12.207,0
1582146986.346,-151.855,-39.062,999.512,17.090,0
1582146986.349,-148.438,-64.453,999.512,31.738,0
1582146986.353,-139.160,-30.273,999.512,46.875,0
1582146986.357,-137.695,13.184,999.512,56.152,0
1582146986.361,-145.508,-21.484,999.512,65.430,0
1582146986.365,-152.832,-34.180,999.512,57.617,0
1582146986.367,-137.695,6.836,999.512,47.363,0
1582146986.371,-128.418,-6.836,999.512,32.227,0
1582146986.375,-117.676,-69.336,999.512,62.012,0
1582146986.379,-82.520,-54.199,999.512,100.098,0
1582146986.383,-63.965,-18.066,999.512,129.395,0
1582146986.387,-33.203,-45.898,999.512,156.738,0
1582146986.391,-33.691,-64.453,999.512,154.297,0
1582146986.394,-52.246,-43.457,999.512,163.574,0
1582146986.398,-42.969,2.441,999.512,172.363,0
1582146986.402,0.488,-7.812,999.512,173.340,0
1582146986.406,28.809,-23.926,999.512,187.500,0
1582146986.410,19.531,-30.273,999.512,199.219,0
1582146986.412,19.043,-21.484,999.512,167.480,0
1582146986.416,60.059,-30.273,999.512,155.273,0
1582146986.420,78.613,-35.156,999.512,170.410,0
1582146986.424,38.574,-5.371,999.512,156.738,0
1582146986.428,28.809,3.906,999.512,164.551,0
1582146986.432,98.633,-9.766,999.512,170.410,0
1582146986.436,119.141,-47.852,999.512,133.789,0
1582146986.439,70.801,-8.301,999.512,111.328,0
1582146986.443,77.148,22.461,999.512,120.605,0
1582146986.447,104.980,-32.227,999.512,116.211,0
1582146986.451,104.492,-20.996,999.512,86.914,0
1582146986.455,91.797,-3.418,999.512,75.684,0
1582146986.472,92.285,0.488,999.512,52.246,0
1582146986.476,114.258,0.977,999.512,60.547,0
1582146986.480,148.438,-5.859,999.512,74.219,0
1582146986.484,151.367,-0.488,999.512,68.848,0
1582146986.488,141.602,0.977,999.512,81.543,0
1582146986.492,137.695,-42.480,999.512,66.406,0
1582146986.496,136.230,-31.250,999.512,20.996,0
1582146986.499,139.160,18.066,999.512,-2.930,0
1582146986.503,132.812,-9.277,999.512,-28.320,0
1582146986.507,111.328,-13.672,999.512,-52.734,0
1582146986.511,125.000,32.227,999.512,-33.691,0
1582146986.515,148.438,38.086,999.512,10.742,0
1582146986.517,115.234,4.883,999.512,5.371,0
1582146986.521,111.328,9.277,999.512,-20.996,0
1582146986.525,110.352,24.902,999.512,-27.832,0
1582146986.529,126.465,28.320,999.512,-20.020,0
1582146986.533,131.348,15.137,999.512,-41.992,0
1582146986.537,85.938,-1.465,999.512,-58.594,0
1582146986.541,96.191,1.465,999.512,-77.148,0
1582146986.544,102.051,15.625,999.512,-103.516,0
1582146986.548,114.258,14.160,999.512,-56.152,0
1582146986.552,129.883,-16.113,999.512,7.812,0
1582146986.556,87.402,15.137,999.512,-65.918,0
1582146986.560,105.469,27.344,999.512,-142.090,0
1582146986.563,132.812,2.930,999.512,-68.359,0
1582146986.567,88.379,33.203,999.512,-69.824,0
1582146986.571,111.328,31.738,999.512,-82.031,0
1582146986.575,136.230,0.488,999.512,-51.270,0
1582146986.579,107.910,-21.484,999.512,-68.848,0
1582146986.583,93.750,-38.086,999.512,-91.309,0
1582146986.587,105.957,-20.996,999.512,-51.758,0
1582146986.590,116.699,6.836,999.512,-57.129,0
1582146986.594,119.629,-32.227,999.512,-93.262,0
1582146986.598,101.562,-63.477,999.512,-94.727,0
1582146986.602,81.543,-38.086,999.512,-117.188,0
1582146986.606,101.562,-54.688,999.512,-111.328,0
1582146986.607,96.191,-60.547,999.512,-97.168,0
1582146986.611,83.984,-66.406,999.512,-84.961,0
1582146986.615,63.965,-92.285,999.512,-69.336,0
1582146986.619,49.805,-106.445,999.512,-71.777,0
1582146986.623,54.199,-74.707,999.512,-59.570,0
1582146986.627,76.660,-60.059,999.512,-61.523,0
1582146986.631,50.293,-70.801,999.512,-76.172,0
1582146986.634,15.625,-85.449,999.512,-96.680,0
1582146986.638,47.363,-120.605,999.512,-105.957,0
1582146986.642,43.945,-68.359,999.512,-83.984,0
1582146986.646,44.922,-24.414,999.512,-53.711,0
1582146986.650,63.477,-68.848,999.512,-59.082,0
1582146986.652,53.711,-98.145,999.512,-83.984,0
1582146986.656,48.828,-67.383,999.512,-73.242,0
1582146986.660,60.547,-63.477,999.512,-95.703,0
1582146986.664,55.664,-101.074,999.512,-119.629,0
1582146986.668,68.848,-81.543,999.512,-76.172,0
1582146986.672,112.305,-76.660,999.512,-32.227,0
1582146986.676,134.766,-99.609,999.512,-6.348,0
1582146986.679,100.098,-139.648,999.512,48.340,0
1582146986.683,81.543,-146.484,999.512,91.309,0
1582146986.687,99.609,-85.449,999.512,105.469,0
1582146986.691,109.863,-91.309,999.512,120.605,0
1582146986.695,119.141,-94.727,999.512,140.137,0
1582146986.697,102.051,-88.379,999.512,145.508,0
1582146986.701,88.867,-94.727,999.512,114.746,0
1582146986.705,116.211,-111.328,999.512,97.168,0
1582146986.709,140.137,-119.141,999.512,130.371,0
1582146986.713,133.789,-131.836,999.512,144.043,0
1582146986.717,137.695,-143.555,999.512,169.434,0
1582146986.721,169.434,-112.793,999.512,183.594,0
1582146986.724,176.270,-137.695,999.512,117.676,0
1582146986.728,185.547,-128.418,999.512,119.141,0
1582146986.732,208.496,-100.098,999.512,164.551,0
1582146986.736,196.777,-132.324,999.512,171.387,0
1582146986.740,213.867,-127.930,999.512,181.152,0
1582146986.742,242.188,-93.262,999.512,192.871,0
1582146986.746,256.836,-95.215,999.512,198.242,0
1582146986.750,314.453,-125.000,999.512,188.477,0
1582146986.754,339.844,-124.512,999.512,187.988,0
1582146986.758,340.332,-120.605,999.512,172.363,0
1582146986.762,374.512,-118.164,999.512,142.090,0
1582146986.766,393.555,-125.488,999.512,113.281,0
1582146986.769,371.094,-112.305,999.512,90.332,0
1582146986.773,351.074,-54.199,999.512,41.504,0
1582146986.777,324.707,-66.406,999.512,3.418,0
1582146986.781,322.266,-89.844,999.512,10.742,0
1582146986.785,311.035,-103.516,999.512,9.766,0
1582146986.787,291.992,-79.590,999.512,26.367,0
1582146986.791,258.789,-74.707,999.512,2.441,0
1582146986.795,196.777,-98.145,999.512,-24.414,0
1582146986.799,171.875,-79.590,999.512,14.160,0
1582146986.803,154.297,-65.430,999.512,-2.441,0
1582146986.807,141.602,-90.332,999.512,19.043,0
1582146986.811,137.695,-130.859,999.512,71.289,0
1582146986.814,116.699,-102.539,999.512,55.664,0
1582146986.818,107.422,-55.176,999.512,58.594,0
1582146986.822,102.539,-84.961,999.512,47.852,0
1582146986.826,50.293,-90.820,999.512,17.578,0
1582146986.830,21.973,-63.965,999.512,33.203,0
1582146986.847,55.176,-75.195,999.512,76.660,0
1582146986.851,46.875,-104.980,999.512,97.168,0
1582146986.855,21.973,-92.773,999.512,104.492,0
1582146986.859,17.578,-58.105,999.512,110.352,0
1582146986.863,48.828,-62.988,999.512,91.309,0
1582146986.867,57.617,-98.145,999.512,117.188,0
1582146986.871,2.930,-79.590,999.512,141.602,0
1582146986.874,-1.465,-27.344,998.047,146.484,0
1582146986.878,15.137,-34.668,-997.559,146.484,0
1582146986.882,18.066,-60.547,987.793,157.227,0
1582146986.886,15.137,-47.852,982.910,178.223,0
1582146986.890,33.691,-28.320,-998.535,229.004,0
1582146986.892,74.707,-36.621,999.023,260.254,0
1582146986.896,62.500,-9.766,999.023,231.445,0
1582146986.900,17.578,5.859,999.512,222.656,0
1582146986.904,5.371,23.438,999.512,262.695,0
1582146986.908,26.367,31.250,999.512,252.441,0
1582146986.912,55.176,5.859,999.512,260.742,0
1582146986.916,65.430,4.395,999.512,269.531,0
1582146986.919,63.477,34.180,999.512,261.230,0
1582146986.923,86.914,32.227,999.512,284.668,0
1582146986.927,109.863,13.672,999.512,318.359,0
1582146986.931,105.469,49.805,999.512,320.801,0
1582146986.935,121.094,44.922,999.512,270.996,0
1582146986.937,130.859,1.465,999.512,290.039,0
1582146986.941,128.418,6.836,999.512,276.855,0
1582146986.945,161.621,41.992,999.512,255.371,0
1582146986.949,172.363,42.969,999.512,304.688,0
1582146986.953,164.062,12.207,999.512,316.895,0
1582146986.957,191.895,11.230,-999.512,302.246,0
1582146986.961,227.539,23.926,994.141,278.809,0
1582146986.964,219.238,12.695,-990.234,264.160,0
1582146986.968,228.516,-33.203,972.168,285.156,0
1582146986.972,237.793,-43.457,911.621,296.387,0
1582146986.976,205.078,11.230,953.125,248.047,0
1582146986.980,180.664,-1.953,892.090,204.590,0
1582146986.982,175.293,-25.879,676.270,192.871,0
1582146986.986,183.594,-1.465,547.852,175.781,0
1582146986.990,185.059,6.348,506.348,170.410,0
1582146986.994,167.480,-7.324,426.758,168.457,0
1582146986.998,170.898,-15.137,296.387,177.246,0
1582146987.002,170.410,-23.926,48.828,176.758,0
1582146987.006,158.203,6.836,-53.711,162.109,0
1582146987.009,180.176,21.973,85.938,160.156,0
1582146987.013,146.484,-49.316,-169.434,140.137,0
1582146987.017,28.809,-2.441,-276.367,133.789,0
1582146987.021,31.738,53.711,-39.062,143.066,0
1582146987.025,64.453,6.836,-132.812,137.207,0
1582146987.027,33.203,7.324,-159.668,118.652,0
1582146987.031,36.133,22.949,-62.988,97.656,0
1582146987.035,51.270,16.602,-57.617,116.699,0
1582146987.039,65.918,3.906,-115.234,127.441,0
1582146987.043,58.594,20.996,-105.957,119.141,0
1582146987.047,34.180,22.949,-122.070,120.605,0
1582146987.051,27.344,13.184,-172.363,145.508,0
1582146987.054,43.945,-4.883,-192.383,173.340,0
1582146987.058,72.266,-10.254,-314.941,166.016,0
1582146987.062,56.641,67.383,-174.805,144.531,28501
1582146987.066,34.180,70.312,-25.391,157.227,0
1582146987.070,67.383,24.902,-125.000,199.707,0
1582146987.072,96.191,20.020,-161.133,197.266,0
1582146987.076,98.145,19.531,-95.215,181.152,0
1582146987.080,101.074,10.254,-237.793,197.266,0
1582146987.084,125.977,48.340,-305.176,166.992,0
1582146987.088,107.422,52.246,-197.754,142.090,0
1582146987.092,69.336,28.809,-255.859,167.969,0
1582146987.096,80.566,54.688,-256.348,164.062,0
1582146987.099,90.332,15.625,-329.590,131.836,0
1582146987.103,96.191,2.930,-259.277,113.770,0
1582146987.107,89.844,40.527,42.480,89.355,0
1582146987.111,80.078,14.648,24.902,70.801,0
1582146987.115,69.336,28.809,28.809,50.293,0
1582146987.117,38.086,65.430,221.191,36.133,0
1582146987.121,50.781,61.035,326.172,31.738,0
1582146987.125,65.918,29.297,255.371,30.273,0
1582146987.129,62.988,32.227,230.469,46.875,0
1582146987.133,56.152,64.453,339.355,32.227,0
1582146987.137,41.016,44.434,334.473,0.977,0
1582146987.141,27.344,11.230,214.844,-11.230,0
1582146987.144,6.836,25.391,132.324,-10.254,0
1582146987.148,0.000,88.379,382.324,-15.137,0
1582146987.152,26.367,82.031,678.711,-7.324,0
1582146987.156,56.641,41.504,614.258,8.789,0
1582146987.160,49.805,59.082,598.633,12.207,0
1582146987.162,16.602,107.910,835.449,1.465,0
1582146987.166,25.879,107.910,969.238,-14.160,0
1582146987.170,42.969,64.941,895.508,-3.906,0
1582146987.174,10.254,50.293,816.895,9.766,0
1582146987.178,12.207,64.453,913.086,41.504,0
1582146987.182,23.926,37.598,921.387,68.359,0
1582146987.186,14.648,-5.371,711.914,54.688,0
1582146987.189,12.207,31.738,737.793,42.969,0
1582146987.193,13.184,77.148,931.641,51.270,0
1582146987.197,-1.953,73.242,962.891,56.152,0
1582146987.201,11.230,62.500,979.980,57.617,0
1582146987.205,11.719,70.312,987.305,47.852,0
1582146987.222,-5.371,76.172,-984.375,44.434,0
1582146987.226,3.418,36.133,943.848,55.664,0
1582146987.230,21.973,16.602,798.340,64.453,0
1582146987.234,20.020,53.223,821.777,40.039,0
1582146987.238,-1.953,62.500,873.535,28.809,0
1582146987.242,-7.324,11.719,713.379,37.598,0
1582146987.246,-14.160,5.371,522.949,20.020,0
1582146987.249,-34.180,60.547,624.512,-13.184,0
1582146987.253,-60.547,58.105,746.582,-44.922,0
1582146987.257,-65.918,3.418,620.605,-26.367,0
1582146987.261,-58.594,18.066,589.355,-16.602,0
1582146987.265,-66.406,70.801,738.281,-29.297,0
1582146987.267,-68.359,65.918,768.555,-10.742,0
1582146987.271,-77.637,41.504,694.824,-11.230,0
1582146987.275,-85.449,57.129,696.777,-25.391,0
1582146987.279,-88.867,89.355,875.977,-41.016,0
1582146987.283,-73.242,55.176,892.090,-41.016,0
1582146987.287,-82.031,26.367,706.543,-16.113,0
1582146987.291,-101.074,46.875,628.418,-18.555,0
1582146987.294,-76.172,69.824,750.000,-24.902,0
1582146987.298,-80.566,61.523,829.590,-44.922,0
1582146987.302,-95.703,20.508,616.211,-74.219,0
1582146987.306,-101.562,46.875,552.734,-66.895,0
1582146987.310,-114.258,92.285,825.195,-71.289,0
1582146987.313,-99.121,57.617,828.613,-68.359,0
1582146987.317,-97.656,34.180,707.031,-75.195,0
1582146987.321,-111.328,62.500,713.867,-84.473,0
1582146987.325,-99.121,74.219,776.367,-68.848,0
1582146987.329,-74.219,43.945,754.395,-66.895,0
1582146987.333,-68.848,29.297,604.980,-83.008,0
1582146987.337,-93.750,44.434,534.180,-99.121,0
1582146987.340,-114.258,59.082,642.578,-103.516,0
1582146987.344,-103.027,24.902,612.305,-83.984,0
1582146987.348,-104.004,23.926,417.969,-75.195,0
1582146987.352,-125.977,92.285,575.684,-85.938,0
1582146987.356,-118.652,75.684,687.988,-104.004,0
1582146987.358,-82.031,46.387,591.309,-115.723,0
1582146987.362,-78.125,54.199,597.656,-88.379,0
1582146987.366,-108.398,62.500,660.156,-72.266,0
1582146987.370,-115.234,50.781,638.184,-75.684,0
1582146987.374,-81.055,43.457,563.477,-63.477,0
1582146987.378,-41.016,47.363,500.977,-57.617,0
1582146987.382,-58.594,49.805,457.031,-61.523,0
1582146987.385,-69.824,54.199,514.648,-57.617,0
1582146987.389,-61.035,32.227,453.613,-58.105,0
1582146987.393,-64.941,48.340,461.426,-70.801,0
1582146987.397,-52.246,73.242,665.039,-68.848,0
1582146987.401,-57.617,49.805,669.922,-55.664,0
1582146987.402,-51.758,36.621,571.777,-48.828,0
1582146987.406,-19.531,61.035,564.941,-50.293,0
1582146987.410,5.371,62.500,566.406,-57.617,0
1582146987.414,-14.648,13.184,387.207,-49.805,0
1582146987.418,-44.434,14.648,292.480,-47.852,0
1582146987.422,-30.762,55.664,372.559,-80.566,0
1582146987.426,-15.625,64.941,452.148,-95.215,0
1582146987.429,-21.484,32.715,444.336,-94.727,0
1582146987.433,-11.719,19.531,319.336,-73.242,0
1582146987.437,19.043,100.098,553.711,-70.801,0
1582146987.441,46.875,93.262,746.582,-87.891,0
1582146987.445,68.359,50.293,666.504,-83.008,0
1582146987.447,43.945,41.504,552.734,-91.309,0
1582146987.451,28.809,59.082,615.723,-101.562,0
1582146987.455,44.922,48.340,674.805,-100.586,0
1582146987.459,32.715,43.945,575.684,-113.770,0
1582146987.463,26.855,60.547,611.328,-110.840,0
1582146987.467,57.129,24.902,514.648,-99.609,0
1582146987.471,60.059,29.785,406.738,-107.422,0
1582146987.474,69.824,14.160,302.246,-105.957,0
1582146987.478,82.520,28.809,239.746,-92.285,0
1582146987.482,52.246,88.379,533.203,-71.289,0
1582146987.486,75.195,39.551,534.180,-83.496,0
1582146987.490,106.934,23.926,342.773,-78.613,0
1582146987.492,75.195,67.871,407.227,-58.105,0
1582146987.496,62.500,58.594,493.164,-72.754,0
1582146987.500,67.871,20.508,392.090,-91.309,0
1582146987.504,72.754,17.578,274.902,-94.727,0
1582146987.508,67.871,30.273,311.523,-86.914,0
1582146987.512,68.359,31.738,348.145,-73.730,0
1582146987.516,87.402,13.672,229.980,-53.711,0
1582146987.519,97.656,11.230,68.848,-62.012,0
1582146987.523,78.125,74.219,270.020,-91.309,0
1582146987.527,65.430,77.148,470.703,-78.125,0
1582146987.531,60.547,55.176,422.363,-61.523,0
1582146987.535,50.781,46.387,375.000,-68.848,0
1582146987.538,72.266,37.598,379.395,-65.430,0
1582146987.542,75.684,27.832,358.887,-56.152,0
1582146987.546,69.824,23.438,224.609,-69.824,0
1582146987.550,85.938,42.480,191.895,-79.590,0
1582146987.554,75.684,40.039,287.598,-97.168,0
1582146987.558,80.078,-7.812,139.160,-79.102,0
1582146987.562,77.637,-27.344,-144.043,-48.828,0
1582146987.565,57.129,23.926,-95.215,-64.453,0
1582146987.569,64.453,65.430,187.500,-91.309,0
1582146987.573,41.992,39.062,221.680,-93.750,0
1582146987.577,16.113,26.855,149.414,-87.402,0
1582146987.581,31.738,50.293,205.078,-97.168,0
1582146987.597,55.176,51.758,256.348,-82.031,0
1582146987.601,68.848,22.461,183.105,-63.965,0
1582146987.605,67.871,-4.395,97.168,-53.711,0
1582146987.609,50.293,20.996,152.832,-53.223,0
1582146987.613,58.594,27.832,151.855,-55.176,0
1582146987.617,61.035,0.488,1.953,-69.336,0
1582146987.621,40.527,16.602,-53.711,-80.078,0
1582146987.624,33.203,58.594,126.953,-54.199,0
1582146987.628,41.504,67.383,317.383,-40.039,0
1582146987.632,48.828,21.973,230.957,-58.594,0
1582146987.636,43.457,17.090,76.660,-45.410,0
1582146987.640,61.523,65.918,212.402,-24.902,0
1582146987.643,69.824,37.109,200.195,-24.902,0
1582146987.647,60.547,19.531,75.684,-16.113,0
1582146987.651,56.152,14.648,35.156,-31.738,0
1582146987.655,38.086,25.391,75.195,-47.363,0
1582146987.659,39.062,35.156,135.254,-42.480,0
1582146987.663,51.270,6.836,41.504,-25.391,0
1582146987.667,35.645,18.555,-20.020,-15.137,0
1582146987.670,39.062,42.480,143.555,7.324,0
1582146987.674,41.992,18.066,153.809,21.973,0
1582146987.678,33.203,3.418,-88.379,-4.395,0
1582146987.682,41.992,47.363,-45.898,0.000,0
1582146987.686,27.344,69.824,224.609,5.859,0
1582146987.687,25.879,24.414,165.527,14.160,0
1582146987.691,37.109,2.441,0.000,40.039,0
1582146987.695,43.457,25.391,7.812,34.180,0
1582146987.699,28.320,47.363,98.633,13.672,0
1582146987.703,9.277,31.738,118.652,26.855,0
1582146987.707,11.230,13.184,26.367,33.691,0
1582146987.711,35.645,29.297,36.621,28.809,0
1582146987.714,42.480,58.105,167.480,22.949,0
1582146987.718,26.855,8.789,70.312,45.898,0
1582146987.722,33.203,-13.672,-118.652,83.984,0
1582146987.726,29.297,49.316,20.020,47.363,0
1582146987.730,12.207,33.691,36.621,38.086,0
1582146987.732,-6.836,37.109,-3.906,52.734,0
1582146987.736,0.000,51.758,33.203,48.828,0
1582146987.740,19.531,65.430,155.273,72.266,0
1582146987.744,21.484,53.711,205.078,66.406,0
1582146987.748,9.766,26.855,86.914,65.430,0
1582146987.752,-1.465,14.648,-84.473,97.168,0
1582146987.756,11.230,40.039,-136.230,99.121,0
1582146987.759,18.555,57.617,-18.555,77.637,0
1582146987.763,-5.371,7.324,-187.988,69.336,0
1582146987.767,-32.715,41.016,-264.160,101.074,0
1582146987.771,1.465,83.496,-17.090,122.559,0
1582146987.775,21.484,30.273,-53.711,87.891,0
1582146987.777,-4.883,21.484,-147.949,80.078,0
1582146987.781,-26.855,31.250,-151.855,73.242,0
1582146987.785,-19.531,32.715,-139.648,73.242,0
1582146987.789,8.301,33.691,-132.324,78.125,0
1582146987.793,5.859,12.695,-200.195,69.336,0
1582146987.797,14.160,20.996,-267.090,88.379,0
1582146987.801,11.230,55.664,-255.371,81.543,0
1582146987.804,-10.742,32.715,-299.316,68.848,0
1582146987.808,-9.277,18.066,-481.934,67.383,0
1582146987.812,-3.418,87.891,-361.328,52.734,0
1582146987.816,10.254,91.309,-207.031,65.918,0
1582146987.820,21.484,72.754,-250.977,69.336,0
1582146987.822,11.230,63.477,-275.391,54.199,0
1582146987.826,0.488,46.387,-245.605,34.180,0
1582146987.830,-8.301,37.598,-253.906,24.902,0
1582146987.834,-12.207,53.711,-279.785,35.645,0
1582146987.838,-5.859,51.758,-337.891,17.578,0
1582146987.842,-9.766,38.574,-404.785,13.184,0
1582146987.846,-12.695,36.133,-469.238,32.227,0
1582146987.849,-9.277,12.207,-684.570,42.969,0
1582146987.853,2.441,45.410,-684.570,41.504,0
1582146987.857,14.160,77.637,-440.918,43.945,0
1582146987.861,11.230,36.621,-490.723,61.035,0
1582146987.865,14.160,37.109,-539.062,83.496,0
1582146987.867,0.977,66.895,-437.012,53.223,0
1582146987.871,3.418,65.918,-395.508,48.340,0
1582146987.875,-4.883,35.645,-499.023,60.059,0
1582146987.879,-21.484,41.016,-575.684,43.457,0
1582146987.883,-21.973,59.082,-527.832,50.293,0
1582146987.887,12.695,42.480,-659.668,47.852,0
1582146987.891,23.926,20.508,-817.383,39.062,0
1582146987.894,10.254,-14.648,-953.613,51.270,0
1582146987.898,8.301,42.480,-962.891,71.777,0
1582146987.902,19.531,88.867,-768.066,70.312,0
1582146987.906,10.254,53.223,-746.582,59.082,0
1582146987.910,-29.297,47.363,-800.293,59.570,0
1582146987.912,-25.391,62.012,-732.422,50.293,0
1582146987.916,1.953,52.246,-708.984,28.809,0
1582146987.920,8.789,33.691,-844.238,24.414,0
1582146987.924,-18.066,49.316,-897.461,48.340,0
1582146987.928,-11.719,60.059,-793.945,59.082,0
1582146987.932,5.371,12.695,-920.410,57.129,0
1582146987.936,-9.766,2.441,-992.188,45.898,0
1582146987.939,-6.836,55.664,-917.969,43.945,0
1582146987.943,2.441,74.707,-888.184,57.617,0
1582146987.947,-19.531,55.664,-857.422,55.176,0
1582146987.951,-1.953,34.668,-883.301,59.570,0
1582146987.955,6.348,38.574,-905.762,68.848,0
1582146987.973,-24.414,60.547,-758.301,61.523,0
1582146987.977,-19.531,17.090,-819.824,68.359,0
1582146987.981,17.578,18.066,-925.293,62.500,0
1582146987.985,16.602,60.059,-847.168,55.664,0
1582146987.989,-22.461,56.152,-840.332,62.500,0
1582146987.993,-12.695,14.160,-935.547,67.383,0
1582146987.997,2.930,21.973,-971.680,34.668,0
1582146988.000,14.648,61.035,-920.898,37.109,0
1582146988.004,48.340,53.711,-847.168,53.223,0
1582146988.008,38.574,0.977,-886.719,52.246,0
1582146988.012,16.113,-0.488,-959.473,39.551,0
1582146988.016,16.602,53.711,-857.422,10.742,0
1582146988.017,28.320,42.969,-776.367,5.371,0
1582146988.021,41.016,9.766,-885.742,12.207,0
1582146988.025,29.297,16.602,-961.914,22.461,0
1582146988.029,41.504,39.551,-869.141,8.301,0
1582146988.033,54.688,27.832,-908.691,6.836,0
1582146988.037,54.688,22.949,-976.074,19.043,0
1582146988.041,65.918,1.953,-969.727,19.531,0
1582146988.044,85.449,17.090,-972.168,39.062,0
1582146988.048,82.520,32.227,-966.797,62.012,0
1582146988.052,61.523,-11.719,-962.891,35.645,0
1582146988.056,68.848,19.043,-981.445,29.297,0
1582146988.060,100.098,52.246,-941.895,51.758,0
1582146988.062,109.863,18.555,-894.043,52.734,0
1582146988.066,81.055,-9.277,-956.543,56.152,0
1582146988.070,63.477,0.488,-981.934,69.336,0
1582146988.074,91.797,22.461,-952.148,82.031,0
1582146988.078,117.188,10.254,-952.637,68.848,0
1582146988.082,73.242,-7.324,-973.145,44.922,0
1582146988.086,51.758,8.301,-974.609,56.152,27501
1582146988.089,57.617,37.598,-964.355,55.664,0
1582146988.093,66.406,-15.625,-953.613,40.527,0
1582146988.097,77.637,-35.156,-971.191,52.246,0
1582146988.101,64.941,37.598,-972.656,71.777,0
1582146988.105,57.129,30.273,-908.691,67.871,0
1582146988.107,66.406,17.090,-912.109,49.805,0
1582146988.111,68.359,1.465,-977.539,43.457,0
1582146988.115,44.922,-2.930,-971.680,38.574,0
1582146988.119,34.180,33.203,-970.703,34.180,0
1582146988.123,44.434,27.832,-972.168,39.062,0
1582146988.127,65.918,2.441,-972.168,30.762,0
1582146988.131,46.387,15.137,-972.168,10.742,0
1582146988.134,33.203,18.066,-972.168,12.695,0
1582146988.138,55.176,-16.113,-972.168,18.555,0
1582146988.142,43.945,14.160,-972.656,4.883,0
1582146988.146,23.926,40.527,-969.727,-17.578,0
1582146988.150,27.832,16.602,-975.098,-3.418,0
1582146988.152,42.969,14.648,-958.008,15.137,0
1582146988.156,58.594,33.203,-902.832,12.207,0
1582146988.160,52.246,39.062,-858.398,21.484,0
1582146988.164,37.109,12.695,-892.578,21.973,0
1582146988.168,42.480,-1.465,-971.680,23.438,0
1582146988.172,38.574,9.766,-974.609,23.926,0
1582146988.176,40.527,17.578,-966.797,5.859,0
1582146988.179,42.969,-1.465,-963.379,0.488,0
1582146988.183,22.461,-1.465,-980.469,4.395,0
1582146988.187,16.602,67.383,-862.793,-1.953,0
1582146988.191,27.344,37.598,-827.637,4.883,0
1582146988.195,40.527,7.812,-964.844,17.090,0
1582146988.197,13.184,43.945,-880.859,8.301,0
1582146988.201,-11.719,56.152,-786.621,-11.230,0
1582146988.205,16.113,51.270,-761.230,-1.465,0
1582146988.209,21.973,36.133,-842.285,11.230,0
1582146988.213,19.531,35.156,-885.742,5.859,0
1582146988.217,17.578,25.391,-905.762,16.602,0
1582146988.221,22.461,27.344,-977.051,14.648,0
1582146988.224,22.461,18.066,-972.168,0.000,0
1582146988.228,16.113,37.109,-935.059,9.766,0
1582146988.232,24.414,79.590,-804.199,23.926,0
1582146988.236,37.109,55.176,-803.223,20.508,0
1582146988.240,40.527,38.574,-913.086,2.930,0
1582146988.242,23.438,63.477,-837.402,-3.418,0
1582146988.246,25.391,23.926,-879.395,0.488,0
1582146988.250,31.250,6.348,-982.422,12.207,0
1582146988.254,25.391,46.387,-969.727,13.672,0
1582146988.258,24.414,48.340,-970.215,-10.254,0
1582146988.262,2.930,41.016,-972.656,-17.090,0
1582146988.266,-11.230,28.809,-972.168,-19.043,0
1582146988.269,-1.465,23.926,-972.168,-41.992,0
1582146988.273,-4.883,72.754,-972.168,-66.895,0
1582146988.277,-17.578,64.453,-972.168,-42.969,0
1582146988.281,-6.836,41.016,-972.168,-19.531,0
1582146988.285,-1.465,47.363,-972.168,-40.039,0
1582146988.287,-8.789,58.594,-972.168,-47.363,0
1582146988.291,-6.348,57.617,-972.168,-44.922,0
1582146988.295,-18.066,44.922,-972.168,-46.387,0
1582146988.299,-16.113,52.734,-972.168,-51.270,0
1582146988.303,6.836,36.133,-972.168,-67.871,0
1582146988.307,8.301,7.812,-972.168,-70.312,0
1582146988.311,-12.207,-0.488,-972.168,-68.359,0
1582146988.314,-11.719,28.320,-972.168,-78.125,0
1582146988.318,9.766,71.777,-972.168,-70.801,0
1582146988.322,6.348,64.941,-972.168,-71.777,0
1582146988.326,3.906,44.922,-972.168,-74.219,0
1582146988.330,2.441,53.711,-972.168,-70.801,0
1582146988.347,15.137,49.316,-972.168,-65.430,0
1582146988.351,18.066,22.461,-972.168,-70.312,0
1582146988.355,-1.953,21.973,-972.168,-77.637,0
1582146988.359,8.301,60.059,-972.168,-72.754,0
1582146988.363,20.996,68.359,-972.168,-77.148,0
1582146988.367,45.898,14.160,-972.168,-77.148,0
1582146988.371,29.297,32.227,-972.168,-66.895,0
1582146988.374,1.465,56.152,-972.168,-82.031,0
1582146988.378,10.254,36.133,-972.168,-96.191,0
1582146988.382,10.254,31.738,-972.168,-91.309,0
1582146988.386,5.371,27.832,-972.168,-86.426,0
1582146988.390,20.020,57.129,-972.168,-66.895,0
1582146988.392,38.574,60.059,-972.168,-56.641,0
1582146988.396,37.109,45.410,-972.168,-83.496,0
1582146988.400,6.836,57.129,-972.168,-112.793,0
1582146988.404,-8.789,67.383,-972.168,-97.168,0
1582146988.408,12.695,37.109,-972.168,-84.961,0
1582146988.412,27.832,21.973,-972.168,-94.727,0
1582146988.416,29.297,49.316,-972.168,-83.008,0
1582146988.419,11.230,86.426,-972.168,-71.777,0
1582146988.423,-14.160,63.477,-972.168,-65.918,0
1582146988.427,-21.484,20.996,-972.168,-73.242,0
1582146988.431,-10.742,48.340,-972.168,-92.773,0
1582146988.435,-16.113,82.031,-972.168,-83.984,0
1582146988.438,-51.270,77.148,-972.168,-78.125,0
1582146988.442,-58.594,64.941,-972.168,-76.172,0
1582146988.446,-54.688,92.773,-972.168,-84.961,0
1582146988.450,-74.707,110.840,-972.168,-104.492,0
1582146988.454,-91.309,81.543,-972.168,-102.539,0
1582146988.458,-94.238,47.852,-972.168,-109.863,0
1582146988.462,-98.633,80.566,-972.168,-133.789,0
1582146988.465,-115.723,132.324,-972.168,-142.578,0
1582146988.469,-145.020,97.656,-972.168,-146.973,0
1582146988.473,-145.020,89.355,-972.168,-142.578,0
1582146988.477,-144.531,132.812,-972.168,-166.992,0
1582146988.481,-139.648,108.887,-972.168,-170.898,0
1582146988.483,-112.793,88.379,-972.168,-144.043,0
1582146988.487,-128.906,95.215,-972.168,-153.320,0
1582146988.491,-131.836,120.605,-972.168,-150.879,0
1582146988.495,-94.727,102.539,-972.168,-121.582,0
1582146988.499,-91.309,78.613,-972.168,-90.332,0
1582146988.503,-88.867,77.148,-972.168,-72.266,0
1582146988.507,-69.824,62.988,-972.168,-64.941,0
1582146988.510,-38.086,47.363,-972.168,-43.457,0
1582146988.514,-18.555,28.809,-972.168,-26.367,0
1582146988.518,-18.555,54.688,-972.168,-13.184,0
1582146988.522,-11.230,69.336,-972.168,13.184,0
1582146988.526,15.625,33.203,-972.168,27.344,0
1582146988.527,34.668,48.828,-972.168,36.621,0
1582146988.531,26.855,71.777,-972.168,58.105,0
1582146988.535,44.434,58.105,-972.168,87.891,0
1582146988.539,93.262,50.781,-972.168,110.840,0
1582146988.543,90.820,25.391,-972.168,102.539,0
1582146988.547,70.312,21.484,-972.168,104.492,0
1582146988.551,61.523,45.410,-972.168,129.395,0
1582146988.554,83.008,16.113,-972.168,132.812,0
1582146988.558,105.957,4.395,-972.168,111.816,0
1582146988.562,88.867,63.965,-972.168,102.539,0
1582146988.566,95.215,46.875,-972.168,130.859,0
1582146988.570,102.539,30.762,-972.168,135.254,0
1582146988.572,118.164,43.945,-972.168,133.301,0
1582146988.576,117.676,49.805,-972.168,120.605,0
1582146988.580,109.863,42.480,-972.168,126.465,0
1582146988.584,126.953,23.926,-972.168,160.156,0
1582146988.588,122.070,22.461,-972.168,170.410,0
1582146988.592,101.074,19.043,-972.168,144.531,0
1582146988.596,99.121,17.578,-972.168,143.066,0
1582146988.599,94.238,8.301,-972.168,149.414,0
1582146988.603,83.984,30.762,-972.168,152.344,0
1582146988.607,125.000,64.453,-972.168,152.344,0
1582146988.611,138.672,44.922,-972.168,157.715,0
1582146988.615,82.520,13.672,-972.168,159.668,0
1582146988.618,98.633,24.902,-972.168,145.996,0
1582146988.622,126.953,44.922,-972.168,144.043,0
1582146988.626,104.980,16.602,-972.168,160.645,0
1582146988.630,73.730,4.883,-972.168,161.621,0
1582146988.634,65.918,18.066,-972.168,149.902,0
1582146988.638,89.844,13.672,-972.168,151.367,0
1582146988.642,87.402,11.719,-972.168,156.738,0
1582146988.645,59.082,21.973,-972.168,132.812,0
1582146988.649,54.199,63.965,-972.168,130.859,0
1582146988.653,56.152,52.734,-972.168,118.164,0
1582146988.657,70.312,9.766,-972.168,108.398,0
1582146988.661,63.965,7.324,-972.168,134.766,0
1582146988.663,41.016,43.457,-972.168,130.859,0
1582146988.667,54.688,41.992,-972.168,132.324,0
1582146988.671,72.754,30.762,-972.168,123.535,0
1582146988.675,47.363,42.969,-972.168,109.863,0
1582146988.679,25.879,38.574,-972.168,113.281,0
1582146988.683,51.270,7.324,-972.168,125.488,0
1582146988.687,71.777,-14.648,-972.168,136.719,0
1582146988.690,53.711,18.066,-972.168,114.746,0
1582146988.694,23.926,52.734,-972.168,86.914,0
1582146988.698,36.133,30.273,-972.168,103.516,0
1582146988.702,61.035,-4.883,-972.168,102.539,0
1582146988.706,41.016,8.301,-972.168,77.637,0
1582146988.722,25.391,23.438,-972.168,68.359,0
1582146988.726,30.273,-11.719,-972.168,73.242,0
1582146988.730,51.758,12.207,-972.168,76.172,0
1582146988.734,67.871,35.156,-972.168,72.266,0
1582146988.738,40.039,21.484,-972.168,61.035,0
1582146988.742,42.969,-22.461,-972.168,74.707,0
1582146988.746,81.055,-14.648,-972.168,95.703,0
1582146988.749,80.078,42.480,-972.168,71.289,0
1582146988.753,43.457,47.363,-972.168,44.434,0
1582146988.757,24.902,-0.977,-972.168,45.410,0
1582146988.761,38.086,0.488,-972.168,48.828,0
1582146988.765,74.707,37.598,-972.168,39.062,0
1582146988.768,87.891,4.395,-972.168,50.781,0
1582146988.772,50.781,2.441,-972.168,50.781,0
1582146988.776,42.480,28.809,-972.168,37.598,0
1582146988.780,72.266,20.020,-972.168,40.039,0
1582146988.784,76.172,-5.371,-972.168,43.457,0
1582146988.788,54.688,0.488,-972.168,54.688,0
1582146988.792,66.406,2.930,-972.168,65.918,0
1582146988.795,85.938,15.625,-972.168,82.031,0
1582146988.799,79.102,25.391,-972.168,72.754,0
1582146988.803,71.777,-6.348,-972.168,52.246,0
1582146988.807,59.570,39.551,-972.168,43.945,0
1582146988.811,57.617,71.289,-972.168,34.180,0
1582146988.812,59.082,21.484,-972.168,40.039,0
1582146988.816,45.410,8.789,-972.168,30.273,0
1582146988.820,35.156,25.879,-972.168,29.297,0
1582146988.824,45.410,25.879,-972.168,33.691,0
1582146988.828,68.848,2.441,-972.168,36.621,0
1582146988.832,62.988,2.930,-972.168,65.918,0
1582146988.836,53.223,45.898,-972.168,52.734,0
1582146988.839,60.059,51.758,-972.168,22.949,0
1582146988.843,49.316,19.531,-972.168,18.555,0
1582146988.847,43.945,16.602,-972.168,26.855,0
1582146988.851,11.230,68.359,-972.168,41.016,0
1582146988.855,-3.418,45.898,-972.168,16.602,0
1582146988.857,23.926,22.949,-972.168,6.348,0
1582146988.861,53.711,38.574,-972.168,25.879,0
1582146988.865,48.340,39.551,-972.168,45.898,0
1582146988.869,20.996,36.621,-972.168,31.738,0
1582146988.873,31.250,44.434,-972.168,19.531,0
1582146988.877,55.176,27.344,-972.168,18.555,0
1582146988.881,24.902,35.645,-972.168,8.301,0
1582146988.884,13.672,63.965,-972.168,33.203,0
1582146988.888,27.344,20.508,-972.168,46.387,0
1582146988.892,15.625,31.250,-972.168,14.160,0
1582146988.896,15.625,70.801,-972.168,10.742,0
1582146988.900,8.789,55.664,-972.168,35.156,0
1582146988.902,7.324,34.668,-972.168,33.203,0
1582146988.906,37.598,51.758,-972.168,31.738,0
1582146988.910,30.273,57.617,-972.168,29.785,0
1582146988.914,0.488,34.180,-972.168,27.832,0
1582146988.918,0.977,28.809,-972.168,29.785,0
1582146988.922,4.883,35.645,-972.168,17.578,0
1582146988.926,29.297,50.781,-972.168,39.062,0
1582146988.929,28.320,27.832,-972.168,33.691,0
1582146988.933,2.930,28.809,-972.168,16.602,0
1582146988.937,17.578,86.914,-972.168,33.691,0
1582146988.941,43.457,67.383,-972.168,37.598,0
1582146988.945,25.391,48.828,-972.168,37.109,0
1582146988.947,-2.441,37.109,-972.168,33.691,0
1582146988.951,7.324,20.020,-972.168,38.574,0
1582146988.955,31.738,31.250,-972.168,38.086,0
1582146988.959,27.832,65.918,-972.168,37.109,0
1582146988.963,20.508,55.176,-972.168,64.453,0
1582146988.967,2.930,37.109,-972.168,50.293,0
1582146988.971,8.789,49.316,-972.168,20.020,0
1582146988.974,23.438,28.320,-972.168,35.156,0
1582146988.978,1.953,49.805,-972.168,24.902,0
1582146988.982,10.254,77.637,-972.168,17.578,0
1582146988.986,20.020,35.156,-972.168,28.320,0
1582146988.990,5.371,22.461,-972.168,26.855,0
1582146988.992,-9.766,42.969,-972.168,40.527,0
1582146988.996,-7.812,59.570,-972.168,48.828,0
1582146989.000,-8.789,40.039,-972.168,64.453,0
1582146989.004,10.742,17.578,-972.168,45.410,0
1582146989.008,22.461,38.086,-972.168,44.434,0
1582146989.012,3.418,46.387,-972.168,52.246,0
1582146989.016,14.160,20.996,-972.168,57.129,0
1582146989.019,27.832,20.996,-972.168,56.152,0
1582146989.023,35.156,68.848,-972.168,27.344,0
1582146989.027,18.066,51.270,-972.168,26.367,0
1582146989.031,10.742,27.832,-972.168,52.734,0
1582146989.035,37.109,42.480,-972.168,49.805,0
1582146989.037,26.367,52.246,-972.168,20.996,0
1582146989.041,36.133,41.504,-972.168,32.227,0
1582146989.045,36.621,34.180,-972.168,40.527,0
1582146989.049,22.461,37.598,-972.168,31.738,0
1582146989.053,48.828,51.270,-972.168,32.227,0
1582146989.057,41.992,37.109,-972.168,36.133,0
1582146989.061,14.160,9.766,-972.168,20.508,0
1582146989.064,16.602,46.875,-972.168,3.906,0
1582146989.068,30.273,76.660,-972.168,8.301,0
1582146989.072,36.621,25.391,-972.168,12.695,0
1582146989.076,16.602,22.461,-972.168,21.973,0
1582146989.080,16.113,54.199,-972.168,20.996,0
1582146989.097,45.410,42.480,-972.168,-2.930,0
1582146989.101,52.734,23.438,-972.168,18.555,0
1582146989.105,53.223,10.254,-972.168,21.973,0
1582146989.109,56.152,39.062,-972.168,14.648,0
1582146989.113,71.289,57.617,-972.168,8.301,0
1582146989.117,55.664,7.324,-972.168,-17.090,0
1582146989.121,16.113,18.066,-972.168,-20.996,0
1582146989.124,4.883,61.523,-972.168,-8.301,0
1582146989.128,24.902,55.176,-972.168,-2.441,0
1582146989.132,41.016,15.625,-972.168,-27.344,0
1582146989.136,28.809,2.930,-972.168,-20.996,0
1582146989.140,28.809,50.293,-972.168,0.977,0
1582146989.142,47.363,38.086,-972.168,2.441,0
1582146989.146,72.754,26.855,-972.168,12.695,0
1582146989.150,54.688,50.293,-972.168,0.977,0
1582146989.154,24.902,55.176,-972.168,3.418,0
1582146989.158,35.156,30.273,-972.168,6.836,0
1582146989.162,30.762,20.508,-972.168,4.883,0
1582146989.166,25.391,45.898,-972.168,-1.465,0
1582146989.169,32.227,56.641,-972.168,-8.301,25600
1582146989.173,37.109,32.715,-972.168,12.207,0
1582146989.177,22.461,-11.719,-972.168,4.883,0
1582146989.181,19.531,33.691,-972.168,-12.695,0
1582146989.185,15.625,87.402,-972.168,-7.324,0
1582146989.187,15.625,42.480,-972.168,-10.254,0
1582146989.191,26.367,29.297,-972.168,-20.996,0
1582146989.195,40.527,49.805,-972.168,-16.113,0
1582146989.199,44.922,42.480,-972.168,-2.441,0
1582146989.203,27.344,7.324,-972.168,2.441,0
1582146989.207,18.555,-0.488,-972.168,-8.301,0
1582146989.211,25.879,41.016,-972.168,-13.672,0
1582146989.214,38.086,63.477,-972.168,5.859,0
1582146989.218,24.414,21.484,-972.168,1.953,0
1582146989.222,-11.230,14.648,-972.168,-28.809,0
1582146989.226,-0.488,81.543,-972.168,-38.086,0
1582146989.230,17.090,62.012,-972.168,-44.922,0
1582146989.232,6.836,31.738,-972.168,-24.414,0
1582146989.236,6.348,26.855,-972.168,-5.859,0
1582146989.240,6.348,36.133,-972.168,-2.930,0
1582146989.244,20.508,38.574,-972.168,-8.301,0
1582146989.248,27.344,29.297,-972.168,-10.254,0
1582146989.252,27.344,19.043,-972.168,1.953,0
1582146989.256,20.020,34.668,-972.168,-3.418,0
1582146989.259,19.043,56.641,-972.168,-3.906,0
1582146989.263,16.602,18.555,-972.168,-19.531,0
1582146989.267,-10.742,63.965,-972.168,-35.156,0
1582146989.271,0.000,94.727,-972.168,-34.180,0
1582146989.275,25.391,48.340,-972.168,-28.809,0
1582146989.277,10.742,36.621,-972.168,-37.598,0
1582146989.281,-13.672,38.086,-972.168,-43.457,0
1582146989.285,-6.836,41.504,-972.168,-30.762,0
1582146989.289,15.625,46.387,-972.168,-18.066,0
1582146989.293,11.719,38.574,-972.168,-16.113,0
1582146989.297,8.789,41.504,-972.168,-19.043,0
1582146989.301,-16.602,56.641,-972.168,-55.176,0
1582146989.304,-17.090,20.020,-972.168,-73.730,0
1582146989.308,1.953,25.879,-972.168,-73.730,0
1582146989.312,-9.766,86.426,-972.168,-76.172,0
1582146989.316,-8.301,67.383,-972.168,-62.988,0
1582146989.320,-7.812,51.270,-972.168,-67.383,0
1582146989.322,5.371,68.848,-972.168,-73.730,0
1582146989.326,3.418,69.336,-972.168,-62.988,0
1582146989.330,-19.043,41.016,-972.168,-37.598,0
1582146989.334,-10.742,41.504,-972.168,-29.785,0
1582146989.338,-2.441,63.477,-972.168,-43.945,0
1582146989.342,-13.184,48.828,-972.168,-56.641,0
1582146989.346,-28.809,55.176,-972.168,-38.086,0
1582146989.349,-36.621,49.805,-972.168,-27.832,0
1582146989.353,-28.809,57.129,-972.168,-40.527,0
1582146989.357,-8.789,92.773,-972.168,-44.434,0
1582146989.361,-24.902,68.848,-972.168,-37.598,0
1582146989.365,-53.223,56.641,-972.168,-26.855,0
1582146989.367,-23.926,77.637,-972.168,-19.043,0
1582146989.371,6.348,69.824,-972.168,-1.953,0
1582146989.375,-17.578,44.434,-972.168,7.324,0
1582146989.379,-28.320,71.777,-972.168,2.441,0
1582146989.383,-29.785,86.914,-972.168,0.977,0
1582146989.387,-23.926,69.336,-972.168,5.371,0
1582146989.391,-12.695,52.246,-972.168,2.930,0
1582146989.394,-37.598,59.082,-972.168,-3.418,0
1582146989.398,-49.316,112.305,-972.168,-0.977,0
1582146989.402,-32.715,105.469,-972.168,21.973,0
1582146989.406,-25.391,81.055,-972.168,22.461,0
1582146989.410,-31.250,85.449,-972.168,14.648,0
1582146989.412,-19.043,66.895,-972.168,28.809,0
1582146989.416,-1.953,53.223,-972.168,41.992,0
1582146989.420,19.531,80.566,-972.168,25.879,0
1582146989.424,0.000,99.609,-972.168,10.254,0
1582146989.428,-38.574,86.914,-972.168,13.672,0
1582146989.432,-20.996,62.012,-972.168,17.578,0
1582146989.436,12.695,32.715,-972.168,13.672,0
1582146989.439,-1.953,55.176,-972.168,28.320,0
1582146989.443,-27.832,99.609,-972.168,44.434,0
1582146989.447,-20.020,70.801,-972.168,37.109,0
1582146989.451,1.953,58.594,-972.168,36.133,0
1582146989.455,9.277,74.219,-972.168,50.293,0
1582146989.472,-3.906,83.496,-972.168,58.105,0
1582146989.476,6.348,49.316,-972.168,48.828,0
1582146989.480,32.715,58.105,-972.168,33.691,0
1582146989.484,27.344,84.473,-972.168,13.184,0
1582146989.488,3.906,49.805,-972.168,11.719,0
1582146989.492,-3.418,37.598,-972.168,28.809,0
1582146989.496,10.742,47.852,-972.168,15.625,0
1582146989.499,32.715,80.566,-972.168,7.812,0
1582146989.503,40.039,64.941,-972.168,26.855,0
1582146989.507,61.035,18.555,-972.168,55.176,0
1582146989.511,67.383,36.621,-972.168,54.688,0
1582146989.515,46.387,83.008,-972.168,33.203,0
1582146989.518,38.574,74.219,-972.168,11.230,0
1582146989.522,33.203,56.641,-972.168,16.113,0
1582146989.526,41.992,60.059,-972.168,47.363,0
1582146989.530,63.965,77.637,-972.168,48.828,0
1582146989.534,66.895,48.340,-972.168,47.363,0
1582146989.538,54.688,25.391,-972.168,55.176,0
1582146989.542,46.387,40.527,-972.168,63.477,0
1582146989.545,64.941,51.270,-972.168,63.477,0
1582146989.549,61.523,68.359,-972.168,55.664,0
1582146989.553,37.109,33.691,-972.168,47.852,0
1582146989.557,17.578,45.898,-972.168,28.809,0
1582146989.561,24.414,71.777,-972.168,29.297,0
1582146989.563,53.223,41.992,-972.168,41.504,0
1582146989.567,42.969,41.016,-972.168,40.039,0
1582146989.571,30.762,60.547,-972.168,47.363,0
1582146989.575,38.086,76.660,-972.168,46.875,0
1582146989.579,45.410,49.316,-972.168,39.062,0
1582146989.583,45.898,17.090,-972.168,44.434,0
1582146989.587,25.391,38.574,-972.168,40.039,0
1582146989.590,21.484,49.805,-972.168,41.016,0
1582146989.594,38.086,26.367,-972.168,36.133,0
1582146989.598,22.949,17.578,-972.168,19.043,0
1582146989.602,5.859,55.176,-972.168,18.066,0
1582146989.606,11.230,81.055,-972.168,29.297,0
1582146989.607,12.207,81.055,-972.168,27.832,0
1582146989.611,15.625,65.918,-972.168,22.461,0
1582146989.615,18.555,59.082,-972.168,32.715,0
1582146989.619,25.391,58.594,-972.168,49.805,0
1582146989.623,29.785,48.828,-972.168,42.969,0
1582146989.627,36.621,34.180,-972.168,34.180,0
1582146989.631,21.973,45.898,-972.168,47.363,0
1582146989.634,-4.395,57.617,-972.168,19.531,0
1582146989.638,11.719,19.043,-972.168,10.742,0
1582146989.642,25.879,51.270,-972.168,24.414,0
1582146989.646,18.555,89.355,-972.168,22.461,0
1582146989.650,8.301,47.852,-972.168,43.945,0
1582146989.652,7.324,16.113,-972.168,61.035,0
1582146989.656,21.973,48.340,-972.168,51.270,0
1582146989.660,11.230,82.031,-972.168,30.273,0
1582146989.664,-7.812,47.363,-972.168,28.320,0
1582146989.668,-7.812,47.852,-972.168,39.551,0
1582146989.672,10.742,56.641,-972.168,43.457,0
1582146989.676,30.762,57.617,-972.168,41.992,0
1582146989.679,22.461,47.363,-972.168,30.762,0
1582146989.683,25.879,40.527,-972.168,37.109,0
1582146989.687,34.180,81.543,-972.168,48.828,0
1582146989.691,34.668,57.129,-972.168,26.367,0
1582146989.695,28.809,46.875,-972.168,23.926,0
1582146989.697,13.672,80.078,-972.168,53.711,0
1582146989.701,10.254,93.262,-972.168,41.992,0
1582146989.705,8.301,70.312,-972.168,13.184,0
1582146989.709,16.113,43.457,-972.168,18.555,0
1582146989.713,15.137,45.898,-972.168,26.367,0
1582146989.717,11.719,46.875,-972.168,21.484,0
1582146989.721,12.207,45.898,-972.168,18.066,0
1582146989.724,21.973,34.180,-972.168,20.020,0
1582146989.728,17.578,48.340,-972.168,20.996,0
1582146989.732,3.418,81.055,-972.168,23.438,0
1582146989.736,19.531,62.012,-972.168,22.949,0
1582146989.740,45.898,57.129,-972.168,27.832,0
1582146989.743,31.738,83.984,-972.168,42.480,0
1582146989.747,-5.371,80.078,-972.168,20.020,0
1582146989.751,4.395,51.758,-972.168,13.672,0
1582146989.755,15.625,57.129,-972.168,20.996,0
1582146989.759,5.371,64.941,-972.168,11.230,0
1582146989.763,9.766,41.992,-972.168,11.230,0
1582146989.767,8.301,25.879,-972.168,13.672,0
1582146989.770,9.277,38.086,-972.168,-1.953,0
1582146989.774,15.625,84.961,-972.168,-0.977,0
1582146989.778,17.090,80.078,-972.168,19.043,0
1582146989.782,11.719,54.688,-972.168,21.973,0
1582146989.786,19.043,61.035,-972.168,13.672,0
1582146989.787,35.156,67.383,-972.168,-1.953,0
1582146989.791,22.461,41.504,-972.168,16.113,0
1582146989.795,-8.789,30.762,-972.168,28.320,0
1582146989.799,0.000,52.246,-972.168,7.812,0
1582146989.803,24.414,56.641,-972.168,-4.395,0
1582146989.807,12.207,33.203,-972.168,15.625,0
1582146989.811,8.789,-2.930,-972.168,30.762,0
1582146989.814,16.113,30.273,-972.168,26.855,0
1582146989.818,12.207,76.660,-972.168,20.996,0
1582146989.822,14.160,42.969,-972.168,12.695,0
1582146989.826,12.207,45.410,-972.168,28.320,0
1582146989.830,10.254,66.895,-972.168,31.738,0
1582146989.848,25.391,63.477,-972.168,23.926,0
1582146989.852,24.902,30.273,-972.168,7.812,0
1582146989.856,3.906,24.414,-972.168,-1.465,0
1582146989.860,16.602,50.293,-972.168,14.160,0
1582146989.864,31.250,44.922,-972.168,18.555,0
1582146989.868,33.203,16.602,-972.168,20.996,0
1582146989.872,25.879,28.809,-972.168,24.902,0
1582146989.875,12.695,79.590,-972.168,15.625,0
1582146989.879,27.344,67.871,-972.168,17.090,0
1582146989.883,42.480,33.691,-972.168,26.855,0
1582146989.887,31.250,41.504,-972.168,20.020,0
1582146989.891,22.461,77.637,-972.168,16.113,0
1582146989.892,21.484,33.203,-972.168,28.320,0
1582146989.896,37.109,19.043,-972.168,29.297,0
1582146989.900,34.180,63.477,-972.168,22.461,0
1582146989.904,14.160,51.758,-972.168,18.555,0
1582146989.908,14.160,43.457,-972.168,24.414,0
1582146989.912,50.781,37.109,-972.168,31.738,0
1582146989.916,63.965,46.875,-972.168,22.949,0
1582146989.919,39.062,73.242,-972.168,33.203,0
1582146989.923,30.273,54.199,-972.168,40.039,0
1582146989.927,36.621,14.160,-972.168,29.785,0
1582146989.931,31.250,42.480,-972.168,1.953,0
1582146989.935,38.086,75.195,-972.168,8.301,0
1582146989.937,34.668,52.734,-972.168,41.992,0
1582146989.941,18.555,33.203,-972.168,25.391,0
1582146989.945,21.973,52.246,-972.168,1.953,0
1582146989.949,28.320,52.734,-972.168,14.160,0
1582146989.953,21.484,29.297,-972.168,27.832,0
1582146989.957,29.297,25.391,-972.168,34.668,0
1582146989.961,55.664,35.645,-972.168,28.809,0
1582146989.964,39.062,65.430,-972.168,21.973,0
1582146989.968,32.715,33.203,-972.168,36.621,0
1582146989.972,37.109,15.625,-972.168,29.297,0
1582146989.976,29.785,76.172,-972.168,19.531,0
1582146989.980,40.527,58.594,-972.168,22.461,0
1582146989.982,24.902,25.391,-972.168,20.508,0
1582146989.986,6.836,37.598,-972.168,28.320,0
1582146989.990,17.090,50.781,-972.168,25.879,0
1582146989.994,37.598,49.316,-972.168,22.949,0
1582146989.998,29.297,59.570,-972.168,20.020,0
1582146990.002,8.301,45.410,-972.168,22.461,0
1582146990.006,22.949,30.273,-972.168,31.250,0
1582146990.009,37.109,36.621,-972.168,31.250,0
1582146990.013,28.809,34.668,-972.168,26.855,0
1582146990.017,17.090,53.711,-972.168,28.809,0
1582146990.021,25.879,66.895,-972.168,31.738,0
1582146990.025,30.762,34.668,-972.168,26.367,0
1582146990.027,18.555,34.180,-972.168,25.391,0
1582146990.031,15.625,48.828,-972.168,28.809,0
1582146990.035,21.484,41.992,-972.168,29.785,0
1582146990.039,26.367,40.527,-972.168,30.273,0
1582146990.043,35.645,47.852,-972.168,15.137,0
1582146990.047,27.832,40.039,-972.168,17.578,0
1582146990.051,11.719,60.547,-972.168,32.227,0
1582146990.054,19.043,41.992,-972.168,30.273,0
1582146990.058,31.250,17.578,-972.168,16.602,0
1582146990.062,11.230,51.758,-972.168,4.395,0
1582146990.066,-19.531,55.664,-972.168,16.113,0
1582146990.070,-15.625,59.082,-972.168,20.508,0
1582146990.072,6.348,55.664,-972.168,1.953,0
1582146990.076,13.672,56.641,-972.168,4.395,0
1582146990.080,17.090,59.082,-972.168,13.184,0
1582146990.084,29.297,69.824,-972.168,30.762,0
1582146990.088,44.922,59.570,-972.168,38.574,0
1582146990.092,45.898,41.992,-972.168,17.090,0
1582146990.096,27.344,41.504,-972.168,18.066,0
1582146990.099,33.691,13.184,-972.168,24.414,0
1582146990.103,55.176,50.781,-972.168,21.973,0
1582146990.107,43.945,91.797,-972.168,11.719,0
1582146990.111,21.484,40.039,-972.168,23.438,0
1582146990.115,9.766,25.879,-972.168,25.391,0
1582146990.117,27.344,35.156,-972.168,7.812,0
1582146990.121,50.781,51.758,-972.168,18.066,0
1582146990.125,38.086,47.852,-972.168,19.043,0
1582146990.129,23.438,43.457,-972.168,12.207,0
1582146990.133,31.738,63.965,-972.168,11.230,0
1582146990.137,43.945,40.527,-972.168,6.836,0
1582146990.141,50.293,16.602,-972.168,7.324,0
1582146990.144,44.922,24.414,-972.168,24.414,0
1582146990.148,31.250,75.684,-972.168,17.090,0
1582146990.152,12.207,74.707,-972.168,11.230,0
1582146990.156,15.625,39.551,-972.168,12.207,0
1582146990.160,31.250,36.621,-972.168,15.625,0
1582146990.162,30.762,61.035,-972.168,30.762,0
1582146990.166,37.109,60.547,-972.168,10.742,0
1582146990.170,34.668,52.246,-972.168,4.395,0
1582146990.174,22.461,47.363,-972.168,25.879,0
1582146990.178,20.508,41.504,-972.168,36.133,0
1582146990.182,35.645,27.344,-972.168,39.551,0
1582146990.186,57.129,0.000,-972.168,25.391,0
1582146990.189,48.340,34.668,-972.168,20.020,0
1582146990.193,18.066,77.148,-972.168,23.438,0
1582146990.197,34.180,46.387,-972.168,33.203,0
1582146990.201,45.410,41.992,-972.168,33.203,0
1582146990.205,26.855,65.918,-972.168,25.879,0
1582146990.222,26.367,51.758,-972.168,28.809,28178
1582146990.226,35.645,30.273,-972.168,29.785,0
1582146990.230,40.039,27.832,-972.168,40.039,0
1582146990.234,59.082,51.758,-972.168,37.109,0
1582146990.238,63.477,54.199,-972.168,34.180,0
1582146990.242,47.852,13.672,-972.168,59.082,0
1582146990.246,32.227,6.836,-972.168,38.086,0
1582146990.249,30.762,68.359,-972.168,26.855,0
1582146990.253,51.758,66.895,-972.168,38.574,0
1582146990.257,28.809,35.156,-972.168,35.156,0
1582146990.261,24.414,35.645,-972.168,32.715,0
1582146990.265,46.387,28.809,-972.168,21.973,0
1582146990.267,51.758,27.344,-972.168,30.762,0
1582146990.271,50.781,39.551,-972.168,39.062,0
1582146990.275,47.363,38.574,-972.168,42.969,0
1582146990.279,63.965,39.551,-972.168,31.250,0
1582146990.283,73.242,50.781,-972.168,10.742,0
1582146990.287,56.152,27.344,-972.168,26.367,0
1582146990.291,44.922,15.137,-972.168,26.367,0
1582146990.294,55.176,46.387,-972.168,22.461,0
1582146990.298,71.289,40.527,-972.168,30.273,0
1582146990.302,72.266,-11.230,-972.168,22.461,0
1582146990.306,70.801,18.555,-972.168,36.621,0
1582146990.310,80.078,65.918,-972.168,55.664,0
1582146990.312,78.613,26.855,-972.168,35.645,0
1582146990.316,60.059,10.254,-972.168,27.344,0
1582146990.320,48.828,49.316,-972.168,42.480,0
1582146990.324,38.086,66.895,-972.168,47.363,0
1582146990.328,43.457,31.738,-972.168,31.738,0
1582146990.332,57.129,9.766,-972.168,24.902,0
1582146990.336,35.156,31.738,-972.168,26.367,0
1582146990.339,30.762,49.805,-972.168,25.391,0
1582146990.343,41.992,8.789,-972.168,29.297,0
1582146990.347,44.434,10.254,-972.168,22.461,0
1582146990.351,25.879,76.660,-972.168,25.879,0
1582146990.355,28.320,59.082,-972.168,22.949,0
1582146990.357,47.363,29.785,-972.168,8.301,0
1582146990.361,22.461,31.250,-972.168,7.324,0
1582146990.365,9.766,52.734,-972.168,7.324,0
1582146990.369,17.090,46.387,-972.168,19.043,0
1582146990.373,23.438,22.461,-972.168,23.438,0
1582146990.377,32.715,9.766,-972.168,19.531,0
1582146990.381,20.996,32.715,-972.168,14.160,0
1582146990.384,-0.488,57.617,-972.168,11.230,0
1582146990.388,18.066,19.043,-972.168,24.902,0
1582146990.392,24.902,28.809,-972.168,3.418,0
1582146990.396,19.531,65.918,-972.168,0.000,0
1582146990.400,22.949,33.203,-972.168,17.578,0
1582146990.402,18.066,16.113,-972.168,20.996,0
1582146990.406,20.996,40.039,-972.168,16.602,0
1582146990.410,30.273,37.109,-972.168,21.973,0
1582146990.414,19.531,14.160,-972.168,28.809,0
1582146990.418,0.488,27.344,-972.168,16.113,0
1582146990.422,-4.395,31.738,-972.168,-1.953,0
1582146990.426,15.625,45.410,-972.168,-10.742,0
1582146990.429,21.973,33.691,-972.168,8.301,0
1582146990.433,9.277,16.602,-972.168,27.832,0
1582146990.437,8.789,58.105,-972.168,27.832,0
1582146990.441,13.672,46.387,-972.168,24.414,0
1582146990.445,15.625,24.902,-972.168,29.785,0
1582146990.447,25.879,36.133,-972.168,47.363,0
1582146990.451,37.598,55.664,-972.168,41.016,0
1582146990.455,24.902,62.012,-972.168,42.969,0
1582146990.459,12.695,52.734,-972.168,31.738,0
1582146990.463,11.230,55.664,-972.168,24.414,0
1582146990.467,24.902,36.133,-972.168,41.992,0
1582146990.471,54.199,26.367,-972.168,44.434,0
1582146990.474,44.434,20.508,-972.168,50.293,0
1582146990.478,18.555,53.223,-972.168,32.715,0
1582146990.482,14.160,104.492,-972.168,32.715,0
1582146990.486,23.438,76.660,-972.168,38.086,0
1582146990.490,45.898,54.199,-972.168,33.691,0
1582146990.492,37.598,61.035,-972.168,49.805,0
1582146990.496,15.137,53.711,-972.168,38.086,0
1582146990.500,28.320,26.367,-972.168,36.621,0
1582146990.504,44.434,37.598,-972.168,31.250,0
1582146990.508,27.344,40.527,-972.168,13.184,0
1582146990.512,-6.348,10.254,-972.168,26.367,0
1582146990.516,0.000,9.766,-972.168,23.438,0
1582146990.519,36.133,41.992,-972.168,28.320,0
1582146990.523,30.762,92.285,-972.168,18.066,0
1582146990.527,22.461,51.758,-972.168,24.414,0
1582146990.531,37.109,23.926,-972.168,43.457,0
1582146990.535,38.086,62.988,-972.168,23.438,0
1582146990.537,34.180,73.730,-972.168,0.977,0
1582146990.541,20.020,55.664,-972.168,0.977,0
1582146990.545,8.789,58.594,-972.168,14.160,0
1582146990.549,23.438,68.359,-972.168,9.766,0
1582146990.553,34.180,54.688,-972.168,9.766,0
1582146990.557,33.203,23.926,-972.168,16.602,0
1582146990.561,25.391,12.207,-972.168,18.066,0
1582146990.564,26.367,42.480,-972.168,20.020,0
1582146990.568,33.203,94.727,-972.168,20.508,0
1582146990.572,32.227,59.570,-972.168,22.949,0
1582146990.576,25.391,36.133,-972.168,20.020,0
1582146990.580,12.207,63.965,-972.168,17.090,0
1582146990.597,15.137,64.453,-972.168,11.719,0
1582146990.601,12.695,52.734,-972.168,3.906,0
1582146990.605,4.395,40.039,-972.168,-0.488,0
1582146990.609,-8.789,69.336,-972.168,3.418,0
1582146990.613,7.812,76.172,-972.168,1.953,0
1582146990.617,24.414,36.133,-972.168,0.977,0
1582146990.621,-4.883,41.504,-972.168,-15.137,0
1582146990.624,-29.785,85.938,-972.168,-27.832,0
1582146990.628,-19.043,88.867,-972.168,-13.184,0
1582146990.632,1.465,65.918,-972.168,-27.344,0
1582146990.636,-23.438,99.121,-972.168,-52.734,0
1582146990.640,-69.336,141.113,-972.168,-64.453,0
1582146990.642,-87.891,128.906,-972.168,-84.961,0
1582146990.646,-86.426,122.070,-972.168,-96.680,0
1582146990.650,-94.727,125.000,-972.168,-123.047,0
1582146990.654,-122.559,170.898,-972.168,-142.578,0
1582146990.658,-138.672,199.219,-972.168,-144.531,0
1582146990.662,-139.648,169.434,-972.168,-161.133,0
1582146990.666,-158.691,158.203,-972.168,-187.012,0
1582146990.669,-205.566,190.430,-972.168,-235.352,0
1582146990.673,-214.844,188.965,-972.168,-218.750,0
1582146990.677,-197.266,139.648,-972.168,-210.938,0
1582146990.681,-180.664,154.785,-972.168,-229.492,0
1582146990.685,-177.734,175.781,-972.168,-221.191,0
1582146990.687,-191.406,132.812,-972.168,-216.797,0
1582146990.691,-176.758,132.324,-972.168,-203.613,0
1582146990.695,-160.156,150.879,-972.168,-192.871,0
1582146990.699,-153.809,134.766,-972.168,-200.195,0
1582146990.703,-131.348,104.004,-972.168,-172.363,0
1582146990.707,-117.676,104.492,-972.168,-147.949,0
1582146990.711,-113.770,118.164,-972.168,-152.832,0
1582146990.714,-92.285,120.117,-972.168,-116.211,0
1582146990.718,-74.219,82.031,-972.168,-98.633,0
1582146990.722,-62.012,56.152,-972.168,-98.633,0
1582146990.726,-22.949,105.957,-972.168,-69.824,0
1582146990.730,-1.953,99.121,-972.168,-53.711,0
1582146990.732,-11.719,72.266,-972.168,-40.039,0
1582146990.736,1.953,75.195,-972.168,-8.789,0
1582146990.740,30.273,93.750,-972.168,13.184,0
1582146990.744,56.641,80.078,-972.168,19.531,0
1582146990.748,73.730,62.988,-972.168,33.691,0
1582146990.752,71.777,25.879,-972.168,58.105,0
1582146990.756,69.824,14.160,-972.168,53.223,0
1582146990.759,84.473,60.059,-972.168,56.152,0
1582146990.763,105.957,11.719,-972.168,82.031,0
1582146990.767,120.605,9.277,-972.168,93.262,0
1582146990.771,113.281,85.449,-972.168,121.582,0
1582146990.775,142.090,49.316,-972.168,122.070,0
1582146990.777,161.621,20.020,-972.168,111.328,0
1582146990.781,130.371,36.621,-972.168,129.883,0
1582146990.785,126.465,32.715,-972.168,137.695,0
1582146990.789,140.137,18.555,-972.168,137.695,0
1582146990.793,152.344,12.207,-972.168,142.578,0
1582146990.797,147.461,19.043,-972.168,139.648,0
1582146990.801,138.672,50.781,-972.168,139.648,0
1582146990.804,140.137,18.555,-972.168,143.555,0
1582146990.808,138.184,-19.043,-972.168,144.531,0
1582146990.812,121.094,35.156,-972.168,143.066,0
1582146990.816,118.652,36.621,-972.168,143.555,0
1582146990.820,125.488,0.000,-972.168,133.301,0
1582146990.822,149.414,-5.371,-972.168,140.137,0
1582146990.826,159.180,43.945,-972.168,145.508,0
1582146990.830,108.398,40.039,-972.168,132.324,0
1582146990.834,97.168,33.203,-972.168,143.555,0
1582146990.838,111.328,41.504,-972.168,139.160,0
1582146990.842,116.699,11.230,-972.168,114.258,0
1582146990.846,108.398,7.812,-972.168,128.418,0
1582146990.849,105.469,-8.301,-972.168,131.348,0
1582146990.853,118.164,29.297,-972.168,121.094,0
1582146990.857,122.559,52.246,-972.168,125.000,0
1582146990.861,120.117,20.020,-972.168,120.117,0
1582146990.865,123.047,39.062,-972.168,127.441,0
1582146990.867,115.723,50.781,-972.168,125.000,0
1582146990.871,100.586,55.176,-972.168,88.379,0
1582146990.875,109.863,29.785,-972.168,76.660,0
1582146990.879,78.613,12.207,-972.168,96.191,0
1582146990.883,68.359,31.250,-972.168,90.820,0
1582146990.887,85.938,13.184,-972.168,84.473,0
1582146990.891,95.703,-2.441,-972.168,106.445,0
1582146990.894,77.637,18.555,-972.168,99.609,0
1582146990.898,51.270,71.289,-972.168,69.336,0
1582146990.902,55.176,56.152,-972.168,71.289,0
1582146990.906,64.941,20.020,-972.168,62.500,0
1582146990.910,83.496,38.086,-972.168,67.871,0
1582146990.912,69.824,58.594,-972.168,79.590,0
1582146990.916,49.805,36.133,-972.168,65.430,0
1582146990.920,59.570,38.086,-972.168,61.523,0
1582146990.924,65.430,47.363,-972.168,59.082,0
1582146990.928,62.012,29.785,-972.168,58.105,0
1582146990.932,44.434,20.020,-972.168,59.570,0
1582146990.936,30.762,10.742,-972.168,50.293,0
1582146990.939,32.227,32.227,-972.168,37.109,0
1582146990.943,30.762,72.754,-972.168,46.387,0
1582146990.947,37.598,62.500,-972.168,72.754,0
1582146990.951,60.059,45.898,-972.168,49.805,0
1582146990.955,56.152,43.457,-972.168,40.527,0
1582146990.972,33.203,47.852,-972.168,63.477,0
1582146990.976,29.297,11.719,-972.168,54.199,0
1582146990.980,34.668,22.949,-972.168,41.992,0
1582146990.984,35.645,60.547,-972.168,33.691,0
1582146990.988,36.133,58.105,-972.168,37.598,0
1582146990.992,22.949,35.645,-972.168,53.711,0
1582146990.996,18.066,18.066,-972.168,48.340,0
1582146990.999,28.809,79.102,-972.168,45.410,0
1582146991.003,27.344,73.730,-972.168,61.035,0
1582146991.007,14.648,39.062,-972.168,66.406,0
1582146991.011,17.578,54.688,-972.168,63.477,0
1582146991.015,50.781,60.059,-972.168,66.895,0
1582146991.017,48.340,52.734,-972.168,66.406,0
1582146991.021,32.715,36.133,-972.168,58.105,0
1582146991.025,35.156,30.762,-972.168,59.082,0
1582146991.029,47.852,39.062,-972.168,49.316,0
1582146991.033,76.172,43.945,-972.168,46.387,0
1582146991.037,56.641,25.391,-972.168,58.594,0
1582146991.041,29.297,38.574,-972.168,46.875,0
1582146991.044,47.363,71.777,-972.168,28.809,0
1582146991.048,64.941,54.199,-972.168,27.344,0
1582146991.052,65.430,-8.301,-972.168,42.969,0
1582146991.056,63.965,32.715,-972.168,51.758,0
1582146991.060,71.289,76.172,-972.168,46.387,0
1582146991.062,80.566,29.297,-972.168,36.133,0
1582146991.066,74.707,26.367,-972.168,24.414,0
1582146991.070,47.852,39.551,-972.168,25.879,0
1582146991.074,51.758,46.875,-972.168,48.340,0
1582146991.078,81.543,35.645,-972.168,52.246,0
1582146991.082,74.707,23.438,-972.168,30.762,0
1582146991.086,46.387,32.715,-972.168,23.438,0
1582146991.089,37.109,52.246,-972.168,22.949,0
1582146991.093,51.270,22.461,-972.168,31.738,0
1582146991.097,68.848,8.789,-972.168,34.180,0
1582146991.101,53.223,60.059,-972.168,41.504,0
1582146991.105,50.781,54.199,-972.168,64.453,0
1582146991.107,48.828,34.180,-972.168,39.062,0
1582146991.111,46.875,41.504,-972.168,24.414,0
1582146991.115,41.992,58.105,-972.168,36.133,0
1582146991.119,23.438,48.340,-972.168,32.715,0
1582146991.123,32.715,43.457,-972.168,32.715,0
1582146991.127,49.805,37.598,-972.168,36.133,0
1582146991.131,36.621,41.016,-972.168,23.926,0
1582146991.134,23.926,48.340,-972.168,28.809,0
1582146991.138,35.156,3.906,-972.168,39.062,0
1582146991.142,39.551,25.879,-972.168,22.949,0
1582146991.146,35.645,81.055,-972.168,19.043,0
1582146991.150,25.391,62.012,-972.168,26.855,0
1582146991.152,41.504,64.453,-972.168,16.602,0
1582146991.156,36.621,68.359,-972.168,14.160,0
1582146991.160,24.414,47.852,-972.168,30.273,0
1582146991.164,33.203,39.551,-972.168,39.062,0
1582146991.168,31.738,46.875,-972.168,40.039,0
1582146991.172,39.062,34.180,-972.168,35.645,0
1582146991.176,34.668,17.578,-972.168,18.555,0
1582146991.179,23.926,14.648,-972.168,10.254,0
1582146991.183,15.137,35.645,-972.168,26.367,0
1582146991.187,9.766,90.820,-972.168,24.902,0
1582146991.191,27.832,75.684,-972.168,16.602,0
1582146991.195,35.156,37.598,-972.168,22.949,0
1582146991.197,10.254,41.016,-972.168,30.273,0
1582146991.201,10.742,63.477,-972.168,25.879,0
1582146991.205,21.973,52.246,-972.168,21.484,0
1582146991.209,20.996,46.875,-972.168,29.785,0
1582146991.213,-0.488,58.105,-972.168,25.879,0
1582146991.217,-8.301,52.734,-972.168,24.902,0
1582146991.221,7.324,64.453,-972.168,25.391,0
1582146991.224,2.930,43.457,-972.168,6.836,0
1582146991.228,4.883,27.344,-972.168,-3.906,0
1582146991.232,4.395,42.480,-972.168,13.184,0
1582146991.236,17.090,35.156,-972.168,39.062,0
1582146991.240,35.156,29.785,-972.168,38.574,0
1582146991.242,22.949,53.711,-972.168,20.996,0
1582146991.246,9.277,49.316,-972.168,26.855,0
1582146991.250,8.789,23.438,-972.168,37.598,0
1582146991.254,10.742,34.180,-972.168,25.879,0
1582146991.258,20.508,56.152,-972.168,17.578,0
1582146991.262,28.809,45.410,-972.168,41.016,0
1582146991.266,24.414,19.043,-972.168,41.016,0
1582146991.269,28.320,21.484,-972.168,26.855,0
1582146991.273,33.691,65.918,-972.168,25.879,0
1582146991.277,12.695,67.383,-972.168,24.414,0
1582146991.281,2.441,43.945,-972.168,29.297,0
1582146991.285,17.090,42.969,-972.168,26.855,0
1582146991.287,33.691,47.852,-972.168,17.578,0
1582146991.291,27.832,47.852,-972.168,16.602,0
1582146991.295,8.789,57.617,-972.168,10.742,0
1582146991.299,24.902,82.031,-972.168,23.438,0
1582146991.303,41.992,70.801,-972.168,21.973,0
1582146991.307,16.113,51.270,-972.168,2.930,0
1582146991.311,4.395,8.301,-972.168,19.043,0
1582146991.314,21.973,32.715,-972.168,24.414,0
1582146991.318,21.973,68.359,-972.168,-8.301,0
1582146991.322,14.160,43.945,-972.168,-29.297,0
1582146991.326,10.254,44.434,-972.168,-9.277,0
1582146991.330,3.906,48.828,-972.168,7.324,0
1582146991.347,17.090,46.875,-972.168,2.930,0
1582146991.351,26.367,37.598,-972.168,0.977,0
1582146991.355,26.855,10.742,-972.168,7.812,0
1582146991.359,15.137,41.016,-972.168,5.371,0
1582146991.363,13.672,78.613,-972.168,10.254,0
1582146991.367,28.320,33.203,-972.168,15.625,0
1582146991.371,28.320,24.902,-972.168,10.742,0
1582146991.374,18.555,83.496,-972.168,12.207,0
1582146991.378,12.695,88.379,-972.168,16.113,0
1582146991.382,33.691,49.316,-972.168,14.648,0
1582146991.386,37.598,49.316,-972.168,33.203,0
1582146991.390,19.531,57.129,-972.168,22.461,0
1582146991.392,14.160,35.156,-972.168,-0.488,0
1582146991.396,27.832,26.855,-972.168,7.324,0
1582146991.400,33.203,41.016,-972.168,2.441,0
1582146991.404,9.277,55.176,-972.168,1.953,0
1582146991.408,5.371,40.039,-972.168,5.371,0
1582146991.412,34.668,27.832,-972.168,-3.418,0
1582146991.416,49.805,36.621,-972.168,7.324,0
1582146991.419,45.898,52.734,-972.168,19.531,0
1582146991.423,43.457,74.707,-972.168,25.879,28185
1582146991.427,54.199,35.645,-972.168,28.320,0
1582146991.431,40.039,53.223,-972.168,4.395,0
1582146991.435,25.879,79.102,-972.168,-1.953,0
1582146991.437,29.297,43.945,-972.168,7.324,0
1582146991.441,31.250,41.016,-972.168,11.230,0
1582146991.445,39.062,57.129,-972.168,6.348,0
1582146991.449,64.453,63.965,-972.168,27.832,0
1582146991.453,54.199,36.133,-972.168,48.828,0
1582146991.457,11.230,20.508,-972.168,38.574,0
1582146991.461,20.508,54.199,-972.168,17.090,0
1582146991.464,33.203,69.336,-972.168,-6.836,0
1582146991.468,37.598,31.250,-972.168,9.277,0
1582146991.472,42.969,31.250,-972.168,21.484,0
1582146991.476,28.320,87.891,-972.168,7.324,0
1582146991.480,34.180,60.547,-972.168,0.000,0
1582146991.497,35.156,39.062,-972.168,4.395,0
1582146991.501,26.367,47.852,-972.168,-1.465,0
1582146991.505,31.738,52.734,-972.168,-3.418,0
1582146991.509,34.668,68.848,-972.168,-1.953,0
1582146991.513,36.621,53.711,-972.168,3.418,0
1582146991.517,18.066,42.480,-972.168,11.719,0
1582146991.521,32.227,47.363,-972.168,0.977,0
1582146991.524,44.922,59.082,-972.168,-1.953,0
1582146991.528,25.391,30.273,-972.168,-6.836,0
1582146991.532,26.367,49.805,-972.168,-3.418,0
1582146991.536,33.691,89.844,-972.168,5.859,0
1582146991.540,43.945,55.176,-972.168,15.625,0
1582146991.527,51.270,45.898,-972.168,18.555,0
1582146991.531,42.969,65.918,-972.168,16.602,0
1582146991.535,19.531,67.383,-972.168,18.555,0
1582146991.539,23.926,38.086,-972.168,12.695,0
1582146991.543,48.340,33.691,-972.168,6.348,0
1582146991.547,29.785,54.199,-972.168,11.719,0
1582146991.551,15.625,54.199,-972.168,24.414,0
1582146991.554,26.855,50.781,-972.168,16.602,0
1582146991.558,32.227,56.152,-972.168,-1.953,0
1582146991.562,28.809,83.496,-972.168,-7.812,0
1582146991.566,12.695,83.496,-972.168,0.977,0
1582146991.570,8.301,11.719,-972.168,16.113,0
1582146991.572,22.949,3.906,-972.168,-0.488,0
1582146991.576,29.297,85.449,-972.168,-24.414,0
1582146991.580,7.324,51.270,-972.168,-12.207,0
1582146991.584,-5.371,43.945,-972.168,7.324,0
1582146991.588,31.738,78.613,-972.168,19.531,0
1582146991.592,54.688,53.711,-972.168,22.461,0
1582146991.596,28.809,70.312,-972.168,15.137,0
1582146991.599,9.277,46.387,-972.168,1.953,0
1582146991.603,20.508,59.570,-972.168,-11.230,0
1582146991.607,24.902,114.258,-972.168,-14.160,0
1582146991.611,12.695,67.871,-972.168,-7.324,0
1582146991.615,11.719,45.410,-972.168,5.371,0
1582146991.617,14.648,64.453,-972.168,-1.465,0
1582146991.621,18.555,69.824,-972.168,1.465,0
1582146991.625,29.297,50.293,-972.168,16.113,0
1582146991.629,23.926,54.199,-972.168,10.742,0
1582146991.633,9.277,63.965,-972.168,12.695,0
1582146991.637,18.066,45.410,-972.168,2.441,0
1582146991.641,34.668,21.484,-972.168,-4.395,0
1582146991.644,27.832,26.855,-972.168,22.949,0
1582146991.648,14.160,69.824,-972.168,36.133,0
1582146991.652,28.320,57.129,-972.168,13.184,0
1582146991.656,20.996,51.270,-972.168,1.953,0
1582146991.660,4.883,67.383,-972.168,1.465,0
1582146991.662,0.488,63.965,-972.168,0.977,0
1582146991.666,24.414,45.898,-972.168,12.207,0
1582146991.670,32.227,43.457,-972.168,10.254,0
1582146991.674,0.488,48.828,-972.168,8.301,0
1582146991.678,0.488,44.434,-972.168,20.996,0
1582146991.682,10.254,30.273,-972.168,12.207,0
1582146991.686,25.879,16.113,-972.168,12.695,0
1582146991.689,30.762,41.016,-972.168,11.230,0
1582146991.693,11.230,51.270,-972.168,19.531,0
1582146991.697,-5.859,35.156,-972.168,25.879,0
1582146991.701,19.531,41.992,-972.168,6.836,0
1582146991.705,32.715,53.223,-972.168,3.906,0
1582146991.722,4.395,56.152,-972.168,13.184,0
1582146991.726,-5.371,41.016,-972.168,11.719,0
1582146991.730,9.277,46.387,-972.168,9.277,0
1582146991.734,15.137,67.383,-972.168,9.766,0
1582146991.738,6.348,63.477,-972.168,10.742,0
1582146991.742,-1.953,17.578,-972.168,18.066,0
1582146991.746,3.418,14.160,-972.168,10.742,0
1582146991.749,4.395,67.871,-972.168,-7.812,0
1582146991.753,9.277,79.102,-972.168,-1.465,0
1582146991.757,6.836,50.293,-972.168,14.160,0
1582146991.761,-7.812,39.551,-972.168,12.207,0
1582146991.765,7.812,33.691,-972.168,10.254,0
1582146991.767,18.555,45.410,-972.168,8.301,0
1582146991.771,15.137,62.500,-972.168,17.090,0
1582146991.775,-0.977,51.758,-972.168,27.832,0
1582146991.779,1.465,51.270,-972.168,9.277,0
1582146991.783,32.715,35.156,-972.168,14.160,0
1582146991.787,36.621,36.133,-972.168,33.203,0
1582146991.791,6.348,56.152,-972.168,20.508,0
1582146991.794,8.789,75.684,-972.168,11.719,0
1582146991.798,40.039,66.895,-972.168,6.348,0
1582146991.802,41.504,16.113,-972.168,19.043,0
1582146991.806,10.254,46.875,-972.168,24.902,0
1582146991.810,20.020,92.773,-972.168,8.301,0
1582146991.812,59.570,55.176,-972.168,6.836,0
1582146991.816,69.824,27.832,-972.168,4.883,0
1582146991.820,54.199,32.715,-972.168,11.230,0
1582146991.824,39.551,49.316,-972.168,16.602,0
1582146991.828,66.406,58.105,-972.168,24.414,0
1582146991.832,80.566,30.762,-972.168,18.555,0
1582146991.836,47.363,43.457,-972.168,3.418,0
1582146991.839,34.668,70.801,-972.168,5.371,0
1582146991.843,63.965,38.574,-972.168,29.297,0
1582146991.847,65.918,25.391,-972.168,25.391,0
1582146991.851,41.504,76.660,-972.168,10.742,0
1582146991.855,31.250,69.824,-972.168,23.926,0
1582146991.857,37.598,40.039,-972.168,22.949,0
1582146991.861,51.758,42.969,-972.168,6.836,0
1582146991.865,42.969,41.504,-972.168,17.578,0
1582146991.869,31.738,51.758,-972.168,32.715,0
1582146991.873,46.387,56.641,-972.168,25.879,0
1582146991.877,55.176,34.180,-972.168,12.695,0
1582146991.881,38.086,36.621,-972.168,5.859,0
1582146991.884,23.438,62.500,-972.168,25.391,0
1582146991.888,22.461,39.062,-972.168,31.250,0
1582146991.892,25.391,47.363,-972.168,4.883,0
1582146991.896,31.738,89.844,-972.168,1.953,0
1582146991.900,40.039,55.664,-972.168,16.602,0
1582146991.902,21.484,34.180,-972.168,6.348,0
1582146991.906,11.230,41.992,-972.168,-9.766,0
1582146991.910,26.367,51.270,-972.168,0.000,0
1582146991.914,26.367,32.715,-972.168,8.789,0
1582146991.918,9.766,10.742,-972.168,6.836,0
1582146991.922,11.719,26.367,-972.168,8.789,0
1582146991.926,24.414,56.152,-972.168,23.926,0
1582146991.929,14.160,45.410,-972.168,25.879,0
1582146991.933,-7.324,15.625,-972.168,-6.348,0
1582146991.937,-15.625,64.941,-972.168,-6.348,0
1582146991.941,3.418,72.754,-972.168,8.301,0
1582146991.945,4.883,30.762,-972.168,-2.930,0
1582146991.947,2.930,31.738,-972.168,15.137,0
1582146991.951,28.320,58.105,-972.168,42.480,0
1582146991.955,34.180,59.570,-972.168,32.227,0
1582146991.959,20.508,53.223,-972.168,12.695,0
1582146991.963,9.766,57.617,-972.168,-2.930,0
1582146991.967,-1.465,36.621,-972.168,9.766,0
1582146991.971,-8.789,45.898,-972.168,23.438,0
1582146991.974,16.602,24.902,-972.168,21.484,0
1582146991.978,19.043,25.391,-972.168,16.113,0
1582146991.982,1.465,76.660,-972.168,23.438,0
1582146991.986,10.254,39.551,-972.168,36.133,0
1582146991.990,27.832,8.789,-972.168,29.297,0
1582146991.992,28.320,47.363,-972.168,21.484,0
1582146991.996,20.020,75.195,-972.168,15.137,0
1582146992.000,21.484,47.363,-972.168,27.344,0
1582146992.004,39.551,41.016,-972.168,34.668,0
1582146992.008,29.785,60.059,-972.168,12.695,0
1582146992.012,0.488,31.250,-972.168,9.277,0
1582146992.016,1.465,7.812,-972.168,20.996,0
1582146992.019,14.648,23.926,-972.168,11.230,0
1582146992.023,21.484,63.477,-972.168,5.371,0
1582146992.027,11.230,62.012,-972.168,12.207,0
1582146992.031,-0.977,44.434,-972.168,17.090,0
1582146992.035,13.184,39.062,-972.168,23.926,0
1582146992.037,17.578,40.039,-972.168,3.418,0
1582146992.041,-4.395,43.945,-972.168,4.395,0
1582146992.045,1.953,36.133,-972.168,24.414,0
1582146992.049,9.766,41.992,-972.168,17.578,0
1582146992.053,-4.395,56.152,-972.168,4.395,0
1582146992.057,5.859,27.832,-972.168,18.555,0
1582146992.061,13.672,3.418,-972.168,26.367,0
1582146992.064,16.602,39.062,-972.168,20.020,0
1582146992.068,34.180,88.379,-972.168,3.906,0
1582146992.072,29.785,63.965,-972.168,-7.812,0
1582146992.076,18.066,36.133,-972.168,12.207,0
1582146992.080,18.066,46.387,-972.168,6.348,0
1582146992.097,22.949,73.242,-972.168,-7.812,0
1582146992.101,37.109,62.988,-972.168,4.395,0
1582146992.105,31.738,42.969,-972.168,6.348,0
1582146992.109,24.414,62.012,-972.168,6.836,0
1582146992.113,24.902,65.430,-972.168,0.000,0
1582146992.117,33.203,9.766,-972.168,-0.488,0
1582146992.121,17.578,12.207,-972.168,4.883,0
1582146992.124,0.488,68.848,-972.168,10.254,0
1582146992.128,17.090,58.105,-972.168,20.508,0
1582146992.132,31.250,47.852,-972.168,22.461,0
1582146992.136,37.109,62.988,-972.168,22.949,0
1582146992.140,4.883,75.684,-972.168,13.184,0
1582146992.142,-6.836,64.453,-972.168,7.324,0
1582146992.146,20.020,47.852,-972.168,10.742,0
1582146992.150,26.855,58.594,-972.168,7.812,0
1582146992.154,16.113,58.105,-972.168,10.254,0
1582146992.158,11.719,48.828,-972.168,26.367,0
1582146992.162,19.531,35.156,-972.168,23.438,0
1582146992.166,24.414,28.809,-972.168,18.555,0
1582146992.169,19.531,57.617,-972.168,4.883,0
1582146992.173,21.484,56.152,-972.168,17.578,0
1582146992.177,45.410,35.156,-972.168,46.387,0
1582146992.181,54.688,58.105,-972.168,20.508,0
1582146992.185,25.879,74.219,-972.168,1.953,0
1582146992.187,26.855,47.363,-972.168,22.461,0
1582146992.191,50.293,47.363,-972.168,24.902,0
1582146992.195,52.246,57.129,-972.168,23.438,0
1582146992.199,50.781,56.152,-972.168,19.531,0
1582146992.203,39.551,48.828,-972.168,12.695,0
1582146992.207,29.785,11.230,-972.168,24.902,0
1582146992.211,43.945,37.109,-972.168,26.367,0
1582146992.214,53.711,87.402,-972.168,12.695,0
1582146992.218,41.992,45.898,-972.168,18.555,0
1582146992.222,15.625,24.414,-972.168,15.137,0
1582146992.226,4.395,84.473,-972.168,16.602,0
1582146992.230,27.344,69.336,-972.168,16.113,0
1582146992.232,42.480,37.109,-972.168,3.418,0
1582146992.236,35.645,40.527,-972.168,13.672,0
1582146992.240,22.949,55.664,-972.168,17.578,0
1582146992.244,27.344,53.711,-972.168,10.742,0
1582146992.248,35.156,46.387,-972.168,17.090,0
1582146992.252,35.156,36.621,-972.168,27.344,0
1582146992.256,40.039,50.293,-972.168,22.461,0
1582146992.259,53.223,73.242,-972.168,27.344,0
1582146992.263,62.012,31.250,-972.168,30.273,0
1582146992.267,51.270,48.828,-972.168,20.996,0
1582146992.271,26.367,93.262,-972.168,22.949,0
1582146992.275,25.879,58.594,-972.168,30.273,0
1582146992.277,39.551,42.969,-972.168,8.789,0
1582146992.281,40.039,54.199,-972.168,4.883,0
1582146992.285,24.902,33.691,-972.168,29.297,0
1582146992.289,22.949,31.250,-972.168,22.949,0
1582146992.293,16.602,55.176,-972.168,1.953,0
1582146992.297,9.766,64.941,-972.168,15.137,0
1582146992.301,5.859,78.125,-972.168,13.184,0
1582146992.304,-1.465,50.781,-972.168,1.953,0
1582146992.308,21.484,37.598,-972.168,8.789,0
1582146992.312,26.855,86.914,-972.168,-7.812,0
1582146992.316,20.508,78.613,-972.168,18.066,0
1582146992.320,23.926,56.641,-972.168,23.926,0
1582146992.322,21.484,60.547,-972.168,0.977,0
1582146992.326,19.531,71.289,-972.168,16.113,0
1582146992.330,3.906,52.246,-972.168,19.043,0
1582146992.334,6.348,58.594,-972.168,20.996,0
1582146992.338,27.832,57.617,-972.168,24.414,0
1582146992.342,39.062,46.387,-972.168,27.832,0
1582146992.346,24.902,50.293,-972.168,27.344,0
1582146992.349,20.996,31.250,-972.168,33.203,0
1582146992.353,48.828,61.523,-972.168,38.574,0
1582146992.357,54.199,106.445,-972.168,24.414,0
1582146992.361,21.973,64.941,-972.168,14.648,0
1582146992.365,11.230,39.062,-972.168,27.832,0
1582146992.367,19.043,65.430,-972.168,40.039,0
1582146992.371,31.738,79.102,-972.168,28.809,0
1582146992.375,41.992,55.664,-972.168,13.184,0
1582146992.379,30.273,43.945,-972.168,17.578,0
1582146992.383,26.855,66.895,-972.168,26.367,0
1582146992.387,44.922,50.293,-972.168,16.602,0
1582146992.391,52.734,21.973,-972.168,18.555,0
1582146992.394,27.344,32.227,-972.168,23.926,0
1582146992.398,9.277,77.148,-972.168,25.391,0
1582146992.402,25.879,73.242,-972.168,34.180,0
1582146992.406,33.691,54.688,-972.168,17.578,0
1582146992.410,13.672,61.035,-972.168,25.879,0
1582146992.412,14.648,65.918,-972.168,41.504,0
1582146992.416,32.715,53.711,-972.168,29.785,0
1582146992.420,44.434,48.828,-972.168,18.066,0
1582146992.424,47.363,69.824,-972.168,20.996,0
1582146992.428,36.621,84.961,-972.168,24.414,0
1582146992.432,18.555,56.152,-972.168,23.926,0
1582146992.436,20.996,0.488,-972.168,20.020,0
1582146992.439,14.648,38.086,-972.168,10.742,0
1582146992.443,20.508,91.797,-972.168,25.391,0
1582146992.447,26.367,61.523,-972.168,46.875,0
1582146992.451,27.344,53.223,-972.168,47.363,0
1582146992.455,31.250,54.199,-972.168,29.297,0
1582146992.472,16.602,64.453,-972.168,16.113,0
1582146992.476,23.926,59.082,-972.168,27.832,0
1582146992.480,32.227,48.828,-972.168,31.738,0
1582146992.484,20.020,65.918,-972.168,5.371,0
1582146992.488,16.602,70.801,-972.168,7.324,0
1582146992.492,5.859,31.250,-972.168,29.297,0
1582146992.496,1.953,23.438,-972.168,25.391,0
1582146992.499,13.184,75.195,-972.168,17.090,17090
1582146992.503,13.184,67.383,-972.168,12.207,0
1582146992.507,7.812,35.156,-972.168,1.953,0
1582146992.511,0.977,43.945,-972.168,21.484,0
1582146992.515,18.555,60.547,-972.168,25.879,0
1582146992.517,42.480,63.477,-972.168,20.508,0
1582146992.521,27.832,42.480,-972.168,16.602,0
1582146992.525,15.625,35.156,-972.168,14.648,0
1582146992.529,26.855,59.570,-972.168,28.320,0
1582146992.533,35.645,52.246,-972.168,26.855,0
1582146992.537,22.949,33.203,-972.168,36.621,0
1582146992.541,11.719,35.645,-972.168,45.898,0
1582146992.544,29.297,55.176,-972.168,38.574,0
1582146992.548,39.062,55.176,-972.168,24.902,0
1582146992.552,31.738,20.996,-972.168,20.020,0
1582146992.556,28.320,40.039,-972.168,20.508,0
1582146992.560,27.344,81.055,-972.168,7.812,0
1582146992.562,35.645,38.086,-972.168,5.859,0
1582146992.566,61.035,11.719,-972.168,20.020,0
1582146992.570,53.223,47.852,-972.168,28.809,0
1582146992.574,43.945,60.059,-972.168,18.555,0
1582146992.578,59.570,22.461,-972.168,-2.930,0
1582146992.582,68.359,3.418,-972.168,-5.371,0
1582146992.586,61.523,20.996,-972.168,16.602,0
1582146992.589,40.039,67.871,-972.168,24.414,0
1582146992.593,54.199,50.781,-972.168,32.715,0
1582146992.597,63.477,17.578,-972.168,24.414,0
1582146992.601,58.594,70.801,-972.168,7.812,0
1582146992.605,61.523,59.082,-972.168,23.438,0
1582146992.607,46.875,15.625,-972.168,28.809,0
1582146992.611,49.316,28.809,-972.168,22.949,0
1582146992.615,49.316,49.316,-972.168,9.277,0
1582146992.619,41.016,37.109,-972.168,22.949,0
1582146992.623,39.062,25.879,-972.168,31.738,0
1582146992.627,40.527,5.859,-972.168,12.695,0
1582146992.631,38.086,24.414,-972.168,17.090,0
1582146992.634,24.902,47.363,-972.168,19.531,0
1582146992.638,30.762,9.277,-972.168,30.273,0
1582146992.642,52.246,19.531,-972.168,36.133,0
1582146992.646,50.293,68.359,-972.168,19.043,0
1582146992.650,38.574,34.668,-972.168,17.090,0
1582146992.652,15.625,15.137,-972.168,15.137,0
1582146992.656,17.090,31.250,-972.168,19.531,0
1582146992.660,30.762,39.062,-972.168,16.113,0
1582146992.664,23.438,22.949,-972.168,14.160,0
1582146992.668,12.207,-1.465,-972.168,17.090,0
1582146992.672,13.672,-0.977,-972.168,12.695,0
1582146992.676,38.086,34.668,-972.168,15.625,0
1582146992.679,33.691,19.043,-972.168,19.043,0
1582146992.683,13.672,2.441,-972.168,13.672,0
1582146992.687,13.672,50.293,-972.168,12.207,0
1582146992.691,36.621,50.781,-972.168,16.113,0
1582146992.695,33.691,28.320,-972.168,12.207,0
1582146992.697,-13.184,37.109,-972.168,10.254,0
1582146992.701,-19.531,54.199,-972.168,18.555,0
1582146992.705,5.371,44.922,-972.168,19.531,0
1582146992.709,18.555,27.344,-972.168,9.277,0
1582146992.713,7.324,9.766,-972.168,7.812,0
1582146992.717,14.160,3.418,-972.168,14.648,0
1582146992.721,17.578,24.414,-972.168,20.508,0
1582146992.724,21.973,8.789,-972.168,31.250,0
1582146992.728,33.691,33.203,-972.168,19.043,0
1582146992.732,5.859,72.754,-972.168,14.648,0
1582146992.736,14.160,41.504,-972.168,41.504,0
1582146992.740,39.062,41.504,-972.168,41.016,0
1582146992.742,22.949,69.824,-972.168,21.484,0
1582146992.746,15.625,61.523,-972.168,22.949,0
1582146992.750,21.973,27.344,-972.168,34.180,0
1582146992.754,24.414,48.828,-972.168,20.996,0
1582146992.758,28.320,57.129,-972.168,21.484,0
1582146992.762,16.602,27.832,-972.168,23.926,0
1582146992.766,7.812,17.090,-972.168,10.742,0
1582146992.769,27.832,33.203,-972.168,18.066,0
1582146992.773,34.180,74.707,-972.168,18.066,0
1582146992.777,20.020,60.547,-972.168,15.137,0
1582146992.781,7.324,40.527,-972.168,21.484,0
1582146992.785,22.949,52.246,-972.168,22.949,0
1582146992.787,30.273,58.105,-972.168,6.348,0
1582146992.791,20.508,51.270,-972.168,16.602,0
1582146992.795,16.113,50.293,-972.168,38.574,0
1582146992.799,27.344,48.828,-972.168,42.969,0
1582146992.803,41.504,73.242,-972.168,22.949,0
1582146992.807,24.414,60.547,-972.168,13.184,0
1582146992.811,11.719,-0.977,-972.168,22.949,0
1582146992.814,18.066,40.527,-972.168,18.066,0
1582146992.818,35.645,90.820,-972.168,20.996,0
1582146992.822,38.574,52.734,-972.168,21.973,0
1582146992.826,15.625,35.645,-972.168,16.113,0
1582146992.830,5.859,59.570,-972.168,14.648,0
1582146992.847,16.113,90.332,-972.168,2.930,0
1582146992.851,32.227,52.246,-972.168,-0.977,0
1582146992.855,34.180,21.973,-972.168,6.836,0
1582146992.859,18.555,62.012,-972.168,9.277,0
1582146992.863,22.949,68.359,-972.168,15.137,0
1582146992.867,55.664,33.203,-972.168,9.277,0
1582146992.871,40.039,32.715,-972.168,5.371,0
1582146992.874,17.090,73.242,-972.168,12.695,0
1582146992.878,23.926,53.711,-972.168,17.090,0
1582146992.882,35.645,42.969,-972.168,11.230,0
1582146992.886,49.805,54.199,-972.168,7.324,0
1582146992.890,30.762,71.777,-972.168,10.742,0
1582146992.892,13.672,71.777,-972.168,16.602,0
1582146992.896,20.996,60.547,-972.168,14.160,0
1582146992.900,26.367,60.547,-972.168,16.113,0
1582146992.904,15.137,87.891,-972.168,21.973,0
1582146992.908,6.836,82.520,-972.168,21.973,0
1582146992.912,25.879,53.711,-972.168,6.836,0
1582146992.916,40.039,64.941,-972.168,2.441,0
1582146992.919,33.203,72.266,-972.168,5.859,0
1582146992.923,26.855,64.453,-972.168,9.766,0
1582146992.927,40.039,41.504,-972.168,17.090,0
1582146992.931,41.504,58.105,-972.168,11.230,0
1582146992.935,30.762,80.078,-972.168,-7.812,0
1582146992.937,19.043,73.242,-972.168,-3.418,0
1582146992.941,25.391,69.824,-972.168,2.930,0
1582146992.945,31.738,70.801,-972.168,-12.207,0
1582146992.949,31.250,66.406,-972.168,-5.859,0
1582146992.953,30.762,54.688,-972.168,3.418,0
1582146992.957,31.250,43.457,-972.168,19.043,0
1582146992.961,54.688,77.637,-972.168,22.949,0
1582146992.964,60.547,86.426,-972.168,9.277,0
1582146992.968,17.090,37.598,-972.168,9.277,0
1582146992.972,0.000,46.875,-972.168,0.000,0
1582146992.976,22.461,108.887,-972.168,-5.859,0
1582146992.980,30.273,90.820,-972.168,9.277,0
1582146992.982,17.090,61.035,-972.168,16.602,0
1582146992.986,17.090,69.336,-972.168,11.719,0
1582146992.990,38.086,71.289,-972.168,12.207,0
1582146992.994,46.875,85.449,-972.168,14.648,0
1582146992.998,44.922,79.102,-972.168,14.160,0
1582146993.002,28.320,56.641,-972.168,19.043,0
1582146993.006,21.484,69.336,-972.168,11.719,0
1582146993.009,30.762,89.355,-972.168,4.395,0
1582146993.013,37.598,52.246,-972.168,0.977,0
1582146993.017,20.996,72.266,-972.168,-0.977,0
1582146993.021,0.488,116.211,-972.168,5.859,0
1582146993.025,18.066,84.473,-972.168,0.488,0
1582146993.027,36.133,77.148,-972.168,0.000,0
1582146993.031,27.832,81.055,-972.168,11.230,0
1582146993.035,11.230,75.195,-972.168,19.531,0
1582146993.039,20.996,65.430,-972.168,26.855,0
1582146993.043,38.086,54.199,-972.168,24.902,0
1582146993.047,32.227,73.730,-972.168,3.906,0
1582146993.051,16.602,86.426,-972.168,9.277,0
1582146993.054,16.113,65.430,-972.168,12.695,0
1582146993.058,27.832,73.730,-972.168,11.230,0
1582146993.062,20.996,120.117,-972.168,1.465,0
1582146993.066,23.438,107.422,-972.168,12.695,0
1582146993.070,12.207,83.008,-972.168,25.879,0
1582146993.072,23.438,74.219,-972.168,19.043,0
1582146993.076,38.086,82.520,-972.168,27.832,0
1582146993.080,11.230,73.730,-972.168,25.879,0
1582146993.084,-7.324,64.941,-972.168,15.625,0
1582146993.088,-3.418,73.242,-972.168,12.695,0
1582146993.092,21.973,62.012,-972.168,10.742,0
1582146993.096,27.832,76.660,-972.168,12.207,0
1582146993.099,13.672,31.250,-972.168,31.738,0
1582146993.103,6.348,27.344,-972.168,20.508,0
1582146993.107,16.113,109.863,-972.168,3.418,0
1582146993.111,14.648,101.074,-972.168,15.137,0
1582146993.115,10.742,67.871,-972.168,26.367,0
1582146993.117,6.836,72.266,-972.168,20.508,0
1582146993.121,25.391,84.473,-972.168,23.438,0
1582146993.125,53.711,57.617,-972.168,38.086,0
1582146993.129,35.156,45.410,-972.168,37.109,0
1582146993.133,13.184,85.938,-972.168,40.527,0
1582146993.137,14.648,84.961,-972.168,31.250,0
1582146993.141,16.113,56.641,-972.168,15.625,0
1582146993.144,-7.324,54.199,-972.168,7.324,0
1582146993.148,-16.113,90.332,-972.168,12.695,0
1582146993.152,1.953,85.938,-972.168,19.531,0
1582146993.156,25.879,53.711,-972.168,15.137,0
1582146993.160,35.156,61.035,-972.168,27.832,0
1582146993.162,7.812,109.863,-972.168,36.621,0
1582146993.166,6.348,82.031,-972.168,38.086,0
1582146993.170,22.949,47.852,-972.168,20.020,0
1582146993.174,26.855,77.637,-972.168,-0.977,0
1582146993.178,25.879,71.777,-972.168,15.625,0
1582146993.182,13.184,40.527,-972.168,20.996,0
1582146993.186,2.441,22.461,-972.168,3.906,0
1582146993.189,13.184,45.410,-972.168,-0.488,0
1582146993.193,15.625,86.914,-972.168,18.555,0
1582146993.197,7.324,85.938,-972.168,30.762,0
1582146993.201,28.320,75.195,-972.168,19.043,0
1582146993.205,31.738,81.543,-972.168,10.254,0
1582146993.222,18.066,83.984,-972.168,8.789,0
1582146993.226,18.066,71.289,-972.168,19.043,0
1582146993.230,25.391,76.172,-972.168,24.902,0
1582146993.234,40.039,93.262,-972.168,11.230,0
1582146993.238,46.387,81.543,-972.168,16.113,0
1582146993.242,40.527,46.875,-972.168,32.227,0
1582146993.246,40.039,22.949,-972.168,31.250,0
1582146993.249,41.504,78.613,-972.168,27.344,0
1582146993.253,20.996,97.168,-972.168,22.461,0
1582146993.257,0.977,57.617,-972.168,15.625,0
1582146993.261,15.625,47.852,-972.168,22.461,0
1582146993.265,35.156,70.801,-972.168,28.320,0
1582146993.267,41.016,62.500,-972.168,30.762,0
1582146993.271,24.902,40.039,-972.168,27.344,0
1582146993.275,3.906,45.410,-972.168,32.227,0
1582146993.279,20.996,61.035,-972.168,38.086,0
1582146993.283,37.598,58.594,-972.168,22.461,0
1582146993.287,41.504,65.430,-972.168,24.902,0
1582146993.291,31.738,74.707,-972.168,31.250,0
1582146993.294,28.809,80.078,-972.168,20.508,0
1582146993.298,40.039,78.125,-972.168,15.625,0
1582146993.302,37.109,18.066,-972.168,18.066,0
1582146993.306,33.691,23.926,-972.168,18.066,0
1582146993.310,41.504,91.309,-972.168,26.855,0
1582146993.312,57.129,65.918,-972.168,23.438,0
1582146993.316,56.152,44.922,-972.168,8.301,0
1582146993.320,37.598,63.965,-972.168,1.953,0
1582146993.324,52.734,73.730,-972.168,23.438,0
1582146993.328,81.055,54.199,-972.168,34.668,0
1582146993.332,58.105,26.367,-972.168,11.719,0
1582146993.336,47.852,35.645,-972.168,14.648,0
1582146993.339,57.617,42.969,-972.168,26.855,0
1582146993.343,52.734,14.160,-972.168,45.410,0
1582146993.347,65.430,21.973,-972.168,44.922,0
1582146993.351,39.062,82.520,-972.168,14.648,0
1582146993.355,16.113,67.383,-972.168,18.555,0
1582146993.357,27.344,30.273,-972.168,24.414,0
1582146993.361,20.020,38.086,-972.168,19.043,0
1582146993.365,29.785,34.180,-972.168,21.973,0
1582146993.369,32.715,39.062,-972.168,32.227,0
1582146993.373,30.273,43.457,-972.168,33.203,0
1582146993.377,31.738,20.996,-972.168,14.648,0
1582146993.381,11.719,34.180,-972.168,14.160,0
1582146993.384,17.578,58.105,-972.168,9.277,0
1582146993.388,30.762,7.812,-972.168,24.414,0
1582146993.392,22.949,38.086,-972.168,27.832,0
1582146993.396,27.832,67.383,-972.168,11.230,0
1582146993.400,36.621,29.785,-972.168,20.996,0
1582146993.402,30.762,38.574,-972.168,26.367,0
1582146993.406,30.273,54.688,-972.168,18.066,0
1582146993.410,32.715,57.129,-972.168,10.742,0
1582146993.414,31.250,39.551,-972.168,12.207,0
1582146993.418,16.113,41.504,-972.168,14.160,0
1582146993.422,17.090,47.363,-972.168,25.879,0
1582146993.426,42.480,51.758,-972.168,21.973,0
1582146993.429,41.992,37.598,-972.168,24.414,0
1582146993.433,24.902,21.973,-972.168,24.902,0
1582146993.437,22.461,75.684,-972.168,3.906,0
1582146993.441,13.184,82.520,-972.168,0.977,0
1582146993.445,22.949,62.012,-972.168,16.113,0
1582146993.447,21.973,65.918,-972.168,32.715,0
1582146993.451,1.465,62.988,-972.168,17.090,0
1582146993.455,15.625,50.293,-972.168,17.090,0
1582146993.459,32.227,70.801,-972.168,38.574,0
1582146993.463,15.137,71.777,-972.168,32.227,0
1582146993.467,13.184,60.059,-972.168,36.133,0
1582146993.471,26.855,59.082,-972.168,39.551,0
1582146993.474,27.344,37.598,-972.168,19.043,0
1582146993.478,24.414,56.152,-972.168,16.113,0
1582146993.482,4.883,96.191,-972.168,14.648,0
1582146993.486,4.883,79.102,-972.168,15.625,0
1582146993.490,41.504,52.246,-972.168,16.113,0
1582146993.492,50.293,55.176,-972.168,6.836,0
1582146993.496,19.043,58.594,-972.168,9.277,0
1582146993.500,16.602,58.594,-972.168,28.320,0
1582146993.504,27.832,68.359,-972.168,31.738,0
1582146993.508,21.973,65.430,-972.168,20.020,0
1582146993.512,24.414,54.199,-972.168,26.367,0
1582146993.516,12.207,30.273,-972.168,20.020,0
1582146993.519,22.949,35.156,-972.168,-2.930,0
1582146993.523,39.551,97.656,-972.168,-0.977,0
1582146993.527,16.602,76.172,-972.168,14.160,17090
1582146993.531,0.488,40.039,-972.168,20.508,0
1582146993.535,15.137,51.270,-972.168,18.066,0
1582146993.537,25.879,58.594,-972.168,14.160,0
1582146993.541,14.160,54.199,-972.168,20.996,0
1582146993.545,6.836,40.039,-972.168,13.672,0
1582146993.549,1.953,46.875,-972.168,8.301,0
1582146993.553,19.531,66.406,-972.168,3.906,0
1582146993.557,27.832,36.133,-972.168,-8.789,0
1582146993.561,19.531,8.789,-972.168,-4.883,0
1582146993.564,10.254,27.832,-972.168,2.441,0
1582146993.568,7.812,69.824,-972.168,-5.371,0
1582146993.572,21.484,72.754,-972.168,-10.742,0
1582146993.576,24.902,51.758,-972.168,0.000,0
1582146993.580,24.414,52.734,-972.168,4.395,0
1582146993.582,16.602,66.406,-972.168,1.953,0
1582146993.586,28.320,55.664,-972.168,3.418,0
1582146993.590,20.996,44.922,-972.168,8.789,0
1582146993.594,-4.883,51.270,-972.168,8.789,0
1582146993.598,17.090,57.129,-972.168,18.555,0
1582146993.602,48.340,32.227,-972.168,25.879,0
1582146993.606,42.969,30.273,-972.168,19.043,0
1582146993.609,18.066,82.031,-972.168,4.883,0
1582146993.613,23.926,67.383,-972.168,19.531,0
1582146993.617,26.367,56.152,-972.168,22.461,0
1582146993.621,23.438,57.129,-972.168,1.953,0
1582146993.625,11.230,54.199,-972.168,1.953,0
1582146993.642,17.578,67.871,-972.168,8.789,0
1582146993.646,36.133,67.383,-972.168,7.324,0
1582146993.650,24.414,63.477,-972.168,10.254,0
1582146993.654,20.020,53.223,-972.168,6.836,0
1582146993.658,24.902,52.246,-972.168,12.207,0
1582146993.662,34.668,42.969,-972.168,21.973,0
1582146993.666,34.180,53.223,-972.168,5.859,0
1582146993.669,24.414,69.824,-972.168,6.836,0
1582146993.673,36.133,52.246,-972.168,28.320,0
1582146993.677,46.875,20.508,-972.168,19.531,0
1582146993.681,42.969,41.992,-972.168,1.465,0
1582146993.685,34.668,68.359,-972.168,3.418,0
1582146993.687,15.137,55.176,-972.168,5.859,0
1582146993.691,12.695,39.062,-972.168,15.625,0
1582146993.695,38.086,42.969,-972.168,9.277,0
1582146993.699,43.457,62.500,-972.168,14.648,0
1582146993.703,32.715,42.969,-972.168,22.461,0
1582146993.707,30.273,17.578,-972.168,22.461,0
1582146993.711,32.715,33.691,-972.168,23.926,0
1582146993.714,51.270,72.266,-972.168,10.742,0
1582146993.718,29.297,39.062,-972.168,7.812,0
1582146993.722,-5.859,15.137,-972.168,1.953,0
1582146993.726,4.395,62.012,-972.168,-7.812,0
1582146993.730,23.438,51.758,-972.168,-8.789,0
1582146993.732,14.648,36.133,-972.168,-0.977,0
1582146993.736,15.625,40.039,-972.168,9.277,0
1582146993.740,32.227,53.223,-972.168,15.137,0
1582146993.744,31.738,39.062,-972.168,19.531,0
1582146993.748,39.062,36.133,-972.168,16.113,0
1582146993.752,44.434,52.734,-972.168,16.113,0
1582146993.756,34.180,52.734,-972.168,19.043,0
1582146993.759,22.461,65.918,-972.168,5.859,0
1582146993.763,33.691,5.859,-972.168,0.488,0
1582146993.767,40.527,16.602,-972.168,7.812,0
1582146993.771,41.016,92.285,-972.168,18.555,0
1582146993.775,31.738,64.453,-972.168,23.926,0
1582146993.777,20.996,43.945,-972.168,3.418,0
1582146993.781,22.461,65.430,-972.168,-2.441,0
1582146993.785,21.484,62.988,-972.168,17.090,0
1582146993.789,33.203,41.016,-972.168,25.391,0
1582146993.793,41.504,45.410,-972.168,9.766,0
1582146993.797,31.250,37.109,-972.168,6.836,0
1582146993.801,17.090,57.129,-972.168,6.836,0
1582146993.804,19.043,50.781,-972.168,12.207,0
1582146993.808,28.809,27.832,-972.168,10.254,0
1582146993.812,25.391,80.078,-972.168,-4.395,0
1582146993.816,17.090,85.449,-972.168,7.812,0
1582146993.820,9.277,73.730,-972.168,10.254,0
1582146993.822,4.395,85.449,-972.168,-9.766,0
1582146993.826,3.906,93.262,-972.168,-17.090,0
1582146993.830,7.324,81.543,-972.168,-21.973,0
1582146993.834,-1.465,65.918,-972.168,-24.414,0
1582146993.838,-10.742,78.125,-972.168,-19.043,0
1582146993.842,-4.883,85.449,-972.168,-7.812,0
1582146993.846,-24.902,96.191,-972.168,-12.207,0
1582146993.849,-34.180,68.359,-972.168,-12.207,0
1582146993.853,-26.367,76.172,-972.168,-15.625,0
1582146993.857,-18.066,128.906,-972.168,-30.273,0
1582146993.861,-9.766,95.215,-972.168,-28.320,0
1582146993.865,-27.832,93.262,-972.168,-19.043,0
1582146993.867,-49.316,111.328,-972.168,-46.875,0
1582146993.871,-62.012,125.000,-972.168,-71.289,0
1582146993.875,-68.848,116.211,-972.168,-76.172,0
1582146993.879,-80.078,92.285,-972.168,-84.473,0
1582146993.883,-88.867,103.027,-972.168,-79.590,0
1582146993.887,-74.707,103.516,-972.168,-79.102,0
1582146993.891,-101.074,112.793,-972.168,-94.727,0
1582146993.894,-125.488,118.652,-972.168,-113.281,0
1582146993.898,-131.836,155.273,-972.168,-117.676,0
1582146993.902,-134.277,174.805,-972.168,-125.000,0
1582146993.906,-125.000,163.574,-972.168,-139.648,0
1582146993.910,-129.883,167.969,-972.168,-140.137,0
1582146993.912,-157.715,208.984,-972.168,-148.926,0
1582146993.916,-177.246,197.754,-972.168,-166.992,0
1582146993.920,-162.109,170.410,-972.168,-176.758,0
1582146993.924,-150.391,211.426,-972.168,-169.434,0
1582146993.928,-166.992,206.543,-972.168,-156.250,0
1582146993.932,-184.082,153.320,-972.168,-163.086,0
1582146993.936,-191.406,133.789,-972.168,-178.223,0
1582146993.939,-171.875,178.711,-972.168,-177.246,0
1582146993.943,-162.598,214.844,-972.168,-166.992,0
1582146993.947,-177.734,167.480,-972.168,-153.809,0
1582146993.951,-156.738,135.254,-972.168,-160.156,0
1582146993.955,-144.531,146.973,-972.168,-178.223,0
1582146993.957,-128.906,144.531,-972.168,-158.203,0
1582146993.961,-121.582,101.562,-972.168,-128.906,0
1582146993.965,-118.164,83.984,-972.168,-116.699,0
1582146993.969,-80.566,127.930,-972.168,-97.656,0
1582146993.973,-69.824,127.441,-972.168,-84.961,0
1582146993.977,-82.520,84.961,-972.168,-91.797,0
1582146993.981,-61.035,85.449,-972.168,-84.961,0
1582146993.984,-35.645,130.371,-972.168,-77.148,0
1582146993.988,-17.578,137.207,-972.168,-68.848,0
1582146993.992,-5.859,94.727,-972.168,-49.805,0
1582146993.996,20.996,73.730,-972.168,-7.812,0
1582146994.000,44.922,70.801,-972.168,-0.977,0
1582146994.017,45.898,65.918,-972.168,-20.508,0
1582146994.021,47.363,59.082,-972.168,0.977,0
1582146994.025,41.016,57.617,-972.168,9.277,0
1582146994.029,74.707,79.590,-972.168,20.508,0
1582146994.033,108.887,58.105,-972.168,47.363,0
1582146994.037,104.980,24.902,-972.168,68.848,0
1582146994.041,99.609,53.711,-972.168,76.172,0
1582146994.044,122.559,63.477,-972.168,78.613,0
1582146994.048,131.836,38.574,-972.168,93.750,0
1582146994.052,111.328,14.160,-972.168,98.145,0
1582146994.056,114.746,27.344,-972.168,110.352,0
1582146994.060,130.371,56.152,-972.168,128.906,0
1582146994.062,158.203,30.273,-972.168,132.812,0
1582146994.066,167.969,17.090,-972.168,145.020,0
1582146994.070,157.715,23.438,-972.168,147.949,0
1582146994.074,156.738,17.578,-972.168,145.020,0
1582146994.078,163.086,0.488,-972.168,148.438,0
1582146994.082,160.156,-3.418,-972.168,153.320,0
1582146994.086,156.250,41.504,-972.168,165.039,0
1582146994.089,169.922,62.500,-972.168,162.598,0
1582146994.093,169.922,10.254,-972.168,165.039,0
1582146994.097,173.828,-5.371,-972.168,164.062,0
1582146994.101,158.203,51.758,-972.168,141.602,0
1582146994.105,121.582,57.617,-972.168,150.391,0
1582146994.107,138.184,41.504,-972.168,160.645,0
1582146994.111,163.574,47.852,-972.168,153.809,0
1582146994.115,146.973,44.434,-972.168,137.695,0
1582146994.119,138.672,42.969,-972.168,140.137,0
1582146994.123,142.090,25.879,-972.168,171.875,0
1582146994.127,154.297,-1.953,-972.168,164.551,0
1582146994.131,162.598,24.902,-972.168,153.809,0
1582146994.134,146.484,58.105,-972.168,159.668,0
1582146994.138,142.578,3.418,-972.168,155.762,0
1582146994.142,144.043,10.254,-972.168,146.973,0
1582146994.146,133.301,68.848,-972.168,126.953,0
1582146994.150,132.324,41.016,-972.168,135.742,0
1582146994.152,122.070,28.809,-972.168,146.484,0
1582146994.156,109.375,28.809,-972.168,137.695,0
1582146994.160,116.699,40.527,-972.168,128.906,0
1582146994.164,121.582,36.133,-972.168,124.512,0
1582146994.168,103.516,4.395,-972.168,126.465,0
1582146994.172,89.355,16.113,-972.168,122.070,0
1582146994.176,101.074,46.387,-972.168,117.188,0
1582146994.179,102.051,37.109,-972.168,103.027,0
1582146994.183,67.383,7.812,-972.168,86.914,0
1582146994.187,62.988,59.082,-972.168,91.797,0
1582146994.191,80.566,64.941,-972.168,83.496,0
1582146994.195,61.035,18.555,-972.168,54.199,0
1582146994.197,55.664,16.113,-972.168,55.664,0
1582146994.201,54.199,35.156,-972.168,72.266,0
1582146994.205,67.383,29.785,-972.168,71.777,0
1582146994.209,91.797,10.742,-972.168,70.312,0
1582146994.213,74.707,0.000,-972.168,73.730,0
1582146994.217,72.754,15.137,-972.168,77.148,0
1582146994.221,76.660,41.992,-972.168,94.727,0
1582146994.224,72.754,14.648,-972.168,82.031,0
1582146994.228,65.430,21.484,-972.168,43.457,0
1582146994.232,37.109,66.406,-972.168,36.621,0
1582146994.236,40.527,36.133,-972.168,46.387,0
1582146994.240,57.617,13.672,-972.168,45.410,0
1582146994.242,51.758,33.203,-972.168,46.387,0
1582146994.246,57.617,33.203,-972.168,59.570,0
1582146994.250,53.711,11.230,-972.168,62.500,0
1582146994.254,37.598,15.137,-972.168,50.781,0
1582146994.258,45.898,27.832,-972.168,40.527,0
1582146994.262,53.223,30.762,-972.168,49.316,0
1582146994.266,31.250,26.855,-972.168,41.992,0
1582146994.269,27.344,30.762,-972.168,17.090,0
1582146994.273,29.297,73.242,-972.168,3.906,0
1582146994.277,16.113,54.199,-972.168,4.395,0
1582146994.281,20.020,20.996,-972.168,22.461,0
1582146994.285,31.738,25.391,-972.168,19.531,0
1582146994.287,47.363,45.410,-972.168,28.320,0
1582146994.291,45.898,44.434,-972.168,40.527,0
1582146994.295,54.688,19.531,-972.168,39.062,0
1582146994.299,47.852,37.109,-972.168,46.387,0
1582146994.303,35.156,50.781,-972.168,39.551,0
1582146994.307,50.293,35.156,-972.168,34.180,0
1582146994.311,39.551,8.301,-972.168,45.898,0
1582146994.314,24.414,34.668,-972.168,68.359,0
1582146994.318,36.133,82.520,-972.168,69.824,0
1582146994.322,30.273,49.316,-972.168,32.227,0
1582146994.326,20.508,14.648,-972.168,25.879,0
1582146994.330,25.879,25.391,-972.168,46.875,0
1582146994.332,31.738,45.898,-972.168,40.527,0
1582146994.336,46.387,28.320,-972.168,35.645,0
1582146994.340,45.410,25.391,-972.168,20.508,0
1582146994.344,15.137,63.965,-972.168,15.137,0
1582146994.348,20.020,65.918,-972.168,35.645,0
1582146994.352,35.645,25.879,-972.168,40.039,0
1582146994.356,35.156,6.836,-972.168,35.645,0
1582146994.359,13.184,51.758,-972.168,16.113,0
1582146994.363,7.812,52.734,-972.168,16.602,0
1582146994.367,42.480,21.484,-972.168,30.762,0
1582146994.371,44.434,40.039,-972.168,22.461,0
1582146994.375,35.156,62.012,-972.168,35.156,0
1582146994.392,43.457,54.688,-972.168,32.715,0
1582146994.396,34.668,23.438,-972.168,21.973,0
1582146994.400,53.223,32.227,-972.168,25.879,0
1582146994.404,54.688,51.758,-972.168,29.297,0
1582146994.408,26.855,52.246,-972.168,32.227,0
1582146994.412,39.062,48.340,-972.168,27.344,0
1582146994.416,55.176,48.828,-972.168,30.273,0
1582146994.419,54.688,58.594,-972.168,44.922,0
1582146994.423,29.297,40.527,-972.168,43.945,0
1582146994.427,22.949,6.348,-972.168,32.227,0
1582146994.431,51.270,29.297,-972.168,8.789,0
1582146994.435,42.969,57.617,-972.168,12.207,0
1582146994.437,15.137,55.176,-972.168,20.996,0
1582146994.441,19.043,30.273,-972.168,15.137,0
1582146994.445,30.273,26.855,-972.168,10.254,0
1582146994.449,28.809,39.062,-972.168,-1.465,0
1582146994.453,33.691,10.254,-972.168,18.066,0
1582146994.457,28.809,24.414,-972.168,28.320,0
1582146994.461,28.320,46.875,-972.168,13.672,0
1582146994.464,42.969,62.500,-972.168,2.930,0
1582146994.468,33.203,29.297,-972.168,0.000,0
1582146994.472,15.137,2.441,-972.168,15.625,0
1582146994.476,7.812,43.945,-972.168,13.672,0
1582146994.480,26.855,42.480,-972.168,6.836,0
1582146994.482,36.621,27.832,-972.168,20.996,0
1582146994.486,10.254,38.086,-972.168,11.719,0
1582146994.490,8.789,47.363,-972.168,1.953,0
1582146994.494,32.227,33.691,-972.168,18.066,0
1582146994.498,34.668,15.625,-972.168,16.602,0
1582146994.502,21.484,9.766,-972.168,13.184,0
1582146994.506,28.320,25.391,-972.168,25.391,0
1582146994.509,32.715,43.457,-972.168,28.809,0
1582146994.513,42.969,19.531,-972.168,24.414,0
1582146994.517,42.969,28.320,-972.168,6.348,0
1582146994.521,15.625,64.453,-972.168,28.809,0
1582146994.525,-2.930,40.527,-972.168,26.367,0
1582146994.527,5.859,44.434,-972.168,-14.648,0
1582146994.531,12.695,58.594,-972.168,-8.301,0
1582146994.535,1.953,50.781,-972.168,-2.930,0
1582146994.539,6.836,27.832,-972.168,-5.371,0
1582146994.543,21.484,26.855,-972.168,-12.207,0
1582146994.547,17.090,29.785,-972.168,-8.301,0
1582146994.551,18.066,44.434,-972.168,5.371,0
1582146994.554,15.625,35.156,-972.168,7.812,0
1582146994.558,13.672,27.344,-972.168,9.766,0
1582146994.562,8.301,72.754,-972.168,3.906,0
1582146994.566,5.859,61.523,-972.168,5.859,0
1582146994.570,3.418,44.922,-972.168,15.625,0
1582146994.572,9.766,56.641,-972.168,10.742,0
1582146994.576,35.645,56.152,-972.168,11.230,0
1582146994.580,21.484,29.297,-972.168,14.648,0
1582146994.584,11.719,30.762,-972.168,27.344,0
1582146994.588,19.043,44.434,-972.168,24.902,0
1582146994.592,18.066,26.855,-972.168,3.418,0
1582146994.596,13.672,36.133,-972.168,7.324,0
1582146994.599,5.371,34.668,-972.168,18.066,0
1582146994.603,5.371,44.922,-972.168,15.137,0
1582146994.607,20.020,79.590,-972.168,21.973,0
1582146994.611,36.133,57.129,-972.168,37.109,0
1582146994.615,16.602,40.039,-972.168,23.926,0
1582146994.617,-1.953,52.734,-972.168,-9.766,0
1582146994.621,-1.465,40.039,-972.168,-13.184,0
1582146994.625,4.395,29.785,-972.168,-5.859,0
1582146994.629,-0.488,41.992,-972.168,-5.371,0
1582146994.633,-23.926,52.734,-972.168,-3.906,0
1582146994.637,-18.066,47.363,-972.168,-7.324,0
1582146994.641,1.953,31.250,-972.168,-5.859,0
1582146994.644,-1.953,18.555,-972.168,0.000,0
1582146994.648,-3.906,66.895,-972.168,-3.906,0
1582146994.652,2.930,68.848,-972.168,15.137,0
1582146994.656,17.090,30.762,-972.168,7.812,0
1582146994.660,20.020,28.320,-972.168,-8.789,0
1582146994.662,-1.465,49.805,-972.168,6.836,17030
1582146994.666,-4.395,66.895,-972.168,5.371,0
1582146994.670,27.344,63.965,-972.168,8.789,0
1582146994.674,13.184,55.176,-972.168,1.953,0
1582146994.678,-14.648,39.062,-972.168,1.953,0
1582146994.682,-0.488,45.898,-972.168,25.391,0
1582146994.686,14.648,21.484,-972.168,26.367,0
1582146994.689,21.973,29.297,-972.168,12.695,0
1582146994.693,19.531,62.988,-972.168,25.391,0
1582146994.697,2.930,31.738,-972.168,19.531,0
1582146994.701,17.578,28.320,-972.168,4.395,0
1582146994.705,43.457,61.523,-972.168,6.836,0
1582146994.722,14.648,74.219,-972.168,-3.418,0
1582146994.726,-3.906,55.664,-972.168,-1.465,0
1582146994.730,14.160,31.738,-972.168,9.277,0
1582146994.734,40.039,40.527,-972.168,6.836,0
1582146994.738,41.504,37.109,-972.168,-6.348,0
1582146994.742,20.996,13.184,-972.168,-1.953,0
1582146994.746,16.602,17.578,-972.168,-9.766,0
1582146994.749,16.113,52.734,-972.168,-22.461,0
1582146994.753,36.133,56.152,-972.168,-17.090,0
1582146994.757,37.109,19.531,-972.168,0.488,0
1582146994.761,20.508,21.973,-972.168,20.996,0
1582146994.765,22.461,48.828,-972.168,15.137,0
1582146994.767,41.016,31.738,-972.168,11.230,0
1582146994.771,48.828,19.531,-972.168,30.762,0
1582146994.775,45.410,41.504,-972.168,41.504,0
