timestamps,TP9,AF7,AF8,TP10,Right AUX,Marker0
1555615743.091,-10.254,34.180,37.109,23.438,23.926,0
1555615743.095,53.711,29.785,38.086,15.625,-38.086,0
1555615743.099,63.477,24.414,38.574,-15.625,5.371,0
1555615743.103,-7.812,21.973,35.156,1.953,21.484,0
1555615743.107,-26.367,27.832,23.438,51.270,9.766,0
1555615743.111,34.668,24.414,31.738,35.156,-10.254,0
1555615743.115,84.473,19.531,46.875,8.301,20.508,0
1555615743.118,21.973,21.973,49.316,11.719,40.039,0
1555615743.122,-46.387,30.762,35.645,30.273,57.617,0
1555615743.126,8.301,49.316,25.879,36.133,29.297,0
1555615743.130,88.379,49.805,31.250,31.250,37.598,0
1555615743.134,47.852,34.180,40.527,28.320,18.066,0
1555615743.136,-47.363,34.180,41.992,16.113,0.488,0
1555615743.140,-21.484,21.484,37.109,0.977,-3.906,0
1555615743.144,67.383,18.066,42.969,20.020,-7.324,0
1555615743.148,58.105,25.391,47.363,33.691,13.184,0
1555615743.152,-7.812,30.273,39.062,12.207,-17.090,0
1555615743.156,-21.484,40.527,41.504,13.672,7.812,0
1555615743.160,50.781,32.227,47.852,35.645,66.406,0
1555615743.163,87.891,20.508,57.617,32.227,86.426,0
1555615743.167,6.836,18.066,48.828,46.875,50.293,0
1555615743.171,-41.504,14.648,25.879,26.367,29.785,0
1555615743.175,29.297,31.250,17.090,5.859,42.969,0
1555615743.179,83.008,34.668,30.273,23.926,36.133,0
1555615743.181,18.066,17.090,47.852,-5.371,26.367,0
1555615743.185,-41.504,23.438,52.246,-2.441,6.348,0
1555615743.189,3.418,29.785,48.340,22.461,-6.836,0
1555615743.193,76.172,31.250,30.762,36.621,-6.836,0
1555615743.197,58.105,46.875,26.855,44.922,-16.113,0
1555615743.201,-29.297,45.410,27.832,22.461,-9.277,0
1555615743.205,-33.691,36.621,11.230,10.254,48.828,0
1555615743.208,35.156,25.391,14.160,21.484,51.270,0
1555615743.212,62.988,20.020,32.715,20.020,37.109,0
1555615743.216,7.812,20.020,41.992,13.184,14.648,0
1555615743.220,-48.340,17.090,50.781,8.789,-20.996,0
1555615743.224,14.160,38.574,48.828,-7.324,44.922,0
1555615743.226,70.312,58.594,31.250,4.395,70.312,0
1555615743.230,6.836,55.664,27.344,17.578,46.875,0
1555615743.234,-45.410,36.133,35.156,11.230,26.855,0
1555615743.238,18.555,0.000,40.039,35.156,3.906,0
1555615743.242,107.422,-4.883,40.039,62.012,21.484,0
1555615743.246,49.316,32.715,23.438,10.254,-4.395,0
1555615743.250,-44.434,53.223,4.395,-13.184,-30.273,0
1555615743.253,-13.672,53.711,-0.488,14.160,13.672,0
1555615743.257,62.012,44.922,13.672,20.020,6.348,0
1555615743.261,55.176,38.086,27.832,12.207,4.883,0
1555615743.265,-20.508,37.109,23.926,13.184,74.219,0
1555615743.269,-27.832,34.180,23.438,5.371,80.566,0
1555615743.271,73.242,45.898,23.438,37.598,22.461,0
1555615743.275,95.215,47.852,20.508,54.688,3.906,0
1555615743.279,16.113,48.828,28.320,31.250,15.625,0
1555615743.283,1.465,45.410,39.551,29.785,40.527,0
1555615743.287,46.387,29.297,31.738,0.488,52.246,0
1555615743.291,75.684,21.484,28.809,0.000,-20.508,0
1555615743.295,28.809,24.902,39.062,28.809,-19.531,0
1555615743.298,-34.668,20.508,41.504,34.180,51.758,0
1555615743.302,4.883,30.762,43.945,22.461,81.055,0
1555615743.306,83.984,43.945,40.527,12.695,3.906,0
1555615743.310,37.598,34.180,20.996,35.645,9.766,0
1555615743.314,-36.621,21.973,5.371,37.598,68.848,0
1555615743.316,18.066,19.043,12.695,39.062,44.922,0
1555615743.320,75.195,33.203,51.270,41.504,22.461,0
1555615743.324,58.594,41.016,67.383,31.250,-5.371,0
1555615743.328,-23.438,44.434,44.434,26.367,20.996,0
1555615743.332,-48.340,54.688,41.016,26.855,20.020,0
1555615743.336,49.805,56.152,44.434,3.906,-1.465,0
1555615743.340,87.891,37.109,32.715,-23.438,20.996,0
1555615743.343,9.766,10.742,16.602,22.949,31.738,0
1555615743.347,-41.992,21.973,21.484,47.363,21.973,0
1555615743.351,25.879,22.949,46.875,24.902,5.371,0
1555615743.355,83.008,15.137,52.246,12.207,58.594,0
1555615743.359,35.645,32.715,38.086,20.996,109.863,0
1555615743.361,-35.645,30.762,28.809,40.039,35.645,0
1555615743.365,13.672,6.836,37.109,43.945,-1.953,0
1555615743.369,70.312,20.020,28.809,12.695,32.715,0
1555615743.373,30.273,46.875,21.484,2.441,20.508,0
1555615743.377,-34.180,41.992,39.551,23.438,35.645,0
1555615743.381,-13.672,31.738,35.645,11.230,48.340,0
1555615743.385,62.012,41.504,19.531,-2.441,45.410,0
1555615743.388,56.152,38.574,34.668,9.766,28.320,0
1555615743.392,-10.742,41.504,38.574,23.438,0.488,0
1555615743.396,-19.531,50.293,38.086,24.414,-20.508,0
1555615743.400,51.270,33.203,28.809,17.578,-34.180,0
1555615743.404,76.660,19.043,31.250,36.133,10.742,0
1555615743.421,16.602,24.414,47.363,49.316,16.602,0
1555615743.425,-4.883,20.020,44.922,33.691,15.625,0
1555615743.429,46.387,20.508,35.156,36.621,8.789,0
1555615743.433,74.707,42.480,25.879,20.508,18.066,0
1555615743.437,16.113,61.035,35.645,-7.812,23.926,0
1555615743.441,-65.918,62.012,39.551,2.930,2.930,0
1555615743.445,-14.648,41.992,42.969,16.602,50.293,0
1555615743.448,75.195,33.691,44.922,30.762,79.590,0
1555615743.452,55.176,40.039,39.551,17.578,37.598,0
1555615743.456,-20.996,16.113,30.762,27.344,57.617,0
1555615743.460,-5.859,18.066,32.715,46.875,82.520,0
1555615743.464,73.730,38.086,30.762,27.344,48.828,0
1555615743.466,74.707,11.719,18.066,33.203,10.254,0
1555615743.470,-2.930,31.250,21.973,-0.977,9.277,0
1555615743.474,-16.602,73.242,24.414,-5.859,15.625,0
1555615743.478,72.266,59.082,24.902,39.551,-28.320,0
1555615743.482,94.238,55.176,35.645,47.363,-20.508,0
1555615743.486,22.949,55.176,44.434,26.855,54.688,0
1555615743.490,-12.695,36.621,46.387,15.625,29.785,0
1555615743.493,34.180,20.508,41.504,14.160,-18.066,0
1555615743.497,79.590,14.160,26.367,8.301,23.438,0
1555615743.501,33.203,33.691,23.438,38.574,61.523,0
1555615743.505,-27.344,35.156,34.180,44.434,45.898,0
1555615743.509,-5.371,34.180,36.621,9.277,23.438,0
1555615743.511,67.871,44.922,31.738,-10.254,-24.902,0
1555615743.515,71.777,34.668,25.879,31.738,17.090,0
1555615743.519,-28.809,27.344,35.645,28.320,76.172,0
1555615743.523,-28.809,38.574,28.809,1.953,52.246,0
1555615743.527,55.176,46.387,33.691,6.836,68.848,0
1555615743.531,79.590,33.203,36.133,25.879,37.598,0
1555615743.535,17.578,23.926,19.043,28.320,44.434,0
1555615743.538,-35.156,30.273,31.738,-6.348,63.477,0
1555615743.542,20.020,46.875,48.340,-16.602,30.762,0
1555615743.546,73.242,39.062,41.016,-9.766,84.473,0
1555615743.550,18.066,32.715,32.715,10.254,80.566,0
1555615743.554,-41.504,28.809,31.738,23.438,32.227,0
1555615743.556,32.715,20.508,24.902,29.297,38.086,0
1555615743.560,97.168,10.254,29.785,15.625,55.176,0
1555615743.564,47.363,25.391,39.551,-2.930,-25.879,0
1555615743.568,-34.668,40.527,36.133,17.578,-65.918,0
1555615743.572,-21.484,29.785,33.203,15.137,13.184,0
1555615743.576,83.496,57.129,24.414,8.789,43.945,0
1555615743.580,97.168,53.711,34.668,23.438,80.078,0
1555615743.583,-3.418,23.438,44.922,27.344,37.598,0
1555615743.587,-31.250,16.602,43.457,29.297,1.465,0
1555615743.591,44.922,12.695,57.129,46.875,57.129,0
1555615743.595,77.637,14.648,71.777,60.547,64.453,0
1555615743.599,26.855,7.324,71.289,58.594,60.547,0
1555615743.601,-11.230,-1.953,65.918,56.152,-16.113,0
1555615743.605,50.293,-4.883,64.453,61.523,-14.160,0
1555615743.609,141.113,-1.465,38.574,73.242,46.387,0
1555615743.613,93.750,-12.695,31.250,73.730,5.859,0
1555615743.617,-3.906,-13.184,67.383,68.359,21.973,0
1555615743.621,55.176,-15.625,75.195,72.266,38.086,0
1555615743.625,143.555,-15.625,51.270,71.289,21.973,0
1555615743.628,98.145,13.184,45.410,66.895,18.555,0
1555615743.632,-9.277,40.527,67.871,71.289,-16.113,0
1555615743.636,-10.742,45.898,63.965,53.223,36.621,0
1555615743.640,83.008,41.504,54.199,64.941,35.156,0
1555615743.644,90.332,35.645,49.316,72.266,-50.293,0
1555615743.646,13.672,15.625,39.062,44.434,-21.484,0
1555615743.650,16.602,24.902,36.133,49.805,44.922,0
1555615743.654,79.590,33.691,46.387,62.988,38.574,0
1555615743.658,113.770,25.391,50.293,60.547,14.648,0
1555615743.662,41.992,27.832,43.457,48.828,29.297,0
1555615743.666,-26.367,27.344,42.969,55.176,88.379,0
1555615743.670,49.805,2.930,38.574,70.801,45.410,0
1555615743.673,122.559,19.043,40.039,60.547,15.625,0
1555615743.677,73.242,38.574,50.293,37.598,48.340,0
1555615743.681,4.883,13.672,52.734,36.621,20.508,0
1555615743.685,19.531,21.484,40.039,29.297,36.133,0
1555615743.689,79.590,45.898,34.668,39.062,48.340,0
1555615743.691,74.707,49.805,40.039,37.598,75.684,0
1555615743.695,-12.695,45.410,34.668,19.043,38.086,0
1555615743.699,-2.930,47.363,40.527,44.434,3.418,0
1555615743.703,104.492,21.484,41.504,56.641,35.156,0
1555615743.707,115.723,-2.930,42.969,42.969,50.781,0
1555615743.711,1.953,11.719,38.086,30.273,3.906,0
1555615743.715,-29.785,29.785,31.250,28.809,18.066,0
1555615743.718,50.781,42.969,38.574,19.531,58.105,0
1555615743.722,77.637,39.551,24.414,25.391,52.246,0
1555615743.726,26.855,34.668,25.391,46.387,56.152,0
1555615743.730,-20.020,19.531,54.688,39.062,34.668,0
1555615743.734,29.297,13.184,52.734,10.742,35.156,0
1555615743.737,80.078,12.207,33.691,21.484,14.648,0
1555615743.741,41.992,5.859,25.879,22.461,-22.461,0
1555615743.745,-30.273,15.625,20.020,15.625,-18.066,0
1555615743.749,-7.324,21.973,25.391,28.809,-12.695,0
1555615743.753,89.355,44.434,20.020,15.137,19.043,0
1555615743.757,50.293,55.664,20.996,5.371,-3.418,0
1555615743.761,-38.574,31.738,39.551,20.020,-39.551,0
1555615743.764,-23.926,25.391,41.992,26.367,25.391,0
1555615743.768,43.945,26.367,29.297,20.996,59.570,0
1555615743.772,66.406,20.996,30.762,30.273,57.617,0
1555615743.776,11.719,15.625,33.203,39.551,48.828,0
1555615743.780,-15.137,8.789,8.301,20.508,17.578,0
1555615743.782,58.594,3.418,20.996,12.207,49.805,0
1555615743.786,86.914,8.789,38.086,23.438,53.711,0
1555615743.790,11.719,38.574,34.668,11.719,24.414,0
1555615743.794,-57.129,43.945,36.621,-0.977,11.230,0
1555615743.798,6.836,25.391,33.691,7.324,36.133,0
1555615743.802,84.473,34.180,30.273,34.668,69.336,0
1555615743.806,42.480,47.363,12.695,30.273,65.430,0
1555615743.809,-37.109,40.039,11.719,13.672,43.945,0
1555615743.813,-29.785,14.648,14.648,28.320,45.898,0
1555615743.817,62.988,23.926,6.836,30.273,-7.324,0
1555615743.821,79.590,44.434,14.160,38.574,-23.438,0
1555615743.825,3.418,41.992,26.367,30.762,-27.344,0
1555615743.843,-15.137,32.715,35.156,17.090,-46.875,0
1555615743.847,52.734,26.855,27.344,38.574,6.348,0
1555615743.851,85.938,32.227,11.719,34.668,56.152,0
1555615743.855,21.484,32.715,12.695,15.137,25.391,0
1555615743.859,-29.785,32.227,26.855,18.555,18.555,0
1555615743.863,28.809,26.367,39.062,32.715,41.504,0
1555615743.867,86.426,25.391,32.715,22.949,18.555,0
1555615743.870,44.434,19.043,31.250,33.691,3.418,0
1555615743.874,-28.809,19.043,25.879,36.133,9.277,0
1555615743.878,3.418,29.785,26.367,23.438,40.039,0
1555615743.882,84.961,40.039,34.180,29.297,69.336,0
1555615743.886,71.289,44.922,25.879,29.785,63.965,0
1555615743.887,-15.137,31.250,30.273,19.531,79.102,0
1555615743.891,-8.789,16.113,33.203,14.648,39.551,0
1555615743.895,75.195,25.879,27.344,19.043,11.230,0
1555615743.899,98.633,37.598,29.297,20.508,54.688,0
1555615743.903,6.836,20.508,32.715,10.742,60.059,0
1555615743.907,-34.668,34.180,28.320,33.691,46.387,0
1555615743.911,59.082,58.594,6.348,42.480,14.160,0
1555615743.914,110.352,49.316,0.977,32.227,-48.340,0
1555615743.918,40.039,15.625,38.086,37.109,10.254,0
1555615743.922,-27.344,13.184,59.082,31.738,7.812,0
1555615743.926,3.906,33.691,43.457,22.461,24.902,0
1555615743.930,60.547,42.969,31.250,42.480,22.461,0
1555615743.932,42.969,55.664,35.645,41.016,-55.664,0
1555615743.936,-25.879,49.805,34.180,13.184,-13.672,0
1555615743.940,5.371,42.480,20.996,14.160,41.504,0
1555615743.944,79.590,47.363,16.602,20.508,18.555,0
1555615743.948,65.430,42.969,34.180,27.832,-10.742,0
1555615743.952,-27.832,23.438,40.527,21.484,34.668,0
1555615743.956,-30.762,22.461,37.598,-14.648,21.973,0
1555615743.959,53.223,42.969,49.805,-3.906,53.711,0
1555615743.963,73.242,58.594,43.457,36.133,77.637,0
1555615743.967,6.348,55.664,28.809,17.090,-17.090,0
1555615743.971,-24.902,37.598,33.203,6.836,-54.199,0
1555615743.975,51.270,15.137,20.020,26.855,-20.508,0
1555615743.977,73.730,21.973,22.949,28.320,8.301,0
1555615743.981,13.184,47.363,40.527,32.227,20.996,0
1555615743.985,-28.320,59.082,44.434,43.457,79.102,0
1555615743.989,17.578,54.688,50.781,42.480,72.754,0
1555615743.993,105.469,38.574,54.199,51.758,11.230,0
1555615743.997,101.562,27.832,49.805,69.336,21.973,0
1555615744.001,29.785,24.902,47.852,68.848,91.309,0
1555615744.004,44.922,9.766,46.387,74.707,54.688,0
1555615744.008,130.371,5.371,46.387,93.750,11.719,0
1555615744.012,131.836,26.367,52.246,95.703,57.617,0
1555615744.016,52.246,26.367,50.781,67.383,72.754,0
1555615744.020,38.574,18.555,41.504,53.711,29.785,0
1555615744.022,117.188,27.832,40.039,74.707,37.109,0
1555615744.026,127.441,26.367,51.758,94.727,13.184,0
1555615744.030,54.199,16.113,32.715,95.215,-0.977,0
1555615744.034,11.719,14.648,5.371,71.289,53.711,0
1555615744.038,73.242,12.207,25.391,48.340,34.180,0
1555615744.042,125.977,21.973,54.688,53.223,9.766,0
1555615744.046,59.082,44.922,68.848,58.105,44.922,0
1555615744.049,-0.488,49.316,60.547,55.664,33.203,0
1555615744.053,57.129,48.828,48.340,51.758,14.160,0
1555615744.057,116.699,49.805,49.316,45.898,18.555,0
1555615744.061,74.707,41.992,42.480,47.363,30.273,0
1555615744.065,4.883,20.508,31.250,52.734,13.672,0
1555615744.066,29.297,32.715,24.902,55.176,8.301,0
1555615744.070,97.656,42.480,36.133,46.875,-36.133,0
1555615744.074,88.867,30.762,42.480,37.598,-11.719,0
1555615744.078,-10.254,34.668,41.504,44.922,56.641,0
1555615744.082,-36.133,49.805,50.293,41.016,20.020,0
1555615744.086,77.148,50.293,54.199,55.176,34.668,0
1555615744.090,112.793,30.762,48.828,50.293,18.066,0
1555615744.093,42.480,23.438,51.758,34.668,7.812,0
1555615744.097,-19.531,43.457,48.828,21.973,34.668,0
1555615744.101,32.715,47.363,44.434,14.160,43.457,0
1555615744.105,92.285,38.574,41.016,41.504,73.730,0
1555615744.109,35.156,46.875,31.250,47.852,62.500,0
1555615744.112,-21.484,43.945,28.809,32.227,36.621,0
1555615744.116,27.832,35.645,37.598,36.621,20.020,0
1555615744.120,118.164,44.922,54.688,31.738,25.879,0
1555615744.124,81.055,42.480,55.176,26.855,32.715,0
1555615744.128,-29.297,34.180,54.199,17.578,1.953,0
1555615744.132,-21.484,43.457,55.664,20.508,1.465,0
1555615744.136,88.867,40.527,43.457,34.180,8.301,0
1555615744.139,95.703,38.574,25.879,32.715,60.059,0
1555615744.143,14.160,50.781,32.227,21.973,89.355,0
1555615744.147,-17.090,42.969,51.270,20.996,14.160,0
1555615744.151,53.711,28.320,54.199,38.574,-12.207,0
1555615744.155,107.422,25.391,42.969,39.062,30.273,0
1555615744.157,35.156,44.434,41.504,26.367,32.715,0
1555615744.161,-16.113,70.801,49.316,10.742,36.133,0
1555615744.165,43.457,72.754,51.270,20.020,30.273,0
1555615744.169,91.797,52.734,42.969,39.551,9.277,0
1555615744.173,43.457,41.504,38.086,29.785,11.719,0
1555615744.177,-44.434,49.805,33.203,5.859,19.531,0
1555615744.181,-14.648,52.734,44.922,19.531,63.477,0
1555615744.184,70.312,53.223,60.059,41.504,41.016,0
1555615744.188,63.477,45.898,42.969,33.691,23.926,0
1555615744.192,-21.973,30.273,39.062,33.691,35.645,0
1555615744.196,-26.367,31.250,47.852,25.391,14.648,0
1555615744.200,52.734,49.805,43.457,5.859,49.316,0
1555615744.217,83.984,60.547,36.133,11.719,53.711,0
1555615744.221,22.949,45.410,30.273,21.973,14.648,0
1555615744.225,-41.016,36.621,19.043,21.484,9.277,0
1555615744.229,31.250,45.410,32.227,33.203,20.020,0
1555615744.233,90.332,42.480,47.363,41.016,36.621,0
1555615744.237,9.277,44.434,43.457,30.273,29.297,0
1555615744.241,-45.898,72.754,36.621,33.203,15.137,0
1555615744.244,11.719,75.684,23.438,23.438,38.574,0
1555615744.248,71.289,54.199,18.555,23.926,104.492,0
1555615744.252,53.223,53.711,32.715,39.062,63.477,0
1555615744.256,-8.301,54.199,32.227,23.926,21.973,0
1555615744.260,-3.418,45.410,24.414,26.367,30.273,0
1555615744.262,55.664,40.039,52.246,34.180,11.230,0
1555615744.266,56.641,45.410,63.965,22.461,21.973,0
1555615744.270,7.324,46.387,36.621,12.207,25.879,0
1555615744.274,1.953,26.855,22.949,23.926,3.906,0
1555615744.278,74.219,32.227,29.785,27.832,23.926,0
1555615744.282,89.844,31.250,45.410,33.203,56.641,0
1555615744.286,4.395,9.277,48.340,29.785,54.688,0
1555615744.289,-34.668,34.668,38.086,20.020,19.043,0
1555615744.293,22.949,66.406,27.344,27.832,-2.930,0
1555615744.297,71.289,57.129,20.508,25.879,-6.348,0
1555615744.301,40.039,51.758,32.715,25.391,-11.230,0
1555615744.305,-27.832,68.359,32.227,34.668,-32.227,0
1555615744.306,15.625,52.734,29.785,27.344,-57.617,0
1555615744.310,75.195,29.785,30.273,27.344,24.902,0
1555615744.314,43.457,37.109,35.156,31.738,59.082,0
1555615744.318,-26.367,46.875,52.246,31.738,14.160,0
1555615744.322,-8.789,44.434,48.340,39.062,20.020,0
1555615744.326,84.473,40.527,35.645,51.270,-4.883,0
1555615744.330,92.773,40.039,27.832,29.785,-9.766,0
1555615744.333,-8.301,57.617,38.086,23.438,13.184,0
1555615744.337,-44.922,48.340,48.340,31.250,33.203,0
1555615744.341,34.668,23.438,47.363,28.809,11.719,0
1555615744.345,90.332,50.293,38.086,30.762,-14.160,0
1555615744.349,30.273,43.945,31.738,37.109,1.953,0
1555615744.351,-24.902,26.855,36.621,26.367,59.082,0
1555615744.355,31.738,55.664,41.504,21.484,64.941,0
1555615744.359,87.402,65.918,37.109,50.781,5.859,0
1555615744.363,43.945,68.848,30.762,54.688,30.762,0
1555615744.367,-9.766,71.777,29.297,21.484,23.926,0
1555615744.371,43.945,62.500,41.992,13.672,-13.184,0
1555615744.375,100.586,48.340,51.270,38.086,10.254,0
1555615744.378,71.777,44.922,44.434,52.246,41.992,0
1555615744.382,5.859,44.434,41.504,24.902,40.527,0
1555615744.386,-7.324,44.922,40.527,10.742,3.906,0
1555615744.390,43.457,53.711,31.250,31.250,64.941,0
1555615744.394,64.453,48.340,23.926,31.250,77.148,0
1555615744.412,13.184,31.250,5.859,25.879,32.227,0
1555615744.416,-12.207,38.086,19.043,25.391,10.742,0
1555615744.420,48.828,55.176,54.199,24.902,2.441,0
1555615744.424,94.238,71.289,37.598,18.066,62.012,0
1555615744.428,22.949,68.359,20.996,20.508,61.035,0
1555615744.432,-45.898,59.570,42.969,20.508,-41.016,0
1555615744.436,29.785,59.570,36.621,0.977,-15.137,0
1555615744.439,95.215,52.734,16.602,-5.859,54.199,0
1555615744.443,27.344,41.992,36.133,9.766,45.410,0
1555615744.447,-47.852,40.527,47.363,22.461,35.156,0
1555615744.451,-9.277,53.711,34.668,20.508,26.367,0
1555615744.455,81.055,59.570,33.691,21.484,3.906,0
1555615744.441,67.871,52.734,36.621,27.344,57.617,0
1555615744.445,-32.715,42.480,25.879,36.621,66.406,0
1555615744.449,-10.254,44.922,20.020,19.043,25.391,0
1555615744.453,71.289,60.059,34.180,12.695,16.602,0
1555615744.457,74.707,57.617,38.574,24.902,19.043,0
1555615744.461,3.418,33.203,30.762,7.324,49.805,0
1555615744.465,-15.137,22.461,29.297,4.883,51.758,0
1555615744.468,66.406,45.410,32.715,35.645,21.484,0
1555615744.472,100.098,46.875,35.645,43.457,-12.695,0
1555615744.476,29.297,51.270,45.898,33.203,19.043,0
1555615744.480,-29.297,66.406,42.969,23.438,35.645,0
1555615744.484,20.996,62.500,38.574,23.438,-5.371,0
1555615744.493,92.285,59.570,20.996,17.578,47.852,0
1555615744.497,54.688,49.316,16.602,7.812,68.359,0
1555615744.501,-35.156,42.480,33.203,22.461,62.500,0
1555615744.505,-6.348,47.363,33.203,17.578,15.137,0
1555615744.509,68.359,32.227,43.457,15.137,0.977,0
1555615744.513,78.613,29.297,58.105,34.668,46.875,0
1555615744.517,10.254,55.664,52.246,18.066,27.832,0
1555615744.520,-27.832,41.016,41.992,14.160,40.527,0
1555615744.524,57.129,14.160,36.133,43.457,68.359,0
1555615744.528,75.684,35.156,42.480,47.363,46.875,0
1555615744.532,-0.488,54.688,49.316,21.484,38.086,0
1555615744.536,-26.367,57.129,37.598,-0.977,6.348,0
1555615744.531,25.879,53.223,31.738,6.836,7.812,0
1555615744.535,67.383,50.293,34.180,8.789,17.578,0
1555615744.539,12.695,35.645,34.668,12.695,8.301,0
1555615744.543,-44.922,31.738,31.250,10.742,-1.953,0
1555615744.547,-8.301,44.922,21.484,18.555,14.648,0
1555615744.551,71.289,40.527,34.180,24.902,41.992,0
1555615744.555,59.570,23.926,42.480,8.789,11.719,0
1555615744.558,-21.973,32.715,35.645,16.602,5.859,0
1555615744.562,-11.719,34.180,36.621,27.344,30.273,0
1555615744.566,51.270,34.180,34.180,20.508,40.039,0
1555615744.570,48.340,37.598,37.598,17.578,32.227,0
1555615744.574,11.230,58.594,41.504,37.598,16.113,0
1555615744.591,-27.344,78.613,39.062,16.113,2.441,0
1555615744.595,0.488,56.641,36.133,-31.738,13.184,0
1555615744.599,49.805,53.223,32.715,-26.367,14.160,0
1555615744.603,-27.344,75.195,18.555,-53.223,24.414,0
1555615744.607,-118.652,87.891,7.812,-71.777,56.152,0
1555615744.611,-65.430,86.426,13.672,-47.363,75.684,0
1555615744.615,-13.672,66.895,15.137,-57.129,63.965,0
1555615744.618,-74.219,51.270,21.484,-79.102,21.484,0
1555615744.622,-129.395,46.387,27.832,-90.332,40.527,0
1555615744.626,-93.262,36.621,21.484,-88.379,43.457,0
1555615744.630,-18.555,30.762,15.137,-64.941,9.277,0
1555615744.634,-22.949,34.180,11.230,-47.363,0.000,0
1555615744.636,-94.727,11.230,16.602,-56.152,2.441,0
1555615744.640,-72.266,22.949,8.301,-45.410,4.395,0
1555615744.644,16.113,74.219,6.836,-36.133,29.785,0
1555615744.648,33.203,62.988,26.855,-34.180,21.973,0
1555615744.652,-45.898,43.457,26.367,-46.875,48.828,0
1555615744.656,-87.891,50.293,-1.465,-55.664,54.199,0
1555615744.660,-11.719,43.457,-0.488,-30.762,-4.883,0
1555615744.663,40.527,37.598,32.715,-17.090,21.973,0
1555615744.667,-16.602,37.598,39.062,-20.996,20.508,2
1555615744.671,-63.477,32.715,28.320,-13.672,19.531,0
1555615744.675,-11.719,37.109,26.855,-0.977,62.988,0
1555615744.679,53.223,21.973,22.949,2.930,43.945,0
1555615744.681,29.785,41.504,19.531,-12.207,29.785,0
1555615744.685,-49.805,59.570,23.926,-21.484,16.602,0
1555615744.689,-31.738,54.688,23.926,-14.648,39.062,0
1555615744.693,53.223,48.828,11.719,9.277,57.617,0
1555615744.697,67.383,28.320,10.742,15.625,9.277,0
1555615744.701,-5.371,39.551,32.227,-0.977,-37.109,0
1555615744.705,-32.715,54.199,31.738,12.207,11.719,0
1555615744.708,50.293,49.316,27.832,8.789,57.129,0
1555615744.712,69.336,40.527,38.574,-10.742,63.477,0
1555615744.716,-5.859,38.086,25.391,-1.465,30.273,0
1555615744.720,-35.645,44.922,1.465,20.996,47.363,0
1555615744.724,30.762,30.762,14.648,10.254,53.223,0
1555615744.726,86.914,21.973,26.367,15.137,10.742,0
1555615744.730,30.762,35.156,24.414,13.184,6.348,0
1555615744.734,-34.180,50.293,28.809,-0.977,48.340,0
1555615744.738,10.254,51.758,27.832,2.930,34.180,0
1555615744.742,72.754,36.621,25.391,15.137,20.508,0
1555615744.746,42.480,48.828,25.879,28.809,36.133,0
1555615744.750,-33.691,51.758,28.320,-6.348,16.113,0
1555615744.753,-28.809,32.227,30.762,-8.789,19.043,0
1555615744.757,52.734,24.902,29.297,36.621,-0.488,0
1555615744.761,63.965,19.531,29.297,26.367,-16.113,0
1555615744.765,-6.836,23.926,30.273,23.438,16.113,0
1555615744.769,-17.090,42.969,13.672,23.438,45.410,0
1555615744.772,44.434,41.992,25.879,30.762,53.223,0
1555615744.776,80.566,44.434,41.504,24.902,46.875,0
1555615744.780,19.043,49.805,24.414,10.742,13.672,0
1555615744.784,-32.227,21.484,15.625,1.465,-14.160,0
1555615744.788,18.555,25.879,20.020,3.906,-21.973,0
1555615744.792,59.082,46.387,20.020,21.973,-7.812,0
1555615744.796,16.113,41.504,17.090,23.926,72.754,0
1555615744.799,-39.062,50.781,32.227,24.414,88.379,0
1555615744.803,11.719,36.621,45.410,17.578,61.035,0
1555615744.807,83.496,18.066,25.391,20.508,78.613,0
1555615744.811,74.707,24.902,2.441,37.598,27.832,0
1555615744.815,3.906,27.344,12.207,32.227,-10.742,0
1555615744.817,0.977,34.668,40.527,20.508,30.762,0
1555615744.821,73.242,37.109,41.016,31.250,43.457,0
1555615744.825,78.613,36.133,26.367,40.039,24.414,0
1555615744.829,-11.719,44.434,36.621,27.344,30.273,0
1555615744.833,-36.621,18.555,36.621,0.977,60.059,0
1555615744.837,68.848,13.184,38.574,9.277,48.828,0
1555615744.841,110.840,42.969,34.668,26.367,34.180,0
1555615744.844,23.438,41.504,18.066,23.926,53.711,0
1555615744.848,-22.949,38.574,14.160,39.551,53.223,0
1555615744.852,48.828,45.410,21.484,54.199,15.625,0
1555615744.856,106.934,30.273,26.367,36.621,-10.742,0
1555615744.860,78.613,5.371,27.344,35.156,52.246,0
1555615744.862,0.000,27.832,35.156,45.410,45.898,0
1555615744.866,-7.812,49.316,28.320,21.484,-2.930,0
1555615744.870,46.875,48.340,26.367,-5.859,21.484,0
1555615744.874,40.527,59.082,25.879,-8.301,60.547,0
1555615744.878,-53.711,41.504,17.578,-17.578,18.555,0
1555615744.882,-66.895,33.691,15.137,-23.438,4.395,0
1555615744.886,30.273,40.527,-5.859,-21.484,31.250,0
1555615744.889,53.223,38.086,-16.602,-25.391,38.086,0
1555615744.893,-23.926,22.461,0.977,-26.367,47.852,0
1555615744.897,-53.223,28.809,2.930,-18.066,32.227,0
1555615744.901,22.949,38.574,0.977,17.090,11.230,0
1555615744.905,85.938,21.973,0.977,34.668,35.645,0
1555615744.907,50.293,48.828,6.836,18.555,50.781,0
1555615744.911,-29.297,56.152,16.602,-5.371,27.832,0
1555615744.915,1.465,39.551,14.160,-8.301,42.480,0
1555615744.919,63.965,37.598,7.812,2.930,73.730,0
1555615744.923,41.016,31.738,-0.977,0.977,53.223,0
1555615744.927,-46.875,22.461,-2.441,-5.859,25.391,0
1555615744.931,-43.457,27.344,12.207,-9.766,27.344,0
1555615744.934,68.359,53.223,27.344,17.578,5.371,0
1555615744.938,81.543,45.898,13.672,29.297,-40.039,0
1555615744.942,-6.836,35.645,-1.953,9.766,-36.621,0
1555615744.946,-27.832,41.504,17.578,12.207,4.395,0
1555615744.950,56.152,39.062,30.273,33.691,44.922,0
1555615744.967,82.520,28.809,19.531,32.715,56.641,0
1555615744.971,-1.953,26.367,15.625,17.578,28.809,0
1555615744.975,-35.156,45.898,30.273,19.531,-1.953,0
1555615744.979,44.922,40.527,22.461,42.969,22.949,0
1555615744.983,90.820,34.180,9.766,34.668,51.270,0
1555615744.987,36.133,53.711,23.926,12.207,57.129,0
1555615744.991,-34.668,38.574,28.320,7.324,30.762,0
1555615744.994,13.184,31.250,24.414,17.578,3.418,0
1555615744.998,82.520,46.875,14.160,18.066,10.742,0
1555615745.002,53.223,35.156,5.371,17.578,13.672,0
1555615745.006,-23.926,27.344,15.625,19.531,34.180,0
1555615745.010,-21.973,40.039,16.113,14.160,15.137,0
1555615745.012,48.340,35.645,5.859,15.137,66.406,0
1555615745.016,73.242,22.461,9.766,14.160,75.684,0
1555615745.020,10.742,24.414,16.602,17.578,-27.832,0
1555615745.024,-14.648,32.227,10.254,9.277,-28.809,0
1555615745.028,56.641,34.180,12.207,6.348,-23.926,0
1555615745.032,74.219,46.875,35.156,27.832,-31.250,0
1555615745.036,8.789,42.969,29.785,27.344,-13.184,0
1555615745.039,-39.062,39.062,2.441,22.949,26.367,0
1555615745.043,13.184,41.992,4.395,12.207,69.336,0
1555615745.047,75.684,34.668,21.484,-8.301,53.223,0
1555615745.051,33.203,38.574,15.137,2.930,61.523,0
1555615745.055,-31.738,39.062,18.066,21.973,83.496,0
1555615745.057,3.418,33.691,20.020,10.742,18.555,0
1555615745.061,44.922,28.809,15.137,2.930,1.953,0
1555615745.065,32.227,35.156,3.418,27.832,8.301,0
1555615745.069,-8.789,40.039,7.812,30.762,8.301,0
1555615745.073,7.812,34.668,37.598,28.320,38.086,0
1555615745.077,90.820,23.438,32.227,26.855,34.668,0
1555615745.081,78.613,19.043,16.602,28.320,52.734,0
1555615745.084,-11.719,17.578,9.277,34.180,35.156,0
1555615745.088,-24.414,30.273,7.812,21.484,44.434,0
1555615745.092,43.457,39.551,17.578,7.324,23.926,0
1555615745.096,69.336,41.016,11.230,9.766,18.066,0
1555615745.100,20.020,33.691,20.508,33.203,11.719,0
1555615745.102,-24.902,6.836,41.016,55.664,-24.902,0
1555615745.106,30.762,7.324,26.855,39.551,48.828,0
1555615745.110,75.195,34.180,16.113,12.695,58.594,0
1555615745.114,38.086,49.316,18.066,6.836,21.484,0
1555615745.118,-15.625,46.387,16.602,20.996,15.137,0
1555615745.122,22.461,39.551,18.066,34.180,-19.043,0
1555615745.126,85.449,34.180,11.230,29.297,25.391,0
1555615745.129,48.828,27.344,0.977,15.137,78.125,0
1555615745.133,-18.555,17.090,11.230,6.348,18.066,0
1555615745.137,-6.836,27.344,24.414,28.320,19.531,0
1555615745.141,73.242,37.109,24.414,28.320,10.742,0
1555615745.145,82.520,36.133,16.602,22.461,-9.766,0
1555615745.147,1.465,34.668,13.672,31.738,21.484,0
1555615745.151,-24.414,36.133,-4.883,38.574,-17.578,0
1555615745.155,42.969,22.461,0.488,27.832,-14.160,0
1555615745.159,90.820,23.438,24.414,27.344,26.855,0
1555615745.163,44.434,40.039,32.715,33.691,95.215,0
1555615745.167,-22.461,30.273,32.227,37.598,98.145,0
1555615745.171,15.137,35.645,16.113,42.480,18.066,0
1555615745.174,74.707,43.457,-0.977,32.227,36.621,0
1555615745.178,42.480,36.133,3.418,26.855,33.691,0
1555615745.182,-14.160,33.691,15.625,27.832,35.645,0
1555615745.186,12.695,20.508,10.254,19.531,62.012,0
1555615745.190,83.496,-0.488,8.789,29.297,22.461,0
1555615745.192,73.730,13.184,23.438,43.457,43.945,0
1555615745.196,-12.695,49.805,12.695,28.809,76.660,0
1555615745.200,-30.273,57.617,11.230,12.695,83.496,0
1555615745.204,60.547,41.504,22.949,21.973,71.777,0
1555615745.208,94.238,25.879,16.602,35.156,8.789,0
1555615745.212,22.949,15.625,4.395,23.926,-8.789,0
1555615745.216,-23.926,20.996,11.719,27.832,12.695,0
1555615745.219,12.207,30.273,35.156,19.043,43.457,0
1555615745.223,62.500,20.996,37.109,8.301,29.297,0
1555615745.227,48.828,13.672,26.855,24.902,14.648,0
1555615745.231,-2.930,26.855,32.227,23.926,13.672,0
1555615745.235,11.719,35.156,26.855,24.902,7.324,0
1555615745.237,84.473,30.273,-0.488,26.855,-17.578,0
1555615745.241,75.684,15.137,3.418,36.621,-24.902,0
1555615745.245,3.906,22.949,24.902,41.504,34.668,0
1555615745.249,2.441,40.039,23.926,24.902,14.648,0
1555615745.253,62.012,35.156,26.367,40.527,-44.434,0
1555615745.257,82.520,18.066,30.762,54.688,-15.625,0
1555615745.261,14.160,12.207,14.648,47.852,40.527,0
1555615745.264,-24.414,23.438,5.859,20.020,33.691,0
1555615745.268,46.387,17.090,9.277,12.207,-5.371,0
1555615745.272,94.238,16.113,4.883,31.738,25.391,0
1555615745.276,27.344,25.879,3.418,34.668,34.668,0
1555615745.280,-20.020,13.184,5.371,19.043,8.301,0
1555615745.282,47.363,25.391,16.602,16.602,35.156,0
1555615745.286,85.449,41.504,22.949,25.391,51.758,0
1555615745.290,46.387,49.805,17.578,36.621,89.844,0
1555615745.294,-28.809,38.574,9.766,18.555,82.031,0
1555615745.298,-8.789,18.555,-9.766,20.020,21.973,0
1555615745.302,75.195,21.973,-9.277,37.598,21.484,0
1555615745.306,69.824,23.926,26.367,3.906,75.684,0
1555615745.309,-8.301,18.066,35.645,0.488,24.414,0
1555615745.313,1.465,27.344,24.414,23.926,20.020,0
1555615745.317,85.938,21.973,10.742,23.438,48.340,0
1555615745.321,71.777,12.207,2.441,15.625,-2.930,0
1555615745.325,-22.461,34.668,-7.324,0.000,76.660,0
1555615745.357,-41.504,35.156,-11.230,3.418,93.750,0
1555615745.361,53.223,16.602,3.418,20.020,-0.977,0
1555615745.365,105.957,16.113,11.230,31.250,28.320,0
1555615745.369,41.504,7.812,28.320,27.344,49.805,0
1555615745.373,-32.715,20.020,20.020,14.648,6.836,0
1555615745.377,19.531,39.551,2.441,12.695,20.020,0
1555615745.381,87.402,36.133,-0.977,-0.488,35.156,0
1555615745.384,42.969,20.996,-13.184,8.301,56.152,0
1555615745.388,-10.742,8.789,2.441,25.391,30.273,0
1555615745.392,5.859,18.066,20.508,23.926,3.906,0
1555615745.396,34.668,31.250,12.695,15.137,16.602,0
1555615745.400,49.805,32.715,16.113,22.461,25.879,0
1555615745.387,-2.441,29.297,17.578,18.555,48.340,0
1555615745.391,-31.250,20.996,1.953,9.766,72.754,0
1555615745.395,42.480,13.672,3.418,14.160,71.289,0
1555615745.399,92.773,12.207,-6.348,19.531,27.832,0
1555615745.403,45.410,5.371,2.930,23.438,29.785,0
1555615745.407,-27.344,15.625,8.301,11.719,41.016,0
1555615745.411,18.066,23.438,-9.277,20.508,21.484,0
1555615745.414,96.191,16.113,2.441,31.250,-10.742,0
1555615745.418,30.273,24.902,20.996,24.414,2.441,0
1555615745.422,-50.293,25.879,26.855,15.625,61.035,0
1555615745.426,0.488,20.020,24.902,15.625,58.594,0
1555615745.430,86.426,30.273,9.277,28.320,32.227,0
1555615745.447,54.688,10.254,4.395,29.785,43.945,0
1555615745.451,-22.949,-13.672,24.414,21.484,48.828,0
1555615745.455,7.324,13.184,21.973,41.016,70.312,0
1555615745.459,76.172,41.016,20.020,44.434,49.316,0
1555615745.463,69.824,36.621,14.160,25.879,26.855,0
1555615745.467,-8.789,29.297,6.836,17.578,33.203,0
1555615745.471,-29.297,20.020,2.930,13.184,7.324,0
1555615745.474,53.711,-7.324,-18.066,33.691,5.371,0
1555615745.478,77.637,14.160,-12.695,32.227,19.531,0
1555615745.482,-1.465,33.203,0.000,17.578,17.090,0
1555615745.486,-33.691,22.949,9.766,20.996,-5.859,0
1555615745.490,28.320,23.438,17.090,7.812,-1.953,0
1555615745.477,93.262,32.715,19.531,4.883,25.391,0
1555615745.481,59.570,37.109,16.602,20.508,44.922,0
1555615745.485,-36.133,30.273,20.020,14.648,38.086,0
1555615745.489,-3.418,27.344,10.254,-4.395,42.480,0
1555615745.493,79.590,11.719,-2.441,15.625,42.480,0
1555615745.497,63.477,12.695,6.348,38.086,60.547,0
1555615745.501,-12.207,20.020,10.254,24.902,15.625,0
1555615745.504,-26.367,4.883,13.184,9.766,0.000,0
1555615745.508,38.574,-3.418,28.809,16.113,59.570,0
1555615745.512,84.473,21.973,23.926,40.039,-4.395,0
1555615745.516,21.484,62.988,4.395,46.387,0.977,0
1555615745.520,-45.410,60.059,3.418,6.836,44.434,0
1555615745.522,11.230,63.477,1.953,-17.578,13.672,0
1555615745.526,64.941,65.918,-7.324,-4.395,69.824,0
1555615745.530,-20.508,54.199,-12.207,-28.320,66.406,0
1555615745.534,-95.215,75.195,-13.184,-64.941,19.531,0
1555615745.538,-34.668,86.426,-18.555,-63.965,-19.531,0
1555615745.542,17.090,89.355,-23.438,-66.895,-30.273,0
1555615745.546,-43.945,100.586,-18.066,-71.289,-23.438,0
1555615745.549,-124.023,104.492,-25.879,-103.027,14.648,0
1555615745.553,-78.613,83.496,-52.734,-151.855,74.707,0
1555615745.557,-12.695,99.121,-42.480,-136.230,81.055,0
1555615745.561,-28.320,143.555,-31.738,-133.301,57.129,0
1555615745.565,-119.629,152.344,-59.082,-172.852,-8.789,0
1555615745.567,-172.852,178.711,-68.848,-186.035,15.137,0
1555615745.571,-95.703,212.402,-49.805,-171.875,12.695,0
1555615745.575,-70.801,198.242,-51.270,-182.129,-26.855,0
1555615745.579,-150.391,193.848,-66.406,-194.336,35.156,0
1555615745.583,-183.105,206.055,-74.707,-186.035,74.707,0
1555615745.587,-110.840,199.219,-82.520,-184.570,39.551,0
1555615745.591,-50.781,191.406,-92.285,-194.824,16.602,0
1555615745.594,-100.098,177.734,-88.379,-194.824,6.836,0
1555615745.598,-163.086,170.410,-85.449,-173.340,26.367,0
1555615745.602,-122.559,173.828,-97.168,-174.805,32.227,0
1555615745.606,-39.062,173.828,-79.590,-157.715,29.785,0
1555615745.610,-57.129,193.359,-78.613,-136.719,-6.836,0
1555615745.611,-125.488,198.242,-86.426,-166.504,1.465,0
1555615745.615,-101.074,173.340,-76.172,-158.203,33.691,0
1555615745.619,-7.812,170.898,-75.684,-113.770,-31.738,0
1555615745.623,8.301,184.570,-75.195,-125.000,-32.715,0
1555615745.627,-73.730,173.828,-71.289,-155.762,2.930,0
1555615745.631,-74.219,154.785,-78.613,-96.191,-8.301,0
1555615745.635,13.184,119.629,-71.777,-77.148,-11.230,0
1555615745.638,32.227,119.141,-61.523,-83.008,19.043,0
1555615745.642,-32.715,156.250,-63.477,-63.965,66.895,0
1555615745.646,-67.871,156.250,-76.172,-60.059,55.664,0
1555615745.650,8.789,143.555,-95.703,-34.668,30.273,0
1555615745.654,99.609,99.609,-82.031,-24.414,15.625,0
1555615745.656,62.500,70.801,-47.852,-17.578,14.648,0
1555615745.660,-0.977,109.863,-41.992,-1.465,14.160,0
1555615745.664,50.293,115.723,-50.293,8.301,7.812,0
1555615745.668,112.305,93.262,-45.898,41.992,5.371,0
1555615745.672,89.844,84.473,-38.574,51.758,-7.324,0
1555615745.676,45.410,60.059,-45.410,42.480,45.898,0
1555615745.680,65.430,49.805,-46.387,51.270,26.367,0
1555615745.683,134.766,54.688,-37.598,81.543,-19.531,0
1555615745.687,147.461,41.992,-42.480,79.102,66.895,0
1555615745.691,65.430,36.621,-39.551,64.941,74.219,0
1555615745.695,42.480,36.133,-27.344,85.449,41.992,0
1555615745.699,125.000,25.391,-21.484,97.656,77.148,0
1555615745.716,174.316,3.418,-10.254,106.445,102.539,0
1555615745.720,116.699,4.883,-15.625,111.816,89.844,0
1555615745.724,54.199,29.297,-17.578,97.656,59.082,0
1555615745.728,103.516,32.715,-6.836,100.586,38.086,0
1555615745.732,192.871,1.465,-20.996,99.121,-2.930,0
1555615745.736,157.715,-19.531,-17.578,92.773,-9.277,0
1555615745.740,53.223,-10.254,-25.879,87.402,64.941,0
1555615745.743,81.055,24.902,-21.973,83.984,47.852,0
1555615745.747,147.949,20.508,4.395,97.656,38.086,0
1555615745.751,142.578,-1.465,15.625,120.605,69.824,0
1555615745.755,58.594,-1.465,12.695,114.258,36.621,0
1555615745.759,41.504,7.324,1.465,90.332,37.109,0
1555615745.761,142.090,-8.789,5.859,90.332,34.180,0
1555615745.765,144.043,-32.227,12.695,93.750,-3.906,0
1555615745.769,75.195,-20.996,12.207,86.426,-19.531,0
1555615745.773,60.547,-8.301,11.230,83.008,12.695,0
1555615745.777,104.980,1.465,12.207,99.609,11.230,0
1555615745.781,151.855,14.648,3.418,70.801,-19.531,0
1555615745.785,96.680,4.395,4.883,75.195,14.160,0
1555615745.788,35.645,-8.789,14.648,104.980,37.109,0
1555615745.792,81.055,2.930,18.555,96.191,70.312,0
1555615745.796,134.766,13.672,12.207,94.727,66.406,0
1555615745.800,92.773,-1.465,4.883,67.383,3.418,0
1555615745.804,22.461,-2.930,20.508,60.059,21.973,0
1555615745.806,65.918,3.418,33.203,96.191,56.641,0
1555615745.810,122.070,-19.043,18.555,83.496,8.301,0
1555615745.814,107.910,-17.090,3.906,78.125,22.949,0
1555615745.818,46.387,-12.207,12.695,89.844,48.828,0
1555615745.822,37.598,9.766,21.484,84.473,-0.977,0
1555615745.826,106.934,11.719,14.160,83.496,38.574,2
1555615745.830,119.141,-19.531,15.625,82.520,49.805,0
1555615745.833,46.387,10.742,38.086,77.148,5.859,0
1555615745.837,4.883,22.461,39.062,62.500,21.973,0
1555615745.841,71.289,-17.578,15.625,59.082,49.316,0
1555615745.845,137.207,-12.207,21.973,62.988,74.707,0
1555615745.849,80.078,19.531,33.203,81.055,42.480,0
1555615745.852,-0.977,11.719,23.926,95.215,-15.137,0
1555615745.856,61.523,-1.953,24.902,76.660,15.137,0
1555615745.860,145.508,10.254,18.555,92.285,56.152,0
1555615745.864,96.191,7.324,16.113,69.336,60.547,0
1555615745.868,9.766,1.953,30.273,37.598,10.742,0
1555615745.872,43.457,13.184,37.598,69.824,16.113,0
1555615745.876,93.262,0.000,30.273,83.984,40.527,0
1555615745.879,84.473,-11.719,21.484,103.516,-10.254,0
1555615745.883,60.059,-5.371,20.020,98.145,13.184,0
1555615745.887,29.297,21.484,21.973,76.660,41.992,0
1555615745.891,90.820,46.875,23.438,76.660,33.203,0
1555615745.895,125.977,27.344,29.297,59.082,18.066,0
1555615745.896,31.738,-0.488,25.391,44.434,6.836,0
1555615745.900,-0.488,7.812,22.461,64.941,15.625,0
1555615745.904,86.914,21.973,26.855,80.078,24.414,0
1555615745.908,127.930,13.184,31.738,53.711,29.297,0
1555615745.912,70.801,-4.395,43.457,58.594,4.395,0
1555615745.916,-11.230,-4.395,45.898,68.848,19.043,0
1555615745.920,29.785,3.418,32.715,35.645,27.344,0
1555615745.923,110.352,22.461,17.578,43.945,-12.207,0
1555615745.927,84.961,17.090,20.508,44.922,7.812,0
1555615745.931,-1.465,9.766,25.391,39.062,34.180,0
1555615745.935,16.602,26.367,23.926,46.387,10.254,0
1555615745.939,82.031,27.344,23.438,54.688,32.227,0
1555615745.942,84.473,11.719,25.879,52.246,7.324,0
1555615745.946,22.949,4.883,41.016,53.711,-19.043,0
1555615745.950,8.789,7.324,47.852,41.016,62.012,0
1555615745.954,88.867,8.301,22.461,43.945,44.922,0
1555615745.958,111.328,-4.395,8.301,69.336,8.789,0
1555615745.962,25.879,-3.418,23.438,41.504,10.742,0
1555615745.966,-28.809,22.949,30.273,27.344,-9.766,0
1555615745.969,60.547,39.062,42.480,55.176,-9.766,0
1555615745.973,96.680,42.969,44.434,45.898,0.488,0
1555615745.977,31.738,32.715,34.668,24.902,52.246,0
1555615745.981,-44.434,20.508,33.691,0.977,41.016,0
1555615745.985,-33.691,17.090,34.180,-14.160,33.691,0
1555615745.986,21.484,3.906,34.180,-20.996,87.891,0
1555615745.990,11.230,-4.395,21.484,1.953,43.945,0
1555615745.994,-47.852,11.230,16.113,-2.441,9.277,0
1555615745.998,-48.340,7.324,36.133,-0.977,0.488,0
1555615746.002,32.715,-0.488,41.016,13.672,-2.930,0
1555615746.006,34.668,13.184,39.551,7.324,21.973,0
1555615746.010,-12.695,31.250,40.039,13.672,-20.020,0
1555615746.013,-22.949,31.738,31.738,4.395,-28.320,0
1555615746.017,31.738,6.836,22.461,-2.930,20.020,0
1555615746.021,70.312,-28.320,31.250,17.090,38.574,0
1555615746.025,25.391,-21.484,39.062,22.949,21.973,0
1555615746.029,-9.277,11.230,33.203,20.020,15.625,0
1555615746.032,15.137,3.906,38.086,31.250,27.832,0
1555615746.036,89.844,14.648,27.832,32.227,40.527,0
1555615746.040,95.215,21.484,14.160,41.992,18.066,0
1555615746.044,-9.277,7.812,33.203,53.711,32.715,0
1555615746.048,1.465,7.812,52.246,36.133,64.941,0
1555615746.052,88.379,11.719,55.664,12.695,26.367,0
1555615746.056,77.148,15.137,51.270,-5.859,-6.348,0
1555615746.059,-5.371,11.230,41.504,30.762,2.441,0
1555615746.063,6.348,8.789,21.484,57.617,-1.953,0
1555615746.067,88.379,10.742,11.230,60.547,-4.395,0
1555615746.071,83.496,8.789,44.434,55.176,37.598,0
1555615746.075,30.273,-2.441,63.477,40.527,41.504,0
1555615746.092,-9.766,20.996,33.203,39.551,43.945,0
1555615746.096,47.852,36.133,16.602,40.039,82.031,0
1555615746.100,100.586,12.207,23.926,53.223,74.707,0
1555615746.104,44.922,5.371,37.598,51.270,51.270,0
1555615746.108,-12.207,10.742,41.016,43.457,54.688,0
1555615746.112,39.062,-0.977,21.973,29.785,73.730,0
1555615746.116,107.422,-4.395,24.902,19.043,38.086,0
1555615746.119,66.895,8.789,36.133,62.500,18.066,0
1555615746.123,-0.488,25.879,34.180,57.617,66.406,0
1555615746.127,4.395,24.902,37.598,19.531,40.039,0
1555615746.131,61.523,16.113,46.875,34.180,14.648,0
1555615746.135,51.758,7.324,59.082,44.922,15.625,0
1555615746.137,3.906,6.348,31.738,42.480,21.484,0
1555615746.141,-12.207,5.371,21.973,47.363,47.852,0
1555615746.145,49.316,26.855,47.852,43.945,44.434,0
1555615746.149,98.145,21.484,39.062,41.992,16.113,0
1555615746.153,20.508,-8.301,34.180,24.414,8.301,0
1555615746.157,-17.578,-13.184,29.297,-10.742,22.949,0
1555615746.161,37.109,-0.488,19.043,12.695,29.785,0
1555615746.164,78.613,33.203,33.203,57.617,11.230,0
1555615746.168,49.805,40.039,22.949,56.641,22.949,0
1555615746.172,-32.715,16.602,16.113,16.113,1.953,0
1555615746.176,-0.488,6.836,28.320,6.836,-7.324,0
1555615746.180,66.895,22.949,44.434,47.363,18.066,0
1555615746.182,55.664,15.137,57.617,47.852,3.906,0
1555615746.186,23.438,8.789,40.527,42.480,70.312,0
1555615746.190,5.371,1.953,48.340,38.574,43.457,0
1555615746.194,55.176,-8.789,40.039,31.738,-8.789,0
1555615746.198,61.035,31.250,24.902,13.672,31.738,0
1555615746.202,-19.531,50.781,40.039,18.555,43.457,0
1555615746.206,-31.250,42.480,32.227,26.855,12.695,0
1555615746.209,66.895,27.832,35.156,30.762,30.762,0
1555615746.213,118.164,11.719,26.367,43.945,38.086,0
1555615746.217,52.246,13.184,17.090,33.203,46.387,0
1555615746.221,-28.809,-12.695,21.484,38.574,39.551,0
1555615746.225,-0.977,-0.488,26.367,28.809,-41.504,0
1555615746.227,66.895,42.969,32.227,6.348,-11.230,0
1555615746.231,35.156,28.320,33.203,14.648,28.320,0
1555615746.235,-15.625,2.441,27.832,29.297,-10.742,0
1555615746.239,37.598,23.926,22.949,-12.207,-0.488,0
1555615746.243,69.824,26.855,34.180,17.578,7.812,0
1555615746.247,45.410,26.367,30.273,63.965,-5.371,0
1555615746.251,0.977,36.621,18.555,21.973,-8.789,0
1555615746.254,-11.719,26.855,19.531,15.137,29.785,0
1555615746.258,62.988,21.973,24.902,28.320,79.102,0
1555615746.262,73.730,11.230,29.785,28.809,38.574,0
1555615746.266,0.977,13.672,28.809,26.855,16.602,0
1555615746.270,-25.391,-1.953,20.020,38.086,40.039,0
1555615746.272,58.105,-8.789,19.043,36.133,28.320,0
1555615746.276,107.910,7.812,21.973,23.926,-6.836,0
1555615746.280,34.180,10.254,23.438,40.039,24.414,0
1555615746.284,-25.879,2.441,19.043,37.598,18.555,0
1555615746.288,24.902,16.602,20.996,28.320,16.113,0
1555615746.292,80.566,30.762,32.227,17.578,22.949,0
1555615746.296,37.109,28.320,44.922,29.297,-3.418,0
1555615746.299,-32.715,21.973,54.688,30.273,9.766,0
1555615746.303,-9.766,6.836,43.457,7.324,-5.371,0
1555615746.307,83.496,15.625,25.391,15.137,-3.418,0
1555615746.311,84.961,32.227,17.090,23.438,-0.488,0
1555615746.315,-0.977,27.832,4.395,30.273,-8.789,0
1555615746.317,-26.367,14.160,17.090,31.250,21.484,0
1555615746.321,21.973,21.973,23.438,3.418,59.570,0
1555615746.325,52.734,33.203,18.066,-27.344,93.750,0
1555615746.329,11.719,25.391,22.949,39.062,72.754,0
1555615746.333,-14.648,18.555,27.344,44.434,-17.090,0
1555615746.337,39.062,11.719,36.621,33.691,-19.043,0
1555615746.341,96.191,-2.930,32.715,48.828,41.504,0
1555615746.344,42.480,14.648,32.227,29.785,18.066,0
1555615746.348,-21.973,31.738,30.762,25.879,9.766,0
1555615746.352,19.043,29.297,24.902,29.785,40.039,0
1555615746.356,84.961,38.086,24.414,44.434,20.020,0
1555615746.360,68.359,29.785,25.391,41.992,46.875,0
1555615746.362,-19.531,21.484,22.949,20.996,85.938,0
1555615746.366,3.906,23.926,19.043,31.738,44.434,0
1555615746.370,77.148,10.742,32.715,43.945,58.594,0
1555615746.374,78.613,8.789,31.250,47.363,53.223,0
1555615746.378,-3.906,14.160,22.949,30.273,45.410,0
1555615746.382,-21.973,8.301,35.645,26.855,13.184,0
1555615746.386,67.383,3.418,25.879,47.363,16.113,0
1555615746.389,102.051,14.648,6.836,40.039,88.867,0
1555615746.393,33.691,10.254,19.531,35.645,64.941,0
1555615746.397,-19.531,-0.977,18.066,20.996,10.254,0
1555615746.401,63.965,9.277,14.160,23.438,30.273,0
1555615746.405,123.535,20.508,30.762,54.688,37.598,0
1555615746.407,47.852,19.043,39.551,49.316,-16.113,0
1555615746.411,-22.461,22.949,45.898,28.320,-37.598,0
1555615746.415,22.461,27.832,48.340,30.762,-24.414,0
1555615746.419,81.055,32.227,40.527,42.480,-15.137,0
1555615746.423,53.711,25.391,23.926,20.508,60.547,0
1555615746.427,-2.930,2.441,1.953,14.160,64.941,0
1555615746.431,1.465,8.301,-4.395,36.621,3.418,0
1555615746.434,75.195,16.602,13.184,50.781,-24.902,0
1555615746.438,81.543,10.254,38.574,38.574,20.996,0
1555615746.442,1.465,18.066,52.734,33.691,63.477,0
1555615746.446,-2.930,16.113,42.969,62.500,36.621,0
1555615746.450,69.824,22.461,29.785,11.230,35.156,0
1555615746.467,82.520,41.016,15.625,1.953,59.570,0
1555615746.471,21.484,24.414,2.930,45.898,12.207,0
1555615746.475,-20.996,-15.137,17.578,39.551,7.324,0
1555615746.479,3.418,10.254,32.715,26.367,20.020,0
1555615746.483,68.848,35.645,37.109,27.832,-5.371,0
1555615746.487,54.199,19.531,28.809,30.762,52.246,0
1555615746.491,-20.996,22.949,16.602,12.207,44.434,0
1555615746.494,-11.230,34.668,19.531,17.578,14.648,0
1555615746.498,73.730,39.551,18.555,37.598,52.246,0
1555615746.502,81.543,25.391,30.273,53.711,31.738,0
1555615746.506,-3.418,-6.348,34.668,41.016,44.434,0
1555615746.510,-1.953,11.719,37.598,29.297,16.602,0
1555615746.512,39.551,20.996,43.457,35.645,-29.785,0
1555615746.516,48.340,10.254,35.156,42.969,55.664,0
1555615746.520,30.273,6.836,36.621,47.852,50.293,0
1555615746.524,-23.926,8.789,20.020,34.180,65.430,0
1555615746.528,33.203,32.715,2.930,10.254,99.121,0
1555615746.532,70.312,25.391,21.973,15.137,56.152,0
1555615746.536,9.766,23.438,27.344,7.812,63.965,0
1555615746.539,-32.715,51.270,13.184,25.391,45.898,0
1555615746.543,19.043,46.387,13.672,32.227,-3.906,0
1555615746.547,95.215,23.438,25.879,8.301,-18.066,0
1555615746.551,74.707,16.113,25.879,15.625,-11.719,0
1555615746.555,-8.301,2.930,21.484,26.367,8.301,0
1555615746.557,11.719,9.766,22.461,20.020,4.395,0
1555615746.561,81.055,14.160,26.855,20.996,-15.625,0
1555615746.565,63.477,11.230,17.578,15.625,22.461,0
1555615746.569,-20.020,23.438,13.184,14.160,14.648,0
1555615746.573,-25.391,33.691,14.648,26.367,13.672,0
1555615746.577,58.594,39.062,-2.441,28.320,26.367,0
1555615746.581,72.754,17.090,13.672,36.133,-6.836,0
1555615746.584,-7.812,1.953,40.527,38.574,35.645,0
1555615746.588,-33.203,23.438,36.133,0.000,72.266,0
1555615746.592,40.039,32.227,35.156,4.883,57.617,0
1555615746.596,103.027,-6.348,31.738,53.223,41.504,0
1555615746.600,50.781,-0.977,30.762,45.898,21.973,0
1555615746.602,-40.527,23.926,29.785,32.227,17.090,0
1555615746.606,8.789,35.156,23.926,32.227,39.062,0
1555615746.610,92.285,54.199,17.090,44.434,-4.883,0
1555615746.614,47.363,41.016,2.930,-8.789,39.062,0
1555615746.618,-17.578,21.484,10.254,-11.230,78.613,0
1555615746.622,10.254,21.973,19.043,41.504,28.320,0
1555615746.626,82.031,14.160,15.625,39.551,-6.836,0
1555615746.629,81.543,11.719,17.578,21.484,-27.344,0
1555615746.633,-27.832,27.344,34.180,-0.977,-20.996,0
1555615746.637,-52.734,30.273,32.227,18.066,-3.418,0
1555615746.641,41.016,20.020,27.832,20.508,-3.418,0
1555615746.645,76.660,25.879,11.230,25.391,-0.977,0
1555615746.647,23.926,30.762,0.977,6.348,18.555,0
1555615746.651,-39.551,8.301,27.832,-19.043,42.969,0
1555615746.655,8.789,24.902,20.020,19.043,49.805,0
1555615746.659,78.613,38.086,13.672,24.902,14.160,0
1555615746.663,36.133,23.926,32.227,22.461,17.578,0
1555615746.667,-9.277,15.625,32.227,23.926,14.648,0
1555615746.671,0.000,25.879,18.066,5.371,-16.602,0
1555615746.674,44.434,23.926,7.812,20.508,8.789,0
1555615746.678,53.711,-5.371,8.301,30.762,27.344,0
1555615746.682,-8.789,2.441,16.602,1.953,29.297,0
1555615746.686,-13.672,30.273,26.855,10.254,45.410,0
1555615746.690,45.898,40.527,34.180,26.367,40.527,0
1555615746.692,58.105,45.410,25.391,22.461,19.043,0
1555615746.696,-0.488,36.133,14.648,32.715,11.230,0
1555615746.700,-21.973,38.086,14.648,23.438,38.574,0
1555615746.704,48.828,44.922,17.090,12.695,15.137,0
1555615746.708,80.566,30.273,18.555,15.625,39.062,0
1555615746.712,16.602,0.488,20.020,30.273,75.684,0
1555615746.716,-16.113,5.859,29.297,45.410,44.922,0
1555615746.719,36.133,27.344,37.598,26.367,9.277,0
1555615746.723,84.473,34.180,20.996,33.691,29.297,0
1555615746.727,62.012,46.875,17.090,39.062,38.086,0
1555615746.731,-25.879,27.344,27.832,25.391,65.918,0
1555615746.735,-11.230,-7.324,13.672,12.207,64.453,0
1555615746.737,72.754,24.414,26.367,11.719,-9.277,0
1555615746.741,56.641,53.223,18.555,24.902,16.602,0
1555615746.745,-8.301,37.109,-7.812,25.391,46.387,0
1555615746.749,-9.766,27.832,18.066,15.625,58.105,0
1555615746.753,50.293,37.109,34.668,30.273,54.688,0
1555615746.757,75.684,34.180,33.691,43.457,26.367,0
1555615746.761,3.418,13.184,35.156,16.602,0.488,0
1555615746.764,-30.273,12.695,40.039,24.902,22.949,0
1555615746.768,40.527,0.977,29.785,27.832,39.551,0
1555615746.772,100.586,-3.418,4.395,6.836,20.508,0
1555615746.776,44.434,16.602,-2.930,36.133,19.043,0
1555615746.780,-24.902,25.391,3.418,39.551,45.410,0
1555615746.782,10.742,42.480,16.113,18.555,50.293,0
1555615746.786,65.918,22.949,40.527,25.391,-18.066,0
1555615746.790,39.551,13.184,35.645,26.367,0.488,0
1555615746.794,-12.207,39.551,11.230,20.996,62.012,0
1555615746.798,6.836,17.090,27.832,15.137,5.371,0
1555615746.802,62.988,-10.254,26.367,18.555,-21.484,0
1555615746.806,73.730,5.859,13.184,7.812,56.641,0
1555615746.809,-6.836,37.598,22.949,13.184,96.680,0
1555615746.813,-46.875,52.734,12.207,34.668,-3.906,0
1555615746.817,49.316,30.273,0.488,27.832,-48.340,0
1555615746.821,95.703,19.043,17.090,23.926,22.949,0
1555615746.825,20.508,28.320,21.484,28.809,11.230,0
1555615746.842,-30.762,19.043,17.578,13.184,17.090,0
1555615746.846,26.367,19.043,21.973,0.977,44.922,0
1555615746.850,56.152,44.922,12.207,6.836,49.316,0
1555615746.854,12.695,48.828,5.371,12.695,37.598,0
1555615746.858,-12.207,18.555,6.348,33.203,32.715,0
1555615746.862,33.691,7.812,11.719,21.484,25.391,0
1555615746.866,64.453,20.020,22.461,0.000,20.996,0
1555615746.869,34.180,39.062,22.461,18.555,53.711,0
1555615746.873,-18.555,34.180,23.926,22.949,58.594,0
1555615746.877,-6.348,13.672,23.438,15.137,27.344,0
1555615746.881,71.777,9.277,13.184,3.906,-3.906,0
1555615746.885,62.988,20.508,10.742,12.207,32.715,0
1555615746.902,-15.137,32.715,-0.977,13.672,53.711,0
1555615746.906,-29.785,41.016,-3.418,-0.488,13.184,0
1555615746.910,33.691,43.457,16.602,13.672,25.391,0
1555615746.914,63.477,36.133,19.043,-15.137,17.090,0
1555615746.918,25.391,11.719,17.578,-27.832,9.277,0
1555615746.922,-12.695,1.465,28.809,40.527,12.207,0
1555615746.926,37.109,20.020,25.879,48.828,-8.789,0
1555615746.929,90.332,31.250,10.742,25.879,24.902,0
1555615746.933,38.574,27.344,13.672,23.438,67.383,0
1555615746.937,-40.527,29.785,20.020,12.207,45.410,0
1555615746.941,-17.578,38.574,21.973,26.855,52.734,0
1555615746.945,83.008,24.902,25.879,39.062,42.480,0
1555615746.931,56.152,28.320,30.273,22.461,47.852,0
1555615746.935,-36.133,33.203,17.090,21.973,68.848,0
1555615746.939,-21.973,15.137,6.348,22.461,74.219,0
1555615746.943,54.199,-9.766,13.672,32.715,48.828,0
1555615746.947,54.688,-6.836,31.250,23.438,22.461,0
1555615746.951,0.977,29.785,36.621,3.906,41.504,0
1555615746.955,-26.855,38.086,19.531,9.277,53.223,0
1555615746.958,29.785,27.344,-7.812,13.184,25.391,0
1555615746.962,68.359,14.648,2.441,31.250,-4.395,0
1555615746.966,12.695,24.414,34.668,30.762,-8.789,0
1555615746.970,-40.039,30.762,27.344,24.902,19.531,0
1555615746.974,1.465,6.836,35.156,31.250,36.621,0
1555615746.976,76.660,7.812,34.668,30.273,-3.418,0
1555615746.980,43.945,16.602,11.719,30.273,-19.531,0
1555615746.984,-38.086,2.441,14.648,29.297,-18.066,0
1555615746.988,-38.574,2.441,25.879,1.953,28.320,0
1555615746.992,43.457,25.391,19.531,-7.812,43.457,0
1555615746.996,62.500,39.062,17.090,6.348,31.250,0
1555615747.000,-21.484,32.715,36.621,12.695,23.438,0
1555615747.003,-11.719,16.602,29.297,20.508,29.785,0
1555615747.007,70.801,26.855,9.277,30.273,17.578,0
1555615747.011,66.406,37.598,12.695,19.531,50.781,0
1555615747.015,3.906,18.066,16.113,19.531,71.289,0
1555615747.019,-23.926,24.414,8.789,23.926,5.859,0
1555615747.021,33.203,23.926,21.484,28.320,30.273,0
1555615747.025,96.680,16.113,25.879,49.316,25.879,0
1555615747.029,50.781,18.555,17.578,26.367,13.184,1
1555615747.033,-6.836,1.465,14.160,7.324,45.410,0
1555615747.037,20.020,9.277,25.879,27.344,33.203,0
1555615747.041,75.195,39.062,32.715,25.391,28.809,0
1555615747.045,58.594,43.945,24.414,26.855,33.691,0
1555615747.048,-10.254,18.555,23.438,9.277,-1.465,0
1555615747.052,-7.812,15.137,20.020,16.113,-47.852,0
1555615747.056,62.988,40.527,3.418,39.062,-57.617,0
1555615747.060,50.781,41.504,0.000,25.879,-19.531,0
1555615747.064,-33.691,37.109,12.207,13.184,-12.695,0
1555615747.066,-34.180,27.344,20.996,9.766,22.461,0
1555615747.070,46.387,24.414,27.344,10.254,66.406,0
1555615747.074,80.566,22.461,26.855,21.973,41.992,0
1555615747.078,19.531,0.488,26.367,32.715,25.879,0
1555615747.082,-25.391,19.043,20.508,41.016,49.316,0
1555615747.086,39.551,12.207,21.484,36.621,53.711,0
1555615747.090,91.797,15.625,18.066,17.578,40.527,0
1555615747.093,45.410,46.875,19.043,-19.531,31.738,0
1555615747.097,-10.742,30.273,33.203,-5.371,-40.039,0
1555615747.101,26.855,9.277,33.203,38.086,8.789,0
1555615747.105,95.215,14.648,11.719,42.480,49.805,0
1555615747.109,57.617,26.367,-0.977,20.020,27.344,0
1555615747.112,-8.301,26.855,20.996,24.414,30.273,0
1555615747.116,5.859,4.883,37.598,58.105,18.066,0
1555615747.120,81.543,-0.977,31.738,52.246,13.672,0
1555615747.124,88.867,23.438,30.273,33.691,-41.016,0
1555615747.128,18.066,32.715,33.691,43.457,10.742,0
1555615747.132,14.648,22.461,28.320,55.664,33.691,0
1555615747.136,79.102,1.953,13.672,46.387,62.500,0
1555615747.139,103.516,17.090,27.344,36.621,62.012,0
1555615747.143,29.785,31.738,38.574,22.949,34.180,0
1555615747.147,-41.504,41.016,36.133,22.461,84.961,0
1555615747.151,24.902,55.176,38.574,31.250,74.219,0
1555615747.155,86.426,31.738,38.086,45.410,41.992,0
1555615747.156,50.293,1.465,34.668,25.879,20.508,0
1555615747.160,-1.953,13.672,22.461,28.320,10.742,0
1555615747.164,21.484,25.879,12.207,39.551,69.336,0
1555615747.168,100.098,23.926,18.066,30.273,57.617,0
1555615747.172,68.848,24.902,34.180,38.574,17.090,0
1555615747.176,-18.555,33.691,18.066,30.273,50.293,0
1555615747.180,-5.859,28.809,7.324,11.230,53.223,0
1555615747.183,62.012,10.254,29.297,17.578,34.668,0
1555615747.187,80.566,36.133,32.227,30.762,21.484,0
1555615747.191,18.555,36.621,25.391,32.715,41.992,0
1555615747.195,-13.672,32.715,16.602,21.484,41.504,0
1555615747.199,35.156,22.461,34.668,28.320,-1.465,0
1555615747.216,73.730,9.766,44.434,38.086,-9.277,0
1555615747.220,38.574,41.016,30.273,29.297,-9.766,0
1555615747.224,-11.230,46.875,21.973,15.625,-6.836,0
1555615747.228,25.879,27.344,20.996,23.438,21.973,0
1555615747.232,96.191,20.020,34.668,32.715,4.883,0
1555615747.236,62.500,29.297,40.527,16.113,-11.230,0
1555615747.240,-9.766,11.719,31.738,31.250,-31.738,0
1555615747.243,5.371,-15.137,27.832,52.734,-23.438,0
1555615747.247,53.711,14.648,20.508,24.902,39.062,0
1555615747.251,41.992,63.477,21.973,13.672,-15.137,0
1555615747.255,-27.344,50.293,36.133,14.160,-11.230,0
1555615747.259,-30.273,22.949,26.367,-5.859,9.766,0
1555615747.261,33.203,33.691,1.953,20.020,9.277,0
1555615747.265,54.199,46.387,8.301,28.809,46.387,0
1555615747.269,17.578,23.926,23.438,23.926,62.012,0
1555615747.273,-15.625,11.719,25.879,18.555,34.668,0
1555615747.277,23.926,34.180,30.273,26.855,34.668,0
1555615747.281,75.195,42.480,31.250,54.688,43.945,0
1555615747.285,43.945,16.602,29.785,45.898,-4.883,0
1555615747.288,-19.531,7.812,32.715,20.508,-26.855,0
1555615747.292,17.090,39.551,22.461,33.691,-37.109,0
1555615747.296,70.801,23.926,7.812,18.555,-3.418,0
1555615747.300,35.156,8.789,10.254,15.137,83.984,0
1555615747.304,-29.785,27.832,20.996,39.551,93.750,0
1555615747.307,9.766,16.602,41.504,17.578,73.242,0
1555615747.311,87.402,13.184,49.316,13.672,44.922,0
1555615747.315,92.773,33.203,33.691,35.156,3.906,0
1555615747.319,17.578,44.922,30.762,33.203,20.996,0
1555615747.323,-17.578,41.504,27.344,14.648,57.617,0
1555615747.327,42.480,37.109,32.715,15.625,30.762,0
1555615747.331,80.566,33.203,40.527,44.434,35.156,0
1555615747.334,39.062,27.832,41.016,54.199,55.176,0
1555615747.338,-14.160,22.461,33.691,29.785,34.180,0
1555615747.342,23.438,35.645,27.832,5.859,8.301,0
1555615747.346,62.988,49.805,29.297,5.859,19.043,0
1555615747.350,17.090,48.340,24.414,-1.465,28.809,0
1555615747.352,-60.059,40.527,33.691,-12.695,-7.324,0
1555615747.356,-37.109,47.363,30.762,-25.391,-26.855,0
1555615747.360,29.785,55.664,32.715,-52.246,-5.859,0
1555615747.364,1.953,65.430,43.457,-58.594,-8.789,0
1555615747.368,-84.473,75.195,32.715,-62.012,-32.715,0
1555615747.372,-92.285,83.496,25.879,-82.520,-25.879,0
1555615747.376,-40.527,89.355,38.574,-97.168,-1.953,0
1555615747.379,-40.527,75.684,52.246,-102.051,70.312,0
1555615747.383,-128.906,76.172,42.969,-130.859,110.840,0
1555615747.387,-184.570,107.910,38.086,-150.879,78.613,0
1555615747.391,-126.953,115.234,32.715,-160.156,48.340,0
1555615747.395,-97.656,121.582,40.039,-199.219,30.762,0
1555615747.396,-151.855,145.508,36.621,-204.102,28.809,0
1555615747.400,-216.797,130.859,14.160,-195.801,14.648,0
1555615747.404,-193.359,113.281,33.203,-197.266,52.734,0
1555615747.408,-132.324,109.863,54.199,-196.289,80.566,0
1555615747.412,-160.156,75.684,67.383,-205.078,34.180,0
1555615747.416,-213.379,61.035,71.777,-199.707,31.250,0
1555615747.420,-192.383,87.402,43.945,-182.129,23.926,0
1555615747.423,-106.445,99.609,28.809,-167.969,11.230,0
1555615747.427,-94.238,111.328,24.414,-170.410,-19.043,0
1555615747.431,-164.062,123.535,17.090,-165.039,-10.254,0
1555615747.435,-157.715,119.141,22.949,-142.578,66.406,0
1555615747.439,-94.727,95.215,40.527,-132.324,28.320,0
1555615747.442,-68.848,75.684,43.945,-119.629,35.156,0
1555615747.446,-112.305,73.242,31.738,-108.887,44.922,0
1555615747.450,-117.188,89.355,36.133,-93.750,33.203,0
1555615747.454,-49.805,88.867,33.203,-80.566,56.152,0
1555615747.458,25.391,64.941,28.809,-54.199,5.371,0
1555615747.462,15.137,69.824,7.324,-18.066,12.207,0
1555615747.466,-60.547,72.754,-10.742,-10.742,78.125,0
1555615747.469,-10.742,46.387,16.602,6.348,70.312,0
1555615747.473,83.496,30.273,25.879,22.461,54.199,0
1555615747.477,58.105,55.664,-1.465,37.109,49.316,0
1555615747.481,-34.668,57.617,-8.301,46.875,14.648,0
1555615747.485,10.254,32.227,3.906,50.293,50.293,0
1555615747.486,120.605,17.090,6.836,26.367,35.156,0
1555615747.490,94.727,19.531,2.441,40.039,11.230,0
1555615747.494,9.277,22.949,-1.953,75.684,28.809,0
1555615747.498,12.207,25.391,5.859,53.223,-1.953,0
1555615747.502,104.004,-1.465,9.766,58.105,28.809,0
1555615747.506,132.324,-26.855,8.789,87.891,48.340,0
1555615747.510,75.195,-38.574,18.066,102.051,73.730,0
1555615747.513,71.777,-28.320,20.020,101.562,30.273,0
1555615747.517,137.695,13.672,10.254,102.051,-5.371,0
1555615747.521,165.527,15.137,-1.465,111.328,50.293,0
1555615747.525,89.844,20.508,6.836,103.516,34.180,0
1555615747.529,32.227,18.066,11.719,90.820,-4.395,0
1555615747.532,80.566,16.113,4.395,109.375,11.230,0
1555615747.536,148.926,20.996,4.395,97.168,-16.113,0
1555615747.540,116.699,4.395,-16.602,102.539,-21.484,0
1555615747.544,45.410,1.465,-21.973,130.371,-22.949,0
1555615747.548,62.012,-6.836,5.371,111.328,3.418,0
1555615747.552,141.602,-9.277,20.996,96.680,17.578,0
1555615747.556,157.715,-9.766,23.926,120.605,-10.254,0
1555615747.559,84.961,0.000,19.531,126.953,-3.418,0
1555615747.563,83.984,6.348,14.648,108.887,16.113,0
1555615747.567,139.648,13.184,12.207,96.680,1.953,0
1555615747.571,143.555,23.438,16.602,113.770,-0.977,0
1555615747.575,80.566,9.766,17.578,110.840,25.879,0
1555615747.592,46.387,7.812,16.113,98.145,-27.344,0
1555615747.596,98.633,17.090,23.438,110.840,46.387,0
1555615747.600,149.902,19.531,8.301,107.422,104.004,0
1555615747.604,119.629,13.672,-1.465,97.168,18.066,0
1555615747.608,54.688,15.625,17.578,103.027,-1.953,0
1555615747.612,73.730,15.625,20.508,102.539,6.348,0
1555615747.616,142.090,2.441,-0.488,75.195,47.363,0
1555615747.619,148.438,1.953,4.395,63.477,15.625,0
1555615747.623,61.035,9.277,34.180,91.797,28.809,0
1555615747.627,53.711,11.230,33.691,102.051,26.855,0
1555615747.631,131.348,23.438,19.531,86.914,-6.836,0
1555615747.635,114.258,35.156,25.391,87.402,58.594,0
1555615747.637,43.457,27.344,24.902,95.703,84.961,0
1555615747.641,41.016,13.672,15.625,94.238,-3.418,0
1555615747.645,92.773,5.859,21.484,75.195,-69.824,0
1555615747.649,141.113,4.395,19.043,46.387,4.395,0
1555615747.653,85.938,2.441,18.066,59.082,27.832,0
1555615747.657,27.832,9.277,9.766,78.613,19.531,0
1555615747.661,82.520,22.461,6.836,80.078,86.426,0
1555615747.664,130.371,28.809,19.531,69.824,92.773,0
1555615747.668,83.496,27.832,20.508,73.730,8.301,0
1555615747.672,5.859,22.461,26.367,68.359,2.930,0
1555615747.676,46.875,13.672,27.344,52.246,48.340,0
1555615747.680,127.930,-3.906,19.043,56.152,47.363,0
1555615747.682,109.375,-14.160,12.207,74.707,46.875,0
1555615747.686,44.434,-2.441,12.207,86.426,27.344,0
1555615747.690,18.555,17.090,22.461,75.195,18.066,0
1555615747.694,77.148,39.062,27.832,58.594,44.922,0
1555615747.698,112.305,22.461,25.391,59.082,48.340,0
1555615747.702,38.086,12.695,28.320,73.730,19.531,0
1555615747.706,-23.926,26.855,22.949,55.664,16.113,0
1555615747.709,56.152,23.926,12.207,48.828,48.828,0
1555615747.713,136.719,17.090,9.277,64.941,57.617,0
1555615747.717,79.102,12.695,10.254,61.523,18.555,0
1555615747.721,12.207,29.297,29.297,60.547,2.441,0
1555615747.725,66.895,38.086,27.344,59.082,14.160,0
1555615747.742,118.164,32.715,22.461,47.363,40.527,0
1555615747.746,71.289,36.621,24.414,41.016,8.301,0
1555615747.750,9.766,34.180,16.113,45.410,-23.438,0
1555615747.754,8.301,20.508,12.695,37.109,50.781,0
1555615747.758,86.426,15.137,24.902,47.363,61.035,0
1555615747.762,91.797,18.066,34.180,59.082,28.809,0
1555615747.766,-6.836,9.766,28.320,36.621,26.855,0
1555615747.769,-20.996,2.441,36.621,25.879,-1.953,0
1555615747.773,64.453,-6.348,19.531,30.762,5.859,0
1555615747.777,107.910,5.859,-6.348,28.809,6.836,0
1555615747.781,29.297,34.668,9.766,28.809,38.086,0
1555615747.785,-15.625,32.715,19.043,24.414,47.363,0
1555615747.772,61.035,34.180,29.297,32.227,1.953,0
1555615747.776,100.586,39.062,38.086,44.434,18.555,0
1555615747.780,46.387,31.738,22.461,45.410,59.082,0
1555615747.784,-9.277,17.578,26.367,40.527,83.008,0
1555615747.788,30.273,9.277,21.973,26.855,41.992,0
1555615747.792,99.609,20.996,18.066,38.086,3.418,0
1555615747.796,61.035,25.391,33.203,54.688,24.902,0
1555615747.799,-14.160,15.137,41.504,44.434,43.457,0
1555615747.803,-19.043,-0.977,49.805,40.527,68.848,0
1555615747.807,48.828,1.953,37.598,6.836,82.520,0
1555615747.811,81.055,12.695,33.691,2.930,10.742,0
1555615747.815,3.418,-7.812,42.969,37.598,7.324,0
1555615747.817,-18.555,-4.395,32.227,51.758,39.551,0
1555615747.821,63.965,12.695,20.508,44.434,38.086,0
1555615747.825,98.633,20.508,26.367,29.297,43.945,0
1555615747.829,26.367,17.090,28.320,37.598,31.250,0
1555615747.833,-15.137,-16.602,23.438,37.109,62.500,0
1555615747.837,34.668,4.395,34.668,35.645,81.055,0
1555615747.841,64.941,37.109,45.410,43.457,54.199,0
1555615747.844,40.527,25.391,30.273,49.316,36.621,0
1555615747.848,-13.672,27.832,29.297,51.758,57.129,0
1555615747.852,6.348,28.320,45.410,48.828,59.082,0
1555615747.856,74.707,28.809,40.039,36.133,49.805,0
1555615747.860,65.918,38.086,39.062,32.227,25.879,0
1555615747.862,6.348,12.207,36.133,39.551,39.062,0
1555615747.866,37.109,-17.578,35.156,47.363,57.617,0
1555615747.870,121.094,9.766,27.832,54.688,25.391,0
1555615747.874,89.844,35.645,20.508,50.293,36.133,0
1555615747.878,-7.324,38.574,34.668,41.504,90.820,0
1555615747.882,-15.137,37.598,28.320,35.156,39.062,0
1555615747.886,41.992,29.297,19.043,42.969,41.016,0
1555615747.889,86.426,30.273,34.180,58.594,31.738,0
1555615747.893,58.105,15.137,35.645,53.223,-31.250,0
1555615747.897,-5.371,-6.836,17.578,22.949,-6.836,0
1555615747.901,20.996,12.695,23.926,23.926,22.461,0
1555615747.905,80.566,36.621,48.828,46.875,19.043,0
1555615747.907,62.988,3.906,44.922,39.551,23.438,0
1555615747.911,8.301,-4.883,37.109,29.297,30.273,0
1555615747.915,19.043,40.527,41.016,20.020,35.156,0
1555615747.919,72.754,58.105,29.297,17.578,-3.418,0
1555615747.923,61.523,33.203,10.742,42.969,-5.859,0
1555615747.927,-14.648,18.066,18.066,39.551,-33.691,0
1555615747.931,-17.090,35.156,41.992,28.320,-32.715,0
1555615747.934,74.707,34.668,42.480,43.457,24.902,0
1555615747.938,101.074,31.250,34.668,37.598,45.898,0
1555615747.942,17.090,11.719,29.785,20.996,15.625,0
1555615747.946,-29.297,3.418,17.578,17.090,27.344,0
1555615747.950,25.879,20.508,6.836,16.602,80.566,0
1555615747.967,83.496,20.996,15.625,16.113,19.531,0
1555615747.971,29.785,35.156,31.250,31.250,10.742,0
1555615747.975,-38.086,44.434,31.738,38.086,9.277,0
1555615747.979,19.531,46.875,37.598,4.883,20.508,0
1555615747.983,87.891,34.668,32.715,2.930,62.988,0
1555615747.987,70.312,22.461,17.090,19.043,39.062,0
1555615747.991,1.465,38.574,11.719,21.973,-5.371,0
1555615747.994,-27.832,44.922,20.020,29.785,30.762,0
1555615747.998,58.105,31.250,27.832,34.180,71.289,0
1555615748.002,86.914,25.391,30.762,35.156,39.062,0
1555615748.006,-1.953,29.297,28.320,29.785,20.508,0
1555615748.010,-25.879,9.277,20.508,24.902,16.602,0
1555615748.012,43.457,37.109,9.766,21.484,27.832,0
1555615748.016,74.707,40.039,15.137,19.531,16.602,0
1555615748.020,9.766,28.809,37.109,20.020,39.062,0
1555615748.024,-28.809,27.832,34.668,22.461,36.621,0
1555615748.028,26.855,22.949,16.602,29.297,24.902,0
1555615748.032,82.520,46.387,5.371,22.949,58.594,0
1555615748.036,36.133,31.738,9.766,29.785,76.660,0
1555615748.039,-33.203,20.996,26.367,20.996,41.504,0
1555615748.043,-4.395,48.340,25.391,10.254,7.812,0
1555615748.047,63.965,55.176,12.207,8.789,-2.441,0
1555615748.051,80.078,27.344,17.578,9.766,23.438,0
1555615748.055,19.531,24.414,34.180,16.113,10.254,0
1555615748.058,-2.930,58.594,24.902,21.484,35.156,0
1555615748.062,62.012,45.410,27.832,25.879,60.059,0
1555615748.066,83.984,3.418,41.504,29.785,47.363,0
1555615748.070,4.395,18.066,38.086,25.879,18.555,0
1555615748.074,-22.949,51.758,39.062,25.879,33.203,0
1555615748.078,35.156,39.062,32.227,20.996,58.105,0
1555615748.082,83.496,22.461,18.555,20.996,50.293,0
1555615748.085,26.367,24.414,13.672,20.508,44.434,0
1555615748.089,-20.020,29.785,22.461,21.484,52.734,0
1555615748.093,43.945,29.785,41.016,39.551,-8.789,0
1555615748.097,77.148,24.414,41.504,39.551,-85.449,0
1555615748.101,20.508,33.203,34.180,13.184,20.508,0
1555615748.117,-20.996,51.270,33.691,15.625,107.910,0
1555615748.121,22.461,46.387,20.020,21.484,22.949,0
1555615748.125,85.449,34.668,16.113,21.484,17.090,0
1555615748.129,70.312,24.414,25.879,38.574,17.578,0
1555615748.133,1.465,20.020,15.137,28.320,21.484,0
1555615748.137,-6.348,25.391,1.465,19.043,18.066,0
1555615748.141,69.824,26.855,27.832,39.062,0.000,0
1555615748.144,109.863,34.180,51.758,25.391,25.391,0
1555615748.148,26.855,32.715,36.133,16.113,67.871,0
1555615748.152,-27.832,32.715,30.273,22.461,49.805,0
1555615748.156,28.809,42.480,41.992,11.719,18.555,0
1555615748.160,97.656,23.438,42.480,1.465,4.395,0
1555615748.147,64.941,10.254,36.621,23.926,33.203,0
1555615748.151,-16.602,16.602,40.527,55.176,55.176,0
1555615748.155,21.973,46.387,35.156,57.617,-47.363,0
1555615748.159,91.309,62.012,24.902,46.387,0.000,0
1555615748.163,48.340,41.016,12.695,28.320,22.949,0
1555615748.167,-27.344,37.109,14.648,30.273,-23.438,0
1555615748.171,-20.020,38.086,30.762,26.855,61.523,0
1555615748.174,63.965,25.391,38.574,36.133,106.934,0
1555615748.178,77.148,25.391,31.250,34.180,73.242,0
1555615748.182,-3.418,25.391,31.738,17.578,58.105,0
1555615748.186,-11.719,26.367,41.992,17.578,66.895,0
1555615748.190,70.312,26.855,26.367,26.367,33.203,0
1555615748.193,93.262,28.320,7.812,35.156,18.555,0
1555615748.197,9.766,42.480,24.902,18.555,39.062,0
1555615748.201,-47.363,39.551,35.645,9.766,24.414,0
1555615748.205,16.113,32.227,21.484,12.207,41.992,0
1555615748.209,74.219,23.926,22.949,18.066,60.059,0
1555615748.213,23.438,18.555,29.297,11.719,43.945,0
1555615748.217,-47.363,23.438,31.738,0.977,4.883,0
1555615748.220,-1.465,41.016,33.691,22.949,51.758,0
1555615748.224,87.402,44.922,33.203,6.836,84.473,0
1555615748.228,39.062,33.691,28.320,5.371,-1.953,0
1555615748.232,-20.020,27.832,23.438,25.391,-28.320,0
1555615748.236,2.930,24.902,30.273,21.484,-32.715,0
1555615748.236,75.684,31.250,33.691,26.367,28.320,0
1555615748.240,91.309,42.480,22.949,28.809,36.133,0
1555615748.244,6.836,30.762,15.625,24.414,-19.531,0
1555615748.248,-35.645,17.578,26.855,20.020,3.418,0
1555615748.252,30.273,23.926,41.504,10.742,-6.348,0
1555615748.256,79.102,27.832,35.645,22.949,13.672,0
1555615748.260,16.602,31.738,27.832,20.508,38.086,0
1555615748.263,-53.223,23.438,34.180,15.137,22.461,0
1555615748.267,18.555,26.367,40.527,41.016,20.508,0
1555615748.271,74.707,22.461,25.879,19.043,36.621,0
1555615748.275,34.668,5.859,24.902,26.855,5.371,0
1555615748.279,-10.254,26.855,28.809,49.316,-26.855,0
1555615748.282,-2.930,46.387,18.555,7.812,-9.277,0
1555615748.286,68.359,41.992,27.832,4.395,47.363,0
1555615748.290,59.082,46.875,30.273,28.809,75.195,0
1555615748.294,-21.484,48.340,24.414,20.020,21.484,0
1555615748.298,-19.531,22.949,24.414,17.090,-3.418,0
1555615748.302,62.500,12.207,28.809,21.973,34.668,0
1555615748.306,80.566,15.625,34.668,16.602,40.527,0
1555615748.309,-2.441,18.555,32.227,6.348,-8.301,0
1555615748.313,-41.992,37.109,28.809,27.832,-20.020,0
1555615748.317,23.926,37.598,31.250,16.602,19.043,0
1555615748.321,64.453,45.898,32.227,10.742,53.223,0
1555615748.325,32.715,53.223,24.414,22.949,74.219,0
1555615748.342,-19.043,41.016,28.320,19.043,12.207,0
1555615748.346,0.488,34.180,27.832,35.156,0.977,0
1555615748.350,44.922,25.879,25.391,43.457,23.438,0
1555615748.354,39.551,34.668,31.250,29.297,6.836,0
1555615748.358,-9.277,29.297,36.621,17.578,2.441,0
1555615748.362,-1.953,8.301,23.438,20.508,35.645,0
1555615748.366,74.219,25.879,26.367,28.320,36.133,0
1555615748.369,51.270,41.992,41.992,27.344,6.348,0
1555615748.373,-12.695,33.203,28.809,30.273,26.855,0
1555615748.377,-5.859,37.109,22.949,33.691,41.016,0
1555615748.381,46.875,36.621,25.879,20.020,40.527,0
1555615748.385,63.965,30.762,29.297,16.602,25.391,0
1555615748.387,14.160,33.203,32.227,15.137,15.625,0
1555615748.391,-19.531,38.086,15.137,22.949,83.008,0
1555615748.395,31.250,50.781,17.090,-1.465,46.387,0
1555615748.399,78.613,54.688,29.785,-9.277,-21.973,0
1555615748.403,45.410,24.414,19.531,34.180,29.297,0
1555615748.407,-20.996,10.742,22.461,16.113,84.473,0
1555615748.411,16.602,48.828,32.227,2.441,91.797,0
1555615748.414,79.590,45.410,28.809,16.602,27.832,0
1555615748.418,26.367,19.043,18.066,12.207,-0.977,0
1555615748.422,-31.738,20.508,22.949,-3.906,15.137,0
1555615748.426,-11.719,28.320,33.691,2.441,55.664,0
1555615748.430,31.738,36.621,34.180,5.859,52.246,0
1555615748.432,64.941,36.621,35.156,22.949,13.672,0
1555615748.436,21.973,36.621,22.461,29.785,9.277,0
1555615748.440,-3.906,34.668,12.695,17.578,31.738,0
1555615748.444,59.082,29.785,29.297,19.531,37.598,0
1555615748.448,72.266,35.645,41.992,23.926,12.207,0
1555615748.452,7.324,49.805,33.203,18.555,10.742,0
1555615748.456,-28.809,61.523,16.602,9.277,-1.465,0
1555615748.459,17.578,46.875,25.391,15.625,-6.348,0
1555615748.463,69.824,31.250,37.598,33.691,26.855,0
1555615748.467,33.203,31.738,42.969,27.344,38.574,0
1555615748.471,-20.020,23.438,46.875,16.602,22.949,0
1555615748.475,9.277,24.902,28.809,29.297,36.621,0
1555615748.477,70.801,29.785,16.113,31.250,41.016,0
1555615748.481,80.566,31.738,22.949,19.043,44.434,0
1555615748.485,9.277,53.711,20.996,5.859,51.758,0
1555615748.489,-12.207,60.547,23.438,3.906,2.441,0
1555615748.493,54.199,47.852,42.480,-5.371,15.137,0
1555615748.497,60.547,15.137,33.691,-8.301,12.695,0
1555615748.501,-14.160,21.973,20.508,17.090,-24.414,0
1555615748.504,-45.410,31.250,28.809,25.391,41.992,0
1555615748.508,52.734,26.367,49.316,22.461,71.777,0
1555615748.512,112.793,53.711,40.039,25.879,31.738,0
1555615748.516,31.250,50.293,32.227,43.945,-12.207,0
1555615748.520,-26.367,34.668,36.621,48.828,-5.371,0
1555615748.522,19.043,27.832,27.832,38.086,20.996,0
1555615748.526,105.957,28.809,28.320,42.480,-8.301,0
1555615748.530,86.914,31.250,37.109,31.738,-18.066,0
1555615748.534,-6.348,26.855,42.480,14.160,43.945,0
1555615748.538,2.441,28.320,34.668,29.785,15.625,0
1555615748.542,76.660,44.922,31.738,39.062,-23.926,0
1555615748.546,62.012,50.293,35.156,26.855,-2.930,0
1555615748.549,-22.949,27.344,29.297,27.832,62.500,0
1555615748.553,5.859,11.719,20.020,33.691,73.242,0
1555615748.557,91.309,29.785,10.742,28.320,7.324,0
1555615748.561,85.938,49.805,24.414,32.227,13.672,0
1555615748.565,-4.883,33.691,45.410,24.902,56.152,0
1555615748.567,-28.320,24.902,32.715,21.973,23.438,0
1555615748.571,64.941,31.738,30.762,50.781,4.883,0
1555615748.575,104.004,16.113,29.785,41.504,39.062,0
1555615748.579,39.062,33.203,24.414,27.344,30.762,0
1555615748.583,-26.367,67.383,30.762,3.418,21.973,0
1555615748.587,15.137,37.598,18.555,17.090,12.207,0
1555615748.591,87.891,12.207,20.508,36.133,13.672,0
1555615748.594,50.781,29.297,26.855,9.766,36.621,0
1555615748.598,-18.555,48.828,18.066,11.719,40.527,0
1555615748.602,13.672,53.711,24.414,20.020,16.602,0
1555615748.606,83.008,40.039,33.691,27.344,26.855,0
1555615748.610,78.125,34.180,32.227,32.715,8.789,0
1555615748.612,21.484,37.109,31.250,32.227,5.859,0
1555615748.616,-6.836,25.391,23.926,26.855,53.223,0
1555615748.620,58.594,32.715,9.277,36.133,70.312,0
1555615748.624,99.121,44.922,32.227,35.645,44.922,0
1555615748.628,10.254,37.598,56.152,31.250,-15.137,0
1555615748.632,-30.273,41.016,45.898,41.016,-8.301,0
1555615748.636,38.574,47.852,26.367,35.645,56.641,0
1555615748.639,80.078,35.156,7.812,32.715,78.125,0
1555615748.643,45.410,26.855,11.719,28.809,54.688,0
1555615748.647,-34.668,41.016,30.273,26.855,28.809,0
1555615748.651,-25.391,39.551,25.879,19.043,4.395,0
1555615748.655,83.496,43.945,28.320,17.578,41.504,0
1555615748.657,78.125,40.039,40.527,30.273,36.133,0
1555615748.661,-19.043,24.902,35.645,15.137,20.508,0
1555615748.665,-5.859,15.625,37.598,14.648,48.828,0
1555615748.669,83.008,5.371,50.293,35.645,28.320,0
1555615748.673,74.707,29.297,39.551,7.812,-7.324,0
1555615748.677,-20.020,51.270,30.762,-9.766,42.480,0
1555615748.681,-19.531,51.758,23.438,9.277,43.457,0
1555615748.684,57.129,48.340,17.090,23.438,24.414,0
1555615748.688,83.008,35.645,12.207,36.133,37.109,0
1555615748.692,33.203,34.180,15.625,38.086,22.949,0
1555615748.696,-20.996,15.137,29.297,31.250,11.719,0
1555615748.700,31.250,8.301,41.504,20.508,-17.090,0
1555615748.717,75.195,28.809,43.457,23.926,-44.434,0
1555615748.721,15.137,38.086,33.203,15.137,-27.832,0
1555615748.725,-28.809,52.734,31.250,25.391,20.996,0
1555615748.729,2.441,50.781,28.320,40.039,13.672,0
1555615748.733,62.012,45.410,27.832,22.461,-53.711,0
1555615748.737,56.152,30.273,39.062,22.461,-0.977,0
1555615748.741,-2.441,14.648,35.156,30.762,38.086,0
1555615748.744,-10.254,15.137,21.973,31.738,37.109,0
1555615748.748,61.523,37.109,18.066,22.461,73.242,0
1555615748.752,67.383,55.664,21.973,29.297,88.867,0
1555615748.756,-4.395,47.363,27.344,27.344,88.867,0
1555615748.760,-17.578,35.156,30.762,14.648,90.820,0
1555615748.762,33.691,28.809,24.902,15.625,54.199,0
1555615748.766,62.988,37.109,13.672,20.996,-14.160,0
1555615748.770,29.297,22.461,23.438,23.926,-16.602,0
1555615748.774,-15.625,14.648,29.297,20.020,-16.113,0
1555615748.778,24.414,31.738,30.762,28.320,42.480,0
1555615748.782,76.660,41.504,18.066,46.387,88.867,0
1555615748.786,45.898,50.293,9.277,33.203,55.664,0
1555615748.789,-13.184,37.598,25.391,8.789,76.660,0
1555615748.793,23.438,27.832,20.020,14.648,51.758,0
1555615748.797,100.586,40.527,36.621,34.668,-0.488,0
1555615748.801,77.148,31.250,43.945,27.832,21.973,0
1555615748.805,-19.043,7.324,30.273,1.465,72.754,0
1555615748.807,-33.691,20.508,28.809,8.301,46.387,0
1555615748.811,42.969,30.762,33.203,29.785,-17.090,0
1555615748.815,85.449,24.414,14.160,21.484,0.000,0
1555615748.819,23.438,25.391,5.859,28.320,46.387,0
1555615748.823,-26.855,24.414,20.996,16.602,40.527,0
1555615748.827,42.969,28.320,22.949,16.113,39.062,0
1555615748.831,90.332,31.738,41.992,38.086,30.273,0
1555615748.834,20.996,40.039,41.992,35.645,-21.484,0
1555615748.838,-30.762,42.480,25.879,28.809,-8.301,0
1555615748.842,7.812,33.203,16.602,15.625,27.832,0
1555615748.846,62.500,36.133,17.578,11.719,41.992,0
1555615748.850,52.734,13.672,25.391,23.926,-8.789,0
1555615748.852,-26.367,-9.277,29.297,6.348,0.000,0
1555615748.856,-8.789,29.785,24.414,5.371,53.711,0
1555615748.860,62.500,49.805,20.996,20.508,35.645,0
1555615748.864,43.457,35.645,20.020,19.043,49.805,0
1555615748.868,-24.414,20.996,14.648,22.461,50.781,0
1555615748.872,-26.855,36.621,36.621,19.043,17.578,0
1555615748.876,53.223,43.945,36.133,20.020,52.246,0
1555615748.879,86.426,22.461,16.113,11.230,49.316,0
1555615748.883,14.648,36.621,37.598,8.301,19.043,0
1555615748.887,-14.160,52.734,56.152,18.066,36.133,0
1555615748.891,53.223,39.062,32.227,25.879,8.789,0
1555615748.895,56.641,30.762,20.020,16.602,19.531,0
1555615748.897,0.977,32.227,23.926,9.277,22.461,0
1555615748.901,-34.180,25.879,17.578,13.672,10.254,0
1555615748.905,12.695,18.555,33.203,18.066,-0.977,0
1555615748.909,71.289,19.043,25.391,20.020,25.879,0
1555615748.913,35.645,12.695,15.625,9.766,19.043,0
1555615748.917,-26.367,18.555,33.203,8.301,-2.441,0
1555615748.921,-16.113,35.645,34.180,5.371,48.828,0
1555615748.924,54.199,50.293,20.996,10.254,23.926,0
1555615748.928,72.266,60.059,24.902,17.090,23.926,0
1555615748.932,-4.395,48.828,39.551,-5.859,53.223,0
1555615748.936,-31.738,34.668,40.527,-11.719,1.953,0
1555615748.940,47.852,20.020,31.738,22.461,43.945,0
1555615748.942,78.613,6.348,25.879,22.461,62.500,0
1555615748.946,22.949,10.254,21.484,14.160,40.039,0
1555615748.950,-41.016,37.598,12.695,0.977,43.945,0
1555615748.954,-10.254,42.480,20.508,0.000,61.035,0
1555615748.958,62.988,34.668,32.227,20.020,47.852,0
1555615748.962,42.480,41.016,31.250,22.949,20.508,0
1555615748.966,-18.555,30.273,32.227,25.391,39.551,0
1555615748.969,19.043,22.461,28.809,27.344,31.250,0
1555615748.973,93.750,31.738,27.832,32.227,-4.395,0
1555615748.977,49.805,38.086,30.762,25.391,34.668,0
1555615748.981,-25.391,37.109,31.250,31.738,66.895,0
1555615748.985,-15.137,33.691,21.484,32.227,4.395,0
1555615748.987,41.992,30.273,26.855,24.414,51.758,0
1555615748.991,69.336,37.109,37.109,31.250,11.230,0
1555615748.995,3.418,48.828,39.062,23.438,27.344,0
1555615748.999,-37.109,52.734,33.203,16.602,60.059,0
1555615749.003,40.527,41.504,16.113,17.090,22.949,0
1555615749.007,79.102,33.203,14.648,18.555,21.484,0
1555615749.011,16.602,37.598,22.949,38.574,-17.578,0
1555615749.014,-27.344,28.809,37.109,39.551,-39.062,0
1555615749.018,37.598,7.812,45.410,31.250,7.812,0
1555615749.022,82.031,9.277,41.016,36.133,55.176,0
1555615749.026,41.992,45.410,31.250,27.344,36.133,0
1555615749.030,-24.414,49.316,20.996,5.859,-2.441,0
1555615749.032,-7.324,37.598,15.625,-5.859,-11.719,0
1555615749.036,77.637,41.504,8.301,13.184,27.832,0
1555615749.040,74.219,48.340,14.160,25.879,44.434,0
1555615749.044,-5.859,39.062,34.668,3.418,70.312,0
1555615749.048,-20.508,20.508,41.016,7.812,57.617,0
1555615749.052,53.711,14.648,37.109,31.250,64.453,0
1555615749.056,91.797,33.203,28.809,22.461,75.195,0
1555615749.059,16.113,48.828,29.785,19.531,20.020,0
1555615749.063,-33.691,40.527,28.320,22.949,49.316,0
1555615749.067,30.762,33.203,29.785,40.039,53.711,0
1555615749.071,68.359,34.668,30.762,42.480,53.711,0
1555615749.075,23.438,35.645,26.855,21.484,37.598,0
1555615749.094,-34.180,26.855,31.250,20.508,22.949,0
1555615749.098,13.672,20.020,26.367,18.066,49.805,0
1555615749.102,75.684,32.715,23.926,19.531,23.438,0
1555615749.106,53.711,34.668,30.273,20.996,43.945,0
1555615749.110,1.465,16.113,22.461,27.832,71.777,0
1555615749.114,-12.695,24.414,14.160,13.184,0.488,0
1555615749.118,62.988,46.387,33.203,16.113,-14.160,0
1555615749.121,69.824,46.875,29.785,25.391,22.949,0
1555615749.125,-9.766,52.246,17.090,20.996,47.363,0
1555615749.129,-23.926,21.484,16.113,28.320,23.926,0
1555615749.133,59.570,-6.836,23.926,26.367,-1.465,0
1555615749.137,88.379,20.996,32.715,35.645,-7.324,0
1555615749.137,7.812,39.551,26.367,0.000,-20.508,0
1555615749.141,-29.785,35.156,22.949,-3.418,-1.953,0
1555615749.145,34.668,32.715,32.715,46.387,-36.621,0
1555615749.149,57.617,34.668,35.645,24.414,-0.977,0
1555615749.153,23.926,39.551,26.855,20.508,36.621,0
1555615749.157,-2.441,35.645,25.391,34.180,53.223,0
1555615749.161,28.809,28.320,20.996,27.344,28.320,0
1555615749.164,78.613,31.250,17.090,27.344,32.715,0
1555615749.168,52.246,26.367,28.809,32.227,45.410,0
1555615749.172,-30.762,29.297,42.480,24.414,42.969,0
1555615749.176,-18.555,20.996,47.852,24.414,13.184,0
1555615749.180,86.914,12.695,41.992,24.414,5.371,0
1555615749.182,91.797,41.992,24.414,23.926,30.762,0
1555615749.186,7.324,59.082,21.484,31.738,45.898,0
1555615749.190,-29.785,62.988,26.855,36.621,73.730,0
1555615749.194,30.273,44.434,32.715,26.367,14.160,0
1555615749.198,84.961,17.578,34.668,24.902,5.371,0
1555615749.202,32.227,25.391,30.762,30.273,43.457,0
1555615749.206,-52.734,41.992,29.785,18.066,20.020,0
1555615749.209,11.230,33.203,32.227,17.578,-10.254,0
1555615749.213,99.121,14.648,34.668,25.391,-4.395,0
1555615749.217,60.547,22.461,33.203,19.531,60.547,0
1555615749.221,-18.555,34.668,33.203,7.324,28.320,0
1555615749.225,7.812,48.340,40.527,31.738,-4.883,0
1555615749.227,78.613,47.852,35.645,39.551,44.434,0
1555615749.231,62.012,43.945,20.020,23.926,25.391,0
1555615749.235,-5.371,50.781,22.461,11.719,29.785,0
1555615749.239,-25.391,52.246,33.203,1.953,42.969,0
1555615749.243,35.645,57.129,32.715,28.320,-15.625,0
1555615749.247,83.008,43.945,38.086,44.922,-50.781,0
1555615749.251,24.902,20.996,44.434,20.020,-9.766,0
1555615749.254,-30.762,20.020,40.527,14.648,-11.719,0
1555615749.258,41.992,33.691,32.227,21.484,-18.555,0
1555615749.262,107.422,35.645,29.785,17.090,30.273,0
1555615749.266,47.363,33.691,27.344,24.902,27.832,0
1555615749.270,-24.902,42.480,23.438,9.766,22.461,0
1555615749.272,5.859,48.828,26.855,13.184,35.645,0
1555615749.276,60.547,46.875,39.551,32.715,44.434,0
1555615749.280,46.387,38.086,40.039,19.531,20.508,0
1555615749.284,-28.809,26.855,30.273,15.137,43.457,0
1555615749.288,-6.836,28.809,38.086,17.090,49.805,0
1555615749.292,85.449,51.270,47.363,27.832,-42.480,0
1555615749.296,68.848,54.688,42.480,37.109,-44.434,0
1555615749.299,-20.508,46.387,23.438,9.766,44.922,0
1555615749.303,-30.762,35.645,18.066,-5.859,28.320,0
1555615749.307,60.059,39.062,40.527,22.461,45.410,0
1555615749.311,85.938,51.270,50.781,37.109,51.758,0
1555615749.315,5.371,52.246,45.898,29.785,11.230,0
1555615749.332,-35.645,41.504,38.574,11.719,-20.996,0
1555615749.336,28.809,30.273,29.297,-0.488,-19.531,0
1555615749.340,83.008,44.922,24.414,10.742,30.273,0
1555615749.344,24.902,44.434,31.738,0.977,15.137,0
1555615749.348,-52.246,40.527,31.738,-23.438,38.574,0
1555615749.352,-18.555,41.992,29.785,14.160,62.500,0
1555615749.356,64.941,35.645,36.133,29.297,-5.371,0
1555615749.359,35.645,37.109,40.039,13.184,-1.953,0
1555615749.363,-38.574,43.457,45.898,8.789,-13.672,0
1555615749.367,-33.203,41.016,46.387,7.812,-39.062,0
1555615749.371,50.781,34.180,37.598,25.391,-10.742,0
1555615749.375,76.660,40.039,36.133,13.672,38.086,0
1555615749.362,-7.324,36.133,38.574,-2.441,57.129,0
1555615749.366,-35.645,23.438,27.832,35.156,17.090,0
1555615749.370,45.898,36.133,32.227,45.898,-20.996,0
1555615749.374,72.266,47.363,44.434,34.180,-17.090,0
1555615749.378,17.090,44.434,43.457,24.902,16.113,0
1555615749.382,-37.598,38.086,36.621,11.230,38.086,0
1555615749.386,12.695,41.504,40.039,17.090,22.461,0
1555615749.389,83.008,44.434,36.133,27.344,21.484,0
1555615749.393,32.227,36.133,30.273,20.020,48.828,0
1555615749.397,-30.762,46.387,32.715,16.113,25.879,0
1555615749.401,1.953,48.828,36.133,19.531,62.500,0
1555615749.405,65.918,35.645,37.598,5.859,96.191,0
1555615749.406,35.156,30.273,33.203,9.766,55.176,0
1555615749.410,-21.973,25.391,33.203,25.879,59.082,0
1555615749.414,7.324,33.203,40.527,25.391,32.715,0
1555615749.418,63.477,50.781,42.969,29.785,24.414,0
1555615749.422,61.035,57.129,43.945,36.133,11.719,0
1555615749.426,4.395,49.316,45.410,30.762,8.789,0
1555615749.430,-16.602,36.133,45.410,22.461,37.598,0
1555615749.433,38.574,28.809,46.875,15.625,40.527,0
1555615749.437,73.242,35.156,43.945,14.160,20.508,0
1555615749.441,28.320,50.781,39.551,19.531,65.918,0
1555615749.445,-34.668,46.387,37.598,29.297,95.703,0
1555615749.449,15.137,45.898,38.574,26.367,41.992,0
1555615749.466,72.266,49.316,33.203,18.066,12.207,0
1555615749.470,21.484,45.410,26.367,5.859,-30.762,0
1555615749.474,-41.016,51.758,30.762,-2.930,-25.391,0
1555615749.478,-18.066,38.574,28.809,-8.301,-0.488,0
1555615749.482,37.598,33.203,31.250,-8.301,-5.859,0
1555615749.486,18.555,43.945,37.109,-22.949,29.785,0
1555615749.490,-54.688,45.410,35.645,-31.738,44.434,0
1555615749.493,-56.152,49.805,33.691,-11.230,65.918,0
1555615749.497,34.180,55.176,20.508,-6.348,34.668,0
1555615749.501,50.293,56.641,14.160,-0.488,20.020,0
1555615749.505,-35.156,51.270,30.762,-1.953,40.039,0
1555615749.509,-74.219,41.504,36.621,-5.371,18.555,0
1555615749.512,0.977,36.621,35.156,7.324,-3.906,0
1555615749.516,63.965,41.016,39.551,11.230,6.836,0
1555615749.520,2.930,48.340,39.062,-6.348,56.152,0
1555615749.524,-38.574,49.316,37.598,-0.977,63.965,0
1555615749.528,23.926,49.316,39.062,20.996,61.523,0
1555615749.532,83.008,47.363,44.922,33.691,37.598,0
1555615749.536,61.035,48.828,51.270,13.184,28.320,0
1555615749.539,-22.949,43.457,54.199,10.742,41.016,0
1555615749.543,-8.789,34.668,50.781,30.273,7.324,0
1555615749.547,70.801,33.203,53.223,45.410,0.000,0
1555615749.551,64.941,28.809,62.988,51.270,51.270,0
1555615749.555,16.602,25.879,64.453,42.969,54.199,0
1555615749.557,3.418,18.066,60.547,36.133,29.297,0
1555615749.561,74.219,9.277,58.594,37.109,56.152,0
1555615749.565,123.535,8.301,67.871,72.754,77.148,0
1555615749.569,55.176,6.348,73.730,100.098,44.922,0
1555615749.573,9.766,3.418,74.707,78.125,7.324,0
1555615749.577,65.918,2.441,80.078,84.961,13.184,0
1555615749.581,126.953,-3.418,84.473,101.074,29.785,0
1555615749.584,101.562,-9.277,85.449,108.887,31.738,0
1555615749.588,48.340,-9.766,80.566,114.746,48.340,0
1555615749.592,98.145,-10.254,76.660,118.652,25.879,0
1555615749.596,159.668,-15.625,78.613,131.836,26.367,0
1555615749.600,119.141,-19.531,76.660,122.559,40.527,0
1555615749.602,51.758,-17.578,72.754,132.812,-12.695,0
1555615749.606,79.102,-15.625,75.195,147.949,-7.324,0
1555615749.610,158.691,-17.090,76.660,144.043,23.438,0
1555615749.614,180.664,-15.137,77.637,160.156,35.156,0
1555615749.618,125.488,-13.184,78.125,187.012,30.273,0
1555615749.622,86.426,-15.137,79.102,184.082,-1.953,0
1555615749.626,143.066,-15.625,79.590,152.832,16.113,0
1555615749.629,194.824,-19.043,77.148,148.438,37.598,0
1555615749.633,145.020,-17.090,82.031,159.180,17.090,0
1555615749.637,100.098,-10.742,83.496,168.457,9.766,0
1555615749.641,155.273,-7.812,79.590,159.668,18.555,0
1555615749.645,207.031,-5.371,81.055,167.969,41.992,0
1555615749.647,153.809,-7.812,84.961,180.176,26.855,0
1555615749.651,88.379,-10.254,79.102,154.297,10.742,0
1555615749.655,132.324,-8.789,73.242,165.527,14.648,0
1555615749.659,210.938,-6.348,69.824,170.898,-32.227,0
1555615749.663,174.805,0.000,68.359,158.203,-48.828,0
1555615749.667,84.473,6.348,68.359,157.227,-1.953,0
1555615749.671,91.309,5.859,62.012,136.719,31.738,0
1555615749.674,159.668,-2.441,61.523,123.535,30.273,0
1555615749.678,168.457,1.465,65.430,125.488,74.219,0
1555615749.682,90.820,12.207,63.965,114.258,3.906,0
1555615749.686,39.062,14.160,60.059,96.680,10.254,0
1555615749.690,104.492,9.766,63.477,105.469,68.359,0
1555615749.693,136.230,11.719,56.641,84.473,9.766,0
1555615749.697,72.266,21.484,53.711,79.590,52.246,0
1555615749.701,32.227,27.344,53.711,97.168,70.801,0
1555615749.705,68.359,32.227,47.363,83.984,43.457,0
1555615749.709,109.863,34.180,47.363,82.520,33.691,0
1555615749.713,83.008,37.109,57.617,91.309,37.109,0
1555615749.717,34.668,37.598,64.453,96.191,32.715,0
1555615749.720,50.781,34.180,56.152,74.219,38.574,0
1555615749.724,126.465,37.598,49.805,80.078,8.789,0
1555615749.728,117.188,42.480,51.270,86.426,-10.254,0
1555615749.732,31.738,43.457,51.758,74.219,3.418,0
1555615749.736,20.996,37.109,45.898,69.824,2.930,0
1555615749.737,92.773,31.738,43.457,68.359,9.277,0
1555615749.741,93.262,35.156,47.852,66.406,53.711,0
1555615749.745,27.832,40.527,44.922,58.594,77.637,0
1555615749.749,17.578,48.340,47.852,44.434,66.895,0
1555615749.753,76.172,43.945,53.711,45.410,88.867,0
1555615749.757,114.258,39.062,48.828,60.547,34.180,0
1555615749.761,37.109,42.969,42.969,44.434,2.441,0
1555615749.764,-29.297,44.922,41.016,25.391,65.918,0
1555615749.768,44.434,47.852,38.086,42.480,86.914,0
1555615749.772,96.191,51.758,42.480,51.758,43.457,0
1555615749.776,58.105,52.246,48.828,44.922,-9.766,0
1555615749.780,-0.488,41.992,40.039,38.574,-33.203,0
1555615749.782,1.953,42.969,25.391,32.227,-6.836,0
1555615749.786,67.383,52.246,31.738,34.180,9.277,0
1555615749.790,75.195,47.852,35.156,39.062,-17.090,0
1555615749.794,7.324,35.645,31.738,41.504,-1.465,0
1555615749.798,-7.812,37.598,36.621,34.668,58.105,0
1555615749.802,51.270,50.781,42.969,22.949,82.031,0
1555615749.806,70.312,56.152,33.203,27.344,46.387,0
1555615749.809,15.625,55.176,23.926,21.484,-9.766,0
1555615749.813,-25.879,48.340,34.668,20.508,-20.020,0
1555615749.817,11.719,53.711,35.156,20.020,5.859,0
1555615749.821,78.125,62.500,33.691,26.855,-23.438,0
1555615749.825,62.012,59.082,44.922,35.156,-44.922,0
1555615749.842,-12.695,54.688,47.852,17.090,-5.371,0
1555615749.846,7.324,49.316,40.039,20.020,8.789,0
1555615749.850,92.773,39.062,34.668,38.086,39.062,0
1555615749.854,64.453,41.016,34.668,42.480,47.852,0
1555615749.858,-22.461,42.480,37.598,29.785,41.504,0
1555615749.862,9.277,43.945,47.852,28.809,59.570,0
1555615749.866,90.820,50.293,49.316,29.785,53.223,0
1555615749.869,81.055,49.805,33.203,27.832,62.500,0
1555615749.873,4.395,56.641,21.973,28.809,59.570,0
1555615749.877,4.883,43.945,36.621,37.598,8.789,0
1555615749.881,67.383,21.484,56.152,31.738,32.227,0
1555615749.885,79.102,24.902,60.547,44.922,53.711,0
1555615749.887,19.043,28.320,56.641,34.180,47.852,0
1555615749.891,1.465,28.809,55.176,28.320,69.824,0
1555615749.895,58.594,21.484,60.059,62.988,56.152,0
1555615749.899,120.117,16.113,63.965,74.219,71.777,0
1555615749.903,58.594,18.066,60.059,59.082,30.273,0
1555615749.907,-18.066,16.113,55.176,53.223,15.137,0
1555615749.911,36.621,11.230,54.199,62.012,70.801,0
1555615749.914,117.676,20.020,51.270,51.758,51.270,0
1555615749.918,97.168,30.762,56.641,39.551,24.414,0
1555615749.922,4.883,23.926,47.852,48.828,12.207,0
1555615749.926,18.066,26.367,36.621,53.223,-5.371,0
1555615749.930,82.520,17.578,45.898,37.598,-1.953,0
1555615749.932,72.266,17.578,48.828,40.039,-17.090,0
1555615749.936,17.578,43.945,39.551,28.320,-42.480,0
1555615749.940,-20.996,47.852,37.598,31.250,20.996,0
1555615749.944,36.621,47.363,45.410,54.688,58.105,0
1555615749.948,98.633,43.945,53.711,52.246,18.555,0
1555615749.952,37.598,34.180,56.641,43.457,38.086,0
1555615749.956,-22.461,38.086,48.340,19.531,45.410,0
1555615749.959,32.715,37.109,45.410,-0.488,31.738,0
1555615749.963,70.801,29.297,53.223,15.137,6.348,0
1555615749.967,55.176,25.391,45.898,23.926,-4.395,0
1555615749.971,-12.207,35.156,36.621,18.555,-11.719,0
1555615749.975,4.883,29.297,42.969,13.184,-32.227,0
1555615749.977,95.215,18.066,40.039,2.441,16.113,0
1555615749.981,68.848,24.902,34.668,11.719,22.461,0
1555615749.985,-14.160,34.668,38.574,7.812,-19.531,0
1555615749.989,-12.695,42.480,34.180,30.273,44.922,0
1555615749.993,67.383,37.598,27.344,49.316,75.195,0
1555615749.997,78.125,35.645,38.574,31.250,46.387,0
1555615750.001,16.113,38.574,44.922,35.156,20.020,0
1555615750.004,-16.113,31.250,38.574,30.273,0.488,0
1555615750.008,29.785,33.691,37.109,20.996,22.949,0
1555615750.012,93.262,39.062,43.945,27.344,27.832,0
1555615750.016,60.059,35.645,41.504,29.785,13.672,0
1555615750.020,-14.160,21.484,43.945,24.414,12.695,0
1555615750.022,22.949,15.137,44.434,27.832,37.598,0
1555615750.026,91.309,28.809,34.180,19.531,-13.672,0
1555615750.030,61.035,29.785,34.180,8.301,-12.695,0
1555615750.034,-22.949,20.996,33.691,-14.648,36.133,0
1555615750.038,-30.762,31.250,31.250,-4.883,13.672,0
1555615750.042,74.219,47.363,36.133,33.691,-45.410,0
1555615750.046,88.379,47.852,40.039,38.086,-42.969,0
1555615750.049,-0.488,47.852,35.645,20.508,3.906,0
1555615750.053,-33.691,47.363,33.203,10.742,3.906,0
1555615750.057,56.641,37.109,38.574,12.695,34.180,0
1555615750.061,93.262,33.691,33.691,-0.488,72.754,0
1555615750.065,4.395,47.363,28.809,10.742,40.039,0
1555615750.067,-39.551,46.875,34.668,35.156,60.547,0
1555615750.071,23.438,39.551,38.574,25.879,75.684,0
1555615750.075,81.543,44.434,32.715,-3.418,51.758,0
1555615750.079,34.668,36.621,27.344,3.418,25.879,0
1555615750.083,-35.156,25.879,33.203,18.555,1.465,0
1555615750.087,0.000,33.203,36.621,5.371,32.715,0
1555615750.091,73.242,37.109,29.785,6.348,44.434,0
1555615750.094,59.570,33.203,30.273,14.160,-4.883,0
1555615750.098,-30.762,40.527,36.621,15.625,-8.301,0
1555615750.102,-11.230,35.156,28.320,25.879,40.039,0
1555615750.106,62.012,14.160,24.902,27.832,47.363,0
1555615750.110,67.871,19.531,28.320,9.766,23.438,0
1555615750.112,-7.324,30.762,38.574,0.488,17.090,0
1555615750.116,-40.527,25.391,44.922,18.555,-10.254,0
1555615750.120,51.758,31.250,41.016,18.555,-31.738,0
1555615750.124,93.750,29.297,41.016,24.902,-4.395,0
1555615750.128,36.621,20.020,39.062,20.020,9.277,0
1555615750.132,-30.273,25.879,34.668,-5.371,16.113,0
1555615750.136,-12.207,31.250,34.180,-6.836,38.086,0
1555615750.139,42.480,25.879,33.203,14.648,37.109,0
1555615750.143,22.949,33.203,24.414,20.508,11.230,0
1555615750.147,-35.156,39.062,27.832,-10.254,0.488,0
1555615750.151,7.812,23.926,29.297,-11.230,22.461,0
1555615750.155,80.078,23.438,16.602,36.621,25.391,0
1555615750.157,51.270,40.527,22.461,32.715,78.125,0
1555615750.161,-37.598,42.969,36.133,12.207,33.691,0
1555615750.165,-46.875,31.738,31.250,4.395,3.906,0
1555615750.169,23.926,21.484,24.414,6.836,91.797,0
1555615750.173,68.848,27.344,29.785,14.160,89.355,0
1555615750.177,-24.414,25.879,32.227,19.531,20.996,0
1555615750.181,-48.828,12.207,31.250,-4.395,13.184,0
1555615750.184,49.805,17.578,37.598,-30.762,75.684,0
1555615750.188,75.684,22.461,41.016,-1.953,56.641,0
1555615750.192,28.320,30.762,38.086,24.902,12.207,0
1555615750.196,-32.715,36.133,31.250,16.602,30.273,0
1555615750.200,7.812,24.414,28.809,17.090,59.570,0
1555615750.217,86.914,22.949,31.738,18.555,35.156,0
1555615750.221,46.387,34.668,24.414,12.695,53.711,0
1555615750.225,-36.133,37.598,25.879,6.348,102.539,0
1555615750.229,0.977,18.066,25.391,22.461,70.312,0
1555615750.233,66.406,15.137,24.902,36.133,21.973,0
1555615750.237,42.969,24.902,23.438,18.555,62.988,0
1555615750.241,-21.484,25.391,27.344,7.812,67.871,0
1555615750.244,-6.836,28.809,33.691,8.301,-0.488,0
1555615750.248,55.176,32.227,30.762,14.160,-18.066,0
1555615750.252,63.965,27.344,32.715,37.109,-41.504,0
1555615750.256,13.672,28.320,33.691,27.832,2.441,0
1555615750.260,-24.902,25.391,34.668,11.719,27.344,0
1555615750.262,44.434,23.926,32.227,34.668,16.113,0
1555615750.266,99.609,25.391,34.668,38.086,45.410,0
1555615750.270,49.316,28.809,36.621,32.227,75.684,0
1555615750.274,-33.691,27.832,29.297,9.277,43.457,0
1555615750.278,-6.348,14.648,33.203,21.973,23.438,0
1555615750.282,109.375,20.508,37.598,62.500,42.480,0
1555615750.286,92.285,35.645,27.832,49.316,55.664,0
1555615750.289,12.207,35.156,21.973,52.734,55.664,0
1555615750.293,52.734,23.926,26.855,103.516,32.715,0
1555615750.297,139.160,21.973,28.809,62.012,41.504,0
1555615750.301,145.508,27.344,27.832,33.203,10.254,0
1555615750.305,62.988,23.926,33.691,107.910,19.043,0
1555615750.308,40.039,19.531,36.133,127.441,39.551,0
1555615750.312,124.023,17.578,33.203,111.816,9.766,0
1555615750.316,163.086,20.020,29.297,104.492,41.016,0
1555615750.320,91.797,20.020,30.273,106.934,56.641,0
1555615750.324,38.086,18.555,29.785,103.027,-4.883,0
1555615750.328,90.820,17.578,26.855,93.262,3.418,0
1555615750.332,141.602,14.648,32.227,83.496,27.832,0
1555615750.335,96.191,7.324,34.180,84.473,18.555,0
1555615750.339,45.898,-0.977,31.738,73.242,11.719,0
1555615750.343,61.035,4.395,34.668,49.316,40.527,0
1555615750.347,124.512,13.184,30.762,58.105,37.598,0
1555615750.351,119.629,11.230,27.832,63.477,9.766,0
1555615750.352,31.738,13.184,25.879,46.875,39.551,0
1555615750.356,19.531,24.414,27.344,58.594,28.320,0
1555615750.360,96.680,30.273,25.391,58.105,7.324,0
1555615750.364,100.586,31.738,27.344,55.664,23.438,0
1555615750.368,20.508,25.879,34.180,41.992,39.062,0
1555615750.372,-6.836,17.578,27.344,40.039,48.340,0
1555615750.376,67.383,16.113,21.973,45.410,61.523,0
1555615750.379,112.305,9.277,29.297,55.176,26.367,0
1555615750.383,38.086,15.137,37.109,54.688,-25.879,0
1555615750.387,-18.555,23.926,39.062,48.828,-8.301,0
1555615750.391,34.668,20.020,29.785,34.668,18.555,0
1555615750.395,92.285,18.555,27.344,17.578,25.391,0
1555615750.397,64.453,15.137,29.297,26.855,14.648,0
1555615750.401,7.324,1.953,30.273,28.809,29.297,0
1555615750.405,29.297,13.672,35.156,27.344,53.223,0
1555615750.409,85.449,22.461,31.250,5.371,67.383,0
1555615750.413,59.082,12.207,28.809,25.391,68.848,0
1555615750.417,-29.785,12.695,28.809,52.734,35.645,0
1555615750.421,-21.484,19.531,30.273,32.227,40.039,0
1555615750.424,70.312,15.137,32.227,27.344,50.781,0
1555615750.428,62.012,5.859,32.715,23.438,5.859,0
1555615750.432,-4.395,14.160,34.180,33.691,13.184,0
1555615750.436,-28.320,23.438,34.668,26.367,31.738,0
1555615750.440,13.184,20.020,34.668,15.625,17.578,0
1555615750.442,70.801,20.020,37.598,18.555,22.461,0
1555615750.446,19.531,20.508,34.180,14.648,-4.395,0
1555615750.450,-43.457,23.438,31.250,1.465,-33.203,0
1555615750.454,6.348,20.020,30.762,-7.812,48.340,0
1555615750.458,62.988,10.254,30.762,2.441,41.016,0
1555615750.462,40.039,15.137,28.809,10.254,4.395,0
1555615750.466,-15.625,17.578,29.785,4.883,70.312,0
1555615750.469,-17.090,13.672,33.691,-1.953,26.367,0
1555615750.473,73.242,17.578,31.738,11.719,2.930,0
1555615750.477,73.242,20.020,36.621,32.715,17.578,0
1555615750.481,-41.992,22.461,31.738,9.766,5.371,0
1555615750.485,-43.457,19.531,26.855,0.000,45.898,0
1555615750.487,41.992,7.324,34.668,20.508,60.547,0
1555615750.491,58.594,8.789,29.297,13.672,49.805,0
1555615750.495,-27.344,16.113,31.738,25.879,42.969,0
1555615750.499,-42.969,27.832,36.621,49.316,30.273,0
1555615750.503,32.715,40.527,36.621,-4.395,-1.465,0
1555615750.507,60.547,39.551,35.645,-26.855,-37.109,0
1555615750.511,-6.348,32.715,34.668,0.000,-1.465,0
1555615750.514,-88.867,28.809,31.250,-17.090,-6.348,0
1555615750.518,-57.129,27.832,27.832,-37.598,-66.895,0
1555615750.522,14.648,22.949,29.785,-42.480,-20.996,0
1555615750.526,-9.766,14.648,21.973,-26.367,81.055,0
1555615750.530,-77.148,14.160,20.996,-45.410,52.734,0
1555615750.532,-50.293,25.879,26.855,-41.992,-14.648,0
1555615750.536,16.113,27.344,31.738,-18.555,-10.254,0
1555615750.540,15.625,22.949,24.414,-18.066,-17.090,0
1555615750.544,-50.293,24.414,12.207,-16.602,28.809,0
1555615750.548,-58.105,24.414,20.996,-26.367,48.828,0
1555615750.552,20.996,22.461,31.250,-18.555,10.742,0
1555615750.556,60.547,18.555,29.785,-49.805,34.180,0
1555615750.559,2.441,20.020,17.090,-59.082,64.453,0
1555615750.563,-76.172,36.621,16.602,-15.137,80.566,0
1555615750.567,-32.715,42.480,24.902,-4.883,77.148,0
1555615750.571,60.059,24.902,38.086,6.348,71.289,0
1555615750.575,45.410,38.086,36.621,-5.859,61.523,0
1555615750.577,-50.781,38.086,34.180,-15.625,36.133,0
1555615750.581,-21.973,3.906,35.645,-11.230,25.391,0
1555615750.585,74.707,8.789,34.180,5.371,15.625,0
1555615750.589,39.062,21.973,35.156,11.230,9.277,0
1555615750.593,-32.715,29.785,28.809,9.766,16.113,0
1555615750.597,-23.926,30.762,27.832,5.859,24.902,0
1555615750.601,34.668,26.367,29.785,-1.465,15.625,0
1555615750.604,54.688,28.809,27.344,-4.395,19.531,0
1555615750.608,-9.277,23.926,28.809,-10.254,26.855,0
1555615750.612,-39.551,19.531,39.062,3.418,-1.465,0
1555615750.616,43.945,5.371,41.016,16.113,-7.812,0
1555615750.620,81.055,7.324,28.809,-1.465,1.953,0
1555615750.637,13.184,22.949,20.508,0.977,6.836,0
1555615750.641,-43.945,33.691,23.438,8.301,-23.926,0
1555615750.645,0.488,37.598,37.109,3.906,10.742,0
1555615750.649,65.430,29.785,47.363,9.766,37.109,0
1555615750.653,47.363,26.855,40.527,21.484,-30.273,0
1555615750.657,-32.715,24.414,36.621,6.836,16.602,0
1555615750.661,-13.672,27.344,46.387,0.977,46.387,0
1555615750.664,78.125,37.109,38.574,25.879,-26.367,0
1555615750.668,54.199,30.762,41.016,14.648,5.371,0
1555615750.672,-30.762,33.691,42.480,-9.766,35.645,0
1555615750.676,-24.902,32.227,38.574,-3.906,12.207,0
1555615750.680,41.504,18.555,43.945,18.066,24.414,0
1555615750.682,59.082,18.555,36.621,26.367,36.133,0
1555615750.686,-0.488,20.996,37.109,10.742,53.223,0
1555615750.690,-63.477,20.508,42.969,-11.230,59.082,0
1555615750.694,20.020,20.508,31.738,18.066,55.664,0
1555615750.698,109.863,18.066,26.855,54.688,23.438,0
1555615750.702,18.555,20.508,47.852,28.320,14.648,0
1555615750.706,-77.148,16.113,56.152,-6.348,11.230,0
1555615750.709,-44.922,5.859,55.176,-28.809,36.133,0
1555615750.713,13.672,1.953,55.664,-54.199,6.836,0
1555615750.717,-3.418,-11.719,50.781,-39.062,12.207,0
1555615750.721,-79.102,-15.625,53.711,-11.230,54.199,0
1555615750.725,-63.965,-10.254,56.641,-24.902,43.457,0
1555615750.727,5.859,-4.883,56.641,-26.367,57.129,0
1555615750.731,-2.930,0.000,52.246,-38.086,60.059,0
1555615750.735,-58.594,0.000,50.781,-26.855,44.922,0
1555615750.739,-78.125,3.906,48.828,-1.953,61.523,0
1555615750.743,10.254,7.812,41.016,-9.766,47.363,0
1555615750.747,52.246,10.742,48.828,-3.418,-11.719,0
1555615750.751,-27.344,4.395,51.758,-21.973,20.020,0
1555615750.754,-81.543,1.953,47.852,-21.973,76.172,0
1555615750.758,-40.527,21.484,60.059,-15.137,35.645,0
1555615750.762,26.367,26.855,63.477,-27.344,18.066,0
1555615750.766,14.160,11.230,58.594,-9.277,53.711,0
1555615750.770,-47.852,0.488,59.082,16.113,37.109,0
1555615750.772,-22.949,-3.418,50.293,3.906,-21.973,0
1555615750.776,46.387,7.324,42.969,-32.715,-7.324,0
1555615750.780,24.902,16.113,48.828,-7.812,28.809,0
1555615750.784,-52.734,19.043,49.805,1.953,42.969,0
1555615750.788,-52.246,29.785,46.387,-16.602,13.672,0
1555615750.792,34.668,25.391,52.246,-16.602,12.207,0
1555615750.796,46.875,19.531,44.434,-5.371,78.125,0
1555615750.799,-25.391,14.648,24.414,12.695,50.293,0
1555615750.803,-49.316,12.695,29.785,6.836,45.410,0
1555615750.807,13.672,23.926,42.480,0.977,43.457,0
1555615750.811,56.152,27.344,43.457,13.672,18.066,0
1555615750.815,-5.859,28.809,42.969,3.418,41.016,0
1555615750.817,-60.547,18.555,47.852,-10.742,5.859,0
1555615750.821,-7.812,15.625,42.480,15.625,-24.902,0
1555615750.825,56.152,31.250,34.668,31.250,19.043,0
1555615750.829,35.645,28.320,37.109,15.625,43.457,0
1555615750.833,-43.457,10.254,36.133,-5.371,47.852,0
1555615750.837,-20.996,19.043,30.273,-12.207,56.152,0
1555615750.841,60.059,38.086,33.203,13.184,33.203,0
1555615750.844,45.410,41.504,37.598,4.395,41.992,0
1555615750.848,-15.625,36.621,35.645,-6.348,49.805,0
1555615750.852,-5.859,22.949,37.598,18.555,26.367,0
1555615750.856,83.984,21.973,35.645,22.461,61.035,0
1555615750.860,91.309,21.484,34.668,23.438,75.195,0
1555615750.862,18.066,22.461,41.504,9.766,80.078,0
1555615750.866,-11.230,41.992,36.621,9.766,82.520,0
1555615750.870,46.387,47.363,30.762,4.395,44.434,0
1555615750.874,79.590,32.715,34.180,-10.254,-4.395,0
1555615750.878,15.137,31.738,39.062,15.625,-16.113,0
1555615750.882,-40.527,38.086,32.715,32.715,16.602,0
1555615750.886,14.160,35.645,36.621,15.137,-3.418,0
1555615750.889,85.449,33.203,45.898,8.789,27.344,0
1555615750.893,33.203,31.738,41.504,22.461,44.922,0
1555615750.897,-46.875,25.391,45.898,7.812,-0.977,0
1555615750.901,-14.160,29.297,46.387,3.418,-26.855,0
1555615750.905,61.523,30.273,38.574,12.207,-11.719,0
1555615750.907,62.988,11.719,42.480,20.020,41.992,0
1555615750.911,6.348,14.160,35.156,16.602,7.324,0
1555615750.915,-28.320,10.742,31.250,4.395,13.672,0
1555615750.919,38.574,5.371,41.504,10.742,66.895,0
1555615750.923,89.844,11.719,41.992,11.230,41.992,0
1555615750.927,-1.465,14.160,46.387,1.953,17.578,0
1555615750.931,-61.035,29.297,47.852,0.000,73.730,0
1555615750.934,20.996,30.762,40.039,14.160,76.172,0
1555615750.938,76.660,22.949,35.645,17.578,12.207,0
1555615750.942,15.625,25.391,34.668,16.602,48.340,0
1555615750.946,-46.875,22.949,40.527,16.113,60.547,0
1555615750.950,4.883,20.020,38.574,6.348,45.898,0
1555615750.967,58.105,19.531,27.832,14.160,18.555,0
1555615750.971,45.410,23.438,32.227,20.508,17.578,0
1555615750.975,-14.648,29.297,49.805,39.551,35.156,0
1555615750.979,-9.766,23.926,53.223,41.016,20.020,0
1555615750.983,63.965,11.230,50.293,21.484,9.766,0
1555615750.987,54.688,8.301,41.992,-9.766,19.043,0
1555615750.991,-25.391,27.344,33.691,6.348,51.758,0
1555615750.994,-36.133,33.203,35.645,36.133,56.152,0
1555615750.998,35.156,19.531,32.715,27.832,-10.254,0
1555615751.002,84.473,14.648,41.016,32.227,-19.531,0
1555615751.006,20.020,5.371,34.180,23.926,22.461,0
1555615751.010,-27.832,9.277,20.020,15.137,-12.207,0
1555615751.012,56.641,19.043,22.461,10.742,-1.465,0
1555615751.016,86.426,24.902,19.531,19.043,29.297,0
1555615751.020,29.785,23.438,19.531,12.207,31.250,0
1555615751.024,-26.367,23.926,32.227,25.879,14.160,0
1555615751.028,-4.395,33.691,42.969,32.227,5.371,0
1555615751.032,70.801,39.551,41.992,-16.113,9.277,0
1555615751.036,54.199,42.969,26.367,-12.207,-15.137,0
1555615751.039,-35.156,32.227,29.297,25.879,-34.180,0
1555615751.043,-29.785,21.973,40.039,21.973,-26.367,0
1555615751.047,73.730,25.391,30.273,26.855,-5.859,0
1555615751.051,76.660,27.832,36.133,15.137,-7.812,0
1555615751.055,-2.930,21.973,43.457,11.719,51.758,0
1555615751.057,-24.414,15.625,44.434,11.719,108.398,0
1555615751.061,29.297,26.855,42.969,1.465,65.918,0
1555615751.065,77.148,36.133,35.156,12.695,27.344,0
1555615751.069,25.391,20.996,28.320,14.160,69.824,0
1555615751.073,-44.434,13.672,24.902,4.395,110.840,0
1555615751.077,21.484,28.809,31.250,24.902,35.645,0
1555615751.081,86.426,22.949,41.992,35.645,11.230,0
1555615751.084,55.176,20.996,42.969,22.949,33.691,0
1555615751.088,-20.996,29.785,41.992,19.043,-6.836,0
1555615751.092,-6.348,22.461,39.062,19.043,-20.020,0
1555615751.096,97.656,13.672,28.320,20.508,6.836,0
1555615751.100,71.289,24.902,30.273,24.414,15.625,0
1555615751.102,-14.160,27.832,35.645,32.715,7.324,0
1555615751.106,-26.367,27.344,35.645,6.836,10.254,0
1555615751.110,45.410,33.691,36.133,12.695,23.438,0
1555615751.114,88.867,35.156,25.879,59.570,52.246,0
1555615751.118,-4.883,24.902,27.832,27.832,42.480,0
1555615751.122,-40.527,17.090,27.344,5.859,4.395,0
1555615751.126,41.016,14.160,34.180,59.570,-32.227,0
1555615751.129,93.750,22.461,47.363,53.223,-20.996,0
1555615751.133,37.598,24.414,38.574,-2.930,41.992,0
1555615751.137,-24.902,12.695,41.992,24.902,84.961,0
1555615751.141,24.414,18.066,44.922,46.875,49.805,0
1555615751.145,87.891,23.926,34.180,31.738,41.992,0
1555615751.147,68.359,14.648,32.227,21.484,-1.465,0
1555615751.151,-18.555,23.438,32.227,13.184,15.137,0
1555615751.155,-23.926,34.180,28.320,14.160,83.496,0
1555615751.159,65.918,31.250,37.598,7.812,18.066,0
1555615751.163,71.777,20.996,44.434,26.855,-27.344,0
1555615751.167,-3.418,22.949,41.504,21.973,-0.977,0
1555615751.171,-6.348,33.203,46.387,9.277,39.062,0
1555615751.174,52.246,36.133,44.922,-6.836,61.523,0
1555615751.178,71.289,32.227,38.086,-2.441,34.180,0
1555615751.182,0.977,22.461,42.969,24.902,82.031,0
1555615751.186,-44.922,17.578,53.711,29.297,77.148,0
1555615751.190,48.828,17.090,61.035,50.293,41.504,0
1555615751.207,107.422,29.297,49.316,43.457,77.637,0
1555615751.211,41.016,41.016,40.039,17.090,34.668,0
1555615751.215,-32.715,41.016,40.039,15.625,20.020,0
1555615751.219,14.160,47.852,37.109,13.184,5.371,0
1555615751.223,87.402,59.570,24.902,2.930,-10.742,0
1555615751.227,59.082,57.129,14.160,8.789,9.277,0
1555615751.231,-14.648,48.828,13.672,9.766,-2.930,0
1555615751.234,-0.488,46.875,13.184,-12.695,25.879,0
1555615751.238,84.473,50.781,12.207,-20.996,34.668,0
1555615751.242,83.984,55.664,20.996,0.488,22.949,0
1555615751.246,-7.324,57.129,22.461,7.324,71.777,0
1555615751.250,-66.406,45.898,26.367,5.371,62.012,0
1555615751.237,31.738,48.340,21.973,19.531,63.477,0
1555615751.241,98.633,44.434,20.996,7.324,55.664,0
1555615751.245,2.930,38.086,27.344,21.973,4.883,0
1555615751.249,-31.250,41.016,27.832,26.855,13.672,0
1555615751.253,26.855,33.691,32.715,20.508,22.949,0
1555615751.257,75.195,34.668,30.762,27.832,24.902,0
1555615751.261,53.711,37.598,29.297,15.625,51.270,0
1555615751.264,-39.551,36.621,27.832,3.418,49.316,0
1555615751.268,-5.371,37.598,24.414,10.742,46.387,0
1555615751.272,84.473,33.203,29.297,20.996,26.855,0
1555615751.276,52.246,34.180,29.785,6.836,21.484,0
1555615751.280,-40.039,38.574,35.156,13.672,43.945,0
1555615751.282,-35.645,33.203,40.527,2.930,15.137,0
1555615751.286,46.875,22.949,39.551,13.184,-12.207,0
1555615751.290,66.406,14.648,21.973,27.832,12.207,0
1555615751.294,9.766,19.043,17.090,20.996,22.949,0
1555615751.298,-23.926,31.250,34.668,18.066,1.953,0
1555615751.302,42.480,35.645,33.691,29.297,10.742,0
1555615751.306,88.379,35.156,30.273,37.598,62.988,0
1555615751.309,16.602,34.180,39.062,28.809,60.547,0
1555615751.313,-36.133,38.574,31.250,23.926,68.848,0
1555615751.317,39.551,25.879,34.180,28.809,100.098,0
1555615751.321,104.004,21.973,40.039,15.137,41.016,0
1555615751.325,67.383,38.086,35.156,8.301,4.395,0
1555615751.342,-11.230,38.086,37.109,27.344,17.578,0
1555615751.346,-1.953,30.762,32.715,29.785,32.227,0
1555615751.350,69.336,29.297,31.738,30.762,19.531,0
1555615751.354,48.340,26.367,41.504,42.480,39.062,0
1555615751.358,-24.414,21.973,42.969,37.109,55.664,0
1555615751.362,-29.785,14.160,36.621,8.301,-21.484,0
1555615751.366,43.945,3.418,29.785,13.184,9.277,0
1555615751.369,84.473,10.742,29.297,35.156,60.547,0
1555615751.373,-8.301,22.949,42.969,31.738,20.508,0
1555615751.377,-43.457,24.414,43.945,19.531,40.527,0
1555615751.381,53.223,21.973,37.598,20.508,0.000,0
1555615751.385,86.914,24.414,35.156,21.973,-34.180,0
1555615751.387,23.926,26.367,41.504,16.113,32.227,0
1555615751.391,-19.531,26.367,48.340,22.461,31.738,0
1555615751.395,31.738,28.320,44.922,24.902,48.340,0
1555615751.399,89.844,20.020,42.480,25.879,45.410,0
1555615751.403,60.547,24.902,40.527,28.320,6.348,0
1555615751.407,-32.715,27.832,35.156,18.555,3.418,0
1555615751.411,-15.625,22.949,25.879,8.789,-12.207,0
1555615751.414,83.008,26.367,34.668,18.555,-2.930,0
1555615751.418,70.801,22.461,41.016,32.715,24.902,0
1555615751.422,-4.395,16.602,40.039,12.695,5.371,0
1555615751.426,-5.859,25.879,46.875,11.719,-0.488,0
1555615751.430,58.594,28.809,41.504,41.016,0.488,0
1555615751.447,85.449,22.949,33.203,20.020,27.344,0
1555615751.451,30.273,26.855,34.180,-7.812,46.875,0
1555615751.455,-20.508,23.926,37.109,0.977,43.945,0
1555615751.459,37.598,18.066,34.180,18.555,45.898,0
1555615751.463,84.961,25.391,34.668,37.109,15.625,0
1555615751.467,45.898,33.691,41.016,41.992,18.555,0
1555615751.471,-10.254,31.250,43.945,37.598,-0.488,0
1555615751.474,13.672,27.832,39.062,28.320,27.832,0
1555615751.478,103.516,32.227,35.156,12.695,56.152,0
1555615751.482,84.961,30.273,38.574,15.137,8.789,0
1555615751.486,3.418,27.344,40.039,34.668,6.836,0
1555615751.490,5.859,32.227,37.598,40.527,31.250,0
1555615751.477,76.172,33.691,35.156,32.227,76.172,0
1555615751.481,91.309,34.180,29.297,14.160,95.703,0
1555615751.485,-2.930,31.250,31.738,31.738,26.855,0
1555615751.489,-27.832,30.273,27.344,38.574,-25.391,0
1555615751.493,56.152,32.227,26.367,26.367,15.137,0
1555615751.497,101.074,33.691,36.621,33.203,16.602,0
1555615751.501,47.363,38.574,40.039,30.762,33.203,0
1555615751.504,-1.953,47.852,37.109,22.949,34.180,0
1555615751.508,67.383,51.270,20.996,18.555,4.883,0
1555615751.512,122.070,38.086,19.043,31.738,7.324,0
1555615751.516,76.172,30.762,44.434,36.621,21.484,0
1555615751.520,-14.160,24.902,61.035,25.879,25.879,0
1555615751.522,-15.137,20.508,65.430,27.344,5.371,0
1555615751.526,51.270,15.625,69.824,22.949,-18.555,0
1555615751.530,23.926,9.277,73.730,17.578,10.742,0
1555615751.534,-64.941,7.812,77.148,21.973,81.543,0
1555615751.538,-53.711,4.395,80.078,13.672,52.246,0
1555615751.542,36.621,1.465,77.637,10.254,-7.324,0
1555615751.546,39.062,1.953,71.289,1.465,26.367,0
1555615751.549,-28.320,0.488,72.754,3.906,18.066,0
1555615751.553,-33.203,1.953,71.289,20.996,-20.020,0
1555615751.557,30.762,12.695,66.895,27.344,35.156,0
1555615751.561,77.148,14.160,67.383,-1.953,48.828,0
1555615751.565,24.902,8.301,66.406,4.883,20.996,0
1555615751.567,-45.898,13.672,63.477,23.438,14.648,0
1555615751.571,5.859,19.531,60.547,18.066,54.688,0
1555615751.575,79.590,16.113,57.617,23.438,36.133,0
1555615751.579,33.203,10.254,56.152,26.855,35.156,0
1555615751.583,-55.176,15.625,49.805,19.531,49.316,0
1555615751.587,-26.367,16.113,53.711,17.578,6.836,0
1555615751.591,65.430,17.090,61.035,26.367,29.785,0
1555615751.594,64.941,20.508,61.035,26.855,43.457,0
1555615751.598,-9.766,14.648,62.012,12.695,37.598,0
1555615751.602,-25.391,16.602,62.988,9.277,-3.906,0
1555615751.606,48.340,27.832,62.012,22.461,35.156,0
1555615751.610,78.613,26.367,63.477,30.273,92.773,0
1555615751.612,7.324,16.602,63.477,27.344,56.152,0
1555615751.616,-53.711,22.461,56.641,-17.090,31.738,0
1555615751.620,10.742,25.879,54.199,-2.441,-1.465,0
1555615751.624,94.727,21.484,49.805,49.316,-9.277,0
1555615751.628,49.805,23.926,46.387,33.203,6.348,0
1555615751.632,-33.691,25.879,43.945,15.625,-48.828,0
1555615751.636,12.695,27.832,45.410,10.742,2.930,0
1555615751.639,91.797,30.762,53.711,24.414,55.176,0
1555615751.643,60.059,23.438,54.688,36.621,49.805,0
1555615751.647,-21.484,11.230,53.711,39.062,63.477,0
1555615751.651,-12.695,19.043,51.758,31.738,33.691,0
1555615751.655,52.246,36.621,46.387,13.184,-0.977,0
1555615751.657,62.500,30.273,50.781,-2.441,0.977,0
1555615751.661,4.395,17.090,51.758,35.645,8.789,0
1555615751.665,-15.625,20.508,40.527,41.016,13.672,0
1555615751.669,63.965,26.367,39.551,37.598,39.062,0
1555615751.673,99.609,28.320,46.875,42.969,-5.859,0
1555615751.677,32.715,26.855,47.363,28.809,-5.371,0
1555615751.681,-10.742,25.391,45.898,23.926,34.668,0
1555615751.684,47.852,30.273,40.039,12.695,45.410,0
1555615751.688,84.473,37.109,38.086,22.461,76.172,0
1555615751.692,32.227,33.203,41.016,33.691,68.359,0
1555615751.696,-31.738,32.227,36.621,31.738,14.648,0
1555615751.700,2.930,31.250,33.691,33.203,22.949,0
1555615751.702,83.496,24.902,33.691,32.715,33.691,0
1555615751.706,64.941,24.414,42.969,27.832,26.855,0
1555615751.710,-7.324,22.949,43.457,3.906,62.500,0
1555615751.714,7.324,26.855,31.738,7.324,37.598,0
1555615751.718,89.844,22.461,38.574,25.879,7.812,0
1555615751.722,83.984,17.578,43.945,25.391,25.391,0
1555615751.726,-31.250,29.297,41.504,15.625,15.137,0
1555615751.729,-46.387,36.133,40.039,19.531,-7.324,0
1555615751.733,55.664,32.715,40.527,30.273,12.695,0
1555615751.737,80.078,24.902,41.016,26.855,13.672,0
1555615751.741,5.859,27.344,40.527,10.742,58.105,0
1555615751.745,-47.363,28.809,41.016,16.113,90.820,0
1555615751.762,11.230,18.555,38.086,16.602,15.625,0
1555615751.766,82.520,18.555,40.527,5.859,9.766,0
1555615751.770,41.992,25.879,39.551,20.996,-14.648,0
1555615751.774,-34.668,21.973,36.133,22.461,-28.809,0
1555615751.778,-8.789,22.461,41.016,29.785,38.574,0
1555615751.782,72.754,30.273,40.039,28.809,30.273,0
1555615751.786,52.734,23.438,41.504,17.578,7.812,0
1555615751.789,-27.832,20.020,43.945,22.461,40.039,0
1555615751.793,-12.207,28.320,34.180,21.484,-4.395,0
1555615751.797,68.359,28.320,27.832,14.160,25.879,0
1555615751.801,86.426,20.508,36.133,15.137,58.105,0
1555615751.805,9.277,24.414,40.039,25.879,31.738,0
1555615751.807,-28.809,32.715,34.180,20.020,86.426,0
1555615751.811,36.621,26.367,35.156,17.090,89.844,0
1555615751.815,74.219,17.578,38.574,21.484,24.902,0
1555615751.819,20.996,18.066,40.527,15.625,-25.391,0
1555615751.823,-36.621,20.508,43.457,27.344,-2.441,0
1555615751.827,20.996,29.297,41.504,30.273,12.695,0
1555615751.831,73.242,41.504,34.668,39.551,32.715,0
1555615751.834,30.273,42.480,34.668,39.551,19.531,0
1555615751.838,-22.461,31.738,34.668,18.555,23.438,0
1555615751.842,2.930,21.973,42.969,9.766,31.738,0
1555615751.846,81.543,28.320,47.363,27.344,11.719,0
1555615751.850,71.289,38.574,42.480,12.207,29.297,0
1555615751.852,-15.137,42.480,44.922,-15.625,5.371,0
1555615751.856,-31.250,40.039,41.504,0.000,0.488,0
1555615751.860,48.340,37.598,32.715,18.066,64.941,0
1555615751.864,84.473,28.809,28.320,43.945,49.805,0
1555615751.868,16.113,20.508,23.926,41.992,-19.043,0
1555615751.872,-26.855,21.973,33.203,28.320,8.789,0
1555615751.876,48.340,28.320,44.922,26.367,26.367,0
1555615751.879,101.562,26.367,34.668,27.344,-3.418,0
1555615751.883,38.574,22.461,23.438,24.414,13.184,0
1555615751.887,-43.945,29.297,31.738,27.832,43.457,0
1555615751.891,-0.488,40.527,43.945,28.809,27.344,0
1555615751.895,85.449,37.598,48.340,30.762,35.156,0
1555615751.896,59.570,29.297,41.016,30.762,41.992,0
1555615751.900,-16.602,38.574,32.715,29.297,23.926,0
1555615751.904,-17.578,40.527,36.133,22.461,19.531,0
1555615751.908,62.988,28.809,38.086,23.926,78.125,0
1555615751.912,76.172,28.809,30.273,29.785,33.203,0
1555615751.916,-12.695,33.203,26.855,25.391,-32.227,0
1555615751.920,-27.344,36.621,31.250,29.785,41.504,0
1555615751.923,59.570,40.527,31.250,27.344,35.645,0
1555615751.927,82.520,28.320,26.855,10.742,17.090,0
1555615751.931,0.977,24.902,24.902,10.742,46.387,0
1555615751.935,-41.504,38.086,28.320,6.836,34.180,0
1555615751.939,31.250,32.227,31.738,8.789,39.551,0
1555615751.942,95.215,29.297,30.762,24.902,30.273,0
1555615751.946,50.781,41.504,33.691,25.879,17.090,0
1555615751.950,-22.949,35.645,35.156,12.207,62.500,0
1555615751.954,9.766,27.832,36.621,14.160,33.203,0
1555615751.958,93.262,33.203,36.621,29.785,6.836,0
1555615751.962,78.613,41.016,34.668,35.645,11.230,0
1555615751.966,-4.395,45.898,36.621,37.598,-7.324,0
1555615751.969,-7.812,39.551,28.809,26.855,32.715,0
1555615751.973,66.895,32.715,25.879,31.738,67.871,0
1555615751.977,104.980,22.461,29.297,34.668,62.012,0
1555615751.981,38.574,9.277,25.879,30.762,32.227,0
1555615751.985,-4.883,15.137,25.391,38.574,32.227,0
1555615751.987,58.594,29.297,22.949,32.715,63.965,0
1555615751.991,93.750,30.762,28.320,29.785,46.875,0
1555615751.995,30.273,20.020,42.480,46.875,74.219,0
1555615751.999,-31.738,16.602,35.645,28.320,53.223,0
1555615752.003,23.438,15.625,19.043,1.953,-1.953,0
1555615752.007,77.148,7.812,19.043,19.531,26.367,0
1555615752.011,53.223,9.766,26.367,26.367,46.875,0
1555615752.014,-11.230,13.672,25.391,7.812,30.762,0
1555615752.018,5.371,27.344,32.715,8.789,-28.809,0
1555615752.022,79.102,32.715,41.016,20.508,-2.441,0
1555615752.026,62.012,26.855,33.203,17.090,16.113,0
1555615752.030,-18.066,31.738,20.508,21.484,6.348,0
1555615752.032,-24.414,21.484,21.484,10.742,28.320,0
1555615752.036,70.312,6.348,27.832,6.836,43.945,0
1555615752.040,103.027,6.348,28.320,30.273,5.371,0
1555615752.044,22.949,25.391,28.320,23.438,-33.691,0
