timestamps,TP9,AF7,AF8,TP10,Right AUX,Marker0
1581971396.462,27.832,33.691,20.02,9.277,0.0,0
1581971396.466,26.367,24.902,12.695,5.371,0.0,0
1581971396.47,49.316,32.715,21.973000000000006,23.926,0.0,0
1581971396.474,40.527,35.645,28.809,21.484,0.0,0
1581971396.478,18.555,24.414,19.043,8.789,0.0,0
1581971396.482,24.902,13.184,17.09,12.207,0.0,0
1581971396.486,31.738000000000003,32.227,20.02,20.996,0.0,0
1581971396.4889998,32.715,45.898,23.926,26.855,0.0,0
1581971396.4929998,32.715,35.645,34.18,20.02,0.0,0
1581971396.4970002,20.508000000000006,26.855,30.762,7.324,0.0,0
1581971396.5010002,2.441,21.484,21.973000000000006,-1.953,0.0,0
1581971396.505,14.648,35.156,30.273000000000003,-4.395,0.0,0
1581971396.506,11.719,26.855,28.809,-8.301,0.0,0
1581971396.51,4.883,20.02,11.23,-9.277,0.0,0
1581971396.514,11.719,34.18,9.277,-21.484,0.0,0
1581971396.518,-3.418,35.645,21.973000000000006,-24.902,0.0,0
1581971396.522,-6.836,31.25,32.715,-23.926,0.0,0
1581971396.526,9.277,25.879,34.668,-10.254,0.0,0
1581971396.53,27.344,42.969,38.086,14.16,0.0,0
1581971396.533,20.996,46.387,34.668,3.418,0.0,0
1581971396.5370002,28.809,30.762,30.273000000000003,-7.812,0.0,0
1581971396.541,27.344,30.273000000000003,36.621,7.812,0.0,0
1581971396.545,17.578,35.156,41.992,8.789,0.0,0
1581971396.549,8.301,26.855,28.32,-10.254,0.0,0
1581971396.552,-4.883,23.926,15.625,-12.207,0.0,0
1581971396.556,11.23,24.414,18.555,4.883,0.0,0
1581971396.56,18.555,26.367,27.832,2.441,0.0,0
1581971396.564,10.254,26.367,39.551,3.906,0.0,0
1581971396.5679998,10.742,19.531,38.086,0.488,0.0,0
1581971396.572,20.02,23.438,29.785,-3.906,0.0,0
1581971396.576,32.227,30.762,37.598,10.254,0.0,0
1581971396.579,29.297,25.391,37.598,1.953,0.0,0
1581971396.583,20.996,31.738000000000003,21.973000000000006,-15.625,0.0,0
1581971396.587,32.715,33.203,32.227,-4.395,0.0,0
1581971396.591,45.41,29.297,37.109,-0.977,0.0,0
1581971396.595,32.227,32.227,24.414,-9.277,0.0,0
1581971396.597,32.227,33.203,33.691,8.301,0.0,0
1581971396.601,46.387,30.273000000000003,33.691,21.973000000000006,0.0,0
1581971396.605,44.922,28.809,35.645,14.16,0.0,0
1581971396.609,38.086,35.156,46.387,15.137,0.0,0
1581971396.613,11.23,28.32,37.598,16.113,0.0,0
1581971396.617,10.742,20.996,41.01600000000001,10.742,0.0,0
1581971396.621,33.691,25.879,49.316,14.648,0.0,0
1581971396.6239998,39.062,36.621,43.945,15.625,0.0,0
1581971396.6279998,41.01600000000001,38.574,40.527,20.02,0.0,0
1581971396.6320002,21.973000000000006,18.555,30.762,15.137,0.0,0
1581971396.6360002,27.832,14.648,31.25,29.785,0.0,0
1581971396.64,51.758,24.414,39.062,27.832,0.0,0
1581971396.6420002,34.668,26.367,42.48,19.043,0.0,0
1581971396.646,16.113,30.273000000000003,45.41,25.391,0.0,0
1581971396.65,20.508000000000006,23.438,44.922,18.555,0.0,0
1581971396.654,37.109,23.438,44.922,18.066,0.0,0
1581971396.658,25.391,29.785,40.039,27.344,0.0,0
1581971396.6620002,24.414,29.297,33.691,18.555,0.0,0
1581971396.666,39.062,34.668,33.203,8.301,0.0,0
1581971396.669,43.457,48.34,59.082,30.762,0.0,0
1581971396.673,33.203,38.086,59.082,6.348,0.0,0
1581971396.677,9.277,11.719,23.438,-32.715,0.0,0
1581971396.681,5.371,12.695,24.902,-21.973000000000006,0.0,0
1581971396.685,1.465,27.832,37.598,-6.836,0.0,0
1581971396.687,1.465,27.832,34.18,6.348,0.0,0
1581971396.691,14.648,19.531,47.363,6.348,0.0,0
1581971396.695,11.719,18.555,51.27,0.977,0.0,0
1581971396.699,15.137,35.156,49.316,22.461,0.0,0
1581971396.7029998,20.508000000000006,36.133,60.547,32.227,0.0,0
1581971396.707,14.648,16.113,43.945,11.719,0.0,0
1581971396.711,0.488,19.531,33.203,-13.184,0.0,0
1581971396.714,-7.324,24.414,39.062,-14.648,0.0,0
1581971396.718,0.488,23.926,48.828,9.766,0.0,0
1581971396.722,-11.23,28.809,47.852,-16.113,0.0,0
1581971396.726,-1.465,33.691,42.48,-19.043,0.0,0
1581971396.73,12.695,32.715,52.246,5.859,0.0,0
1581971396.7470002,4.395,23.926,54.199,-11.23,0.0,0
1581971396.7510002,-12.695,20.996,52.246,-20.02,0.0,0
1581971396.755,-20.996,29.785,48.828,-19.043,0.0,0
1581971396.7589998,-8.301,31.738000000000003,43.945,-36.133,0.0,0
1581971396.7629998,-7.324,34.668,47.363,-42.969,0.0,0
1581971396.7670002,-31.738000000000003,38.574,49.316,-56.64100000000001,0.0,0
1581971396.771,-40.039,35.156,54.199,-64.941,0.0,0
1581971396.774,-45.41,36.133,59.57,-77.148,0.0,0
1581971396.778,-54.688,45.41,61.523,-84.961,0.0,0
1581971396.782,-75.684,51.758,62.988,-95.215,0.0,0
1581971396.786,-92.285,49.805,46.875,-114.746,0.0,0
1581971396.79,-93.262,49.316,41.992,-121.094,0.0,0
1581971396.792,-115.723,49.316,53.223,-145.02,0.0,0
1581971396.796,-120.605,43.945,51.27,-153.32,0.0,0
1581971396.8,-106.934,34.668,57.129,-125.977,0.0,0
1581971396.804,-110.352,41.504,60.059,-139.648,0.0,0
1581971396.8079998,-124.512,49.316,47.852,-176.27,0.0,0
1581971396.812,-130.371,43.457,53.71100000000001,-173.828,0.0,0
1581971396.816,-150.391,34.18,64.453,-184.57,0.0,0
1581971396.819,-174.805,32.715,65.43,-202.637,0.0,0
1581971396.823,-159.668,46.875,63.965,-190.43,0.0,0
1581971396.827,-152.344,57.129,46.875,-170.41,0.0,0
1581971396.831,-148.92600000000004,61.035,39.062,-166.50400000000005,0.0,0
1581971396.835,-134.766,62.988,48.828,-171.875,0.0,0
1581971396.8379998,-129.88299999999998,44.434,48.828,-149.414,0.0,0
1581971396.842,-123.535,33.203,34.18,-123.047,0.0,0
1581971396.846,-121.094,37.598,36.621,-128.906,0.0,0
1581971396.85,-113.281,45.41,49.316,-141.602,0.0,0
1581971396.854,-103.027,45.898,51.27,-124.023,0.0,0
1581971396.8579998,-83.984,43.945,59.082,-94.727,0.0,0
1581971396.8620002,-72.266,38.574,54.688,-97.168,0.0,0
1581971396.865,-82.031,33.691,45.898,-79.59,0.0,0
1581971396.869,-70.801,34.668,46.875,-53.223,0.0,0
1581971396.873,-51.27,29.785,44.434,-49.316,0.0,0
1581971396.877,-49.316,23.926,31.738000000000003,-51.758,0.0,0
1581971396.881,-43.945,22.461,22.949,-50.78100000000001,0.0,0
1581971396.8820002,-22.949,24.902,22.461,-33.691,0.0,0
1581971396.8860002,-1.465,23.926,23.438,-18.066,0.0,0
1581971396.89,13.184,28.32,20.996,-4.883,0.0,0
1581971396.894,13.672,35.156,14.16,17.578,0.0,0
1581971396.8979998,10.254,33.691,25.391,21.484,0.0,0
1581971396.9020002,19.531,30.762,40.039,0.0,0.0,0
1581971396.906,32.227,30.762,38.574,20.508000000000006,0.0,0
1581971396.909,30.762,19.043,28.32,24.414,0.0,0
1581971396.913,30.273000000000003,20.02,25.879,40.527,0.0,0
1581971396.917,42.969,29.297,21.973000000000006,72.266,0.0,0
1581971396.921,61.523,20.02,18.066,60.059,0.0,0
1581971396.925,78.613,15.137,32.227,53.71100000000001,0.0,0
1581971396.927,75.684,22.949,40.527,63.477,0.0,0
1581971396.931,50.78100000000001,28.809,29.785,55.664,0.0,0
1581971396.935,60.547,18.066,20.996,61.035,0.0,0
1581971396.939,80.078,13.184,21.973000000000006,74.707,0.0,0
1581971396.9429998,70.312,25.391,36.133,77.637,0.0,0
1581971396.947,54.688,28.32,36.133,76.66,0.0,0
1581971396.951,50.293,29.297,32.715,67.87100000000001,0.0,0
1581971396.954,60.059,24.414,36.621,64.453,0.0,0
1581971396.958,76.172,23.926,35.156,74.219,0.0,0
1581971396.962,74.707,24.414,41.992,81.543,0.0,0
1581971396.966,79.59,26.367,45.898,82.52,0.0,0
1581971396.97,75.195,24.902,39.551,72.266,0.0,0
1581971396.972,55.664,12.695,32.227,51.758,0.0,0
1581971396.976,62.5,7.812,28.32,65.43,0.0,0
1581971396.98,70.312,10.742,29.785,86.914,0.0,0
1581971396.984,80.566,6.348,35.156,80.566,0.0,0
1581971396.988,108.887,16.113,37.598,84.473,0.0,0
1581971396.992,117.188,32.715,34.668,82.031,0.0,0
1581971396.996,92.773,28.32,34.668,85.93799999999997,0.0,0
1581971396.9989998,85.449,31.738000000000003,33.691,94.727,0.0,0
1581971397.0029998,92.285,37.598,29.297,76.172,0.0,0
1581971397.0070002,91.797,39.062,31.25,84.961,0.0,0
1581971397.0110002,93.262,27.344,37.109,94.727,0.0,0
1581971397.015,101.074,20.02,40.527,81.055,0.0,0
1581971397.018,103.516,27.344,35.645,84.961,0.0,0
1581971397.022,99.121,26.367,28.809,85.93799999999997,0.0,0
1581971397.026,78.613,20.02,29.297,71.289,0.0,0
1581971397.03,67.87100000000001,19.043,37.598,59.082,0.0,0
1581971397.034,88.867,27.344,38.574,59.57,0.0,0
1581971397.038,92.773,18.555,32.227,71.777,0.0,0
1581971397.042,71.777,19.043,36.133,79.102,0.0,0
1581971397.045,72.75399999999998,37.109,34.18,62.012,0.0,0
1581971397.049,78.613,40.527,26.367,63.965,0.0,0
1581971397.053,60.547,33.203,35.645,64.941,0.0,0
1581971397.0570002,55.176,20.996,43.457,55.664,0.0,0
1581971397.061,67.383,25.879,38.574,44.922,0.0,0
1581971397.062,53.223,35.645,35.645,46.387,0.0,0
1581971397.066,55.176,34.668,39.551,56.152,0.0,0
1581971397.07,63.965,28.32,41.01600000000001,59.082,0.0,0
1581971397.074,58.105,32.715,35.645,70.801,0.0,0
1581971397.0779998,63.965,38.574,35.645,66.895,0.0,0
1581971397.082,57.617,30.762,35.645,48.34,0.0,0
1581971397.086,47.363,22.949,34.18,39.062,0.0,0
1581971397.089,47.852,30.762,38.086,47.852,0.0,0
1581971397.093,53.223,33.691,32.227,57.617,0.0,0
1581971397.097,66.895,21.973000000000006,32.227,40.527,0.0,0
1581971397.101,66.895,20.508000000000006,33.203,30.273000000000003,0.0,0
1581971397.105,43.457,32.227,26.855,31.738000000000003,0.0,0
1581971397.1220002,26.855,36.621,25.391,27.832,0.0,0
1581971397.1260002,33.691,33.203,35.156,31.25,0.0,0
1581971397.13,42.969,32.715,41.504,38.086,0.0,0
1581971397.1339998,41.01600000000001,37.598,41.01600000000001,36.621,0.0,0
1581971397.1379998,48.828,27.344,39.551,30.762,0.0,0
1581971397.1420002,48.828,16.602,34.668,20.508000000000006,0.0,0
1581971397.146,52.734,29.297,34.668,21.973000000000006,0.0,0
1581971397.149,55.664,34.18,40.039,28.32,0.0,0
1581971397.153,58.105,31.738000000000003,48.828,45.41,0.0,0
1581971397.157,61.035,36.133,46.875,54.199,0.0,0
1581971397.161,45.41,38.574,49.316,37.109,0.0,0
1581971397.165,44.434,40.527,53.71100000000001,35.645,0.0,0
1581971397.167,34.18,32.715,42.969,22.461,0.0,0
1581971397.171,38.574,28.32,36.133,16.602,0.0,0
1581971397.175,42.969,33.203,40.039,30.273000000000003,0.0,0
1581971397.179,40.039,30.762,36.621,40.039,0.0,0
1581971397.1829998,44.434,24.902,35.645,31.738000000000003,0.0,0
1581971397.187,42.48,23.926,41.992,31.738000000000003,0.0,0
1581971397.191,51.27,25.391,29.785,38.086,0.0,0
1581971397.194,50.78100000000001,33.203,21.484,41.504,0.0,0
1581971397.198,34.18,33.691,37.598,36.133,0.0,0
1581971397.202,36.621,31.738000000000003,48.34,10.742,0.0,0
1581971397.206,40.039,36.621,48.828,12.207,0.0,0
1581971397.21,38.086,37.598,43.945,21.973000000000006,0.0,0
1581971397.212,41.504,35.645,38.574,9.766,0.0,0
1581971397.216,45.898,30.762,37.109,19.043,0.0,0
1581971397.22,52.246,26.855,41.01600000000001,31.738000000000003,0.0,0
1581971397.224,53.71100000000001,33.691,35.156,26.367,0.0,0
1581971397.228,49.805,38.574,31.738000000000003,14.16,0.0,0
1581971397.232,48.34,23.926,44.922,14.16,0.0,0
1581971397.236,35.645,18.066,51.27,33.691,0.0,0
1581971397.2389998,31.738000000000003,26.367,51.758,37.598,0.0,0
1581971397.2429998,39.062,24.414,49.316,32.715,0.0,0
1581971397.2470002,30.762,32.227,39.551,31.25,0.0,0
1581971397.2510002,20.02,45.898,37.598,25.879,0.0,0
1581971397.255,22.949,44.434,46.387,27.832,0.0,0
1581971397.2570002,24.414,28.809,44.434,28.809,0.0,0
1581971397.2610002,23.438,23.438,39.551,31.738000000000003,0.0,0
1581971397.265,32.715,24.414,42.969,27.832,0.0,0
1581971397.269,38.086,25.391,45.41,26.367,0.0,0
1581971397.2729998,34.668,25.391,41.01600000000001,19.531,0.0,0
1581971397.2770002,28.32,25.879,40.527,22.949,0.0,0
1581971397.281,30.762,23.438,35.156,36.133,0.0,0
1581971397.284,38.574,25.879,23.438,37.109,0.0,0
1581971397.288,56.152,30.273000000000003,34.668,39.062,0.0,0
1581971397.292,47.363,26.367,41.504,34.18,0.0,0
1581971397.296,25.879,22.949,33.203,23.438,0.0,0
1581971397.3,30.762,18.066,38.574,20.996,0.0,0
1581971397.302,33.203,20.02,41.01600000000001,27.344,0.0,0
1581971397.306,26.855,23.926,37.109,27.832,0.0,0
1581971397.31,24.902,35.645,31.25,25.879,0.0,0
1581971397.314,14.16,41.504,34.668,35.156,0.0,0
1581971397.3179998,19.531,35.645,33.203,33.203,0.0,0
1581971397.322,34.18,29.785,23.926,15.137,0.0,0
1581971397.326,32.227,31.738000000000003,26.855,28.809,0.0,0
1581971397.329,43.457,34.668,23.438,48.828,0.0,0
1581971397.333,44.434,23.438,24.902,43.945,0.0,0
1581971397.337,33.691,21.973000000000006,39.062,46.387,0.0,0
1581971397.341,26.855,21.973000000000006,42.969,42.969,0.0,0
1581971397.345,13.672,16.113,39.551,20.508000000000006,0.0,0
1581971397.347,28.32,23.926,32.715,26.855,0.0,0
1581971397.351,53.71100000000001,23.438,35.156,50.293,0.0,0
1581971397.355,35.645,20.996,38.086,37.598,0.0,0
1581971397.359,19.531,35.156,31.738000000000003,28.809,0.0,0
1581971397.363,21.484,27.832,23.438,16.113,0.0,0
1581971397.367,18.555,23.926,34.18,20.996,0.0,0
1581971397.371,8.301,20.508000000000006,37.598,24.414,0.0,0
1581971397.3739998,4.395,16.113,26.855,20.02,0.0,0
1581971397.3779998,17.09,25.879,25.391,43.457,0.0,0
1581971397.3820002,29.785,27.832,28.32,45.898,0.0,0
1581971397.3860002,29.785,22.461,25.391,35.156,0.0,0
1581971397.39,23.438,11.23,30.273000000000003,23.926,0.0,0
1581971397.3920002,31.25,24.902,41.01600000000001,19.531,0.0,0
1581971397.396,33.691,27.344,40.527,13.184,0.0,0
1581971397.4,19.043,13.184,34.668,3.418,0.0,0
1581971397.404,16.602,10.742,36.133,9.277,0.0,0
1581971397.408,25.879,2.441,29.785,15.137,0.0,0
1581971397.4120002,20.508000000000006,13.184,19.531,16.113,0.0,0
1581971397.416,18.066,33.203,25.391,18.555,0.0,0
1581971397.419,33.203,32.227,35.156,15.625,0.0,0
1581971397.423,33.691,28.809,39.062,20.996,0.0,0
1581971397.427,21.973000000000006,38.574,44.922,24.414,0.0,0
1581971397.431,20.508000000000006,41.992,42.48,16.602,0.0,0
1581971397.435,20.996,35.645,37.598,8.789,0.0,0
1581971397.437,17.09,29.785,41.992,12.207,0.0,0
1581971397.441,18.066,37.109,43.457,17.578,0.0,0
1581971397.445,23.926,39.551,41.504,25.879,0.0,0
1581971397.449,23.438,35.645,35.156,24.902,0.0,0
1581971397.4529998,8.789,30.762,32.715,25.391,0.0,0
1581971397.457,25.391,20.996,44.922,26.367,0.0,0
1581971397.461,36.621,29.297,51.758,20.02,0.0,0
1581971397.464,14.648,26.367,37.598,13.672,0.0,0
1581971397.468,6.348,20.996,32.715,7.324,0.0,0
1581971397.472,14.16,33.691,39.062,6.836,0.0,0
1581971397.476,15.137,31.25,34.18,7.812,0.0,0
1581971397.48,14.16,35.156,35.156,16.602,0.0,0
1581971397.4970002,22.461,38.574,27.832,13.672,0.0,0
1581971397.5010002,14.648,31.738000000000003,26.855,-0.977,0.0,0
1581971397.505,11.23,34.668,40.527,0.0,0.0,0
1581971397.5089998,20.02,30.273000000000003,33.203,9.277,0.0,0
1581971397.5129998,15.625,32.227,18.066,11.719,0.0,0
1581971397.5170002,12.207,40.039,22.949,14.648,0.0,0
1581971397.521,17.09,33.203,19.531,8.301,0.0,0
1581971397.524,24.414,31.25,22.461,11.719,0.0,0
1581971397.528,14.648,34.18,33.691,21.973000000000006,0.0,0
1581971397.532,5.859,38.574,32.227,5.371,0.0,0
1581971397.536,13.184,30.273000000000003,29.785,-1.465,0.0,0
1581971397.54,20.02,18.555,36.133,2.93,0.0,0
1581971397.542,20.02,25.879,43.457,-1.953,0.0,0
1581971397.546,22.949,34.18,46.875,9.277,0.0,0
1581971397.55,25.391,25.879,43.457,3.906,0.0,0
1581971397.554,15.137,21.484,42.969,-2.441,0.0,0
1581971397.5579998,0.488,28.32,34.668,9.277,0.0,0
1581971397.562,13.672,35.645,24.414,17.578,0.0,0
1581971397.566,19.043,34.18,32.227,24.414,0.0,2
1581971397.569,1.953,25.879,23.926,7.324,0.0,0
1581971397.573,1.465,20.508000000000006,24.414,-7.324,0.0,0
1581971397.577,14.648,27.344,38.574,0.488,0.0,0
1581971397.581,17.578,31.25,27.832,13.184,0.0,0
1581971397.585,19.531,24.902,33.691,20.996,0.0,0
1581971397.587,10.254,21.484,49.316,10.742,0.0,0
1581971397.591,25.879,20.02,44.922,7.812,0.0,0
1581971397.595,31.25,24.414,36.133,24.414,0.0,0
1581971397.599,8.301,20.508000000000006,20.996,25.879,0.0,0
1581971397.603,23.926,21.973000000000006,22.461,25.391,0.0,0
1581971397.607,30.762,31.738000000000003,40.039,6.836,0.0,0
1581971397.611,9.277,30.762,39.551,-8.789,0.0,0
1581971397.6139998,10.742,28.32,45.898,-0.488,0.0,0
1581971397.6179998,20.02,20.508000000000006,38.574,14.648,0.0,0
1581971397.6220002,8.301,19.531,19.531,1.465,0.0,0
1581971397.6260002,6.348,28.32,27.832,0.977,0.0,0
1581971397.63,12.207,29.297,36.133,6.836,0.0,0
1581971397.6320002,18.555,27.344,39.062,6.348,0.0,0
1581971397.6360002,23.438,20.02,41.504,18.066,0.0,0
1581971397.64,18.555,18.066,39.062,24.414,0.0,0
1581971397.644,19.531,32.227,49.805,18.555,0.0,0
1581971397.6479998,30.762,41.01600000000001,41.01600000000001,17.09,0.0,0
1581971397.6520002,31.25,39.551,20.508000000000006,14.16,0.0,0
1581971397.656,35.645,38.086,29.785,8.789,0.0,0
1581971397.659,27.344,34.668,31.738000000000003,7.324,0.0,0
1581971397.663,25.879,32.227,32.227,1.953,0.0,0
1581971397.667,37.109,29.785,31.25,12.207,0.0,0
1581971397.671,34.18,27.832,35.156,26.367,0.0,0
1581971397.675,39.062,31.738000000000003,43.945,26.367,0.0,0
1581971397.677,30.273000000000003,29.297,36.133,10.742,0.0,0
1581971397.681,19.043,28.32,37.598,2.93,0.0,0
1581971397.685,19.531,33.203,44.922,7.812,0.0,0
1581971397.689,24.414,28.809,39.062,10.742,0.0,0
1581971397.6929998,28.809,32.227,35.156,6.348,0.0,0
1581971397.697,26.855,29.785,32.715,7.324,0.0,0
1581971397.701,24.902,22.461,31.25,13.672,0.0,0
1581971397.704,23.926,29.297,37.598,9.277,0.0,0
1581971397.708,22.949,29.785,36.621,6.836,0.0,0
1581971397.712,30.273000000000003,40.039,34.18,32.227,0.0,0
1581971397.716,43.457,41.504,47.852,41.992,0.0,0
1581971397.72,31.738000000000003,28.809,42.48,8.789,0.0,0
1581971397.722,26.367,33.203,33.203,-1.953,0.0,0
1581971397.726,41.504,34.668,35.645,9.277,0.0,0
1581971397.73,45.41,29.297,34.18,25.879,0.0,0
1581971397.734,30.273000000000003,27.832,29.297,1.953,0.0,0
1581971397.738,29.297,24.902,35.645,-10.254,0.0,0
1581971397.742,34.668,21.484,38.086,4.883,0.0,0
1581971397.746,26.367,26.367,33.203,17.09,0.0,0
1581971397.7489998,20.02,30.273000000000003,31.25,4.395,0.0,0
1581971397.7529998,11.719,17.578,27.344,-9.766,0.0,0
1581971397.7570002,14.16,19.531,37.109,15.625,0.0,0
1581971397.7610002,28.809,32.227,41.01600000000001,10.254,0.0,0
1581971397.765,37.598,32.715,48.828,4.395,0.0,0
1581971397.7670002,35.156,36.133,55.176,23.926,0.0,0
1581971397.771,30.273000000000003,29.785,38.574,15.625,0.0,0
1581971397.775,42.969,23.438,36.621,19.531,0.0,0
1581971397.779,52.734,40.527,46.875,35.645,0.0,0
1581971397.783,37.598,41.01600000000001,39.062,25.879,0.0,0
1581971397.7870002,36.621,19.531,31.738000000000003,26.855,0.0,0
1581971397.791,29.785,9.277,33.691,23.926,0.0,0
1581971397.794,12.207,26.367,34.668,1.953,0.0,0
1581971397.798,20.996,40.039,32.715,5.371,0.0,0
1581971397.802,37.109,35.645,33.691,9.766,0.0,0
1581971397.806,35.156,35.645,41.992,22.949,0.0,0
1581971397.81,34.668,41.01600000000001,36.621,20.996,0.0,0
1581971397.812,44.434,35.645,32.715,4.883,0.0,0
1581971397.816,40.527,29.785,25.879,2.93,0.0,0
1581971397.82,37.109,30.273000000000003,31.738000000000003,14.16,0.0,0
1581971397.824,44.922,34.668,46.387,26.367,0.0,0
1581971397.8279998,46.875,37.109,37.109,16.602,0.0,0
1581971397.832,38.574,27.344,23.438,4.883,0.0,0
1581971397.836,20.02,29.297,33.691,-3.418,0.0,0
1581971397.839,29.297,46.387,45.41,6.836,0.0,0
1581971397.843,31.25,33.203,28.809,13.184,0.0,0
1581971397.847,26.855,17.09,24.414,3.418,0.0,0
1581971397.851,41.504,21.973000000000006,28.809,0.977,0.0,0
1581971397.855,40.527,19.531,29.297,5.859,0.0,0
1581971397.8720002,25.391,27.832,36.133,14.648,0.0,0
1581971397.8760002,35.645,41.504,39.062,19.043,0.0,0
1581971397.88,40.039,32.227,33.691,4.883,0.0,0
1581971397.8839998,21.973000000000006,21.484,35.645,-9.277,0.0,0
1581971397.8879998,27.832,24.902,46.387,6.836,0.0,0
1581971397.8920002,45.41,30.762,44.922,16.113,0.0,0
1581971397.896,39.551,30.273000000000003,25.391,-0.977,0.0,0
1581971397.899,39.062,30.273000000000003,26.367,15.137,0.0,0
1581971397.903,43.945,30.273000000000003,35.645,28.809,0.0,0
1581971397.907,41.504,27.344,43.945,13.184,0.0,0
1581971397.911,41.992,24.902,57.129,7.812,0.0,0
1581971397.915,42.969,24.414,50.293,0.977,0.0,0
1581971397.917,26.855,22.949,47.852,5.859,0.0,0
1581971397.921,27.344,21.484,44.434,13.672,0.0,0
1581971397.925,50.293,30.762,36.621,5.859,0.0,0
1581971397.929,40.039,32.227,40.039,21.973000000000006,0.0,0
1581971397.9329998,47.852,34.18,42.48,26.367,0.0,0
1581971397.937,56.64100000000001,38.574,52.246,17.09,0.0,0
1581971397.941,25.879,33.691,51.758,14.648,0.0,0
1581971397.944,27.832,30.273000000000003,44.434,12.695,0.0,0
1581971397.948,38.574,30.762,48.34,6.836,0.0,0
1581971397.952,32.227,30.762,50.78100000000001,0.488,0.0,0
1581971397.956,50.293,23.438,45.898,1.953,0.0,0
1581971397.96,55.176,17.578,39.551,13.672,0.0,0
1581971397.962,25.879,19.531,35.156,8.301,0.0,0
1581971397.966,28.809,23.438,25.879,5.371,0.0,0
1581971397.97,37.109,28.809,27.832,23.438,0.0,0
1581971397.974,26.855,23.438,42.48,5.859,0.0,0
1581971397.978,29.785,16.602,52.246,8.301,0.0,0
1581971397.982,41.01600000000001,29.297,53.223,16.602,0.0,0
1581971397.986,35.156,30.762,42.48,9.766,0.0,0
1581971397.9889998,28.32,21.973000000000006,40.039,3.906,0.0,0
1581971397.9929998,22.461,19.531,34.18,-2.93,0.0,0
1581971397.9970002,35.156,21.484,25.391,10.742,0.0,0
1581971398.0010002,43.945,22.461,37.598,22.949,0.0,0
1581971398.005,41.992,29.785,38.086,22.461,0.0,0
1581971398.008,41.504,27.344,26.367,8.301,0.0,0
1581971398.012,42.48,15.137,34.668,-8.789,0.0,0
1581971398.016,52.246,20.508000000000006,45.41,5.371,0.0,0
1581971398.02,45.41,26.367,31.738000000000003,20.508000000000006,0.0,0
1581971398.024,45.41,26.367,30.273000000000003,44.922,0.0,0
1581971398.028,45.898,30.762,41.504,34.18,0.0,0
1581971398.032,39.062,20.996,46.875,2.441,0.0,0
1581971398.035,28.32,15.137,51.27,6.348,0.0,0
1581971398.039,31.738000000000003,23.438,41.504,13.184,0.0,0
1581971398.043,33.203,20.508000000000006,39.062,16.602,0.0,0
1581971398.0470002,27.344,16.602,41.992,1.953,0.0,0
1581971398.051,39.551,19.043,37.109,-4.883,0.0,0
1581971398.052,35.645,20.02,44.922,13.184,0.0,0
1581971398.056,24.902,20.02,54.199,10.742,0.0,0
1581971398.06,21.484,17.09,39.062,-6.348,0.0,0
1581971398.064,27.832,21.484,30.273000000000003,4.883,0.0,0
1581971398.0679998,39.551,25.391,37.598,14.648,0.0,0
1581971398.072,39.062,24.414,42.48,6.836,0.0,0
1581971398.076,25.391,19.043,43.457,20.996,0.0,0
1581971398.079,25.879,10.742,40.039,28.32,0.0,0
1581971398.083,35.645,10.254,55.664,24.414,0.0,0
1581971398.087,28.809,13.184,63.965,27.344,0.0,0
1581971398.091,19.043,13.672,50.293,15.137,0.0,0
1581971398.095,24.902,10.742,52.246,17.09,0.0,0
1581971398.0979998,26.367,10.254,56.64100000000001,27.344,0.0,0
1581971398.1020002,47.852,15.137,45.898,13.672,0.0,0
1581971398.106,35.645,21.484,31.25,10.742,0.0,0
1581971398.11,5.371,20.508000000000006,28.32,7.812,0.0,0
1581971398.1139998,23.926,26.367,38.086,14.16,0.0,0
1581971398.1179998,40.527,32.715,41.992,25.879,0.0,0
1581971398.1220002,26.367,23.438,41.01600000000001,8.789,0.0,0
1581971398.125,25.879,19.043,45.41,4.883,0.0,0
1581971398.129,23.926,24.414,47.852,3.906,0.0,0
1581971398.133,15.625,18.066,41.01600000000001,0.0,0.0,0
1581971398.137,18.066,16.113,37.598,2.441,0.0,0
1581971398.141,19.043,19.531,43.457,6.836,0.0,0
1581971398.1420002,27.344,23.926,53.71100000000001,22.949,0.0,0
1581971398.146,27.344,30.762,49.805,23.926,0.0,0
1581971398.15,21.973000000000006,27.344,38.574,4.883,0.0,0
1581971398.154,10.742,22.949,39.551,2.93,0.0,0
1581971398.158,11.719,25.391,41.01600000000001,13.184,0.0,0
1581971398.1620002,25.391,33.691,38.574,4.883,0.0,0
1581971398.166,37.109,34.668,38.574,11.23,0.0,0
1581971398.169,29.297,30.762,41.01600000000001,11.719,0.0,0
1581971398.173,20.996,33.691,48.34,6.836,0.0,0
1581971398.177,29.297,27.832,45.898,8.301,0.0,0
1581971398.181,46.875,23.926,34.668,21.973000000000006,0.0,0
1581971398.185,46.875,29.785,38.574,20.996,0.0,0
1581971398.187,22.461,25.391,30.273000000000003,6.348,0.0,0
1581971398.191,20.508000000000006,19.043,22.461,-0.488,0.0,0
1581971398.195,22.461,20.996,36.621,-12.207,0.0,0
1581971398.199,23.926,28.32,48.828,-8.301,0.0,0
1581971398.2029998,25.391,23.926,47.852,-3.418,0.0,0
1581971398.207,24.414,15.625,47.363,1.465,0.0,0
1581971398.211,32.715,29.785,45.41,28.809,0.0,0
1581971398.214,29.297,40.039,41.504,24.902,0.0,0
1581971398.218,13.672,32.227,38.574,-3.418,0.0,0
1581971398.222,18.555,32.715,44.922,0.977,0.0,0
1581971398.226,28.809,37.598,46.875,-0.488,0.0,0
1581971398.23,27.832,31.738000000000003,39.551,-8.301,0.0,0
1581971398.248,25.879,27.832,44.434,-1.953,0.0,0
1581971398.252,26.367,28.32,41.504,11.23,0.0,0
1581971398.256,34.18,26.855,36.133,5.859,0.0,0
1581971398.26,41.504,33.691,37.598,-0.488,0.0,0
1581971398.264,36.621,37.109,42.48,14.648,0.0,0
1581971398.268,41.01600000000001,26.855,46.875,25.879,0.0,0
1581971398.272,40.527,23.926,40.039,8.789,0.0,0
1581971398.275,23.926,32.227,41.01600000000001,10.254,0.0,0
1581971398.279,27.344,32.227,43.945,14.16,0.0,0
1581971398.283,21.484,24.902,49.316,-6.836,0.0,0
1581971398.2870002,-0.977,27.344,51.27,-9.277,0.0,0
1581971398.291,2.441,35.156,50.78100000000001,-6.348,0.0,0
1581971398.292,17.578,35.645,50.293,-6.836,0.0,0
1581971398.296,19.043,28.809,50.293,6.348,0.0,0
1581971398.3,21.973000000000006,25.391,46.387,15.137,0.0,0
1581971398.304,24.902,23.926,48.34,5.371,0.0,0
1581971398.3079998,22.461,27.832,50.78100000000001,1.465,0.0,0
1581971398.312,20.02,32.227,38.574,9.766,0.0,0
1581971398.316,18.066,33.203,29.785,1.953,0.0,0
1581971398.319,17.578,27.832,35.156,-6.836,0.0,0
1581971398.323,21.973000000000006,25.879,50.293,-8.301,0.0,0
1581971398.327,34.18,36.133,45.41,5.371,0.0,0
1581971398.331,20.996,32.715,37.598,5.371,0.0,0
1581971398.335,29.297,30.273000000000003,49.316,4.883,0.0,0
1581971398.3379998,48.34,28.809,65.918,16.602,0.0,0
1581971398.342,27.832,19.531,59.082,2.441,0.0,0
1581971398.346,15.137,29.785,43.457,-0.977,0.0,0
1581971398.35,21.973000000000006,36.621,36.133,3.418,0.0,0
1581971398.354,20.02,24.414,29.785,1.953,0.0,0
1581971398.3579998,12.207,15.625,31.25,3.418,0.0,0
1581971398.3620002,20.996,21.484,39.551,18.555,0.0,0
1581971398.365,22.461,26.367,43.457,25.879,0.0,0
1581971398.369,21.484,25.391,41.992,13.184,0.0,0
1581971398.373,14.648,29.297,43.457,10.742,0.0,0
1581971398.377,17.578,28.809,46.875,2.93,0.0,0
1581971398.381,26.855,28.809,42.48,0.488,0.0,0
1581971398.3820002,21.973000000000006,40.039,40.039,6.836,0.0,0
1581971398.3860002,37.598,36.621,42.48,2.93,0.0,0
1581971398.39,41.01600000000001,32.715,37.598,11.23,0.0,0
1581971398.394,21.973000000000006,36.133,37.109,17.09,0.0,0
1581971398.3979998,23.926,30.273000000000003,37.109,18.066,0.0,0
1581971398.4020002,33.691,30.762,36.621,16.113,0.0,0
1581971398.406,20.996,32.227,40.527,11.23,0.0,0
1581971398.409,11.23,28.809,41.504,7.324,0.0,0
1581971398.413,28.809,35.156,41.504,11.23,0.0,0
1581971398.417,30.273000000000003,39.551,40.039,6.348,0.0,0
1581971398.421,22.949,39.551,39.062,15.137,0.0,0
1581971398.425,27.344,35.156,41.504,15.137,0.0,0
1581971398.427,16.113,22.461,40.039,-1.953,0.0,0
1581971398.431,13.672,23.926,40.039,12.695,0.0,0
1581971398.435,26.855,31.25,43.457,28.809,0.0,0
1581971398.439,35.156,31.25,41.504,14.648,0.0,0
1581971398.4429998,30.762,34.18,38.086,7.812,0.0,0
1581971398.447,25.391,34.668,37.598,21.484,0.0,0
1581971398.451,31.25,33.691,36.621,20.02,0.0,0
1581971398.454,41.992,25.391,39.062,6.348,0.0,0
1581971398.458,38.086,22.949,42.48,13.672,0.0,0
1581971398.462,27.344,36.133,45.898,17.09,0.0,0
1581971398.466,32.227,34.668,42.48,11.23,0.0,0
1581971398.47,32.227,22.949,35.645,0.0,0.0,0
1581971398.472,10.742,22.949,42.969,-6.836,0.0,0
1581971398.476,9.277,27.832,47.852,-2.441,0.0,0
1581971398.48,14.648,26.855,46.875,-3.418,0.0,0
1581971398.484,11.23,30.762,48.34,-7.324,0.0,0
1581971398.488,17.09,37.598,42.48,-3.906,0.0,0
1581971398.492,17.578,40.527,40.039,4.883,0.0,0
1581971398.496,20.02,34.668,37.109,5.371,0.0,0
1581971398.4989998,19.531,32.227,33.691,-4.395,0.0,0
1581971398.5029998,21.484,39.551,26.367,1.465,0.0,0
1581971398.5070002,33.203,40.039,25.879,20.508000000000006,0.0,0
1581971398.5110002,40.039,38.086,35.645,30.762,0.0,0
1581971398.515,33.691,35.156,37.598,7.812,0.0,0
1581971398.5170002,25.879,37.598,40.527,-3.418,0.0,0
1581971398.521,10.742,32.227,34.18,-7.812,0.0,0
1581971398.525,4.883,21.484,25.391,-17.09,0.0,0
1581971398.529,8.301,21.484,20.996,-7.812,0.0,0
1581971398.533,25.391,31.738000000000003,25.879,0.0,0.0,0
1581971398.5370002,26.855,28.809,31.738000000000003,15.137,0.0,0
1581971398.541,20.996,20.508000000000006,32.715,13.672,0.0,0
1581971398.544,27.344,36.621,33.203,14.16,0.0,0
1581971398.548,29.785,42.969,28.809,9.277,0.0,0
1581971398.552,30.762,32.227,28.32,-1.465,0.0,0
1581971398.556,21.973000000000006,32.227,30.762,-3.418,0.0,0
1581971398.56,25.879,39.062,35.645,-0.977,0.0,0
1581971398.577,31.738000000000003,35.645,34.18,3.418,0.0,0
1581971398.581,24.414,29.297,32.715,-8.301,0.0,0
1581971398.585,18.066,35.645,38.086,2.441,0.0,0
1581971398.589,37.109,37.109,37.598,14.16,0.0,0
1581971398.593,33.691,28.809,27.832,4.395,0.0,0
1581971398.597,24.902,24.902,28.32,10.254,0.0,0
1581971398.601,19.043,27.344,27.832,12.207,0.0,0
1581971398.604,21.973000000000006,22.949,36.133,16.602,0.0,0
1581971398.6079998,31.738000000000003,17.09,46.875,16.602,0.0,0
1581971398.6120002,16.602,29.297,35.156,-9.277,0.0,0
1581971398.6160002,10.742,26.855,29.297,-6.348,0.0,0
1581971398.62,6.836,21.973000000000006,34.18,9.766,0.0,0
1581971398.6220002,-5.859,27.344,36.621,2.441,0.0,0
1581971398.6260002,7.812,31.25,37.598,5.859,0.0,0
1581971398.63,24.902,37.109,36.133,8.301,0.0,0
1581971398.6339998,20.02,33.203,33.203,1.953,0.0,0
1581971398.6379998,30.762,28.32,40.527,2.441,0.0,0
1581971398.6420002,41.504,32.227,44.434,16.113,0.0,0
1581971398.646,31.738000000000003,29.297,36.133,4.883,0.0,0
1581971398.649,25.879,21.484,35.645,-16.113,0.0,0
1581971398.653,22.949,24.414,36.621,-3.906,0.0,0
1581971398.657,23.438,26.367,36.133,11.719,0.0,0
1581971398.661,31.25,15.625,38.086,2.93,0.0,0
1581971398.665,32.715,18.066,27.832,14.648,0.0,0
1581971398.667,23.926,27.344,29.297,17.578,0.0,0
1581971398.671,18.066,27.344,40.527,-10.742,0.0,0
1581971398.675,27.832,26.855,36.133,-2.93,0.0,0
1581971398.679,44.434,29.297,44.434,15.625,0.0,0
1581971398.6829998,31.25,30.273000000000003,48.34,13.184,0.0,0
1581971398.687,22.949,28.32,41.992,6.348,0.0,0
1581971398.691,36.621,31.25,41.504,11.23,0.0,0
1581971398.694,25.391,28.809,42.969,20.996,0.0,2
1581971398.698,20.508000000000006,32.715,46.387,26.855,0.0,0
1581971398.702,32.715,33.203,41.992,17.09,0.0,0
1581971398.706,31.25,25.391,35.156,-5.859,0.0,0
1581971398.71,23.926,27.832,32.227,3.906,0.0,0
1581971398.712,16.113,33.203,33.203,28.809,0.0,0
1581971398.716,20.02,30.762,27.344,13.184,0.0,0
1581971398.72,33.203,24.414,23.438,-4.395,0.0,0
1581971398.724,41.992,32.227,41.504,16.113,0.0,0
1581971398.728,31.738000000000003,36.621,40.527,19.531,0.0,0
1581971398.732,14.16,20.02,34.668,12.695,0.0,0
1581971398.736,8.789,14.16,41.01600000000001,-0.488,0.0,0
1581971398.7389998,19.531,25.879,41.992,-4.883,0.0,0
1581971398.7429998,41.504,25.879,41.504,3.418,0.0,0
1581971398.7470002,21.973000000000006,20.508000000000006,38.086,1.953,0.0,0
1581971398.7510002,4.883,32.715,36.133,11.719,0.0,0
1581971398.755,27.832,40.527,37.598,6.348,0.0,0
1581971398.7570002,22.949,37.598,39.551,6.348,0.0,0
1581971398.7610002,14.648,26.855,36.133,28.809,0.0,0
1581971398.765,43.945,25.391,40.039,27.344,0.0,0
1581971398.769,47.852,36.621,42.48,25.879,0.0,0
1581971398.7729998,24.902,36.133,41.504,27.344,0.0,0
1581971398.7770002,22.949,31.25,43.457,26.855,0.0,0
1581971398.781,32.715,27.344,41.992,32.227,0.0,0
1581971398.784,35.645,38.086,47.852,26.855,0.0,0
1581971398.788,32.715,37.598,43.457,14.16,0.0,0
1581971398.792,34.668,30.762,45.41,25.391,0.0,0
1581971398.796,32.227,37.109,51.27,32.227,0.0,0
1581971398.8,25.879,34.668,39.062,22.949,0.0,0
1581971398.802,25.879,26.367,35.156,10.742,0.0,0
1581971398.806,27.344,27.832,39.062,9.766,0.0,0
1581971398.81,19.043,31.25,40.039,15.137,0.0,0
1581971398.814,23.926,28.32,38.086,15.625,0.0,0
1581971398.8179998,32.715,27.832,43.945,15.137,0.0,0
1581971398.822,37.598,40.527,48.34,18.555,0.0,0
1581971398.826,44.434,45.898,38.574,30.762,0.0,0
1581971398.829,32.715,31.25,30.762,23.438,0.0,0
1581971398.833,28.809,21.973000000000006,30.762,11.23,0.0,0
1581971398.837,42.48,31.25,27.832,20.996,0.0,0
1581971398.841,30.762,39.062,37.109,26.367,0.0,0
1581971398.845,19.531,35.156,46.387,20.02,0.0,0
1581971398.847,23.926,37.109,49.316,11.719,0.0,0
1581971398.851,30.762,38.574,47.363,8.789,0.0,0
1581971398.855,43.945,39.062,43.945,28.32,0.0,0
1581971398.859,26.367,37.109,41.01600000000001,29.297,0.0,0
1581971398.863,17.578,31.738000000000003,36.621,-0.977,0.0,0
1581971398.867,29.785,31.25,37.598,0.0,0.0,0
1581971398.871,32.227,32.227,37.598,12.695,0.0,0
1581971398.8739998,29.785,31.25,37.109,11.23,0.0,0
1581971398.8779998,30.273000000000003,27.344,41.992,22.461,0.0,0
1581971398.8820002,56.64100000000001,30.762,43.457,36.133,0.0,0
1581971398.8860002,44.922,39.551,41.504,28.32,0.0,0
1581971398.89,21.973000000000006,34.18,41.504,18.555,0.0,0
1581971398.8920002,28.809,31.25,43.457,21.973000000000006,0.0,0
1581971398.896,31.738000000000003,29.785,38.574,25.391,0.0,0
1581971398.9,24.902,28.809,36.133,8.301,0.0,0
1581971398.904,22.461,36.621,30.762,17.578,0.0,0
1581971398.908,42.48,37.598,23.438,34.18,0.0,0
1581971398.9120002,37.598,35.156,37.109,14.648,0.0,0
1581971398.916,14.648,26.367,49.805,-7.812,0.0,0
1581971398.919,3.906,21.973000000000006,51.27,-11.719,0.0,0
1581971398.923,8.301,24.414,50.293,12.695,0.0,0
1581971398.927,14.16,24.414,45.898,16.602,0.0,0
1581971398.931,12.207,25.391,51.27,2.93,0.0,0
1581971398.935,12.695,23.438,54.688,6.348,0.0,0
1581971398.937,14.16,21.484,54.688,13.672,0.0,0
1581971398.941,21.484,27.832,58.594,17.09,0.0,0
1581971398.945,31.25,28.32,47.852,5.371,0.0,0
1581971398.949,21.973000000000006,16.602,31.738000000000003,5.859,0.0,0
1581971398.9529998,8.301,22.461,32.715,15.625,0.0,0
1581971398.957,9.277,28.32,40.039,8.789,0.0,0
1581971398.961,20.996,22.461,41.504,2.93,0.0,0
1581971398.964,27.344,21.973000000000006,41.992,-2.93,0.0,0
1581971398.968,28.809,22.949,40.527,4.395,0.0,0
1581971398.972,18.066,29.785,41.992,8.789,0.0,0
1581971398.976,23.438,27.832,51.758,8.301,0.0,0
1581971398.98,37.109,24.414,43.945,17.09,0.0,0
1581971398.9970002,24.902,25.879,34.668,17.09,0.0,0
1581971399.0010002,17.578,27.344,42.969,3.418,0.0,0
1581971399.005,28.32,33.203,42.969,6.836,0.0,0
1581971399.0089998,37.598,34.18,33.203,20.508000000000006,0.0,0
1581971399.0129998,34.18,28.32,32.715,16.602,0.0,0
1581971399.0170002,20.996,24.414,37.598,8.301,0.0,0
1581971399.021,20.996,28.809,41.01600000000001,7.812,0.0,0
1581971399.024,26.855,29.785,51.27,11.719,0.0,0
1581971399.028,40.039,21.973000000000006,47.363,24.902,0.0,0
1581971399.032,36.133,21.484,40.039,23.926,0.0,0
1581971399.036,20.996,28.32,43.945,20.996,0.0,0
1581971399.04,22.949,30.762,50.293,21.484,0.0,0
1581971399.042,26.855,27.344,49.805,23.926,0.0,0
1581971399.046,25.879,23.438,44.434,11.23,0.0,0
1581971399.05,18.555,26.855,43.457,14.648,0.0,0
1581971399.054,18.066,32.715,38.086,18.555,0.0,0
1581971399.0579998,30.762,27.344,37.598,4.395,0.0,0
1581971399.062,39.062,25.879,48.34,26.855,0.0,0
1581971399.066,26.367,25.391,41.504,28.32,0.0,0
1581971399.069,14.648,25.879,30.273000000000003,-0.977,0.0,0
1581971399.073,16.113,31.25,32.715,-10.742,0.0,0
1581971399.077,21.484,35.156,30.273000000000003,3.906,0.0,0
1581971399.081,21.973000000000006,33.691,28.32,11.23,0.0,0
1581971399.085,30.273000000000003,27.344,41.01600000000001,11.23,0.0,0
1581971399.087,44.922,21.973000000000006,39.551,19.531,0.0,0
1581971399.091,45.898,23.438,22.949,8.789,0.0,0
1581971399.095,25.879,31.738000000000003,26.855,4.883,0.0,0
1581971399.099,10.254,32.715,33.203,1.953,0.0,0
1581971399.103,19.531,26.367,36.621,7.812,0.0,0
1581971399.107,22.461,21.973000000000006,33.691,18.555,0.0,0
1581971399.111,38.086,30.762,41.01600000000001,22.461,0.0,0
1581971399.1139998,39.062,27.344,46.387,18.066,0.0,0
1581971399.1179998,14.16,25.879,41.992,0.488,0.0,0
1581971399.1220002,15.625,39.551,45.898,2.93,0.0,0
1581971399.1260002,8.789,27.344,41.504,10.254,0.0,0
1581971399.13,13.672,18.066,41.992,12.695,0.0,0
1581971399.1320002,20.508000000000006,33.691,42.969,11.23,0.0,0
1581971399.1360002,15.137,38.574,39.551,8.301,0.0,0
1581971399.14,18.555,28.809,38.086,20.996,0.0,0
1581971399.144,8.789,28.32,37.109,8.789,0.0,0
1581971399.1479998,3.906,33.691,36.621,8.301,0.0,0
1581971399.1520002,21.484,38.086,35.156,10.254,0.0,0
1581971399.156,35.645,40.527,40.039,4.395,0.0,0
1581971399.159,24.902,29.297,37.598,7.324,0.0,0
1581971399.163,13.184,19.043,24.414,-1.953,0.0,0
1581971399.167,18.066,25.879,19.531,1.953,0.0,0
1581971399.171,21.973000000000006,36.133,27.832,8.789,0.0,0
1581971399.175,13.672,27.344,35.156,-6.836,0.0,0
1581971399.177,9.277,20.02,34.668,-1.953,0.0,0
1581971399.181,15.137,20.02,29.297,8.789,0.0,0
1581971399.185,17.09,22.461,23.926,9.277,0.0,0
1581971399.189,27.832,37.109,38.086,20.02,0.0,0
1581971399.1929998,23.926,36.133,41.01600000000001,22.949,0.0,0
1581971399.197,26.367,27.832,37.109,29.785,0.0,0
1581971399.201,35.645,24.902,34.18,25.879,0.0,0
1581971399.204,33.691,27.832,30.273000000000003,16.113,0.0,0
1581971399.208,32.715,36.621,24.902,17.578,0.0,0
1581971399.212,25.879,37.109,21.484,11.719,0.0,0
1581971399.216,17.578,35.645,35.645,12.207,0.0,0
1581971399.22,29.785,36.621,50.78100000000001,15.625,0.0,0
1581971399.222,34.668,34.668,45.41,8.789,0.0,0
1581971399.226,21.973000000000006,30.273000000000003,37.109,-4.395,0.0,0
1581971399.23,28.809,28.809,36.621,9.277,0.0,0
1581971399.234,42.48,28.809,39.551,18.066,0.0,0
1581971399.238,40.039,28.809,39.062,12.695,0.0,0
1581971399.242,32.715,32.715,33.203,14.648,0.0,0
1581971399.246,18.555,34.18,23.926,7.812,0.0,0
1581971399.2489998,25.879,35.645,31.738000000000003,2.441,0.0,0
1581971399.2529998,36.621,33.203,44.922,30.762,0.0,0
1581971399.2570002,20.996,27.344,38.574,27.832,0.0,0
1581971399.2610002,29.785,34.668,32.715,15.625,0.0,0
1581971399.265,55.176,33.203,33.691,14.16,0.0,0
1581971399.2670002,29.785,20.996,30.762,10.254,0.0,0
1581971399.271,19.531,27.832,31.738000000000003,16.113,0.0,0
1581971399.275,30.762,34.668,33.203,18.066,0.0,0
1581971399.279,23.438,37.109,31.25,13.184,0.0,0
1581971399.283,27.344,36.621,29.785,14.648,0.0,0
1581971399.2870002,33.203,27.832,30.273000000000003,15.625,0.0,0
1581971399.291,21.484,18.066,30.273000000000003,2.441,0.0,0
1581971399.294,18.066,25.391,32.715,11.23,0.0,0
1581971399.298,34.18,23.926,29.785,20.996,0.0,0
1581971399.302,37.598,15.137,40.527,28.32,0.0,0
1581971399.306,23.926,24.414,49.805,41.992,0.0,0
1581971399.31,18.066,28.32,39.551,30.762,0.0,0
1581971399.312,38.574,34.668,41.01600000000001,17.09,0.0,0
1581971399.316,42.48,34.668,33.691,12.207,0.0,0
1581971399.32,35.156,34.18,23.926,21.484,0.0,0
1581971399.324,43.945,40.039,38.086,22.949,0.0,0
1581971399.3279998,27.832,29.785,41.504,16.113,0.0,0
1581971399.332,24.902,16.113,37.598,29.785,0.0,0
1581971399.336,27.344,12.695,40.527,13.672,0.0,0
1581971399.339,15.625,13.672,44.922,5.859,0.0,0
1581971399.343,16.602,18.555,39.551,26.855,0.0,0
1581971399.347,19.531,26.855,36.621,19.531,0.0,0
1581971399.351,22.461,25.391,38.086,7.324,0.0,0
1581971399.355,17.09,22.461,34.668,16.113,0.0,0
1581971399.3720002,24.902,24.414,37.598,20.02,0.0,0
1581971399.3760002,22.461,23.926,42.48,6.836,0.0,0
1581971399.38,17.578,28.32,40.039,12.695,0.0,0
1581971399.3839998,12.207,25.879,40.527,22.949,0.0,0
1581971399.3879998,11.23,26.855,46.875,17.578,0.0,0
1581971399.3920002,23.438,35.645,51.758,10.742,0.0,0
1581971399.396,31.738000000000003,37.598,43.457,4.395,0.0,0
1581971399.399,50.78100000000001,40.527,43.457,20.508000000000006,0.0,0
1581971399.403,48.34,38.086,52.246,22.461,0.0,0
1581971399.407,15.137,18.066,39.062,0.977,0.0,0
1581971399.411,18.066,4.395,25.879,-3.906,0.0,0
1581971399.415,32.227,11.23,35.156,10.254,0.0,0
1581971399.417,17.09,17.578,41.01600000000001,11.719,0.0,0
1581971399.421,9.277,14.648,40.527,7.812,0.0,0
1581971399.425,4.883,14.16,44.922,19.531,0.0,0
1581971399.429,7.812,25.879,36.133,16.602,0.0,0
1581971399.4329998,7.812,33.691,28.809,11.23,0.0,0
1581971399.437,9.766,27.832,36.621,8.301,0.0,0
1581971399.441,21.484,22.461,37.109,3.906,0.0,0
1581971399.444,20.02,20.02,31.738000000000003,-5.859,0.0,0
1581971399.448,10.254,13.672,35.645,0.0,0.0,0
1581971399.452,16.113,12.695,40.527,2.93,0.0,0
1581971399.456,20.996,22.461,45.41,-5.371,0.0,0
1581971399.46,28.809,31.25,47.363,6.348,0.0,0
1581971399.462,39.551,20.996,32.715,3.418,0.0,0
1581971399.466,24.902,20.508000000000006,31.25,10.742,0.0,0
1581971399.47,9.766,28.32,41.01600000000001,8.789,0.0,0
1581971399.474,8.301,31.738000000000003,43.945,-5.371,0.0,0
1581971399.478,-4.395,26.855,34.668,-9.277,0.0,0
1581971399.482,-9.277,7.324,22.949,-21.484,0.0,0
1581971399.486,-2.441,9.766,31.738000000000003,-19.043,0.0,0
1581971399.4889998,0.488,19.531,31.25,-17.09,0.0,0
1581971399.4929998,0.977,29.785,26.855,-22.461,0.0,0
1581971399.4970002,6.348,30.273000000000003,33.691,-5.859,0.0,0
1581971399.5010002,18.066,17.578,32.715,4.883,0.0,0
1581971399.505,26.367,24.414,36.133,2.93,0.0,0
1581971399.5070002,27.344,32.227,33.203,19.531,0.0,0
1581971399.5110002,17.578,25.391,28.809,3.906,0.0,0
1581971399.515,11.719,23.926,36.133,-9.766,0.0,0
1581971399.519,27.832,30.273000000000003,33.691,2.93,0.0,0
1581971399.5229998,28.809,32.715,35.156,1.953,0.0,0
1581971399.5270002,12.695,28.32,39.551,-7.324,0.0,0
1581971399.531,12.207,25.879,36.621,-10.742,0.0,0
1581971399.534,12.695,26.367,39.062,5.371,0.0,0
1581971399.538,12.695,23.438,42.48,9.766,0.0,0
1581971399.542,14.648,25.879,41.01600000000001,-1.465,0.0,0
1581971399.546,14.648,29.297,33.203,-1.953,0.0,0
1581971399.55,12.207,26.367,23.438,0.0,0.0,0
1581971399.552,31.25,30.273000000000003,32.715,12.207,0.0,0
1581971399.556,36.133,38.574,36.621,13.672,0.0,0
1581971399.56,25.391,38.086,30.762,20.02,0.0,0
1581971399.564,21.484,25.879,20.508000000000006,10.742,0.0,0
1581971399.5679998,14.648,21.973000000000006,14.648,-16.602,0.0,0
1581971399.572,18.066,26.367,25.391,-6.348,0.0,0
1581971399.576,28.32,25.879,31.25,10.742,0.0,0
1581971399.579,27.832,31.25,32.227,14.16,0.0,0
1581971399.583,29.785,34.18,38.086,4.883,0.0,0
1581971399.587,20.996,31.738000000000003,36.621,0.488,0.0,0
1581971399.591,1.465,28.32,35.156,3.418,0.0,0
1581971399.595,6.348,25.391,36.133,-1.465,0.0,0
1581971399.597,20.508000000000006,26.367,29.297,10.254,0.0,0
1581971399.601,26.367,28.32,27.832,4.395,0.0,0
1581971399.605,25.391,34.18,35.156,0.0,0.0,0
1581971399.609,27.832,31.738000000000003,35.645,14.16,0.0,0
1581971399.613,25.391,30.273000000000003,33.691,1.465,0.0,0
1581971399.617,19.043,28.809,33.203,-6.348,0.0,0
1581971399.621,30.762,27.344,29.297,10.254,0.0,0
1581971399.6239998,35.156,32.715,27.344,20.996,0.0,0
1581971399.6279998,17.09,29.297,27.344,10.254,0.0,0
1581971399.6320002,17.578,24.414,32.227,-1.953,0.0,0
1581971399.6360002,35.156,27.832,37.598,0.977,0.0,0
1581971399.64,20.508000000000006,29.297,38.086,-1.465,0.0,0
1581971399.6420002,8.301,19.043,34.18,-4.883,0.0,0
1581971399.646,23.438,22.461,41.992,10.742,0.0,0
1581971399.65,24.414,36.133,54.199,17.09,0.0,0
1581971399.654,7.324,29.297,38.086,-0.977,0.0,0
1581971399.658,4.395,20.996,24.414,-2.93,0.0,0
1581971399.6620002,13.184,20.508000000000006,27.832,12.207,0.0,0
1581971399.666,12.207,30.273000000000003,23.926,10.742,0.0,0
1581971399.669,6.836,31.25,21.973000000000006,-13.184,0.0,0
1581971399.673,-0.488,20.508000000000006,24.414,-15.137,0.0,0
1581971399.677,10.254,20.02,26.855,-9.277,0.0,0
1581971399.681,10.254,25.879,26.367,-14.648,0.0,0
1581971399.685,5.859,25.391,24.902,-1.953,0.0,0
1581971399.687,9.766,24.414,28.32,11.719,0.0,0
1581971399.691,4.883,20.508000000000006,24.414,0.0,0.0,0
1581971399.695,24.902,22.949,23.926,15.137,0.0,0
1581971399.699,45.898,38.086,31.738000000000003,25.879,0.0,0
1581971399.7029998,21.973000000000006,34.668,34.18,14.16,0.0,0
1581971399.707,22.461,23.926,36.621,17.578,0.0,0
1581971399.711,44.434,25.391,45.41,20.02,0.0,0
1581971399.714,29.297,30.273000000000003,37.109,10.742,0.0,0
1581971399.718,6.348,30.762,27.832,-3.418,0.0,0
1581971399.722,2.441,30.273000000000003,32.715,2.441,0.0,0
1581971399.726,11.719,29.297,31.25,11.719,0.0,0
1581971399.73,16.113,26.367,29.297,7.324,0.0,0
1581971399.732,18.555,29.785,36.133,11.23,0.0,0
1581971399.736,25.879,32.715,42.48,16.113,0.0,0
1581971399.74,32.715,33.203,41.01600000000001,11.23,0.0,0
1581971399.744,39.062,36.621,41.01600000000001,19.531,0.0,0
1581971399.748,38.574,36.621,34.18,21.973000000000006,0.0,0
1581971399.752,24.902,33.203,26.855,13.184,0.0,0
1581971399.756,35.645,33.691,25.879,3.906,0.0,0
1581971399.7589998,27.832,28.809,28.32,16.113,0.0,0
1581971399.7629998,26.367,23.438,33.203,25.879,0.0,0
1581971399.7670002,32.227,30.762,37.109,17.09,0.0,0
1581971399.771,15.625,32.227,35.156,9.277,0.0,0
1581971399.775,16.113,26.855,31.25,6.836,0.0,0
1581971399.792,36.133,30.762,32.715,5.859,0.0,0
1581971399.796,32.227,37.109,27.832,10.742,0.0,0
1581971399.8,26.855,38.574,35.645,26.367,0.0,0
1581971399.804,35.156,35.156,51.758,23.926,0.0,0
1581971399.8079998,37.109,28.809,33.203,13.184,0.0,0
1581971399.812,38.574,19.043,22.949,31.738000000000003,0.0,0
1581971399.816,24.902,17.09,35.156,20.508000000000006,0.0,0
1581971399.819,16.602,30.762,31.25,-0.977,0.0,0
1581971399.823,28.809,38.574,25.879,9.766,0.0,2
1581971399.827,43.457,36.133,43.945,17.578,0.0,0
1581971399.831,28.32,33.203,48.34,19.043,0.0,0
1581971399.835,10.254,27.832,33.691,2.441,0.0,0
1581971399.837,21.484,20.508000000000006,35.645,-2.441,0.0,0
1581971399.841,22.949,24.414,40.039,3.418,0.0,0
1581971399.845,19.043,31.25,35.156,8.301,0.0,0
1581971399.849,26.855,32.227,30.273000000000003,7.324,0.0,0
1581971399.853,33.203,33.203,37.598,0.977,0.0,0
1581971399.857,23.926,33.203,38.574,10.742,0.0,0
1581971399.861,23.926,35.156,38.086,15.625,0.0,0
1581971399.8639998,31.25,33.691,40.039,20.508000000000006,0.0,0
1581971399.8679998,32.227,29.785,34.668,16.113,0.0,0
1581971399.8720002,28.809,30.762,31.738000000000003,14.648,0.0,0
1581971399.8760002,28.32,27.344,36.133,23.438,0.0,0
1581971399.88,34.18,25.879,44.434,25.879,0.0,0
1581971399.8820002,39.551,30.762,39.062,26.855,0.0,0
1581971399.8860002,50.293,35.645,42.48,36.133,0.0,0
1581971399.89,30.762,34.668,50.293,37.109,0.0,0
1581971399.894,14.648,33.691,40.527,13.184,0.0,0
1581971399.8979998,17.09,40.039,37.109,12.207,0.0,0
1581971399.9020002,8.789,32.227,33.203,12.207,0.0,0
1581971399.906,10.254,17.09,26.855,2.441,0.0,0
1581971399.909,16.602,24.414,23.926,4.395,0.0,0
1581971399.913,16.602,36.133,29.297,-0.488,0.0,0
1581971399.917,20.02,31.25,32.715,15.137,0.0,0
1581971399.921,43.945,32.227,33.203,36.621,0.0,0
1581971399.925,48.828,35.156,41.01600000000001,33.203,0.0,0
1581971399.927,22.461,29.297,37.598,15.137,0.0,0
1581971399.931,17.578,29.297,26.855,8.301,0.0,0
1581971399.935,24.414,33.203,26.855,8.301,0.0,0
1581971399.939,28.809,35.156,27.832,3.418,0.0,0
1581971399.9429998,28.809,34.668,30.762,3.418,0.0,0
1581971399.947,14.16,27.832,38.086,13.672,0.0,0
1581971399.951,19.531,28.32,43.457,17.09,0.0,0
1581971399.954,25.391,45.41,54.688,20.508000000000006,0.0,0
1581971399.958,16.113,46.387,52.246,20.508000000000006,0.0,0
1581971399.962,18.555,37.598,29.785,5.859,0.0,0
1581971399.966,31.25,40.039,25.391,8.789,0.0,0
1581971399.97,42.48,35.156,29.785,18.066,0.0,0
1581971399.972,37.109,39.551,25.879,15.625,0.0,0
1581971399.976,30.273000000000003,41.504,25.391,13.672,0.0,0
1581971399.98,31.738000000000003,34.18,33.203,23.438,0.0,0
1581971399.984,27.832,38.086,40.039,12.207,0.0,0
1581971399.988,25.391,41.992,39.551,6.348,0.0,0
1581971399.992,21.973000000000006,37.109,31.738000000000003,7.812,0.0,0
1581971399.996,24.414,27.832,37.598,6.836,0.0,0
1581971399.9989998,35.156,31.25,48.828,21.484,0.0,0
1581971400.0029998,40.039,35.645,45.898,26.367,0.0,0
1581971400.0070002,43.457,34.18,39.551,12.695,0.0,0
1581971400.0110002,17.578,35.645,31.738000000000003,-0.488,0.0,0
1581971400.015,9.766,37.109,30.273000000000003,2.93,0.0,0
1581971400.0170002,20.02,30.273000000000003,36.621,10.742,0.0,0
1581971400.021,16.113,22.461,30.762,9.277,0.0,0
1581971400.025,15.137,22.461,31.25,5.859,0.0,0
1581971400.029,11.23,21.973000000000006,34.668,16.113,0.0,0
1581971400.033,19.043,21.973000000000006,37.109,21.484,0.0,0
1581971400.0370002,18.555,29.785,39.062,14.16,0.0,0
1581971400.041,14.16,39.551,38.574,11.23,0.0,0
1581971400.044,17.09,37.598,41.01600000000001,10.742,0.0,0
1581971400.048,16.602,27.344,40.039,6.836,0.0,0
1581971400.052,13.184,23.438,34.18,4.883,0.0,0
1581971400.056,12.695,27.344,30.762,9.277,0.0,0
1581971400.06,16.602,29.297,31.25,13.672,0.0,0
1581971400.062,33.691,29.785,33.691,10.254,0.0,0
1581971400.066,35.156,31.738000000000003,38.574,12.695,0.0,0
1581971400.07,21.484,27.832,40.039,24.902,0.0,0
1581971400.074,6.836,24.414,37.598,15.137,0.0,0
1581971400.0779998,9.277,26.855,36.133,8.301,0.0,0
1581971400.082,20.508000000000006,30.273000000000003,33.691,13.672,0.0,0
1581971400.086,21.484,38.086,34.668,15.137,0.0,0
1581971400.089,25.391,35.645,40.527,20.996,0.0,0
1581971400.093,21.973000000000006,26.367,37.598,6.348,0.0,0
1581971400.097,29.785,31.25,39.062,12.695,0.0,0
1581971400.101,38.574,34.18,43.945,22.461,0.0,0
1581971400.105,21.973000000000006,31.25,46.387,10.254,0.0,0
1581971400.1220002,18.066,33.691,35.645,14.648,0.0,0
1581971400.1260002,34.668,35.156,28.32,10.254,0.0,0
1581971400.13,20.508000000000006,34.18,35.156,-4.883,0.0,0
1581971400.1339998,7.812,28.32,28.809,-4.395,0.0,0
1581971400.1379998,26.367,31.25,28.809,2.93,0.0,0
1581971400.1420002,28.32,35.156,34.668,8.301,0.0,0
1581971400.146,22.461,31.738000000000003,37.598,9.277,0.0,0
1581971400.149,20.996,26.367,36.133,23.926,0.0,0
1581971400.153,18.066,26.855,31.738000000000003,20.02,0.0,0
1581971400.157,20.996,31.25,31.25,8.789,0.0,0
1581971400.161,23.926,31.25,34.18,12.695,0.0,0
1581971400.165,27.344,33.203,34.668,22.461,0.0,0
1581971400.167,31.25,33.203,32.227,36.621,0.0,0
1581971400.171,31.738000000000003,30.273000000000003,39.062,23.926,0.0,0
1581971400.175,36.133,31.738000000000003,35.156,10.742,0.0,0
1581971400.179,31.738000000000003,29.297,26.367,1.465,0.0,0
1581971400.1829998,25.391,27.344,31.25,-4.883,0.0,0
1581971400.187,20.02,28.809,29.785,6.348,0.0,0
1581971400.191,13.672,29.785,24.414,2.441,0.0,0
1581971400.194,20.508000000000006,28.32,30.273000000000003,5.859,0.0,0
1581971400.198,16.602,28.32,34.668,11.719,0.0,0
1581971400.202,14.648,35.156,37.109,7.812,0.0,0
1581971400.206,34.18,35.156,38.574,11.23,0.0,0
1581971400.21,39.062,30.762,35.156,14.16,0.0,0
1581971400.212,22.461,26.855,26.855,12.207,0.0,0
1581971400.216,16.602,25.391,22.949,14.648,0.0,0
1581971400.22,20.508000000000006,30.762,29.297,5.859,0.0,0
1581971400.224,24.902,25.879,33.203,-2.93,0.0,0
1581971400.228,16.602,22.461,35.645,18.555,0.0,0
1581971400.232,15.137,39.062,38.086,17.578,0.0,0
1581971400.236,26.367,40.527,34.18,-2.93,0.0,0
1581971400.2389998,28.809,29.297,34.18,8.789,0.0,0
1581971400.2429998,27.832,28.32,30.273000000000003,12.695,0.0,0
1581971400.2470002,27.344,27.344,31.25,4.883,0.0,0
1581971400.2510002,23.438,34.18,42.48,6.836,0.0,0
1581971400.255,29.785,41.504,40.039,13.184,0.0,0
1581971400.2570002,43.945,37.109,32.227,17.578,0.0,0
1581971400.2610002,34.18,29.297,28.32,15.625,0.0,0
1581971400.265,13.184,24.902,33.691,17.09,0.0,0
1581971400.269,25.391,31.738000000000003,42.969,37.109,0.0,0
1581971400.2729998,34.18,31.738000000000003,48.828,33.691,0.0,0
1581971400.2770002,26.367,23.926,46.387,11.23,0.0,0
1581971400.281,18.555,30.273000000000003,33.203,1.953,0.0,0
1581971400.284,6.836,23.926,26.855,12.207,0.0,0
1581971400.288,16.113,16.113,31.738000000000003,9.766,0.0,0
1581971400.292,20.02,23.438,33.203,14.16,0.0,0
1581971400.296,15.625,24.414,32.715,30.762,0.0,0
1581971400.3,26.367,29.785,25.879,20.996,0.0,0
1581971400.302,26.367,32.715,20.508000000000006,11.719,0.0,0
1581971400.306,24.414,29.785,33.203,10.742,0.0,0
1581971400.31,22.949,33.203,44.434,20.508000000000006,0.0,0
1581971400.314,21.973000000000006,34.668,46.387,28.809,0.0,0
1581971400.3179998,20.02,35.645,42.969,17.09,0.0,0
1581971400.322,10.254,30.762,35.156,-0.488,0.0,0
1581971400.326,29.785,29.297,36.621,12.207,0.0,0
1581971400.329,41.504,35.156,36.133,23.926,0.0,0
1581971400.333,20.996,28.809,33.691,24.414,0.0,0
1581971400.337,18.555,25.879,33.691,26.855,0.0,0
1581971400.341,23.926,29.297,38.086,17.578,0.0,0
1581971400.345,24.414,31.738000000000003,43.457,18.555,0.0,0
1581971400.347,22.949,35.156,40.039,13.184,0.0,0
1581971400.351,20.508000000000006,29.785,32.715,5.371,0.0,0
1581971400.355,17.578,31.25,34.668,11.23,0.0,0
1581971400.359,10.254,34.668,40.039,11.719,0.0,0
1581971400.363,6.348,26.367,35.645,11.23,0.0,0
1581971400.367,13.184,25.391,34.18,9.277,0.0,0
1581971400.371,13.672,30.273000000000003,25.391,8.789,0.0,0
1581971400.3739998,12.207,33.203,28.32,17.578,0.0,0
1581971400.3779998,21.973000000000006,29.785,44.434,25.391,0.0,0
1581971400.3820002,26.855,23.438,45.898,19.043,0.0,0
1581971400.3860002,21.484,28.809,38.086,12.207,0.0,0
1581971400.39,11.23,34.668,32.715,10.254,0.0,0
1581971400.3920002,8.789,27.832,33.691,8.789,0.0,0
1581971400.396,20.508000000000006,25.879,41.01600000000001,16.602,0.0,0
1581971400.4,18.555,34.668,40.039,1.465,0.0,0
1581971400.404,7.324,35.645,34.668,-5.859,0.0,0
1581971400.408,10.254,34.668,36.621,4.395,0.0,0
1581971400.4120002,18.555,28.809,30.762,2.441,0.0,0
1581971400.416,21.973000000000006,27.344,26.367,10.742,0.0,0
1581971400.419,27.832,35.156,28.809,18.555,0.0,0
1581971400.423,22.949,26.367,22.949,9.766,0.0,0
1581971400.427,38.086,32.227,25.879,20.02,0.0,0
1581971400.431,45.898,38.574,38.086,21.484,0.0,0
1581971400.435,27.832,27.344,38.086,19.531,0.0,0
1581971400.44,24.414,28.809,35.645,17.578,0.0,0
1581971400.444,37.109,30.273000000000003,39.551,-8.301,0.0,0
1581971400.448,27.344,30.273000000000003,41.01600000000001,-2.93,0.0,0
1581971400.452,20.996,40.039,38.086,13.184,0.0,0
1581971400.456,24.902,43.457,37.109,23.438,0.0,0
1581971400.46,23.926,35.645,39.551,23.926,0.0,0
1581971400.464,28.809,30.762,43.457,19.043,0.0,0
1581971400.467,23.438,35.156,37.109,16.113,0.0,0
1581971400.471,22.461,39.551,33.691,13.672,0.0,0
1581971400.475,20.508000000000006,36.133,30.762,10.742,0.0,0
1581971400.479,26.855,36.133,37.109,10.742,0.0,0
1581971400.4829998,42.48,46.387,47.363,16.602,0.0,0
1581971400.4970002,25.879,44.434,34.668,21.973000000000006,0.0,0
1581971400.5010002,8.301,25.879,29.297,10.254,0.0,0
1581971400.505,10.254,26.367,37.109,3.418,0.0,0
1581971400.5089998,13.672,34.18,34.668,-1.953,0.0,0
1581971400.5129998,20.508000000000006,32.227,35.156,-9.277,0.0,0
1581971400.5170002,27.832,34.18,44.922,3.418,0.0,0
1581971400.521,38.574,39.062,41.01600000000001,12.695,0.0,0
1581971400.524,27.344,38.574,30.762,4.395,0.0,0
1581971400.528,34.668,41.504,34.668,10.254,0.0,0
1581971400.532,40.527,38.086,37.598,21.484,0.0,0
1581971400.536,16.602,29.785,29.297,12.207,0.0,0
1581971400.54,21.484,30.762,31.25,-3.418,0.0,0
1581971400.542,28.32,34.18,32.227,-3.906,0.0,0
1581971400.546,18.066,30.273000000000003,36.133,11.23,0.0,0
1581971400.55,13.672,27.832,37.598,18.066,0.0,0
1581971400.554,16.602,29.297,32.715,6.836,0.0,0
1581971400.5579998,20.508000000000006,35.645,35.645,7.324,0.0,0
1581971400.562,15.137,33.691,32.227,2.93,0.0,0
1581971400.566,14.16,30.762,40.527,0.488,0.0,0
1581971400.569,34.18,38.574,55.664,16.113,0.0,0
1581971400.573,28.32,28.32,49.316,11.719,0.0,0
1581971400.577,15.625,19.531,37.109,3.418,0.0,0
1581971400.581,32.715,30.273000000000003,36.621,14.16,0.0,0
1581971400.585,25.391,30.273000000000003,26.367,22.461,0.0,0
1581971400.587,11.719,28.32,32.715,20.02,0.0,0
1581971400.591,23.926,32.715,46.387,21.484,0.0,0
1581971400.595,19.531,26.855,31.25,17.09,0.0,0
1581971400.599,9.766,30.762,23.438,11.23,0.0,0
1581971400.603,14.648,35.156,36.621,6.348,0.0,0
1581971400.607,12.695,26.855,42.48,-5.371,0.0,0
1581971400.611,19.531,24.414,40.527,-4.395,0.0,0
1581971400.6139998,28.809,29.297,37.109,4.883,0.0,0
1581971400.6179998,24.414,33.691,36.621,1.465,0.0,0
1581971400.6220002,22.949,33.203,35.645,5.859,0.0,0
1581971400.6260002,22.461,33.203,29.297,12.695,0.0,0
1581971400.63,21.973000000000006,29.297,27.832,-2.93,0.0,0
1581971400.6320002,24.414,19.043,33.203,-7.324,0.0,0
1581971400.6360002,32.227,25.391,37.598,6.348,0.0,0
1581971400.64,26.367,33.691,32.715,10.254,0.0,0
1581971400.644,21.484,25.879,26.367,4.395,0.0,0
1581971400.6479998,29.297,18.066,33.203,7.812,0.0,0
1581971400.6520002,21.973000000000006,21.973000000000006,40.527,17.09,0.0,0
1581971400.656,24.902,27.832,40.527,22.461,0.0,0
1581971400.659,20.508000000000006,23.438,39.062,19.043,0.0,0
1581971400.663,18.066,22.949,40.039,17.578,0.0,0
1581971400.667,13.672,26.367,38.086,-1.953,0.0,0
1581971400.671,7.812,33.203,31.738000000000003,-21.484,0.0,0
1581971400.675,19.531,36.621,39.062,-7.812,0.0,0
1581971400.677,14.648,30.762,37.109,-3.906,0.0,0
1581971400.681,15.137,25.391,30.273000000000003,0.0,0.0,0
1581971400.685,25.391,27.832,32.715,7.324,0.0,0
1581971400.689,24.902,27.832,21.973000000000006,18.555,0.0,0
1581971400.6929998,24.902,24.414,21.973000000000006,28.32,0.0,0
1581971400.697,22.461,26.855,32.715,22.949,0.0,0
1581971400.701,15.137,38.574,37.109,20.508000000000006,0.0,0
1581971400.704,28.32,43.945,40.527,20.02,0.0,0
1581971400.708,31.25,42.969,39.551,21.484,0.0,0
1581971400.712,25.391,32.715,44.434,21.484,0.0,0
1581971400.716,18.555,10.254,49.805,15.137,0.0,0
1581971400.72,16.113,13.672,39.551,9.766,0.0,0
1581971400.722,7.812,21.973000000000006,31.25,13.184,0.0,0
1581971400.726,6.348,25.879,36.621,14.16,0.0,0
1581971400.73,21.973000000000006,41.01600000000001,34.18,1.953,0.0,0
1581971400.734,25.879,43.457,35.156,10.254,0.0,0
1581971400.738,14.648,40.527,47.363,15.625,0.0,0
1581971400.742,13.184,30.273000000000003,50.78100000000001,8.789,0.0,0
1581971400.746,28.32,26.855,49.316,8.789,0.0,0
1581971400.7489998,30.273000000000003,27.344,40.039,14.16,0.0,0
1581971400.7529998,7.812,19.043,27.344,6.836,0.0,0
1581971400.7570002,5.859,20.02,25.391,-1.953,0.0,0
1581971400.7610002,21.973000000000006,29.785,26.855,2.93,0.0,0
1581971400.765,28.809,31.25,33.691,10.254,0.0,0
1581971400.7670002,20.02,25.391,34.668,20.02,0.0,0
1581971400.771,16.602,23.926,33.691,12.207,0.0,0
1581971400.775,20.02,29.785,37.109,2.441,0.0,0
1581971400.779,27.832,22.949,34.668,3.906,0.0,0
1581971400.783,26.367,16.113,36.133,8.301,0.0,0
1581971400.7870002,32.715,28.32,36.621,14.16,0.0,0
1581971400.791,47.852,35.156,40.527,15.137,0.0,0
1581971400.794,26.855,33.203,40.527,11.719,0.0,0
1581971400.798,22.461,37.598,33.691,16.602,0.0,0
1581971400.802,42.969,40.527,34.18,32.715,0.0,0
1581971400.806,40.527,29.297,29.785,27.832,0.0,0
1581971400.81,38.086,23.926,30.762,11.23,0.0,0
1581971400.812,32.227,28.809,39.062,6.348,0.0,0
1581971400.816,17.578,19.043,41.992,6.348,0.0,0
1581971400.82,18.066,18.066,39.551,9.277,0.0,0
1581971400.824,16.113,26.855,45.41,4.395,0.0,0
1581971400.8279998,29.297,32.227,65.43,-5.371,0.0,0
1581971400.832,34.668,33.203,72.266,-4.883,0.0,0
1581971400.836,16.113,26.367,63.965,4.883,0.0,0
1581971400.839,24.414,27.832,68.359,4.883,0.0,0
1581971400.843,38.086,20.508000000000006,68.359,2.441,0.0,0
1581971400.847,27.344,16.602,58.594,13.672,0.0,0
1581971400.851,26.855,18.555,60.059,14.648,0.0,0
1581971400.855,20.508000000000006,16.602,56.152,5.371,0.0,0
1581971400.8720002,26.367,18.555,52.734,17.09,0.0,0
1581971400.8760002,41.992,23.438,61.523,16.602,0.0,0
1581971400.88,34.668,27.344,65.918,-0.488,0.0,0
1581971400.8839998,13.672,34.18,55.664,-9.766,0.0,0
1581971400.8879998,9.766,30.762,47.363,-10.742,0.0,0
1581971400.8920002,20.996,22.949,51.27,0.488,0.0,0
1581971400.896,18.066,26.855,53.71100000000001,8.301,0.0,0
1581971400.899,18.066,30.273000000000003,47.852,1.465,0.0,2
1581971400.903,22.949,27.344,45.898,-5.371,0.0,0
1581971400.907,19.043,30.762,52.246,-1.953,0.0,0
1581971400.911,24.414,40.527,56.152,5.371,0.0,0
1581971400.915,39.551,38.086,55.176,8.789,0.0,0
1581971400.917,34.18,31.738000000000003,48.34,7.812,0.0,0
1581971400.921,23.926,28.32,46.875,28.809,0.0,0
1581971400.925,26.855,28.809,41.504,25.879,0.0,0
1581971400.929,26.855,37.598,41.504,3.906,0.0,0
1581971400.9329998,21.973000000000006,34.668,45.898,7.324,0.0,0
1581971400.937,10.254,27.344,39.551,17.09,0.0,0
1581971400.941,15.625,30.273000000000003,39.062,20.02,0.0,0
1581971400.944,21.484,34.668,44.434,7.324,0.0,0
1581971400.948,8.789,37.598,47.363,3.906,0.0,0
1581971400.952,10.742,40.527,51.27,1.465,0.0,0
1581971400.956,16.113,32.715,52.246,2.93,0.0,0
1581971400.96,15.137,27.344,52.246,10.254,0.0,0
1581971400.962,10.742,30.762,51.758,16.113,0.0,0
1581971400.966,14.16,27.344,44.434,22.461,0.0,0
1581971400.97,18.066,26.855,47.363,20.02,0.0,0
1581971400.974,21.484,29.785,48.34,17.578,0.0,0
1581971400.978,12.207,22.949,41.504,6.348,0.0,0
1581971400.982,8.789,30.273000000000003,39.551,-9.277,0.0,0
1581971400.986,21.484,37.598,30.273000000000003,-4.883,0.0,0
1581971400.9889998,14.648,34.668,32.227,-2.93,0.0,0
1581971400.9929998,10.742,32.227,40.039,3.906,0.0,0
1581971400.9970002,8.789,20.508000000000006,33.203,3.906,0.0,0
1581971401.0010002,20.508000000000006,26.855,40.527,9.277,0.0,0
1581971401.005,48.34,41.01600000000001,56.152,35.156,0.0,0
1581971401.0070002,35.156,30.273000000000003,43.945,21.484,0.0,0
1581971401.0110002,7.324,17.578,30.273000000000003,1.465,0.0,0
1581971401.015,7.324,25.391,31.738000000000003,13.184,0.0,0
1581971401.019,8.789,35.645,31.738000000000003,11.719,0.0,0
1581971401.0229998,14.16,35.645,33.691,35.156,0.0,0
1581971401.0270002,19.043,32.715,44.922,31.738000000000003,0.0,0
1581971401.031,16.602,28.809,45.41,2.441,0.0,0
1581971401.034,8.301,23.438,32.227,0.488,0.0,0
1581971401.038,20.508000000000006,20.508000000000006,42.48,1.465,0.0,0
1581971401.042,39.551,21.484,46.387,3.906,0.0,0
1581971401.046,30.762,22.949,35.156,7.324,0.0,0
1581971401.05,9.277,22.949,41.992,7.324,0.0,0
1581971401.052,27.832,34.18,49.805,9.277,0.0,0
1581971401.056,43.945,40.039,42.969,27.832,0.0,0
1581971401.06,28.32,35.645,36.133,22.461,0.0,0
1581971401.064,28.809,32.715,41.992,-0.977,0.0,0
1581971401.0679998,27.832,33.691,47.363,3.906,0.0,0
1581971401.072,20.02,21.484,40.527,8.301,0.0,0
1581971401.076,24.902,15.625,33.203,-9.766,0.0,0
1581971401.079,20.02,33.691,30.762,-7.812,0.0,0
1581971401.083,29.297,46.875,39.551,8.301,0.0,0
1581971401.087,36.621,48.828,48.828,13.672,0.0,0
1581971401.091,21.484,38.086,43.945,17.578,0.0,0
1581971401.095,19.531,26.855,39.551,24.414,0.0,0
1581971401.097,21.973000000000006,29.297,39.551,20.02,0.0,0
1581971401.101,23.438,31.25,40.039,15.625,0.0,0
1581971401.105,38.574,34.18,38.086,24.414,0.0,0
1581971401.109,28.32,28.32,37.109,26.855,0.0,0
1581971401.113,8.789,20.996,44.434,11.719,0.0,0
1581971401.117,15.625,25.879,41.504,1.465,0.0,0
1581971401.121,29.785,32.227,36.133,17.09,0.0,0
1581971401.1239998,33.691,32.715,41.504,16.113,0.0,0
1581971401.1279998,25.391,31.25,45.898,14.648,0.0,0
1581971401.1320002,30.273000000000003,33.203,46.875,26.855,0.0,0
1581971401.1360002,34.18,34.18,35.645,27.344,0.0,0
1581971401.14,16.602,28.32,27.344,14.16,0.0,0
1581971401.1420002,16.113,17.09,39.551,16.113,0.0,0
1581971401.146,22.949,13.184,48.828,22.461,0.0,0
1581971401.15,23.926,21.973000000000006,46.387,6.836,0.0,0
1581971401.154,29.785,40.039,42.48,0.977,0.0,0
1581971401.158,28.809,45.41,46.387,14.16,0.0,0
1581971401.1620002,20.508000000000006,36.133,45.41,26.855,0.0,0
1581971401.166,27.344,33.691,37.109,16.602,0.0,0
1581971401.169,31.738000000000003,37.109,37.109,4.395,0.0,0
1581971401.173,20.996,37.109,34.18,14.16,0.0,0
1581971401.177,8.301,24.902,32.227,11.23,0.0,0
1581971401.181,14.648,18.555,32.227,4.883,0.0,0
1581971401.185,22.949,21.973000000000006,28.809,3.418,0.0,0
1581971401.188,11.23,27.832,35.645,5.859,0.0,0
1581971401.1920002,21.973000000000006,29.785,42.48,11.23,0.0,0
1581971401.196,46.387,37.109,46.875,23.438,0.0,0
1581971401.2,40.527,40.039,46.875,32.715,0.0,0
1581971401.204,23.438,23.438,41.01600000000001,26.367,0.0,0
1581971401.208,14.648,10.254,40.039,22.949,0.0,0
1581971401.212,15.625,21.484,30.762,17.578,0.0,0
1581971401.215,25.879,35.645,28.809,25.879,0.0,0
1581971401.219,30.762,29.297,39.551,23.438,0.0,0
1581971401.2229998,30.762,32.227,46.875,17.09,0.0,0
1581971401.2270002,36.133,30.762,34.668,30.273000000000003,0.0,0
1581971401.231,17.578,25.879,24.414,11.719,0.0,0
1581971401.2470002,15.625,31.738000000000003,39.062,5.859,0.0,0
1581971401.2510002,30.273000000000003,36.133,44.922,16.113,0.0,0
1581971401.255,20.508000000000006,35.156,30.762,20.508000000000006,0.0,0
1581971401.2589998,20.02,35.156,26.367,22.949,0.0,0
1581971401.2629998,22.461,38.574,35.645,13.672,0.0,0
1581971401.2670002,13.672,32.715,37.598,5.859,0.0,0
1581971401.271,12.207,27.344,36.133,5.371,0.0,0
1581971401.274,12.207,26.855,41.01600000000001,11.719,0.0,0
1581971401.278,20.02,27.344,40.039,18.066,0.0,0
1581971401.282,24.414,31.738000000000003,36.621,28.809,0.0,0
1581971401.286,21.973000000000006,33.691,40.039,24.414,0.0,0
1581971401.29,32.227,34.18,47.852,17.578,0.0,0
1581971401.292,39.551,33.691,45.898,14.648,0.0,0
1581971401.296,29.297,30.762,35.156,9.766,0.0,0
1581971401.3,15.137,24.414,36.621,27.344,0.0,0
1581971401.304,21.973000000000006,23.438,29.297,20.996,0.0,0
1581971401.3079998,34.18,31.25,27.344,7.812,0.0,0
1581971401.312,29.297,30.273000000000003,38.086,14.648,0.0,0
1581971401.316,22.461,28.32,41.992,14.648,0.0,0
1581971401.319,10.254,24.414,41.01600000000001,7.812,0.0,0
1581971401.323,8.301,25.391,41.504,22.949,0.0,0
1581971401.327,20.996,36.133,46.875,39.551,0.0,0
1581971401.331,18.066,32.715,39.551,18.555,0.0,0
1581971401.335,14.16,22.461,34.668,8.301,0.0,0
1581971401.337,28.32,23.926,35.645,22.461,0.0,0
1581971401.341,34.18,27.832,32.227,25.879,0.0,0
1581971401.345,16.113,27.344,28.809,14.648,0.0,0
1581971401.349,15.137,32.227,27.832,12.207,0.0,0
1581971401.353,28.809,39.062,29.785,14.16,0.0,0
1581971401.357,32.227,33.203,34.668,9.766,0.0,0
1581971401.361,35.645,28.809,35.645,12.207,0.0,0
1581971401.3639998,23.926,30.273000000000003,34.668,25.391,0.0,0
1581971401.3679998,23.438,28.809,35.645,28.809,0.0,0
1581971401.3720002,37.598,27.832,35.156,11.23,0.0,0
1581971401.3760002,22.949,32.227,29.785,16.113,0.0,0
1581971401.38,21.484,34.18,27.832,24.902,0.0,0
1581971401.3820002,28.809,30.762,36.621,16.113,0.0,0
1581971401.3860002,16.113,29.785,35.156,9.277,0.0,0
1581971401.39,12.207,32.715,21.484,13.184,0.0,0
1581971401.394,20.02,35.645,25.879,12.207,0.0,0
1581971401.3979998,11.719,27.344,41.992,-1.953,0.0,0
1581971401.4020002,12.207,31.738000000000003,45.41,3.418,0.0,0
1581971401.406,18.555,38.574,40.039,21.484,0.0,0
1581971401.409,14.16,29.297,37.109,22.461,0.0,0
1581971401.413,7.812,33.203,30.762,-0.488,0.0,0
1581971401.417,8.301,34.668,18.555,-9.277,0.0,0
1581971401.421,15.625,30.762,28.32,-2.441,0.0,0
1581971401.425,19.531,34.18,40.039,4.395,0.0,0
1581971401.428,21.973000000000006,34.668,35.645,9.766,0.0,0
1581971401.4320002,24.902,26.855,32.715,6.836,0.0,0
1581971401.436,22.949,26.367,35.645,3.906,0.0,0
1581971401.44,27.832,30.273000000000003,35.156,4.395,0.0,0
1581971401.444,27.832,26.367,33.203,3.418,0.0,0
1581971401.448,24.902,30.273000000000003,35.156,10.254,0.0,0
1581971401.452,27.832,36.133,27.344,14.16,0.0,0
1581971401.455,23.926,34.18,28.809,12.695,0.0,0
1581971401.459,7.324,27.344,35.645,6.836,0.0,0
1581971401.4629998,11.719,21.973000000000006,30.762,-7.324,0.0,0
1581971401.467,35.645,27.344,35.156,6.348,0.0,0
1581971401.471,41.01600000000001,33.203,44.922,15.625,0.0,0
1581971401.472,23.926,33.203,41.504,11.719,0.0,0
1581971401.476,17.578,36.621,32.715,19.043,0.0,0
1581971401.48,14.648,34.18,35.156,17.578,0.0,0
1581971401.484,18.555,32.227,42.969,16.113,0.0,0
1581971401.488,41.01600000000001,33.203,41.01600000000001,15.625,0.0,0
1581971401.492,39.062,35.156,36.133,17.09,0.0,0
1581971401.496,10.742,33.203,34.18,22.461,0.0,0
1581971401.4989998,10.742,30.273000000000003,28.809,18.555,0.0,0
1581971401.5029998,21.484,30.762,33.203,6.836,0.0,0
1581971401.5070002,28.809,35.156,36.621,2.93,0.0,0
1581971401.5110002,37.109,38.086,41.504,14.16,0.0,0
1581971401.515,37.598,28.32,45.41,18.066,0.0,0
1581971401.518,28.32,17.09,40.039,16.602,0.0,0
1581971401.522,20.508000000000006,22.461,31.738000000000003,16.602,0.0,0
1581971401.526,23.926,33.203,31.738000000000003,15.625,0.0,0
1581971401.53,24.414,27.832,34.668,9.277,0.0,0
1581971401.534,34.18,25.879,34.18,6.348,0.0,0
1581971401.538,25.391,34.668,31.738000000000003,19.043,0.0,0
1581971401.542,-1.465,35.645,28.809,7.324,0.0,0
1581971401.545,4.395,34.18,35.156,-13.184,0.0,0
1581971401.549,18.066,25.879,35.645,-0.977,0.0,0
1581971401.553,27.832,27.832,37.598,-0.488,0.0,0
1581971401.5570002,23.438,32.715,42.48,0.977,0.0,0
1581971401.561,26.367,20.996,29.785,4.883,0.0,0
1581971401.562,32.227,16.113,22.461,9.277,0.0,0
1581971401.566,31.25,25.391,37.109,23.438,0.0,0
1581971401.57,19.531,15.625,41.992,17.578,0.0,0
1581971401.574,17.578,22.461,32.715,1.953,0.0,0
1581971401.5779998,33.691,44.434,36.133,14.648,0.0,0
1581971401.582,36.133,42.48,44.434,19.043,0.0,0
1581971401.586,28.809,31.738000000000003,33.203,-0.977,0.0,0
1581971401.589,25.391,29.785,27.832,-4.395,0.0,0
1581971401.593,25.391,33.203,29.297,2.93,0.0,0
1581971401.597,16.602,38.574,27.344,2.93,0.0,0
1581971401.601,17.09,29.785,33.691,9.766,0.0,0
1581971401.605,22.461,23.438,37.598,13.672,0.0,0
1581971401.6220002,15.137,28.32,35.156,19.043,0.0,0
1581971401.6260002,22.949,31.738000000000003,37.109,12.695,0.0,0
1581971401.63,30.273000000000003,24.414,42.969,1.465,0.0,0
1581971401.6339998,10.254,19.531,46.875,11.23,0.0,0
1581971401.6379998,13.672,28.32,41.992,12.207,0.0,0
1581971401.6420002,22.461,31.738000000000003,38.086,16.113,0.0,0
1581971401.646,18.555,27.344,32.715,5.859,0.0,0
1581971401.649,17.578,21.484,38.574,11.719,0.0,0
1581971401.653,18.555,20.02,42.48,21.484,0.0,0
1581971401.657,26.855,26.855,40.039,7.324,0.0,0
1581971401.661,41.992,30.273000000000003,38.574,23.926,0.0,0
1581971401.665,30.762,31.25,29.785,27.832,0.0,0
1581971401.667,14.16,36.133,36.133,2.93,0.0,0
1581971401.671,18.066,30.762,42.48,8.301,0.0,0
1581971401.675,13.184,22.461,37.109,5.371,0.0,0
1581971401.679,26.367,21.973000000000006,39.062,6.836,0.0,0
1581971401.6829998,23.926,17.578,44.922,10.742,0.0,0
1581971401.687,-3.906,24.902,44.434,7.324,0.0,0
1581971401.691,-0.488,31.738000000000003,42.969,24.414,0.0,0
1581971401.694,6.836,25.879,46.387,28.809,0.0,0
1581971401.698,11.719,23.926,43.945,6.836,0.0,0
1581971401.702,14.648,27.344,41.01600000000001,15.137,0.0,0
1581971401.706,16.602,33.691,43.457,14.648,0.0,0
1581971401.71,26.367,32.715,40.527,-1.465,0.0,0
1581971401.712,23.926,25.879,38.086,5.371,0.0,0
1581971401.716,14.648,22.461,40.527,12.695,0.0,0
1581971401.72,20.996,20.02,39.551,20.508000000000006,0.0,0
1581971401.724,24.902,22.949,41.992,21.484,0.0,0
1581971401.728,17.09,25.391,50.293,23.438,0.0,0
1581971401.732,19.531,19.043,47.363,25.391,0.0,0
1581971401.736,18.066,19.043,39.062,22.461,0.0,0
1581971401.7389998,30.273000000000003,29.785,39.062,14.16,0.0,0
1581971401.7429998,31.25,35.645,43.457,16.113,0.0,0
1581971401.7470002,18.555,28.809,43.457,30.273000000000003,0.0,0
1581971401.7510002,19.531,17.578,38.086,21.973000000000006,0.0,0
1581971401.755,19.531,21.973000000000006,38.574,12.207,0.0,0
1581971401.7570002,27.832,31.738000000000003,44.434,14.648,0.0,0
1581971401.7610002,31.738000000000003,25.879,45.41,15.137,0.0,0
1581971401.765,25.879,14.648,44.434,14.16,0.0,0
1581971401.769,24.902,14.16,42.969,16.602,0.0,0
1581971401.7729998,27.344,22.461,41.504,25.391,0.0,0
1581971401.7770002,29.297,25.391,41.504,19.531,0.0,0
1581971401.781,30.762,30.762,36.133,4.395,0.0,0
1581971401.784,12.207,32.715,33.691,-2.93,0.0,0
1581971401.788,7.812,29.785,37.109,-3.906,0.0,0
1581971401.792,9.766,22.461,38.086,-0.977,0.0,0
1581971401.796,3.418,22.949,43.457,12.695,0.0,0
1581971401.8,8.789,26.367,46.875,18.066,0.0,0
1581971401.802,17.578,21.973000000000006,41.01600000000001,8.789,0.0,0
1581971401.806,19.531,23.926,40.039,7.324,0.0,0
1581971401.81,23.926,28.809,41.01600000000001,14.648,0.0,0
1581971401.814,41.504,27.344,37.598,18.066,0.0,0
1581971401.8179998,39.062,25.391,35.156,19.043,0.0,0
1581971401.822,27.832,28.32,36.621,18.066,0.0,0
1581971401.826,11.23,30.273000000000003,41.504,10.742,0.0,0
1581971401.829,10.742,27.832,41.992,15.137,0.0,0
1581971401.833,36.621,23.926,39.062,8.301,0.0,0
1581971401.837,27.344,20.996,37.109,8.789,0.0,0
1581971401.841,10.742,20.02,38.086,28.32,0.0,0
1581971401.845,15.625,20.996,36.133,20.02,0.0,0
1581971401.847,9.766,28.809,36.621,5.859,0.0,0
1581971401.851,11.719,28.809,35.645,8.789,0.0,0
1581971401.855,15.137,25.391,29.297,13.672,0.0,0
1581971401.859,23.438,32.715,34.18,16.602,0.0,0
1581971401.863,25.391,37.598,44.922,23.926,0.0,0
1581971401.867,15.625,27.832,46.875,13.672,0.0,0
1581971401.871,18.555,30.762,47.363,6.836,0.0,0
1581971401.8739998,29.785,37.109,50.293,20.508000000000006,0.0,0
1581971401.8779998,30.273000000000003,36.133,42.48,20.02,0.0,0
1581971401.8820002,23.438,32.715,38.574,20.996,0.0,0
1581971401.8860002,26.367,24.414,42.48,25.391,0.0,0
1581971401.89,23.926,19.043,40.527,23.438,0.0,0
1581971401.8920002,37.598,23.438,40.527,19.043,0.0,0
1581971401.896,48.828,21.484,39.551,13.184,0.0,0
1581971401.9,26.855,18.066,36.133,13.184,0.0,0
1581971401.904,16.113,25.879,45.41,18.555,0.0,0
1581971401.908,18.066,28.809,51.758,26.855,0.0,0
1581971401.9120002,22.461,29.785,43.457,17.09,0.0,0
1581971401.916,17.578,29.785,39.062,19.531,0.0,0
1581971401.919,15.625,28.809,41.504,22.461,0.0,0
1581971401.923,30.762,33.203,37.109,5.859,0.0,0
1581971401.927,38.574,38.086,43.457,19.043,0.0,0
1581971401.931,32.227,37.109,48.828,30.273000000000003,0.0,0
1581971401.935,15.137,34.668,39.062,21.973000000000006,0.0,0
1581971401.937,12.207,31.25,36.621,13.672,0.0,0
1581971401.941,18.066,27.832,35.645,13.184,0.0,0
1581971401.945,25.391,31.738000000000003,41.01600000000001,20.508000000000006,0.0,0
1581971401.949,35.645,36.133,43.945,18.555,0.0,0
1581971401.9529998,24.414,28.809,43.945,18.066,0.0,0
1581971401.957,35.156,27.832,46.875,25.879,0.0,0
1581971401.961,36.621,32.227,46.387,10.742,0.0,0
1581971401.964,9.766,32.227,41.992,1.465,0.0,0
1581971401.968,13.184,30.762,47.363,21.973000000000006,0.0,0
1581971401.972,24.414,27.344,48.34,21.973000000000006,0.0,0
1581971401.976,28.32,34.18,39.062,14.16,0.0,0
1581971401.98,38.574,34.668,37.598,17.09,0.0,0
1581971401.9970002,32.715,28.809,44.434,28.32,0.0,0
1581971402.0010002,16.113,26.367,47.852,30.273000000000003,0.0,0
1581971402.005,31.25,28.32,41.01600000000001,21.973000000000006,0.0,1
1581971402.0089998,37.109,29.297,38.086,26.367,0.0,0
1581971402.0129998,27.832,26.855,38.086,21.484,0.0,0
1581971402.0170002,31.25,28.32,40.039,7.324,0.0,0
1581971402.021,32.715,29.297,42.48,9.766,0.0,0
1581971402.024,34.18,29.785,35.645,9.766,0.0,0
1581971402.028,33.203,32.227,37.598,10.254,0.0,0
1581971402.032,13.672,31.25,37.598,9.766,0.0,0
1581971402.036,18.066,29.297,33.203,1.465,0.0,0
1581971402.04,25.879,26.367,39.551,2.93,0.0,0
1581971402.042,41.992,22.949,40.039,11.23,0.0,0
1581971402.046,41.504,24.414,41.504,33.691,0.0,0
1581971402.05,25.391,27.344,36.621,34.18,0.0,0
1581971402.054,23.438,30.762,30.762,11.23,0.0,0
1581971402.0579998,21.484,33.203,38.086,7.812,0.0,0
1581971402.062,7.812,31.25,39.062,8.301,0.0,0
1581971402.066,4.395,29.297,41.992,5.859,0.0,0
1581971402.069,14.16,30.273000000000003,45.41,9.766,0.0,0
1581971402.073,18.555,28.32,43.945,4.883,0.0,0
1581971402.077,21.973000000000006,22.949,39.551,7.324,0.0,0
1581971402.081,15.625,28.809,36.133,7.324,0.0,0
1581971402.085,24.414,35.156,36.621,3.418,0.0,0
1581971402.087,34.18,35.156,36.621,12.207,0.0,0
1581971402.091,21.484,39.062,34.668,12.695,0.0,0
1581971402.095,16.602,36.133,38.086,14.16,0.0,0
1581971402.099,13.672,25.879,42.969,27.344,0.0,0
1581971402.103,29.297,27.344,43.945,22.949,0.0,0
1581971402.107,29.297,36.133,44.434,30.762,0.0,0
1581971402.111,11.719,33.203,41.504,19.043,0.0,0
1581971402.1139998,14.16,27.832,40.527,20.508000000000006,0.0,0
1581971402.1179998,18.555,30.273000000000003,46.875,36.133,0.0,0
1581971402.1220002,13.184,35.156,46.875,8.301,0.0,0
1581971402.1260002,20.02,36.133,43.457,18.555,0.0,0
1581971402.13,38.574,34.18,43.457,30.273000000000003,0.0,0
1581971402.1320002,25.879,31.738000000000003,42.48,2.93,0.0,0
1581971402.1360002,22.461,34.18,36.133,-1.465,0.0,0
1581971402.14,31.25,33.691,36.621,19.531,0.0,0
1581971402.144,17.09,29.785,42.48,25.879,0.0,0
1581971402.1479998,17.09,25.391,42.48,13.672,0.0,0
1581971402.1520002,27.344,20.508000000000006,41.01600000000001,10.742,0.0,0
1581971402.156,33.691,29.297,42.48,18.066,0.0,0
1581971402.159,26.855,28.809,41.01600000000001,19.531,0.0,0
1581971402.163,22.461,27.344,30.762,16.602,0.0,0
1581971402.167,23.438,35.156,26.367,17.09,0.0,0
1581971402.171,19.043,35.645,32.715,7.812,0.0,0
1581971402.175,19.531,37.109,33.203,2.441,0.0,0
1581971402.177,25.391,34.668,34.18,19.043,0.0,0
1581971402.181,29.297,33.203,40.527,24.414,0.0,0
1581971402.185,30.273000000000003,35.156,39.551,17.578,0.0,0
1581971402.189,24.414,36.621,35.645,26.367,0.0,0
1581971402.1929998,23.926,34.668,42.969,22.461,0.0,0
1581971402.197,23.438,23.926,45.898,19.531,0.0,0
1581971402.201,22.461,21.484,39.062,28.809,0.0,0
1581971402.204,35.156,31.738000000000003,40.039,14.648,0.0,0
1581971402.208,34.668,35.156,37.109,1.465,0.0,0
1581971402.212,17.09,27.344,33.691,16.602,0.0,0
1581971402.216,24.414,21.484,37.598,7.324,0.0,0
1581971402.22,25.879,20.508000000000006,41.01600000000001,3.418,0.0,0
1581971402.222,15.137,31.738000000000003,42.48,12.207,0.0,0
1581971402.226,19.043,38.574,43.457,11.719,0.0,0
1581971402.23,24.902,29.785,41.992,8.301,0.0,0
1581971402.234,20.996,29.297,42.969,9.766,0.0,0
1581971402.238,28.32,31.738000000000003,41.01600000000001,12.207,0.0,0
1581971402.242,30.273000000000003,30.273000000000003,35.645,29.785,0.0,0
1581971402.246,30.762,31.738000000000003,39.062,34.18,0.0,0
1581971402.2489998,31.738000000000003,37.109,42.48,15.137,0.0,0
1581971402.2529998,28.32,40.039,39.062,11.23,0.0,0
1581971402.2570002,36.133,41.01600000000001,33.691,4.883,0.0,0
1581971402.2610002,39.062,41.504,34.18,8.301,0.0,0
1581971402.265,37.598,38.574,31.738000000000003,12.207,0.0,0
1581971402.2670002,43.457,33.691,31.738000000000003,8.301,0.0,0
1581971402.271,34.18,25.391,36.621,12.207,0.0,0
1581971402.275,33.203,28.32,37.598,24.902,0.0,0
1581971402.279,41.992,37.598,41.992,30.762,0.0,0
1581971402.283,35.156,34.18,44.434,20.996,0.0,0
1581971402.2870002,33.691,30.762,48.34,28.809,0.0,0
1581971402.291,33.691,36.133,49.316,32.715,0.0,0
1581971402.294,42.48,28.809,50.293,19.531,0.0,0
1581971402.298,51.758,24.902,49.805,17.09,0.0,0
1581971402.302,57.617,38.086,49.805,22.461,0.0,0
1581971402.306,38.574,38.086,48.34,33.203,0.0,0
1581971402.31,24.414,28.809,41.992,29.785,0.0,0
1581971402.312,35.645,28.809,41.504,23.926,0.0,0
1581971402.316,28.32,31.738000000000003,42.969,26.855,0.0,0
1581971402.32,21.484,26.855,39.062,29.785,0.0,0
1581971402.324,41.992,30.762,39.062,27.344,0.0,0
1581971402.3279998,40.527,38.086,44.922,13.672,0.0,0
1581971402.332,13.184,35.645,48.34,16.602,0.0,0
1581971402.336,3.906,28.32,45.41,27.832,0.0,0
1581971402.339,13.184,23.438,44.922,19.531,0.0,0
1581971402.343,34.18,28.32,42.969,6.836,0.0,0
1581971402.347,35.156,35.645,33.691,9.766,0.0,0
1581971402.351,31.738000000000003,41.01600000000001,31.25,17.09,0.0,0
1581971402.355,34.18,38.086,40.039,21.973000000000006,0.0,0
1581971402.3579998,33.691,32.715,49.316,29.785,0.0,0
1581971402.3620002,29.785,30.762,55.176,26.367,0.0,0
1581971402.3660002,23.926,31.738000000000003,55.176,20.508000000000006,0.0,0
1581971402.37,33.203,36.133,54.688,27.832,0.0,0
1581971402.3739998,35.156,36.133,47.363,34.18,0.0,0
1581971402.3779998,32.715,33.203,41.01600000000001,25.391,0.0,0
1581971402.3820002,38.086,37.109,42.969,18.066,0.0,0
1581971402.385,34.668,39.551,42.969,17.578,0.0,0
1581971402.389,33.691,32.715,39.062,8.789,0.0,0
1581971402.393,32.715,31.25,39.062,8.301,0.0,0
1581971402.397,34.18,27.832,38.574,16.113,0.0,0
1581971402.401,31.738000000000003,27.344,41.01600000000001,15.137,0.0,0
1581971402.417,35.156,34.18,40.527,22.949,0.0,0
1581971402.421,41.992,37.598,43.945,25.879,0.0,0
1581971402.425,27.832,35.645,44.922,17.578,0.0,0
1581971402.429,26.855,31.25,40.527,21.973000000000006,0.0,0
1581971402.4329998,34.668,26.367,37.109,28.809,0.0,0
1581971402.437,22.949,32.227,32.715,27.344,0.0,0
1581971402.441,23.926,35.645,34.668,27.344,0.0,0
1581971402.444,32.227,37.109,34.18,8.789,0.0,0
1581971402.448,20.02,37.109,28.32,0.0,0.0,0
1581971402.452,29.297,28.32,35.645,8.789,0.0,0
1581971402.456,51.758,22.949,48.828,14.16,0.0,0
1581971402.46,33.203,28.32,41.504,20.996,0.0,0
1581971402.462,18.066,30.273000000000003,37.109,21.973000000000006,0.0,0
1581971402.466,28.809,28.809,45.898,35.645,0.0,0
1581971402.47,27.832,29.785,41.992,27.344,0.0,0
1581971402.474,18.066,31.738000000000003,33.691,12.695,0.0,0
1581971402.478,26.367,41.504,36.133,23.438,0.0,0
1581971402.482,30.273000000000003,35.156,41.504,16.602,0.0,0
1581971402.486,17.09,27.344,43.945,-0.488,0.0,0
1581971402.4889998,21.484,34.18,42.969,-3.418,0.0,0
1581971402.4929998,24.902,33.203,40.527,-3.418,0.0,0
1581971402.4970002,22.461,34.18,44.434,1.953,0.0,0
1581971402.5010002,33.203,35.156,44.434,6.348,0.0,0
1581971402.505,32.227,31.738000000000003,39.551,13.672,0.0,0
1581971402.5070002,23.926,34.668,41.01600000000001,33.203,0.0,0
1581971402.5110002,30.762,33.203,45.898,23.926,0.0,0
1581971402.515,26.367,27.344,43.945,4.883,0.0,0
1581971402.519,15.625,24.902,38.574,11.719,0.0,0
1581971402.5229998,17.09,30.273000000000003,33.203,8.789,0.0,0
1581971402.5270002,9.766,33.203,35.645,1.953,0.0,0
1581971402.531,14.16,34.18,34.18,-0.488,0.0,0
1581971402.534,25.879,41.504,27.832,-1.953,0.0,0
1581971402.538,19.043,36.621,33.203,-9.277,0.0,0
1581971402.542,9.766,34.668,36.133,-3.418,0.0,0
1581971402.546,18.555,38.086,38.574,20.02,0.0,0
1581971402.55,28.32,34.18,43.457,30.762,0.0,0
1581971402.552,32.227,31.25,39.062,29.785,0.0,0
1581971402.556,33.691,32.227,39.062,6.836,0.0,0
1581971402.56,34.18,30.273000000000003,40.039,2.93,0.0,0
1581971402.564,32.227,23.926,39.062,17.578,0.0,0
1581971402.5679998,25.391,31.25,39.062,6.836,0.0,0
1581971402.572,20.996,35.645,36.621,3.418,0.0,0
1581971402.576,13.672,26.855,41.504,4.883,0.0,0
1581971402.579,16.113,24.902,43.945,15.625,0.0,0
1581971402.583,39.062,26.367,43.945,16.602,0.0,0
1581971402.587,19.043,20.508000000000006,39.062,-7.812,0.0,0
1581971402.591,-2.441,24.902,31.25,-6.348,0.0,0
1581971402.595,19.043,24.414,41.504,2.93,0.0,0
1581971402.5979998,27.344,26.367,41.992,9.766,0.0,0
1581971402.6020002,17.09,35.645,36.621,8.789,0.0,0
1581971402.606,11.719,29.297,44.922,3.906,0.0,0
1581971402.61,14.648,26.855,44.922,18.555,0.0,0
1581971402.6139998,14.16,23.926,41.992,25.879,0.0,0
1581971402.6179998,23.926,18.066,44.922,24.414,0.0,0
1581971402.6220002,32.715,19.531,36.133,25.391,0.0,0
1581971402.625,20.508000000000006,19.043,30.273000000000003,10.742,0.0,0
1581971402.629,14.648,24.414,37.109,0.977,0.0,0
1581971402.633,24.414,32.715,41.992,7.812,0.0,0
1581971402.637,29.297,29.297,44.922,5.371,0.0,0
1581971402.641,18.555,19.531,40.039,-6.836,0.0,0
1581971402.6420002,11.23,20.508000000000006,34.18,5.371,0.0,0
1581971402.646,17.09,19.043,37.598,12.207,0.0,0
1581971402.65,14.16,19.043,35.645,-2.93,0.0,0
1581971402.654,23.926,31.25,33.203,4.883,0.0,0
1581971402.658,35.645,31.738000000000003,37.598,20.996,0.0,0
1581971402.6620002,29.297,32.715,42.48,15.625,0.0,0
1581971402.666,19.531,34.18,41.01600000000001,0.488,0.0,0
1581971402.669,12.207,28.32,34.18,-3.418,0.0,0
1581971402.673,18.066,22.949,33.203,19.531,0.0,0
1581971402.677,17.578,22.461,40.527,25.391,0.0,0
1581971402.681,20.02,23.926,41.992,5.371,0.0,0
1581971402.685,21.973000000000006,26.367,38.574,7.812,0.0,0
1581971402.687,33.691,28.32,45.898,18.555,0.0,0
1581971402.691,33.691,26.367,49.805,11.719,0.0,0
1581971402.695,28.32,20.508000000000006,38.086,-0.488,0.0,0
1581971402.699,24.414,21.484,34.668,2.441,0.0,0
1581971402.7029998,7.812,20.996,36.621,5.859,0.0,0
1581971402.707,1.465,19.531,28.809,9.277,0.0,0
1581971402.711,10.742,28.32,21.973000000000006,7.812,0.0,0
1581971402.714,20.996,27.344,26.855,2.93,0.0,0
1581971402.718,20.508000000000006,28.809,35.645,-2.441,0.0,0
1581971402.722,16.113,36.133,41.01600000000001,1.953,0.0,0
1581971402.726,17.578,32.227,37.109,13.672,0.0,0
1581971402.73,23.926,28.809,37.598,2.441,0.0,0
1581971402.748,23.926,27.832,46.387,0.0,0.0,0
1581971402.752,18.555,25.879,46.875,1.465,0.0,0
1581971402.756,31.738000000000003,21.973000000000006,41.992,13.184,0.0,0
1581971402.76,37.109,24.902,40.039,14.648,0.0,0
1581971402.764,17.578,31.25,35.156,15.137,0.0,0
1581971402.768,9.277,31.25,38.086,23.438,0.0,0
1581971402.772,24.902,30.273000000000003,45.898,8.301,0.0,0
1581971402.775,38.086,34.18,42.969,-0.977,0.0,0
1581971402.779,27.344,36.133,30.273000000000003,5.371,0.0,0
1581971402.783,20.508000000000006,37.598,28.32,6.348,0.0,0
1581971402.7870002,18.066,34.668,34.668,9.277,0.0,0
1581971402.791,16.602,36.133,37.109,29.785,0.0,0
1581971402.792,20.02,25.879,37.598,19.531,0.0,0
1581971402.796,11.719,12.207,37.598,1.465,0.0,0
1581971402.8,3.418,19.043,39.062,4.883,0.0,0
1581971402.804,15.625,28.809,35.645,6.836,0.0,0
1581971402.8079998,24.414,34.668,34.18,2.93,0.0,0
1581971402.812,20.02,31.738000000000003,40.039,10.742,0.0,0
1581971402.816,23.438,25.391,38.574,8.301,0.0,0
1581971402.819,38.574,20.508000000000006,37.598,15.137,0.0,0
1581971402.823,22.949,30.762,37.598,16.602,0.0,0
1581971402.827,20.02,40.039,34.18,4.395,0.0,0
1581971402.831,33.203,37.598,32.227,10.742,0.0,0
1581971402.835,29.297,31.25,29.297,19.043,0.0,0
1581971402.837,19.043,21.973000000000006,28.32,4.395,0.0,0
1581971402.841,18.555,22.461,29.297,4.395,0.0,0
1581971402.845,11.719,20.508000000000006,26.855,8.789,0.0,0
1581971402.849,8.301,20.508000000000006,29.297,15.137,0.0,0
1581971402.853,27.832,31.25,36.621,18.066,0.0,0
1581971402.857,29.297,29.297,28.809,8.301,0.0,0
1581971402.861,30.273000000000003,28.809,26.367,13.184,0.0,0
1581971402.8639998,44.922,34.18,33.691,22.949,0.0,0
1581971402.8679998,39.551,31.25,32.227,24.414,0.0,0
1581971402.8720002,30.762,28.809,40.039,20.02,0.0,0
1581971402.8760002,43.457,28.809,38.574,0.977,0.0,0
1581971402.88,31.738000000000003,32.227,29.297,-2.93,0.0,0
1581971402.8820002,10.254,32.715,21.973000000000006,1.953,0.0,0
1581971402.8860002,11.23,27.832,30.273000000000003,3.906,0.0,0
1581971402.89,3.906,27.832,40.527,15.137,0.0,0
1581971402.894,11.719,27.832,31.738000000000003,7.324,0.0,0
1581971402.8979998,19.531,28.809,31.25,3.418,0.0,0
1581971402.9020002,17.578,30.273000000000003,35.645,9.277,0.0,0
1581971402.906,28.809,28.32,31.25,23.926,0.0,0
1581971402.909,21.973000000000006,20.996,35.156,27.344,0.0,0
1581971402.913,20.508000000000006,13.672,39.551,23.926,0.0,0
1581971402.917,40.527,25.391,39.551,7.812,0.0,0
1581971402.921,29.297,37.109,40.039,1.465,0.0,0
1581971402.925,13.184,35.645,39.062,13.672,0.0,0
1581971402.927,16.113,29.297,38.574,14.16,0.0,0
1581971402.931,31.25,30.273000000000003,38.086,14.16,0.0,0
1581971402.935,48.34,37.109,37.109,30.762,0.0,0
1581971402.939,47.852,36.621,34.18,28.809,0.0,0
1581971402.9429998,35.156,34.668,35.156,8.301,0.0,0
1581971402.947,35.156,30.273000000000003,39.062,19.043,0.0,0
1581971402.951,32.715,33.691,36.621,14.16,0.0,0
1581971402.954,26.855,35.645,32.715,-5.371,0.0,0
1581971402.958,31.25,25.879,33.691,7.812,0.0,0
1581971402.962,23.438,29.785,29.297,25.391,0.0,0
1581971402.966,24.902,35.156,30.762,3.906,0.0,0
1581971402.97,20.508000000000006,28.32,39.551,-11.23,0.0,0
1581971402.972,17.09,24.414,41.992,-1.465,0.0,0
1581971402.976,33.203,22.949,38.086,13.184,0.0,0
1581971402.98,33.691,30.762,35.645,17.578,0.0,0
1581971402.984,19.531,29.297,35.645,18.066,0.0,0
1581971402.988,31.25,28.809,36.621,30.273000000000003,0.0,0
1581971402.992,26.367,30.273000000000003,41.504,24.414,0.0,0
1581971402.996,21.484,29.297,41.992,16.602,0.0,0
1581971402.9989998,26.367,26.855,37.109,10.254,0.0,0
1581971403.0029998,12.207,23.438,29.297,9.277,0.0,0
1581971403.0070002,27.832,21.973000000000006,32.715,20.02,0.0,0
1581971403.0110002,28.809,20.996,35.645,9.277,0.0,0
1581971403.015,19.531,31.738000000000003,33.691,1.465,0.0,0
1581971403.0170002,34.18,33.691,38.086,9.766,0.0,0
1581971403.021,32.715,29.297,34.668,15.137,0.0,0
1581971403.025,26.367,31.25,30.762,12.695,0.0,0
1581971403.029,27.344,22.461,32.227,6.836,0.0,0
1581971403.033,21.484,21.484,31.25,1.953,0.0,0
1581971403.0370002,18.066,23.926,37.598,11.23,0.0,0
1581971403.041,13.672,25.879,41.992,14.16,0.0,0
1581971403.044,21.973000000000006,34.668,40.527,3.906,0.0,0
1581971403.048,26.367,30.273000000000003,41.504,14.16,0.0,0
1581971403.052,7.812,27.832,38.086,13.184,0.0,0
1581971403.056,19.531,30.273000000000003,30.762,14.648,0.0,0
1581971403.06,29.785,29.297,38.086,23.438,0.0,0
1581971403.062,20.508000000000006,25.879,44.434,19.531,0.0,0
1581971403.066,33.203,23.926,41.01600000000001,13.672,0.0,0
1581971403.07,33.203,32.227,40.527,16.113,0.0,0
1581971403.074,14.648,30.762,40.527,15.137,0.0,0
1581971403.0779998,16.602,26.367,39.551,2.441,0.0,0
1581971403.082,17.578,34.18,36.133,-1.465,0.0,0
1581971403.086,14.648,31.738000000000003,37.598,-0.977,0.0,0
1581971403.089,11.23,33.691,31.738000000000003,6.836,0.0,0
1581971403.093,18.555,40.039,25.391,3.906,0.0,0
1581971403.097,30.273000000000003,29.785,36.621,-2.93,0.0,0
1581971403.101,25.391,26.367,46.387,5.859,0.0,0
1581971403.105,30.273000000000003,26.367,46.387,8.789,0.0,0
1581971403.1220002,25.391,31.738000000000003,42.969,11.719,0.0,0
1581971403.1260002,7.812,39.062,39.062,11.719,0.0,0
1581971403.13,9.277,37.598,36.133,8.301,0.0,0
1581971403.1339998,11.719,36.621,34.668,28.32,0.0,0
1581971403.1379998,18.555,34.18,40.527,22.461,0.0,0
1581971403.1420002,25.391,33.203,49.805,8.301,0.0,0
1581971403.146,15.625,31.25,41.504,6.836,0.0,0
1581971403.149,16.602,23.438,26.855,4.395,0.0,0
1581971403.153,21.973000000000006,28.32,34.18,11.719,0.0,0
1581971403.157,20.02,35.645,41.992,26.367,0.0,0
1581971403.161,19.531,31.25,39.551,18.555,0.0,0
1581971403.165,10.254,30.762,37.109,3.418,0.0,0
1581971403.167,13.184,33.203,31.738000000000003,12.695,0.0,0
1581971403.171,18.066,33.203,30.762,10.254,0.0,0
1581971403.175,18.066,31.25,39.551,11.719,0.0,0
1581971403.179,29.785,32.227,44.434,16.602,0.0,0
1581971403.1829998,34.668,25.879,42.969,17.09,0.0,0
1581971403.187,28.32,28.809,39.062,10.254,0.0,0
1581971403.191,26.367,39.551,37.598,9.277,0.0,0
1581971403.194,14.16,41.992,43.457,10.742,0.0,0
1581971403.198,8.789,42.969,41.504,6.348,0.0,1
1581971403.202,18.555,36.133,37.598,10.742,0.0,0
1581971403.206,20.996,34.668,38.086,8.789,0.0,0
1581971403.21,20.996,40.039,40.527,6.348,0.0,0
1581971403.212,29.785,32.227,44.434,10.742,0.0,0
1581971403.216,23.438,32.715,43.457,10.742,0.0,0
1581971403.22,4.395,36.621,38.574,-0.977,0.0,0
1581971403.224,18.066,31.25,31.738000000000003,3.418,0.0,0
1581971403.228,28.809,36.133,31.25,7.812,0.0,0
1581971403.232,20.996,35.645,35.156,1.465,0.0,0
1581971403.236,21.973000000000006,32.715,26.855,11.719,0.0,0
1581971403.2389998,24.414,34.18,24.902,1.953,0.0,0
1581971403.2429998,27.832,35.156,37.598,-2.93,0.0,0
1581971403.2470002,8.789,32.227,40.039,6.348,0.0,0
1581971403.2510002,4.395,29.785,36.621,6.836,0.0,0
1581971403.255,25.879,32.715,41.504,13.672,0.0,0
1581971403.2570002,36.621,32.715,41.01600000000001,5.371,0.0,0
1581971403.2610002,36.621,35.645,36.621,3.418,0.0,0
1581971403.265,34.18,36.621,38.574,15.137,0.0,0
1581971403.269,33.203,32.715,37.598,21.973000000000006,0.0,0
1581971403.2729998,36.133,37.598,36.621,13.672,0.0,0
1581971403.2770002,35.156,41.01600000000001,42.969,15.137,0.0,0
1581971403.281,13.184,36.133,39.551,18.066,0.0,0
1581971403.284,18.555,39.551,41.01600000000001,14.16,0.0,0
1581971403.288,28.809,44.434,43.945,16.113,0.0,0
1581971403.292,20.02,37.598,38.086,9.766,0.0,0
1581971403.296,25.391,29.297,30.762,23.438,0.0,0
1581971403.3,19.531,27.344,31.738000000000003,23.926,0.0,0
1581971403.302,19.043,28.32,36.621,3.418,0.0,0
1581971403.306,5.371,27.832,38.574,-0.977,0.0,0
1581971403.31,-2.441,28.32,46.875,9.277,0.0,0
1581971403.314,7.324,31.738000000000003,43.945,12.695,0.0,0
1581971403.3179998,10.742,32.715,41.01600000000001,5.859,0.0,0
1581971403.322,17.578,33.203,42.48,10.254,0.0,0
1581971403.326,20.02,35.156,40.039,19.531,0.0,0
1581971403.329,24.902,31.25,41.01600000000001,28.32,0.0,0
1581971403.333,37.598,27.344,41.504,26.855,0.0,0
1581971403.337,53.223,33.203,32.227,25.391,0.0,0
1581971403.341,37.109,39.551,28.809,20.508000000000006,0.0,0
1581971403.345,23.438,35.645,31.738000000000003,12.695,0.0,0
1581971403.347,26.855,34.18,37.598,18.066,0.0,0
1581971403.351,35.645,39.062,38.086,13.184,0.0,0
1581971403.355,40.527,35.645,36.133,25.391,0.0,0
1581971403.359,21.484,28.32,40.039,29.785,0.0,0
1581971403.363,26.367,34.668,35.156,20.508000000000006,0.0,0
1581971403.367,37.109,41.504,31.25,14.648,0.0,0
1581971403.371,24.414,34.668,37.109,8.789,0.0,0
1581971403.3739998,21.484,34.668,40.039,21.973000000000006,0.0,0
1581971403.3779998,21.973000000000006,39.062,40.039,28.809,0.0,0
1581971403.3820002,22.949,36.133,38.574,5.859,0.0,0
1581971403.3860002,20.996,30.762,34.668,1.953,0.0,0
1581971403.39,22.461,30.762,41.992,25.879,0.0,0
1581971403.3920002,21.484,34.18,43.945,20.02,0.0,0
1581971403.396,15.625,37.598,46.875,10.742,0.0,0
1581971403.4,36.621,33.203,44.434,9.766,0.0,0
1581971403.404,33.691,33.203,41.01600000000001,18.555,0.0,0
1581971403.408,13.184,31.25,41.504,28.32,0.0,0
1581971403.4120002,14.648,29.297,34.668,25.879,0.0,0
1581971403.416,24.414,34.668,29.785,31.25,0.0,0
1581971403.419,23.438,34.18,32.227,27.344,0.0,0
1581971403.423,16.113,33.203,40.039,22.461,0.0,0
1581971403.427,28.809,33.691,42.48,20.996,0.0,0
1581971403.431,41.01600000000001,39.062,40.527,21.973000000000006,0.0,0
1581971403.435,37.109,42.969,37.598,20.02,0.0,0
1581971403.437,26.855,36.133,42.48,22.949,0.0,0
1581971403.441,28.32,32.227,45.898,30.273000000000003,0.0,0
1581971403.445,27.344,29.297,38.086,24.902,0.0,0
1581971403.449,28.32,26.367,32.227,27.832,0.0,0
1581971403.4529998,32.227,34.18,38.574,29.785,0.0,0
1581971403.457,32.227,33.203,38.086,22.461,0.0,0
1581971403.461,40.039,31.25,27.832,16.602,0.0,0
1581971403.464,41.992,40.039,29.297,20.996,0.0,0
1581971403.468,12.695,39.062,44.434,35.645,0.0,0
1581971403.472,5.859,26.855,53.71100000000001,19.531,0.0,0
1581971403.476,22.461,36.621,49.805,3.418,0.0,0
1581971403.48,26.855,39.062,36.133,6.348,0.0,0
1581971403.4970002,16.602,30.762,33.691,15.137,0.0,0
1581971403.5010002,19.531,33.203,44.922,27.344,0.0,0
1581971403.505,35.156,33.203,40.039,22.949,0.0,0
1581971403.5089998,33.203,38.086,33.203,20.508000000000006,0.0,0
1581971403.5129998,24.414,36.621,34.18,15.625,0.0,0
1581971403.5170002,41.01600000000001,33.691,37.109,22.949,0.0,0
1581971403.521,48.828,41.01600000000001,38.086,30.273000000000003,0.0,0
1581971403.524,33.691,34.668,32.715,15.625,0.0,0
1581971403.528,22.461,26.855,35.645,12.207,0.0,0
1581971403.532,27.344,35.156,40.039,21.484,0.0,0
1581971403.536,25.391,35.156,38.086,16.602,0.0,0
1581971403.54,19.531,32.227,33.203,18.555,0.0,0
1581971403.542,27.832,37.109,34.668,20.996,0.0,0
1581971403.546,18.066,35.645,33.203,25.391,0.0,0
1581971403.55,41.992,35.645,27.344,24.902,0.0,0
1581971403.554,48.34,36.621,38.086,1.465,0.0,0
1581971403.5579998,15.625,35.645,47.852,10.254,0.0,0
1581971403.562,20.02,36.621,41.504,29.785,0.0,0
1581971403.566,24.902,31.25,38.574,4.395,0.0,0
1581971403.569,12.207,25.879,39.062,-15.137,0.0,0
1581971403.573,11.719,23.926,40.527,5.371,0.0,0
1581971403.577,22.949,19.043,42.969,8.789,0.0,0
1581971403.581,23.926,20.996,41.01600000000001,10.254,0.0,0
1581971403.585,24.902,33.203,35.156,15.137,0.0,0
1581971403.587,24.414,40.039,31.25,24.414,0.0,0
1581971403.591,28.32,39.062,27.832,28.809,0.0,0
1581971403.595,40.527,30.762,30.273000000000003,7.324,0.0,0
1581971403.599,23.438,29.297,34.668,8.301,0.0,0
1581971403.603,18.555,35.156,33.691,13.672,0.0,0
1581971403.607,26.855,35.156,35.645,13.672,0.0,0
1581971403.611,27.832,31.25,42.969,16.113,0.0,0
1581971403.6139998,31.25,29.297,42.969,-0.977,0.0,0
1581971403.6179998,24.902,33.203,34.18,-1.465,0.0,0
1581971403.6220002,14.16,32.227,26.367,-1.953,0.0,0
1581971403.6260002,25.391,25.391,32.227,3.906,0.0,0
1581971403.63,25.391,24.902,33.691,21.973000000000006,0.0,0
1581971403.6320002,15.137,31.25,30.273000000000003,11.719,0.0,0
1581971403.6360002,21.484,32.715,34.18,4.883,0.0,0
1581971403.64,19.531,33.691,31.25,16.113,0.0,0
1581971403.644,23.438,36.133,34.668,11.719,0.0,0
1581971403.6479998,21.973000000000006,32.715,41.992,14.16,0.0,0
1581971403.6520002,20.508000000000006,21.973000000000006,43.457,20.508000000000006,0.0,0
1581971403.656,18.555,13.672,40.039,9.766,0.0,0
1581971403.659,14.648,22.461,42.48,15.137,0.0,0
1581971403.663,17.578,30.273000000000003,35.645,17.578,0.0,0
1581971403.667,18.066,26.367,25.879,12.695,0.0,0
1581971403.671,22.461,25.391,36.133,11.23,0.0,0
1581971403.675,23.438,29.785,35.645,13.184,0.0,0
1581971403.678,24.414,31.738000000000003,31.738000000000003,13.184,0.0,0
1581971403.6820002,30.762,27.832,30.762,2.93,0.0,0
1581971403.686,17.578,23.926,28.809,0.977,0.0,0
1581971403.69,21.484,19.531,32.715,21.484,0.0,0
1581971403.694,18.066,24.902,30.762,35.156,0.0,0
1581971403.698,10.742,32.227,27.344,9.766,0.0,0
1581971403.702,21.973000000000006,32.227,30.762,4.883,0.0,0
1581971403.705,18.555,30.762,30.273000000000003,11.719,0.0,0
1581971403.709,19.531,30.762,34.668,16.113,0.0,0
1581971403.7129998,20.02,23.926,37.598,16.602,0.0,0
1581971403.717,22.949,20.02,37.109,16.113,0.0,0
1581971403.721,26.367,24.902,37.598,27.344,0.0,0
1581971403.722,20.02,25.391,41.01600000000001,24.414,0.0,0
1581971403.726,20.02,26.855,47.363,11.719,0.0,0
1581971403.73,24.414,28.809,38.086,9.766,0.0,0
1581971403.734,33.203,29.785,31.738000000000003,11.719,0.0,0
1581971403.738,25.391,27.344,30.273000000000003,6.836,0.0,0
1581971403.742,16.113,25.391,24.414,18.066,0.0,0
1581971403.746,25.391,23.438,31.738000000000003,16.113,0.0,0
1581971403.7489998,31.25,27.832,33.203,3.418,0.0,0
1581971403.7529998,23.438,37.598,28.32,9.766,0.0,0
1581971403.7570002,20.508000000000006,37.109,32.715,14.16,0.0,0
1581971403.7610002,23.926,27.832,27.832,10.254,0.0,0
1581971403.765,35.156,25.391,21.484,11.23,0.0,0
1581971403.7670002,32.715,26.855,20.02,8.301,0.0,0
1581971403.771,20.996,26.855,25.879,0.977,0.0,0
1581971403.775,14.16,24.414,39.062,-4.395,0.0,0
1581971403.779,16.602,22.461,43.457,5.371,0.0,0
1581971403.783,18.555,20.508000000000006,37.109,5.371,0.0,0
1581971403.7870002,23.926,15.625,33.691,14.16,0.0,0
1581971403.791,21.484,19.043,30.273000000000003,19.043,0.0,0
1581971403.794,10.742,28.809,28.32,-2.93,0.0,0
1581971403.798,25.879,29.785,28.809,-5.371,0.0,0
1581971403.802,22.461,27.344,26.367,-3.418,0.0,0
1581971403.806,7.324,21.973000000000006,26.855,-4.883,0.0,0
1581971403.81,20.996,16.602,26.855,16.113,0.0,0
1581971403.812,25.879,24.414,25.879,34.18,0.0,0
1581971403.816,33.691,37.109,35.156,17.578,0.0,0
1581971403.82,44.434,35.156,34.18,12.695,0.0,0
1581971403.824,31.738000000000003,33.203,27.344,20.508000000000006,0.0,0
1581971403.8279998,31.25,33.203,35.156,10.254,0.0,0
1581971403.832,41.992,29.785,37.109,7.812,0.0,0
1581971403.836,31.738000000000003,30.273000000000003,35.645,7.324,0.0,0
1581971403.839,18.066,31.738000000000003,32.715,10.254,0.0,0
1581971403.843,30.273000000000003,27.832,20.508000000000006,8.301,0.0,0
1581971403.847,27.344,23.926,20.996,1.953,0.0,0
1581971403.851,22.949,25.391,39.062,8.789,0.0,0
1581971403.855,24.414,25.879,43.457,3.906,0.0,0
1581971403.8720002,32.227,24.414,34.668,0.488,0.0,0
1581971403.8760002,22.949,25.391,39.062,7.324,0.0,0
1581971403.88,12.695,21.973000000000006,40.039,14.16,0.0,0
1581971403.8839998,13.672,24.902,39.062,18.066,0.0,0
1581971403.8879998,16.602,31.25,39.551,3.418,0.0,0
1581971403.8920002,27.832,27.344,37.598,-1.465,0.0,0
1581971403.896,17.09,22.461,38.086,11.23,0.0,0
1581971403.899,17.09,20.02,38.086,7.812,0.0,0
1581971403.903,22.949,22.461,35.156,1.465,0.0,0
1581971403.907,8.301,29.785,34.668,-5.859,0.0,0
1581971403.911,3.418,31.25,40.039,0.0,0.0,0
1581971403.915,11.719,28.32,44.922,14.648,0.0,0
1581971403.918,16.602,33.203,39.062,17.578,0.0,0
1581971403.9220002,19.531,32.715,35.645,9.766,0.0,0
1581971403.926,25.391,28.32,41.504,9.766,0.0,0
1581971403.93,21.484,24.414,39.062,20.02,0.0,0
1581971403.934,19.043,27.832,33.691,14.16,0.0,0
1581971403.938,31.738000000000003,33.203,37.109,12.695,0.0,0
1581971403.9420002,34.668,32.227,41.01600000000001,9.277,0.0,0
1581971403.945,20.02,29.297,32.227,3.418,0.0,0
1581971403.949,5.859,24.414,33.691,9.277,0.0,0
1581971403.9529998,10.742,33.691,41.504,5.859,0.0,0
1581971403.957,23.438,42.48,34.668,3.418,0.0,0
1581971403.961,18.555,31.25,29.785,1.465,0.0,0
1581971403.962,7.324,24.902,39.551,-5.371,0.0,0
1581971403.966,4.883,35.645,41.504,-1.465,0.0,0
1581971403.97,12.695,36.133,38.086,-9.766,0.0,0
1581971403.974,19.043,25.391,39.551,-7.812,0.0,0
1581971403.978,3.906,33.203,36.621,-3.906,0.0,0
1581971403.982,-3.418,38.086,39.551,10.742,0.0,0
1581971403.986,10.742,29.297,41.992,20.508000000000006,0.0,0
1581971403.9889998,30.273000000000003,31.25,35.645,9.277,0.0,0
1581971403.9929998,21.973000000000006,30.762,32.227,4.395,0.0,0
1581971403.9970002,11.719,25.879,32.227,-13.672,0.0,0
1581971404.0010002,25.391,37.598,35.156,-12.207,0.0,0
1581971404.005,25.879,41.504,35.645,5.371,0.0,0
1581971404.0070002,26.855,34.668,19.531,7.324,0.0,0
1581971404.0110002,23.438,34.18,14.648,-1.953,0.0,0
1581971404.015,13.184,26.367,29.785,-9.277,0.0,0
1581971404.019,12.695,24.414,41.01600000000001,-2.441,0.0,0
1581971404.0229998,5.371,25.879,39.062,4.883,0.0,0
1581971404.0270002,5.859,20.996,33.203,0.0,0.0,0
1581971404.031,15.625,22.949,37.598,2.441,0.0,0
1581971404.034,27.832,27.344,40.527,10.742,0.0,0
1581971404.038,26.367,24.902,38.574,3.906,0.0,0
1581971404.042,19.531,25.391,41.01600000000001,13.184,0.0,0
1581971404.046,14.16,28.809,34.668,6.348,0.0,0
1581971404.05,29.297,27.832,30.762,-8.301,0.0,0
1581971404.052,23.926,29.785,38.574,4.395,0.0,0
1581971404.056,22.461,29.297,42.48,17.578,0.0,0
1581971404.06,23.926,24.414,40.527,23.438,0.0,0
1581971404.064,8.301,32.715,40.039,15.137,0.0,0
1581971404.0679998,15.625,31.738000000000003,44.434,6.348,0.0,0
1581971404.072,14.648,22.461,44.922,-0.488,0.0,0
1581971404.076,14.16,27.832,41.01600000000001,5.859,0.0,0
1581971404.079,14.16,35.645,40.527,7.812,0.0,0
1581971404.083,10.742,34.668,37.598,-3.418,0.0,0
1581971404.087,8.301,33.691,33.203,2.441,0.0,0
1581971404.091,8.789,31.738000000000003,38.574,15.137,0.0,0
1581971404.095,16.113,27.344,48.34,14.16,0.0,0
1581971404.097,28.809,32.227,55.176,29.785,0.0,0
1581971404.101,24.902,38.086,57.129,29.297,0.0,0
1581971404.105,16.113,35.645,51.27,19.531,0.0,0
1581971404.109,23.438,31.25,43.457,32.227,0.0,0
1581971404.113,20.996,29.297,43.945,12.207,0.0,0
1581971404.117,22.461,27.344,48.34,13.184,0.0,0
1581971404.121,34.18,29.297,45.41,11.719,0.0,0
1581971404.1239998,23.926,35.156,43.457,-6.348,0.0,0
1581971404.1279998,18.555,31.738000000000003,41.992,0.977,0.0,0
1581971404.1320002,15.625,26.855,37.598,8.789,0.0,0
1581971404.1360002,13.672,30.762,42.969,11.23,0.0,0
1581971404.14,11.719,30.273000000000003,45.898,8.789,0.0,0
1581971404.1420002,10.742,28.32,42.48,10.254,0.0,0
1581971404.146,21.484,30.273000000000003,41.504,15.137,0.0,0
1581971404.15,23.926,33.203,46.387,22.461,0.0,0
1581971404.154,19.531,23.926,47.852,23.438,0.0,0
1581971404.158,20.996,22.461,41.992,10.254,0.0,0
1581971404.1620002,29.297,29.785,34.18,-0.488,0.0,0
1581971404.166,18.066,21.973000000000006,37.109,-0.977,0.0,0
1581971404.169,15.625,20.02,47.363,18.555,0.0,0
1581971404.173,30.762,33.203,41.01600000000001,25.879,0.0,0
1581971404.177,11.719,37.109,35.645,15.137,0.0,0
1581971404.181,0.488,33.203,49.316,8.789,0.0,0
1581971404.185,9.766,33.691,56.152,15.137,0.0,0
1581971404.187,3.418,28.32,45.898,18.555,0.0,0
1581971404.191,14.16,25.879,47.363,8.301,0.0,0
1581971404.195,14.648,28.32,49.316,5.371,0.0,0
1581971404.199,4.883,33.203,44.434,15.137,0.0,0
1581971404.2029998,22.949,33.203,44.922,22.461,0.0,0
1581971404.207,31.738000000000003,35.156,42.969,20.02,0.0,0
1581971404.211,25.879,38.086,40.527,19.043,0.0,0
1581971404.214,25.879,37.109,37.109,10.742,0.0,0
1581971404.218,16.113,34.18,41.992,9.277,0.0,0
1581971404.222,10.742,28.809,45.41,8.789,0.0,0
1581971404.226,21.484,24.902,43.457,4.883,0.0,0
1581971404.23,21.484,26.367,41.01600000000001,16.113,0.0,0
1581971404.2470002,19.043,32.715,39.062,14.648,0.0,0
1581971404.2510002,20.996,36.133,42.969,-1.465,0.0,0
1581971404.255,31.25,34.18,38.574,4.395,0.0,0
1581971404.2589998,29.297,29.297,38.086,13.184,0.0,0
1581971404.2629998,19.531,27.832,41.504,16.113,0.0,0
1581971404.2670002,20.508000000000006,28.32,36.621,21.973000000000006,0.0,0
1581971404.271,20.508000000000006,25.879,34.18,17.09,0.0,0
1581971404.274,16.113,23.438,32.227,6.348,0.0,0
1581971404.278,11.719,24.414,34.668,11.23,0.0,0
1581971404.282,18.066,23.438,40.039,15.625,0.0,0
1581971404.286,18.066,21.973000000000006,40.039,7.324,0.0,0
1581971404.29,13.184,28.809,39.062,4.883,0.0,0
1581971404.292,18.066,28.809,41.01600000000001,10.742,0.0,0
1581971404.296,10.742,30.273000000000003,43.945,9.277,0.0,0
1581971404.3,16.113,37.109,43.457,7.812,0.0,0
1581971404.304,31.25,31.25,36.133,1.953,0.0,0
1581971404.3079998,27.344,20.02,33.203,4.395,0.0,0
1581971404.312,20.02,21.484,46.387,19.043,0.0,0
1581971404.316,34.668,32.715,56.64100000000001,19.043,0.0,0
1581971404.319,32.227,33.691,48.828,2.93,0.0,0
1581971404.323,13.672,28.32,40.527,-8.789,0.0,0
1581971404.327,7.324,26.855,44.922,-3.418,0.0,0
1581971404.331,1.465,27.832,45.898,2.441,0.0,0
1581971404.335,13.184,18.555,39.062,17.09,0.0,0
1581971404.337,17.09,19.043,28.32,6.348,0.0,0
1581971404.341,17.578,30.273000000000003,40.039,-0.977,0.0,0
1581971404.345,25.391,29.297,46.875,11.719,0.0,0
1581971404.349,18.066,28.809,42.48,8.789,0.0,0
1581971404.353,19.531,29.297,42.48,4.883,0.0,0
1581971404.357,36.621,27.344,41.504,2.441,0.0,0
1581971404.361,26.367,28.32,41.992,-0.977,0.0,0
1581971404.3639998,2.93,30.273000000000003,38.086,1.953,0.0,0
1581971404.3679998,15.137,32.715,35.645,3.906,0.0,0
1581971404.3720002,33.691,29.297,33.691,-0.488,0.0,2
1581971404.3760002,31.25,27.832,39.062,15.625,0.0,0
1581971404.38,20.02,30.273000000000003,38.086,16.602,0.0,0
1581971404.3820002,14.648,29.785,36.133,2.441,0.0,0
1581971404.3860002,21.973000000000006,29.785,42.969,13.672,0.0,0
1581971404.39,21.484,30.273000000000003,41.01600000000001,22.949,0.0,0
1581971404.394,16.602,28.32,39.551,20.996,0.0,0
1581971404.3979998,25.391,27.344,37.598,16.113,0.0,0
1581971404.4020002,19.531,30.273000000000003,33.203,19.531,0.0,0
1581971404.406,15.625,30.762,29.785,21.484,0.0,0
1581971404.409,23.926,31.25,29.297,20.508000000000006,0.0,0
1581971404.413,18.066,27.344,26.367,16.113,0.0,0
1581971404.417,14.16,25.879,19.043,2.441,0.0,0
1581971404.421,22.461,35.156,21.484,14.648,0.0,0
1581971404.425,34.668,37.109,20.508000000000006,38.086,0.0,0
1581971404.427,43.457,33.203,18.066,24.902,0.0,0
1581971404.431,11.719,31.25,22.949,0.0,0.0,0
1581971404.435,1.953,29.297,25.879,-0.977,0.0,0
1581971404.439,18.066,28.809,25.879,6.348,0.0,0
1581971404.4429998,12.695,34.18,23.926,9.766,0.0,0
1581971404.447,18.066,34.18,25.879,7.812,0.0,0
1581971404.451,20.508000000000006,26.367,24.902,0.0,0.0,0
1581971404.454,9.277,25.879,30.762,3.418,0.0,0
1581971404.458,2.441,30.273000000000003,33.691,6.348,0.0,0
1581971404.462,13.184,31.25,23.438,5.371,0.0,0
1581971404.466,18.555,28.809,17.09,2.93,0.0,0
1581971404.47,12.695,33.203,23.438,22.461,0.0,0
1581971404.472,13.672,34.668,34.668,25.879,0.0,0
1581971404.476,20.02,28.809,33.203,-0.977,0.0,0
1581971404.48,28.32,27.344,28.809,2.441,0.0,0
1581971404.484,15.625,27.832,26.367,5.859,0.0,0
1581971404.488,7.812,31.25,20.508000000000006,19.531,0.0,0
1581971404.492,18.555,24.902,26.855,18.555,0.0,0
1581971404.496,21.484,20.02,31.25,0.488,0.0,0
1581971404.4989998,19.531,28.32,28.32,9.277,0.0,0
1581971404.5029998,24.902,28.809,30.762,7.812,0.0,0
1581971404.5070002,21.484,31.25,31.738000000000003,16.113,0.0,0
1581971404.5110002,20.996,36.621,36.621,23.438,0.0,0
1581971404.515,20.996,35.156,41.01600000000001,20.996,0.0,0
1581971404.5170002,26.855,33.203,40.527,8.789,0.0,0
1581971404.521,18.555,28.809,36.621,-6.836,0.0,0
1581971404.525,8.301,20.508000000000006,43.457,12.695,0.0,0
1581971404.529,18.066,14.16,46.387,14.648,0.0,0
1581971404.533,25.879,19.531,41.504,5.859,0.0,0
1581971404.5370002,24.414,29.297,35.645,13.672,0.0,0
1581971404.541,27.832,31.738000000000003,37.598,23.926,0.0,0
1581971404.544,24.902,27.344,38.086,22.461,0.0,0
1581971404.548,17.09,17.578,32.715,13.672,0.0,0
1581971404.552,23.926,19.043,42.48,9.277,0.0,0
1581971404.556,25.879,30.273000000000003,53.223,6.348,0.0,0
1581971404.56,21.973000000000006,30.762,50.293,14.648,0.0,0
1581971404.562,28.809,22.949,42.969,27.832,0.0,0
1581971404.566,29.297,28.32,41.01600000000001,20.996,0.0,0
1581971404.57,13.184,28.809,40.039,12.207,0.0,0
1581971404.574,17.578,23.438,33.203,19.531,0.0,0
1581971404.5779998,21.973000000000006,28.809,31.25,5.859,0.0,0
1581971404.582,11.719,29.785,36.621,12.207,0.0,0
1581971404.586,4.883,33.691,40.039,20.02,0.0,0
1581971404.589,6.836,30.762,39.062,-5.371,0.0,0
1581971404.593,20.996,18.066,39.551,9.766,0.0,0
1581971404.597,32.715,23.926,44.922,30.273000000000003,0.0,0
1581971404.601,14.648,30.273000000000003,39.062,15.137,0.0,0
1581971404.605,6.348,24.902,30.273000000000003,0.0,0.0,0
1581971404.6220002,22.949,23.926,34.668,-5.859,0.0,0
1581971404.6260002,13.184,29.297,46.875,6.836,0.0,0
1581971404.63,15.137,29.785,47.852,18.066,0.0,0
1581971404.6339998,20.508000000000006,21.973000000000006,30.273000000000003,5.371,0.0,0
1581971404.6379998,15.137,30.273000000000003,30.762,3.418,0.0,0
1581971404.6420002,0.488,39.062,42.969,-6.836,0.0,0
1581971404.646,-2.441,34.668,39.551,-17.09,0.0,0
1581971404.649,0.977,28.32,34.668,-2.93,0.0,0
1581971404.653,8.789,31.25,33.203,-2.93,0.0,0
1581971404.657,32.227,30.762,31.738000000000003,-0.977,0.0,0
1581971404.661,22.949,24.902,34.18,5.371,0.0,0
1581971404.665,0.0,25.391,34.18,9.277,0.0,0
1581971404.667,20.996,30.762,34.668,20.02,0.0,0
1581971404.671,37.598,31.738000000000003,35.156,10.254,0.0,0
1581971404.675,25.879,31.25,41.504,8.301,0.0,0
1581971404.679,17.578,32.715,49.316,16.113,0.0,0
1581971404.6829998,30.762,31.25,45.898,11.23,0.0,0
1581971404.687,34.668,35.645,38.574,11.23,0.0,0
1581971404.691,37.109,41.01600000000001,40.527,20.508000000000006,0.0,0
1581971404.694,34.18,33.691,40.039,24.414,0.0,0
1581971404.698,22.949,29.297,36.133,3.418,0.0,0
1581971404.702,22.949,40.039,38.574,5.859,0.0,0
1581971404.706,22.949,41.992,41.01600000000001,7.812,0.0,0
1581971404.71,34.668,35.645,41.992,8.301,0.0,0
1581971404.712,25.879,34.668,48.34,21.484,0.0,0
1581971404.716,18.066,31.25,51.27,25.879,0.0,0
1581971404.72,37.598,25.879,47.363,16.602,0.0,0
1581971404.724,36.133,26.855,48.828,24.414,0.0,0
1581971404.728,18.066,31.25,45.898,23.438,0.0,0
1581971404.732,23.926,37.109,53.223,15.625,0.0,0
1581971404.736,33.691,40.039,59.57,13.184,0.0,0
1581971404.7389998,30.273000000000003,31.738000000000003,48.828,9.766,0.0,0
1581971404.7429998,23.438,30.273000000000003,46.387,24.414,0.0,0
1581971404.7470002,16.602,39.551,45.41,17.09,0.0,0
1581971404.7510002,29.297,37.598,44.434,-3.906,0.0,0
1581971404.755,31.738000000000003,32.227,48.34,6.348,0.0,0
1581971404.7570002,14.16,28.32,49.316,11.719,0.0,0
1581971404.7610002,14.16,23.926,51.27,17.09,0.0,0
1581971404.765,25.879,23.438,51.27,21.484,0.0,0
1581971404.769,38.574,26.367,46.387,14.16,0.0,0
1581971404.7729998,28.32,25.879,40.527,18.555,0.0,0
1581971404.7770002,28.32,29.297,39.062,10.742,0.0,0
1581971404.781,42.48,33.691,41.01600000000001,21.973000000000006,0.0,0
1581971404.784,31.738000000000003,31.738000000000003,42.969,34.668,0.0,0
1581971404.788,19.043,31.738000000000003,40.039,19.043,0.0,0
1581971404.792,20.996,34.668,37.109,-4.883,0.0,0
1581971404.796,24.902,30.273000000000003,37.598,0.977,0.0,0
1581971404.8,22.949,23.438,44.434,7.324,0.0,0
1581971404.802,18.555,21.484,45.898,13.184,0.0,0
1581971404.806,32.715,24.902,41.504,12.695,0.0,0
1581971404.81,38.086,32.227,45.41,11.719,0.0,0
1581971404.814,29.297,35.645,42.48,42.969,0.0,0
1581971404.8179998,35.156,34.668,29.297,40.527,0.0,0
1581971404.822,31.25,24.902,29.297,15.137,0.0,0
1581971404.826,28.32,21.484,39.551,12.207,0.0,0
1581971404.829,31.25,29.297,47.363,4.395,0.0,0
1581971404.833,28.32,37.109,43.457,-4.883,0.0,0
1581971404.837,31.25,37.109,41.504,4.395,0.0,0
1581971404.841,29.297,36.621,45.41,6.836,0.0,0
1581971404.845,22.461,31.25,40.039,12.207,0.0,0
1581971404.8479998,37.109,28.32,39.062,14.16,0.0,0
1581971404.8520002,26.855,30.273000000000003,41.992,16.113,0.0,0
1581971404.856,11.23,25.391,36.621,18.555,0.0,0
1581971404.86,22.949,25.391,39.062,15.625,0.0,0
1581971404.8639998,20.996,29.297,37.109,8.789,0.0,0
1581971404.8679998,19.531,29.297,35.156,4.395,0.0,0
1581971404.8720002,23.438,24.902,41.504,-0.488,0.0,0
1581971404.875,23.926,25.391,32.227,-11.719,0.0,0
1581971404.879,16.113,29.785,26.855,-4.883,0.0,0
1581971404.883,32.715,30.762,28.32,-2.93,0.0,0
1581971404.887,39.551,28.809,35.645,8.789,0.0,0
1581971404.891,32.715,29.785,45.41,25.879,0.0,0
1581971404.8920002,30.762,33.203,43.457,23.438,0.0,0
1581971404.896,8.789,28.809,41.504,10.254,0.0,0
1581971404.9,11.23,27.832,42.48,4.395,0.0,0
1581971404.904,18.555,28.809,39.551,13.672,0.0,0
1581971404.908,11.23,29.785,37.598,24.414,0.0,0
1581971404.9120002,12.695,36.621,39.551,6.348,0.0,0
1581971404.916,24.902,40.527,36.133,-3.418,0.0,0
1581971404.919,20.02,39.551,30.762,7.324,0.0,0
1581971404.923,9.277,36.133,30.762,16.602,0.0,0
1581971404.927,20.02,30.762,31.25,10.742,0.0,0
1581971404.931,22.461,31.25,36.133,2.93,0.0,0
1581971404.935,18.066,36.133,41.01600000000001,4.883,0.0,0
1581971404.937,14.16,33.203,42.48,2.441,0.0,0
1581971404.941,13.672,31.738000000000003,38.086,-7.812,0.0,0
1581971404.945,8.301,33.203,27.832,-5.859,0.0,0
1581971404.949,5.371,35.645,26.367,0.0,0.0,0
1581971404.9529998,18.066,33.691,29.297,1.465,0.0,0
1581971404.957,24.902,26.855,32.227,7.812,0.0,0
1581971404.961,34.18,26.855,37.598,0.0,0.0,0
1581971404.964,28.32,32.227,35.645,-7.324,0.0,0
1581971404.968,5.371,29.785,32.715,-6.348,0.0,0
1581971404.972,15.137,28.32,41.504,1.953,0.0,0
1581971404.976,23.926,28.32,45.41,13.672,0.0,0
1581971404.98,22.461,20.508000000000006,41.504,11.23,0.0,0
1581971404.9970002,28.32,22.461,36.621,9.277,0.0,0
1581971405.0010002,20.508000000000006,32.227,36.621,7.324,0.0,0
1581971405.005,15.137,37.109,40.527,4.883,0.0,0
1581971405.0089998,17.09,38.574,40.039,7.812,0.0,0
1581971405.0129998,20.02,35.645,37.598,12.207,0.0,0
1581971405.0170002,26.367,36.621,40.039,17.09,0.0,0
1581971405.021,25.879,37.598,42.48,12.207,0.0,0
1581971405.024,17.578,31.25,40.039,6.348,0.0,0
1581971405.028,24.414,32.715,36.621,23.438,0.0,0
1581971405.032,34.18,37.598,35.645,25.879,0.0,0
1581971405.036,29.297,39.062,37.109,11.23,0.0,0
1581971405.04,35.645,36.133,37.598,9.766,0.0,0
1581971405.042,33.691,35.645,40.039,12.207,0.0,0
1581971405.046,15.625,32.715,39.062,2.93,0.0,0
1581971405.05,17.578,34.668,38.574,10.742,0.0,0
1581971405.054,31.738000000000003,39.062,33.203,13.672,0.0,0
1581971405.0579998,16.113,26.855,24.414,-13.184,0.0,0
1581971405.062,7.812,21.973000000000006,27.832,-7.324,0.0,0
1581971405.066,18.555,28.32,33.691,4.883,0.0,0
1581971405.069,20.508000000000006,27.832,37.598,16.602,0.0,0
1581971405.073,19.043,23.926,36.621,21.484,0.0,0
1581971405.077,13.184,29.785,31.738000000000003,7.324,0.0,0
1581971405.081,18.555,31.738000000000003,25.879,1.465,0.0,0
1581971405.085,23.438,26.855,27.832,3.418,0.0,0
1581971405.0879998,19.043,27.344,40.039,20.02,0.0,0
1581971405.092,18.555,27.832,42.969,13.672,0.0,0
1581971405.096,21.484,29.785,40.039,18.555,0.0,0
1581971405.1,21.484,30.762,41.01600000000001,27.344,0.0,0
1581971405.104,19.043,28.809,42.48,9.277,0.0,0
1581971405.1079998,24.902,25.879,36.621,10.254,0.0,0
1581971405.1120002,20.02,27.344,27.344,0.977,0.0,0
1581971405.115,13.672,35.645,28.32,-17.578,0.0,0
1581971405.119,23.438,41.01600000000001,39.551,0.488,0.0,0
1581971405.123,23.438,36.133,36.621,-0.488,0.0,0
1581971405.127,16.113,27.344,27.344,-6.836,0.0,0
1581971405.131,12.207,26.855,37.109,4.883,0.0,0
1581971405.1320002,22.461,26.367,44.922,3.418,0.0,0
1581971405.1360002,27.832,21.973000000000006,38.086,11.23,0.0,0
1581971405.14,10.742,25.391,36.133,17.578,0.0,0
1581971405.144,15.625,25.879,38.574,28.809,0.0,0
1581971405.1479998,21.973000000000006,25.879,40.527,18.555,0.0,0
1581971405.1520002,22.461,29.785,39.551,9.766,0.0,0
1581971405.156,30.762,32.715,39.551,23.926,0.0,0
1581971405.159,22.461,32.227,38.086,11.719,0.0,0
1581971405.163,15.137,30.273000000000003,36.133,9.277,0.0,0
1581971405.167,17.09,31.738000000000003,38.574,11.23,0.0,0
1581971405.171,20.02,27.832,38.086,11.23,0.0,0
1581971405.175,22.461,25.391,40.527,23.926,0.0,0
1581971405.177,21.973000000000006,35.156,40.527,12.695,0.0,0
1581971405.181,24.902,35.645,32.715,0.488,0.0,0
1581971405.185,26.367,28.32,33.203,17.09,0.0,0
1581971405.189,36.621,34.18,37.109,20.996,0.0,0
1581971405.1929998,31.25,37.598,25.879,6.348,0.0,0
1581971405.197,20.996,31.738000000000003,24.414,9.277,0.0,0
1581971405.201,26.855,32.227,28.32,6.348,0.0,0
1581971405.204,24.902,36.621,33.203,2.441,0.0,0
1581971405.208,18.066,33.203,38.086,-3.906,0.0,0
1581971405.212,12.695,34.18,33.691,0.0,0.0,0
1581971405.216,15.137,37.109,35.156,12.207,0.0,0
1581971405.22,5.371,32.227,37.109,10.742,0.0,0
1581971405.222,11.23,28.32,37.109,1.953,0.0,0
1581971405.226,12.207,26.855,36.133,6.348,0.0,0
1581971405.23,9.277,30.273000000000003,33.203,6.836,0.0,0
1581971405.234,15.625,36.133,32.715,7.324,0.0,0
1581971405.238,12.207,32.715,35.156,18.066,0.0,0
1581971405.242,10.254,31.25,35.645,18.066,0.0,0
1581971405.246,27.344,33.691,35.645,12.695,0.0,0
1581971405.2489998,53.223,41.01600000000001,40.039,13.184,0.0,0
1581971405.2529998,25.391,41.01600000000001,41.992,14.648,0.0,0
1581971405.2570002,0.488,32.227,38.574,6.348,0.0,0
1581971405.2610002,13.672,31.25,29.785,3.906,0.0,0
1581971405.265,21.973000000000006,31.738000000000003,28.809,15.137,0.0,0
1581971405.268,20.508000000000006,28.809,30.273000000000003,23.438,0.0,0
1581971405.272,22.461,27.832,34.668,13.184,0.0,0
1581971405.276,37.109,33.203,46.875,11.23,0.0,0
1581971405.28,47.363,37.109,46.875,24.414,0.0,0
1581971405.284,36.133,29.785,45.41,15.137,0.0,0
1581971405.288,25.391,29.297,47.852,15.137,0.0,0
1581971405.292,18.555,41.504,46.387,12.695,0.0,0
1581971405.295,16.113,34.18,40.039,19.043,0.0,0
1581971405.299,24.902,26.367,40.039,33.203,0.0,0
1581971405.303,15.625,34.668,46.387,20.508000000000006,0.0,0
1581971405.3070002,11.719,37.109,42.969,20.508000000000006,0.0,0
1581971405.311,32.715,40.039,33.691,13.184,0.0,0
1581971405.312,34.668,44.434,37.598,8.301,0.0,0
1581971405.316,25.879,39.551,42.969,33.691,0.0,0
1581971405.32,20.508000000000006,35.645,38.574,11.23,0.0,0
1581971405.324,29.785,36.621,36.133,-6.836,0.0,0
1581971405.3279998,40.527,39.551,38.086,7.324,0.0,0
1581971405.332,18.555,34.18,37.109,-2.441,0.0,0
1581971405.336,21.973000000000006,31.738000000000003,33.203,4.395,0.0,0
1581971405.339,30.273000000000003,35.645,31.25,12.695,0.0,0
1581971405.343,24.414,37.598,30.273000000000003,13.184,0.0,0
1581971405.347,28.32,38.086,36.621,34.668,0.0,0
1581971405.351,28.809,36.133,38.086,38.086,0.0,0
1581971405.355,25.391,31.738000000000003,39.551,14.648,0.0,0
1581971405.3720002,44.922,28.809,46.875,10.742,0.0,0
1581971405.3760002,46.387,24.414,42.969,11.719,0.0,0
1581971405.38,30.762,24.414,39.551,17.09,0.0,0
1581971405.3839998,19.043,27.832,43.457,12.207,0.0,0
1581971405.3879998,15.625,26.855,48.828,12.695,0.0,0
1581971405.3920002,20.508000000000006,33.203,48.34,32.715,0.0,0
1581971405.396,21.973000000000006,35.156,44.434,24.414,0.0,0
1581971405.399,23.926,28.809,43.945,7.324,0.0,0
1581971405.403,38.086,28.809,42.48,18.555,0.0,0
1581971405.407,43.945,28.809,43.457,15.625,0.0,0
1581971405.411,21.484,25.391,46.387,23.926,0.0,0
1581971405.415,4.395,23.926,46.875,33.691,0.0,0
1581971405.417,10.742,31.25,46.875,7.324,0.0,0
