timestamps,TP9,AF7,AF8,TP10,Marker0
1581611153.877,102.051,-936.035,-885.254,-356.445,0
1581611153.881,73.730,-979.004,-962.891,-259.766,0
1581611153.885,135.254,-967.285,-831.055,-54.688,0
1581611153.889,154.297,-936.523,-693.359,65.430,0
1581611153.893,64.453,-958.984,-842.773,70.801,0
1581611153.897,13.184,-975.586,-997.070,138.672,0
1581611153.901,50.293,-977.539,-952.148,166.992,0
1581611153.904,104.492,-933.105,-723.145,185.547,0
1581611153.908,58.594,-933.594,-789.551,43.945,0
1581611153.912,2.441,-979.980,-951.172,-138.184,0
1581611153.916,13.184,-971.680,-805.176,-96.191,0
1581611153.920,45.410,-960.938,-732.910,-78.613,0
1581611153.922,26.855,-965.820,-882.324,-129.395,0
1581611153.926,-18.066,-974.609,-885.254,-160.156,0
1581611153.930,-12.695,-971.680,-758.301,-120.117,0
1581611153.934,52.734,-972.168,-747.559,10.254,0
1581611153.938,67.871,-972.168,-732.910,51.758,0
1581611153.942,-2.441,-972.656,-806.641,16.113,0
1581611153.946,0.000,-971.680,-909.180,-33.691,0
1581611153.949,41.016,-972.656,-948.730,-64.453,0
1581611153.953,55.664,-972.168,-902.344,-70.312,0
1581611153.957,16.113,-955.078,-740.723,-153.320,0
1581611153.961,-29.297,-956.543,-691.895,-251.953,0
1581611153.965,0.977,-973.633,-858.398,-386.230,0
1581611153.967,64.941,-973.145,-905.762,-407.715,0
1581611153.971,34.668,-967.773,-740.234,-425.781,0
1581611153.975,-48.340,-969.238,-788.086,-552.734,0
1581611153.979,-22.461,-973.145,-913.574,-641.602,0
1581611153.983,51.270,-972.168,-896.484,-729.492,0
1581611153.987,33.691,-972.656,-914.551,-791.992,0
1581611153.991,-38.574,-971.680,-978.516,-861.328,0
1581611153.994,-42.969,-973.145,-974.609,-905.762,0
1581611153.998,19.043,-972.168,-894.531,-875.000,0
1581611154.002,34.668,-954.590,-792.480,-902.344,0
1581611154.006,-6.348,-964.844,-896.973,-954.102,0
1581611154.010,-47.363,-975.586,-994.141,-923.828,0
1581611154.012,-4.395,-971.191,-892.090,-855.469,0
1581611154.016,55.176,-967.773,-763.184,-828.613,0
1581611154.020,17.578,-970.215,-838.867,-914.551,0
1581611154.024,-26.367,-973.145,-958.008,-978.027,0
1581611154.028,26.855,-971.680,-911.133,-969.727,0
1581611154.032,95.215,-972.168,-900.879,-971.680,0
1581611154.036,39.551,-972.168,-937.988,-972.656,0
1581611154.039,-26.855,-972.168,-971.680,-972.168,0
1581611154.043,13.672,-974.121,-884.766,-972.168,0
1581611154.047,63.477,-960.938,-720.215,-973.633,0
1581611154.051,22.461,-961.426,-825.195,-967.285,0
1581611154.055,-46.875,-973.145,-923.340,-973.145,0
1581611154.057,-64.941,-973.633,-882.812,-957.520,0
1581611154.061,-3.906,-968.262,-827.148,-739.746,0
1581611154.065,27.344,-963.867,-759.766,-556.152,0
1581611154.069,-46.387,-972.656,-791.504,-567.383,0
1581611154.073,-74.219,-972.168,-745.117,-608.887,0
1581611154.077,-27.832,-971.680,-875.977,-719.727,0
1581611154.081,30.273,-972.656,-986.328,-840.332,0
1581611154.084,10.742,-957.520,-859.375,-940.918,0
1581611154.088,-59.570,-927.734,-730.469,-975.098,0
1581611154.092,-29.297,-908.691,-700.195,-969.238,0
1581611154.096,35.645,-959.473,-819.336,-972.656,0
1581611154.100,8.301,-943.359,-796.875,-972.656,0
1581611154.102,-41.992,-902.832,-673.340,-972.168,0
1581611154.106,-40.039,-946.777,-785.156,-972.168,0
1581611154.110,16.602,-972.656,-824.219,-972.168,0
1581611154.114,35.156,-968.750,-767.578,-972.656,0
1581611154.118,-41.504,-971.191,-877.441,-972.168,0
1581611154.122,-82.520,-973.145,-969.238,-972.168,0
1581611154.126,-24.902,-970.703,-923.340,-975.098,0
1581611154.129,16.113,-965.820,-780.273,-946.777,0
1581611154.133,-56.152,-970.703,-740.234,-947.266,0
1581611154.137,-102.051,-973.145,-865.234,-977.539,0
1581611154.141,-41.504,-972.168,-954.102,-951.660,0
1581611154.145,-16.602,-972.656,-809.082,-867.676,0
1581611154.162,-83.008,-970.215,-676.758,-813.965,0
1581611154.166,-122.559,-971.680,-765.625,-803.223,0
1581611154.170,-102.539,-973.633,-778.320,-696.289,0
1581611154.174,-41.992,-968.262,-614.258,-555.664,0
1581611154.178,-33.203,-969.238,-606.445,-519.043,0
1581611154.182,-111.328,-973.145,-828.125,-524.902,0
1581611154.186,-117.676,-972.168,-905.762,-479.980,0
1581611154.189,-28.320,-972.656,-764.648,-398.438,0
1581611154.193,-6.836,-972.656,-613.281,-366.211,0
1581611154.197,-86.426,-970.215,-754.395,-416.016,0
1581611154.201,-124.023,-978.516,-819.336,-442.383,0
1581611154.205,-66.895,-945.312,-594.727,-432.617,0
1581611154.207,-33.203,-933.105,-596.680,-406.250,0
1581611154.211,-88.867,-974.609,-763.672,-442.871,0
1581611154.215,-130.371,-973.145,-727.051,-459.961,0
1581611154.219,-90.820,-971.191,-629.395,-431.152,0
1581611154.223,-26.855,-972.656,-681.152,-489.746,0
1581611154.227,-56.641,-972.168,-846.680,-571.777,0
1581611154.231,-124.512,-972.656,-946.289,-645.996,0
1581611154.234,-105.469,-972.656,-821.777,-701.660,0
1581611154.238,-46.875,-972.656,-788.086,-725.586,0
1581611154.242,-58.105,-972.656,-968.262,-830.566,0
1581611154.246,-124.023,-972.656,-956.055,-918.945,0
1581611154.250,-127.441,-972.168,-805.176,-920.410,0
1581611154.252,-78.125,-972.168,-855.469,-948.242,0
1581611154.256,-50.781,-972.656,-911.621,-972.168,0
1581611154.260,-92.285,-972.656,-773.438,-972.168,0
1581611154.264,-123.047,-972.656,-817.383,-971.680,0
1581611154.268,-57.129,-972.168,-941.895,-972.656,0
1581611154.272,-9.277,-972.656,-907.715,-972.168,0
1581611154.276,-65.918,-972.656,-851.562,-972.656,0
1581611154.279,-106.445,-972.656,-868.164,-972.168,0
1581611154.283,-70.801,-972.168,-917.969,-972.168,0
1581611154.287,-3.418,-973.145,-857.422,-972.168,0
1581611154.291,-16.113,-970.215,-659.180,-972.656,0
1581611154.295,-95.215,-969.727,-706.543,-972.168,0
1581611154.298,-96.680,-972.656,-910.156,-972.168,0
1581611154.302,-25.879,-972.168,-856.934,-972.168,0
1581611154.306,-15.137,-972.168,-697.266,-971.191,0
1581611154.310,-99.609,-972.168,-740.723,-971.191,0
1581611154.314,-117.188,-972.656,-823.242,-954.102,0
1581611154.318,-33.203,-972.656,-872.559,-865.723,0
1581611154.322,-18.066,-972.656,-784.668,-709.473,0
1581611154.325,-114.258,-972.168,-735.840,-635.254,0
1581611154.329,-152.344,-972.656,-856.445,-587.402,0
1581611154.333,-87.891,-972.168,-701.172,-500.000,0
1581611154.337,-47.363,-971.191,-550.781,-441.895,0
1581611154.341,-96.680,-971.191,-741.211,-387.695,0
1581611154.343,-151.367,-974.609,-878.906,-367.676,0
1581611154.347,-112.305,-965.332,-638.672,-278.809,0
1581611154.351,-44.434,-960.938,-525.879,-196.777,0
1581611154.355,-80.078,-973.145,-702.637,-202.637,0
1581611154.359,-160.156,-972.656,-708.496,-106.445,0
1581611154.363,-163.086,-972.168,-696.777,-10.742,0
1581611154.367,-102.051,-972.656,-686.523,109.375,0
1581611154.370,-87.891,-972.168,-705.078,191.406,0
1581611154.374,-161.621,-972.656,-751.953,200.684,0
1581611154.378,-197.754,-973.633,-577.148,311.523,0
1581611154.382,-138.184,-958.008,-497.559,376.953,0
1581611154.386,-100.098,-964.355,-643.555,359.375,0
1581611154.388,-145.508,-975.098,-665.527,266.602,0
1581611154.392,-188.965,-971.191,-587.891,203.613,0
1581611154.396,-159.180,-972.656,-657.227,266.602,0
1581611154.400,-100.586,-972.656,-724.121,284.668,0
1581611154.404,-146.484,-972.656,-669.434,285.645,0
1581611154.408,-214.355,-972.168,-708.984,303.223,0
1581611154.412,-186.523,-972.168,-911.621,302.246,0
1581611154.415,-133.789,-972.168,-887.695,384.277,0
1581611154.419,-140.137,-972.168,-702.637,373.535,0
1581611154.423,-210.938,-972.168,-633.789,277.832,0
1581611154.427,-225.098,-972.656,-766.602,120.117,0
1581611154.431,-179.199,-972.656,-886.719,-65.918,0
1581611154.433,-175.781,-972.168,-756.836,-166.504,0
1581611154.437,-222.168,-972.168,-770.996,-317.383,0
1581611154.441,-236.328,-972.656,-926.270,-367.676,0
1581611154.445,-184.570,-972.656,-899.414,-329.590,0
1581611154.449,-136.230,-972.656,-760.254,-253.418,0
1581611154.453,-170.898,-972.168,-881.836,-125.488,0
1581611154.457,-236.816,-972.656,-990.234,-4.883,0
1581611154.460,-205.566,-972.168,-915.039,170.410,0
1581611154.464,-131.348,-972.168,-775.391,258.301,0
1581611154.468,-145.508,-972.168,-785.156,228.516,0
1581611154.472,-214.844,-972.656,-911.621,161.621,0
1581611154.476,-168.457,-973.145,-857.910,-24.414,0
1581611154.493,-63.965,-963.379,-710.449,-271.973,0
1581611154.497,-79.102,-967.285,-816.895,-680.176,0
1581611154.501,-122.070,-974.121,-971.680,-972.656,0
1581611154.505,-66.895,-971.680,-976.074,-967.773,0
1581611154.509,6.836,-972.656,-951.660,-966.309,0
1581611154.513,26.367,-972.656,-955.566,-974.121,0
1581611154.517,-2.930,-972.656,-972.168,-972.168,0
1581611154.520,-29.785,-972.656,-978.027,-972.168,0
1581611154.524,14.648,-972.656,-901.367,-972.656,0
1581611154.528,51.758,-972.656,-881.348,-973.145,0
1581611154.532,-9.277,-972.656,-958.984,-965.332,0
1581611154.536,-38.574,-972.168,-928.223,-981.934,0
1581611154.538,-10.254,-972.168,-966.309,-905.273,0
1581611154.542,3.418,-972.656,-945.312,-683.105,0
1581611154.546,-23.926,-972.168,-784.668,-565.430,0
1581611154.550,-84.473,-972.656,-813.965,-526.855,0
1581611154.554,-89.355,-972.656,-866.699,-487.305,0
1581611154.558,-19.043,-972.656,-863.281,-395.508,0
1581611154.562,-5.859,-972.168,-894.043,-305.664,0
1581611154.565,-73.730,-972.168,-833.984,-322.266,0
1581611154.569,-100.098,-972.168,-777.344,-273.438,0
1581611154.573,-48.828,-972.656,-859.863,-249.512,0
1581611154.577,-17.578,-972.168,-816.406,-229.004,0
1581611154.581,-64.453,-972.168,-700.195,-182.617,0
1581611154.583,-68.359,-972.656,-739.258,-188.477,0
1581611154.587,-35.156,-972.656,-846.680,-206.055,0
1581611154.591,2.441,-972.168,-786.133,-284.180,0
1581611154.595,-19.531,-972.168,-694.824,-406.250,0
1581611154.599,-72.754,-972.656,-772.949,-517.578,0
1581611154.603,-39.062,-972.656,-942.871,-668.945,0
1581611154.607,24.902,-972.168,-992.676,-808.105,0
1581611154.610,18.555,-972.656,-909.668,-929.199,0
1581611154.614,-55.176,-972.656,-902.344,-975.098,0
1581611154.618,-38.086,-972.168,-948.242,-969.238,0
1581611154.622,41.016,-972.656,-904.297,-972.656,0
1581611154.626,27.832,-972.656,-845.215,-972.656,0
1581611154.628,-21.973,-972.656,-885.742,-972.656,0
1581611154.632,-20.020,-972.656,-985.352,-972.656,0
1581611154.636,39.062,-972.168,-881.348,-972.656,0
1581611154.640,72.754,-972.656,-805.176,-972.656,0
1581611154.644,18.066,-972.168,-915.527,-972.656,0
1581611154.648,-23.438,-971.680,-980.469,-972.656,0
1581611154.652,42.969,-975.098,-975.586,-972.656,0
1581611154.655,106.934,-956.055,-833.984,-972.168,0
1581611154.659,56.641,-958.496,-859.863,-972.656,0
1581611154.663,-6.836,-975.586,-928.711,-972.168,0
1581611154.667,30.762,-971.680,-776.367,-972.656,0
1581611154.671,97.656,-972.656,-770.508,-972.656,0
1581611154.673,90.332,-972.168,-875.488,-972.656,0
1581611154.677,39.062,-972.656,-835.449,-972.168,0
1581611154.681,57.617,-972.656,-780.762,-973.145,0
1581611154.685,118.164,-972.168,-766.113,-965.820,0
1581611154.689,111.816,-972.168,-775.391,-977.051,0
1581611154.693,29.297,-972.168,-886.230,-916.992,0
1581611154.697,1.953,-972.168,-907.227,-688.965,0
1581611154.700,56.641,-973.145,-794.434,-388.672,0
1581611154.704,59.082,-966.797,-742.676,-183.594,0
1581611154.708,16.113,-968.750,-680.176,-84.961,0
1581611154.712,-23.438,-971.680,-580.078,2.930,0
1581611154.716,-8.301,-975.098,-687.988,19.531,0
1581611154.718,69.824,-961.426,-743.164,-2.441,0
1581611154.722,76.172,-926.758,-538.086,-114.258,0
1581611154.726,23.926,-931.641,-562.012,-238.770,0
1581611154.730,42.480,-965.820,-694.824,-306.152,0
1581611154.734,108.398,-965.820,-685.059,-381.836,0
1581611154.738,105.957,-966.797,-705.078,-527.344,0
1581611154.742,23.438,-973.633,-904.785,-767.578,0
1581611154.745,15.625,-973.145,-976.562,-853.027,0
1581611154.749,88.867,-964.844,-830.078,-807.617,0
1581611154.753,108.887,-934.570,-702.637,-837.891,0
1581611154.757,45.410,-951.172,-723.633,-844.238,0
1581611154.761,11.719,-975.098,-905.273,-785.156,0
1581611154.763,72.754,-972.656,-937.012,-645.020,0
1581611154.767,107.422,-969.238,-699.707,-493.652,0
1581611154.771,52.734,-956.543,-651.367,-439.941,0
1581611154.775,-9.277,-969.238,-769.043,-413.574,0
1581611154.779,4.883,-974.121,-722.168,-371.094,0
1581611154.783,74.707,-971.191,-666.016,-261.230,0
1581611154.787,54.688,-973.145,-770.020,-200.195,0
1581611154.790,-10.742,-968.750,-844.727,-193.359,0
1581611154.794,8.789,-982.422,-710.938,-107.422,0
1581611154.798,49.316,-933.105,-535.645,-25.879,0
1581611154.802,30.273,-907.715,-594.238,30.273,0
1581611154.806,-10.254,-973.633,-749.512,38.086,0
1581611154.808,10.742,-974.609,-651.855,68.848,0
1581611154.812,48.340,-969.238,-572.754,147.949,0
1581611154.816,56.641,-969.238,-631.836,167.480,0
1581611154.820,13.184,-972.656,-659.180,172.363,0
1581611154.824,-1.953,-965.820,-567.871,221.680,0
1581611154.828,53.223,-967.773,-615.234,270.996,0
1581611154.832,101.074,-973.633,-762.695,291.992,0
1581611154.835,57.617,-971.191,-755.371,237.793,0
1581611154.839,10.254,-972.656,-695.312,207.031,0
1581611154.843,57.129,-972.656,-641.113,292.480,0
1581611154.847,110.352,-971.680,-694.824,325.195,0
1581611154.851,81.055,-973.145,-717.773,291.504,0
1581611154.867,33.691,-971.191,-620.117,253.418,0
1581611154.871,46.387,-956.543,-632.812,270.020,0
1581611154.875,104.492,-953.613,-634.277,326.172,0
1581611154.879,98.633,-947.754,-620.117,298.340,0
1581611154.883,36.621,-947.754,-603.027,284.668,0
1581611154.887,8.789,-965.820,-798.340,289.551,0
1581611154.891,57.129,-973.633,-910.645,366.699,0
1581611154.894,123.535,-933.594,-656.250,466.309,0
1581611154.898,81.543,-945.801,-579.102,432.129,0
1581611154.902,26.855,-975.586,-745.117,446.777,0
1581611154.906,72.266,-975.098,-820.312,492.676,0
1581611154.910,132.324,-945.312,-600.098,568.848,0
1581611154.912,118.164,-942.871,-548.340,611.816,0
1581611154.916,50.293,-975.586,-698.242,638.184,0
1581611154.920,63.477,-974.121,-683.594,743.652,0
1581611154.924,137.695,-948.730,-520.020,832.520,0
1581611154.928,127.441,-945.801,-509.766,874.512,0
1581611154.932,73.730,-971.680,-699.707,926.758,0
1581611154.936,60.059,-973.145,-750.000,985.840,0
1581611154.939,114.746,-971.680,-567.383,-999.023,0
1581611154.943,124.023,-972.656,-551.758,997.559,0
1581611154.947,60.547,-972.656,-758.789,999.512,0
1581611154.951,31.738,-972.656,-736.328,999.512,0
1581611154.955,76.660,-972.656,-566.406,999.512,0
1581611154.957,137.695,-972.656,-612.305,999.512,0
1581611154.961,79.102,-972.168,-724.121,999.512,0
1581611154.965,18.066,-972.168,-699.219,999.512,0
1581611154.969,75.195,-972.168,-628.906,999.512,0
1581611154.973,137.207,-972.168,-633.301,999.512,0
1581611154.977,97.168,-972.168,-717.773,999.512,0
1581611154.981,34.668,-972.656,-787.598,999.512,0
1581611154.984,43.457,-972.656,-651.367,999.512,0
1581611154.988,103.516,-972.656,-674.316,999.512,0
1581611154.992,106.445,-972.656,-809.082,999.512,0
1581611154.996,47.363,-972.656,-682.617,999.512,0
1581611155.000,29.297,-972.168,-670.898,999.512,17050
1581611155.002,65.918,-972.168,-788.086,999.512,0
1581611155.006,104.492,-972.656,-793.457,999.512,0
1581611155.010,56.152,-972.168,-622.559,999.512,0
1581611155.014,13.184,-972.168,-632.324,999.512,0
1581611155.018,83.008,-972.656,-677.246,999.512,0
1581611155.022,131.348,-972.656,-716.309,999.512,0
1581611155.026,70.801,-972.168,-760.742,999.512,0
1581611155.029,21.973,-972.168,-692.871,999.512,0
1581611155.033,63.965,-972.656,-762.207,999.512,0
1581611155.037,117.188,-972.656,-762.695,999.512,0
1581611155.041,78.613,-972.168,-583.984,999.512,0
1581611155.045,-16.113,-972.656,-647.461,999.512,0
1581611155.047,-4.883,-972.656,-793.945,999.512,0
1581611155.051,83.984,-972.656,-728.516,999.512,0
1581611155.055,66.895,-972.168,-662.598,999.512,0
1581611155.059,-10.742,-972.168,-764.648,999.512,0
1581611155.063,-11.719,-972.168,-772.949,999.512,0
1581611155.067,24.902,-972.656,-764.160,999.512,0
1581611155.071,60.547,-972.656,-774.414,999.512,0
1581611155.074,21.973,-972.168,-812.988,999.512,0
1581611155.078,-28.809,-972.168,-914.062,999.512,0
1581611155.082,10.254,-973.145,-744.629,999.512,0
1581611155.086,46.387,-963.379,-565.918,999.512,0
1581611155.090,1.953,-964.355,-754.395,999.512,0
1581611155.092,-55.664,-972.656,-878.418,999.512,0
1581611155.096,1.953,-978.516,-703.125,999.512,0
1581611155.100,79.102,-916.504,-606.445,999.512,0
1581611155.104,58.594,-917.480,-651.367,-1000.000,0
1581611155.108,-4.395,-978.516,-684.082,998.535,0
1581611155.112,14.160,-970.215,-753.906,990.723,0
1581611155.116,111.816,-971.680,-838.867,-990.723,0
1581611155.119,143.066,-972.168,-892.578,855.957,0
1581611155.123,69.824,-973.145,-907.227,550.293,0
1581611155.127,53.711,-970.703,-783.691,304.199,0
1581611155.131,137.207,-969.238,-782.227,136.230,0
1581611155.135,171.875,-972.168,-932.617,50.781,0
1581611155.152,117.188,-973.145,-949.219,-18.066,0
1581611155.156,67.383,-967.285,-826.172,26.855,0
1581611155.160,113.281,-967.285,-846.191,70.312,0
1581611155.164,166.504,-972.168,-912.109,117.188,0
1581611155.168,110.840,-972.656,-856.445,212.891,0
1581611155.172,52.734,-972.168,-867.676,290.039,0
1581611155.176,81.543,-972.656,-955.078,375.977,0
1581611155.179,119.629,-972.656,-903.809,403.809,0
1581611155.183,115.723,-972.168,-831.055,413.574,0
1581611155.187,72.754,-972.168,-751.465,477.539,0
1581611155.191,39.062,-970.215,-799.805,516.602,0
1581611155.195,83.984,-980.469,-890.625,558.594,0
1581611155.182,100.586,-930.664,-668.945,557.129,0
1581611155.186,18.555,-919.922,-619.629,535.156,0
1581611155.190,-9.277,-975.098,-773.438,594.727,0
1581611155.194,61.523,-972.656,-764.648,640.625,0
1581611155.198,97.656,-956.543,-621.582,689.941,0
1581611155.202,39.062,-963.379,-749.512,653.320,0
1581611155.206,-15.137,-975.586,-951.660,579.102,0
1581611155.209,32.227,-968.750,-823.242,600.586,0
1581611155.213,83.496,-962.891,-659.668,578.125,0
1581611155.217,37.598,-958.496,-670.898,494.141,0
1581611155.221,-10.742,-964.355,-831.543,346.680,0
1581611155.225,5.371,-977.539,-1000.000,253.906,0
1581611155.228,64.453,-963.379,-848.145,324.707,0
1581611155.232,72.754,-944.824,-692.383,306.641,0
1581611155.236,12.695,-968.750,-886.230,229.492,0
1581611155.240,1.953,-974.609,-872.070,166.992,0
1581611155.244,72.266,-970.703,-749.023,156.738,0
1581611155.248,76.660,-972.656,-866.699,184.570,0
1581611155.252,6.348,-972.168,-970.703,109.863,0
1581611155.255,-26.855,-975.098,-851.074,113.770,0
1581611155.259,36.621,-956.543,-700.684,145.996,0
1581611155.263,87.402,-957.031,-782.227,153.320,0
1581611155.267,40.527,-975.098,-914.551,165.527,0
1581611155.271,-15.137,-971.680,-824.219,148.926,0
1581611155.288,-0.488,-972.168,-743.652,186.035,0
1581611155.292,64.941,-972.168,-792.480,158.691,0
1581611155.296,58.594,-972.168,-842.773,97.656,0
1581611155.300,-2.930,-972.656,-807.617,37.109,0
1581611155.304,19.043,-972.168,-761.230,-14.160,0
1581611155.308,104.980,-972.168,-877.930,-17.578,0
1581611155.312,119.629,-972.656,-972.168,-67.871,0
1581611155.315,53.223,-972.656,-873.047,-43.457,0
1581611155.319,39.551,-972.656,-778.809,100.098,0
1581611155.323,97.656,-972.168,-831.543,281.250,0
1581611155.327,98.633,-973.145,-768.066,495.117,0
1581611155.331,14.160,-969.727,-629.883,617.676,0
1581611155.333,-30.762,-977.539,-638.672,755.859,0
1581611155.337,31.738,-956.543,-634.766,885.254,0
1581611155.341,78.613,-919.434,-564.453,873.535,0
1581611155.345,40.039,-951.172,-573.242,780.762,0
1581611155.349,-13.672,-973.145,-705.078,623.047,0
1581611155.353,27.344,-971.191,-890.625,494.141,0
1581611155.357,111.816,-972.168,-861.328,421.875,0
1581611155.360,102.539,-972.656,-796.387,253.418,0
1581611155.364,37.109,-972.168,-855.469,67.871,0
1581611155.368,20.508,-972.168,-960.449,-115.723,0
1581611155.372,98.145,-971.191,-864.746,-168.945,0
1581611155.376,116.699,-942.383,-740.234,-168.945,0
1581611155.378,38.086,-939.941,-848.145,-244.141,0
1581611155.382,13.184,-974.121,-958.496,-224.609,0
1581611155.386,68.848,-974.609,-852.539,-182.129,0
1581611155.390,103.027,-954.102,-729.980,-108.887,0
1581611155.394,64.453,-959.473,-797.852,-76.172,0
1581611155.398,21.484,-975.586,-950.684,-110.840,0
1581611155.402,45.898,-971.191,-901.367,-94.727,0
1581611155.405,76.172,-972.656,-823.242,-124.023,0
1581611155.409,35.645,-968.750,-925.781,-211.426,0
1581611155.413,-10.254,-979.980,-929.688,-210.938,0
1581611155.417,10.254,-944.336,-732.910,-134.277,0
1581611155.421,63.477,-873.535,-626.953,-33.203,0
1581611155.423,49.805,-933.105,-758.789,-61.523,0
1581611155.427,-15.625,-990.234,-799.805,-84.473,0
1581611155.431,-20.996,-940.918,-670.410,-12.207,0
1581611155.435,49.316,-896.973,-642.578,5.371,0
1581611155.439,81.543,-951.660,-675.781,-33.203,0
1581611155.443,2.930,-974.609,-823.242,-141.602,0
1581611155.447,-46.387,-969.727,-895.020,-178.711,0
1581611155.450,19.531,-972.656,-850.098,-166.016,0
1581611155.454,67.383,-972.656,-922.363,-188.477,0
1581611155.458,33.203,-972.168,-782.227,-201.660,0
1581611155.462,-18.555,-972.168,-735.352,-217.773,0
1581611155.466,1.465,-972.168,-918.945,-182.617,0
1581611155.468,55.176,-972.168,-889.160,-136.719,0
1581611155.472,20.508,-972.168,-732.910,-166.504,0
1581611155.476,-47.363,-972.656,-707.520,-169.922,0
1581611155.480,-22.461,-972.656,-756.836,-148.438,0
1581611155.484,58.594,-971.680,-738.770,-88.867,0
1581611155.488,41.016,-972.168,-738.770,-61.035,0
1581611155.492,-21.484,-972.168,-759.277,-64.453,0
1581611155.495,-15.137,-972.168,-853.516,-39.551,0
1581611155.499,46.387,-974.121,-852.539,-12.695,0
1581611155.503,71.777,-955.078,-656.250,15.137,0
1581611155.507,25.879,-953.125,-670.898,-8.301,0
1581611155.511,-3.418,-989.258,-884.766,21.973,0
1581611155.513,40.527,-911.621,-744.629,173.340,0
1581611155.517,98.145,-885.742,-540.039,245.117,0
1581611155.521,47.363,-978.027,-715.332,211.426,0
1581611155.525,-22.949,-973.633,-779.785,225.586,0
1581611155.529,8.789,-969.727,-674.316,276.367,0
1581611155.533,85.449,-973.145,-672.363,305.664,0
1581611155.537,58.594,-972.656,-815.918,234.863,0
1581611155.540,-14.160,-969.727,-900.879,184.082,0
1581611155.544,0.000,-980.469,-755.859,199.219,0
1581611155.548,68.359,-938.965,-579.102,216.309,0
1581611155.552,77.637,-924.805,-676.758,185.059,0
1581611155.556,-4.883,-976.074,-840.332,42.969,0
1581611155.558,-7.812,-973.145,-779.297,-17.578,0
1581611155.562,53.223,-971.191,-702.637,6.348,0
1581611155.566,72.754,-972.656,-777.344,-24.902,0
1581611155.570,22.949,-972.168,-819.336,-79.590,0
1581611155.574,-1.465,-972.168,-807.129,-125.977,0
1581611155.578,20.996,-972.168,-898.926,-86.426,0
1581611155.582,61.035,-972.168,-948.242,-31.250,0
1581611155.585,44.434,-972.656,-866.211,-61.035,0
1581611155.589,-19.043,-972.168,-708.496,-45.898,0
1581611155.593,-6.836,-971.191,-670.898,-9.277,0
1581611155.597,51.270,-973.633,-765.625,50.293,0
1581611155.601,29.785,-967.773,-740.234,82.031,0
1581611155.603,-32.715,-916.992,-566.406,81.543,0
1581611155.607,-36.133,-937.988,-646.484,84.473,0
1581611155.611,21.973,-967.773,-735.352,97.168,0
1581611155.615,47.852,-957.520,-637.695,151.855,0
1581611155.619,-3.418,-973.145,-660.645,143.555,0
1581611155.623,-55.664,-974.121,-837.891,183.105,0
1581611155.627,-9.277,-966.797,-819.336,281.738,0
1581611155.630,37.598,-960.938,-695.801,315.918,0
1581611155.634,-27.344,-972.656,-658.691,330.078,0
1581611155.638,-78.613,-970.215,-761.719,299.805,0
1581611155.642,-33.203,-978.027,-879.883,273.438,0
1581611155.646,40.527,-945.312,-659.668,264.160,0
1581611155.663,3.418,-907.715,-556.152,200.195,0
1581611155.667,-71.289,-953.613,-747.070,200.195,0
1581611155.671,-38.574,-986.328,-777.344,273.926,0
1581611155.675,44.434,-926.758,-582.520,367.676,0
1581611155.679,31.250,-890.137,-509.277,429.199,0
1581611155.683,-32.227,-958.496,-721.680,445.801,0
1581611155.687,-14.160,-980.469,-881.348,554.199,0
1581611155.690,23.926,-962.402,-645.508,674.316,0
1581611155.694,18.066,-923.340,-471.191,694.336,0
1581611155.698,-45.898,-948.242,-657.227,560.059,0
1581611155.702,-73.242,-987.305,-823.242,400.879,0
1581611155.706,-7.812,-933.105,-651.367,418.457,0
1581611155.708,36.133,-904.297,-563.965,417.969,0
1581611155.712,-15.625,-967.773,-734.863,340.332,0
1581611155.716,-73.242,-976.562,-746.094,308.105,0
1581611155.720,-43.945,-965.332,-631.348,399.414,0
1581611155.724,20.508,-965.332,-631.348,617.188,0
1581611155.728,-7.324,-971.191,-756.836,764.160,0
1581611155.732,-79.590,-972.656,-765.137,905.273,0
1581611155.735,-45.410,-972.168,-606.934,967.285,0
1581611155.739,29.785,-972.656,-632.324,950.684,0
1581611155.743,35.156,-972.656,-759.277,892.090,0
1581611155.747,5.371,-972.656,-687.012,622.070,0
1581611155.751,1.953,-972.656,-681.152,346.680,0
1581611155.753,48.340,-972.168,-812.988,39.551,0
1581611155.757,83.496,-972.168,-981.445,-330.078,0
1581611155.761,53.711,-972.168,-936.523,-562.012,0
1581611155.765,41.016,-972.168,-896.484,-787.109,0
1581611155.769,91.309,-972.656,-956.543,-944.824,0
1581611155.773,104.980,-972.656,-975.586,-970.703,0
1581611155.777,60.547,-972.168,-969.727,-969.727,0
1581611155.780,13.672,-971.680,-969.727,-972.656,0
1581611155.784,34.668,-976.074,-981.934,-972.656,0
1581611155.788,87.891,-948.730,-910.645,-970.215,0
1581611155.792,51.758,-949.707,-887.695,-974.121,0
1581611155.796,-20.996,-975.586,-938.965,-952.148,0
1581611155.798,-5.371,-974.609,-941.895,-865.723,0
1581611155.802,72.266,-945.801,-845.215,-788.574,0
1581611155.806,60.059,-942.871,-798.340,-791.016,0
1581611155.810,-42.969,-974.609,-895.996,-870.605,0
1581611155.814,-74.707,-972.168,-961.426,-891.113,0
1581611155.818,3.906,-971.680,-986.328,-760.742,0
1581611155.822,37.598,-972.656,-915.527,-671.387,0
1581611155.825,-35.156,-971.680,-879.395,-600.586,0
1581611155.829,-63.965,-971.191,-942.383,-541.016,0
1581611155.833,12.695,-979.980,-838.867,-430.664,0
1581611155.837,46.387,-919.434,-597.168,-209.473,0
1581611155.841,-2.930,-919.434,-704.590,-162.598,0
1581611155.843,-46.387,-979.004,-866.699,-137.207,0
1581611155.847,-6.348,-972.656,-703.125,-104.980,0
1581611155.851,47.852,-966.797,-609.375,-69.336,0
1581611155.855,25.391,-963.379,-665.527,-28.320,0
1581611155.859,-38.086,-972.656,-724.609,-79.590,0
1581611155.863,-42.969,-972.656,-760.742,-85.449,0
1581611155.867,23.926,-972.168,-764.648,-102.539,0
1581611155.870,26.367,-971.680,-824.707,-163.574,0
1581611155.874,-44.922,-972.168,-881.348,-202.637,0
1581611155.878,-73.730,-977.539,-725.098,-200.195,0
1581611155.882,1.465,-931.641,-629.883,-143.555,0
1581611155.886,47.852,-939.453,-718.750,-154.297,0
1581611155.887,-14.160,-976.562,-802.734,-219.238,0
1581611155.891,-44.434,-968.750,-802.246,-200.684,0
1581611155.895,7.324,-969.238,-772.461,-151.367,0
1581611155.899,43.945,-964.355,-708.008,-107.910,0
1581611155.903,11.719,-960.938,-684.082,-179.688,0
1581611155.907,-30.273,-968.750,-791.016,-230.469,0
1581611155.911,0.488,-973.145,-918.945,-155.273,0
1581611155.914,63.965,-973.145,-890.625,-123.047,0
1581611155.918,48.340,-944.336,-731.934,-138.184,0
1581611155.922,1.465,-918.457,-643.066,-222.168,0
1581611155.926,-3.906,-956.055,-812.012,-322.754,0
1581611155.930,59.082,-976.562,-938.965,-355.469,0
1581611155.932,91.309,-970.215,-785.156,-441.895,0
1581611155.936,36.133,-972.656,-724.121,-503.906,0
1581611155.940,-3.418,-972.168,-883.301,-555.176,0
1581611155.944,41.504,-972.656,-924.316,-578.125,0
1581611155.948,81.055,-971.680,-728.516,-484.375,0
1581611155.952,12.207,-972.168,-820.801,-424.316,0
1581611155.956,-39.062,-968.750,-992.188,-284.180,0
1581611155.959,20.508,-981.445,-844.238,-61.523,0
1581611155.963,64.453,-935.547,-580.566,184.570,0
1581611155.967,12.207,-888.672,-488.770,337.891,0
1581611155.971,-48.828,-957.031,-648.438,341.797,0
1581611155.975,-37.598,-978.027,-691.406,315.918,0
1581611155.977,19.531,-955.566,-600.098,195.312,0
1581611155.981,39.062,-966.797,-723.145,7.812,0
1581611155.985,8.301,-974.609,-823.730,-208.496,0
1581611155.989,-0.488,-971.191,-762.695,-452.637,0
1581611155.993,77.637,-972.656,-750.977,-678.711,0
1581611155.997,109.863,-972.656,-872.070,-880.371,0
1581611156.001,42.480,-970.215,-972.168,-976.562,0
1581611156.004,8.301,-977.051,-908.203,-968.262,0
1581611156.008,49.316,-958.496,-791.992,-971.680,0
1581611156.012,83.984,-942.871,-834.961,-973.145,0
1581611156.016,27.832,-972.168,-950.684,-968.750,0
1581611156.020,-18.066,-973.633,-910.645,-978.027,0
1581611156.037,31.250,-971.191,-864.746,-945.801,0
1581611156.041,71.777,-972.656,-877.441,-846.191,0
1581611156.045,39.551,-972.168,-826.172,-832.031,0
1581611156.049,-14.648,-972.168,-781.250,-922.363,0
1581611156.053,8.789,-972.168,-861.816,-935.059,0
1581611156.057,68.359,-972.656,-907.715,-871.582,0
1581611156.061,44.434,-972.656,-870.117,-870.605,0
1581611156.064,-21.484,-972.168,-796.875,-890.137,0
1581611156.068,-27.832,-970.703,-801.758,-890.137,0
1581611156.072,39.062,-977.051,-830.078,-765.137,0
1581611156.076,58.594,-938.477,-735.840,-634.277,0
1581611156.080,-1.953,-908.203,-600.586,-604.492,0
1581611156.082,-18.066,-953.613,-658.691,-553.711,0
1581611156.086,33.203,-976.074,-781.738,-514.648,0
1581611156.090,70.312,-970.703,-710.938,-427.734,17100
1581611156.094,42.969,-972.168,-620.605,-387.207,0
1581611156.098,-22.461,-972.656,-758.789,-417.969,0
1581611156.102,-21.484,-972.656,-858.398,-366.699,0
1581611156.106,64.941,-972.168,-801.270,-359.863,0
1581611156.109,49.316,-972.656,-818.359,-442.871,0
1581611156.113,-27.344,-971.680,-914.551,-531.738,0
1581611156.117,-13.184,-972.656,-906.250,-575.195,0
1581611156.121,55.176,-969.727,-754.883,-597.168,0
1581611156.125,64.941,-939.453,-651.367,-684.082,0
1581611156.127,-1.953,-944.336,-803.223,-766.602,0
1581611156.131,-20.996,-975.098,-908.203,-792.480,0
1581611156.135,38.574,-975.098,-764.648,-798.828,0
1581611156.139,67.871,-937.500,-671.387,-788.086,0
1581611156.143,1.953,-947.754,-812.012,-902.344,0
1581611156.147,-39.551,-978.027,-987.793,-960.449,0
1581611156.151,17.578,-970.215,-969.727,-898.926,0
1581611156.154,62.500,-972.656,-908.203,-899.902,0
1581611156.158,31.250,-972.168,-901.367,-931.641,0
1581611156.162,-17.090,-972.168,-981.934,-960.449,0
1581611156.166,-11.719,-972.168,-917.480,-919.434,0
1581611156.170,40.039,-972.168,-753.418,-833.008,0
1581611156.172,36.621,-972.656,-777.832,-819.824,0
1581611156.176,-23.926,-972.656,-821.289,-862.305,0
1581611156.180,-16.602,-972.168,-710.938,-860.840,0
1581611156.184,49.805,-972.168,-718.750,-774.414,0
1581611156.188,73.730,-972.168,-817.383,-718.750,0
1581611156.192,13.672,-972.168,-860.840,-694.336,0
1581611156.196,-14.648,-972.656,-829.590,-610.352,0
1581611156.199,45.410,-972.656,-776.855,-513.672,0
1581611156.203,69.824,-972.656,-811.523,-407.227,0
1581611156.207,27.832,-971.191,-678.711,-337.402,0
1581611156.211,-17.090,-971.680,-570.801,-264.648,0
1581611156.215,21.484,-972.656,-724.121,-190.430,0
1581611156.217,64.941,-972.168,-854.004,-121.094,0
1581611156.221,33.691,-972.168,-716.797,-42.969,0
1581611156.225,-16.113,-972.168,-611.816,33.691,0
1581611156.229,-2.930,-973.633,-662.598,125.000,0
1581611156.233,63.965,-963.379,-591.309,244.629,0
1581611156.237,53.711,-965.820,-589.355,293.945,0
1581611156.241,-37.598,-973.633,-720.215,340.820,0
1581611156.244,-49.316,-971.191,-781.738,426.270,0
1581611156.248,26.367,-974.121,-675.781,498.047,0
1581611156.252,59.082,-948.242,-444.336,575.195,0
1581611156.256,-2.441,-939.453,-466.309,569.824,0
1581611156.260,-51.270,-974.121,-648.926,607.910,0
1581611156.262,-2.930,-970.703,-585.938,718.262,0
1581611156.266,47.852,-874.512,-362.793,811.523,0
1581611156.270,-7.812,-861.816,-372.070,816.895,0
1581611156.274,-67.383,-961.914,-575.195,749.512,0
1581611156.278,-35.645,-975.586,-588.867,817.871,0
1581611156.282,14.160,-967.773,-520.508,888.184,0
1581611156.286,1.465,-973.145,-664.551,838.379,0
1581611156.289,-43.457,-973.633,-769.043,789.062,0
1581611156.293,-41.992,-968.262,-614.746,751.953,0
1581611156.297,24.414,-957.031,-471.680,797.852,0
1581611156.301,40.527,-963.867,-673.340,784.180,0
1581611156.305,-28.809,-973.633,-839.844,747.070,0
1581611156.308,-44.922,-972.168,-687.012,791.016,0
1581611156.312,15.625,-972.168,-643.066,817.383,0
1581611156.316,40.039,-972.168,-649.902,837.402,0
1581611156.320,-22.949,-973.145,-636.230,755.859,0
1581611156.324,-50.781,-968.750,-596.191,658.691,0
1581611156.328,8.301,-969.238,-684.570,532.715,0
1581611156.332,54.199,-973.145,-891.113,342.773,0
1581611156.335,-0.977,-972.168,-927.734,215.820,0
1581611156.339,-46.875,-972.656,-829.102,117.188,0
1581611156.343,-10.254,-972.168,-782.715,117.676,0
1581611156.347,31.738,-972.168,-865.723,148.438,0
1581611156.351,4.883,-972.656,-846.191,186.523,0
1581611156.353,-62.988,-970.703,-719.727,354.492,0
1581611156.357,-43.457,-976.562,-723.145,552.734,0
1581611156.361,18.555,-959.961,-689.453,744.629,0
1581611156.365,15.137,-945.312,-605.957,778.320,0
1581611156.369,-39.062,-969.238,-644.043,660.156,0
1581611156.373,-48.340,-976.074,-840.820,536.621,0
1581611156.377,43.945,-965.820,-923.828,300.781,0
1581611156.380,93.262,-932.129,-782.227,33.203,0
1581611156.384,24.414,-935.547,-787.598,-331.055,0
1581611156.388,2.930,-964.844,-907.227,-658.691,0
1581611156.392,69.336,-974.609,-983.398,-756.836,0
1581611156.396,139.160,-961.426,-921.875,-791.992,0
1581611156.413,117.188,-964.355,-896.973,-826.172,0
1581611156.417,62.012,-974.609,-951.172,-823.730,0
1581611156.421,79.102,-971.680,-935.547,-698.730,0
1581611156.425,129.883,-972.656,-810.059,-443.848,0
1581611156.429,107.910,-970.703,-698.242,-236.816,0
1581611156.433,15.625,-969.727,-822.266,-59.570,0
1581611156.437,8.789,-976.074,-904.297,26.855,0
1581611156.440,65.918,-963.379,-675.293,197.266,0
1581611156.444,52.246,-951.660,-550.781,378.906,0
1581611156.448,-13.184,-969.238,-740.234,354.492,0
1581611156.452,-34.668,-978.027,-776.855,332.031,0
1581611156.456,19.043,-952.637,-582.520,287.598,0
1581611156.458,49.316,-949.707,-672.363,273.438,0
1581611156.462,-12.207,-975.586,-816.895,299.316,0
1581611156.466,-48.828,-972.168,-765.137,320.312,0
1581611156.470,7.812,-972.168,-682.617,428.223,0
1581611156.474,55.664,-966.309,-628.418,502.930,0
1581611156.478,22.461,-969.727,-700.195,516.113,0
1581611156.482,-28.320,-973.633,-775.391,579.590,0
1581611156.485,-7.812,-972.168,-712.891,620.605,0
1581611156.489,62.012,-972.656,-694.336,677.246,0
1581611156.493,51.758,-971.191,-791.992,613.770,0
1581611156.497,-32.227,-975.098,-785.645,484.863,0
1581611156.501,-51.270,-964.844,-658.203,515.625,0
1581611156.503,16.113,-952.148,-684.082,504.395,0
1581611156.507,45.898,-967.773,-789.062,399.414,0
1581611156.511,-21.973,-972.168,-709.473,225.586,0
1581611156.515,-60.059,-972.168,-829.102,84.473,0
1581611156.519,-9.277,-972.168,-892.090,52.246,0
1581611156.523,52.734,-972.656,-886.230,-17.578,0
1581611156.527,2.930,-972.168,-935.059,-124.512,0
1581611156.530,-64.941,-970.215,-969.238,-251.953,0
1581611156.534,-31.738,-976.074,-981.934,-305.176,0
1581611156.538,20.996,-946.289,-880.371,-265.625,0
1581611156.542,18.066,-880.371,-725.586,-298.340,0
1581611156.546,-36.133,-882.324,-721.680,-329.590,0
1581611156.548,-37.598,-967.773,-875.488,-379.883,0
1581611156.552,43.457,-914.062,-813.965,-390.137,0
1581611156.556,38.574,-889.160,-712.891,-360.352,0
1581611156.560,-32.227,-975.098,-860.840,-439.453,0
1581611156.564,-23.926,-973.633,-942.871,-463.379,0
1581611156.568,34.180,-970.215,-894.043,-498.047,0
1581611156.572,78.125,-972.656,-878.418,-571.289,0
1581611156.575,26.367,-972.656,-938.965,-643.066,0
1581611156.579,-11.719,-972.168,-948.242,-732.910,0
1581611156.583,38.086,-972.656,-869.141,-765.137,0
1581611156.587,66.406,-971.680,-793.457,-811.523,0
1581611156.591,15.137,-969.238,-854.004,-868.652,0
1581611156.593,-39.062,-969.727,-966.309,-815.430,0
1581611156.597,13.672,-980.469,-846.680,-634.277,0
1581611156.601,77.637,-924.316,-655.762,-355.957,0
1581611156.605,28.320,-916.016,-660.645,-153.320,0
1581611156.609,-41.992,-978.027,-745.117,-30.273,0
1581611156.613,-42.969,-972.168,-775.879,129.395,0
1581611156.617,9.277,-971.191,-783.203,218.750,0
1581611156.620,39.062,-972.656,-779.785,191.895,0
1581611156.624,-10.254,-972.168,-771.973,11.719,0
1581611156.628,-34.668,-973.633,-760.254,-145.020,0
1581611156.632,34.180,-965.820,-701.660,-240.234,0
1581611156.636,85.938,-966.797,-816.406,-413.574,0
1581611156.638,27.344,-974.121,-928.223,-611.328,0
1581611156.642,-25.391,-971.680,-843.750,-770.996,0
1581611156.646,13.672,-971.680,-830.078,-773.438,0
1581611156.650,64.453,-972.168,-858.398,-690.918,0
1581611156.654,27.832,-960.938,-783.691,-659.180,0
1581611156.658,-42.480,-962.891,-831.055,-586.426,0
1581611156.662,-27.832,-979.004,-966.797,-518.066,0
1581611156.665,34.180,-960.449,-890.625,-397.949,0
1581611156.669,13.184,-914.062,-697.754,-328.125,0
1581611156.673,-40.039,-952.148,-696.777,-399.902,0
1581611156.677,-33.691,-979.004,-836.914,-434.570,0
1581611156.681,21.973,-969.727,-932.129,-507.812,0
1581611156.683,32.227,-971.191,-805.176,-556.152,0
1581611156.687,-46.875,-969.727,-737.793,-597.168,0
1581611156.691,-72.754,-973.145,-836.914,-613.281,0
1581611156.695,2.441,-975.098,-828.125,-539.551,0
1581611156.699,38.086,-937.012,-673.340,-503.906,0
1581611156.703,-3.906,-949.707,-739.258,-479.980,0
1581611156.707,-46.387,-977.051,-949.707,-430.664,0
1581611156.710,-7.812,-972.168,-856.934,-360.840,0
1581611156.714,57.617,-934.082,-635.254,-275.391,0
1581611156.718,22.949,-879.395,-572.266,-287.109,0
1581611156.722,-40.527,-941.895,-759.277,-294.434,0
1581611156.726,-19.043,-981.445,-805.176,-248.535,0
1581611156.728,52.246,-969.238,-705.078,-229.004,0
1581611156.732,40.039,-962.402,-691.895,-215.820,0
1581611156.736,-44.922,-966.797,-719.727,-276.367,0
1581611156.740,-53.223,-974.609,-816.895,-311.035,0
1581611156.744,35.156,-971.680,-748.535,-290.527,0
1581611156.748,55.664,-972.656,-778.320,-301.270,0
1581611156.752,-17.090,-972.168,-922.852,-354.492,0
1581611156.755,-37.598,-972.168,-825.684,-381.348,0
1581611156.759,25.879,-972.656,-681.152,-332.031,0
1581611156.763,64.453,-972.656,-770.996,-291.016,0
1581611156.767,15.137,-972.656,-890.137,-303.711,0
1581611156.771,-20.996,-972.656,-755.859,-300.781,0
1581611156.788,30.273,-972.656,-682.129,-297.363,0
1581611156.792,83.984,-972.656,-732.910,-255.371,0
1581611156.796,37.109,-972.656,-748.047,-260.254,0
1581611156.800,-9.277,-972.168,-728.516,-312.500,0
1581611156.804,9.766,-972.168,-728.027,-294.922,0
1581611156.808,59.570,-972.656,-806.152,-279.297,0
1581611156.812,70.312,-972.656,-884.277,-261.230,0
1581611156.815,10.742,-972.656,-858.398,-230.469,0
1581611156.819,-9.277,-972.168,-737.793,-182.617,0
1581611156.823,49.805,-973.145,-791.504,-120.605,0
1581611156.827,79.590,-968.750,-764.160,-98.145,0
1581611156.831,29.785,-968.750,-618.164,-70.801,0
1581611156.833,0.977,-973.145,-643.066,6.348,0
1581611156.837,33.203,-972.168,-673.340,102.539,0
1581611156.841,62.988,-972.168,-629.883,196.777,0
1581611156.845,23.438,-972.656,-610.840,221.191,0
1581611156.849,-35.156,-972.656,-643.066,314.453,0
1581611156.853,-2.441,-972.168,-721.191,466.309,0
1581611156.857,63.965,-972.656,-704.590,587.891,0
1581611156.860,28.809,-973.145,-534.668,677.246,0
1581611156.864,-38.086,-970.703,-597.168,692.383,0
1581611156.868,-22.949,-974.609,-758.301,761.230,0
1581611156.872,29.297,-968.750,-552.246,884.766,0
1581611156.876,45.410,-915.039,-357.910,954.590,0
1581611156.878,-23.438,-934.570,-563.965,958.008,0
1581611156.882,-47.852,-978.027,-705.566,967.773,0
1581611156.886,26.855,-973.633,-498.047,998.047,0
1581611156.890,45.898,-957.031,-431.641,-1000.000,0
1581611156.894,-18.066,-955.078,-523.438,998.047,0
1581611156.898,-39.062,-974.609,-710.449,999.512,0
1581611156.902,11.719,-972.168,-723.633,999.512,0
1581611156.905,24.902,-972.168,-588.379,999.512,0
1581611156.909,-19.531,-971.680,-675.293,999.512,0
1581611156.913,-81.055,-973.145,-714.844,999.512,0
1581611156.917,-48.828,-971.191,-530.762,999.512,0
1581611156.921,6.348,-964.844,-549.316,999.512,0
1581611156.923,8.789,-970.215,-678.711,999.512,0
1581611156.927,-34.668,-970.215,-626.465,999.512,0
1581611156.931,-50.781,-971.191,-583.496,999.512,0
1581611156.935,27.832,-964.355,-582.031,999.512,0
1581611156.939,30.273,-968.262,-640.137,999.512,0
1581611156.943,-53.223,-974.121,-714.844,997.559,0
1581611156.947,-62.988,-971.191,-739.258,997.070,0
1581611156.950,0.977,-972.656,-772.461,990.723,0
1581611156.954,35.156,-974.609,-824.707,889.160,0
1581611156.958,-19.043,-955.566,-695.312,724.121,0
1581611156.962,-57.617,-958.496,-645.996,666.504,0
1581611156.966,0.000,-975.098,-809.570,662.109,0
1581611156.968,69.824,-971.680,-858.398,687.012,0
1581611156.972,30.762,-972.168,-692.383,659.180,0
1581611156.976,-42.969,-972.656,-764.160,550.293,0
1581611156.980,-31.738,-972.656,-881.348,553.711,0
1581611156.984,40.527,-972.656,-749.512,555.176,0
1581611156.988,26.855,-972.656,-779.297,446.777,0
1581611156.992,-48.828,-971.191,-939.941,273.438,0
1581611156.995,-56.641,-972.168,-987.793,109.375,0
1581611156.999,10.254,-975.098,-896.973,54.199,0
1581611157.003,40.527,-939.941,-740.723,19.043,0
1581611157.007,-22.461,-938.965,-752.441,-17.578,0
1581611157.011,-42.969,-972.168,-907.715,5.859,0
1581611157.012,24.902,-972.168,-880.371,119.629,0
1581611157.016,55.176,-967.773,-708.984,332.031,0
1581611157.020,-5.371,-970.703,-722.168,444.824,0
1581611157.024,-50.781,-973.145,-773.438,564.941,0
1581611157.028,0.000,-972.168,-685.547,673.828,0
1581611157.032,59.570,-972.656,-686.523,638.672,0
1581611157.036,31.250,-970.703,-853.516,475.098,0
1581611157.039,-8.789,-973.145,-951.172,172.363,0
1581611157.043,23.926,-969.727,-825.195,-102.051,0
1581611157.047,106.934,-903.809,-728.516,-381.836,0
1581611157.051,114.746,-906.738,-822.754,-687.988,0
1581611157.055,48.828,-975.098,-973.145,-901.855,0
1581611157.057,36.621,-973.633,-960.938,-975.098,0
1581611157.061,105.957,-967.773,-874.023,-964.844,0
1581611157.065,139.648,-968.262,-891.113,-970.703,0
1581611157.069,48.828,-972.656,-982.422,-959.961,0
1581611157.073,-10.742,-972.656,-954.102,-791.992,0
1581611157.077,41.992,-970.215,-904.297,-559.082,0
1581611157.081,76.660,-979.004,-966.797,-382.324,0
1581611157.084,24.902,-941.406,-814.941,-286.133,0
1581611157.088,-39.551,-932.129,-684.570,-260.742,0
1581611157.092,-28.809,-975.098,-769.531,-189.453,0
1581611157.096,17.090,-974.609,-784.668,-167.480,0
1581611157.100,-3.906,-964.844,-739.746,-195.312,0
1581611157.102,-63.965,-953.125,-653.320,-291.992,0
1581611157.106,-72.266,-968.750,-758.301,-350.098,0
1581611157.110,-17.090,-973.633,-803.711,-231.445,0
1581611157.114,13.672,-969.238,-690.430,-147.949,0
1581611157.118,-51.270,-972.168,-684.570,-90.820,0
1581611157.122,-82.520,-970.215,-774.902,-11.230,0
1581611157.126,-22.949,-977.051,-885.254,46.387,0
1581611157.129,23.438,-955.078,-719.238,158.203,0
1581611157.133,-10.254,-898.926,-489.258,173.340,0
1581611157.137,-63.477,-933.594,-673.340,111.816,0
1581611157.141,-44.922,-978.027,-830.566,41.504,0
1581611157.145,3.906,-970.703,-755.859,-26.367,0
1581611157.162,-12.207,-970.703,-767.090,-73.730,0
1581611157.166,-83.984,-973.633,-800.293,-166.016,0
1581611157.170,-69.336,-970.703,-774.414,-222.656,0
1581611157.174,2.930,-930.664,-656.250,-299.805,0
1581611157.178,-17.578,-941.406,-713.379,-418.457,0
1581611157.182,-101.074,-974.609,-918.945,-466.309,0
1581611157.186,-99.609,-977.051,-948.730,-451.660,0
1581611157.189,-20.508,-934.570,-749.512,-372.070,0
1581611157.193,-19.531,-887.207,-645.020,-377.930,17150
1581611157.197,-99.609,-937.500,-820.312,-410.645,0
1581611157.201,-96.680,-979.980,-859.863,-329.102,0
1581611157.205,-33.691,-950.684,-682.129,-245.605,0
1581611157.207,-3.418,-907.715,-629.883,-169.434,0
1581611157.211,-52.246,-949.707,-727.051,-211.914,0
1581611157.215,-105.469,-979.980,-869.629,-255.371,0
1581611157.219,-60.059,-969.238,-785.156,-146.973,0
1581611157.223,-10.254,-972.656,-700.684,-104.980,0
1581611157.227,-29.297,-971.680,-850.586,-160.645,0
1581611157.231,-85.938,-976.074,-920.410,-262.695,0
1581611157.234,-86.914,-942.383,-718.750,-317.383,0
1581611157.238,-20.020,-941.406,-704.102,-293.457,0
1581611157.242,-10.742,-975.586,-854.492,-384.277,0
1581611157.246,-84.961,-972.168,-796.875,-506.836,0
1581611157.250,-96.191,-971.680,-729.492,-550.781,0
1581611157.252,-37.598,-972.168,-850.586,-521.973,0
1581611157.256,-48.340,-975.098,-900.879,-361.328,0
1581611157.260,-101.074,-953.613,-657.227,-152.832,0
1581611157.264,-127.930,-956.055,-583.008,102.539,0
1581611157.268,-99.121,-976.074,-641.113,330.078,0
1581611157.272,-52.246,-971.680,-661.133,489.258,0
1581611157.276,-93.262,-972.168,-664.062,573.730,0
1581611157.279,-145.996,-969.727,-733.887,542.969,0
1581611157.283,-109.375,-981.934,-803.223,477.539,0
1581611157.287,-36.133,-920.898,-653.809,316.406,0
1581611157.291,-37.598,-893.066,-555.664,122.070,0
1581611157.295,-82.520,-956.543,-671.875,-41.016,0
1581611157.297,-57.617,-979.980,-849.121,-201.172,0
1581611157.301,27.344,-944.336,-806.641,-292.480,0
1581611157.305,28.809,-884.766,-652.832,-429.688,0
1581611157.309,-75.195,-936.035,-812.988,-555.664,0
1581611157.313,-85.449,-979.004,-952.148,-574.707,0
1581611157.317,-9.766,-969.727,-919.922,-589.844,0
1581611157.321,27.832,-972.168,-928.711,-619.629,0
1581611157.324,-32.715,-972.168,-955.078,-727.051,0
1581611157.328,-82.520,-971.680,-982.422,-791.504,0
1581611157.332,-25.879,-976.074,-933.105,-796.387,0
1581611157.336,31.738,-949.219,-796.387,-877.441,0
1581611157.340,-14.160,-947.266,-859.863,-964.844,0
1581611157.342,-91.309,-974.121,-979.004,-973.633,0
1581611157.346,-76.172,-974.609,-895.996,-969.727,0
1581611157.350,-20.996,-958.984,-786.133,-973.145,0
1581611157.354,-45.898,-954.102,-814.941,-972.656,0
1581611157.358,-97.656,-973.145,-867.188,-972.168,0
1581611157.362,-59.570,-972.656,-916.504,-972.168,0
1581611157.366,-7.324,-972.168,-875.000,-972.168,0
1581611157.369,-32.715,-972.656,-868.164,-972.168,0
1581611157.373,-76.660,-972.656,-952.637,-972.656,0
1581611157.377,-69.336,-972.168,-817.383,-972.656,0
1581611157.381,-28.320,-972.656,-770.020,-972.656,0
1581611157.385,4.883,-972.168,-876.953,-969.727,0
1581611157.387,-35.645,-971.191,-831.055,-973.633,0
1581611157.391,-83.984,-972.168,-733.887,-962.402,0
1581611157.395,-30.273,-972.656,-759.766,-861.816,0
1581611157.399,42.969,-972.168,-794.434,-789.551,0
1581611157.403,8.789,-972.656,-732.910,-772.949,0
1581611157.407,-67.383,-972.168,-808.594,-751.953,0
1581611157.411,-41.016,-970.215,-845.703,-700.684,0
1581611157.414,27.832,-980.957,-820.312,-662.598,0
1581611157.418,18.066,-925.293,-683.105,-722.656,0
1581611157.422,-40.527,-910.156,-578.125,-769.043,0
1581611157.426,-62.012,-971.680,-786.621,-785.645,0
1581611157.430,-11.230,-972.168,-891.113,-772.461,0
1581611157.432,21.973,-971.680,-692.383,-745.605,0
1581611157.436,-36.621,-971.191,-706.543,-786.621,0
1581611157.440,-76.172,-974.609,-897.461,-764.648,0
1581611157.444,-11.719,-967.285,-794.434,-652.344,0
1581611157.448,26.367,-952.637,-618.164,-604.980,0
1581611157.452,-15.625,-968.262,-724.121,-635.742,0
1581611157.456,-50.781,-974.609,-922.363,-687.012,0
1581611157.459,-16.602,-971.191,-856.934,-636.230,0
1581611157.463,40.039,-972.656,-659.180,-564.941,0
1581611157.467,12.695,-972.168,-645.020,-593.262,0
1581611157.471,-54.688,-969.727,-810.547,-611.328,0
1581611157.475,-34.180,-979.492,-880.371,-609.375,0
1581611157.478,35.645,-942.383,-638.184,-528.320,0
1581611157.482,23.438,-915.039,-569.336,-452.148,0
1581611157.486,-49.316,-966.309,-704.590,-439.941,0
1581611157.490,-54.199,-975.586,-728.516,-377.441,0
1581611157.494,13.184,-970.215,-664.062,-268.066,0
1581611157.498,32.227,-973.145,-781.250,-182.617,0
1581611157.502,-26.855,-971.680,-898.438,-119.629,0
1581611157.505,-51.758,-973.633,-732.422,-12.695,0
1581611157.509,2.930,-969.727,-532.715,102.051,0
1581611157.513,39.062,-960.449,-557.617,152.832,0
1581611157.517,5.371,-970.703,-708.984,157.715,0
1581611157.521,-36.621,-974.609,-626.953,182.617,0
1581611157.538,-3.906,-969.727,-521.484,245.605,0
1581611157.542,44.434,-967.285,-541.504,308.105,0
1581611157.546,-7.324,-972.168,-601.562,285.645,0
1581611157.550,-78.613,-972.656,-620.117,301.758,0
1581611157.554,-54.688,-972.168,-585.449,396.973,0
1581611157.558,8.301,-972.168,-666.992,445.801,0
1581611157.562,12.695,-972.168,-736.816,431.152,0
1581611157.565,-29.785,-972.168,-672.852,389.160,0
1581611157.569,-69.824,-972.168,-674.316,365.723,0
1581611157.573,-38.086,-973.633,-797.852,340.820,0
1581611157.577,2.441,-965.332,-741.699,319.824,0
1581611157.581,-43.945,-965.820,-597.656,264.160,0
1581611157.583,-87.402,-973.145,-720.703,190.430,0
1581611157.587,-29.785,-972.168,-772.949,194.824,0
1581611157.591,29.297,-973.145,-673.340,176.758,0
1581611157.595,-20.020,-960.449,-611.816,56.641,0
1581611157.599,-89.355,-959.961,-677.734,-17.578,0
1581611157.603,-53.223,-972.168,-838.379,-40.039,0
1581611157.607,25.391,-972.656,-912.109,-57.617,0
1581611157.610,2.930,-972.168,-764.648,-98.633,0
1581611157.614,-79.590,-972.656,-764.160,-141.602,0
1581611157.618,-85.938,-972.168,-895.996,-162.598,0
1581611157.622,-10.254,-972.168,-886.230,-236.328,0
1581611157.626,15.625,-973.145,-791.504,-270.508,0
1581611157.628,-49.805,-969.727,-840.820,-359.375,0
1581611157.632,-68.359,-976.074,-920.410,-425.293,0
1581611157.636,11.719,-963.867,-758.789,-419.922,0
1581611157.640,59.570,-910.645,-676.270,-494.629,0
1581611157.644,6.836,-939.453,-792.480,-550.293,0
1581611157.648,-50.293,-978.027,-936.035,-525.879,0
1581611157.652,-27.832,-970.215,-929.199,-457.520,0
1581611157.655,43.457,-972.168,-790.527,-372.070,0
1581611157.659,9.766,-972.656,-821.777,-333.496,0
1581611157.663,-42.480,-972.168,-894.043,-274.414,0
1581611157.667,-15.625,-972.168,-691.895,-218.262,0
1581611157.671,38.574,-972.168,-649.902,-208.984,0
1581611157.673,29.297,-972.168,-768.555,-282.227,0
1581611157.677,-52.246,-972.168,-888.672,-419.434,0
1581611157.681,-78.613,-972.168,-841.309,-405.762,0
1581611157.685,-9.277,-972.168,-756.836,-365.234,0
1581611157.689,23.926,-972.168,-812.500,-381.348,0
1581611157.693,-37.598,-972.656,-865.234,-385.254,0
1581611157.697,-61.035,-969.727,-910.156,-329.590,0
1581611157.700,-29.297,-976.074,-876.953,-160.156,0
1581611157.704,0.000,-962.402,-799.805,19.531,0
1581611157.708,-31.738,-922.852,-646.973,118.652,0
1581611157.712,-73.242,-945.801,-585.938,158.691,0
1581611157.716,-42.969,-978.516,-713.379,161.621,0
1581611157.718,19.043,-947.266,-742.676,138.184,0
1581611157.722,28.809,-926.758,-626.953,-61.523,0
1581611157.726,-29.297,-963.379,-693.359,-332.031,0
1581611157.730,-10.254,-974.609,-826.660,-624.512,0
1581611157.734,85.938,-971.191,-911.133,-915.527,0
1581611157.738,92.773,-972.656,-945.801,-976.562,0
1581611157.742,27.344,-971.680,-968.262,-964.844,0
1581611157.745,20.996,-972.656,-983.398,-972.656,0
1581611157.749,95.215,-973.145,-905.273,-968.750,0
1581611157.753,118.164,-955.566,-749.512,-968.262,0
1581611157.757,53.223,-959.961,-754.395,-867.188,0
1581611157.761,33.203,-984.863,-857.422,-634.766,0
1581611157.763,71.289,-922.363,-689.941,-313.477,0
1581611157.767,77.637,-868.164,-486.816,-106.934,0
1581611157.771,23.926,-937.012,-547.852,0.977,0
1581611157.775,-28.809,-974.609,-678.223,182.129,0
1581611157.779,7.324,-970.703,-645.020,281.738,0
1581611157.783,54.688,-972.168,-621.094,356.934,0
1581611157.787,8.301,-972.656,-690.918,354.004,0
1581611157.790,-55.176,-971.680,-754.395,328.613,0
1581611157.794,-36.133,-973.145,-668.457,411.621,0
1581611157.798,33.203,-971.191,-498.535,492.676,0
1581611157.802,31.250,-966.309,-564.453,550.293,0
1581611157.806,-20.020,-971.191,-683.105,512.207,0
1581611157.808,-26.367,-972.656,-608.398,491.211,0
1581611157.812,35.645,-971.191,-560.547,569.336,0
1581611157.816,64.941,-975.586,-622.559,535.156,0
1581611157.820,15.625,-952.637,-598.633,425.781,0
1581611157.824,-30.762,-954.590,-574.219,262.695,0
1581611157.828,9.766,-976.074,-684.570,132.324,0
1581611157.832,59.082,-971.191,-849.121,74.219,0
1581611157.835,20.996,-972.656,-836.426,-93.750,0
1581611157.839,-32.227,-972.656,-727.051,-238.770,0
1581611157.843,-19.531,-972.168,-760.254,-358.887,0
1581611157.847,60.059,-972.656,-832.520,-434.082,0
1581611157.851,50.293,-972.656,-836.426,-444.336,0
1581611157.853,-25.879,-969.238,-727.051,-494.141,0
1581611157.857,-21.484,-970.703,-810.059,-493.164,0
1581611157.861,35.645,-973.145,-880.859,-480.957,0
1581611157.865,23.926,-972.168,-802.246,-458.496,0
1581611157.869,-21.973,-973.145,-752.930,-398.438,0
1581611157.873,-29.297,-968.750,-876.953,-390.137,0
1581611157.877,20.996,-981.934,-937.988,-320.312,0
1581611157.880,52.734,-935.059,-729.980,-264.160,0
1581611157.884,2.930,-904.785,-598.145,-251.465,0
1581611157.888,-31.250,-964.844,-782.227,-172.363,0
1581611157.892,21.484,-990.234,-895.996,-96.191,0
1581611157.896,87.402,-875.000,-576.172,17.578,0
1581611157.913,63.477,-860.840,-512.695,-41.504,0
1581611157.917,1.953,-981.445,-785.156,-146.973,0
1581611157.921,19.531,-972.168,-799.316,-107.910,0
1581611157.925,101.074,-969.727,-656.250,-108.398,0
1581611157.929,92.773,-973.145,-587.402,-109.863,0
1581611157.933,16.113,-972.168,-823.242,-135.742,0
1581611157.937,10.254,-972.168,-916.016,-81.055,0
1581611157.940,67.871,-972.656,-651.855,130.859,0
1581611157.944,84.473,-972.168,-517.578,353.516,0
1581611157.948,-0.488,-972.656,-587.402,584.473,0
1581611157.952,-28.809,-972.656,-561.523,769.043,0
1581611157.956,53.223,-963.379,-405.273,925.781,0
1581611157.958,70.801,-967.285,-425.781,-997.559,0
1581611157.962,11.719,-974.121,-517.578,916.016,0
1581611157.966,-18.066,-971.680,-576.660,773.926,0
1581611157.970,47.363,-972.656,-603.516,606.934,0
1581611157.974,128.906,-972.656,-698.730,489.258,0
1581611157.978,109.863,-972.168,-753.906,387.695,0
1581611157.982,45.410,-972.656,-820.312,255.371,0
1581611157.985,66.406,-972.168,-752.930,225.586,0
1581611157.989,124.512,-972.168,-666.016,210.449,0
1581611157.993,106.934,-972.168,-797.852,193.848,0
1581611157.997,42.480,-972.168,-726.074,242.676,0
1581611158.001,25.879,-972.168,-629.883,303.223,0
1581611158.003,86.426,-972.168,-723.633,398.438,0
1581611158.007,100.098,-972.168,-777.832,416.504,0
1581611158.011,31.738,-972.656,-664.062,422.363,0
1581611158.015,-5.371,-972.168,-609.863,498.535,0
1581611158.019,49.805,-972.656,-624.023,520.508,0
1581611158.023,80.566,-972.656,-706.543,517.578,0
1581611158.027,25.879,-972.656,-782.227,427.734,0
1581611158.030,-22.461,-969.238,-792.480,402.344,0
1581611158.034,15.625,-978.516,-841.797,489.258,0
1581611158.038,71.289,-952.637,-766.602,558.594,0
1581611158.042,50.781,-896.484,-514.648,625.000,0
1581611158.046,-1.953,-939.941,-560.059,622.559,0
1581611158.047,7.324,-976.562,-702.148,679.688,0
1581611158.051,81.543,-970.215,-699.707,763.184,0
1581611158.055,91.309,-972.168,-567.871,784.668,0
1581611158.059,27.344,-972.656,-601.562,783.691,0
1581611158.063,22.949,-972.168,-716.797,765.625,0
1581611158.067,75.195,-972.168,-696.289,807.617,0
1581611158.071,76.172,-972.168,-687.012,854.004,0
1581611158.074,30.273,-972.656,-723.145,830.078,0
1581611158.078,1.953,-971.680,-765.625,851.074,0
1581611158.082,40.527,-974.121,-722.656,888.184,0
1581611158.086,98.145,-968.262,-586.426,962.402,0
1581611158.090,56.152,-958.984,-644.531,993.164,0
1581611158.093,4.883,-971.191,-793.945,981.934,0
1581611158.097,46.387,-974.121,-633.301,999.023,0
1581611158.101,103.027,-966.309,-538.574,999.512,0
1581611158.105,55.664,-968.750,-649.414,999.023,0
1581611158.109,-2.441,-973.633,-731.445,999.023,0
1581611158.113,37.109,-972.168,-759.277,997.559,0
1581611158.117,77.637,-972.656,-723.633,-996.094,0
1581611158.120,83.984,-972.656,-776.855,970.703,0
1581611158.124,37.598,-972.656,-824.219,930.176,0
1581611158.128,27.832,-972.656,-685.059,921.387,0
1581611158.132,76.660,-972.168,-647.949,883.789,0
1581611158.136,98.633,-971.680,-712.891,834.961,0
1581611158.137,61.523,-972.168,-821.289,695.801,0
1581611158.141,33.691,-973.633,-822.266,606.445,0
1581611158.145,55.176,-957.031,-698.242,603.027,0
1581611158.149,97.168,-962.891,-698.242,549.805,0
1581611158.153,70.312,-960.938,-689.941,471.680,0
1581611158.157,6.348,-961.914,-820.801,370.605,0
1581611158.161,26.855,-975.586,-988.770,366.211,0
1581611158.164,82.031,-972.168,-910.156,437.988,0
1581611158.168,84.473,-939.941,-732.422,464.355,0
1581611158.172,17.578,-921.875,-637.695,472.656,0
1581611158.176,3.906,-952.148,-772.949,482.422,0
1581611158.180,79.590,-971.680,-866.211,559.570,0
1581611158.182,95.215,-955.566,-674.316,640.137,0
1581611158.186,16.113,-941.895,-600.098,661.621,0
1581611158.190,-17.578,-956.055,-684.570,726.562,0
1581611158.194,34.180,-973.145,-786.621,770.996,0
1581611158.198,81.543,-972.656,-709.473,832.031,0
1581611158.202,25.391,-971.191,-711.914,858.887,0
1581611158.206,-32.227,-970.215,-925.781,874.512,0
1581611158.209,23.438,-979.492,-833.496,961.914,0
1581611158.213,87.891,-930.664,-537.109,-997.070,0
1581611158.217,50.293,-905.273,-505.859,997.070,0
1581611158.221,-27.344,-965.820,-706.055,999.023,0
1581611158.225,-12.207,-975.098,-717.773,999.512,0
1581611158.227,50.293,-970.215,-601.074,999.512,0
1581611158.231,37.598,-972.656,-624.023,999.512,0
1581611158.235,-39.551,-972.168,-709.961,999.512,0
1581611158.239,-44.434,-972.168,-705.566,999.512,0
1581611158.243,36.133,-972.168,-625.488,999.512,0
1581611158.247,61.035,-972.656,-713.867,999.512,0
1581611158.251,-3.906,-970.215,-937.500,999.512,0
1581611158.254,-31.738,-979.492,-843.262,999.512,0
1581611158.258,14.648,-942.871,-583.496,999.512,0
1581611158.262,46.875,-927.734,-661.621,999.512,0
1581611158.266,12.207,-974.121,-806.641,999.512,0
1581611158.270,-21.973,-973.633,-727.539,-1000.000,0
1581611158.287,7.812,-971.191,-700.195,995.605,0
1581611158.291,70.312,-972.656,-725.586,-998.535,0
1581611158.295,47.363,-972.656,-727.539,973.145,0
1581611158.299,-15.625,-972.168,-707.520,835.449,0
1581611158.303,1.465,-972.168,-754.395,685.059,0
1581611158.307,49.316,-972.168,-876.953,663.574,0
1581611158.311,43.457,-972.168,-924.805,588.867,0
1581611158.314,-0.488,-972.656,-850.586,441.895,17090
1581611158.318,-2.441,-972.168,-783.691,377.930,0
1581611158.322,53.223,-972.656,-902.344,327.148,0
1581611158.326,79.102,-972.168,-895.020,372.559,0
1581611158.330,29.785,-970.703,-732.422,400.391,0
1581611158.332,-16.602,-971.191,-817.871,305.176,0
1581611158.336,19.531,-975.586,-933.594,181.641,0
1581611158.340,75.195,-963.867,-862.793,100.586,0
1581611158.344,17.578,-958.008,-791.504,57.617,0
1581611158.348,-43.945,-973.145,-860.840,-9.766,0
1581611158.352,-7.324,-972.656,-952.148,0.977,0
1581611158.356,52.246,-972.168,-987.793,53.711,0
1581611158.359,62.500,-971.680,-935.059,97.168,0
1581611158.363,-10.742,-970.703,-894.531,248.535,0
1581611158.367,-26.855,-978.027,-916.504,433.105,0
1581611158.371,35.156,-929.688,-710.449,672.363,0
1581611158.375,38.574,-888.672,-529.785,820.801,0
1581611158.377,-26.855,-942.871,-709.473,865.234,0
1581611158.381,-35.156,-982.910,-826.660,944.824,0
1581611158.385,39.551,-938.965,-611.328,906.738,0
1581611158.389,88.379,-835.449,-496.582,780.762,0
1581611158.393,56.152,-893.066,-668.945,478.027,0
1581611158.397,14.160,-983.887,-936.523,92.773,0
1581611158.401,69.824,-969.238,-981.934,-123.535,0
1581611158.404,138.672,-971.191,-905.273,-300.781,0
1581611158.408,96.680,-972.168,-908.691,-504.395,0
1581611158.412,48.340,-971.680,-983.398,-701.172,0
1581611158.416,89.844,-977.539,-964.355,-708.496,0
1581611158.420,147.461,-941.406,-846.191,-548.828,0
1581611158.422,117.676,-944.824,-895.020,-499.512,0
1581611158.426,40.527,-978.027,-944.824,-429.688,0
1581611158.430,48.340,-970.703,-818.848,-336.914,0
1581611158.434,104.980,-972.656,-916.504,-223.145,0
1581611158.438,94.727,-972.168,-909.180,-41.504,0
1581611158.442,32.715,-972.656,-854.492,29.297,0
1581611158.446,-0.977,-972.168,-916.992,84.473,0
1581611158.449,52.734,-971.191,-858.398,128.418,0
1581611158.453,80.566,-974.121,-877.441,152.832,0
1581611158.457,24.414,-954.102,-761.230,214.355,0
1581611158.461,-7.324,-900.391,-609.375,214.355,0
1581611158.465,17.578,-926.758,-752.441,253.906,0
1581611158.467,79.590,-953.613,-827.637,251.953,0
1581611158.471,69.336,-919.922,-661.133,183.105,0
1581611158.475,5.371,-961.914,-686.523,193.848,0
1581611158.479,11.230,-976.562,-792.480,175.781,0
1581611158.483,89.844,-969.238,-785.156,152.832,0
1581611158.487,98.145,-971.680,-758.789,70.801,0
1581611158.491,8.789,-970.703,-872.559,-79.102,0
1581611158.494,-1.953,-976.562,-962.402,-170.898,0
1581611158.498,63.965,-949.707,-883.301,-290.039,0
1581611158.502,85.938,-898.438,-738.281,-426.758,0
1581611158.506,26.855,-923.340,-803.223,-670.410,0
1581611158.510,-1.953,-971.680,-947.266,-861.816,0
1581611158.512,71.777,-974.121,-978.516,-889.648,0
1581611158.516,95.703,-967.773,-887.207,-938.477,0
1581611158.520,32.715,-963.379,-874.023,-973.633,0
1581611158.524,-15.137,-971.680,-973.633,-971.680,0
1581611158.528,10.254,-973.145,-951.660,-971.680,0
1581611158.532,66.406,-971.680,-936.035,-972.168,0
1581611158.536,44.434,-972.656,-972.168,-971.680,0
1581611158.539,-15.625,-972.168,-972.656,-968.750,0
1581611158.543,7.324,-972.656,-916.504,-965.820,0
1581611158.547,71.777,-972.168,-826.660,-865.234,0
1581611158.551,79.102,-972.168,-854.980,-737.305,0
1581611158.555,16.113,-968.262,-902.344,-707.520,0
1581611158.558,-1.953,-978.516,-811.035,-645.020,0
1581611158.562,61.523,-953.125,-692.383,-598.633,0
1581611158.566,87.402,-931.641,-711.914,-620.117,0
1581611158.570,52.246,-972.656,-791.016,-643.066,0
1581611158.574,18.066,-974.121,-753.418,-683.594,0
1581611158.578,64.941,-970.703,-811.035,-684.570,0
1581611158.582,99.121,-972.656,-916.992,-676.758,0
1581611158.585,45.898,-972.656,-893.066,-711.426,0
1581611158.589,-14.648,-972.656,-749.023,-628.906,0
1581611158.593,4.883,-972.168,-671.387,-443.359,0
1581611158.597,54.199,-972.168,-713.379,-158.691,0
1581611158.601,32.715,-972.656,-692.871,54.688,0
1581611158.603,-18.555,-970.215,-621.582,191.895,0
1581611158.607,-25.879,-974.121,-613.770,333.984,0
1581611158.611,32.227,-970.703,-584.473,369.141,0
1581611158.615,41.016,-909.180,-521.484,292.480,0
1581611158.619,-33.203,-904.785,-517.578,76.660,0
1581611158.623,-30.762,-960.449,-727.051,-68.359,0
1581611158.627,54.199,-974.121,-908.691,-155.762,0
1581611158.630,103.027,-968.262,-784.668,-333.984,0
1581611158.634,51.758,-970.215,-741.211,-564.941,0
1581611158.638,13.672,-972.168,-891.113,-812.500,0
1581611158.642,42.969,-973.633,-966.797,-955.566,0
1581611158.646,90.332,-968.750,-862.793,-968.262,0
1581611158.663,68.848,-963.867,-807.129,-970.703,0
1581611158.667,-5.859,-972.168,-905.273,-972.168,0
1581611158.671,8.789,-972.656,-985.840,-972.656,0
1581611158.675,77.148,-972.168,-943.359,-972.168,0
1581611158.679,66.895,-972.656,-869.629,-972.168,0
1581611158.683,-11.230,-970.215,-936.523,-972.656,0
1581611158.687,-19.531,-974.609,-947.266,-972.656,0
1581611158.690,65.430,-970.703,-827.148,-972.168,0
1581611158.694,91.797,-897.949,-680.664,-972.168,0
1581611158.698,16.602,-922.852,-816.406,-972.168,0
1581611158.702,-25.391,-982.422,-928.711,-972.656,0
1581611158.706,20.020,-969.238,-781.738,-972.168,0
1581611158.708,60.547,-972.168,-763.184,-972.168,0
1581611158.712,17.090,-972.656,-900.879,-972.656,0
1581611158.716,-20.020,-972.168,-885.742,-972.168,0
1581611158.720,25.391,-972.168,-767.090,-972.168,0
1581611158.724,81.055,-972.168,-769.531,-972.656,0
1581611158.728,56.152,-972.656,-916.504,-972.168,0
1581611158.732,-0.488,-972.656,-957.031,-972.168,0
1581611158.735,8.789,-972.168,-878.906,-972.656,0
1581611158.739,74.219,-972.656,-938.477,-972.656,0
1581611158.743,48.828,-972.656,-902.344,-971.680,0
1581611158.747,-18.066,-972.168,-789.062,-970.703,0
1581611158.751,4.395,-972.168,-745.605,-974.609,0
1581611158.753,62.500,-971.680,-828.613,-921.387,0
1581611158.757,69.824,-973.633,-863.281,-861.328,0
1581611158.761,10.254,-967.285,-686.035,-861.328,0
1581611158.765,-14.160,-961.426,-653.320,-879.395,0
1581611158.769,21.973,-971.191,-752.441,-841.309,0
1581611158.773,54.199,-973.145,-843.750,-783.691,0
1581611158.777,11.719,-972.168,-851.562,-791.504,0
1581611158.780,-40.039,-972.168,-776.367,-761.719,0
1581611158.784,-15.625,-971.680,-859.863,-729.980,0
1581611158.788,70.801,-976.074,-851.562,-672.852,0
1581611158.792,65.430,-940.918,-616.211,-611.328,0
1581611158.796,-13.184,-936.035,-617.188,-605.957,0
1581611158.798,0.488,-974.121,-809.570,-570.801,0
1581611158.802,68.359,-973.145,-781.250,-531.738,0
1581611158.806,73.730,-971.191,-610.840,-503.418,0
1581611158.810,8.301,-969.727,-650.391,-485.840,0
1581611158.814,-22.461,-971.680,-740.723,-458.008,0
1581611158.818,22.949,-972.656,-762.207,-400.391,0
1581611158.822,60.059,-972.168,-783.203,-394.531,0
1581611158.825,3.418,-972.168,-819.336,-398.438,0
1581611158.829,-42.480,-973.145,-885.742,-377.930,0
1581611158.833,27.344,-970.215,-732.910,-336.426,0
1581611158.837,74.707,-967.773,-576.172,-295.898,0
1581611158.841,23.926,-972.656,-776.367,-308.105,0
1581611158.843,-29.297,-972.656,-944.824,-257.812,0
1581611158.847,-7.324,-972.168,-750.488,-140.137,0
1581611158.851,55.176,-972.656,-558.594,-37.109,0
1581611158.855,32.715,-972.656,-627.930,13.184,0
1581611158.859,-32.227,-972.168,-690.430,38.086,0
1581611158.863,-35.645,-972.656,-741.699,143.066,0
1581611158.867,49.805,-972.168,-644.531,306.641,0
1581611158.870,57.129,-972.168,-683.594,393.066,0
1581611158.874,-49.805,-972.168,-729.980,450.684,0
1581611158.878,-55.176,-972.168,-545.410,543.945,0
1581611158.882,12.207,-972.656,-507.812,660.645,0
1581611158.886,28.320,-972.168,-603.516,740.234,0
1581611158.888,-13.184,-972.168,-682.129,715.332,0
1581611158.892,-44.922,-972.168,-581.543,719.727,0
1581611158.896,-16.602,-972.656,-588.379,744.141,0
1581611158.900,23.926,-972.656,-613.281,780.273,0
1581611158.904,-2.441,-968.750,-547.852,776.855,0
1581611158.908,-63.965,-970.703,-611.816,762.207,0
1581611158.912,-56.641,-972.168,-713.379,815.918,0
1581611158.915,12.207,-976.074,-756.836,833.984,0
1581611158.919,11.230,-951.172,-583.984,865.723,0
1581611158.923,-42.480,-946.289,-511.230,897.461,0
1581611158.927,-58.594,-975.098,-700.684,920.898,0
1581611158.931,-14.648,-969.238,-734.863,975.586,0
1581611158.933,8.301,-932.129,-530.762,-998.535,0
1581611158.937,-46.875,-872.559,-455.566,997.559,0
1581611158.941,-72.266,-918.945,-580.566,999.023,0
1581611158.945,-19.531,-958.984,-624.512,999.512,0
1581611158.949,21.973,-909.668,-524.902,999.023,0
1581611158.953,-32.715,-952.637,-625.000,998.535,0
1581611158.957,-78.613,-979.980,-870.117,-1000.000,0
1581611158.960,-18.066,-968.750,-869.141,994.141,0
1581611158.964,37.109,-918.945,-575.684,-993.164,0
1581611158.968,5.371,-932.129,-562.500,973.145,0
1581611158.972,-53.711,-975.586,-767.578,857.422,0
1581611158.976,-40.527,-976.562,-785.645,837.891,0
1581611158.978,42.969,-955.078,-606.445,879.883,0
1581611158.982,51.270,-925.293,-579.590,890.625,0
1581611158.986,-34.668,-966.309,-738.770,868.652,0
1581611158.990,-50.781,-976.074,-697.754,895.996,0
1581611158.994,13.672,-968.750,-568.848,968.750,0
1581611158.998,31.738,-972.168,-712.402,959.961,0
1581611159.002,-28.320,-972.656,-930.664,884.277,0
1581611159.005,-60.059,-972.168,-793.457,815.430,0
1581611159.009,-1.953,-972.656,-681.152,761.230,0
1581611159.013,45.410,-972.168,-803.711,773.438,0
1581611159.017,-24.414,-973.145,-840.332,778.809,0
1581611159.021,-75.195,-968.750,-682.617,897.461,0
1581611159.038,-36.621,-968.262,-580.078,-991.699,0
1581611159.042,19.531,-972.656,-695.801,995.605,0
1581611159.046,-0.977,-969.727,-728.027,997.559,0
1581611159.050,-53.223,-970.703,-634.766,-1000.000,0
1581611159.054,-47.363,-955.566,-614.258,999.512,0
1581611159.058,8.789,-962.891,-730.469,999.512,0
1581611159.062,28.809,-975.098,-842.773,-999.512,0
1581611159.065,-21.484,-972.656,-788.574,994.141,0
1581611159.069,-5.859,-964.355,-642.090,-999.512,0
1581611159.073,61.523,-970.215,-741.699,966.309,0
1581611159.077,89.355,-956.543,-765.137,746.094,0
1581611159.081,49.805,-944.336,-744.629,501.465,0
1581611159.083,5.859,-972.168,-887.207,449.707,0
1581611159.087,62.012,-976.074,-904.785,455.078,0
1581611159.091,131.836,-960.449,-813.477,521.484,0
1581611159.095,92.285,-936.523,-670.898,562.012,0
1581611159.099,31.738,-956.055,-749.023,612.305,0
1581611159.103,32.715,-974.121,-860.352,833.984,0
1581611159.107,72.754,-971.680,-836.426,984.863,0
1581611159.110,54.688,-972.168,-697.266,998.047,0
1581611159.114,-19.043,-969.727,-681.641,995.605,0
1581611159.118,-37.598,-979.980,-848.633,-1000.000,0
1581611159.122,1.465,-935.547,-703.613,999.512,0
1581611159.126,14.648,-890.137,-548.340,999.512,0
1581611159.127,-43.945,-938.965,-728.516,999.512,0
1581611159.131,-84.473,-972.656,-914.062,999.512,0
1581611159.135,-31.738,-975.586,-802.246,999.512,0
1581611159.139,6.348,-951.172,-654.785,999.512,0
1581611159.143,-44.434,-948.730,-729.004,999.512,0
1581611159.147,-90.820,-973.145,-855.469,999.512,0
1581611159.151,-46.387,-977.051,-863.281,999.512,0
1581611159.154,12.207,-948.730,-709.473,999.512,0
1581611159.158,-7.324,-939.941,-778.809,999.023,0
1581611159.162,-49.316,-979.004,-915.527,992.676,0
1581611159.166,-29.785,-965.820,-695.312,-991.211,0
1581611159.170,16.113,-866.211,-576.172,901.855,0
1581611159.172,-7.324,-906.250,-772.949,686.523,0
1581611159.176,-75.195,-986.328,-893.555,579.590,0
1581611159.180,-73.242,-968.750,-826.172,487.793,0
1581611159.184,-6.348,-965.820,-823.730,435.547,0
1581611159.188,29.297,-968.262,-845.703,328.613,0
1581611159.192,-42.480,-974.121,-940.430,174.805,0
1581611159.196,-85.938,-971.191,-972.168,149.414,0
1581611159.199,-30.273,-971.191,-973.145,127.930,0
1581611159.203,21.973,-975.586,-960.449,86.914,0
1581611159.207,-13.672,-931.641,-879.395,-34.180,0
1581611159.211,-66.895,-893.555,-829.590,-110.352,0
1581611159.215,-50.293,-948.242,-909.668,-81.543,0
1581611159.217,18.555,-969.727,-947.754,-90.332,0
1581611159.221,11.230,-946.289,-881.836,-98.633,0
1581611159.225,-67.871,-965.820,-891.113,-147.461,0
1581611159.229,-61.523,-975.586,-958.496,-163.574,0
1581611159.233,12.695,-962.402,-908.691,-76.660,0
1581611159.237,29.297,-967.773,-872.559,-85.449,0
1581611159.241,-46.875,-971.680,-945.312,-147.461,0
1581611159.244,-58.105,-971.191,-965.332,-246.094,0
1581611159.248,16.602,-969.727,-950.195,-351.562,0
1581611159.252,46.875,-876.953,-803.711,-384.766,0
1581611159.256,-13.672,-822.754,-726.562,-519.531,0
1581611159.260,-50.781,-933.105,-887.207,-639.160,0
1581611159.262,-2.930,-986.816,-998.535,-699.707,0
1581611159.266,31.738,-945.312,-907.715,-732.910,0
1581611159.270,1.465,-943.359,-875.977,-718.262,0
1581611159.274,-39.551,-975.098,-968.262,-664.551,0
1581611159.278,-38.574,-972.656,-882.812,-475.586,0
1581611159.282,10.742,-971.680,-843.750,-338.379,0
1581611159.286,0.488,-971.191,-927.734,-233.887,0
1581611159.289,-57.617,-969.727,-930.176,-123.535,0
1581611159.293,-45.898,-982.910,-828.613,-93.262,0
1581611159.297,-1.465,-888.184,-642.090,-63.477,0
1581611159.301,-9.766,-874.023,-687.500,-181.641,0
1581611159.305,-38.574,-977.051,-944.336,-340.332,0
1581611159.307,-23.926,-976.562,-907.227,-410.156,0
1581611159.311,43.457,-955.566,-763.672,-482.422,0
1581611159.315,65.430,-948.730,-789.551,-560.059,0
1581611159.319,-0.977,-973.145,-828.125,-700.684,0
1581611159.323,-41.504,-973.145,-838.379,-750.488,0
1581611159.327,20.996,-971.191,-925.781,-665.039,0
1581611159.331,59.082,-972.656,-958.984,-578.613,0
1581611159.334,20.020,-971.680,-908.691,-519.531,27501
1581611159.338,-20.020,-974.609,-780.762,-499.023,0
1581611159.342,0.977,-965.820,-715.332,-432.617,0
1581611159.346,39.551,-959.961,-789.551,-362.305,0
1581611159.350,9.277,-973.145,-841.309,-419.922,0
1581611159.367,-50.293,-972.656,-756.348,-471.680,0
1581611159.371,-58.105,-969.727,-799.316,-511.230,0
1581611159.375,4.883,-979.980,-864.258,-480.469,0
1581611159.379,33.203,-934.570,-721.680,-415.527,0
1581611159.383,-32.227,-922.363,-654.785,-409.180,0
1581611159.387,-58.105,-968.750,-827.148,-365.234,0
1581611159.391,19.043,-987.305,-950.195,-339.355,0
1581611159.394,63.965,-901.855,-714.355,-252.930,0
1581611159.398,7.324,-841.797,-532.715,-199.219,0
1581611159.402,-50.781,-946.777,-714.355,-238.281,0
1581611159.406,-8.789,-977.539,-854.004,-223.633,0
1581611159.410,66.406,-969.727,-747.070,-243.652,0
1581611159.427,12.207,-968.262,-646.973,-258.789,0
1581611159.431,-61.035,-967.773,-797.363,-273.926,0
1581611159.435,-25.879,-977.539,-868.164,-300.781,0
1581611159.439,32.227,-962.402,-696.777,-282.715,0
1581611159.443,15.625,-926.270,-622.559,-343.262,0
1581611159.447,-32.227,-958.008,-808.105,-447.754,0
1581611159.451,-50.781,-977.051,-979.980,-490.723,0
1581611159.454,13.672,-974.609,-869.629,-517.090,0
1581611159.458,53.223,-938.477,-698.730,-567.871,0
1581611159.462,-11.719,-943.359,-829.102,-701.172,0
1581611159.466,-42.480,-979.004,-953.125,-744.141,0
1581611159.470,21.973,-971.680,-798.828,-686.523,0
1581611159.457,70.801,-960.449,-721.191,-697.266,0
1581611159.461,8.789,-965.332,-869.141,-755.371,0
1581611159.465,-37.598,-974.609,-951.172,-798.340,0
1581611159.469,3.418,-971.680,-834.961,-773.926,0
1581611159.473,58.594,-972.656,-784.668,-730.957,0
1581611159.477,42.480,-972.168,-900.879,-751.465,0
1581611159.481,-17.578,-972.168,-973.145,-782.715,0
1581611159.484,-8.789,-972.168,-962.402,-798.828,0
1581611159.488,47.852,-973.145,-968.750,-737.305,0
1581611159.492,54.688,-969.238,-854.980,-702.148,0
1581611159.496,-5.859,-972.168,-753.906,-750.977,0
1581611159.500,-34.668,-965.820,-692.383,-729.980,0
1581611159.502,24.414,-953.125,-762.695,-708.008,0
1581611159.506,62.500,-971.191,-900.391,-686.523,0
1581611159.510,7.812,-973.633,-793.945,-671.387,0
1581611159.514,-33.691,-971.191,-709.473,-655.762,0
1581611159.518,20.508,-972.656,-805.664,-606.445,0
1581611159.522,55.176,-972.168,-948.730,-593.750,0
1581611159.526,1.465,-972.656,-900.879,-587.402,0
1581611159.529,-44.434,-971.191,-794.922,-527.344,0
1581611159.533,-25.391,-974.609,-876.465,-425.781,0
1581611159.537,31.250,-967.773,-825.684,-275.391,0
1581611159.541,23.438,-954.590,-630.371,-166.016,0
1581611159.545,-45.898,-967.773,-694.336,-95.215,0
1581611159.548,-51.758,-980.469,-729.492,48.828,0
1581611159.552,14.160,-945.312,-604.004,184.082,0
1581611159.556,7.812,-915.527,-471.680,250.000,0
1581611159.560,-64.453,-958.008,-556.152,270.020,0
1581611159.564,-64.941,-974.121,-632.324,369.141,0
1581611159.568,-13.184,-970.703,-636.719,498.535,0
1581611159.572,9.766,-972.168,-628.906,574.707,0
1581611159.575,-33.203,-972.168,-590.820,624.023,0
1581611159.579,-60.059,-969.238,-693.848,624.023,0
1581611159.583,-1.465,-983.398,-650.391,666.504,0
1581611159.587,42.969,-917.969,-421.875,725.586,0
1581611159.591,-22.949,-905.273,-528.320,652.832,0
1581611159.593,-97.656,-976.562,-736.816,597.656,0
1581611159.597,-68.359,-977.051,-678.711,584.961,0
1581611159.601,0.000,-954.590,-609.375,587.402,0
1581611159.605,-7.324,-941.895,-606.445,553.223,0
1581611159.609,-58.105,-973.145,-647.461,496.094,0
1581611159.613,-41.992,-973.145,-647.949,484.375,0
1581611159.617,10.742,-971.191,-705.078,439.453,0
1581611159.620,-1.953,-971.191,-805.664,405.273,0
1581611159.624,-65.918,-972.168,-819.824,328.125,0
1581611159.628,-58.594,-970.215,-684.570,288.574,0
1581611159.632,-4.395,-898.926,-600.098,304.688,0
1581611159.636,14.160,-911.621,-725.098,230.469,0
1581611159.638,-40.527,-981.445,-842.285,120.605,0
1581611159.642,-79.102,-971.191,-748.535,42.480,0
1581611159.646,-33.203,-955.566,-746.582,18.066,0
1581611159.650,34.668,-964.355,-775.879,-21.973,0
1581611159.654,20.020,-975.098,-823.730,-168.945,0
1581611159.658,-44.434,-971.191,-939.453,-242.676,0
1581611159.662,-18.555,-972.656,-984.375,-242.188,0
1581611159.665,55.664,-972.168,-937.500,-246.094,0
1581611159.669,61.523,-972.168,-837.402,-292.969,0
1581611159.673,2.441,-972.656,-780.762,-348.145,0
1581611159.677,-11.719,-972.656,-853.027,-298.828,0
1581611159.681,41.016,-972.168,-942.383,-263.672,0
1581611159.683,62.988,-972.168,-854.980,-250.488,0
1581611159.687,10.254,-971.680,-761.719,-305.664,0
1581611159.691,-33.691,-974.121,-854.492,-383.301,0
1581611159.695,-0.977,-967.773,-832.031,-340.820,0
1581611159.699,49.805,-949.707,-705.078,-336.914,0
1581611159.703,10.742,-964.844,-822.266,-361.816,0
1581611159.707,-43.945,-974.609,-937.500,-372.559,0
1581611159.710,0.488,-971.191,-981.445,-333.984,0
1581611159.714,74.219,-974.121,-849.121,-148.438,0
1581611159.718,31.738,-951.660,-628.906,29.297,0
1581611159.722,-41.992,-958.496,-799.316,141.602,0
1581611159.726,-28.320,-978.516,-854.004,242.676,0
1581611159.728,20.996,-950.195,-608.398,334.961,0
1581611159.732,32.715,-939.941,-625.977,303.711,0
1581611159.736,-13.672,-969.238,-772.949,104.492,0
1581611159.740,1.953,-976.562,-798.340,-110.352,0
1581611159.744,85.938,-951.660,-725.586,-338.867,0
1581611159.748,131.836,-957.520,-835.938,-601.074,0
1581611159.752,66.895,-976.074,-982.910,-855.957,0
1581611159.755,48.340,-971.191,-963.867,-972.656,0
1581611159.759,110.352,-972.656,-917.969,-968.750,0
1581611159.763,123.535,-972.168,-906.250,-964.355,0
1581611159.767,64.453,-972.168,-970.703,-979.492,0
1581611159.771,12.695,-972.656,-954.590,-899.902,0
1581611159.788,27.832,-972.168,-807.617,-680.664,0
1581611159.792,83.984,-969.727,-778.809,-447.266,0
1581611159.796,50.293,-971.680,-795.410,-356.934,0
1581611159.800,-29.785,-972.656,-760.742,-294.434,0
1581611159.804,-41.504,-972.168,-707.031,-113.770,0
1581611159.808,25.879,-972.168,-812.988,-34.668,0
1581611159.812,23.926,-972.656,-852.539,-52.734,0
1581611159.815,-37.598,-972.656,-741.699,-167.969,0
1581611159.819,-32.227,-969.238,-738.281,-216.309,0
1581611159.823,-0.488,-979.492,-818.848,-109.863,0
1581611159.827,5.859,-945.312,-770.996,-62.500,0
1581611159.831,-53.223,-914.551,-615.723,-42.480,0
1581611159.833,-78.125,-962.402,-670.410,-31.250,0
1581611159.837,-29.297,-984.375,-753.906,33.691,0
1581611159.841,24.414,-945.312,-664.062,166.504,0
1581611159.845,0.000,-909.668,-547.852,162.598,0
1581611159.849,-68.359,-965.332,-635.254,129.395,0
1581611159.853,-40.039,-977.051,-785.645,85.449,0
1581611159.857,29.785,-969.238,-846.680,32.227,0
1581611159.860,3.906,-972.656,-746.582,4.395,0
1581611159.864,-80.566,-971.680,-793.457,-93.262,0
1581611159.868,-89.844,-975.586,-916.992,-115.234,0
1581611159.872,-19.531,-951.660,-764.648,-152.344,0
1581611159.876,0.488,-944.824,-664.551,-218.750,0
1581611159.878,-69.824,-968.262,-791.992,-229.004,0
1581611159.882,-94.727,-972.656,-948.242,-276.367,0
1581611159.886,-40.527,-972.168,-836.914,-266.113,0
1581611159.890,-13.672,-972.168,-715.332,-304.688,0
1581611159.894,-60.547,-972.168,-853.027,-400.879,0
1581611159.898,-103.516,-972.656,-983.887,-415.039,0
1581611159.902,-58.105,-972.168,-958.008,-437.988,0
1581611159.905,-11.719,-972.168,-872.559,-439.941,0
1581611159.909,-46.875,-971.191,-902.344,-540.039,0
1581611159.913,-76.660,-975.586,-955.078,-625.488,0
1581611159.917,-50.293,-958.008,-812.012,-556.641,0
1581611159.921,-4.883,-943.359,-746.094,-543.945,0
1581611159.923,-12.207,-967.773,-898.926,-606.934,0
1581611159.927,-68.848,-974.121,-928.223,-698.242,0
1581611159.931,-59.570,-971.680,-814.941,-751.953,0
1581611159.935,18.555,-967.773,-791.016,-752.930,0
1581611159.939,35.645,-970.215,-819.336,-808.105,0
1581611159.943,-48.340,-973.633,-919.434,-911.621,0
1581611159.947,-65.918,-970.703,-973.145,-975.586,0
1581611159.950,-19.043,-973.145,-976.562,-946.289,0
1581611159.954,11.719,-971.191,-935.059,-858.398,0
1581611159.958,-28.809,-935.547,-787.109,-783.203,0
1581611159.962,-88.379,-942.383,-705.566,-645.508,0
1581611159.966,-54.199,-974.609,-785.645,-477.051,0
1581611159.968,-18.066,-972.656,-828.613,-243.164,0
1581611159.972,-52.246,-968.262,-642.090,-35.156,0
1581611159.976,-96.680,-957.520,-572.754,38.574,0
1581611159.980,-101.074,-964.355,-678.711,60.059,0
1581611159.984,-39.551,-969.727,-681.152,-18.555,0
1581611159.988,-0.488,-968.262,-697.266,-135.254,0
1581611159.992,-58.105,-970.215,-774.414,-274.414,0
1581611159.995,-66.895,-979.980,-880.859,-458.008,0
1581611159.999,3.906,-941.895,-852.051,-568.848,0
1581611160.003,29.297,-916.992,-725.586,-737.305,0
1581611160.007,-39.062,-968.750,-841.309,-918.457,0
1581611160.011,-84.473,-973.145,-933.105,-958.496,0
1581611160.012,-37.598,-976.074,-914.551,-971.191,0
1581611160.016,32.227,-929.688,-753.418,-971.191,0
1581611160.020,-26.367,-915.527,-757.324,-968.750,0
1581611160.024,-76.660,-972.656,-916.016,-979.004,0
1581611160.028,-31.738,-965.820,-851.074,-924.805,0
1581611160.032,-8.301,-965.820,-791.016,-823.242,0
1581611160.036,-43.945,-974.609,-899.414,-816.406,0
1581611160.039,-94.238,-971.191,-948.242,-896.484,0
1581611160.043,-65.430,-973.633,-898.438,-910.156,0
1581611160.047,-11.230,-971.191,-754.395,-855.957,0
1581611160.051,-33.203,-957.031,-758.301,-860.840,0
1581611160.055,-104.492,-968.262,-842.773,-840.332,0
1581611160.058,-116.699,-974.121,-800.293,-781.738,0
1581611160.062,-65.918,-971.191,-798.828,-671.875,0
1581611160.066,-33.691,-972.656,-746.094,-514.160,0
1581611160.070,-70.312,-972.168,-688.477,-430.664,0
1581611160.074,-111.816,-972.656,-652.344,-370.605,0
1581611160.078,-44.434,-971.191,-692.871,-286.133,0
1581611160.082,11.719,-975.098,-819.824,-186.035,0
1581611160.085,-40.527,-959.961,-766.113,-127.441,0
1581611160.089,-78.613,-946.777,-560.059,-88.867,0
1581611160.093,-60.059,-938.965,-530.762,-19.043,0
1581611160.097,-13.672,-952.148,-649.414,-0.488,0
1581611160.101,-21.484,-953.613,-659.180,0.977,0
1581611160.102,-80.078,-956.055,-586.914,-5.859,0
1581611160.106,-70.801,-976.074,-619.141,-11.719,0
1581611160.110,-28.809,-971.191,-612.793,-12.695,0
1581611160.114,-16.113,-972.656,-660.645,-82.520,0
1581611160.118,-65.918,-972.168,-727.051,-115.234,0
1581611160.122,-70.312,-969.727,-813.477,-90.332,0
1581611160.126,0.488,-980.957,-887.695,-67.383,0
1581611160.129,14.160,-932.617,-694.336,-41.992,0
1581611160.133,-40.039,-920.898,-568.848,-96.680,0
1581611160.137,-80.566,-972.168,-765.625,-135.742,0
1581611160.141,-32.227,-984.863,-904.785,-110.352,0
1581611160.145,40.039,-919.922,-669.434,-72.754,0
1581611160.163,2.930,-873.535,-532.715,-92.285,0
1581611160.167,-64.453,-965.820,-775.879,-196.289,0
1581611160.171,-25.879,-975.586,-806.152,-188.477,0
1581611160.175,36.621,-910.156,-606.445,-147.949,0
1581611160.179,20.508,-916.016,-625.000,-219.727,0
1581611160.183,-71.289,-973.633,-845.215,-314.453,0
1581611160.187,-86.426,-973.145,-989.746,-385.742,0
1581611160.190,-8.789,-970.703,-958.008,-378.906,0
1581611160.194,37.598,-973.145,-792.480,-348.633,0
1581611160.198,-22.949,-970.215,-840.332,-403.809,0
1581611160.202,-52.734,-976.562,-924.316,-428.223,0
1581611160.206,8.789,-961.914,-746.094,-405.762,0
1581611160.208,-3.418,-921.387,-692.383,-369.629,0
1581611160.212,-72.754,-953.125,-786.133,-375.000,0
1581611160.216,-109.863,-978.516,-817.871,-375.000,0
1581611160.220,-72.754,-969.238,-757.324,-304.688,0
1581611160.224,-16.602,-967.285,-753.906,-275.879,0
1581611160.228,-38.086,-971.191,-879.883,-262.207,0
1581611160.232,-104.492,-973.145,-971.191,-232.422,0
1581611160.235,-122.559,-972.168,-915.527,-207.520,0
1581611160.239,-71.289,-972.168,-817.383,-133.301,0
1581611160.243,-49.805,-971.191,-935.547,-144.531,0
1581611160.247,-133.789,-976.562,-945.312,-150.391,0
1581611160.251,-123.535,-942.383,-757.812,-49.316,0
1581611160.252,-62.988,-934.570,-787.598,33.203,0
1581611160.256,-59.570,-950.195,-858.398,81.543,0
1581611160.260,-93.750,-908.203,-746.094,100.586,0
1581611160.264,-130.371,-868.164,-690.918,169.434,0
1581611160.268,-96.191,-899.902,-742.188,255.859,0
1581611160.272,-30.762,-975.098,-879.883,315.918,0
1581611160.276,-65.918,-973.145,-919.434,325.684,0
1581611160.279,-126.465,-961.914,-811.035,312.012,0
1581611160.283,-81.543,-977.539,-868.164,381.348,0
1581611160.287,-15.137,-898.926,-838.867,428.223,0
1581611160.291,-49.805,-798.828,-649.902,374.512,0
1581611160.295,-107.422,-829.102,-683.594,293.457,0
1581611160.297,-89.355,-943.848,-857.422,254.883,0
1581611160.301,-24.902,-917.969,-845.703,310.059,0
1581611160.305,-34.180,-799.805,-675.781,296.387,0
1581611160.309,-82.520,-880.371,-772.461,223.633,0
1581611160.313,-76.172,-973.633,-907.715,202.148,0
1581611160.317,-20.508,-971.191,-909.668,175.293,0
1581611160.321,1.465,-966.797,-920.410,184.570,0
1581611160.324,-36.621,-976.074,-964.355,142.578,0
1581611160.328,-55.176,-959.961,-946.289,98.145,0
1581611160.332,-30.273,-866.211,-828.613,70.801,0
1581611160.336,22.949,-789.551,-752.930,-1.465,0
1581611160.340,5.859,-859.375,-836.426,-59.570,0
1581611160.342,-38.086,-981.445,-969.727,-130.371,0
1581611160.346,-7.324,-904.297,-870.605,-133.301,0
1581611160.350,56.641,-790.527,-742.676,-141.602,0
1581611160.354,43.945,-879.395,-848.145,-198.242,0
1581611160.358,-23.438,-981.934,-915.039,-155.273,0
1581611160.362,-20.996,-969.727,-940.918,-99.609,0
1581611160.366,47.852,-970.703,-940.918,6.348,0
1581611160.369,61.035,-971.680,-901.367,66.895,0
1581611160.373,-2.441,-970.215,-937.012,4.883,0
1581611160.377,-29.785,-980.469,-836.426,57.129,0
1581611160.381,17.578,-930.664,-715.820,113.281,0
1581611160.385,62.012,-925.781,-821.777,113.281,0
1581611160.387,15.625,-972.656,-889.160,36.621,0
1581611160.391,-22.461,-935.547,-761.719,24.414,0
1581611160.395,12.207,-879.395,-700.195,167.969,0
1581611160.399,45.898,-927.246,-698.730,287.109,0
1581611160.403,9.277,-978.027,-722.656,391.113,0
1581611160.407,-37.109,-965.820,-753.418,520.508,0
1581611160.411,-7.812,-970.215,-824.219,684.570,0
1581611160.414,46.387,-983.398,-833.008,888.672,0
1581611160.418,60.547,-886.230,-594.238,983.398,0
1581611160.422,21.484,-844.238,-480.469,958.008,0
1581611160.426,4.883,-946.289,-661.133,803.711,0
1581611160.430,54.199,-967.773,-782.715,613.770,0
1581611160.432,93.262,-919.434,-669.434,431.641,0
1581611160.436,62.988,-928.223,-677.246,140.137,0
1581611160.440,63.965,-975.098,-823.730,-73.242,0
1581611160.444,124.512,-958.008,-827.637,-245.117,0
1581611160.448,147.461,-895.508,-697.266,-337.891,0
1581611160.452,94.238,-937.988,-803.223,-318.848,0
1581611160.456,45.410,-981.934,-984.863,-286.621,0
1581611160.459,86.426,-971.680,-892.090,-105.469,0
1581611160.463,137.207,-925.293,-651.367,84.473,0
1581611160.467,97.168,-940.918,-683.105,223.145,0
1581611160.471,13.672,-978.027,-855.469,420.410,0
1581611160.475,22.949,-975.586,-748.047,611.816,0
1581611160.477,90.332,-948.242,-512.207,813.965,0
1581611160.481,77.637,-916.504,-465.820,855.469,28500
1581611160.485,17.090,-960.449,-586.914,810.547,0
1581611160.489,5.859,-976.074,-634.277,876.465,0
1581611160.493,65.430,-970.215,-523.926,915.039,0
1581611160.497,64.941,-972.656,-599.121,908.203,0
1581611160.501,-12.207,-972.168,-742.188,826.660,0
1581611160.504,-22.949,-972.168,-677.734,789.062,0
1581611160.508,11.230,-972.168,-555.176,884.766,0
1581611160.512,53.223,-972.656,-588.867,920.410,0
1581611160.516,27.832,-971.680,-711.426,876.465,0
1581611160.520,-16.602,-972.168,-628.418,776.367,0
1581611160.537,34.180,-972.656,-671.387,688.965,0
1581611160.541,80.078,-972.168,-747.559,667.480,0
1581611160.545,73.242,-972.168,-732.422,496.582,0
1581611160.549,8.789,-972.168,-736.816,294.922,0
1581611160.553,1.465,-972.168,-746.582,125.488,0
1581611160.557,65.430,-972.656,-868.164,-42.480,0
1581611160.561,64.453,-972.168,-979.980,-173.340,0
1581611160.564,3.418,-972.168,-937.500,-362.305,0
1581611160.568,-7.324,-972.168,-903.809,-490.234,0
1581611160.572,41.016,-972.168,-941.406,-571.777,0
1581611160.576,71.777,-972.656,-943.848,-635.742,0
1581611160.580,36.133,-960.449,-873.535,-638.672,0
1581611160.582,-16.113,-949.219,-850.098,-629.883,0
1581611160.586,18.555,-963.379,-915.039,-562.500,0
1581611160.590,93.262,-974.121,-917.480,-526.367,0
1581611160.594,50.781,-971.680,-865.234,-490.234,0
1581611160.598,-6.836,-972.168,-871.582,-375.488,0
1581611160.602,35.156,-971.191,-922.363,-265.625,0
1581611160.606,105.957,-976.562,-860.352,-150.391,0
1581611160.609,94.238,-953.613,-697.266,-118.164,0
1581611160.613,36.133,-946.289,-738.770,-102.539,0
1581611160.617,40.527,-975.098,-910.645,-24.414,0
1581611160.621,95.215,-968.750,-804.199,22.461,0
1581611160.625,122.070,-947.754,-630.371,44.434,0
1581611160.627,57.129,-957.520,-772.949,-43.945,0
1581611160.631,32.715,-970.703,-924.316,-68.359,0
1581611160.635,101.074,-981.445,-760.742,42.480,0
1581611160.639,144.531,-928.223,-593.262,132.812,0
1581611160.643,83.496,-910.156,-674.805,167.480,0
1581611160.647,-4.883,-975.586,-883.301,201.660,0
1581611160.651,29.785,-973.633,-832.520,436.035,0
1581611160.654,90.820,-968.262,-635.254,748.535,0
1581611160.658,54.688,-971.191,-625.977,943.359,0
1581611160.662,-10.742,-958.496,-631.348,-999.023,0
1581611160.666,20.020,-881.348,-468.750,990.723,0
1581611160.670,92.773,-841.797,-438.477,-997.559,0
1581611160.672,114.746,-931.152,-620.117,971.191,0
1581611160.676,62.500,-977.051,-679.199,828.125,0
1581611160.680,33.203,-956.543,-607.422,676.758,0
1581611160.684,123.535,-960.938,-668.945,532.715,0
1581611160.688,150.391,-969.727,-713.867,437.988,0
1581611160.692,82.031,-972.656,-789.551,363.770,0
1581611160.696,54.199,-972.168,-906.250,289.062,0
1581611160.699,100.586,-972.168,-926.758,287.109,0
1581611160.703,151.855,-972.168,-901.367,269.531,0
1581611160.707,105.957,-972.656,-878.906,260.254,0
1581611160.711,22.461,-968.262,-762.695,307.617,0
1581611160.715,46.387,-980.469,-776.367,353.516,0
1581611160.718,113.281,-935.547,-777.344,400.391,0
1581611160.722,79.102,-865.234,-630.371,324.707,0
1581611160.726,14.648,-877.930,-643.555,252.441,0
1581611160.730,52.734,-933.105,-769.043,235.840,0
1581611160.734,104.492,-947.754,-774.902,216.309,0
1581611160.738,92.285,-946.777,-723.633,204.590,0
1581611160.742,28.320,-975.098,-843.262,147.949,0
1581611160.745,-23.438,-971.191,-956.055,174.316,0
1581611160.749,35.156,-973.633,-885.254,265.137,0
1581611160.753,70.801,-920.410,-678.223,330.078,0
1581611160.757,13.672,-892.578,-628.906,358.887,0
1581611160.761,-6.836,-954.102,-757.324,376.465,0
1581611160.763,31.738,-962.402,-748.047,479.492,0
1581611160.767,88.379,-883.301,-566.406,570.312,0
1581611160.771,74.219,-888.672,-578.613,544.922,0
1581611160.775,-1.953,-964.355,-756.348,501.465,0
1581611160.779,25.391,-975.098,-766.602,472.168,0
1581611160.783,98.633,-969.727,-698.242,483.887,0
1581611160.787,76.172,-973.145,-812.012,442.383,0
1581611160.790,21.973,-969.238,-895.996,373.047,0
1581611160.794,40.527,-978.516,-788.086,366.699,0
1581611160.798,112.793,-931.641,-660.645,346.191,0
1581611160.802,115.234,-902.344,-686.035,324.707,0
1581611160.806,44.922,-968.750,-797.363,270.996,0
1581611160.808,45.410,-961.914,-738.281,208.008,0
1581611160.812,96.680,-897.949,-645.508,187.500,0
1581611160.816,119.141,-907.227,-753.418,118.652,0
1581611160.820,69.824,-975.098,-889.648,30.762,0
1581611160.824,39.551,-973.633,-778.320,1.953,0
1581611160.828,88.867,-969.238,-808.594,-27.832,0
1581611160.832,145.996,-973.145,-931.641,-61.523,0
1581611160.835,104.492,-966.797,-901.367,-173.340,0
1581611160.839,49.805,-937.500,-780.273,-246.094,0
1581611160.843,101.562,-902.344,-719.238,-227.539,0
1581611160.847,153.809,-941.895,-850.098,-242.188,0
1581611160.851,152.344,-960.938,-877.441,-281.250,0
1581611160.853,96.680,-910.156,-715.820,-333.496,0
1581611160.857,73.730,-926.270,-751.465,-338.379,0
1581611160.861,120.117,-970.703,-828.613,-311.523,0
1581611160.865,113.770,-944.824,-750.977,-307.617,0
1581611160.869,60.547,-944.824,-730.469,-331.543,0
1581611160.873,32.715,-972.656,-903.809,-359.375,0
1581611160.877,108.398,-972.168,-974.121,-312.500,0
1581611160.880,161.621,-972.168,-888.672,-282.715,0
1581611160.884,92.285,-972.168,-768.066,-321.777,0
1581611160.888,39.062,-964.844,-782.227,-310.547,0
1581611160.892,71.289,-985.352,-901.855,-285.156,0
1581611160.896,132.812,-901.855,-703.125,-182.617,0
1581611160.913,107.910,-855.957,-569.336,-107.910,0
1581611160.917,45.898,-957.031,-774.414,-83.008,0
1581611160.921,59.082,-983.398,-805.664,14.648,0
1581611160.925,110.840,-926.758,-614.746,103.027,0
1581611160.929,111.816,-906.738,-556.641,145.020,0
1581611160.933,59.082,-973.145,-804.688,150.879,0
1581611160.937,38.574,-970.703,-878.906,194.336,0
1581611160.940,85.938,-899.902,-569.824,279.297,0
1581611160.944,83.008,-931.641,-612.793,295.898,0
1581611160.948,1.465,-978.027,-859.863,313.965,0
1581611160.952,-2.930,-975.098,-833.984,362.305,0
1581611160.956,65.918,-958.008,-603.027,469.238,0
1581611160.958,93.750,-936.523,-563.477,552.246,0
1581611160.962,44.922,-967.285,-708.008,489.258,0
1581611160.966,-12.207,-983.398,-659.180,520.020,0
1581611160.970,14.160,-934.570,-539.551,597.656,0
1581611160.974,75.195,-882.324,-508.301,632.324,0
1581611160.978,36.133,-952.148,-651.367,561.523,0
1581611160.982,-32.715,-979.980,-791.016,463.379,0
1581611160.985,-15.625,-968.262,-753.906,498.535,0
1581611160.989,42.969,-962.891,-689.941,510.742,0
1581611160.993,49.805,-973.145,-765.625,441.406,0
1581611160.997,4.883,-937.988,-695.312,332.520,0
1581611161.001,-7.324,-927.734,-662.109,246.094,0
1581611161.003,41.504,-984.375,-823.730,262.695,0
1581611161.007,82.031,-948.242,-810.547,255.371,0
1581611161.011,15.625,-904.785,-671.875,194.336,0
1581611161.015,-41.016,-951.660,-698.730,147.461,0
1581611161.019,20.020,-973.145,-775.879,153.809,0
1581611161.023,72.266,-970.215,-855.957,250.488,0
1581611161.027,20.020,-973.145,-881.348,292.480,0
1581611161.030,-29.297,-966.797,-749.512,344.238,0
1581611161.034,-6.348,-983.887,-816.895,342.285,0
1581611161.038,56.152,-929.688,-841.309,297.852,0
1581611161.042,65.918,-857.422,-613.770,283.203,0
1581611161.046,-11.719,-916.992,-666.016,166.016,0
1581611161.048,-5.859,-969.727,-840.332,120.117,0
1581611161.052,61.035,-912.598,-785.156,110.840,0
1581611161.056,32.715,-924.316,-712.402,76.660,0
1581611161.060,-26.855,-982.910,-764.648,177.246,0
1581611161.064,-57.617,-969.238,-764.648,314.453,0
1581611161.068,-3.906,-973.145,-794.434,486.816,0
1581611161.072,56.152,-971.191,-762.207,645.996,0
1581611161.075,19.043,-971.680,-695.312,726.562,0
1581611161.079,-39.551,-969.727,-697.266,843.750,0
1581611161.083,-18.555,-936.523,-622.070,882.812,0
1581611161.087,42.480,-862.305,-517.578,812.500,0
1581611161.091,16.113,-886.230,-622.559,571.777,0
1581611161.093,-11.719,-974.609,-799.805,302.734,0
1581611161.097,41.016,-904.785,-707.031,153.809,0
1581611161.101,76.172,-844.238,-657.715,-33.203,0
1581611161.105,67.383,-912.598,-817.383,-215.820,0
1581611161.109,26.367,-977.051,-906.738,-366.211,0
1581611161.113,16.602,-970.703,-916.016,-408.691,0
1581611161.117,94.238,-968.262,-971.680,-301.270,0
1581611161.120,108.887,-978.516,-984.375,-216.309,0
1581611161.124,32.227,-937.988,-872.559,-94.727,0
1581611161.128,6.836,-889.160,-703.125,60.547,0
1581611161.132,50.293,-902.344,-668.457,230.957,0
1581611161.136,66.895,-932.129,-723.633,453.613,0
1581611161.138,15.625,-941.895,-707.031,529.785,0
1581611161.142,-26.367,-963.379,-669.922,576.172,0
1581611161.146,10.742,-951.172,-647.949,610.352,0
1581611161.150,66.406,-949.219,-646.973,600.098,0
1581611161.154,21.484,-931.641,-628.906,598.633,0
1581611161.158,-68.359,-946.777,-708.496,519.531,0
1581611161.162,-45.410,-983.398,-861.328,497.559,0
1581611161.165,18.555,-954.590,-860.840,479.492,0
1581611161.169,13.184,-962.891,-798.340,414.551,0
1581611161.173,-43.457,-949.219,-701.660,413.574,0
1581611161.177,-46.875,-926.758,-719.727,399.414,0
1581611161.181,36.621,-958.496,-842.773,390.137,0
1581611161.183,59.082,-877.441,-688.965,340.820,0
1581611161.187,-41.992,-871.582,-636.719,238.281,0
1581611161.191,-72.266,-948.242,-804.199,201.172,0
1581611161.195,2.930,-972.168,-868.164,131.836,0
1581611161.199,52.246,-970.215,-781.250,62.988,0
1581611161.203,7.324,-971.191,-876.465,-79.590,0
1581611161.207,-63.477,-969.727,-977.051,-221.680,0
1581611161.210,-37.598,-978.027,-959.961,-224.609,0
1581611161.214,35.645,-955.078,-847.656,-226.074,0
1581611161.218,13.184,-883.301,-726.074,-270.508,0
1581611161.222,-61.035,-925.781,-854.980,-378.418,0
1581611161.226,-38.086,-989.746,-977.539,-402.832,0
1581611161.228,42.969,-941.406,-831.543,-299.316,0
1581611161.232,14.160,-880.371,-741.211,-283.691,0
1581611161.236,-60.547,-954.590,-824.707,-281.738,0
1581611161.240,-55.176,-945.801,-783.203,-242.676,0
1581611161.244,6.836,-910.156,-727.051,-207.520,0
1581611161.248,21.973,-966.797,-820.312,-126.953,0
1581611161.252,-41.504,-974.121,-937.012,-126.953,0
1581611161.255,-56.152,-970.703,-854.492,-107.910,0
1581611161.259,2.441,-897.461,-660.645,-74.707,0
1581611161.263,45.410,-877.930,-676.270,-85.449,0
1581611161.267,-7.324,-965.820,-863.281,-136.230,0
1581611161.271,-61.035,-986.816,-830.566,-221.680,0
1581611161.303,-35.645,-922.363,-660.645,-228.027,0
1581611161.307,26.855,-902.344,-719.727,-294.434,0
1581611161.311,25.391,-975.586,-864.258,-341.797,0
1581611161.315,-33.203,-974.121,-807.617,-315.430,0
1581611161.319,-22.949,-970.215,-750.488,-265.137,0
1581611161.323,38.574,-972.656,-860.352,-134.766,0
1581611161.327,32.227,-972.168,-898.438,-40.527,0
1581611161.330,-16.113,-973.145,-712.402,153.809,0
1581611161.334,-35.645,-969.727,-575.684,470.215,0
1581611161.338,-5.371,-977.539,-655.762,660.156,0
1581611161.342,20.508,-961.426,-665.527,731.445,0
1581611161.346,-31.738,-916.992,-513.184,638.672,0
1581611161.333,-65.918,-948.242,-601.074,507.324,0
1581611161.337,-1.953,-978.027,-702.637,418.945,0
1581611161.341,63.477,-960.449,-672.363,278.320,0
1581611161.345,37.109,-930.176,-626.465,121.094,0
1581611161.349,-19.531,-953.613,-751.465,-88.379,0
1581611161.353,-7.324,-976.562,-910.645,-189.941,0
1581611161.357,59.082,-970.703,-928.223,-208.008,0
1581611161.360,46.387,-972.168,-829.590,-328.613,0
1581611161.364,-22.461,-970.703,-814.453,-430.176,0
1581611161.368,-25.391,-975.098,-935.547,-478.516,0
1581611161.372,41.016,-951.172,-807.617,-402.344,0
1581611161.376,66.406,-889.648,-648.438,-315.918,0
1581611161.377,-15.625,-921.387,-796.387,-340.820,0
1581611161.381,-47.363,-986.328,-927.246,-326.660,0
1581611161.385,11.719,-934.570,-742.188,-322.266,0
1581611161.389,34.668,-893.555,-659.668,-351.562,0
1581611161.393,-31.738,-945.801,-810.547,-424.805,0
1581611161.397,-76.660,-975.586,-981.445,-485.352,0
1581611161.401,-31.738,-970.703,-967.773,-468.262,0
1581611161.404,19.043,-971.680,-863.281,-466.309,0
1581611161.408,-23.926,-970.703,-913.086,-461.914,0
1581611161.412,-75.195,-973.633,-901.855,-410.645,0
1581611161.416,-38.086,-933.105,-713.379,-336.914,0
1581611161.420,31.250,-884.766,-630.859,-268.066,0
1581611161.422,41.992,-939.941,-751.953,-275.879,0
1581611161.426,0.488,-960.449,-767.090,-270.020,0
1581611161.430,-21.484,-967.285,-702.637,-210.449,0
1581611161.434,3.418,-929.199,-642.090,-126.953,0
1581611161.438,37.109,-930.664,-607.910,-86.914,0
1581611161.442,5.859,-980.957,-759.766,-164.551,0
1581611161.446,-41.504,-970.215,-870.605,-182.129,0
1581611161.449,-14.160,-969.238,-836.914,-116.211,0
1581611161.453,46.387,-969.727,-803.711,-90.820,0
1581611161.457,23.438,-972.168,-741.699,-151.855,0
1581611161.461,-33.203,-971.191,-787.109,-242.188,0
1581611161.465,7.324,-973.145,-926.758,-223.145,0
1581611161.467,58.594,-968.750,-870.605,-173.340,0
1581611161.471,8.301,-928.711,-708.008,-213.867,0
1581611161.475,-34.180,-926.270,-682.617,-264.648,0
1581611161.479,-9.766,-965.332,-798.828,-300.781,0
1581611161.483,45.898,-966.797,-784.668,-277.832,0
1581611161.487,45.410,-966.309,-780.273,-257.812,0
1581611161.491,-26.367,-971.680,-802.246,-285.156,0
1581611161.494,-47.852,-971.680,-859.375,-303.711,0
1581611161.498,21.484,-973.145,-896.484,-307.129,0
1581611161.502,56.641,-875.000,-660.645,-263.184,0
1581611161.506,11.230,-848.633,-595.215,-278.320,0
1581611161.510,-36.621,-964.355,-834.473,-314.453,0
1581611161.512,2.441,-945.312,-830.078,-277.344,0
1581611161.516,54.688,-927.246,-698.730,-269.531,0
1581611161.520,16.602,-975.586,-746.582,-281.738,0
1581611161.524,-23.438,-972.656,-812.012,-264.648,0
1581611161.528,9.766,-971.191,-798.828,-196.289,0
1581611161.532,52.734,-972.656,-714.844,-81.055,0
1581611161.536,31.738,-972.168,-807.129,-56.152,0
1581611161.539,-19.531,-969.238,-902.832,-26.855,0
1581611161.543,-13.672,-982.422,-769.043,83.008,0
1581611161.547,49.316,-925.293,-557.617,187.988,0
1581611161.551,56.641,-906.250,-581.055,254.395,0
1581611161.555,-19.043,-972.168,-747.070,246.582,0
1581611161.557,-43.945,-982.910,-680.176,301.758,0
1581611161.561,15.625,-932.129,-536.133,412.109,0
1581611161.565,39.551,-911.133,-560.059,477.051,0
1581611161.569,-5.859,-968.262,-591.309,520.020,0
1581611161.573,-40.039,-965.332,-610.352,546.875,28030
1581611161.577,-28.809,-969.727,-714.355,623.535,0
1581611161.581,8.789,-974.121,-849.609,717.285,0
1581611161.584,-8.789,-969.238,-812.988,745.605,0
1581611161.588,-43.457,-973.145,-588.867,769.043,0
1581611161.592,-15.137,-944.824,-545.898,791.504,0
1581611161.596,19.531,-935.547,-587.402,859.375,0
1581611161.600,-5.859,-961.914,-607.910,873.535,0
1581611161.602,-46.875,-909.668,-519.043,837.891,0
1581611161.606,-49.316,-870.117,-499.023,843.262,0
1581611161.610,-10.742,-936.523,-571.289,831.543,0
1581611161.614,17.578,-958.984,-601.562,820.801,0
1581611161.618,-22.461,-916.016,-557.617,791.016,0
1581611161.622,-80.566,-962.402,-752.930,770.020,0
1581611161.626,-41.504,-970.215,-865.723,775.391,0
1581611161.629,3.418,-957.520,-739.258,740.723,0
1581611161.633,-26.855,-955.566,-666.992,707.520,0
1581611161.637,-83.496,-930.664,-688.477,659.668,0
1581611161.641,-61.035,-966.797,-815.918,588.867,0
1581611161.645,2.930,-963.379,-770.020,460.938,0
1581611161.662,-15.625,-897.461,-689.941,319.336,0
1581611161.666,-61.523,-927.734,-799.316,254.883,0
1581611161.670,-36.133,-961.426,-859.863,200.684,0
1581611161.674,42.480,-907.715,-740.723,171.875,0
1581611161.678,10.742,-927.734,-765.625,81.055,0
1581611161.682,-71.289,-970.703,-911.621,-28.320,0
1581611161.686,-55.176,-973.145,-962.402,-3.906,0
1581611161.689,13.672,-971.191,-872.070,41.504,0
1581611161.693,21.484,-972.656,-797.852,76.172,0
1581611161.697,-41.016,-969.727,-862.793,45.410,0
1581611161.701,-62.988,-976.074,-940.918,1.465,0
1581611161.705,2.441,-957.031,-794.434,77.148,0
1581611161.707,39.551,-868.652,-657.227,106.445,0
1581611161.711,-22.949,-910.156,-777.344,49.805,0
1581611161.715,-61.035,-985.840,-851.074,0.488,0
1581611161.719,-7.812,-968.750,-770.508,41.504,0
1581611161.723,42.969,-940.430,-714.844,211.426,0
1581611161.727,-1.465,-954.102,-781.738,331.543,0
1581611161.731,-48.340,-986.328,-803.223,474.609,0
1581611161.734,-17.090,-895.020,-585.449,652.344,0
1581611161.738,43.457,-870.605,-545.898,823.730,0
1581611161.742,46.387,-967.773,-703.125,903.320,0
1581611161.746,-23.438,-974.609,-705.566,720.215,0
1581611161.750,-27.832,-965.820,-665.039,537.598,0
1581611161.752,43.457,-962.891,-745.117,295.898,0
1581611161.756,88.379,-968.750,-939.941,-34.668,0
1581611161.760,45.410,-978.516,-937.500,-291.504,0
1581611161.764,31.250,-952.637,-858.887,-500.977,0
1581611161.768,94.727,-939.941,-906.250,-638.672,0
1581611161.772,107.910,-973.145,-973.633,-748.047,0
1581611161.776,70.312,-973.633,-977.539,-784.668,0
1581611161.779,57.129,-969.727,-949.707,-683.594,0
1581611161.783,53.711,-975.586,-954.590,-508.301,0
1581611161.787,84.473,-960.449,-894.531,-276.367,0
1581611161.791,99.609,-938.965,-738.281,-107.910,0
1581611161.795,12.695,-961.426,-736.816,25.879,0
1581611161.798,-20.020,-981.445,-830.078,245.605,0
1581611161.802,41.016,-918.945,-708.496,430.664,0
1581611161.806,44.922,-889.648,-560.547,528.809,0
1581611161.810,-23.926,-926.758,-598.633,519.043,0
1581611161.814,-49.805,-958.496,-656.250,560.547,0
1581611161.818,-2.930,-975.098,-680.176,693.848,0
1581611161.822,23.438,-971.191,-674.316,726.562,0
1581611161.825,-21.973,-966.309,-663.086,716.309,0
1581611161.829,-58.594,-972.168,-753.906,727.539,0
1581611161.833,-7.324,-967.285,-685.547,789.551,0
1581611161.837,51.758,-859.375,-454.590,910.645,0
1581611161.841,14.160,-869.141,-528.809,897.461,0
1581611161.842,-47.363,-970.215,-701.660,840.332,0
1581611161.846,-24.414,-895.508,-570.801,776.855,0
1581611161.850,40.039,-831.055,-499.512,705.566,0
1581611161.854,35.156,-900.879,-639.160,664.062,0
1581611161.858,-33.691,-976.074,-721.680,550.781,0
1581611161.862,-42.969,-973.145,-804.688,461.426,0
1581611161.866,33.691,-959.961,-799.316,374.023,0
1581611161.869,41.504,-964.355,-818.359,270.508,0
1581611161.873,-19.531,-957.520,-886.719,212.891,0
1581611161.877,-36.621,-883.789,-717.773,166.504,0
1581611161.881,2.441,-866.699,-682.129,178.223,0
1581611161.885,38.086,-956.055,-859.375,142.578,0
1581611161.888,0.977,-959.961,-882.324,68.359,0
1581611161.892,-46.875,-924.805,-763.184,82.031,0
1581611161.896,-29.297,-926.270,-779.785,85.449,0
1581611161.900,38.086,-949.707,-812.988,107.910,0
1581611161.904,24.414,-958.008,-794.922,50.781,0
1581611161.908,-37.598,-966.309,-896.484,-27.344,0
1581611161.912,-16.113,-973.145,-979.492,46.875,0
1581611161.915,41.992,-975.098,-933.105,83.984,0
1581611161.919,29.785,-939.941,-804.688,80.566,0
1581611161.923,-22.949,-909.180,-716.797,21.484,0
1581611161.927,-10.254,-955.566,-869.629,-37.109,0
1581611161.931,42.969,-982.422,-930.664,0.488,0
1581611161.933,64.941,-897.949,-729.492,-32.715,0
1581611161.937,10.254,-833.984,-637.207,-132.324,0
1581611161.941,-29.297,-949.219,-833.984,-270.020,0
1581611161.945,25.879,-932.129,-831.543,-285.645,0
1581611161.949,64.453,-865.234,-680.664,-256.348,0
1581611161.953,-3.418,-957.031,-869.141,-343.262,0
1581611161.957,-53.711,-979.980,-998.047,-350.586,0
1581611161.960,-5.371,-964.355,-892.578,-274.414,0
1581611161.964,37.598,-903.809,-695.801,-100.586,0
1581611161.968,19.531,-843.750,-570.312,106.934,0
1581611161.972,-49.805,-915.527,-739.746,244.629,0
1581611161.976,-50.293,-947.266,-776.855,364.746,0
1581611161.978,32.227,-850.586,-543.945,416.016,0
1581611161.982,28.320,-916.992,-613.770,368.652,0
1581611161.986,-20.996,-986.328,-748.535,240.723,0
1581611161.990,-13.672,-964.355,-729.004,75.684,0
1581611161.994,54.199,-900.391,-636.230,-74.219,0
1581611161.998,76.172,-920.410,-744.629,-281.250,0
1581611162.002,12.695,-979.004,-955.078,-490.234,0
1581611162.005,-16.602,-976.562,-927.246,-606.445,0
1581611162.009,41.992,-941.895,-790.527,-668.945,0
1581611162.013,71.777,-928.711,-828.125,-708.008,0
1581611162.017,8.789,-967.285,-932.129,-788.574,0
1581611162.021,-35.645,-894.531,-809.570,-745.117,0
1581611162.038,0.000,-865.234,-722.168,-619.141,0
1581611162.042,67.871,-942.871,-816.406,-558.594,0
1581611162.046,47.852,-958.496,-799.805,-525.879,0
1581611162.050,-44.434,-951.660,-791.016,-572.754,0
1581611162.054,-44.922,-974.121,-882.324,-571.777,0
1581611162.058,20.020,-971.680,-931.152,-512.695,0
1581611162.062,23.926,-974.121,-934.570,-532.715,0
1581611162.065,-41.504,-961.426,-778.320,-559.082,0
1581611162.069,-44.922,-943.359,-688.965,-542.480,0
1581611162.073,22.949,-955.566,-820.801,-474.121,0
1581611162.077,52.246,-972.168,-842.773,-412.598,0
1581611162.081,9.766,-975.098,-720.703,-423.828,0
1581611162.083,-41.504,-953.613,-678.711,-376.465,0
1581611162.087,-7.324,-961.914,-673.828,-307.617,0
1581611162.091,56.152,-905.762,-617.188,-226.074,0
1581611162.095,21.973,-880.859,-570.312,-213.379,0
1581611162.099,-43.945,-968.262,-682.617,-250.977,0
1581611162.103,-39.062,-974.121,-800.781,-188.477,0
1581611162.107,22.949,-969.727,-857.422,-181.641,0
1581611162.110,15.625,-972.168,-799.316,-212.402,0
1581611162.114,-51.758,-970.703,-767.090,-216.309,0
1581611162.118,-32.227,-975.586,-874.023,-225.586,0
1581611162.122,34.668,-948.730,-749.512,-214.355,0
1581611162.126,41.504,-873.535,-566.406,-259.766,0
1581611162.128,-14.160,-909.180,-722.656,-328.125,0
1581611162.132,-39.062,-981.445,-899.902,-346.191,0
1581611162.136,22.949,-966.797,-748.047,-345.215,0
1581611162.140,50.293,-910.645,-613.281,-346.680,0
1581611162.144,-0.488,-919.434,-735.352,-430.664,0
1581611162.148,-43.457,-976.562,-919.922,-486.328,0
1581611162.152,-10.742,-972.168,-891.113,-449.707,0
1581611162.155,59.570,-971.680,-779.785,-425.781,0
1581611162.159,37.109,-970.703,-819.824,-445.312,0
1581611162.163,-42.969,-973.633,-968.750,-484.863,0
1581611162.167,-19.043,-973.633,-856.934,-431.152,0
1581611162.171,74.219,-905.762,-632.812,-337.402,0
1581611162.173,52.246,-927.246,-711.426,-342.773,0
1581611162.177,-27.344,-974.121,-751.465,-368.652,0
1581611162.181,-18.066,-958.008,-682.129,-379.395,0
1581611162.185,34.180,-958.496,-670.898,-297.363,0
1581611162.189,46.875,-961.914,-667.969,-223.145,0
1581611162.193,1.953,-974.609,-778.320,-247.070,0
1581611162.197,-34.180,-971.191,-810.059,-192.383,0
1581611162.200,-0.977,-973.145,-764.160,-127.441,0
1581611162.204,43.457,-971.680,-788.086,-75.195,0
1581611162.208,19.043,-960.449,-696.289,-30.273,0
1581611162.212,-33.691,-968.262,-655.762,-13.672,0
1581611162.216,-11.230,-974.121,-735.840,96.191,0
1581611162.218,47.363,-971.680,-781.250,218.750,0
1581611162.222,16.602,-972.656,-703.613,282.715,0
1581611162.226,-36.133,-972.168,-627.930,337.402,0
1581611162.230,-27.832,-972.656,-668.945,423.828,0
1581611162.234,23.926,-971.680,-634.766,514.160,0
1581611162.238,24.902,-972.168,-613.770,539.062,0
1581611162.242,-39.551,-969.727,-665.527,559.082,0
1581611162.245,-52.246,-977.051,-735.840,608.398,0
1581611162.249,-2.441,-951.172,-680.176,645.508,0
1581611162.253,27.832,-881.836,-487.305,663.086,0
1581611162.257,-9.766,-875.000,-483.887,609.863,0
1581611162.261,-59.570,-952.148,-688.965,566.895,0
1581611162.263,-19.531,-952.637,-687.500,601.562,0
1581611162.267,47.852,-841.797,-469.238,649.414,0
1581611162.271,-2.930,-853.516,-501.465,599.121,0
1581611162.275,-71.777,-960.938,-675.293,500.977,0
1581611162.279,-32.715,-976.074,-711.914,516.602,0
1581611162.283,28.809,-968.750,-666.016,546.875,0
1581611162.287,11.230,-973.145,-708.984,521.484,0
1581611162.290,-56.641,-968.262,-832.031,448.730,0
1581611162.294,-52.734,-981.934,-796.875,376.953,0
1581611162.298,2.441,-930.176,-650.879,389.160,0
1581611162.302,4.883,-883.789,-650.391,368.164,0
1581611162.306,-46.875,-959.473,-808.594,272.461,0
1581611162.308,-62.500,-989.746,-790.527,166.992,0
1581611162.312,12.695,-914.551,-666.504,99.609,0
1581611162.316,41.016,-901.367,-730.957,62.012,0
1581611162.320,-20.508,-977.539,-832.520,-53.711,0
1581611162.324,-61.523,-973.145,-777.832,-118.652,0
1581611162.328,-12.695,-969.727,-866.211,-141.113,0
1581611162.332,36.621,-975.098,-979.004,-141.602,0
1581611162.335,1.953,-959.473,-884.766,-116.699,0
1581611162.339,-40.039,-963.867,-791.504,-168.945,0
1581611162.343,-19.531,-925.293,-721.680,-156.738,0
1581611162.347,26.855,-913.574,-794.434,-177.734,0
1581611162.351,14.160,-981.445,-891.602,-286.621,0
1581611162.353,-37.109,-937.012,-752.441,-270.020,0
1581611162.357,-31.738,-858.398,-689.453,-246.094,0
1581611162.361,38.574,-903.320,-700.195,-208.008,0
1581611162.365,25.879,-911.133,-697.266,-211.426,0
1581611162.369,-26.855,-905.762,-698.242,-205.078,0
1581611162.373,-30.762,-968.750,-786.133,19.531,0
1581611162.377,4.883,-972.656,-826.660,211.914,0
1581611162.380,67.383,-890.137,-658.691,380.859,0
1581611162.384,25.879,-805.664,-490.234,470.703,0
1581611162.388,-24.414,-886.230,-595.703,486.328,0
1581611162.392,36.621,-995.117,-770.508,516.602,0
1581611162.396,82.520,-909.180,-656.250,390.137,0
1581611162.412,42.969,-756.836,-497.559,186.523,0
1581611162.416,17.578,-857.422,-673.340,-146.484,0
1581611162.420,63.477,-979.004,-843.750,-463.867,0
1581611162.424,128.906,-884.277,-754.395,-636.230,0
1581611162.428,131.348,-910.645,-840.332,-869.141,0
1581611162.432,77.148,-980.469,-971.680,-980.469,0
1581611162.436,58.105,-971.191,-977.051,-962.891,0
1581611162.439,110.840,-959.961,-934.082,-972.656,0
1581611162.443,119.629,-931.641,-837.402,-881.348,0
1581611162.447,49.805,-942.871,-879.395,-722.168,0
1581611162.451,17.578,-977.539,-962.402,-550.293,0
1581611162.455,46.387,-960.938,-806.641,-343.262,0
1581611162.457,64.453,-958.496,-689.453,-156.250,0
1581611162.461,10.254,-971.680,-723.633,-13.184,0
1581611162.465,-60.059,-971.680,-687.988,42.480,0
1581611162.469,-32.715,-945.801,-630.859,104.492,0
1581611162.473,40.527,-868.652,-553.711,109.863,0
1581611162.477,-9.277,-919.434,-694.824,45.410,0
1581611162.481,-84.473,-988.281,-832.520,60.547,0
1581611162.484,-38.574,-963.867,-702.637,98.145,0
1581611162.488,18.555,-910.156,-593.262,182.129,0
1581611162.492,-6.836,-953.125,-714.355,174.805,0
1581611162.496,-61.523,-954.102,-697.266,145.996,0
1581611162.500,-62.988,-900.391,-568.848,210.938,0
1581611162.502,-13.184,-937.988,-662.109,212.891,0
1581611162.506,11.719,-951.172,-748.535,174.316,0
1581611162.510,-33.691,-942.871,-690.918,18.555,0
1581611162.514,-80.566,-966.309,-779.297,-125.488,0
1581611162.518,-31.738,-974.121,-890.137,-166.992,0
1581611162.522,-2.930,-971.680,-901.855,-266.602,0
1581611162.526,-52.246,-972.168,-921.875,-389.160,0
1581611162.529,-100.098,-969.238,-943.359,-531.250,0
1581611162.533,-62.500,-979.004,-947.754,-604.492,0
1581611162.537,-8.789,-936.035,-884.277,-588.379,0
1581611162.541,-35.645,-860.352,-751.953,-651.855,0
1581611162.545,-76.172,-873.047,-747.070,-700.684,0
1581611162.547,-72.266,-968.750,-905.762,-773.438,0
1581611162.551,-33.691,-910.645,-871.094,-791.016,0
1581611162.555,-30.762,-798.828,-689.453,-750.000,0
1581611162.559,-84.961,-874.023,-769.531,-826.660,0
1581611162.563,-104.004,-952.637,-867.188,-836.914,0
1581611162.567,-40.527,-974.609,-904.785,-836.426,0
1581611162.571,-19.043,-968.750,-937.500,-878.418,0
1581611162.574,-70.801,-970.215,-972.168,-891.602,0
1581611162.578,-104.004,-979.004,-959.961,-912.598,0
1581611162.582,-63.477,-916.504,-829.590,-886.719,0
1581611162.586,-0.977,-825.195,-686.035,-892.090,0
1581611162.590,-38.086,-890.625,-790.527,-963.867,0
1581611162.592,-89.844,-977.539,-922.852,-976.074,0
1581611162.596,-49.805,-956.055,-814.453,-969.727,0
1581611162.600,13.184,-906.738,-721.680,-973.145,28475
1581611162.604,-22.949,-927.246,-775.391,-966.797,0
1581611162.608,-98.633,-976.562,-850.586,-977.539,0
1581611162.612,-95.703,-971.680,-913.574,-905.273,0
1581611162.616,-53.711,-971.680,-835.938,-697.754,0
1581611162.619,-47.363,-970.703,-781.250,-494.629,0
1581611162.623,-102.539,-969.238,-813.477,-309.082,0
1581611162.627,-132.324,-982.910,-662.109,-22.949,0
1581611162.631,-88.379,-909.180,-494.141,271.973,0
1581611162.635,-52.734,-877.441,-469.727,416.992,0
1581611162.637,-119.629,-950.684,-535.645,411.133,0
1581611162.641,-158.203,-905.273,-501.953,309.082,0
1581611162.645,-105.469,-854.492,-483.398,226.074,0
1581611162.649,-49.316,-941.406,-644.043,135.254,0
1581611162.653,-63.477,-950.195,-663.574,-24.414,0
1581611162.657,-101.562,-947.266,-699.707,-165.527,0
1581611162.661,-72.266,-979.980,-850.586,-268.555,0
1581611162.664,-18.555,-967.285,-854.492,-302.246,0
1581611162.668,-22.949,-911.133,-722.168,-341.309,0
1581611162.672,-78.613,-892.578,-661.133,-421.387,0
1581611162.676,-86.914,-920.898,-714.844,-409.180,0
1581611162.680,-33.203,-967.773,-880.371,-419.922,0
1581611162.682,-5.371,-976.074,-853.027,-404.297,0
1581611162.686,-52.246,-885.742,-631.836,-376.465,0
1581611162.690,-104.492,-904.297,-715.332,-416.016,0
1581611162.694,-61.035,-952.148,-782.715,-429.199,0
1581611162.698,-20.020,-880.859,-653.320,-502.930,0
1581611162.702,-75.195,-937.988,-756.348,-623.047,0
1581611162.706,-116.699,-981.934,-929.199,-725.586,0
1581611162.709,-88.379,-955.566,-920.410,-823.242,0
1581611162.713,-48.828,-880.371,-763.184,-844.727,0
1581611162.717,-83.496,-861.816,-724.609,-907.227,0
1581611162.721,-145.508,-943.848,-879.883,-979.980,0
1581611162.725,-130.859,-979.004,-925.293,-958.984,0
1581611162.727,-64.453,-869.629,-725.098,-893.555,0
1581611162.731,-40.527,-809.082,-628.906,-879.395,0
1581611162.735,-104.492,-938.477,-827.148,-931.641,0
1581611162.739,-132.812,-982.422,-898.438,-858.398,0
1581611162.743,-49.316,-937.500,-707.520,-723.633,0
1581611162.747,2.441,-956.055,-746.094,-653.809,0
1581611162.751,-58.594,-975.586,-878.418,-630.859,0
1581611162.754,-86.914,-969.727,-792.969,-614.746,0
1581611162.758,-19.043,-883.301,-600.098,-501.465,0
1581611162.762,15.137,-859.863,-585.449,-400.391,0
1581611162.766,-34.668,-966.797,-719.727,-396.973,0
1581611162.770,-77.148,-954.590,-670.410,-406.250,0
1581611162.787,-62.988,-930.664,-631.348,-433.594,0
1581611162.791,1.953,-946.777,-689.941,-401.855,0
1581611162.795,5.371,-966.797,-704.102,-405.762,0
1581611162.799,-82.031,-970.215,-672.852,-456.543,0
1581611162.803,-79.102,-945.801,-623.535,-440.430,0
1581611162.807,-11.230,-956.543,-787.109,-460.449,0
1581611162.811,-10.742,-977.051,-917.480,-472.168,0
1581611162.814,-63.965,-971.191,-770.020,-493.164,0
1581611162.818,-76.660,-970.215,-714.844,-533.203,0
1581611162.822,-22.461,-973.633,-840.820,-526.367,0
1581611162.826,25.879,-971.191,-842.773,-570.801,0
1581611162.830,6.348,-880.371,-621.094,-606.934,0
1581611162.832,-46.387,-878.418,-641.602,-629.395,0
1581611162.836,-26.367,-963.867,-743.652,-648.438,0
1581611162.840,41.992,-892.578,-664.062,-625.000,0
1581611162.844,9.766,-860.840,-632.812,-674.316,0
1581611162.848,-44.434,-931.152,-711.426,-694.336,0
1581611162.852,-14.160,-969.727,-809.570,-632.812,0
1581611162.856,57.617,-976.074,-814.941,-576.660,0
1581611162.859,36.621,-958.008,-675.293,-564.453,0
1581611162.863,-40.527,-945.312,-753.418,-590.332,0
1581611162.867,-47.363,-981.445,-933.594,-534.668,0
1581611162.871,21.973,-914.551,-707.031,-377.930,0
1581611162.875,45.898,-826.172,-477.539,-288.574,0
1581611162.878,-25.391,-907.227,-655.762,-288.574,0
1581611162.882,-59.082,-983.887,-865.723,-279.785,0
1581611162.886,1.465,-950.195,-673.340,-164.551,0
1581611162.890,39.062,-912.109,-531.250,-55.176,0
1581611162.894,-1.465,-945.801,-643.555,-59.570,0
1581611162.898,-58.594,-974.121,-751.953,-29.785,0
1581611162.902,-21.973,-978.027,-793.457,1.465,0
1581611162.905,35.156,-950.684,-673.340,51.270,0
1581611162.909,-1.465,-927.734,-652.344,72.266,0
1581611162.913,-56.152,-978.516,-756.348,63.965,0
1581611162.917,-36.133,-923.828,-547.852,150.879,0
1581611162.921,35.645,-912.598,-508.789,227.539,0
1581611162.923,42.480,-971.191,-659.180,281.738,0
1581611162.927,-52.246,-981.445,-721.680,281.738,0
1581611162.931,-79.590,-944.336,-576.172,338.867,0
1581611162.935,-23.926,-858.887,-450.684,437.988,0
1581611162.939,-0.488,-932.129,-544.434,434.082,0
1581611162.943,-31.738,-984.863,-695.801,437.012,0
1581611162.947,-69.336,-965.820,-723.145,495.117,0
1581611162.950,-27.344,-968.262,-654.297,566.895,0
1581611162.954,17.578,-978.516,-675.781,611.328,0
1581611162.958,-10.254,-902.344,-579.590,592.285,0
1581611162.962,-58.594,-827.637,-449.707,622.559,0
1581611162.966,-32.227,-897.461,-571.289,609.375,0
1581611162.968,20.508,-943.359,-684.570,565.430,0
1581611162.972,6.836,-854.004,-546.875,473.145,0
1581611162.976,-48.828,-907.227,-629.395,309.570,0
1581611162.980,-35.156,-984.375,-781.250,242.188,0
1581611162.984,37.598,-958.496,-733.887,164.062,0
1581611162.988,37.109,-965.332,-739.258,43.945,0
1581611162.992,-28.809,-971.191,-766.602,-60.547,0
1581611162.995,-50.293,-977.539,-867.188,-127.441,0
1581611162.999,10.254,-937.012,-859.375,-65.430,0
1581611163.003,52.734,-866.699,-665.039,-55.176,0
1581611163.007,8.301,-884.766,-638.672,-97.168,0
1581611163.011,-38.574,-953.125,-835.449,-173.828,0
1581611163.013,-1.953,-980.469,-902.344,-231.445,0
1581611163.017,71.777,-881.836,-675.781,-155.762,0
1581611163.021,33.691,-819.824,-616.699,-164.551,0
1581611163.025,-57.617,-937.500,-728.027,-169.922,0
1581611163.029,-40.527,-936.035,-698.730,-80.078,0
1581611163.033,31.738,-922.852,-666.016,35.645,0
1581611163.037,18.066,-976.562,-812.012,146.484,0
1581611163.040,-50.781,-974.121,-907.227,252.930,0
1581611163.044,-52.734,-948.730,-729.980,425.293,0
1581611163.048,18.555,-829.590,-490.234,585.449,0
1581611163.052,39.551,-831.543,-493.164,708.984,0
1581611163.056,-25.879,-942.383,-614.258,799.805,0
1581611163.058,-38.086,-971.680,-638.672,759.766,0
1581611163.062,43.945,-900.879,-550.781,682.617,0
1581611163.066,78.613,-881.836,-581.543,451.172,0
1581611163.070,17.090,-975.586,-742.676,98.145,0
1581611163.074,1.465,-973.633,-781.250,-118.652,0
1581611163.078,64.941,-969.727,-883.789,-281.250,0
