timestamps,TP9,AF7,AF8,TP10,Right AUX,Marker0
1581362577.583,52.733999999999995,-464.844,35.645,40.039,0.0,0
1581362577.5870001,37.109,-418.457,32.715,41.504,0.0,0
1581362577.591,8.789,-330.566,29.785,31.738000000000003,0.0,0
1581362577.595,5.859,-437.5,28.809,31.738000000000003,0.0,0
1581362577.599,-9.277000000000001,-448.24199999999996,30.761999999999997,31.738000000000003,0.0,0
1581362577.603,-4.395,-485.352,32.715,29.296999999999997,0.0,0
1581362577.607,20.508000000000006,-578.125,33.203,32.227,0.0,0
1581362577.61,46.387,-767.09,35.156,41.992,0.0,0
1581362577.6139998,19.531,-651.855,33.691,45.898,0.0,0
1581362577.6179998,3.418,-287.1090000000001,30.273000000000003,41.992,0.0,0
1581362577.6220002,18.555,-329.102,25.391,25.879,0.0,0
1581362577.6260002,39.062,-403.32,20.996,21.97300000000001,0.0,0
1581362577.6279998,58.105,-302.246,31.738000000000003,25.391,0.0,0
1581362577.6320002,55.176,-260.254,36.133,13.672,0.0,0
1581362577.6360002,62.012,-339.844,41.504,11.719000000000001,0.0,0
1581362577.64,66.895,-385.74199999999996,49.805,15.137,0.0,0
1581362577.644,54.688,-415.039,45.898,24.414,0.0,0
1581362577.6479998,57.617,-488.281,39.551,27.831999999999997,0.0,0
1581362577.6520002,74.219,-693.3589999999997,42.48,21.97300000000001,0.0,0
1581362577.655,53.71100000000001,-793.457,40.527,21.484,0.0,0
1581362577.659,48.828,-443.35900000000004,32.715,25.391,0.0,0
1581362577.6629999,85.449,-307.129,28.32,31.25,0.0,0
1581362577.667,81.543,-362.305,30.761999999999997,35.156,0.0,0
1581362577.671,76.172,-320.801,35.156,32.227,0.0,0
1581362577.6729999,62.012,-270.508,36.133,32.715,0.0,0
1581362577.677,48.34,-298.828,39.551,37.598,0.0,0
1581362577.681,58.593999999999994,-431.64099999999996,38.086,32.227,0.0,0
1581362577.685,32.715,-442.38300000000004,32.715,23.438000000000002,0.0,0
1581362577.689,23.438000000000002,-336.426,33.203,29.785,0.0,0
1581362577.6929998,49.805,-515.625,35.156,40.527,0.0,0
1581362577.697,63.477,-855.957,39.062,41.504,0.0,0
1581362577.7,62.988,-737.305,44.434,35.645,0.0,0
1581362577.704,44.922,-319.336,42.48,31.738000000000003,0.0,0
1581362577.708,50.78100000000001,-333.496,41.01600000000001,41.01600000000001,0.0,0
1581362577.7120001,63.965,-508.789,40.527,40.527,0.0,0
1581362577.716,49.805,-452.63699999999994,33.691,24.901999999999997,0.0,0
1581362577.748,42.48,-382.324,32.227,25.391,0.0,0
1581362577.752,66.406,-476.074,38.086,37.109,0.0,0
1581362577.756,60.059,-543.945,38.574,28.32,0.0,0
1581362577.76,61.523,-406.25,33.691,4.395,0.0,0
1581362577.764,81.055,-332.031,37.109,-1.465,0.0,0
1581362577.768,83.984,-690.43,42.48,16.113,0.0,0
1581362577.772,65.918,-887.207,42.968999999999994,28.32,0.0,0
1581362577.775,49.805,-547.852,47.852,22.949,0.0,0
1581362577.779,57.129,-456.543,45.898,19.531,0.0,0
1581362577.783,62.5,-698.242,44.434,34.668,0.0,0
1581362577.7870002,49.316,-675.7810000000002,44.922,42.968999999999994,0.0,0
1581362577.7910001,43.945,-449.219,38.086,34.668,0.0,0
1581362577.7779999,45.41,-412.598,36.133,23.926,0.0,0
1581362577.782,42.968999999999994,-497.559,36.621,26.855,0.0,0
1581362577.786,45.41,-569.336,34.668,26.855,0.0,0
1581362577.79,48.34,-521.484,33.691,29.785,0.0,0
1581362577.794,49.316,-443.35900000000004,34.668,36.621,0.0,0
1581362577.7979999,31.25,-554.688,33.203,30.273000000000003,0.0,0
1581362577.802,39.551,-735.352,36.133,36.621,0.0,0
1581362577.805,50.78100000000001,-551.758,41.504,45.898,0.0,0
1581362577.809,29.785,-426.27,38.574,38.086,0.0,0
1581362577.813,37.598,-599.121,33.691,30.273000000000003,0.0,0
1581362577.8170002,27.831999999999997,-517.09,38.574,29.296999999999997,0.0,0
1581362577.821,15.137,-392.09,45.41,37.598,0.0,0
1581362577.823,14.16,-592.285,40.527,37.598,0.0,0
1581362577.8270001,26.855,-881.3480000000003,37.109,16.113,0.0,0
1581362577.831,41.01600000000001,-701.172,34.18,-1.953,0.0,0
1581362577.835,52.246,-432.129,30.273000000000003,5.859,0.0,0
1581362577.839,52.733999999999995,-527.344,26.855,2.93,0.0,0
1581362577.843,38.086,-722.6560000000003,25.879,-9.766,0.0,0
1581362577.8470001,37.109,-799.805,25.879,8.789,0.0,0
1581362577.85,21.97300000000001,-625.0,22.949,18.066,0.0,0
1581362577.8539999,4.395,-673.828,25.879,-2.441,0.0,0
1581362577.8579998,8.789,-844.727,31.25,-11.23,0.0,0
1581362577.8620002,36.621,-500.977,28.32,-12.207,0.0,0
1581362577.8660002,36.621,-386.23,25.879,-5.371,0.0,0
1581362577.8679998,24.901999999999997,-562.5,21.484,3.418,0.0,0
1581362577.8720002,62.988,-520.996,9.766,4.883,0.0,0
1581362577.8760002,66.895,-336.914,1.953,-0.488,0.0,0
1581362577.88,32.227,-499.51199999999994,-0.977,-0.977,0.0,0
1581362577.8839998,56.64100000000001,-658.203,-3.418,13.672,0.0,0
1581362577.8879998,85.93799999999996,-682.617,-4.883,14.16,0.0,0
1581362577.8920002,88.37899999999998,-705.078,-2.441,16.113,0.0,0
1581362577.895,77.148,-565.43,-1.465,23.926,0.0,0
1581362577.899,77.637,-776.367,-3.418,35.156,0.0,0
1581362577.9029999,70.801,-783.203,-5.859,38.086,0.0,0
1581362577.907,57.617,-453.125,-8.789,26.855,0.0,0
1581362577.911,67.87100000000001,-501.95300000000003,-8.301,27.344,0.0,0
1581362577.9129999,90.33200000000001,-584.4730000000002,-4.395,34.18,0.0,0
1581362577.917,96.191,-477.539,2.441,40.039,0.0,0
1581362577.921,85.449,-396.48400000000004,7.812,34.668,0.0,0
1581362577.925,91.79700000000001,-532.227,5.371,21.484,0.0,0
1581362577.929,95.215,-615.7230000000002,2.93,23.926,0.0,0
1581362577.9329998,80.566,-600.0980000000002,1.465,30.761999999999997,0.0,0
1581362577.937,52.246,-687.988,3.418,24.414,0.0,0
1581362577.94,62.988,-838.3789999999997,7.812,26.366999999999997,0.0,0
1581362577.944,74.707,-906.738,12.207,24.414,0.0,0
1581362577.948,67.87100000000001,-604.98,13.184000000000001,35.645,0.0,0
1581362577.9520001,83.49600000000002,-376.95300000000003,16.113,43.945,0.0,0
1581362577.956,100.098,-485.352,26.855,41.992,0.0,0
1581362577.958,97.656,-543.945,26.366999999999997,42.48,0.0,0
1581362577.9620001,60.059,-432.61699999999996,24.414,42.48,0.0,0
1581362577.966,39.551,-553.2230000000002,28.32,54.688,0.0,0
1581362577.97,45.41,-669.434,28.809,58.105,0.0,0
1581362577.974,46.387,-519.043,25.391,49.316,0.0,0
1581362577.978,53.223,-542.969,22.949,51.758,0.0,0
1581362577.982,56.152,-715.332,15.625,51.27,0.0,0
1581362577.985,65.43,-888.184,8.789,38.574,0.0,0
1581362577.9889998,55.663999999999994,-747.07,15.137,38.574,0.0,0
1581362577.9929998,58.593999999999994,-520.02,18.555,39.062,0.0,0
1581362577.9970002,49.805,-584.4730000000002,9.277000000000001,34.18,0.0,0
1581362578.0010002,39.551,-610.352,9.277000000000001,31.25,0.0,0
1581362578.0029998,68.359,-452.148,15.137,20.996,0.0,0
1581362578.0070002,49.316,-337.89099999999996,13.184000000000001,8.301,0.0,0
1581362578.0110002,24.901999999999997,-514.648,17.578,16.113,0.0,0
1581362578.015,39.062,-615.7230000000002,27.344,25.879,0.0,0
1581362578.019,38.574,-518.555,22.461,22.461,0.0,0
1581362578.0229998,39.551,-550.293,23.926,26.366999999999997,0.0,0
1581362578.0270002,52.246,-801.758,32.715,29.785,0.0,0
1581362578.03,71.289,-908.203,30.273000000000003,30.761999999999997,0.0,0
1581362578.034,76.66,-572.754,20.02,36.133,0.0,0
1581362578.0379999,29.296999999999997,-377.441,23.926,24.901999999999997,0.0,0
1581362578.042,-31.25,-494.14099999999996,37.598,-4.883,0.0,0
1581362578.046,-52.246,-547.852,37.109,-26.855,0.0,0
1581362578.0479999,-45.41,-545.41,32.227,-37.598,0.0,0
1581362578.052,-52.733999999999995,-487.793,34.668,-46.875,0.0,0
1581362578.056,-95.70299999999999,-523.9259999999998,46.387,-51.27,0.0,0
1581362578.06,-117.18799999999999,-565.43,49.805,-49.316,0.0,0
1581362578.064,-98.633,-444.336,50.78100000000001,-52.246,0.0,0
1581362578.0679998,-93.75,-529.785,61.035,-61.035,0.0,0
1581362578.072,-89.355,-866.211,56.64100000000001,-48.34,0.0,0
1581362578.075,-105.469,-750.0,59.082,-36.621,0.0,0
1581362578.079,-123.04700000000001,-409.668,69.824,-41.01600000000001,0.0,0
1581362578.083,-109.863,-483.88699999999994,65.918,-39.062,0.0,0
1581362578.0870001,-75.684,-511.23,63.965,-28.32,0.0,0
1581362578.091,-67.87100000000001,-434.082,66.895,-8.789,0.0,0
1581362578.1079998,-71.777,-399.902,67.383,4.883,0.0,0
1581362578.1120002,-38.086,-477.539,59.57,8.301,0.0,0
1581362578.1160002,-29.785,-516.602,50.78100000000001,-2.441,0.0,0
1581362578.12,-33.203,-527.832,47.852,-1.465,0.0,0
1581362578.1239998,-26.366999999999997,-537.5980000000002,43.945,8.301,0.0,0
1581362578.1279998,-10.742,-704.102,44.922,0.488,0.0,0
1581362578.1320002,-29.296999999999997,-840.82,50.293,3.418,0.0,0
1581362578.135,-49.316,-473.63300000000004,44.922,12.207,0.0,0
1581362578.139,-25.879,-296.875,44.434,18.066,0.0,0
1581362578.143,-11.719000000000001,-465.332,50.293,23.926,0.0,0
1581362578.147,6.836,-458.98400000000004,37.109,22.461,0.0,0
1581362578.151,17.578,-299.805,25.879,27.831999999999997,0.0,0
1581362578.1529999,-1.465,-293.945,39.062,35.156,0.0,0
1581362578.157,-6.836,-371.582,48.34,40.039,0.0,0
1581362578.161,-6.836,-397.461,46.875,41.992,0.0,0
1581362578.165,7.812,-315.43,49.805,41.504,0.0,0
1581362578.169,12.695,-344.23800000000006,49.316,49.805,0.0,0
1581362578.1729999,15.625,-529.785,48.828,48.828,0.0,0
1581362578.177,16.113,-632.812,47.852,36.621,0.0,0
1581362578.18,-1.953,-408.20300000000003,44.434,33.691,0.0,0
1581362578.184,5.371,-361.816,48.34,41.01600000000001,0.0,0
1581362578.188,19.531,-683.5939999999998,50.78100000000001,53.71100000000001,0.0,0
1581362578.1920002,33.691,-519.043,48.34,46.387,0.0,0
1581362578.196,48.828,-215.82,47.363,33.203,0.0,0
1581362578.198,31.25,-350.098,45.41,34.18,0.0,0
1581362578.2020001,14.16,-375.48800000000006,49.805,36.621,0.0,0
1581362578.206,29.785,-239.74599999999998,52.733999999999995,43.457,0.0,0
1581362578.21,40.527,-184.082,44.434,44.922,0.0,0
1581362578.214,52.246,-312.012,44.434,41.01600000000001,0.0,0
1581362578.218,27.831999999999997,-512.207,55.176,36.621,0.0,0
1581362578.2220001,-4.883,-583.984,53.71100000000001,31.738000000000003,0.0,0
1581362578.225,6.348,-430.176,44.434,45.898,0.0,0
1581362578.2289999,40.527,-479.49199999999996,39.551,49.316,0.0,0
1581362578.2329998,41.992,-667.9689999999998,40.039,47.852,0.0,0
1581362578.2370002,25.391,-335.9380000000001,48.828,52.246,0.0,0
1581362578.2410002,38.086,-187.012,49.805,36.133,0.0,0
1581362578.2429998,16.602,-249.023,41.504,25.391,0.0,0
1581362578.2470002,25.879,-279.297,40.039,28.32,0.0,0
1581362578.2510002,48.828,-212.40200000000002,43.457,29.296999999999997,0.0,0
1581362578.255,20.508000000000006,-204.102,46.875,19.531,0.0,0
1581362578.2589998,29.785,-288.086,48.828,6.836,0.0,0
1581362578.2629998,40.039,-406.25,46.875,1.465,0.0,0
1581362578.2670002,38.086,-518.066,47.852,8.301,0.0,0
1581362578.27,52.246,-478.027,44.922,11.23,0.0,0
1581362578.274,39.551,-596.68,37.109,-2.441,0.0,0
1581362578.2779999,25.391,-577.637,36.621,-8.301,0.0,0
1581362578.282,15.137,-289.551,40.039,3.418,0.0,0
1581362578.286,25.391,-355.957,43.945,15.625,0.0,0
1581362578.289,44.434,-420.41,38.086,15.137,0.0,0
1581362578.293,34.668,-224.609,36.621,14.648,0.0,0
1581362578.2970002,26.855,-190.918,41.992,23.926,0.0,0
1581362578.301,39.062,-323.242,30.761999999999997,24.901999999999997,0.0,0
1581362578.305,38.574,-335.9380000000001,26.366999999999997,21.97300000000001,0.0,0
1581362578.309,35.156,-369.14099999999996,34.18,32.227,0.0,0
1581362578.313,22.461,-422.36300000000006,43.457,31.738000000000003,0.0,0
1581362578.316,7.812,-534.18,46.387,20.02,0.0,0
1581362578.32,14.648,-651.367,38.574,14.648,0.0,0
1581362578.324,28.809,-345.215,34.668,6.836,0.0,0
1581362578.3279998,29.785,-194.33599999999998,33.203,11.23,0.0,0
1581362578.332,19.531,-286.621,33.691,28.32,0.0,0
1581362578.3339999,7.324,-288.086,40.039,30.273000000000003,0.0,0
1581362578.3379998,14.16,-178.22299999999996,45.41,19.043,0.0,0
1581362578.342,12.207,-280.762,46.387,17.09,0.0,0
1581362578.346,-12.207,-418.457,43.945,24.901999999999997,0.0,0
1581362578.35,2.93,-296.875,41.01600000000001,25.879,0.0,0
1581362578.3539999,27.344,-346.191,36.621,24.901999999999997,0.0,0
1581362578.3579998,29.785,-512.207,28.809,24.414,0.0,0
1581362578.361,4.395,-746.582,24.414,30.761999999999997,0.0,0
1581362578.365,-5.371,-658.691,30.273000000000003,36.133,0.0,0
1581362578.369,5.859,-266.60200000000003,39.551,31.738000000000003,0.0,0
1581362578.373,22.949,-300.293,39.062,34.668,0.0,0
1581362578.377,42.48,-369.629,39.551,38.574,0.0,0
1581362578.379,39.551,-291.504,33.691,42.48,0.0,0
1581362578.383,13.184000000000001,-270.508,26.366999999999997,33.203,0.0,0
1581362578.387,22.949,-349.60900000000015,34.668,20.508000000000006,0.0,0
1581362578.391,24.901999999999997,-363.281,41.504,22.461,0.0,0
1581362578.395,24.901999999999997,-237.305,40.039,17.09,0.0,0
1581362578.399,40.527,-399.902,35.156,0.977,0.0,0
1581362578.4029999,41.504,-757.324,44.434,4.395,0.0,0
1581362578.4060001,36.621,-810.547,58.593999999999994,10.254000000000001,0.0,0
1581362578.41,-2.441,-453.125,55.176,1.465,0.0,0
1581362578.414,0.488,-291.01599999999996,44.434,2.441,0.0,0
1581362578.418,35.156,-384.76599999999996,48.34,-1.953,0.0,0
1581362578.4220002,37.598,-405.273,55.176,-8.789,0.0,0
1581362578.424,12.207,-294.434,49.316,-21.97300000000001,0.0,0
1581362578.428,6.348,-253.418,55.663999999999994,-30.761999999999997,0.0,0
1581362578.4320002,15.625,-366.211,75.195,-25.879,0.0,0
1581362578.436,-20.996,-412.598,67.87100000000001,-66.406,0.0,0
1581362578.44,-80.078,-360.84,50.78100000000001,-107.42200000000001,0.0,0
1581362578.444,-83.49600000000002,-513.672,54.199,-110.84,0.0,0
1581362578.448,-71.777,-841.309,62.5,-126.465,0.0,0
1581362578.451,-106.934,-743.6519999999997,61.035,-163.57399999999996,0.0,0
1581362578.455,-162.59799999999996,-538.086,55.176,-201.66,0.0,0
1581362578.4589999,-205.078,-681.1519999999998,59.57,-217.773,0.0,0
1581362578.4629998,-204.59,-667.9689999999998,59.57,-235.352,0.0,0
1581362578.467,-206.055,-533.203,57.129,-259.76599999999996,0.0,0
1581362578.484,-234.375,-397.949,61.523,-271.48400000000004,0.0,0
1581362578.488,-257.324,-473.145,68.848,-277.832,0.0,0
1581362578.492,-251.953,-623.047,68.848,-272.461,0.0,0
1581362578.496,-233.398,-481.934,70.312,-260.742,0.0,0
1581362578.5,-212.891,-394.043,73.73,-250.0,0.0,0
1581362578.504,-208.49599999999998,-721.191,77.148,-225.09799999999998,0.0,0
1581362578.508,-205.56599999999997,-875.0,77.637,-195.312,0.0,0
1581362578.5110002,-174.31599999999997,-562.5,62.988,-172.363,0.0,0
1581362578.515,-151.855,-426.27,52.246,-148.92600000000004,0.0,0
1581362578.519,-138.672,-551.758,54.688,-124.023,0.0,0
1581362578.5229998,-129.88299999999998,-585.938,63.965,-100.098,0.0,0
1581362578.5270002,-125.0,-538.086,56.152,-91.79700000000001,0.0,0
1581362578.529,-92.773,-575.684,48.828,-82.52,0.0,0
1581362578.533,-76.172,-509.76599999999996,48.828,-58.593999999999994,0.0,0
1581362578.5370002,-73.242,-474.60900000000004,42.48,-39.062,0.0,0
1581362578.5410001,-46.875,-438.965,33.203,-25.391,0.0,0
1581362578.545,-10.254000000000001,-437.98800000000006,27.831999999999997,-8.789,0.0,0
1581362578.549,1.953,-558.105,23.438000000000002,6.836,0.0,0
1581362578.553,-8.301,-715.332,18.066,24.414,0.0,0
1581362578.556,3.906,-589.844,22.949,41.01600000000001,0.0,0
1581362578.56,39.062,-504.88300000000004,29.296999999999997,42.48,0.0,0
1581362578.564,50.78100000000001,-824.2189999999997,29.785,43.457,0.0,0
1581362578.5679998,55.176,-744.6289999999997,27.344,54.688,0.0,0
1581362578.572,40.039,-403.809,25.879,55.176,0.0,0
1581362578.574,33.691,-472.168,27.344,50.78100000000001,0.0,0
1581362578.5779998,69.824,-527.344,26.855,52.733999999999995,0.0,0
1581362578.582,94.238,-562.988,24.901999999999997,58.593999999999994,0.0,0
1581362578.586,63.965,-568.359,28.809,63.477,0.0,0
1581362578.59,45.898,-597.168,32.227,66.895,0.0,0
1581362578.5939999,64.453,-769.043,35.156,70.801,0.0,0
1581362578.5979998,82.031,-757.812,36.621,72.75399999999998,0.0,0
1581362578.601,91.309,-571.7769999999998,37.598,81.543,0.0,0
1581362578.605,99.12100000000001,-711.426,40.527,95.70299999999999,0.0,0
1581362578.609,91.79700000000001,-885.742,37.598,92.285,0.0,0
1581362578.613,88.37899999999998,-558.594,35.156,91.79700000000001,0.0,0
1581362578.617,79.102,-477.539,36.621,94.238,0.0,0
1581362578.619,85.449,-603.516,33.691,88.867,0.0,0
1581362578.623,101.56200000000001,-571.289,31.25,82.031,0.0,0
1581362578.627,102.051,-467.773,35.645,75.684,0.0,0
1581362578.631,97.16799999999999,-445.31199999999995,38.086,82.031,0.0,0
1581362578.635,77.148,-562.012,35.156,83.984,0.0,0
1581362578.639,109.375,-710.938,32.227,87.402,0.0,0
1581362578.643,105.469,-723.145,37.109,95.70299999999999,0.0,0
1581362578.6460001,83.984,-725.0980000000003,40.527,92.285,0.0,0
1581362578.65,107.42200000000001,-891.602,41.01600000000001,91.309,0.0,0
1581362578.654,104.98,-748.047,33.203,98.145,0.0,0
1581362578.658,85.93799999999996,-417.969,39.062,89.355,0.0,0
1581362578.6620002,75.684,-438.965,49.316,74.219,0.0,0
1581362578.664,79.59,-543.945,48.828,72.266,0.0,0
1581362578.668,92.773,-473.63300000000004,54.199,78.613,0.0,0
1581362578.6720002,82.52,-397.949,50.78100000000001,72.75399999999998,0.0,0
1581362578.676,93.262,-447.26599999999996,41.504,69.824,0.0,0
1581362578.68,96.191,-516.113,41.992,80.078,0.0,0
1581362578.684,75.684,-620.605,50.293,82.52,0.0,0
1581362578.688,72.266,-580.566,56.64100000000001,81.543,0.0,0
1581362578.691,80.078,-640.625,58.105,74.707,0.0,0
1581362578.695,82.52,-875.977,50.293,74.707,0.0,0
1581362578.699,98.145,-619.141,39.062,82.031,0.0,0
1581362578.7029998,113.281,-412.10900000000004,39.062,71.289,0.0,0
1581362578.707,78.613,-477.539,39.551,60.059,0.0,0
1581362578.724,65.918,-411.13300000000004,33.691,55.176,0.0,0
1581362578.728,62.988,-334.473,34.18,58.105,0.0,0
1581362578.732,80.566,-404.29699999999997,34.668,64.453,0.0,0
1581362578.736,113.281,-499.51199999999994,32.227,50.78100000000001,0.0,0
1581362578.74,104.00399999999999,-472.656,32.227,47.363,0.0,0
1581362578.744,81.543,-523.438,32.227,55.176,0.0,0
1581362578.748,77.148,-656.25,28.32,62.012,0.0,0
1581362578.7510002,84.473,-842.285,29.296999999999997,62.988,0.0,0
1581362578.755,91.309,-721.68,26.855,45.41,0.0,0
1581362578.7589998,78.125,-383.301,31.25,43.457,0.0,0
1581362578.7629998,76.172,-396.48400000000004,41.992,49.805,0.0,0
1581362578.7670002,83.49600000000002,-568.359,41.01600000000001,38.574,0.0,0
1581362578.7529998,62.012,-529.785,38.086,27.344,0.0,0
1581362578.7570002,56.152,-328.125,29.785,30.761999999999997,0.0,0
1581362578.7610002,56.64100000000001,-411.621,22.949,32.715,0.0,0
1581362578.765,42.48,-522.461,22.461,24.414,0.0,0
1581362578.769,53.71100000000001,-422.36300000000006,27.831999999999997,20.508000000000006,0.0,0
1581362578.7729998,70.801,-548.34,35.156,25.391,0.0,0
1581362578.7770002,68.359,-744.1410000000003,31.738000000000003,33.691,0.0,0
1581362578.78,81.543,-640.137,30.273000000000003,40.039,0.0,0
1581362578.784,76.66,-416.01599999999996,32.227,29.785,0.0,0
1581362578.7879999,42.968999999999994,-296.387,31.25,25.879,0.0,0
1581362578.792,27.344,-630.859,31.738000000000003,45.898,0.0,0
1581362578.796,34.668,-890.625,34.18,53.71100000000001,0.0,0
1581362578.813,19.043,-522.461,25.391,42.48,0.0,0
1581362578.8170002,18.555,-326.66,23.926,37.598,0.0,0
1581362578.821,31.25,-488.77,40.527,41.01600000000001,0.0,0
1581362578.825,37.109,-498.04699999999997,40.527,44.434,0.0,0
1581362578.829,46.875,-348.63300000000015,34.18,36.133,0.0,0
1581362578.833,41.992,-505.85900000000004,38.086,32.227,0.0,0
1581362578.8370001,42.48,-865.7230000000003,41.992,36.621,0.0,0
1581362578.84,29.785,-766.113,38.086,35.645,0.0,0
1581362578.8439999,7.812,-369.14099999999996,35.645,29.785,0.0,0
1581362578.8479998,26.855,-368.164,46.387,28.809,0.0,0
1581362578.8520002,47.852,-490.23400000000004,48.34,31.738000000000003,0.0,0
1581362578.856,41.01600000000001,-454.102,43.945,30.273000000000003,0.0,0
1581362578.8579998,42.48,-404.785,41.992,34.18,0.0,0
1581362578.8620002,53.223,-478.51599999999996,35.645,40.039,0.0,0
1581362578.8660002,48.34,-528.809,28.32,22.949,0.0,0
1581362578.87,6.348,-414.551,28.809,-9.766,0.0,0
1581362578.8739998,-27.344,-361.816,23.438000000000002,-27.344,0.0,0
1581362578.8779998,-9.277000000000001,-524.414,21.484,-29.296999999999997,0.0,0
1581362578.8820002,13.184000000000001,-703.613,22.461,-39.062,0.0,0
1581362578.885,-13.184000000000001,-662.5980000000002,12.695,-55.663999999999994,0.0,0
1581362578.889,-27.831999999999997,-440.918,5.371,-55.176,0.0,0
1581362578.893,-24.901999999999997,-587.4019999999998,1.465,-66.406,0.0,0
1581362578.897,-22.461,-823.73,6.836,-60.059,0.0,0
1581362578.901,-30.761999999999997,-531.25,8.301,-45.41,0.0,0
1581362578.9029999,-42.968999999999994,-363.281,4.883,-43.945,0.0,0
1581362578.907,-23.438000000000002,-443.35900000000004,13.184000000000001,-35.645,0.0,0
1581362578.911,7.812,-463.86699999999996,7.812,-40.527,0.0,0
1581362578.915,19.531,-370.11699999999996,5.371,-35.156,0.0,0
1581362578.919,2.441,-352.051,12.695,-18.555,0.0,0
1581362578.9229999,7.812,-515.137,9.766,-8.301,0.0,0
1581362578.927,29.296999999999997,-603.0269999999998,13.184000000000001,-7.812,0.0,0
1581362578.93,30.761999999999997,-547.852,27.344,-11.719000000000001,0.0,0
1581362578.934,47.363,-575.684,28.32,-1.465,0.0,0
1581362578.938,71.777,-792.48,26.366999999999997,16.602,0.0,0
1581362578.9420002,55.663999999999994,-743.164,27.831999999999997,19.531,0.0,0
1581362578.946,38.086,-420.898,23.438000000000002,7.812,0.0,0
1581362578.948,53.71100000000001,-458.496,20.508000000000006,15.625,0.0,0
1581362578.9520001,71.289,-541.016,24.901999999999997,32.227,0.0,0
1581362578.956,73.73,-430.664,19.531,19.531,0.0,0
1581362578.96,55.663999999999994,-355.469,18.555,11.719000000000001,0.0,0
1581362578.964,64.453,-458.98400000000004,29.296999999999997,22.949,0.0,0
1581362578.968,59.082,-667.9689999999998,31.25,27.344,0.0,0
1581362578.9720001,21.484,-724.6089999999997,30.761999999999997,25.879,0.0,2
1581362578.975,29.296999999999997,-481.934,32.715,28.809,0.0,0
1581362578.9789999,46.387,-598.145,26.366999999999997,30.761999999999997,0.0,0
1581362578.9829998,77.637,-851.074,17.09,36.133,0.0,0
1581362578.9870002,89.355,-522.9490000000002,19.043,41.992,0.0,0
1581362578.9910002,53.223,-371.582,22.461,37.109,0.0,0
1581362578.9929998,45.898,-370.11699999999996,20.508000000000006,25.879,0.0,0
1581362578.9970002,41.504,-409.668,19.043,29.785,0.0,0
1581362579.0010002,38.574,-327.14799999999997,22.461,39.551,0.0,0
1581362579.005,50.78100000000001,-277.832,28.32,37.109,0.0,0
1581362579.0089998,50.293,-408.691,29.785,26.366999999999997,0.0,0
1581362579.0129998,43.457,-486.32800000000003,35.645,32.715,0.0,0
1581362579.0170002,32.715,-553.711,41.504,39.551,0.0,0
1581362579.02,47.363,-481.445,35.645,33.691,0.0,0
1581362579.024,77.148,-670.898,36.133,34.18,0.0,0
1581362579.0279999,47.363,-682.1289999999998,36.621,31.25,0.0,0
1581362579.032,10.254000000000001,-330.566,32.227,29.296999999999997,0.0,0
1581362579.036,28.32,-431.152,36.621,40.527,0.0,0
1581362579.0379999,47.363,-526.855,36.621,41.01600000000001,0.0,0
1581362579.042,36.133,-422.36300000000006,35.645,31.738000000000003,0.0,0
1581362579.046,19.043,-414.06199999999995,33.203,35.645,0.0,0
1581362579.05,14.16,-433.105,41.504,40.527,0.0,0
1581362579.054,35.645,-443.848,47.852,29.785,0.0,0
1581362579.0579998,69.824,-500.977,39.062,28.809,0.0,0
1581362579.062,37.598,-599.609,35.156,31.25,0.0,0
1581362579.065,8.789,-698.73,40.527,27.344,0.0,0
1581362579.069,22.461,-787.1089999999997,45.898,23.438000000000002,0.0,0
1581362579.073,22.461,-397.461,41.504,14.16,0.0,0
1581362579.0770001,14.648,-259.277,37.109,18.066,0.0,0
1581362579.081,5.371,-425.293,37.109,23.438000000000002,0.0,0
1581362579.083,46.875,-406.25,34.18,21.97300000000001,0.0,0
1581362579.0870001,70.801,-334.961,38.574,17.578,0.0,0
1581362579.091,43.457,-372.07,36.621,7.812,0.0,0
1581362579.095,32.227,-469.727,30.761999999999997,13.672,0.0,0
1581362579.099,26.855,-526.855,37.109,22.949,0.0,0
1581362579.103,33.691,-662.5980000000002,42.968999999999994,18.555,0.0,0
1581362579.107,42.48,-687.5,41.504,20.508000000000006,0.0,0
1581362579.11,44.922,-805.664,40.039,32.227,0.0,0
1581362579.1139998,41.992,-760.742,32.227,33.691,0.0,0
1581362579.1179998,38.574,-398.926,30.273000000000003,27.344,0.0,0
1581362579.1220002,63.965,-416.99199999999996,30.761999999999997,25.391,0.0,0
1581362579.1260002,64.453,-489.25800000000004,29.785,28.809,0.0,0
1581362579.1279998,30.761999999999997,-376.95300000000003,27.831999999999997,31.25,0.0,0
1581362579.1320002,40.039,-325.684,27.831999999999997,38.086,0.0,0
1581362579.1360002,67.87100000000001,-436.523,34.668,31.738000000000003,0.0,0
1581362579.14,68.848,-524.414,26.855,16.113,0.0,0
1581362579.144,37.598,-407.715,24.901999999999997,19.043,0.0,0
1581362579.1479998,27.831999999999997,-464.844,31.25,18.555,0.0,0
1581362579.1520002,34.668,-726.074,35.156,10.254000000000001,0.0,0
1581362579.155,41.992,-905.273,36.621,9.766,0.0,0
1581362579.159,58.593999999999994,-739.258,36.133,13.184000000000001,0.0,0
1581362579.1629999,66.895,-476.56199999999995,33.691,15.625,0.0,0
1581362579.167,56.152,-467.773,31.738000000000003,15.625,0.0,0
1581362579.171,60.059,-494.14099999999996,30.761999999999997,15.625,0.0,0
1581362579.1729999,64.453,-354.004,26.366999999999997,24.901999999999997,0.0,0
1581362579.177,56.152,-286.133,26.366999999999997,30.761999999999997,0.0,0
1581362579.181,60.059,-420.41,28.32,24.414,0.0,0
1581362579.185,65.43,-474.121,25.879,26.855,0.0,0
1581362579.189,68.848,-391.11300000000006,24.414,45.41,0.0,0
1581362579.1929998,76.172,-537.5980000000002,31.738000000000003,59.082,0.0,0
1581362579.197,93.262,-864.7460000000003,33.691,57.617,0.0,0
1581362579.2,99.609,-778.809,30.761999999999997,50.293,0.0,0
1581362579.204,87.402,-428.711,33.691,53.71100000000001,0.0,0
1581362579.208,58.105,-444.336,35.645,58.593999999999994,0.0,0
1581362579.2120001,62.012,-620.605,41.01600000000001,56.64100000000001,0.0,0
1581362579.216,86.426,-611.816,42.968999999999994,48.34,0.0,0
1581362579.2329998,83.008,-432.61699999999996,44.434,45.41,0.0,0
1581362579.2370002,82.031,-516.602,44.922,54.688,0.0,0
1581362579.2410002,72.75399999999998,-636.719,41.504,57.129,0.0,0
1581362579.245,68.359,-500.48800000000006,41.992,49.316,0.0,0
1581362579.2489998,66.406,-389.16,40.039,43.457,0.0,0
1581362579.2529998,44.434,-665.5269999999998,44.434,48.828,0.0,0
1581362579.2570002,46.875,-897.461,53.71100000000001,59.082,0.0,0
1581362579.26,73.242,-588.867,55.663999999999994,48.34,0.0,0
1581362579.264,83.49600000000002,-416.504,53.223,33.691,0.0,0
1581362579.268,75.195,-524.414,53.71100000000001,39.551,0.0,0
1581362579.272,62.5,-545.41,59.57,42.968999999999994,0.0,0
1581362579.276,53.223,-434.57,57.129,31.25,0.0,0
1581362579.2779999,62.988,-406.73800000000006,53.223,20.02,0.0,0
1581362579.282,61.523,-581.543,52.733999999999995,24.901999999999997,0.0,0
1581362579.286,54.688,-618.6519999999998,48.828,30.273000000000003,0.0,0
1581362579.29,65.43,-410.156,47.852,29.296999999999997,0.0,0
1581362579.294,62.012,-428.711,50.78100000000001,37.109,0.0,0
1581362579.2979999,58.593999999999994,-610.352,58.105,47.852,0.0,0
1581362579.302,59.57,-666.0160000000002,62.5,44.434,0.0,0
1581362579.305,55.176,-562.988,51.27,39.551,0.0,0
1581362579.309,58.593999999999994,-529.785,42.48,40.039,0.0,0
1581362579.313,58.105,-779.297,44.922,35.156,0.0,0
1581362579.3170002,53.71100000000001,-771.9730000000003,48.828,30.273000000000003,0.0,0
1581362579.321,49.316,-453.125,52.733999999999995,33.691,0.0,0
1581362579.323,65.918,-458.00800000000004,53.223,35.156,0.0,0
1581362579.3270001,73.242,-505.371,52.733999999999995,24.901999999999997,0.0,0
1581362579.331,44.434,-404.785,53.71100000000001,31.25,0.0,0
1581362579.335,31.738000000000003,-400.879,51.27,38.086,0.0,0
1581362579.339,37.109,-595.215,56.64100000000001,29.296999999999997,0.0,0
1581362579.343,33.203,-760.2539999999997,54.688,25.879,0.0,0
1581362579.3470001,31.25,-751.953,45.41,17.578,0.0,0
1581362579.35,14.648,-622.559,48.828,24.901999999999997,0.0,0
1581362579.3539999,14.16,-709.4730000000003,43.945,27.831999999999997,0.0,0
1581362579.3579998,32.715,-854.98,40.039,20.02,0.0,0
1581362579.3620002,30.273000000000003,-524.414,39.062,19.043,0.0,0
1581362579.3660002,24.901999999999997,-338.379,32.715,19.531,0.0,0
1581362579.369,31.738000000000003,-378.906,40.039,36.133,0.0,0
1581362579.373,75.195,-422.852,52.733999999999995,41.01600000000001,0.0,0
1581362579.377,46.387,-391.602,47.363,19.531,0.0,0
1581362579.381,-9.277000000000001,-388.67199999999997,29.785,13.184000000000001,0.0,0
1581362579.385,-4.883,-499.023,34.668,24.901999999999997,0.0,0
1581362579.389,-4.395,-682.617,50.78100000000001,26.855,0.0,0
1581362579.393,15.625,-709.4730000000003,48.828,18.555,0.0,0
1581362579.3960001,19.043,-640.625,45.898,18.555,0.0,0
1581362579.4,20.508000000000006,-870.117,46.875,31.738000000000003,0.0,0
1581362579.404,42.48,-740.7230000000003,48.828,42.48,0.0,0
1581362579.408,35.156,-325.195,53.223,40.527,0.0,0
1581362579.4120002,20.996,-389.16,56.152,31.25,0.0,0
1581362579.414,24.414,-505.85900000000004,51.758,34.668,0.0,0
1581362579.418,31.738000000000003,-396.48400000000004,42.48,34.668,0.0,0
1581362579.4220002,27.831999999999997,-279.785,37.598,18.555,0.0,0
1581362579.426,9.766,-385.254,40.039,13.184000000000001,0.0,0
1581362579.43,20.508000000000006,-445.801,43.945,16.113,0.0,0
1581362579.434,37.598,-478.027,41.01600000000001,13.672,0.0,0
1581362579.438,42.48,-538.086,41.01600000000001,11.23,0.0,0
1581362579.441,57.617,-643.066,41.992,11.23,0.0,0
1581362579.445,40.039,-833.9839999999997,34.18,23.926,0.0,0
1581362579.449,13.184000000000001,-581.055,20.02,19.531,0.0,0
1581362579.4529998,12.695,-515.137,22.461,11.719000000000001,0.0,0
1581362579.457,23.926,-545.41,41.992,9.277000000000001,0.0,0
1581362579.4589999,18.066,-414.551,43.945,4.395,0.0,0
1581362579.4629998,20.02,-385.74199999999996,35.156,14.16,0.0,0
1581362579.467,28.809,-412.10900000000004,34.668,17.578,0.0,0
1581362579.471,17.578,-476.56199999999995,35.156,17.578,0.0,0
1581362579.475,14.16,-463.379,35.156,21.97300000000001,0.0,0
1581362579.4789999,18.555,-499.51199999999994,37.109,27.344,0.0,0
1581362579.4829998,11.719000000000001,-600.0980000000002,39.551,37.598,0.0,0
1581362579.486,18.066,-832.0310000000003,46.875,35.156,0.0,0
1581362579.49,33.691,-749.512,48.34,27.831999999999997,0.0,0
1581362579.494,14.16,-393.555,41.504,37.109,0.0,0
1581362579.498,17.578,-473.145,45.41,55.176,0.0,0
1581362579.502,46.387,-525.391,50.78100000000001,53.71100000000001,0.0,0
1581362579.504,35.156,-364.746,43.457,35.156,0.0,0
1581362579.508,8.789,-469.23800000000006,39.062,36.133,0.0,0
1581362579.512,19.531,-635.742,38.086,44.922,0.0,0
1581362579.516,32.715,-519.531,40.527,47.363,0.0,0
1581362579.52,29.296999999999997,-377.93,38.574,41.504,0.0,0
1581362579.524,12.695,-406.25,27.344,19.043,0.0,0
1581362579.5279999,0.0,-638.184,28.809,13.672,0.0,0
1581362579.5310001,15.625,-842.773,38.574,21.484,0.0,0
1581362579.535,32.715,-548.828,40.039,20.508000000000006,0.0,0
1581362579.539,43.945,-323.73,37.598,18.066,0.0,0
1581362579.543,49.805,-494.629,39.551,18.066,0.0,0
1581362579.5470002,34.18,-528.32,37.109,24.414,0.0,0
1581362579.549,27.831999999999997,-372.559,36.621,28.32,0.0,0
1581362579.553,25.879,-329.59,41.504,23.438000000000002,0.0,0
1581362579.5570002,20.02,-444.824,38.086,25.391,0.0,0
1581362579.561,15.625,-504.395,26.855,26.366999999999997,0.0,0
1581362579.565,6.836,-519.043,23.926,20.996,0.0,0
1581362579.569,20.508000000000006,-604.98,32.715,23.438000000000002,0.0,0
1581362579.573,31.738000000000003,-830.078,37.109,29.785,0.0,0
1581362579.576,19.531,-856.445,26.855,28.809,0.0,0
1581362579.58,25.879,-479.004,28.32,31.738000000000003,0.0,0
1581362579.5839999,22.461,-352.539,39.062,32.715,0.0,0
1581362579.5879998,5.371,-386.23,38.086,29.785,0.0,0
1581362579.592,21.97300000000001,-366.211,33.691,30.761999999999997,0.0,0
1581362579.609,23.438000000000002,-298.828,33.691,27.831999999999997,0.0,0
1581362579.613,34.18,-416.504,35.645,17.09,0.0,0
1581362579.617,43.945,-525.391,35.645,7.324,0.0,0
1581362579.621,24.414,-401.36699999999996,36.621,7.324,0.0,0
1581362579.625,23.926,-354.004,34.668,16.602,0.0,0
1581362579.629,41.01600000000001,-646.9730000000002,33.691,12.695,0.0,0
1581362579.633,44.434,-899.9019999999997,42.968999999999994,-0.977,0.0,0
1581362579.6360002,59.082,-722.6560000000003,51.758,6.348,0.0,0
1581362579.64,65.43,-444.336,51.758,17.578,0.0,0
1581362579.644,46.875,-406.25,50.293,5.371,0.0,0
1581362579.6479998,45.41,-472.656,50.78100000000001,-4.883,0.0,0
1581362579.6520002,36.133,-393.066,48.34,-1.953,0.0,0
1581362579.654,19.531,-350.098,46.875,6.348,0.0,0
1581362579.658,21.484,-477.051,49.316,7.812,0.0,0
1581362579.6620002,41.992,-575.684,50.78100000000001,0.488,0.0,0
1581362579.6660001,41.01600000000001,-482.42199999999997,44.434,2.441,0.0,0
1581362579.67,2.441,-446.289,42.968999999999994,7.324,0.0,0
1581362579.674,6.348,-607.422,47.363,12.207,0.0,0
1581362579.678,29.785,-612.793,47.363,10.254000000000001,0.0,0
1581362579.681,17.09,-425.781,47.852,10.742,0.0,0
1581362579.685,6.348,-426.75800000000004,48.34,19.043,0.0,0
1581362579.689,2.441,-786.133,45.898,18.555,0.0,0
1581362579.6929998,-4.883,-875.488,44.434,20.508000000000006,0.0,0
1581362579.697,-5.371,-539.062,37.109,19.531,0.0,0
1581362579.699,-1.953,-518.066,22.949,23.438000000000002,0.0,0
1581362579.7029998,-13.184000000000001,-570.8009999999998,20.02,26.366999999999997,0.0,0
1581362579.707,-9.766,-510.74199999999996,31.25,13.184000000000001,0.0,0
1581362579.711,23.438000000000002,-413.574,37.598,8.789,0.0,0
1581362579.715,46.387,-404.785,39.062,18.066,0.0,0
1581362579.7189999,17.09,-638.184,44.922,26.855,0.0,0
1581362579.7229998,18.555,-764.648,45.898,32.715,0.0,0
1581362579.726,51.27,-524.9019999999998,35.645,24.901999999999997,0.0,0
1581362579.73,36.621,-590.332,35.645,23.926,0.0,0
1581362579.734,28.809,-900.3910000000003,39.551,35.156,0.0,0
1581362579.738,3.906,-613.281,42.968999999999994,35.156,0.0,0
1581362579.742,3.418,-380.371,40.039,27.831999999999997,0.0,0
1581362579.744,39.551,-493.652,34.668,22.461,0.0,0
1581362579.748,39.062,-476.56199999999995,36.133,20.508000000000006,0.0,0
1581362579.752,8.301,-337.402,33.203,24.414,0.0,0
1581362579.756,9.766,-367.676,36.133,26.855,0.0,0
1581362579.76,35.645,-403.809,42.48,23.926,0.0,0
1581362579.764,20.508000000000006,-546.387,42.48,20.508000000000006,0.0,0
1581362579.768,-3.418,-655.762,44.922,28.32,0.0,0
1581362579.7710001,21.484,-527.832,50.293,30.761999999999997,0.0,0
1581362579.775,41.01600000000001,-717.773,52.246,20.508000000000006,0.0,0
1581362579.779,6.348,-691.4060000000003,46.387,18.555,0.0,0
1581362579.783,-30.273000000000003,-319.336,35.156,20.996,0.0,0
1581362579.7870002,-43.457,-380.371,27.831999999999997,21.484,0.0,0
1581362579.789,-24.414,-418.457,27.831999999999997,22.461,0.0,0
1581362579.793,-2.441,-328.61300000000006,38.574,29.785,0.0,0
1581362579.7970002,0.0,-261.23,41.992,30.273000000000003,0.0,0
1581362579.801,0.977,-395.996,41.504,28.32,0.0,0
1581362579.805,19.043,-549.805,45.41,28.809,0.0,0
1581362579.809,44.434,-504.88300000000004,47.363,27.344,0.0,0
1581362579.813,41.01600000000001,-575.195,43.457,27.831999999999997,0.0,0
1581362579.816,14.16,-752.93,36.133,30.761999999999997,0.0,0
1581362579.82,8.789,-810.547,35.645,26.855,0.0,0
1581362579.824,18.555,-495.605,38.574,15.137,0.0,0
1581362579.8279998,26.366999999999997,-324.707,36.133,16.113,0.0,0
1581362579.832,25.391,-369.629,39.062,26.366999999999997,0.0,0
1581362579.833,29.296999999999997,-405.76199999999994,39.062,26.366999999999997,0.0,0
1581362579.8370001,31.738000000000003,-345.70300000000015,33.203,15.137,0.0,0
1581362579.841,24.414,-308.105,41.01600000000001,16.602,0.0,0
1581362579.845,5.371,-396.973,45.41,36.133,0.0,0
1581362579.849,17.09,-405.76199999999994,33.691,44.434,0.0,0
1581362579.853,43.945,-455.07800000000003,32.715,27.344,0.0,0
1581362579.857,42.968999999999994,-580.078,35.645,13.184000000000001,0.0,0
1581362579.86,32.715,-802.7339999999997,33.203,22.461,0.0,0
1581362579.8639998,30.273000000000003,-804.688,35.645,31.25,0.0,0
1581362579.8679998,30.273000000000003,-467.773,38.574,24.414,0.0,0
1581362579.8720002,28.809,-391.602,38.086,16.113,0.0,0
1581362579.8760002,22.461,-467.285,38.086,21.484,0.0,0
1581362579.8779998,26.855,-372.559,28.809,32.227,0.0,0
1581362579.8820002,21.484,-270.996,25.391,35.645,0.0,0
1581362579.8860002,12.695,-330.0780000000001,34.18,31.25,0.0,0
1581362579.89,6.348,-433.594,32.227,29.296999999999997,0.0,0
1581362579.894,5.859,-370.605,33.691,32.715,0.0,0
1581362579.8979998,27.831999999999997,-408.20300000000003,42.968999999999994,44.434,0.0,0
1581362579.9020002,48.828,-686.035,43.945,45.898,0.0,0
1581362579.905,41.01600000000001,-851.074,40.039,36.621,0.0,0
1581362579.909,24.901999999999997,-510.74199999999996,33.691,27.831999999999997,0.0,0
1581362579.9129999,11.719000000000001,-383.301,29.785,17.578,0.0,0
1581362579.917,18.066,-488.77,27.344,19.043,0.0,0
1581362579.921,20.508000000000006,-416.01599999999996,24.414,18.555,0.0,0
1581362579.9229999,20.996,-307.617,26.366999999999997,26.855,0.0,0
1581362579.927,18.555,-291.992,22.949,30.273000000000003,0.0,0
1581362579.931,27.831999999999997,-406.25,23.438000000000002,29.785,0.0,0
1581362579.935,37.598,-420.898,28.809,35.645,0.0,0
1581362579.939,14.16,-351.074,29.296999999999997,32.715,0.0,0
1581362579.9429998,10.742,-435.059,40.039,41.992,0.0,0
1581362579.947,27.344,-764.16,43.945,42.48,0.0,0
1581362579.95,35.645,-720.703,31.25,24.901999999999997,0.0,0
1581362579.954,24.414,-344.23800000000006,27.831999999999997,18.066,0.0,0
1581362579.958,7.812,-315.43,27.831999999999997,24.901999999999997,0.0,0
1581362579.9620001,-3.906,-420.41,27.344,26.366999999999997,0.0,0
1581362579.966,2.441,-378.906,32.227,19.531,0.0,0
1581362579.9829998,22.461,-369.629,35.156,26.366999999999997,0.0,0
1581362579.9870002,10.742,-546.387,40.039,35.645,0.0,0
1581362579.9910002,-10.742,-532.715,35.156,32.715,0.0,0
1581362579.995,9.277000000000001,-292.969,33.691,34.668,0.0,0
1581362579.9989998,30.761999999999997,-181.15200000000002,40.039,34.668,0.0,0
1581362580.0029998,24.901999999999997,-462.402,37.598,39.062,0.0,0
1581362580.0070002,32.227,-662.5980000000002,40.039,55.176,0.0,0
1581362580.01,51.27,-395.02,44.922,54.199,0.0,0
1581362580.014,41.504,-281.738,39.062,34.18,0.0,0
1581362580.018,41.01600000000001,-508.789,37.109,15.625,0.0,0
1581362580.022,17.578,-562.988,44.922,15.137,0.0,0
1581362580.026,-2.93,-260.742,45.898,24.414,0.0,0
1581362580.029,16.113,-249.512,43.457,16.113,0.0,0
1581362580.033,13.184000000000001,-395.02,41.01600000000001,3.418,0.0,0
1581362580.0370002,0.0,-411.13300000000004,38.574,5.859,0.0,0
1581362580.0410001,0.0,-503.906,35.645,9.277000000000001,0.0,0
1581362580.045,8.789,-521.9730000000002,38.574,7.812,0.0,0
1581362580.049,18.555,-566.895,40.039,13.672,0.0,0
1581362580.053,34.668,-615.234,41.992,27.831999999999997,0.0,0
1581362580.056,54.199,-432.61699999999996,46.387,34.18,0.0,0
1581362580.06,46.387,-344.23800000000006,44.922,30.273000000000003,0.0,0
1581362580.064,41.992,-682.1289999999998,40.527,27.831999999999997,0.0,2
1581362580.0679998,33.691,-729.0039999999997,39.062,26.366999999999997,0.0,0
1581362580.072,-0.977,-367.18800000000016,41.992,26.855,0.0,0
1581362580.073,1.953,-412.10900000000004,41.992,27.344,0.0,0
1581362580.0770001,4.395,-469.23800000000006,34.668,15.137,0.0,0
1581362580.081,5.859,-398.926,33.691,9.277000000000001,0.0,0
1581362580.085,29.785,-328.61300000000006,31.25,16.113,0.0,0
1581362580.089,13.672,-370.11699999999996,27.344,20.02,0.0,0
1581362580.093,6.348,-537.109,31.25,14.648,0.0,0
1581362580.0970001,11.23,-551.27,28.809,12.207,0.0,0
1581362580.1,7.324,-520.996,31.738000000000003,22.461,0.0,0
1581362580.1039999,12.695,-624.512,39.062,30.761999999999997,0.0,0
1581362580.1079998,49.805,-757.324,40.039,28.32,0.0,0
1581362580.1120002,41.992,-436.035,36.621,12.695,0.0,0
1581362580.1160002,7.324,-248.535,39.062,15.137,0.0,0
1581362580.1179998,10.742,-373.535,35.645,26.366999999999997,0.0,0
1581362580.1220002,25.879,-357.42199999999997,27.344,16.113,0.0,0
1581362580.1260002,40.527,-234.375,33.203,11.719000000000001,0.0,0
1581362580.13,34.668,-224.609,42.968999999999994,13.672,0.0,0
1581362580.1339998,40.039,-371.094,42.48,15.137,0.0,0
1581362580.1379998,66.895,-540.039,39.062,21.97300000000001,0.0,0
1581362580.1420002,50.293,-529.785,33.691,11.23,0.0,0
1581362580.145,18.555,-395.50800000000004,31.25,14.16,0.0,0
1581362580.149,15.137,-599.121,34.18,22.461,0.0,0
1581362580.1529999,30.273000000000003,-740.7230000000003,36.133,9.766,0.0,0
1581362580.157,18.066,-403.32,39.062,-0.977,0.0,0
1581362580.161,1.953,-337.402,34.668,-5.859,0.0,0
1581362580.1629999,21.484,-424.316,34.18,5.371,0.0,0
1581362580.167,40.039,-352.539,41.01600000000001,7.812,0.0,0
1581362580.171,35.156,-270.508,40.039,2.93,0.0,0
1581362580.175,12.695,-387.695,27.344,-0.977,0.0,0
1581362580.179,9.766,-401.36699999999996,24.901999999999997,0.977,0.0,0
1581362580.1829998,33.203,-440.43,33.203,17.09,0.0,0
1581362580.187,28.809,-521.484,31.738000000000003,13.672,0.0,0
1581362580.19,13.672,-608.398,30.761999999999997,13.672,0.0,0
1581362580.194,18.555,-790.039,38.574,27.831999999999997,0.0,0
1581362580.198,24.414,-468.75,41.01600000000001,31.738000000000003,0.0,0
1581362580.2020001,39.551,-259.277,39.551,33.691,0.0,0
1581362580.206,61.035,-349.60900000000015,33.691,32.227,0.0,0
1581362580.208,62.012,-472.168,26.855,35.156,0.0,0
1581362580.2120001,43.457,-354.98,29.785,36.621,0.0,0
1581362580.216,30.761999999999997,-225.58599999999998,27.831999999999997,31.25,0.0,0
1581362580.22,34.18,-372.559,25.879,32.715,0.0,0
1581362580.224,26.366999999999997,-376.95300000000003,26.366999999999997,24.414,0.0,0
1581362580.228,23.438000000000002,-390.13699999999994,32.227,28.32,0.0,0
1581362580.232,33.691,-539.5509999999998,42.48,39.062,0.0,0
1581362580.235,46.387,-724.1210000000003,38.086,25.391,0.0,0
1581362580.2389998,46.875,-626.465,31.738000000000003,18.066,0.0,0
1581362580.2429998,38.574,-305.664,37.598,15.137,0.0,0
1581362580.2470002,26.855,-298.34,39.062,21.97300000000001,0.0,0
1581362580.2510002,22.461,-409.668,35.645,28.32,0.0,0
1581362580.2529998,38.086,-303.711,37.598,17.09,0.0,0
1581362580.2570002,24.901999999999997,-186.035,41.992,22.949,0.0,0
1581362580.2610002,24.901999999999997,-430.664,45.41,39.062,0.0,0
1581362580.265,23.438000000000002,-576.66,44.434,28.809,0.0,0
1581362580.269,7.324,-424.805,41.504,7.812,0.0,0
1581362580.2729998,3.906,-468.75,41.01600000000001,9.277000000000001,0.0,0
1581362580.2770002,27.344,-755.8589999999997,44.922,20.996,0.0,0
1581362580.28,29.296999999999997,-816.895,45.41,15.137,0.0,0
1581362580.284,21.97300000000001,-519.531,40.039,3.418,0.0,0
1581362580.2879999,32.227,-364.746,35.645,2.93,0.0,0
1581362580.292,0.977,-415.039,30.761999999999997,7.324,0.0,0
1581362580.296,3.418,-430.664,36.621,15.137,0.0,0
1581362580.2979999,16.113,-275.879,38.086,20.508000000000006,0.0,0
1581362580.302,10.742,-254.395,33.203,19.043,0.0,0
1581362580.306,19.531,-414.551,37.109,22.461,0.0,0
1581362580.31,19.531,-449.219,46.387,26.366999999999997,0.0,0
1581362580.314,19.531,-289.551,40.039,20.508000000000006,0.0,0
1581362580.3179998,63.965,-393.555,25.391,13.184000000000001,0.0,0
1581362580.322,60.059,-813.965,40.039,23.926,0.0,0
1581362580.325,25.879,-798.828,45.898,33.691,0.0,0
1581362580.329,30.273000000000003,-341.309,35.156,32.227,0.0,0
1581362580.333,17.578,-304.688,38.086,30.761999999999997,0.0,0
1581362580.3370001,7.812,-474.60900000000004,39.062,26.366999999999997,0.0,0
1581362580.341,-2.441,-402.832,43.457,29.296999999999997,0.0,0
1581362580.359,9.766,-326.66,49.316,38.574,0.0,0
1581362580.363,31.25,-432.61699999999996,51.758,40.039,0.0,0
1581362580.367,41.01600000000001,-460.449,49.316,35.156,0.0,0
1581362580.371,38.086,-346.68,36.621,33.203,0.0,0
1581362580.375,31.25,-389.16,30.761999999999997,35.645,0.0,0
1581362580.379,50.78100000000001,-645.508,41.992,32.227,0.0,0
1581362580.383,41.992,-754.883,42.968999999999994,34.18,0.0,0
1581362580.3860002,25.391,-408.20300000000003,34.668,37.598,0.0,0
1581362580.39,11.719000000000001,-289.062,36.133,27.831999999999997,0.0,0
1581362580.394,-1.953,-499.51199999999994,32.227,20.02,0.0,0
1581362580.3979998,9.766,-500.977,24.901999999999997,18.066,0.0,0
1581362580.4020002,8.789,-333.0080000000001,30.761999999999997,19.531,0.0,0
1581362580.404,6.348,-291.992,45.898,33.203,0.0,0
1581362580.408,32.227,-415.039,49.316,41.01600000000001,0.0,0
1581362580.4120002,36.621,-460.93800000000016,41.01600000000001,30.761999999999997,0.0,0
1581362580.4160001,39.062,-323.242,34.668,32.715,0.0,0
1581362580.42,30.761999999999997,-324.707,34.18,42.968999999999994,0.0,0
1581362580.424,7.324,-547.363,32.227,41.504,0.0,0
1581362580.428,15.625,-581.543,26.855,32.715,0.0,0
1581362580.431,32.715,-377.93,28.809,29.785,0.0,0
1581362580.435,28.809,-321.777,37.598,34.18,0.0,0
1581362580.439,14.648,-691.4060000000003,40.527,33.691,0.0,0
1581362580.4429998,46.387,-728.5160000000003,41.01600000000001,27.831999999999997,0.0,0
1581362580.447,53.71100000000001,-424.805,40.039,23.438000000000002,0.0,0
1581362580.449,6.836,-544.922,42.48,25.391,0.0,0
1581362580.4529998,13.184000000000001,-574.219,43.457,25.879,0.0,0
1581362580.457,35.645,-410.156,37.598,17.09,0.0,0
1581362580.461,26.366999999999997,-315.918,33.691,10.742,0.0,0
1581362580.465,23.438000000000002,-417.48,31.25,6.348,0.0,0
1581362580.4689999,15.625,-634.766,38.086,11.23,0.0,0
1581362580.4729998,4.883,-675.293,47.363,10.254000000000001,0.0,0
1581362580.476,-1.953,-447.26599999999996,42.968999999999994,4.395,0.0,0
1581362580.48,-4.883,-462.402,37.598,8.789,0.0,0
1581362580.484,-10.742,-740.2339999999997,40.527,10.742,0.0,0
1581362580.488,-13.184000000000001,-486.32800000000003,43.457,10.742,0.0,0
1581362580.492,33.203,-238.28099999999998,43.945,13.672,0.0,0
1581362580.494,44.434,-385.254,48.34,14.16,0.0,0
1581362580.498,-2.441,-458.496,44.434,16.602,0.0,0
1581362580.502,-21.97300000000001,-444.336,44.434,27.344,0.0,0
1581362580.506,-4.395,-541.016,56.64100000000001,35.156,0.0,0
1581362580.51,32.715,-512.695,48.828,20.02,0.0,0
1581362580.514,22.461,-595.215,35.645,13.184000000000001,0.0,0
1581362580.518,-12.207,-663.574,40.527,26.366999999999997,0.0,0
1581362580.5210001,-10.254000000000001,-466.79699999999997,38.086,24.901999999999997,0.0,0
1581362580.525,9.277000000000001,-628.418,32.227,16.602,0.0,0
1581362580.529,30.761999999999997,-690.43,38.574,21.484,0.0,0
1581362580.533,43.457,-293.457,41.01600000000001,28.809,0.0,0
1581362580.5370002,35.156,-307.129,45.41,30.761999999999997,0.0,0
1581362580.539,29.785,-438.965,46.875,24.901999999999997,0.0,0
1581362580.543,22.949,-330.566,35.156,18.066,0.0,0
1581362580.5470002,28.809,-228.02700000000002,41.01600000000001,25.391,0.0,0
1581362580.551,40.527,-375.0,47.363,28.32,0.0,0
1581362580.555,25.879,-470.215,44.922,19.531,0.0,0
1581362580.559,28.32,-543.945,51.758,17.09,0.0,0
1581362580.563,30.761999999999997,-639.648,50.293,22.949,0.0,0
1581362580.566,18.555,-727.051,49.805,25.391,0.0,0
1581362580.57,24.901999999999997,-896.4839999999997,46.875,19.043,0.0,0
1581362580.574,38.574,-523.9259999999998,41.504,13.184000000000001,0.0,0
1581362580.5779998,38.574,-261.719,41.01600000000001,19.043,0.0,0
1581362580.582,17.09,-417.969,40.039,26.366999999999997,0.0,0
1581362580.5839999,9.277000000000001,-420.41,41.504,18.555,0.0,0
1581362580.5879998,27.344,-287.598,42.48,9.766,0.0,0
1581362580.592,39.551,-310.059,40.527,13.184000000000001,0.0,0
1581362580.596,36.621,-485.352,34.668,19.531,0.0,0
1581362580.6,21.97300000000001,-484.86300000000006,29.785,19.531,0.0,0
1581362580.6039999,31.738000000000003,-486.32800000000003,36.621,16.602,0.0,0
1581362580.6079998,37.109,-561.035,39.551,11.23,0.0,0
1581362580.611,37.109,-738.2810000000003,37.598,15.625,0.0,0
1581362580.615,38.086,-839.355,41.504,17.09,0.0,0
1581362580.619,35.156,-569.8240000000002,37.109,9.766,0.0,0
1581362580.623,49.805,-398.926,37.109,9.277000000000001,0.0,0
1581362580.627,49.805,-447.26599999999996,47.363,12.207,0.0,0
1581362580.629,38.086,-359.86300000000006,40.527,12.207,0.0,0
1581362580.633,46.387,-252.44099999999997,34.18,11.23,0.0,0
1581362580.637,49.805,-395.996,41.01600000000001,4.883,0.0,0
1581362580.641,54.199,-505.371,51.27,-0.488,0.0,0
1581362580.645,33.691,-424.805,54.688,11.23,0.0,0
1581362580.649,4.395,-440.43,47.363,11.719000000000001,0.0,0
1581362580.6529999,15.625,-621.094,42.968999999999994,2.93,0.0,0
1581362580.6560001,27.831999999999997,-744.6289999999997,47.852,7.812,0.0,0
1581362580.66,18.555,-428.711,49.805,17.578,0.0,0
1581362580.664,11.719000000000001,-258.789,44.434,26.366999999999997,0.0,0
1581362580.668,28.32,-475.586,47.852,22.949,0.0,0
1581362580.6720002,24.901999999999997,-620.117,46.387,16.602,0.0,0
1581362580.674,22.461,-393.066,42.968999999999994,25.879,0.0,0
1581362580.678,31.738000000000003,-236.81599999999997,41.01600000000001,38.086,0.0,0
1581362580.6820002,35.156,-361.816,34.668,36.621,0.0,0
1581362580.686,43.945,-329.59,37.109,27.344,0.0,0
1581362580.69,31.738000000000003,-249.512,32.715,26.855,0.0,0
1581362580.694,5.371,-443.35900000000004,20.508000000000006,34.18,0.0,0
1581362580.698,10.254000000000001,-794.434,26.855,34.668,0.0,0
1581362580.701,16.602,-694.824,40.527,26.366999999999997,0.0,0
1581362580.705,16.602,-301.27,40.527,20.02,0.0,0
1581362580.7089999,21.97300000000001,-316.406,40.527,21.97300000000001,0.0,0
1581362580.7129998,16.113,-388.184,40.527,27.344,0.0,0
1581362580.717,25.391,-308.105,40.527,26.855,0.0,0
1581362580.734,33.691,-225.58599999999998,40.039,26.366999999999997,0.0,0
1581362580.738,23.926,-357.42199999999997,39.062,31.25,0.0,0
1581362580.742,27.344,-600.586,37.598,29.785,0.0,0
1581362580.746,31.738000000000003,-499.023,32.715,22.949,0.0,0
1581362580.75,31.25,-335.449,27.344,14.16,0.0,0
1581362580.754,26.366999999999997,-530.762,30.761999999999997,22.461,0.0,0
1581362580.758,16.113,-763.672,38.574,24.414,0.0,0
1581362580.7610002,10.742,-551.758,40.527,12.695,0.0,0
1581362580.765,13.672,-310.059,39.551,15.137,0.0,0
1581362580.769,9.766,-374.51199999999994,37.109,14.648,0.0,0
1581362580.7729998,5.859,-463.86699999999996,30.761999999999997,23.926,0.0,0
1581362580.7770002,13.184000000000001,-336.914,27.344,25.391,0.0,0
1581362580.779,11.23,-264.64799999999997,25.879,16.602,0.0,0
1581362580.783,5.371,-389.16,34.668,23.438000000000002,0.0,0
1581362580.7870002,5.371,-478.51599999999996,43.945,26.855,0.0,0
1581362580.7910001,-2.441,-383.301,41.504,25.879,0.0,0
1581362580.795,14.648,-304.688,38.574,23.438000000000002,0.0,0
1581362580.799,28.32,-441.895,43.945,24.901999999999997,0.0,0
1581362580.803,-8.301,-640.625,46.875,31.25,0.0,0
1581362580.806,1.953,-559.082,42.968999999999994,28.809,0.0,0
1581362580.81,35.156,-410.645,40.527,22.949,0.0,0
1581362580.814,23.926,-705.078,41.992,15.625,0.0,0
1581362580.8179998,19.531,-723.633,43.945,14.16,0.0,0
1581362580.822,17.09,-366.699,44.922,21.97300000000001,0.0,0
1581362580.824,27.831999999999997,-369.14099999999996,43.945,27.344,0.0,0
1581362580.8279998,27.831999999999997,-456.543,46.875,20.508000000000006,0.0,0
1581362580.832,22.949,-419.92199999999997,46.875,13.184000000000001,0.0,0
1581362580.836,28.32,-378.906,46.875,16.602,0.0,0
1581362580.84,30.273000000000003,-465.82,41.504,12.207,0.0,0
1581362580.8439999,18.555,-673.828,33.691,8.301,0.0,0
1581362580.8479998,-1.465,-628.418,30.761999999999997,14.16,0.0,0
1581362580.851,-8.301,-430.664,35.645,11.23,0.0,0
1581362580.855,2.441,-644.531,43.945,13.184000000000001,0.0,0
1581362580.859,24.901999999999997,-809.57,47.363,27.344,0.0,0
1581362580.863,11.23,-429.199,41.01600000000001,20.02,0.0,0
1581362580.867,-9.766,-344.727,38.086,15.137,0.0,0
1581362580.869,2.441,-466.309,43.945,21.484,0.0,0
1581362580.873,23.438000000000002,-411.13300000000004,37.598,17.09,0.0,0
1581362580.877,34.668,-294.434,32.715,12.695,0.0,0
1581362580.881,26.855,-318.848,40.039,19.043,0.0,0
1581362580.885,1.465,-443.35900000000004,42.968999999999994,29.785,0.0,0
1581362580.889,1.953,-546.875,40.039,28.809,0.0,0
1581362580.893,12.207,-563.965,40.039,21.97300000000001,0.0,0
1581362580.8960001,2.441,-444.336,32.715,18.066,0.0,0
1581362580.9,-8.789,-662.1089999999998,29.296999999999997,19.043,0.0,0
1581362580.904,1.465,-658.203,20.02,10.254000000000001,0.0,0
1581362580.908,28.809,-331.055,15.625,-10.254000000000001,0.0,0
1581362580.9120002,22.949,-515.625,26.366999999999997,-5.859,0.0,0
1581362580.914,-10.742,-546.875,19.531,2.93,0.0,0
1581362580.918,4.395,-403.32,20.508000000000006,-4.395,0.0,0
1581362580.9220002,36.621,-429.199,32.227,-4.395,0.0,0
1581362580.926,31.738000000000003,-520.508,36.133,0.0,0.0,0
1581362580.93,4.395,-513.672,38.574,1.465,0.0,0
1581362580.934,-0.977,-515.137,36.133,5.859,0.0,0
1581362580.938,16.113,-527.344,25.391,3.418,0.0,0
1581362580.941,16.113,-567.383,21.97300000000001,-1.953,0.0,0
1581362580.945,0.977,-735.84,24.901999999999997,1.953,0.0,0
1581362580.949,-12.695,-513.184,26.855,8.301,0.0,0
1581362580.9529998,-18.066,-304.199,31.738000000000003,12.207,0.0,0
1581362580.957,2.441,-372.559,40.039,9.277000000000001,0.0,0
1581362580.9589999,26.366999999999997,-380.371,43.945,11.719000000000001,0.0,0
1581362580.9629998,28.32,-316.895,41.992,14.16,0.0,0
1581362580.967,-3.418,-428.711,35.156,14.648,0.0,0
1581362580.971,-21.97300000000001,-482.42199999999997,25.879,11.719000000000001,0.0,0
1581362580.975,-14.648,-407.227,28.809,6.836,0.0,0
1581362580.9789999,-17.09,-504.88300000000004,37.598,15.625,0.0,0
1581362580.9829998,1.465,-611.816,39.062,22.461,0.0,0
1581362580.986,26.855,-792.48,36.621,26.855,0.0,0
1581362580.99,31.25,-729.0039999999997,41.01600000000001,22.949,0.0,0
1581362580.994,26.366999999999997,-352.051,38.086,18.066,0.0,0
1581362580.998,12.207,-377.93,37.598,23.438000000000002,0.0,0
1581362581.002,6.836,-442.871,43.945,17.09,0.0,0
1581362581.0029998,13.184000000000001,-348.145,45.41,6.836,0.0,0
1581362581.0070002,36.133,-233.398,34.668,6.348,0.0,0
1581362581.0110002,24.414,-319.336,28.809,7.324,0.0,0
1581362581.015,-3.906,-463.379,36.621,12.695,0.0,0
1581362581.019,3.418,-334.473,38.086,10.254000000000001,0.0,0
1581362581.0229998,-0.488,-410.645,40.527,5.371,0.0,0
1581362581.0270002,-16.113,-696.7769999999997,41.992,11.23,0.0,0
1581362581.03,0.977,-832.52,38.086,7.324,0.0,0
1581362581.034,22.949,-492.676,34.668,-3.906,0.0,0
1581362581.0379999,10.742,-285.156,40.039,-12.207,0.0,0
1581362581.042,1.953,-430.664,51.27,-4.883,0.0,0
1581362581.046,1.953,-456.055,45.41,7.812,0.0,0
1581362581.063,-0.977,-328.125,24.414,-1.465,0.0,0
1581362581.0670002,-1.465,-246.09400000000002,29.785,-13.672,0.0,0
1581362581.071,4.395,-327.637,44.922,-4.395,0.0,0
1581362581.075,4.395,-405.76199999999994,42.48,4.395,0.0,0
1581362581.079,3.906,-319.336,34.18,0.0,0.0,0
1581362581.083,10.254000000000001,-370.11699999999996,28.32,-2.93,0.0,0
1581362581.0870001,22.949,-714.8439999999997,28.809,11.719000000000001,0.0,0
1581362581.09,3.418,-815.43,36.621,19.531,0.0,0
1581362581.0939999,3.906,-499.023,36.133,20.02,0.0,0
1581362581.0979998,25.391,-360.84,30.273000000000003,27.344,0.0,0
1581362581.1020002,26.366999999999997,-382.324,25.879,26.366999999999997,0.0,0
1581362581.106,19.043,-319.824,25.879,25.879,0.0,0
1581362581.1079998,19.531,-288.086,23.926,17.578,0.0,0
1581362581.1120002,28.32,-379.88300000000004,19.531,18.066,0.0,0
1581362581.1160002,26.855,-455.566,26.366999999999997,26.855,0.0,0
1581362581.12,29.785,-408.20300000000003,27.344,32.715,0.0,0
1581362581.1239998,58.105,-298.828,30.761999999999997,35.645,0.0,0
1581362581.1279998,62.012,-467.773,37.598,29.296999999999997,0.0,0
1581362581.1320002,43.457,-570.8009999999998,30.761999999999997,21.484,0.0,0
1581362581.135,32.227,-358.398,31.738000000000003,20.996,0.0,0
1581362581.139,17.09,-342.773,28.32,28.32,0.0,0
1581362581.143,20.02,-564.941,24.414,22.461,0.0,0
1581362581.147,21.484,-773.926,31.738000000000003,13.184000000000001,0.0,0
1581362581.151,16.113,-558.105,38.086,18.066,0.0,0
1581362581.1529999,23.438000000000002,-362.305,39.062,23.926,0.0,0
1581362581.157,25.879,-429.68800000000016,40.527,21.97300000000001,0.0,0
1581362581.161,21.484,-371.582,41.01600000000001,15.625,0.0,0
1581362581.165,10.254000000000001,-289.551,40.039,15.137,0.0,0
1581362581.169,7.324,-322.754,39.062,24.414,0.0,0
1581362581.1729999,41.504,-496.582,44.434,30.761999999999997,0.0,0
1581362581.177,44.922,-601.562,50.293,28.32,0.0,0
1581362581.18,15.137,-364.25800000000004,42.968999999999994,20.996,0.0,0
1581362581.184,16.113,-279.785,41.01600000000001,26.366999999999997,0.0,0
1581362581.188,12.695,-634.2769999999998,41.01600000000001,25.391,0.0,0
1581362581.1920002,-5.371,-622.07,39.062,19.531,0.0,0
1581362581.196,0.488,-262.695,41.504,30.761999999999997,0.0,0
1581362581.198,16.602,-350.586,37.598,38.086,0.0,0
1581362581.2020001,21.97300000000001,-569.336,34.18,41.01600000000001,0.0,0
1581362581.206,16.113,-477.539,34.18,37.598,0.0,0
1581362581.21,17.09,-268.066,36.133,27.831999999999997,0.0,0
1581362581.214,43.457,-362.305,36.621,26.366999999999997,0.0,0
1581362581.218,38.086,-600.586,31.25,31.738000000000003,0.0,1
1581362581.2220001,8.301,-646.9730000000002,20.996,23.926,0.0,0
1581362581.225,20.02,-445.31199999999995,17.578,16.602,0.0,0
1581362581.2289999,19.531,-479.004,30.273000000000003,20.508000000000006,0.0,0
1581362581.2329998,2.93,-624.512,39.062,23.926,0.0,0
1581362581.2370002,13.672,-390.625,34.668,24.901999999999997,0.0,0
1581362581.2410002,7.324,-228.02700000000002,37.598,20.996,0.0,0
1581362581.2429998,4.395,-518.555,43.457,17.09,0.0,0
1581362581.2470002,19.531,-658.691,41.504,13.672,0.0,0
1581362581.2510002,28.32,-333.9840000000001,36.133,20.02,0.0,0
1581362581.255,35.156,-301.27,29.785,22.461,0.0,0
1581362581.2589998,15.625,-441.895,36.621,18.555,0.0,0
1581362581.2629998,14.16,-618.6519999999998,47.363,24.414,0.0,0
1581362581.2670002,13.184000000000001,-602.0509999999998,41.504,31.25,0.0,0
1581362581.27,13.672,-381.836,33.203,23.926,0.0,0
1581362581.274,14.648,-581.055,38.086,19.043,0.0,0
1581362581.2779999,-4.883,-633.3009999999998,38.574,22.461,0.0,0
1581362581.282,-6.836,-314.941,23.926,25.879,0.0,0
1581362581.286,5.859,-347.656,25.391,32.715,0.0,0
1581362581.303,23.926,-416.504,35.645,29.785,0.0,0
1581362581.3070002,21.484,-367.676,32.715,21.97300000000001,0.0,0
1581362581.311,7.324,-299.805,32.227,28.32,0.0,0
1581362581.315,0.488,-397.461,31.25,32.715,0.0,0
1581362581.319,15.625,-451.17199999999997,32.715,26.366999999999997,0.0,0
1581362581.323,41.01600000000001,-427.246,38.574,25.879,0.0,0
1581362581.3270001,35.645,-499.023,41.01600000000001,25.391,0.0,0
1581362581.33,13.184000000000001,-692.8710000000003,36.621,22.949,0.0,0
1581362581.3339999,32.227,-865.7230000000003,43.457,25.879,0.0,0
1581362581.3379998,41.504,-526.367,42.968999999999994,20.508000000000006,0.0,0
1581362581.342,-3.418,-337.89099999999996,32.715,20.02,0.0,0
1581362581.346,-9.277000000000001,-435.059,34.18,26.366999999999997,0.0,0
1581362581.333,1.953,-423.82800000000003,32.715,24.901999999999997,0.0,0
1581362581.3370001,10.254000000000001,-275.879,31.738000000000003,26.855,0.0,0
1581362581.341,25.391,-335.449,39.551,29.296999999999997,0.0,0
1581362581.345,17.578,-498.04699999999997,37.598,34.18,0.0,0
1581362581.349,8.301,-417.48,34.18,31.738000000000003,0.0,0
1581362581.353,29.296999999999997,-453.125,37.598,22.949,0.0,0
1581362581.357,24.901999999999997,-665.5269999999998,36.621,23.438000000000002,0.0,0
1581362581.36,4.883,-689.453,39.062,25.391,0.0,0
1581362581.3639998,7.812,-537.109,36.133,25.391,0.0,0
1581362581.3679998,14.648,-386.719,26.855,17.09,0.0,0
1581362581.3720002,19.043,-429.199,29.785,20.996,0.0,0
1581362581.3760002,16.602,-718.262,36.621,26.855,0.0,0
1581362581.3779998,12.207,-664.062,33.203,18.066,0.0,0
1581362581.3820002,34.18,-355.957,28.809,16.113,0.0,0
1581362581.3860002,55.176,-412.10900000000004,33.203,11.719000000000001,0.0,0
1581362581.39,30.273000000000003,-479.004,38.574,11.719000000000001,0.0,0
1581362581.394,12.695,-381.836,32.715,29.785,0.0,0
1581362581.3979998,27.831999999999997,-448.24199999999996,30.761999999999997,36.133,0.0,0
1581362581.4020002,31.25,-699.2189999999997,37.598,24.901999999999997,0.0,0
1581362581.405,36.133,-704.102,40.527,21.97300000000001,0.0,0
1581362581.409,31.738000000000003,-453.61300000000006,44.434,30.273000000000003,0.0,0
1581362581.4129999,18.066,-346.191,42.48,27.831999999999997,0.0,0
1581362581.417,28.809,-576.172,37.598,19.043,0.0,0
1581362581.421,39.551,-687.988,39.551,13.184000000000001,0.0,0
1581362581.439,18.066,-372.559,42.968999999999994,11.719000000000001,0.0,0
1581362581.4429998,11.719000000000001,-396.48400000000004,47.852,23.926,0.0,0
1581362581.447,30.273000000000003,-456.543,42.48,17.578,0.0,0
1581362581.451,19.531,-333.0080000000001,33.691,5.859,0.0,0
1581362581.455,-3.418,-269.531,36.133,18.555,0.0,0
1581362581.4589999,3.906,-412.598,34.18,28.809,0.0,0
1581362581.4629998,20.508000000000006,-764.16,34.18,26.366999999999997,0.0,0
1581362581.466,28.809,-676.27,43.457,28.32,0.0,0
1581362581.47,21.97300000000001,-267.09,43.457,26.366999999999997,0.0,0
1581362581.474,6.348,-280.762,37.109,24.901999999999997,0.0,0
1581362581.478,-4.883,-432.129,35.645,22.461,0.0,0
1581362581.482,-9.277000000000001,-370.605,30.273000000000003,11.719000000000001,0.0,0
1581362581.468,-14.16,-270.02,27.344,9.766,0.0,0
1581362581.4720001,-31.25,-398.43800000000016,33.691,23.438000000000002,0.0,0
1581362581.476,-15.137,-500.48800000000006,39.062,41.504,0.0,0
1581362581.48,10.742,-328.125,33.203,33.203,0.0,0
1581362581.484,8.301,-406.25,23.926,21.484,0.0,0
1581362581.488,-10.742,-639.16,21.484,18.555,0.0,0
1581362581.492,-12.207,-695.312,28.809,19.531,0.0,0
1581362581.495,16.113,-503.418,37.598,16.113,0.0,0
1581362581.4989998,2.93,-242.676,31.25,5.859,0.0,0
1581362581.5029998,-2.441,-505.85900000000004,31.25,8.789,0.0,0
1581362581.5070002,30.273000000000003,-822.2660000000003,41.504,12.695,0.0,0
1581362581.5110002,30.273000000000003,-505.371,34.668,8.789,0.0,0
1581362581.529,11.719000000000001,-340.82,26.366999999999997,6.836,0.0,0
1581362581.533,-2.441,-421.875,36.621,5.371,0.0,0
1581362581.5370002,5.859,-407.715,46.387,7.324,0.0,0
1581362581.5410001,13.184000000000001,-384.76599999999996,47.363,12.695,0.0,0
1581362581.545,12.695,-363.77,42.48,10.254000000000001,0.0,0
1581362581.549,30.273000000000003,-495.605,40.527,12.695,0.0,0
1581362581.553,20.02,-596.191,35.156,16.602,0.0,0
1581362581.556,18.066,-488.281,22.949,11.23,0.0,0
1581362581.56,33.203,-437.5,22.949,12.207,0.0,0
1581362581.564,20.02,-670.898,30.761999999999997,16.602,0.0,0
1581362581.5679998,10.254000000000001,-605.469,35.156,18.555,0.0,0
1581362581.572,7.324,-273.438,36.621,23.438000000000002,0.0,0
1581362581.574,9.277000000000001,-319.824,40.527,27.344,0.0,0
1581362581.5779998,14.648,-433.105,39.062,27.831999999999997,0.0,0
1581362581.582,14.16,-305.176,38.086,26.855,0.0,0
1581362581.586,23.926,-231.93400000000003,41.992,29.785,0.0,0
1581362581.59,44.922,-372.559,40.527,29.785,0.0,0
1581362581.5939999,45.898,-612.793,38.086,27.344,0.0,0
1581362581.5979998,28.809,-629.395,29.785,29.785,0.0,0
1581362581.601,9.277000000000001,-414.551,26.366999999999997,36.621,0.0,0
1581362581.605,21.484,-510.254,40.039,40.039,0.0,0
1581362581.609,51.27,-729.492,49.805,32.715,0.0,0
1581362581.613,75.195,-570.8009999999998,43.457,32.227,0.0,0
1581362581.617,62.988,-392.57800000000003,34.18,40.039,0.0,0
1581362581.619,29.296999999999997,-498.535,33.203,30.761999999999997,0.0,0
1581362581.623,42.968999999999994,-545.41,33.203,15.625,0.0,0
1581362581.627,41.01600000000001,-295.41,37.598,12.207,0.0,0
1581362581.631,24.901999999999997,-279.297,39.062,17.09,0.0,0
1581362581.635,15.625,-386.719,38.574,20.508000000000006,0.0,0
1581362581.639,25.879,-512.207,39.551,22.949,0.0,0
1581362581.643,35.645,-503.906,40.039,23.926,0.0,0
1581362581.6460001,14.16,-452.63699999999994,45.41,22.461,0.0,0
1581362581.65,9.277000000000001,-686.035,53.71100000000001,32.715,0.0,0
1581362581.654,19.531,-670.898,47.852,32.227,0.0,0
1581362581.658,23.438000000000002,-342.773,34.18,16.602,0.0,0
1581362581.6620002,20.996,-335.9380000000001,33.203,17.578,0.0,0
1581362581.664,2.441,-445.801,36.133,24.901999999999997,0.0,0
1581362581.668,8.301,-534.668,36.133,32.715,0.0,0
1581362581.6720002,40.527,-458.98400000000004,41.504,36.621,0.0,0
1581362581.676,57.617,-426.75800000000004,41.992,38.574,0.0,0
1581362581.68,34.18,-456.543,33.691,41.01600000000001,0.0,0
1581362581.684,14.16,-521.484,37.598,44.922,0.0,0
1581362581.688,11.23,-548.828,39.062,49.316,0.0,0
1581362581.691,12.695,-547.852,36.133,47.363,0.0,0
1581362581.695,11.719000000000001,-747.07,30.761999999999997,36.133,0.0,0
1581362581.699,5.371,-479.004,28.32,27.831999999999997,0.0,0
1581362581.7029998,9.277000000000001,-205.56599999999997,33.203,26.855,0.0,0
1581362581.707,28.32,-310.059,36.133,29.785,0.0,0
1581362581.7089999,36.621,-375.977,34.668,33.203,0.0,0
1581362581.7129998,18.555,-284.18,34.668,37.598,0.0,0
1581362581.717,20.508000000000006,-277.344,37.109,35.645,0.0,0
1581362581.721,26.855,-426.27,33.203,24.901999999999997,0.0,0
1581362581.725,26.366999999999997,-494.14099999999996,27.831999999999997,20.02,0.0,0
1581362581.7289999,23.926,-459.961,25.879,26.366999999999997,0.0,0
1581362581.7329998,22.949,-582.52,25.879,30.761999999999997,0.0,0
1581362581.736,20.996,-814.941,24.414,14.16,0.0,0
1581362581.74,10.254000000000001,-652.344,25.391,5.859,0.0,0
1581362581.744,13.184000000000001,-229.98,26.366999999999997,14.16,0.0,0
1581362581.748,14.648,-242.188,24.414,22.949,0.0,0
1581362581.752,16.602,-391.11300000000006,13.672,18.555,0.0,0
1581362581.754,16.113,-340.82,10.254000000000001,6.836,0.0,0
1581362581.758,-1.465,-209.96099999999998,20.02,12.695,0.0,0
1581362581.762,-16.602,-349.121,32.227,28.32,0.0,0
1581362581.766,-7.324,-428.711,38.086,31.25,0.0,0
1581362581.77,2.93,-261.23,37.109,20.508000000000006,0.0,0
1581362581.774,-7.812,-325.195,36.621,22.461,0.0,0
1581362581.7779999,-14.648,-597.168,36.621,27.831999999999997,0.0,0
1581362581.7810001,9.277000000000001,-874.023,33.691,20.996,0.0,0
1581362581.785,23.926,-622.559,30.761999999999997,12.695,0.0,0
1581362581.789,8.789,-286.621,25.879,14.648,0.0,0
1581362581.793,-0.977,-422.852,29.296999999999997,22.461,0.0,0
1581362581.7970002,-1.465,-455.566,33.691,23.926,0.0,0
1581362581.799,6.348,-276.855,30.273000000000003,14.16,0.0,0
1581362581.803,20.996,-249.023,30.273000000000003,12.207,0.0,0
1581362581.8070002,25.879,-362.793,29.296999999999997,14.648,0.0,0
1581362581.811,14.16,-406.73800000000006,27.831999999999997,12.695,0.0,0
1581362581.815,7.324,-299.316,27.344,11.719000000000001,0.0,0
1581362581.819,16.113,-458.98400000000004,29.296999999999997,13.672,0.0,0
1581362581.823,19.531,-825.195,32.227,20.02,0.0,0
1581362581.826,18.555,-761.23,25.391,19.531,0.0,0
1581362581.83,31.25,-367.18800000000016,19.043,8.301,0.0,0
1581362581.8339999,26.366999999999997,-356.934,15.625,4.395,0.0,0
1581362581.8379998,12.695,-503.906,19.531,7.324,0.0,0
1581362581.842,14.16,-364.746,30.761999999999997,10.254000000000001,0.0,0
1581362581.859,0.977,-231.445,31.25,15.137,0.0,0
1581362581.863,21.484,-305.664,30.761999999999997,10.254000000000001,0.0,0
1581362581.867,35.645,-424.316,35.156,-1.953,0.0,0
1581362581.871,1.465,-416.99199999999996,34.668,4.883,0.0,0
1581362581.875,-13.672,-356.934,30.273000000000003,13.672,0.0,0
1581362581.879,-13.184000000000001,-583.984,29.296999999999997,12.207,0.0,0
1581362581.883,12.207,-858.887,32.715,9.277000000000001,0.0,0
1581362581.8860002,13.672,-596.191,27.344,3.906,0.0,0
1581362581.89,-7.324,-342.285,28.809,9.277000000000001,0.0,0
1581362581.894,10.254000000000001,-434.082,35.156,17.578,0.0,0
1581362581.8979998,27.344,-481.934,36.621,17.578,0.0,0
1581362581.9020002,18.066,-321.777,34.668,18.555,0.0,0
1581362581.904,7.324,-409.18,22.461,17.09,0.0,0
1581362581.908,20.02,-539.5509999999998,15.137,18.066,0.0,0
1581362581.9120002,29.785,-351.074,17.09,16.602,0.0,0
1581362581.9160001,33.203,-244.62900000000002,16.602,9.766,0.0,0
1581362581.92,33.203,-329.102,18.555,12.695,0.0,0
1581362581.924,12.207,-560.547,27.831999999999997,19.043,0.0,0
1581362581.928,9.766,-644.043,34.18,20.996,0.0,0
1581362581.931,11.719000000000001,-392.57800000000003,36.621,11.719000000000001,0.0,0
1581362581.935,7.812,-319.336,38.574,14.16,0.0,0
1581362581.939,19.531,-676.758,39.062,27.831999999999997,0.0,0
1581362581.9429998,15.625,-692.8710000000003,28.32,21.484,0.0,0
1581362581.947,5.859,-366.699,14.648,17.09,0.0,0
1581362581.949,13.672,-453.61300000000006,19.531,18.555,0.0,0
1581362581.9529998,0.488,-590.82,34.668,33.691,0.0,0
1581362581.957,-3.418,-380.85900000000004,43.945,41.504,0.0,0
1581362581.961,15.625,-378.418,42.968999999999994,33.203,0.0,0
1581362581.965,5.371,-525.879,40.039,37.109,0.0,0
1581362581.9689999,-12.695,-636.719,37.109,44.434,0.0,0
1581362581.9729998,-1.953,-696.7769999999997,37.109,46.875,0.0,0
1581362581.976,21.484,-407.227,34.668,41.01600000000001,0.0,0
1581362581.98,11.719000000000001,-456.055,33.203,37.109,0.0,0
1581362581.984,-9.277000000000001,-812.5,40.039,40.527,0.0,0
1581362581.988,-0.977,-530.273,40.039,39.551,0.0,0
1581362581.992,9.766,-295.41,33.691,35.645,0.0,0
1581362581.994,20.02,-376.95300000000003,38.574,28.32,0.0,0
1581362581.998,21.97300000000001,-471.191,50.293,32.715,0.0,0
1581362582.002,18.555,-413.574,51.27,39.551,0.0,0
1581362582.006,22.461,-357.42199999999997,43.457,31.25,0.0,0
1581362582.01,1.953,-469.23800000000006,42.968999999999994,20.996,0.0,0
1581362582.014,-15.137,-582.52,41.992,21.97300000000001,0.0,0
1581362582.018,-9.277000000000001,-679.688,41.01600000000001,31.738000000000003,0.0,0
1581362582.0210001,7.812,-676.758,36.621,34.668,0.0,0
1581362582.025,17.09,-772.949,32.715,20.996,0.0,0
1581362582.029,16.602,-681.1519999999998,36.621,21.484,0.0,0
1581362582.033,16.113,-320.312,39.062,24.414,0.0,0
1581362582.0370002,6.836,-348.63300000000015,42.968999999999994,23.926,0.0,0
1581362582.0379999,12.207,-371.094,40.527,22.461,0.0,0
1581362582.042,13.184000000000001,-304.688,40.039,5.371,0.0,0
1581362582.046,-1.953,-303.711,40.039,2.93,0.0,0
1581362582.05,-1.465,-393.555,35.156,9.766,0.0,0
1581362582.054,-0.488,-438.965,31.738000000000003,0.977,0.0,0
1581362582.0579998,20.02,-539.062,28.809,10.742,0.0,0
1581362582.062,16.602,-522.9490000000002,27.344,25.391,0.0,0
1581362582.065,2.441,-494.629,37.109,25.391,0.0,0
1581362582.069,20.02,-696.289,46.387,14.648,0.0,0
1581362582.073,20.02,-581.055,41.504,-0.977,0.0,0
1581362582.0770001,-8.301,-394.531,38.086,3.906,0.0,0
1581362582.081,-16.602,-375.0,34.668,16.113,0.0,0
1581362582.083,-2.441,-395.996,29.296999999999997,18.555,0.0,0
1581362582.0870001,6.348,-310.547,24.414,4.883,0.0,0
1581362582.091,24.414,-366.211,23.438000000000002,-1.465,0.0,0
1581362582.095,29.785,-409.18,28.32,15.137,0.0,0
1581362582.099,21.484,-390.13699999999994,29.296999999999997,18.066,0.0,0
1581362582.103,18.066,-503.906,32.227,11.719000000000001,0.0,0
1581362582.107,9.766,-603.0269999999998,33.203,7.324,0.0,0
1581362582.11,2.93,-831.543,33.203,11.23,0.0,0
1581362582.1139998,15.625,-772.949,34.18,18.066,0.0,0
1581362582.1179998,14.16,-323.73,21.484,5.859,0.0,0
1581362582.1220002,11.719000000000001,-269.531,9.277000000000001,-2.93,0.0,0
1581362582.1260002,2.93,-384.277,8.789,1.953,0.0,0
1581362582.1279998,-8.301,-443.35900000000004,15.625,12.695,0.0,0
1581362582.1320002,7.324,-360.84,20.02,16.113,0.0,0
1581362582.1360002,28.32,-350.586,25.879,18.555,0.0,0
1581362582.14,28.32,-439.45300000000003,26.366999999999997,22.461,0.0,0
1581362582.144,4.883,-346.191,20.508000000000006,21.484,0.0,0
1581362582.1479998,12.207,-402.344,19.531,21.484,0.0,0
1581362582.1520002,34.18,-695.312,21.97300000000001,22.949,0.0,0
1581362582.155,39.551,-862.305,21.484,20.996,0.0,0
1581362582.159,11.719000000000001,-522.9490000000002,20.996,27.344,0.0,0
1581362582.1629999,-5.371,-289.062,21.484,18.066,0.0,0
1581362582.167,5.371,-363.281,20.02,6.348,0.0,0
1581362582.171,0.977,-358.398,19.531,7.812,0.0,0
1581362582.1729999,2.441,-298.34,20.02,10.254000000000001,0.0,0
1581362582.177,14.648,-296.875,16.113,14.16,0.0,0
1581362582.181,25.879,-427.73400000000004,16.113,7.812,0.0,0
1581362582.185,23.438000000000002,-489.746,17.578,13.184000000000001,0.0,0
1581362582.189,24.414,-352.051,22.949,32.227,0.0,0
1581362582.1929998,31.25,-415.039,33.691,42.48,0.0,0
1581362582.197,27.831999999999997,-760.2539999999997,27.344,42.48,0.0,0
1581362582.2,34.18,-771.4839999999997,18.555,29.296999999999997,0.0,0
1581362582.204,28.809,-417.48,25.391,23.926,0.0,0
1581362582.208,6.348,-386.23,31.25,31.738000000000003,0.0,0
1581362582.2120001,2.93,-463.86699999999996,23.438000000000002,28.32,0.0,0
1581362582.216,19.531,-372.07,14.16,18.066,0.0,0
1581362582.218,38.086,-262.207,19.043,9.277000000000001,0.0,0
1581362582.2220001,22.949,-336.426,32.227,15.137,0.0,0
1581362582.226,17.09,-440.918,35.156,24.901999999999997,0.0,0
1581362582.23,27.344,-334.961,31.25,28.32,0.0,0
1581362582.234,39.551,-272.949,26.366999999999997,25.391,0.0,0
1581362582.238,32.715,-567.383,25.879,24.901999999999997,0.0,1
1581362582.242,3.906,-859.375,28.32,21.97300000000001,0.0,0
1581362582.245,-4.395,-602.539,22.461,11.719000000000001,0.0,0
1581362582.2489998,-8.301,-351.074,27.831999999999997,9.277000000000001,0.0,0
1581362582.2529998,-8.789,-503.418,39.062,11.719000000000001,0.0,0
1581362582.2570002,-12.207,-572.266,25.391,12.207,0.0,0
1581362582.2610002,6.836,-369.629,24.414,22.461,0.0,0
1581362582.293,26.366999999999997,-321.777,42.48,21.97300000000001,0.0,0
1581362582.2970002,26.855,-486.32800000000003,50.78100000000001,17.578,0.0,0
1581362582.301,8.789,-538.086,47.852,16.602,0.0,0
1581362582.305,-5.859,-388.184,41.01600000000001,3.418,0.0,0
1581362582.309,12.207,-360.84,41.01600000000001,-1.465,0.0,0
1581362582.313,15.137,-580.566,42.968999999999994,4.883,0.0,0
1581362582.3170002,8.789,-662.5980000000002,33.203,10.742,0.0,0
1581362582.32,17.578,-419.92199999999997,28.32,12.207,0.0,0
1581362582.324,33.203,-417.969,35.645,18.066,0.0,0
1581362582.3279998,27.344,-712.4019999999997,38.086,22.949,0.0,0
1581362582.332,-2.441,-643.555,29.296999999999997,17.578,0.0,0
1581362582.336,7.812,-402.344,27.344,21.484,0.0,0
1581362582.323,19.531,-441.895,36.133,23.438000000000002,0.0,0
1581362582.3270001,6.836,-529.785,37.598,15.137,0.0,0
1581362582.331,16.602,-517.09,37.598,26.366999999999997,0.0,0
1581362582.335,12.207,-395.02,32.715,29.785,0.0,0
1581362582.339,19.531,-520.508,27.831999999999997,23.926,0.0,0
1581362582.343,32.715,-764.16,26.366999999999997,21.97300000000001,0.0,0
1581362582.3470001,28.809,-689.453,27.831999999999997,21.484,0.0,0
1581362582.35,42.968999999999994,-469.727,35.156,29.785,0.0,0
1581362582.3539999,41.01600000000001,-563.477,34.18,31.738000000000003,0.0,0
1581362582.3579998,24.901999999999997,-630.371,32.227,28.809,0.0,0
1581362582.3620002,5.859,-338.379,37.598,24.901999999999997,0.0,0
1581362582.3660002,3.906,-365.23400000000004,40.039,26.366999999999997,0.0,0
1581362582.3679998,21.97300000000001,-736.328,45.41,26.855,0.0,0
1581362582.3720002,42.968999999999994,-800.7810000000003,40.039,15.625,0.0,0
1581362582.3760002,33.203,-429.199,26.366999999999997,10.742,0.0,0
1581362582.38,16.113,-344.727,28.32,16.113,0.0,0
1581362582.3839998,19.531,-486.32800000000003,38.574,25.879,0.0,0
1581362582.3879998,25.879,-623.535,39.062,29.296999999999997,0.0,0
1581362582.3920002,43.457,-649.9019999999998,42.968999999999994,29.785,0.0,0
1581362582.395,30.273000000000003,-542.48,48.828,34.668,0.0,0
1581362582.399,7.812,-759.7660000000003,44.434,31.25,0.0,0
1581362582.4029999,28.32,-762.695,40.527,24.414,0.0,0
1581362582.407,20.996,-313.965,39.062,20.508000000000006,0.0,0
1581362582.411,4.883,-354.49199999999996,36.621,16.113,0.0,0
1581362582.4129999,10.742,-496.094,34.18,27.344,0.0,0
1581362582.417,24.901999999999997,-370.605,29.296999999999997,36.621,0.0,0
1581362582.421,26.366999999999997,-372.559,22.949,25.391,0.0,0
1581362582.425,4.883,-546.387,28.32,9.766,0.0,0
1581362582.429,-3.906,-526.367,40.527,9.766,0.0,0
1581362582.4329998,10.254000000000001,-571.289,37.109,13.672,0.0,0
1581362582.437,11.23,-584.4730000000002,28.32,8.789,0.0,0
1581362582.44,4.883,-623.535,33.691,9.277000000000001,0.0,0
1581362582.444,20.02,-812.5,35.645,13.672,0.0,0
1581362582.448,13.672,-543.945,27.344,12.207,0.0,0
1581362582.4520001,21.484,-311.52299999999997,22.949,19.043,0.0,0
1581362582.456,36.621,-403.32,22.461,23.438000000000002,0.0,0
1581362582.4589999,34.668,-424.316,24.414,22.949,0.0,0
1581362582.4629998,28.809,-369.14099999999996,26.855,32.715,0.0,0
1581362582.467,32.715,-332.031,27.831999999999997,33.203,0.0,0
1581362582.471,51.758,-417.969,27.831999999999997,18.066,0.0,0
1581362582.475,35.645,-434.57,28.809,12.695,0.0,0
1581362582.4789999,14.16,-477.051,34.18,18.555,0.0,0
1581362582.4829998,20.508000000000006,-601.562,32.227,26.366999999999997,0.0,0
1581362582.486,37.598,-801.758,30.761999999999997,20.02,0.0,0
1581362582.49,31.25,-735.84,37.109,10.254000000000001,0.0,0
1581362582.494,-1.953,-330.0780000000001,31.738000000000003,19.043,0.0,0
1581362582.498,-5.371,-362.305,30.761999999999997,30.761999999999997,0.0,0
1581362582.502,11.719000000000001,-490.23400000000004,35.645,32.715,0.0,0
1581362582.5029998,14.16,-382.81199999999995,35.156,26.855,0.0,0
1581362582.5070002,0.0,-282.715,37.109,29.785,0.0,0
1581362582.5110002,13.184000000000001,-410.156,38.574,37.109,0.0,0
1581362582.515,12.695,-520.996,33.203,34.668,0.0,0
1581362582.519,-2.441,-354.004,22.949,29.296999999999997,0.0,0
1581362582.5229998,2.441,-439.45300000000003,21.484,33.203,0.0,0
1581362582.5270002,-1.465,-686.035,31.738000000000003,37.598,0.0,0
1581362582.53,8.789,-780.273,36.621,35.645,0.0,0
1581362582.534,8.301,-590.82,31.25,18.555,0.0,0
1581362582.5379999,0.488,-428.223,29.785,9.277000000000001,0.0,0
1581362582.542,6.836,-448.73,32.227,20.996,0.0,0
1581362582.546,2.441,-438.965,36.133,23.926,0.0,0
1581362582.549,0.488,-254.395,26.366999999999997,11.719000000000001,0.0,0
1581362582.553,6.836,-240.72299999999998,18.555,4.883,0.0,0
1581362582.5570002,-2.441,-389.648,28.809,10.742,0.0,0
1581362582.561,-1.465,-400.39099999999996,42.48,22.461,0.0,0
1581362582.565,9.277000000000001,-327.14799999999997,42.968999999999994,21.97300000000001,0.0,0
1581362582.569,9.766,-390.625,36.621,8.789,0.0,0
1581362582.573,10.742,-722.6560000000003,31.738000000000003,3.418,0.0,0
1581362582.576,9.277000000000001,-733.398,22.949,9.766,0.0,0
1581362582.58,-1.465,-344.727,22.949,12.695,0.0,0
1581362582.5839999,20.508000000000006,-354.004,26.366999999999997,18.555,0.0,0
1581362582.5879998,30.273000000000003,-419.434,28.809,22.461,0.0,0
1581362582.592,14.16,-458.98400000000004,27.344,29.785,0.0,0
1581362582.609,12.207,-520.996,27.831999999999997,34.18,0.0,0
1581362582.613,1.465,-412.598,32.715,29.785,0.0,0
1581362582.617,3.418,-448.73,35.645,33.691,0.0,0
1581362582.621,4.883,-399.414,30.761999999999997,30.273000000000003,0.0,0
1581362582.625,15.137,-268.066,27.831999999999997,26.366999999999997,0.0,0
1581362582.629,36.133,-479.98,29.785,23.926,0.0,0
1581362582.633,29.785,-774.9019999999997,28.32,15.137,0.0,0
1581362582.6360002,7.812,-570.8009999999998,20.508000000000006,18.555,0.0,0
1581362582.64,24.901999999999997,-337.89099999999996,14.16,22.949,0.0,0
1581362582.644,41.992,-359.375,28.809,18.066,0.0,0
1581362582.6479998,42.968999999999994,-363.281,42.968999999999994,10.254000000000001,0.0,0
1581362582.6520002,39.062,-310.547,40.039,10.254000000000001,0.0,0
1581362582.669,25.391,-233.887,28.32,9.277000000000001,0.0,0
1581362582.6729999,21.97300000000001,-281.25,30.273000000000003,4.395,0.0,0
1581362582.677,11.23,-428.223,36.621,-4.395,0.0,0
1581362582.681,2.93,-399.414,29.785,-4.395,0.0,0
1581362582.685,0.0,-291.01599999999996,25.879,5.859,0.0,0
1581362582.689,1.465,-417.48,27.344,10.742,0.0,0
1581362582.6929998,14.648,-615.7230000000002,24.414,10.254000000000001,0.0,0
1581362582.696,9.766,-428.711,28.32,7.324,0.0,0
1581362582.7,17.09,-280.27299999999997,36.133,10.254000000000001,0.0,0
1581362582.704,28.809,-652.832,31.738000000000003,13.184000000000001,0.0,0
1581362582.708,18.066,-656.738,24.901999999999997,8.789,0.0,0
1581362582.7120001,12.207,-289.551,20.996,3.906,0.0,0
1581362582.699,10.742,-321.777,27.344,19.043,0.0,0
1581362582.7029998,13.184000000000001,-431.152,32.227,32.715,0.0,0
1581362582.707,18.555,-331.055,29.785,26.855,0.0,0
1581362582.711,15.625,-251.465,33.203,20.996,0.0,0
1581362582.715,-4.395,-367.676,32.715,12.207,0.0,0
1581362582.7189999,-18.555,-583.496,31.738000000000003,16.113,0.0,0
1581362582.7229998,-9.277000000000001,-648.438,38.086,24.901999999999997,0.0,0
1581362582.726,1.953,-464.844,37.109,21.97300000000001,0.0,0
1581362582.73,13.672,-405.76199999999994,30.273000000000003,19.531,0.0,0
1581362582.734,12.695,-403.809,34.18,20.508000000000006,0.0,0
1581362582.738,-0.488,-273.438,27.344,19.043,0.0,0
1581362582.742,7.812,-201.172,21.97300000000001,21.484,0.0,0
1581362582.744,24.414,-453.61300000000006,27.344,22.949,0.0,0
1581362582.748,31.25,-762.695,26.366999999999997,31.738000000000003,0.0,0
1581362582.752,15.137,-438.965,23.438000000000002,24.901999999999997,0.0,0
1581362582.756,22.461,-250.0,28.32,9.766,0.0,0
1581362582.76,32.715,-354.004,32.715,13.672,0.0,0
1581362582.764,23.438000000000002,-533.691,28.32,15.137,0.0,0
1581362582.768,31.738000000000003,-637.695,31.25,18.555,0.0,0
1581362582.7710001,19.531,-439.941,29.296999999999997,12.207,0.0,0
1581362582.775,2.93,-565.43,24.414,2.441,0.0,0
1581362582.779,-2.441,-657.715,25.879,4.883,0.0,0
1581362582.783,0.488,-286.621,18.555,8.789,0.0,0
1581362582.7870002,4.395,-272.949,9.277000000000001,7.324,0.0,0
1581362582.79,8.301,-389.648,23.438000000000002,4.883,0.0,0
1581362582.794,0.977,-277.344,34.668,7.812,0.0,0
1581362582.7979999,-13.184000000000001,-169.922,31.25,16.113,0.0,0
1581362582.802,3.906,-274.414,34.668,17.578,0.0,0
1581362582.806,31.738000000000003,-361.816,36.621,10.254000000000001,0.0,0
1581362582.81,18.555,-430.664,36.133,6.836,0.0,0
1581362582.814,-22.949,-473.145,37.109,16.602,0.0,0
1581362582.8170002,-30.273000000000003,-537.5980000000002,34.668,24.901999999999997,0.0,0
1581362582.821,-9.766,-778.809,28.809,19.531,0.0,0
1581362582.825,9.277000000000001,-522.461,17.09,15.625,0.0,0
1581362582.829,9.766,-219.238,17.09,17.09,0.0,0
1581362582.833,-15.137,-442.871,24.414,17.578,0.0,0
1581362582.8339999,-9.277000000000001,-444.824,23.926,10.254000000000001,0.0,0
1581362582.8379998,20.996,-239.25799999999998,21.484,-0.977,0.0,0
1581362582.842,11.23,-244.141,20.508000000000006,0.488,0.0,0
1581362582.846,-13.184000000000001,-380.85900000000004,18.555,4.395,0.0,0
1581362582.85,-3.418,-437.98800000000006,25.391,3.906,0.0,0
1581362582.8539999,16.113,-487.305,31.738000000000003,7.324,0.0,0
1581362582.8579998,5.859,-566.406,30.761999999999997,7.812,0.0,0
1581362582.861,3.906,-790.5269999999997,34.668,13.672,0.0,0
1581362582.865,4.395,-791.0160000000003,33.691,15.137,0.0,0
1581362582.869,13.184000000000001,-336.426,37.109,5.859,0.0,0
1581362582.873,19.531,-204.59,41.504,4.883,0.0,0
1581362582.877,4.883,-321.289,35.156,5.859,0.0,0
1581362582.879,13.184000000000001,-312.5,29.296999999999997,7.324,0.0,0
1581362582.883,25.391,-274.902,22.461,3.906,0.0,0
1581362582.887,5.859,-395.996,21.484,6.348,0.0,0
1581362582.891,-6.348,-422.852,30.761999999999997,19.043,0.0,0
1581362582.895,-7.324,-279.785,30.273000000000003,22.949,0.0,0
1581362582.899,15.625,-350.098,31.25,20.02,0.0,0
1581362582.9029999,27.344,-573.242,35.645,10.254000000000001,0.0,0
1581362582.9060001,12.207,-642.09,34.668,12.695,0.0,0
1581362582.91,24.901999999999997,-384.277,37.598,20.508000000000006,0.0,0
1581362582.914,18.555,-251.953,36.621,13.672,0.0,0
1581362582.918,14.648,-503.418,30.761999999999997,17.09,0.0,0
1581362582.9220002,1.465,-633.789,22.461,11.23,0.0,0
1581362582.924,-16.602,-387.695,13.672,5.371,0.0,0
1581362582.928,1.465,-344.23800000000006,17.09,15.137,0.0,0
1581362582.9320002,5.371,-408.691,18.555,13.672,0.0,0
1581362582.936,13.672,-380.371,21.484,9.277000000000001,0.0,0
1581362582.94,4.883,-377.441,27.344,7.324,0.0,0
1581362582.944,5.371,-498.535,28.809,15.137,0.0,0
1581362582.948,14.16,-728.5160000000003,32.227,20.02,0.0,0
1581362582.951,32.227,-695.801,32.715,10.254000000000001,0.0,0
1581362582.955,34.18,-355.469,36.621,9.766,0.0,0
1581362582.9589999,8.301,-322.754,42.968999999999994,25.391,0.0,0
1581362582.9629998,13.672,-460.449,32.227,30.273000000000003,0.0,0
1581362582.967,20.508000000000006,-414.551,30.761999999999997,21.484,0.0,0
1581362582.984,13.672,-302.246,30.273000000000003,20.02,0.0,0
1581362582.988,0.977,-371.094,21.97300000000001,22.461,0.0,0
1581362582.992,15.137,-455.566,27.831999999999997,20.996,0.0,0
1581362582.996,32.715,-340.332,38.086,19.531,0.0,0
1581362583.0,17.578,-221.68,42.48,20.02,0.0,0
1581362583.004,-0.977,-501.465,32.715,29.785,0.0,0
1581362583.008,-12.207,-840.82,21.97300000000001,38.086,0.0,0
1581362583.0110002,-2.93,-557.129,31.738000000000003,30.761999999999997,0.0,0
1581362583.015,12.695,-308.105,38.574,24.901999999999997,0.0,0
1581362583.019,19.531,-456.543,34.668,25.879,0.0,0
1581362583.0229998,37.109,-486.32800000000003,35.645,29.296999999999997,0.0,0
1581362583.0270002,12.207,-329.102,35.645,25.879,0.0,0
1581362583.029,-4.883,-346.191,29.785,17.578,0.0,0
1581362583.033,-0.488,-418.945,27.831999999999997,16.602,0.0,0
1581362583.0370002,-3.906,-459.473,33.691,25.879,0.0,0
1581362583.0410001,7.812,-389.16,37.598,26.366999999999997,0.0,0
1581362583.045,10.254000000000001,-304.199,31.25,13.672,0.0,0
1581362583.049,11.719000000000001,-503.418,29.296999999999997,20.02,0.0,0
1581362583.053,18.066,-656.25,33.203,38.086,0.0,0
1581362583.056,8.301,-500.977,28.32,27.831999999999997,0.0,0
1581362583.06,-0.977,-340.332,27.831999999999997,12.207,0.0,0
1581362583.064,4.883,-581.055,27.831999999999997,9.277000000000001,0.0,0
1581362583.0679998,1.465,-747.559,22.461,10.742,0.0,0
1581362583.072,-10.254000000000001,-541.504,18.066,15.625,0.0,0
1581362583.074,12.695,-454.59,18.555,16.113,0.0,0
1581362583.0779998,21.484,-456.055,13.184000000000001,6.836,0.0,0
1581362583.082,1.953,-330.566,17.578,1.953,0.0,0
1581362583.086,2.441,-277.344,27.344,6.348,0.0,0
1581362583.09,0.488,-382.81199999999995,28.32,4.395,0.0,0
1581362583.0939999,8.789,-556.641,20.996,2.93,0.0,0
1581362583.0979998,12.695,-579.59,16.602,0.0,0.0,0
1581362583.101,22.461,-384.76599999999996,17.09,-3.418,0.0,0
1581362583.105,36.133,-395.50800000000004,22.949,4.395,0.0,0
1581362583.109,37.598,-752.93,28.809,4.883,0.0,0
1581362583.113,16.602,-560.059,24.414,7.812,0.0,0
1581362583.117,-2.441,-278.32,18.066,22.461,0.0,0
1581362583.119,5.859,-380.371,10.742,22.461,0.0,0
1581362583.123,17.578,-478.51599999999996,15.137,23.926,0.0,0
1581362583.127,29.785,-456.543,17.09,21.484,0.0,0
1581362583.131,36.621,-324.707,14.648,14.648,0.0,0
1581362583.135,20.02,-392.57800000000003,18.066,15.137,0.0,0
1581362583.139,3.418,-507.81199999999995,19.043,13.672,0.0,0
1581362583.143,13.184000000000001,-530.273,10.742,10.254000000000001,0.0,0
1581362583.1460001,9.277000000000001,-534.18,3.906,11.719000000000001,0.0,0
1581362583.15,5.859,-643.066,21.484,20.508000000000006,0.0,0
1581362583.154,17.578,-590.332,32.715,18.066,0.0,0
1581362583.158,28.809,-243.65200000000002,33.203,13.184000000000001,0.0,0
1581362583.1620002,26.855,-303.223,33.691,14.16,0.0,0
1581362583.1629999,18.555,-451.66,31.25,23.438000000000002,0.0,0
1581362583.167,11.719000000000001,-354.49199999999996,25.879,27.831999999999997,0.0,0
1581362583.171,23.926,-298.828,20.02,24.414,0.0,0
1581362583.175,35.645,-360.84,19.531,30.761999999999997,0.0,0
1581362583.179,43.945,-671.875,24.901999999999997,36.133,0.0,0
1581362583.1829998,34.18,-764.16,28.809,36.621,0.0,0
1581362583.187,20.508000000000006,-505.371,31.25,28.32,0.0,0
1581362583.19,37.598,-508.789,24.414,25.391,0.0,0
1581362583.194,34.668,-739.7460000000003,16.602,28.32,0.0,0
1581362583.198,18.555,-474.60900000000004,19.531,22.949,0.0,0
1581362583.2020001,19.531,-229.98,24.414,21.97300000000001,0.0,0
1581362583.206,19.531,-311.035,20.996,24.901999999999997,0.0,0
1581362583.2229998,19.531,-305.176,8.789,22.949,0.0,0
1581362583.2270002,21.97300000000001,-242.676,13.184000000000001,25.391,0.0,0
1581362583.231,2.93,-298.828,23.438000000000002,21.484,0.0,0
1581362583.235,29.785,-388.184,37.109,19.043,0.0,0
1581362583.2389998,56.64100000000001,-393.066,33.691,14.648,0.0,0
1581362583.2429998,18.066,-469.23800000000006,20.02,11.23,0.0,0
1581362583.2470002,2.441,-582.52,20.508000000000006,17.09,0.0,0
1581362583.25,22.461,-773.438,23.926,15.137,0.0,0
1581362583.254,9.766,-765.625,26.855,7.324,0.0,0
1581362583.258,-5.371,-352.539,31.738000000000003,3.906,0.0,0
1581362583.262,5.371,-295.89799999999997,33.691,8.789,0.0,0
1581362583.266,19.043,-385.74199999999996,27.831999999999997,7.324,0.0,0
1581362583.268,36.133,-327.14799999999997,25.879,3.906,0.0,0
1581362583.272,20.02,-253.90599999999998,27.831999999999997,9.766,0.0,0
1581362583.276,7.812,-299.316,38.086,23.438000000000002,0.0,0
1581362583.28,24.414,-411.13300000000004,33.691,25.391,0.0,0
1581362583.284,20.996,-323.242,19.531,11.23,0.0,0
1581362583.2879999,9.766,-417.48,23.438000000000002,6.348,0.0,0
1581362583.292,17.578,-667.48,28.809,13.672,0.0,0
1581362583.295,23.926,-595.703,29.785,15.137,0.0,0
1581362583.299,26.366999999999997,-374.51199999999994,27.831999999999997,12.695,0.0,0
1581362583.303,32.715,-246.09400000000002,30.273000000000003,19.043,0.0,0
1581362583.3070002,16.602,-530.762,31.738000000000003,13.184000000000001,0.0,0
1581362583.311,3.906,-815.918,24.414,5.371,0.0,0
1581362583.2979999,15.137,-435.059,16.113,6.348,0.0,0
1581362583.302,13.184000000000001,-271.973,13.672,6.348,0.0,0
1581362583.306,16.602,-433.594,20.996,11.719000000000001,0.0,0
1581362583.31,20.996,-451.17199999999997,27.831999999999997,16.113,0.0,0
1581362583.314,24.901999999999997,-318.848,25.879,14.648,0.0,0
1581362583.3179998,21.484,-461.426,28.32,15.137,0.0,0
1581362583.322,11.719000000000001,-654.785,29.296999999999997,21.484,0.0,0
1581362583.325,21.484,-469.727,23.438000000000002,28.809,0.0,0
1581362583.329,9.277000000000001,-309.57,13.184000000000001,24.414,0.0,0
1581362583.333,14.648,-264.64799999999997,24.901999999999997,25.391,0.0,0
1581362583.3370001,23.438000000000002,-586.4259999999998,32.715,32.715,0.0,0
1581362583.341,14.16,-708.4960000000003,26.855,41.992,0.0,0
1581362583.343,14.648,-340.82,26.366999999999997,40.527,0.0,0
1581362583.3470001,0.0,-420.898,19.531,29.296999999999997,0.0,0
1581362583.351,5.371,-490.23400000000004,21.484,27.831999999999997,0.0,0
1581362583.355,10.742,-374.51199999999994,26.855,31.738000000000003,0.0,0
1581362583.359,7.324,-290.039,22.461,33.203,0.0,0
1581362583.363,25.879,-473.145,27.831999999999997,24.901999999999997,0.0,0
1581362583.367,14.16,-755.8589999999997,25.879,16.113,0.0,0
1581362583.37,-7.812,-533.203,16.602,18.066,0.0,0
1581362583.3739998,-3.418,-329.59,21.484,20.996,0.0,0
1581362583.3779998,-2.93,-483.88699999999994,27.831999999999997,25.879,0.0,0
1581362583.3820002,-2.93,-471.191,17.578,17.09,0.0,0
1581362583.3860002,1.953,-267.578,21.484,16.113,0.0,2
1581362583.4029999,13.672,-236.328,33.691,26.366999999999997,0.0,0
1581362583.407,23.926,-378.906,34.668,18.555,0.0,0
1581362583.411,16.602,-433.105,33.203,11.23,0.0,0
1581362583.415,9.766,-244.62900000000002,30.761999999999997,8.301,0.0,0
1581362583.419,12.695,-350.098,25.879,20.02,0.0,0
1581362583.4229999,17.09,-682.1289999999998,26.366999999999997,29.296999999999997,0.0,0
1581362583.427,15.625,-622.559,23.438000000000002,15.625,0.0,0
1581362583.43,16.602,-313.965,19.531,13.184000000000001,0.0,0
1581362583.434,18.066,-255.37099999999998,20.508000000000006,15.137,0.0,0
1581362583.438,13.672,-569.8240000000002,24.901999999999997,8.301,0.0,0
1581362583.4420002,23.438000000000002,-565.918,32.227,2.93,0.0,0
1581362583.446,35.156,-304.688,27.831999999999997,-4.883,0.0,0
1581362583.4629998,46.387,-399.414,23.926,1.953,0.0,0
1581362583.467,28.32,-510.254,23.438000000000002,7.324,0.0,0
1581362583.471,-4.395,-486.32800000000003,20.508000000000006,-1.953,0.0,0
1581362583.475,4.883,-390.13699999999994,18.066,-8.789,0.0,0
1581362583.4789999,22.949,-427.246,23.438000000000002,0.977,0.0,0
1581362583.4829998,16.602,-593.262,20.02,17.09,0.0,0
1581362583.4870002,10.742,-605.469,20.508000000000006,17.578,0.0,0
1581362583.49,9.277000000000001,-458.98400000000004,18.555,0.0,0.0,0
1581362583.494,1.953,-479.98,20.508000000000006,0.488,0.0,0
1581362583.498,11.719000000000001,-727.539,32.715,14.16,0.0,0
1581362583.502,19.043,-543.945,32.227,18.066,0.0,0
1581362583.506,19.043,-256.836,27.344,11.719000000000001,0.0,0
1581362583.4929998,0.0,-321.777,28.32,9.766,0.0,0
1581362583.4970002,-12.207,-354.98,27.831999999999997,23.926,0.0,0
1581362583.5010002,9.277000000000001,-208.00799999999998,22.461,32.715,0.0,0
1581362583.505,23.438000000000002,-183.105,14.16,24.901999999999997,0.0,0
1581362583.5089998,20.508000000000006,-353.027,12.207,10.742,0.0,0
1581362583.5129998,27.831999999999997,-587.891,24.901999999999997,15.137,0.0,0
1581362583.5170002,34.668,-620.605,32.715,24.901999999999997,0.0,0
1581362583.52,30.761999999999997,-462.89099999999996,21.484,19.531,0.0,0
1581362583.524,18.066,-517.578,19.531,5.859,0.0,0
1581362583.5279999,6.348,-521.484,28.32,-0.488,0.0,0
1581362583.532,12.207,-428.223,27.831999999999997,-0.488,0.0,0
1581362583.536,5.859,-389.648,24.414,-0.977,0.0,0
1581362583.5379999,2.93,-633.3009999999998,32.227,0.977,0.0,0
1581362583.542,21.484,-668.457,37.109,-0.488,0.0,0
1581362583.546,10.742,-361.816,30.273000000000003,3.906,0.0,0
1581362583.55,-3.906,-384.277,29.296999999999997,14.648,0.0,0
1581362583.554,18.555,-443.35900000000004,33.691,13.184000000000001,0.0,0
1581362583.5579998,25.879,-565.918,31.738000000000003,8.789,0.0,0
1581362583.562,-12.695,-547.363,26.366999999999997,17.09,0.0,0
1581362583.565,-26.855,-524.9019999999998,31.25,20.996,0.0,0
1581362583.569,2.93,-738.2810000000003,36.621,20.02,0.0,0
1581362583.573,22.949,-439.941,38.574,17.09,0.0,0
1581362583.5770001,8.789,-175.293,40.039,20.02,0.0,0
1581362583.581,-5.859,-338.86699999999996,40.527,32.227,0.0,0
1581362583.5979998,5.371,-375.0,34.668,26.855,0.0,0
1581362583.6020002,13.184000000000001,-381.836,26.855,16.113,0.0,0
1581362583.606,20.508000000000006,-346.191,25.391,17.578,0.0,0
1581362583.61,13.672,-358.88699999999994,35.156,31.738000000000003,0.0,0
1581362583.6139998,11.23,-389.16,34.668,36.133,0.0,0
1581362583.6179998,11.719000000000001,-469.727,24.414,22.949,0.0,0
1581362583.6220002,12.207,-504.395,29.296999999999997,22.949,0.0,0
1581362583.625,19.531,-705.078,33.203,24.414,0.0,0
1581362583.629,8.789,-816.895,26.366999999999997,11.719000000000001,0.0,0
1581362583.633,10.254000000000001,-334.961,17.09,4.883,0.0,0
1581362583.637,27.344,-244.62900000000002,17.09,5.859,0.0,0
1581362583.641,17.578,-393.066,31.25,10.254000000000001,0.0,0
1581362583.629,4.395,-303.711,36.621,13.672,0.0,0
1581362583.633,17.578,-166.016,25.391,0.0,0.0,0
1581362583.637,26.366999999999997,-241.21099999999998,18.555,-11.719000000000001,0.0,0
1581362583.641,20.02,-370.11699999999996,22.461,-6.348,0.0,0
1581362583.645,17.09,-380.85900000000004,28.32,3.906,0.0,0
1581362583.649,9.766,-428.223,29.296999999999997,2.93,0.0,0
1581362583.6529999,7.812,-530.762,22.949,0.0,0.0,0
1581362583.6560001,-0.977,-457.031,15.625,4.395,0.0,0
1581362583.66,1.953,-379.88300000000004,25.391,16.113,0.0,0
1581362583.664,11.23,-287.598,28.809,23.438000000000002,0.0,0
1581362583.668,22.949,-433.594,25.391,20.996,0.0,0
1581362583.6720002,24.414,-738.2810000000003,23.438000000000002,18.555,0.0,0
1581362583.674,7.812,-430.664,13.672,25.879,0.0,0
1581362583.678,14.16,-205.078,5.371,35.156,0.0,0
1581362583.6820002,32.227,-315.918,11.719000000000001,35.645,0.0,0
1581362583.686,45.898,-314.453,24.414,39.062,0.0,0
1581362583.69,28.32,-219.727,27.344,41.504,0.0,0
1581362583.694,12.695,-371.094,24.414,36.133,0.0,0
1581362583.698,31.25,-632.812,35.156,36.133,0.0,0
1581362583.701,49.316,-596.68,38.086,29.296999999999997,0.0,0
1581362583.705,27.831999999999997,-289.551,23.926,26.366999999999997,0.0,0
1581362583.7089999,10.742,-223.145,26.855,33.203,0.0,0
1581362583.7129998,20.508000000000006,-462.89099999999996,26.855,33.203,0.0,0
1581362583.717,29.785,-447.26599999999996,30.273000000000003,27.344,0.0,0
1581362583.718,45.898,-212.40200000000002,41.01600000000001,26.855,0.0,0
1581362583.7220001,34.668,-275.39099999999996,39.551,36.621,0.0,0
1581362583.726,30.761999999999997,-401.855,35.156,44.922,0.0,0
1581362583.73,31.738000000000003,-313.965,36.133,39.551,0.0,0
1581362583.734,20.996,-232.422,30.761999999999997,41.504,0.0,0
1581362583.738,34.18,-501.95300000000003,29.785,54.688,0.0,0
1581362583.742,46.387,-761.7189999999997,27.831999999999997,61.035,0.0,0
1581362583.745,28.809,-452.148,16.602,55.176,0.0,0
1581362583.7489998,9.766,-197.75400000000002,18.066,44.922,0.0,0
1581362583.7529998,14.648,-341.79699999999997,20.508000000000006,48.828,0.0,0
1581362583.7570002,18.066,-481.934,17.09,57.129,0.0,0
1581362583.7610002,2.441,-343.75,24.414,52.246,0.0,0
1581362583.7779999,10.742,-234.375,28.32,49.316,0.0,0
1581362583.782,30.273000000000003,-357.91,20.02,47.852,0.0,0
1581362583.786,29.296999999999997,-402.832,20.996,49.316,0.0,0
1581362583.79,27.831999999999997,-296.387,17.578,43.945,0.0,0
1581362583.794,8.301,-211.91400000000002,14.648,24.901999999999997,0.0,0
1581362583.7979999,-5.371,-378.418,15.625,21.97300000000001,0.0,0
1581362583.802,0.488,-470.215,18.066,29.785,0.0,0
1581362583.805,-0.488,-335.9380000000001,15.137,24.414,0.0,0
1581362583.809,18.066,-284.668,11.719000000000001,13.184000000000001,0.0,0
1581362583.813,28.32,-481.445,22.949,12.695,0.0,0
1581362583.8170002,12.695,-547.363,25.391,13.672,0.0,0
1581362583.821,22.461,-273.926,27.831999999999997,14.648,0.0,0
1581362583.824,11.719000000000001,-279.297,39.062,14.16,0.0,0
1581362583.8279998,-4.395,-359.375,27.831999999999997,13.184000000000001,0.0,0
1581362583.832,11.719000000000001,-276.367,20.996,19.043,0.0,0
1581362583.836,5.371,-262.207,28.809,28.809,0.0,0
1581362583.84,16.602,-335.449,26.366999999999997,29.785,0.0,0
1581362583.8439999,38.086,-530.273,21.97300000000001,20.508000000000006,0.0,0
1581362583.8479998,18.066,-579.102,25.391,12.695,0.0,0
1581362583.851,5.371,-346.191,20.996,13.672,0.0,0
1581362583.855,24.901999999999997,-371.582,21.484,24.414,0.0,0
1581362583.859,28.32,-583.984,27.831999999999997,20.996,0.0,0
1581362583.863,9.277000000000001,-387.695,30.273000000000003,13.672,0.0,0
1581362583.867,-13.672,-244.62900000000002,36.133,30.273000000000003,0.0,0
1581362583.869,-2.441,-321.289,37.598,39.551,0.0,0
1581362583.873,25.879,-311.035,34.668,30.761999999999997,0.0,0
1581362583.877,21.97300000000001,-218.262,31.738000000000003,31.738000000000003,0.0,0
1581362583.881,-4.395,-316.406,29.785,40.527,0.0,0
1581362583.885,-12.207,-459.961,24.414,37.598,0.0,0
1581362583.889,3.418,-498.535,25.391,33.691,0.0,0
1581362583.893,1.953,-554.688,21.97300000000001,36.133,0.0,0
1581362583.8960001,1.953,-369.14099999999996,13.184000000000001,38.574,0.0,0
1581362583.9,9.766,-556.641,21.484,41.01600000000001,0.0,0
1581362583.904,39.551,-678.2230000000002,29.296999999999997,46.387,0.0,0
1581362583.908,62.988,-218.262,20.508000000000006,36.621,0.0,0
1581362583.9120002,26.366999999999997,-229.00400000000002,15.625,30.761999999999997,0.0,0
1581362583.914,12.695,-397.461,25.391,41.504,0.0,0
1581362583.918,26.366999999999997,-362.305,25.879,35.156,0.0,0
1581362583.9220002,11.23,-270.996,22.949,22.461,0.0,0
1581362583.926,15.137,-302.7340000000001,20.508000000000006,20.996,0.0,0
1581362583.93,23.926,-335.449,19.531,26.366999999999997,0.0,0
1581362583.934,31.25,-448.73,25.391,35.156,0.0,0
1581362583.938,47.852,-569.8240000000002,24.901999999999997,29.296999999999997,0.0,0
1581362583.941,39.062,-613.77,21.97300000000001,22.949,0.0,0
1581362583.945,17.09,-713.3789999999997,21.484,24.414,0.0,0
1581362583.949,12.207,-451.17199999999997,9.766,22.949,0.0,0
1581362583.9529998,11.23,-290.527,10.742,27.344,0.0,0
1581362583.957,4.395,-333.0080000000001,26.366999999999997,26.366999999999997,0.0,0
1581362583.9589999,-1.953,-354.004,27.344,30.761999999999997,0.0,0
1581362583.9629998,1.465,-306.152,26.366999999999997,36.621,0.0,0
1581362583.967,19.531,-290.527,26.855,39.062,0.0,0
1581362583.971,26.855,-384.76599999999996,22.461,37.109,0.0,0
1581362583.975,31.738000000000003,-389.16,25.879,33.203,0.0,0
1581362583.9789999,31.25,-453.61300000000006,27.831999999999997,38.086,0.0,0
1581362583.9829998,23.926,-554.1990000000002,15.625,32.227,0.0,0
1581362583.986,20.508000000000006,-799.316,19.043,21.97300000000001,0.0,0
1581362583.99,18.066,-728.5160000000003,32.227,16.602,0.0,0
1581362583.994,19.531,-396.973,35.156,23.926,0.0,0
1581362583.998,23.438000000000002,-382.81199999999995,37.598,29.296999999999997,0.0,0
1581362584.002,18.066,-369.629,33.691,13.672,0.0,0
1581362584.004,13.184000000000001,-354.98,23.926,1.465,0.0,0
1581362584.008,22.949,-287.598,22.949,3.418,0.0,0
1581362584.012,27.344,-390.13699999999994,19.043,6.836,0.0,0
1581362584.016,20.02,-467.285,17.09,9.277000000000001,0.0,0
1581362584.02,15.137,-336.914,30.273000000000003,7.324,0.0,0
1581362584.024,9.277000000000001,-377.93,38.574,7.324,0.0,0
1581362584.0279999,12.207,-573.73,46.875,10.254000000000001,0.0,0
1581362584.0310001,30.273000000000003,-767.578,48.34,9.277000000000001,0.0,0
1581362584.035,30.273000000000003,-494.14099999999996,42.48,14.648,0.0,0
1581362584.039,9.766,-243.65200000000002,39.551,20.508000000000006,0.0,0
1581362584.043,0.488,-366.699,41.504,30.273000000000003,0.0,0
1581362584.0470002,2.93,-399.414,40.039,24.414,0.0,0
1581362584.049,6.836,-378.906,28.809,20.02,0.0,0
1581362584.053,17.09,-400.879,29.296999999999997,30.273000000000003,0.0,0
1581362584.0570002,29.296999999999997,-428.711,38.086,30.761999999999997,0.0,0
1581362584.061,13.672,-401.855,39.062,35.645,0.0,0
1581362584.065,1.465,-291.504,34.668,26.366999999999997,0.0,0
1581362584.069,10.254000000000001,-441.406,37.598,20.996,0.0,0
1581362584.073,0.488,-801.758,37.109,24.901999999999997,0.0,0
1581362584.076,-7.812,-781.738,27.344,21.484,0.0,0
1581362584.08,8.301,-459.961,29.785,24.901999999999997,0.0,0
1581362584.0839999,12.695,-370.11699999999996,36.621,18.555,0.0,0
1581362584.0879998,10.254000000000001,-361.32800000000003,37.109,20.508000000000006,0.0,0
1581362584.092,16.602,-356.934,39.551,32.227,0.0,0
1581362584.109,19.531,-298.828,29.785,30.273000000000003,0.0,0
1581362584.113,19.531,-326.172,18.066,27.831999999999997,0.0,0
1581362584.117,6.348,-387.695,29.296999999999997,20.508000000000006,0.0,0
1581362584.121,-3.418,-426.75800000000004,37.598,19.531,0.0,0
1581362584.125,2.93,-366.699,36.133,25.879,0.0,0
1581362584.129,17.578,-521.9730000000002,36.133,21.97300000000001,0.0,0
1581362584.133,14.648,-629.883,33.203,17.09,0.0,0
1581362584.1360002,0.977,-395.02,30.761999999999997,19.043,0.0,0
1581362584.14,-0.977,-294.434,27.831999999999997,27.344,0.0,0
1581362584.144,9.277000000000001,-476.074,22.949,23.926,0.0,0
1581362584.1479998,28.32,-620.605,31.25,15.625,0.0,0
1581362584.1520002,35.645,-367.676,36.133,16.113,0.0,0
1581362584.154,13.672,-233.398,33.203,14.648,0.0,0
1581362584.158,2.441,-421.875,27.831999999999997,11.23,0.0,0
1581362584.1620002,18.066,-519.043,20.996,7.812,0.0,0
1581362584.1660001,30.761999999999997,-391.602,19.531,21.484,0.0,0
1581362584.17,9.766,-297.363,21.484,36.133,0.0,0
1581362584.174,-0.977,-414.551,28.32,27.344,0.0,0
1581362584.178,11.719000000000001,-576.172,22.949,21.484,0.0,0
1581362584.181,2.441,-472.168,8.789,16.602,0.0,0
1581362584.185,1.953,-305.176,10.254000000000001,20.996,0.0,0
1581362584.189,18.555,-640.625,15.137,36.621,0.0,0
1581362584.1929998,27.344,-727.539,12.207,24.414,0.0,0
1581362584.197,14.648,-352.539,9.277000000000001,13.184000000000001,0.0,0
1581362584.198,1.953,-366.211,9.766,27.831999999999997,0.0,0
1581362584.2020001,11.23,-452.63699999999994,15.625,35.645,0.0,0
1581362584.206,26.366999999999997,-379.88300000000004,18.555,28.32,0.0,0
1581362584.21,18.066,-291.01599999999996,24.414,13.672,0.0,0
1581362584.214,-0.488,-398.926,28.32,15.137,0.0,0
1581362584.218,-1.465,-658.203,28.32,26.855,0.0,0
1581362584.2220001,5.371,-697.7539999999997,27.831999999999997,19.531,0.0,0
1581362584.225,7.812,-350.586,21.484,13.672,0.0,0
1581362584.2289999,2.441,-379.395,17.578,19.531,0.0,0
1581362584.2329998,8.301,-783.203,21.484,23.438000000000002,0.0,0
1581362584.2370002,21.484,-495.605,26.366999999999997,22.461,0.0,0
1581362584.2410002,16.113,-187.988,21.484,15.137,0.0,0
1581362584.2429998,12.695,-317.383,12.207,11.719000000000001,0.0,0
1581362584.2470002,16.113,-363.281,13.184000000000001,13.672,0.0,0
1581362584.2510002,14.16,-308.594,21.484,15.625,0.0,0
1581362584.255,13.184000000000001,-283.203,22.949,17.578,0.0,0
1581362584.2589998,5.859,-339.844,20.508000000000006,14.16,0.0,0
1581362584.2629998,1.953,-520.02,9.766,17.578,0.0,0
1581362584.2670002,1.953,-596.191,9.766,23.438000000000002,0.0,0
1581362584.27,8.789,-525.391,28.809,13.672,0.0,0
1581362584.274,16.602,-665.039,29.785,0.488,0.0,0
1581362584.2779999,14.648,-690.918,22.949,0.0,0.0,0
1581362584.282,17.578,-348.63300000000015,20.508000000000006,5.859,0.0,0
1581362584.286,32.227,-338.86699999999996,25.879,9.766,0.0,0
1581362584.29,22.461,-481.445,26.855,14.648,0.0,0
1581362584.294,5.371,-352.051,13.184000000000001,20.508000000000006,0.0,0
1581362584.2979999,4.395,-303.223,13.184000000000001,29.296999999999997,0.0,0
1581362584.302,14.648,-414.551,19.531,29.785,0.0,0
1581362584.306,31.738000000000003,-424.805,20.508000000000006,17.578,0.0,0
1581362584.31,32.227,-502.441,26.366999999999997,9.277000000000001,0.0,0
1581362584.314,11.23,-508.301,20.508000000000006,12.695,0.0,0
1581362584.3170002,-4.395,-482.42199999999997,7.812,14.16,0.0,0
1581362584.321,2.93,-698.242,4.883,5.859,0.0,0
1581362584.325,8.789,-501.95300000000003,5.371,-2.93,0.0,0
1581362584.329,-0.977,-273.438,13.672,4.883,0.0,0
1581362584.333,-7.812,-357.42199999999997,12.695,19.531,0.0,0
1581362584.333,-16.113,-382.81199999999995,7.812,18.066,0.0,0
1581362584.3370001,0.488,-244.141,4.883,7.324,0.0,0
1581362584.341,15.137,-328.61300000000006,7.812,12.207,0.0,0
1581362584.345,12.207,-541.504,25.879,26.855,0.0,0
1581362584.349,12.207,-437.5,19.531,29.785,0.0,0
1581362584.353,10.254000000000001,-387.207,17.09,24.901999999999997,0.0,0
1581362584.357,7.812,-509.277,27.831999999999997,24.901999999999997,0.0,0
1581362584.36,2.441,-767.09,33.203,21.97300000000001,0.0,0
1581362584.3639998,8.789,-720.215,35.156,16.602,0.0,0
1581362584.3679998,8.789,-353.027,33.203,16.113,0.0,0
1581362584.3720002,-5.371,-320.312,32.227,11.719000000000001,0.0,0
1581362584.3760002,-24.414,-431.64099999999996,33.203,20.02,0.0,0
1581362584.3779998,-22.461,-357.42199999999997,31.738000000000003,26.366999999999997,0.0,0
1581362584.3820002,6.836,-201.66,26.366999999999997,24.901999999999997,0.0,0
1581362584.3860002,1.465,-295.89799999999997,26.366999999999997,23.438000000000002,0.0,0
1581362584.39,-4.883,-434.082,27.344,26.855,0.0,0
1581362584.394,16.113,-351.074,24.901999999999997,38.574,0.0,0
1581362584.3979998,23.926,-458.00800000000004,32.227,33.203,0.0,0
1581362584.4020002,18.066,-673.34,37.109,19.531,0.0,0
1581362584.405,7.812,-808.5939999999997,33.203,20.02,0.0,0
1581362584.409,-8.789,-609.375,27.344,28.809,0.0,0
1581362584.4129999,-11.719000000000001,-346.68,24.414,27.344,0.0,1
1581362584.417,2.93,-378.418,31.738000000000003,20.02,0.0,0
1581362584.421,7.324,-369.14099999999996,24.414,21.484,0.0,0
1581362584.438,9.766,-223.145,8.301,23.438000000000002,0.0,0
1581362584.4420002,6.836,-196.77700000000002,13.184000000000001,25.879,0.0,0
1581362584.446,-8.789,-333.496,21.97300000000001,18.555,0.0,0
1581362584.45,-10.742,-437.01199999999994,25.879,14.16,0.0,0
1581362584.454,-7.812,-377.441,26.855,18.555,0.0,0
1581362584.458,-6.836,-475.586,27.344,18.066,0.0,0
1581362584.4620001,0.488,-833.9839999999997,27.344,17.09,0.0,0
1581362584.465,5.859,-769.5310000000003,21.97300000000001,15.625,0.0,0
1581362584.4689999,-8.301,-449.707,22.949,18.066,0.0,0
1581362584.4729998,-11.719000000000001,-497.559,30.273000000000003,30.761999999999997,0.0,0
1581362584.4770002,0.0,-472.656,28.809,27.344,0.0,0
1581362584.481,-3.418,-352.539,25.879,21.484,0.0,0
1581362584.498,-0.977,-271.48400000000004,25.879,35.156,0.0,0
1581362584.502,0.488,-369.629,30.273000000000003,39.551,0.0,0
1581362584.506,1.953,-455.566,31.738000000000003,31.25,0.0,0
1581362584.51,18.555,-332.031,27.831999999999997,26.855,0.0,0
1581362584.514,9.766,-236.328,27.344,24.414,0.0,0
1581362584.518,-23.438000000000002,-458.00800000000004,25.879,16.113,0.0,0
1581362584.522,-19.531,-612.793,30.273000000000003,14.648,0.0,0
1581362584.525,11.23,-443.848,17.09,20.508000000000006,0.0,0
1581362584.529,4.883,-351.56199999999984,10.254000000000001,23.438000000000002,0.0,0
1581362584.533,9.766,-501.465,25.879,23.926,0.0,0
1581362584.5370002,28.32,-725.586,35.156,18.066,0.0,0
1581362584.5410001,9.766,-599.121,37.598,11.719000000000001,0.0,0
1581362584.515,2.93,-393.066,36.133,7.324,0.0,0
1581362584.519,4.395,-363.77,37.598,3.418,0.0,0
1581362584.5229998,1.465,-405.76199999999994,36.133,6.836,0.0,0
1581362584.5270002,22.461,-266.113,32.715,8.789,0.0,0
1581362584.5310001,43.945,-228.516,31.25,9.277000000000001,0.0,0
1581362584.535,32.227,-471.68,20.02,20.508000000000006,0.0,0
1581362584.539,16.113,-593.262,23.438000000000002,29.296999999999997,0.0,0
1581362584.542,25.391,-425.293,32.227,25.879,0.0,0
1581362584.546,21.97300000000001,-309.082,26.366999999999997,26.855,0.0,0
1581362584.55,7.812,-391.11300000000006,23.438000000000002,25.391,0.0,0
1581362584.554,-11.719000000000001,-416.504,18.066,20.02,0.0,0
1581362584.5579998,-13.184000000000001,-323.73,19.531,23.438000000000002,0.0,0
1581362584.573,12.207,-329.59,22.949,26.366999999999997,0.0,0
1581362584.5770001,25.391,-487.793,25.879,28.809,0.0,0
1581362584.581,7.324,-548.34,22.949,34.668,0.0,0
1581362584.585,7.324,-459.473,16.602,36.133,0.0,0
1581362584.589,4.395,-399.902,16.113,30.273000000000003,0.0,0
1581362584.593,-7.324,-714.355,19.043,31.738000000000003,0.0,0
1581362584.5970001,3.906,-699.2189999999997,26.366999999999997,40.527,0.0,0
1581362584.6,9.766,-325.195,26.366999999999997,45.898,0.0,0
1581362584.6039999,3.906,-422.36300000000006,26.366999999999997,48.828,0.0,0
1581362584.6079998,4.883,-613.77,22.461,42.48,0.0,0
1581362584.6120002,22.461,-379.88300000000004,21.484,39.062,0.0,0
1581362584.6160002,15.625,-223.63299999999998,29.785,36.621,0.0,0
1581362584.633,7.812,-352.051,26.366999999999997,21.97300000000001,0.0,0
1581362584.637,17.09,-390.13699999999994,26.855,23.438000000000002,0.0,0
1581362584.641,8.789,-273.926,28.809,23.438000000000002,0.0,0
1581362584.645,2.441,-219.727,34.668,20.996,0.0,0
1581362584.649,13.672,-340.82,35.156,25.879,0.0,0
1581362584.6529999,36.133,-479.98,22.949,17.578,0.0,0
1581362584.657,27.831999999999997,-559.57,17.578,12.695,0.0,0
1581362584.66,25.391,-500.48800000000006,13.672,18.066,0.0,0
1581362584.664,36.133,-685.547,10.254000000000001,22.949,0.0,0
1581362584.668,34.18,-705.078,15.625,24.901999999999997,0.0,0
1581362584.6720002,29.785,-302.246,15.625,13.184000000000001,0.0,0
1581362584.676,11.23,-281.738,12.207,9.277000000000001,0.0,0
1581362584.694,1.953,-360.84,8.789,18.066,0.0,0
1581362584.698,33.203,-280.27299999999997,15.625,26.855,0.0,0
1581362584.7020001,42.48,-164.551,22.949,20.996,0.0,0
1581362584.706,20.02,-253.418,18.555,13.184000000000001,0.0,0
1581362584.71,11.719000000000001,-384.76599999999996,16.113,30.273000000000003,0.0,0
1581362584.714,12.207,-449.707,25.391,38.086,0.0,0
1581362584.718,21.97300000000001,-508.789,31.25,29.296999999999997,0.0,0
1581362584.721,22.949,-519.531,29.296999999999997,19.043,0.0,0
1581362584.725,14.648,-639.16,32.227,18.555,0.0,0
1581362584.7289999,23.926,-508.789,28.809,27.344,0.0,0
1581362584.7329998,45.898,-244.141,22.949,24.901999999999997,0.0,0
1581362584.7370002,49.316,-474.121,24.901999999999997,19.531,0.0,0
1581362584.7089999,41.992,-724.1210000000003,31.738000000000003,23.438000000000002,0.0,0
1581362584.7129998,42.48,-390.13699999999994,33.691,26.366999999999997,0.0,0
1581362584.717,34.668,-321.777,25.391,19.043,0.0,0
1581362584.721,37.109,-443.35900000000004,20.508000000000006,7.324,0.0,0
1581362584.725,22.949,-334.961,19.043,3.418,0.0,0
1581362584.7289999,-0.977,-321.777,22.949,1.465,0.0,0
1581362584.7329998,12.207,-496.582,25.879,3.906,0.0,0
1581362584.736,24.414,-587.4019999999998,23.926,2.93,0.0,0
1581362584.74,30.761999999999997,-444.824,25.391,0.488,0.0,0
1581362584.744,27.831999999999997,-271.48400000000004,20.996,15.625,0.0,0
1581362584.748,30.761999999999997,-183.59400000000002,19.531,19.531,0.0,0
1581362584.752,50.78100000000001,-314.941,28.32,10.254000000000001,0.0,0
1581362584.754,45.898,-357.91,28.809,6.348,0.0,0
1581362584.758,21.484,-210.449,20.02,7.324,0.0,0
1581362584.762,8.301,-287.598,13.184000000000001,19.531,0.0,0
1581362584.766,5.859,-606.934,15.625,18.066,0.0,0
1581362584.77,13.184000000000001,-512.207,15.137,10.742,0.0,0
1581362584.774,11.719000000000001,-375.0,10.254000000000001,17.578,0.0,0
1581362584.7779999,0.488,-552.734,10.254000000000001,29.296999999999997,0.0,0
1581362584.7810001,22.461,-706.543,20.508000000000006,35.645,0.0,0
1581362584.785,31.25,-473.145,27.344,23.438000000000002,0.0,0
1581362584.789,27.831999999999997,-171.875,24.414,25.391,0.0,0
1581362584.793,40.527,-266.60200000000003,22.949,32.715,0.0,0
1581362584.7970002,31.25,-384.277,23.926,25.879,0.0,0
1581362584.799,13.184000000000001,-244.141,26.855,25.879,0.0,0
1581362584.803,9.277000000000001,-164.551,29.785,20.996,0.0,0
1581362584.8070002,7.812,-396.973,29.785,22.461,0.0,0
1581362584.811,8.301,-405.76199999999994,22.461,33.203,0.0,0
1581362584.815,1.953,-197.75400000000002,10.254000000000001,26.855,0.0,0
1581362584.819,17.578,-318.848,15.137,21.97300000000001,0.0,0
1581362584.823,39.062,-666.992,34.18,26.366999999999997,0.0,0
1581362584.826,22.461,-705.078,41.504,24.901999999999997,0.0,0
1581362584.83,9.277000000000001,-351.56199999999984,30.761999999999997,14.16,0.0,0
1581362584.8339999,-2.93,-267.578,27.831999999999997,6.836,0.0,0
1581362584.8379998,-11.719000000000001,-396.48400000000004,30.761999999999997,7.812,0.0,0
1581362584.842,2.441,-377.441,26.366999999999997,16.602,0.0,0
1581362584.859,20.02,-251.465,22.949,20.508000000000006,0.0,0
1581362584.863,11.23,-220.703,24.901999999999997,12.695,0.0,0
1581362584.867,5.859,-323.242,22.949,7.324,0.0,0
1581362584.871,2.441,-328.61300000000006,22.949,17.578,0.0,0
1581362584.875,-5.371,-243.16400000000002,28.809,19.531,0.0,0
1581362584.879,9.277000000000001,-411.13300000000004,32.227,17.09,0.0,0
1581362584.883,6.836,-717.773,29.785,16.602,0.0,0
1581362584.8860002,-16.602,-478.51599999999996,23.926,15.137,0.0,0
1581362584.89,-12.695,-229.00400000000002,21.97300000000001,20.508000000000006,0.0,0
1581362584.894,-15.625,-381.836,24.901999999999997,13.672,0.0,0
1581362584.8979998,-4.883,-434.082,26.855,11.719000000000001,0.0,0
1581362584.9020002,-7.812,-298.828,26.855,16.113,0.0,0
1581362584.904,-23.438000000000002,-259.277,25.879,11.719000000000001,0.0,0
1581362584.908,-6.836,-409.18,34.18,14.16,0.0,0
1581362584.9120002,-11.719000000000001,-392.09,28.32,-4.395,0.0,0
1581362584.9160001,-15.625,-227.53900000000002,20.02,-27.831999999999997,0.0,0
1581362584.92,-11.719000000000001,-296.875,41.504,-7.324,0.0,0
1581362584.924,-47.852,-446.289,39.551,-27.831999999999997,0.0,0
1581362584.928,-62.012,-520.996,47.852,-61.523,0.0,0
1581362584.931,-72.75399999999998,-380.371,58.105,-81.543,0.0,0
1581362584.935,-129.88299999999998,-455.07800000000003,34.18,-125.488,0.0,0
1581362584.939,-137.207,-839.355,44.922,-135.74200000000002,0.0,0
1581362584.9429998,-138.184,-801.27,57.129,-162.59799999999996,0.0,0
1581362584.947,-190.43,-485.84,53.223,-206.055,0.0,0
1581362584.949,-228.516,-468.26199999999994,57.617,-226.074,0.0,0
1581362584.9529998,-241.699,-572.266,67.383,-239.74599999999998,0.0,0
1581362584.957,-279.785,-486.816,68.848,-270.02,0.0,0
1581362584.961,-306.152,-402.832,64.453,-301.758,0.0,0
1581362584.965,-310.547,-493.164,67.87100000000001,-307.617,0.0,0
1581362584.9689999,-305.664,-739.7460000000003,74.707,-297.8520000000001,0.0,0
1581362584.9729998,-298.34,-755.8589999999997,72.75399999999998,-293.945,0.0,0
1581362584.976,-311.52299999999997,-397.461,65.918,-301.27,0.0,0
1581362584.98,-301.27,-459.473,62.988,-300.781,0.0,0
1581362584.984,-287.1090000000001,-815.43,69.824,-279.297,0.0,0
1581362584.988,-296.387,-708.9839999999997,68.359,-271.48400000000004,0.0,0
1581362584.992,-279.785,-579.102,67.383,-274.902,0.0,0
1581362584.994,-238.28099999999998,-531.25,64.941,-250.488,0.0,0
1581362584.998,-212.40200000000002,-494.14099999999996,62.988,-214.84400000000002,0.0,0
1581362585.002,-217.285,-415.527,65.918,-194.33599999999998,0.0,0
1581362585.006,-186.523,-358.398,59.57,-174.805,0.0,0
1581362585.01,-147.461,-400.879,48.34,-146.484,0.0,0
1581362585.014,-134.27700000000002,-553.2230000000002,32.227,-119.141,0.0,0
1581362585.018,-104.492,-634.766,25.879,-93.75,0.0,0
1581362585.0210001,-82.52,-449.219,27.344,-74.707,0.0,0
1581362585.025,-49.805,-581.543,22.461,-64.941,0.0,0
1581362585.029,-32.715,-708.9839999999997,21.484,-43.457,0.0,0
1581362585.033,-38.574,-340.332,24.901999999999997,-15.137,0.0,0
1581362585.0370002,-15.625,-335.9380000000001,20.02,-0.488,0.0,0
1581362585.039,6.348,-369.14099999999996,14.16,7.812,0.0,0
1581362585.043,15.137,-369.629,14.648,28.32,0.0,0
1581362585.0470002,17.578,-392.57800000000003,17.09,55.176,0.0,0
1581362585.051,38.086,-344.727,17.09,65.918,0.0,0
1581362585.055,45.898,-394.531,11.719000000000001,66.895,0.0,0
1581362585.059,62.988,-438.965,11.23,81.055,0.0,0
1581362585.063,77.637,-486.32800000000003,14.16,106.934,0.0,0
1581362585.066,94.727,-626.953,18.555,128.418,0.0,0
1581362585.07,112.79299999999999,-715.82,20.508000000000006,132.32399999999998,0.0,0
1581362585.074,118.164,-388.184,18.555,123.535,0.0,0
1581362585.0779998,118.652,-144.043,17.578,129.88299999999998,0.0,0
1581362585.082,115.723,-433.105,14.16,139.16,0.0,0
1581362585.0839999,119.141,-633.3009999999998,13.672,136.23,0.0,0
1581362585.0879998,106.445,-272.949,8.789,130.371,0.0,0
1581362585.092,96.191,-162.59799999999996,1.953,126.465,0.0,0
1581362585.096,103.516,-294.434,-1.465,134.766,0.0,0
1581362585.1,120.605,-346.68,3.906,138.184,0.0,0
1581362585.1039999,125.0,-387.207,11.23,130.859,0.0,0
1581362585.1079998,111.32799999999999,-410.645,16.113,132.812,0.0,0
1581362585.111,108.887,-645.996,17.578,137.207,0.0,0
1581362585.115,105.95700000000001,-637.207,18.066,139.16,0.0,0
1581362585.119,111.32799999999999,-172.852,14.16,130.859,0.0,0
1581362585.123,126.465,-140.137,1.465,121.094,0.0,0
1581362585.127,120.117,-319.824,-0.488,120.117,0.0,0
1581362585.1279998,110.352,-280.27299999999997,7.324,124.512,0.0,0
1581362585.1320002,134.27700000000002,-156.738,12.207,127.441,0.0,0
1581362585.1360002,120.117,-267.09,9.277000000000001,122.07,0.0,0
1581362585.14,99.609,-418.457,5.859,118.652,0.0,0
1581362585.144,118.164,-348.145,6.836,120.605,0.0,0
1581362585.1479998,113.281,-437.01199999999994,-3.418,118.164,0.0,0
1581362585.1520002,99.609,-625.0,2.93,107.91,0.0,0
1581362585.155,94.238,-834.961,21.484,104.00399999999999,0.0,0
1581362585.159,81.543,-605.469,17.578,103.516,0.0,0
1581362585.1629999,70.801,-272.461,14.648,98.145,0.0,0
1581362585.167,79.59,-334.473,21.97300000000001,99.609,0.0,0
1581362585.171,91.309,-322.754,17.578,99.609,0.0,0
1581362585.1729999,93.262,-231.445,9.277000000000001,91.79700000000001,0.0,0
1581362585.177,85.93799999999996,-233.887,16.113,91.309,0.0,0
1581362585.181,86.426,-333.496,13.672,83.008,0.0,0
1581362585.185,73.242,-338.379,7.812,66.895,0.0,0
1581362585.189,76.66,-270.996,14.16,64.941,0.0,0
1581362585.1929998,90.33200000000001,-416.99199999999996,20.02,77.148,0.0,0
1581362585.197,87.402,-769.5310000000003,23.438000000000002,83.008,0.0,0
1581362585.2,91.309,-771.4839999999997,17.09,77.148,0.0,0
1581362585.204,72.266,-386.23,11.719000000000001,71.777,0.0,0
1581362585.208,50.293,-283.203,12.207,64.941,0.0,0
1581362585.2120001,56.64100000000001,-441.895,12.207,58.105,0.0,0
1581362585.216,65.43,-545.898,14.16,50.78100000000001,0.0,0
1581362585.248,68.359,-330.566,6.348,48.34,0.0,0
