timestamps,TP9,AF7,AF8,TP10,Right AUX,Marker0
1556049151.993,39.551,-972.168,-5.371,30.273,134.766,0
1556049151.997,-5.371,-972.168,-4.883,26.855,125.977,0
1556049152.001,7.324,-972.168,-5.371,16.602,118.652,0
1556049152.005,49.316,-972.168,-7.812,17.090,100.098,0
1556049152.009,53.711,-972.168,-3.418,22.461,110.840,0
1556049152.013,17.578,-972.168,-0.488,23.926,111.816,0
1556049152.017,-1.465,-972.656,-5.371,20.020,81.055,0
1556049152.020,28.320,-972.168,-8.789,20.020,81.055,0
1556049152.024,49.316,-972.168,-9.766,16.602,98.633,0
1556049152.028,21.484,-972.656,-9.277,-0.488,76.172,0
1556049152.032,-4.395,-972.656,-9.277,5.859,68.848,0
1556049152.036,21.484,-972.168,-6.348,15.625,88.867,0
1556049152.038,46.875,-972.168,-3.906,4.395,97.168,0
1556049152.042,27.344,-972.168,-5.859,6.348,76.172,0
1556049152.046,-12.695,-972.168,-6.348,8.301,65.430,0
1556049152.050,1.953,-972.656,-7.324,-4.395,42.969,0
1556049152.054,43.457,-972.168,-6.836,-5.859,51.270,0
1556049152.058,28.320,-972.168,-7.812,2.441,69.824,0
1556049152.062,-4.395,-972.168,-7.812,11.719,46.387,0
1556049152.065,1.465,-972.168,-2.930,19.531,36.133,0
1556049152.069,31.250,-972.168,-4.395,-1.465,-20.020,0
1556049152.073,32.715,-972.656,-15.137,-25.391,-18.555,0
1556049152.077,-11.719,-972.168,-15.137,-20.508,27.832,0
1556049152.081,-29.297,-972.168,-11.230,-19.531,-0.977,0
1556049152.083,8.789,-972.656,-15.137,-21.973,-12.207,0
1556049152.087,22.949,-972.168,-17.090,-21.973,-5.859,0
1556049152.091,-12.207,-972.656,-15.625,-18.555,-24.902,0
1556049152.095,-36.133,-972.656,-11.230,-5.371,-36.621,0
1556049152.099,3.906,-972.168,-8.301,-1.953,-51.270,0
1556049152.103,43.945,-972.168,-11.230,3.418,-62.988,0
1556049152.107,21.973,-972.168,-8.789,9.766,-50.781,0
1556049152.110,-17.090,-972.656,-2.930,3.418,-59.082,0
1556049152.114,1.465,-972.168,-3.418,-0.977,-51.758,0
1556049152.118,41.016,-972.656,-4.883,-1.953,-34.180,0
1556049152.122,31.738,-972.656,-2.930,0.977,-38.086,0
1556049152.126,-5.371,-972.656,-2.441,7.812,-20.508,0
1556049152.128,-6.348,-972.656,-5.859,11.230,-14.648,0
1556049152.132,35.645,-972.168,-4.883,8.789,-2.441,0
1556049152.136,49.805,-972.168,-1.953,9.277,7.324,0
1556049152.140,13.672,-972.168,-0.488,6.836,-34.180,0
1556049152.144,0.488,-972.168,-0.488,6.348,-30.273,0
1556049152.148,42.969,-972.168,0.000,15.137,-4.883,0
1556049152.152,62.988,-972.168,-4.883,11.230,-23.438,0
1556049152.155,27.832,-972.656,-7.324,2.930,-27.344,0
1556049152.159,-0.977,-972.168,-7.812,3.906,-20.508,0
1556049152.163,26.855,-972.168,-4.883,16.602,-22.949,0
1556049152.167,57.129,-972.656,-3.418,17.578,-16.602,0
1556049152.171,39.062,-972.656,-2.441,15.137,2.441,0
1556049152.173,0.000,-972.656,1.465,19.043,17.090,0
1556049152.177,13.184,-972.168,0.977,16.113,5.859,0
1556049152.181,44.434,-972.168,2.441,19.043,-3.418,0
1556049152.185,37.109,-972.168,2.441,18.555,-4.883,0
1556049152.189,4.883,-972.168,0.488,15.137,-6.348,0
1556049152.193,1.953,-972.168,0.977,20.020,-7.812,0
1556049152.197,36.133,-972.656,-2.441,22.461,-19.531,0
1556049152.200,42.480,-972.656,-3.906,17.578,-13.184,0
1556049152.204,16.113,-972.168,-2.441,16.602,-16.113,0
1556049152.208,-1.465,-972.168,-3.418,22.949,-13.184,0
1556049152.212,26.367,-972.656,-4.883,16.113,-19.531,0
1556049152.216,50.781,-972.656,-3.418,15.137,-28.320,0
1556049152.218,19.043,-972.168,0.977,18.066,9.277,0
1556049152.222,-6.348,-972.168,0.977,13.184,-10.742,0
1556049152.226,20.020,-972.168,-3.418,9.277,-58.594,0
1556049152.230,44.922,-972.168,-3.906,2.930,-42.969,0
1556049152.234,25.391,-972.168,-0.977,-0.488,-21.973,0
1556049152.238,-10.254,-972.168,-0.977,9.766,-64.941,0
1556049152.242,-1.953,-972.168,-4.883,-0.488,-77.637,0
1556049152.245,42.969,-972.168,-5.371,-8.789,-74.707,0
1556049152.249,43.945,-972.168,-0.977,11.230,-87.891,0
1556049152.253,3.906,-972.168,1.953,11.719,-62.012,0
1556049152.257,-2.441,-972.656,-2.441,-2.441,-78.125,0
1556049152.261,30.762,-972.168,-8.301,-4.395,-80.078,0
1556049152.263,53.711,-972.168,-7.324,3.906,-56.152,0
1556049152.267,22.461,-972.168,-7.324,-1.953,-73.730,0
1556049152.271,-9.277,-972.168,-5.859,-8.301,-72.754,0
1556049152.275,19.531,-972.656,-4.395,-4.395,-74.219,0
1556049152.279,52.734,-972.656,-4.395,-2.441,-71.777,0
1556049152.283,30.762,-972.168,-5.371,-3.418,-65.918,0
1556049152.287,-6.836,-972.168,-2.441,8.301,-58.594,0
1556049152.290,13.184,-972.656,-3.418,4.395,-55.664,0
1556049152.294,51.758,-972.656,-5.859,4.883,-54.199,0
1556049152.298,37.109,-972.168,-5.371,9.766,-47.852,0
1556049152.302,0.000,-972.168,-4.395,7.812,-38.086,0
1556049152.306,4.883,-972.656,-4.883,13.184,1.465,0
1556049152.323,39.062,-972.656,-4.883,7.812,-3.418,0
1556049152.327,44.434,-972.168,-0.977,11.230,-22.461,0
1556049152.331,7.812,-972.168,0.977,11.230,-4.883,0
1556049152.335,2.441,-972.168,2.441,6.836,-12.695,0
1556049152.339,42.480,-972.168,1.465,13.184,2.930,0
1556049152.343,52.734,-972.168,-2.441,15.137,-4.883,0
1556049152.347,17.090,-972.168,-0.488,10.254,-6.836,0
1556049152.350,-4.395,-972.168,1.465,8.789,10.742,0
1556049152.354,27.344,-972.168,-2.930,8.789,16.113,0
1556049152.358,52.734,-972.168,-4.395,5.859,22.461,0
1556049152.362,25.879,-972.656,-1.465,8.301,32.227,0
1556049152.366,-4.883,-972.168,1.465,8.789,30.273,0
1556049152.368,12.695,-972.168,3.418,8.301,-10.254,0
1556049152.372,46.387,-972.656,3.906,16.113,0.977,0
1556049152.376,41.504,-972.168,0.977,20.020,-9.766,0
1556049152.380,9.277,-972.168,5.859,23.438,-19.531,0
1556049152.384,6.836,-972.168,5.859,21.484,8.301,0
1556049152.388,33.691,-972.168,1.953,11.719,-21.973,0
1556049152.392,29.785,-972.168,0.977,1.953,-12.695,0
1556049152.395,-7.812,-972.168,-3.906,-15.625,18.555,0
1556049152.399,-18.555,-972.168,-4.395,-15.137,-2.930,0
1556049152.403,18.555,-972.168,-3.418,-9.277,-28.809,0
1556049152.407,30.762,-972.168,0.000,-4.395,0.000,0
1556049152.411,0.000,-972.168,4.883,-0.488,-8.789,0
1556049152.413,-17.578,-972.168,8.789,4.395,-5.371,0
1556049152.417,8.301,-972.656,4.883,1.953,-10.742,0
1556049152.421,36.133,-972.656,1.953,-3.418,-5.371,0
1556049152.425,18.066,-972.168,5.371,-3.418,-7.324,0
1556049152.429,-18.066,-972.656,6.348,0.977,-50.781,0
1556049152.433,0.000,-972.656,4.395,3.906,-40.527,0
1556049152.437,42.969,-972.656,-0.488,4.395,-36.621,0
1556049152.440,37.109,-972.168,1.953,11.719,-36.621,0
1556049152.444,-7.324,-972.168,5.859,2.930,-56.641,0
1556049152.448,-7.324,-972.168,2.930,-2.441,-44.922,0
1556049152.452,41.504,-972.656,1.465,1.465,-7.324,0
1556049152.456,47.852,-972.656,5.859,5.859,-40.039,0
1556049152.459,7.324,-972.168,7.812,4.883,-66.406,0
1556049152.463,-9.277,-972.168,4.883,4.883,-56.641,0
1556049152.467,20.020,-972.656,2.930,5.859,-16.113,0
1556049152.471,37.109,-972.656,1.953,-0.977,-5.859,0
1556049152.475,16.602,-972.168,1.953,2.441,-25.879,0
1556049152.479,-10.742,-972.168,3.418,13.672,-21.484,0
1556049152.483,7.812,-972.656,4.395,6.836,-7.324,0
1556049152.486,44.922,-972.656,4.883,3.906,-18.066,0
1556049152.490,28.320,-972.656,3.418,-1.465,-10.742,0
1556049152.494,-11.719,-972.656,3.906,-4.395,4.395,0
1556049152.498,1.465,-972.168,6.348,8.789,7.812,0
1556049152.502,47.852,-972.656,6.348,14.648,8.301,0
1556049152.504,53.711,-972.168,7.324,18.555,-3.906,0
1556049152.508,16.602,-972.168,10.254,22.461,18.066,0
1556049152.512,4.883,-972.168,11.719,16.602,40.039,0
1556049152.516,38.574,-972.656,9.766,16.602,31.250,0
1556049152.520,54.688,-972.168,9.277,20.508,45.898,0
1556049152.524,25.879,-972.168,8.789,11.230,57.617,0
1556049152.528,5.371,-972.656,5.371,17.090,71.289,0
1556049152.531,38.086,-972.168,5.371,26.367,54.199,0
1556049152.535,65.430,-972.168,8.301,14.160,20.508,0
1556049152.539,37.109,-972.168,11.230,9.766,49.805,0
1556049152.543,5.859,-972.656,13.672,24.902,60.547,0
1556049152.547,18.555,-972.168,15.137,25.879,26.367,0
1556049152.551,52.734,-972.168,12.207,19.531,33.203,0
1556049152.555,49.316,-972.656,13.184,21.484,36.621,0
1556049152.559,14.160,-972.656,15.625,22.461,31.738,0
1556049152.563,15.625,-972.168,14.648,20.508,16.113,0
1556049152.567,54.688,-972.656,15.625,22.949,-8.789,0
1556049152.571,54.199,-972.656,17.578,27.344,5.371,0
1556049152.575,9.766,-972.168,16.602,29.785,15.137,0
1556049152.578,7.324,-972.168,14.160,31.250,5.859,0
1556049152.582,37.598,-972.656,15.625,14.648,-1.953,0
1556049152.586,44.434,-972.168,17.090,5.371,9.766,0
1556049152.590,14.160,-972.168,14.160,17.090,-0.977,0
1556049152.594,-11.230,-972.656,16.113,17.578,-8.789,0
1556049152.594,17.090,-972.168,14.160,11.230,3.418,0
1556049152.598,43.457,-972.656,13.672,9.766,-25.391,0
1556049152.602,15.625,-972.656,15.137,10.742,-52.246,0
1556049152.606,-15.625,-972.168,12.207,12.207,-41.016,0
1556049152.610,11.719,-972.656,8.789,4.395,-35.645,0
1556049152.614,50.781,-972.656,7.812,7.324,-61.523,0
1556049152.618,36.133,-972.168,11.230,8.789,-73.730,0
1556049152.621,3.418,-972.168,13.672,8.789,-82.520,0
1556049152.625,7.812,-972.168,11.719,18.066,-86.914,0
1556049152.629,44.922,-972.168,9.277,19.531,-81.543,0
1556049152.633,56.152,-972.168,8.301,21.973,-64.941,0
1556049152.637,15.625,-972.168,7.324,19.043,-55.176,0
1556049152.639,-2.441,-972.168,6.348,11.719,-31.250,0
1556049152.643,41.016,-972.168,3.906,19.531,-5.859,0
1556049152.647,57.617,-972.168,1.953,22.461,-26.855,0
1556049152.651,24.414,-972.168,2.441,14.160,-26.855,0
1556049152.655,-1.465,-972.168,0.977,17.578,6.348,0
1556049152.659,28.809,-972.168,1.953,20.020,-20.996,0
1556049152.663,59.570,-972.168,3.906,23.438,-56.152,0
1556049152.666,40.039,-972.168,7.324,20.508,-34.668,0
1556049152.670,8.789,-972.168,7.812,16.602,-29.297,0
1556049152.674,20.996,-972.168,5.371,20.508,-15.625,0
1556049152.678,57.129,-972.168,2.441,9.277,19.531,0
1556049152.682,51.758,-972.168,5.371,10.254,8.301,0
1556049152.699,6.348,-972.168,8.789,21.973,2.441,0
1556049152.703,5.371,-972.168,6.348,20.996,-17.578,0
1556049152.707,50.293,-972.168,5.371,14.648,-10.742,0
1556049152.711,56.152,-972.168,5.859,6.836,15.625,0
1556049152.715,17.090,-972.168,7.812,16.602,13.184,0
1556049152.719,-3.906,-972.168,5.371,22.461,-6.836,0
1556049152.723,26.367,-972.168,0.488,17.090,-13.184,0
1556049152.726,49.805,-972.168,-0.488,16.113,12.207,0
1556049152.730,28.320,-972.168,0.977,21.484,16.602,0
1556049152.734,-0.488,-972.168,3.418,18.555,-7.324,0
1556049152.738,21.973,-972.168,4.395,6.348,-4.883,0
1556049152.742,56.152,-972.656,2.441,7.324,8.789,0
1556049152.744,43.457,-972.168,4.883,18.066,-22.949,0
1556049152.748,17.578,-972.168,7.324,20.020,-26.855,0
1556049152.752,16.113,-972.168,9.277,16.602,-3.906,0
1556049152.756,42.480,-972.168,8.301,14.160,-5.371,0
1556049152.760,51.270,-972.168,2.930,11.719,-16.602,0
1556049152.764,20.020,-972.168,5.859,21.973,-32.715,0
1556049152.768,2.441,-972.168,9.766,27.344,-19.043,0
1556049152.771,31.250,-972.168,7.812,23.926,-8.789,0
1556049152.775,48.828,-972.168,8.301,19.043,-42.480,0
1556049152.779,19.531,-972.168,5.371,0.000,-66.895,0
1556049152.783,0.977,-972.168,4.883,7.812,-44.434,0
1556049152.787,32.715,-972.168,9.766,20.020,-19.043,0
1556049152.789,56.152,-972.656,9.277,17.578,-25.391,0
1556049152.793,28.320,-972.168,7.812,15.137,5.859,0
1556049152.797,-5.859,-972.168,9.277,18.555,24.414,0
1556049152.801,11.230,-972.168,9.766,16.113,-11.719,0
1556049152.805,44.434,-972.168,11.230,15.137,-56.152,0
1556049152.809,38.086,-972.168,12.695,18.555,-75.684,0
1556049152.813,-5.371,-972.656,11.719,12.695,-45.898,0
1556049152.816,-2.930,-972.168,12.207,9.766,-32.715,0
1556049152.820,36.621,-972.168,9.766,8.789,-41.504,0
1556049152.824,32.227,-972.168,6.836,10.254,-13.672,0
1556049152.828,-2.441,-972.168,6.836,15.625,-32.227,0
1556049152.832,-6.836,-972.168,5.859,18.555,-63.477,0
1556049152.834,29.297,-972.168,3.418,16.113,-52.246,0
1556049152.838,37.598,-972.168,2.930,14.648,-20.996,0
1556049152.842,11.719,-972.168,4.883,17.090,-24.414,0
1556049152.846,-16.113,-972.168,6.348,13.184,-32.227,0
1556049152.850,12.695,-972.168,6.348,10.742,-24.414,0
1556049152.854,54.199,-972.656,5.859,15.137,-15.137,0
1556049152.858,34.180,-972.656,5.859,22.949,-3.906,0
1556049152.861,-0.488,-972.168,6.348,25.391,-8.789,0
1556049152.865,16.113,-972.168,5.859,18.555,-34.180,0
1556049152.869,55.664,-972.168,2.930,21.484,-8.789,0
1556049152.873,47.363,-972.168,0.488,26.855,29.785,0
1556049152.877,14.160,-972.168,1.465,25.879,45.898,0
1556049152.879,16.113,-972.168,1.465,30.762,40.039,0
1556049152.883,45.898,-972.656,-0.977,24.902,40.527,0
1556049152.887,57.129,-972.656,3.906,18.555,33.691,0
1556049152.891,27.832,-972.168,8.301,22.461,7.812,0
1556049152.895,11.719,-972.168,7.812,26.855,34.180,0
1556049152.899,47.852,-972.168,4.883,22.949,36.621,0
1556049152.903,67.383,-972.656,3.418,23.438,0.488,0
1556049152.906,33.203,-972.168,8.789,21.973,-8.789,0
1556049152.910,-1.465,-972.168,9.766,23.438,7.812,0
1556049152.914,21.973,-972.168,4.395,23.926,23.926,0
1556049152.918,59.082,-972.168,7.324,21.973,31.738,0
1556049152.922,44.922,-972.656,12.207,24.414,10.742,0
1556049152.924,12.695,-972.168,14.160,30.273,5.859,0
1556049152.928,21.973,-972.168,12.207,26.855,36.621,0
1556049152.932,52.734,-972.168,10.742,12.695,13.672,0
1556049152.936,45.898,-972.168,12.207,10.742,-6.836,0
1556049152.940,10.742,-972.168,14.648,17.090,-8.789,0
1556049152.944,5.859,-972.168,14.648,21.973,-22.949,0
1556049152.948,44.434,-972.656,13.672,15.137,-45.410,0
1556049152.951,54.688,-972.168,13.672,-5.371,-45.898,0
1556049152.955,15.625,-972.168,10.742,-7.324,-14.160,0
1556049152.959,0.977,-972.168,12.207,4.395,-31.738,0
1556049152.963,36.621,-972.168,13.672,13.672,-43.945,0
1556049152.967,59.570,-972.168,10.254,17.578,-45.898,0
1556049152.968,29.785,-972.168,9.277,15.625,-64.453,0
1556049152.972,3.906,-972.168,12.695,15.625,-57.617,0
1556049152.976,23.438,-972.168,14.648,6.348,-34.180,0
1556049152.980,48.828,-972.168,14.160,2.930,-40.527,0
1556049152.984,38.086,-972.168,13.672,15.625,-46.875,0
1556049152.988,4.395,-972.168,14.648,20.020,-18.066,0
1556049152.992,11.719,-972.168,13.184,16.602,-32.227,0
1556049152.995,53.711,-972.168,11.230,15.137,-53.223,0
1556049152.999,57.617,-972.168,14.648,20.020,-23.438,0
1556049153.003,17.090,-972.168,11.719,18.555,-20.020,0
1556049153.007,11.719,-972.168,9.277,10.254,-33.691,0
1556049153.011,51.270,-972.168,12.695,16.113,-52.246,0
1556049153.014,61.523,-972.168,12.695,25.879,-19.531,0
1556049153.018,28.809,-972.656,15.137,26.855,5.859,0
1556049153.022,3.906,-972.656,15.137,26.855,-14.648,0
1556049153.026,36.133,-972.168,12.695,21.484,-4.883,0
1556049153.030,65.430,-972.168,11.719,19.043,-21.973,0
1556049153.034,37.109,-972.168,14.648,23.438,-34.668,0
1556049153.038,-1.465,-972.168,12.207,9.277,-15.625,0
1556049153.041,17.090,-972.168,9.277,7.812,2.441,0
1556049153.045,55.664,-972.168,13.672,17.578,18.066,0
1556049153.049,44.434,-972.168,10.742,14.160,14.648,0
1556049153.053,6.836,-972.168,10.742,19.531,12.207,0
1556049153.057,11.230,-972.656,11.719,26.367,33.203,0
1556049153.074,55.176,-972.168,13.184,31.250,18.555,0
1556049153.078,56.152,-972.168,17.090,22.461,12.695,0
1556049153.082,6.348,-972.168,15.137,15.137,38.086,0
1556049153.086,-5.371,-972.168,12.207,10.254,48.828,0
1556049153.090,22.461,-972.168,14.648,-7.324,55.176,0
1556049153.094,18.066,-972.168,16.602,-20.020,47.363,0
1556049153.098,-28.320,-972.168,18.066,-21.973,43.945,0
1556049153.101,-64.941,-972.168,20.508,-39.551,40.039,0
1556049153.105,-45.898,-972.656,18.555,-57.129,28.320,0
1556049153.109,-27.832,-972.656,16.602,-72.266,22.461,0
1556049153.113,-62.012,-972.656,18.066,-91.309,-0.977,0
1556049153.117,-104.980,-972.656,24.902,-92.773,2.930,0
1556049153.119,-91.309,-972.168,29.297,-92.773,30.273,0
1556049153.123,-71.777,-972.168,31.250,-101.562,2.441,0
1556049153.127,-92.285,-972.656,30.762,-116.211,-5.859,0
1556049153.131,-126.465,-972.168,32.227,-122.559,19.043,0
1556049153.135,-130.371,-972.656,34.668,-134.766,-6.348,0
1556049153.139,-93.750,-972.656,36.133,-133.301,-48.828,0
1556049153.143,-87.891,-972.656,34.668,-120.605,-31.738,0
1556049153.146,-124.023,-972.656,32.227,-118.164,-12.695,0
1556049153.150,-141.602,-972.656,28.320,-117.676,-33.203,0
1556049153.154,-95.215,-972.656,26.367,-115.234,-64.941,0
1556049153.158,-51.270,-972.168,24.414,-95.703,-45.410,0
1556049153.162,-68.848,-972.656,16.602,-75.684,-9.277,0
1556049153.164,-77.637,-972.168,7.324,-49.316,-29.785,0
1556049153.168,-27.832,-972.168,5.371,-31.250,-60.059,0
1556049153.172,9.277,-972.656,3.418,-38.086,-32.227,0
1556049153.176,1.953,-972.168,4.395,-28.809,4.395,0
1556049153.180,-17.578,-972.168,9.277,-12.695,7.812,0
1556049153.184,-5.371,-972.168,7.324,-13.672,1.465,0
1556049153.188,41.992,-972.656,-4.395,-2.930,-3.906,0
1556049153.191,42.480,-972.656,-4.883,11.230,0.000,0
1556049153.195,-1.953,-972.656,7.324,8.301,0.000,0
1556049153.199,1.465,-972.168,9.277,13.672,1.953,0
1556049153.203,49.316,-972.656,1.465,28.320,29.785,0
1556049153.207,72.266,-972.168,2.930,44.922,10.742,0
1556049153.208,52.734,-972.168,4.883,54.199,15.137,0
1556049153.212,35.156,-972.168,2.441,64.453,73.242,0
1556049153.216,67.871,-972.656,-1.953,67.871,48.828,0
1556049153.220,101.074,-972.656,-4.395,61.523,19.531,0
1556049153.224,73.242,-972.168,1.465,64.453,-4.395,0
1556049153.228,50.293,-972.168,4.395,64.941,8.789,0
1556049153.232,68.848,-972.656,1.953,61.035,20.508,0
1556049153.235,96.191,-972.168,-0.977,62.500,24.414,0
1556049153.239,85.449,-972.656,2.441,58.105,3.906,0
1556049153.243,46.387,-972.656,2.930,62.988,-1.465,0
1556049153.247,54.688,-972.168,-2.930,68.359,47.363,0
1556049153.251,93.262,-972.168,-5.859,56.152,50.781,0
1556049153.253,85.938,-972.168,-5.371,55.176,49.805,0
1556049153.257,54.199,-972.168,-1.953,60.547,42.969,0
1556049153.261,63.965,-972.656,-3.418,68.848,41.016,0
1556049153.265,107.422,-972.656,-6.348,65.430,35.156,0
1556049153.269,117.188,-972.168,-2.930,51.270,-0.488,0
1556049153.273,74.219,-972.168,-4.883,49.316,-9.277,0
1556049153.277,48.340,-972.168,-7.812,60.059,-5.371,0
1556049153.280,83.008,-972.656,-8.789,61.523,-5.859,0
1556049153.284,102.051,-972.656,-4.883,53.223,-5.859,0
1556049153.288,69.824,-972.168,0.488,54.199,16.113,0
1556049153.292,40.527,-972.168,-1.953,56.641,-11.230,0
1556049153.296,49.316,-972.168,-0.977,61.523,1.465,0
1556049153.298,78.125,-972.656,2.930,59.570,22.949,0
1556049153.302,70.312,-972.656,8.301,59.570,-4.395,0
1556049153.306,34.180,-972.656,3.418,63.477,0.977,0
1556049153.310,45.898,-972.168,-4.883,63.965,6.348,0
1556049153.314,81.055,-972.656,0.488,64.941,-20.508,0
1556049153.318,80.078,-972.168,5.859,74.219,-42.969,0
1556049153.322,50.781,-972.168,8.301,75.684,-51.758,0
1556049153.325,35.645,-972.656,7.812,53.711,-30.273,0
1556049153.329,65.918,-972.656,6.836,44.434,-28.320,0
1556049153.333,80.078,-972.656,8.301,49.316,-66.895,0
1556049153.337,48.340,-972.168,10.254,49.805,-20.508,0
1556049153.341,31.250,-972.656,7.324,43.945,19.043,0
1556049153.343,58.594,-972.168,2.441,35.645,-22.461,0
1556049153.347,78.125,-972.168,0.488,29.785,-43.457,0
1556049153.351,55.664,-972.656,0.977,27.832,-38.086,0
1556049153.355,24.902,-972.656,4.395,34.668,18.066,0
1556049153.359,40.039,-972.168,2.441,36.133,77.637,0
1556049153.363,65.430,-972.656,5.371,35.156,59.570,0
1556049153.367,45.898,-972.168,12.207,23.438,-7.324,0
1556049153.370,8.789,-972.168,10.254,14.648,-27.344,0
1556049153.374,19.531,-972.168,8.301,28.809,16.602,0
1556049153.378,50.293,-972.168,8.301,36.133,44.922,0
1556049153.382,53.711,-972.656,9.766,41.504,21.484,0
1556049153.386,17.090,-972.168,12.695,39.062,6.836,0
1556049153.388,2.930,-972.168,13.672,38.086,22.461,0
1556049153.392,42.480,-972.656,13.672,38.086,43.945,0
1556049153.396,62.500,-972.168,14.648,43.457,32.715,0
1556049153.400,34.668,-972.168,16.113,48.340,8.789,0
1556049153.404,3.906,-972.656,15.625,37.109,-14.648,0
1556049153.408,23.438,-972.168,15.137,30.273,-11.719,2
1556049153.412,57.617,-972.656,15.137,23.926,48.828,0
1556049153.415,41.992,-972.168,10.742,14.160,72.266,0
1556049153.419,5.371,-972.168,8.301,17.090,81.543,0
1556049153.423,17.090,-972.656,6.836,18.555,50.293,0
1556049153.427,47.363,-972.168,5.371,12.207,41.504,0
1556049153.431,47.363,-972.168,10.742,12.695,44.922,0
1556049153.448,18.066,-972.168,14.648,14.160,2.441,0
1556049153.452,16.602,-972.168,11.719,12.695,-5.371,0
1556049153.456,53.223,-972.168,5.371,15.137,27.344,0
1556049153.460,52.246,-972.168,5.371,16.602,5.859,0
1556049153.464,25.391,-972.168,9.277,18.066,28.809,0
1556049153.468,17.578,-972.168,8.789,8.301,50.293,0
1556049153.472,32.227,-972.168,4.395,6.348,1.465,0
1556049153.475,46.387,-972.656,7.324,14.160,-20.508,0
1556049153.479,27.832,-972.656,10.254,16.113,-11.230,0
1556049153.483,-11.230,-972.168,12.207,10.742,-10.254,0
1556049153.487,6.348,-972.656,11.230,9.277,-31.250,0
1556049153.491,37.598,-972.168,11.230,18.555,-41.992,0
1556049153.493,22.949,-972.168,11.719,18.555,-63.477,0
1556049153.497,-3.906,-972.656,11.719,24.414,-63.965,0
1556049153.501,6.836,-972.168,8.789,30.762,0.488,0
1556049153.505,53.223,-972.168,5.371,41.504,21.973,0
1556049153.509,43.945,-972.168,3.906,34.180,27.344,0
1556049153.513,0.000,-972.168,-1.465,20.020,19.531,0
1556049153.517,0.488,-972.656,3.418,20.020,-39.062,0
1556049153.520,38.086,-972.656,10.742,6.836,-20.020,0
1556049153.524,52.734,-972.656,-1.465,12.695,19.043,0
1556049153.528,18.555,-972.656,-11.230,2.441,23.438,0
1556049153.532,-1.465,-972.168,-6.836,1.465,-11.719,0
1556049153.536,22.949,-972.168,-5.371,11.719,4.395,0
1556049153.538,53.223,-972.656,-2.930,8.301,36.621,0
1556049153.542,33.203,-972.656,0.488,8.789,-1.465,0
1556049153.546,9.766,-972.656,0.488,10.742,5.371,0
1556049153.550,46.875,-972.168,-2.930,12.207,4.395,0
1556049153.554,89.844,-972.168,-4.395,13.184,-27.344,0
1556049153.558,87.402,-972.656,-0.488,14.648,-3.418,0
1556049153.562,55.176,-972.168,-0.977,16.113,-19.043,0
1556049153.565,54.688,-972.656,-1.953,23.438,-7.812,0
1556049153.569,82.031,-972.656,-3.418,11.719,0.488,0
1556049153.573,68.848,-972.168,-2.441,6.836,-24.414,0
1556049153.577,-11.230,-972.656,2.441,27.832,12.695,0
1556049153.581,-42.480,-972.168,3.418,26.855,0.488,0
1556049153.584,1.953,-972.168,2.930,19.043,-28.320,0
1556049153.588,23.438,-972.168,5.371,21.484,29.297,0
1556049153.592,4.395,-972.656,6.836,34.180,48.828,0
1556049153.596,-7.812,-972.656,3.906,37.109,19.531,0
1556049153.600,19.531,-972.656,-0.488,25.879,-8.301,0
1556049153.604,48.340,-972.168,1.465,24.902,-33.203,0
1556049153.608,36.133,-972.656,6.348,32.715,20.508,0
1556049153.611,8.789,-972.656,10.742,36.133,76.172,0
1556049153.615,20.508,-972.168,10.742,33.203,21.484,0
1556049153.619,48.828,-972.656,8.789,33.691,55.664,0
1556049153.623,42.969,-972.656,7.812,36.621,55.664,0
1556049153.627,10.254,-972.168,7.812,27.344,0.000,0
1556049153.629,8.789,-972.168,9.766,13.184,38.574,0
1556049153.633,56.152,-972.168,9.766,9.277,57.129,0
1556049153.637,61.035,-972.168,8.301,2.441,24.902,0
1556049153.641,11.230,-972.656,7.812,7.812,1.953,0
1556049153.645,-0.977,-972.656,10.742,13.672,22.461,0
1556049153.649,36.133,-972.168,14.648,12.207,20.020,0
1556049153.653,59.082,-972.656,11.230,16.602,-15.137,0
1556049153.656,26.855,-972.656,13.672,7.812,19.531,0
1556049153.660,-0.977,-972.168,17.090,4.395,53.711,0
1556049153.664,27.832,-972.168,11.719,8.301,22.949,0
1556049153.668,50.293,-972.656,9.766,7.812,16.113,0
1556049153.672,27.832,-972.168,11.230,4.883,34.668,0
1556049153.674,-6.836,-972.656,12.207,3.906,16.113,0
1556049153.678,10.742,-972.656,13.184,2.441,32.715,0
1556049153.682,53.223,-972.168,14.648,0.488,25.879,0
1556049153.686,39.551,-972.656,14.648,4.395,6.348,0
1556049153.690,0.488,-972.656,17.578,-1.465,26.367,0
1556049153.694,12.207,-972.168,14.160,6.348,26.367,0
1556049153.698,63.477,-972.168,9.766,22.949,23.438,0
1556049153.701,55.176,-972.168,13.184,9.766,49.805,0
1556049153.705,8.301,-972.168,22.949,3.906,71.777,0
1556049153.709,2.441,-972.168,20.996,15.137,80.078,0
1556049153.713,27.832,-972.656,12.695,7.812,53.223,0
1556049153.717,35.645,-972.168,13.184,3.418,9.766,0
1556049153.718,4.883,-972.168,13.672,-4.883,6.836,0
1556049153.722,-23.438,-972.168,15.137,-7.324,8.789,0
1556049153.726,-1.465,-972.168,19.043,1.465,17.090,0
1556049153.730,30.273,-972.168,15.625,-1.953,18.555,0
1556049153.734,20.020,-972.168,14.160,0.977,37.109,0
1556049153.738,-17.090,-972.656,20.508,20.508,26.855,0
1556049153.742,-2.441,-972.168,21.973,26.367,47.852,0
1556049153.745,37.598,-972.656,18.555,10.742,80.078,0
1556049153.749,35.156,-972.168,18.066,17.578,64.453,0
1556049153.753,0.488,-972.168,18.066,26.855,63.965,0
1556049153.757,-0.977,-972.168,16.602,20.508,52.246,0
1556049153.761,40.527,-972.168,19.531,21.973,35.156,0
1556049153.764,51.758,-972.168,19.043,19.531,40.527,0
1556049153.768,13.184,-972.656,13.672,3.418,7.812,0
1556049153.772,-8.789,-972.168,15.137,4.395,4.395,0
1556049153.776,16.602,-972.168,14.648,12.695,16.602,0
1556049153.780,38.086,-972.656,11.719,4.883,15.625,0
1556049153.784,21.973,-972.168,18.555,0.977,46.387,0
1556049153.788,-13.184,-972.168,19.043,-5.859,6.348,0
1556049153.791,-1.953,-972.656,16.113,-8.301,12.695,0
1556049153.795,49.316,-972.656,19.043,2.930,74.219,0
1556049153.799,42.969,-972.168,18.555,11.230,48.340,0
1556049153.803,0.488,-972.168,15.137,17.090,50.781,0
1556049153.807,2.441,-972.656,15.137,10.742,55.664,0
1556049153.824,29.785,-972.168,14.648,7.324,22.461,0
1556049153.828,32.715,-972.168,11.719,8.789,1.953,0
1556049153.832,2.441,-972.656,12.207,15.625,-22.461,0
1556049153.836,-7.324,-972.656,13.184,15.137,24.414,0
1556049153.840,27.344,-972.168,12.695,7.324,55.176,0
1556049153.844,43.457,-972.168,10.742,9.766,-3.906,0
1556049153.848,18.066,-972.656,11.230,10.742,20.508,0
1556049153.851,-2.441,-972.656,11.230,15.625,58.594,0
1556049153.855,19.043,-972.656,12.207,22.461,56.641,0
1556049153.859,45.898,-972.168,18.555,11.719,67.871,0
1556049153.863,27.832,-972.168,19.531,11.719,42.480,0
1556049153.867,-6.836,-972.168,19.043,20.020,10.742,0
1556049153.869,11.719,-972.168,23.438,15.625,9.277,0
1556049153.873,54.688,-972.656,22.949,15.137,29.297,0
1556049153.877,41.992,-972.168,20.508,14.648,62.012,0
1556049153.881,7.812,-972.168,20.508,13.184,59.082,0
1556049153.885,17.090,-972.168,19.043,15.137,8.789,0
1556049153.889,47.363,-972.168,19.043,18.066,12.695,0
1556049153.893,51.270,-972.656,20.508,16.113,43.457,0
1556049153.896,12.695,-972.168,20.020,19.531,28.320,0
1556049153.900,4.395,-972.168,19.043,26.367,-7.812,0
1556049153.904,45.898,-972.168,17.090,20.020,23.438,0
1556049153.908,67.871,-972.168,17.090,24.902,58.594,0
1556049153.912,43.945,-972.656,20.996,31.250,26.855,0
1556049153.914,10.254,-972.656,19.531,35.156,12.207,0
1556049153.918,35.645,-972.168,19.531,38.574,41.992,0
1556049153.922,84.961,-972.168,26.855,43.457,36.133,0
1556049153.926,73.242,-972.168,25.391,49.316,16.602,0
1556049153.930,36.133,-972.656,23.926,50.293,35.645,0
1556049153.934,41.504,-972.656,20.996,40.527,29.297,0
1556049153.938,67.383,-972.168,19.043,37.598,49.316,0
1556049153.941,55.664,-972.656,20.996,41.992,52.246,0
1556049153.945,17.578,-972.168,20.020,34.180,63.965,0
1556049153.949,16.113,-972.168,23.438,24.414,61.523,0
1556049153.953,50.293,-972.168,23.438,20.020,32.227,0
1556049153.957,59.082,-972.168,21.973,25.879,52.734,0
1556049153.959,22.461,-972.656,25.391,22.461,20.020,0
1556049153.963,-1.465,-972.168,23.926,21.484,-18.555,0
1556049153.967,33.691,-972.168,24.902,22.949,20.020,0
1556049153.971,58.105,-972.656,26.855,24.414,24.902,0
1556049153.975,32.227,-972.656,24.902,30.273,-27.832,0
1556049153.979,2.930,-972.656,25.879,31.738,20.996,0
1556049153.983,23.926,-972.168,26.855,28.809,53.711,0
1556049153.986,55.664,-972.168,28.809,22.949,-16.602,0
1556049153.990,35.645,-972.168,29.297,7.324,-6.348,0
1556049153.994,-11.230,-972.168,28.320,1.953,15.137,0
1556049153.998,0.000,-972.168,27.344,14.160,21.973,0
1556049154.002,42.969,-972.168,21.484,23.438,60.059,0
1556049154.004,33.203,-972.168,18.555,14.648,98.145,0
1556049154.008,-2.930,-972.656,22.949,11.230,54.199,0
1556049154.012,-3.906,-972.168,23.926,10.254,1.953,0
1556049154.016,34.180,-972.168,20.996,6.836,36.621,0
1556049154.020,46.387,-972.656,21.484,18.555,39.551,0
1556049154.024,10.742,-972.656,22.949,4.395,2.930,0
1556049154.028,-8.789,-972.168,25.391,-5.859,4.395,0
1556049154.031,16.602,-972.168,23.438,-6.348,23.926,0
1556049154.035,39.062,-972.168,22.949,-14.160,24.902,0
1556049154.039,14.160,-972.168,26.367,-2.930,4.395,0
1556049154.043,-16.602,-972.656,30.273,7.812,32.715,0
1556049154.047,6.836,-972.168,26.367,6.836,54.688,0
1556049154.049,42.480,-972.656,22.461,6.348,4.395,0
1556049154.053,30.762,-972.656,24.414,15.137,-38.574,0
1556049154.057,-7.812,-972.168,20.996,10.254,-2.930,0
1556049154.061,2.930,-972.168,21.484,0.488,47.363,0
1556049154.065,41.016,-972.168,27.344,5.859,26.367,0
1556049154.069,41.992,-972.656,24.902,15.137,-4.883,0
1556049154.073,14.648,-972.656,24.902,12.695,44.922,0
1556049154.076,-3.906,-972.168,25.391,6.348,30.273,0
1556049154.080,28.809,-972.656,19.043,8.301,-8.301,0
1556049154.084,52.734,-972.656,16.602,10.742,40.039,0
1556049154.088,20.020,-972.168,19.043,12.207,8.301,0
1556049154.092,-0.977,-972.168,18.555,20.508,-7.812,0
1556049154.093,34.180,-972.168,19.043,31.738,7.812,0
1556049154.097,56.152,-972.168,19.531,26.367,51.758,0
1556049154.101,30.273,-972.168,18.066,13.672,80.566,0
1556049154.105,0.000,-972.656,18.555,21.484,60.547,0
1556049154.109,8.789,-972.168,17.090,18.555,61.523,0
1556049154.113,50.293,-972.656,16.602,18.066,41.016,0
1556049154.117,57.129,-972.656,17.578,14.648,46.875,0
1556049154.120,17.090,-972.168,17.578,12.695,14.648,0
1556049154.124,9.277,-972.656,19.043,21.973,-7.324,0
1556049154.128,41.016,-972.168,18.066,16.113,4.883,0
1556049154.132,45.898,-972.168,17.578,15.137,-13.672,0
1556049154.136,14.648,-972.168,20.996,22.461,54.688,0
1556049154.139,2.441,-972.168,18.066,18.066,72.266,0
1556049154.143,36.133,-972.168,17.578,20.020,51.270,0
1556049154.147,50.781,-972.168,20.020,23.438,43.457,0
1556049154.151,22.949,-972.168,17.578,22.461,1.465,0
1556049154.155,-7.324,-972.168,17.090,27.832,18.066,0
1556049154.159,15.625,-972.168,15.137,24.414,31.250,0
1556049154.163,50.781,-972.656,11.230,11.719,-9.277,0
1556049154.166,22.949,-972.168,15.137,3.906,-19.043,0
1556049154.170,-7.324,-972.168,16.602,9.277,15.625,0
1556049154.174,13.672,-972.168,14.648,6.348,22.949,0
1556049154.178,43.945,-972.168,15.625,7.812,-17.090,0
1556049154.182,30.762,-972.168,17.578,11.719,21.484,0
1556049154.199,-13.184,-972.168,20.508,11.230,45.410,0
1556049154.203,-10.742,-972.168,20.020,9.766,31.250,0
1556049154.207,29.297,-972.168,15.625,3.418,22.461,0
1556049154.211,32.715,-972.656,12.207,-5.371,6.348,0
1556049154.215,-3.906,-972.168,11.230,-8.301,27.832,0
1556049154.219,-22.949,-972.168,12.695,-5.859,23.438,0
1556049154.223,12.695,-972.656,10.254,-7.812,9.766,0
1556049154.226,44.434,-972.168,8.301,0.488,-12.695,0
1556049154.230,17.090,-972.168,11.230,10.742,-21.973,0
1556049154.234,-11.230,-972.656,13.184,9.277,10.742,0
1556049154.238,16.113,-972.168,17.090,7.324,6.348,0
1556049154.242,52.734,-972.168,15.137,6.348,1.953,0
1556049154.244,36.133,-972.168,10.742,5.371,40.039,0
1556049154.248,2.441,-972.168,14.648,12.695,42.969,0
1556049154.252,14.648,-972.168,11.719,23.438,21.973,0
1556049154.256,44.922,-972.168,8.301,17.090,21.973,0
1556049154.260,46.875,-972.168,13.672,15.137,37.598,0
1556049154.264,8.789,-972.656,16.602,19.043,41.016,0
1556049154.268,-4.395,-972.168,18.555,22.949,73.730,0
1556049154.271,32.715,-972.656,21.484,34.668,83.496,0
1556049154.275,46.875,-972.168,21.973,28.809,27.832,0
1556049154.279,20.020,-972.168,20.996,20.020,63.965,0
1556049154.283,-0.977,-972.168,18.555,29.297,28.320,0
1556049154.287,31.250,-972.656,18.555,26.855,-36.621,0
1556049154.289,62.988,-972.656,19.531,23.438,29.785,0
1556049154.293,38.086,-972.168,18.555,29.785,65.430,0
1556049154.297,13.672,-972.168,17.578,32.715,31.738,0
1556049154.301,36.133,-972.168,16.602,28.320,13.184,0
1556049154.305,66.895,-972.168,15.137,23.926,15.137,0
1556049154.309,51.758,-972.656,19.531,21.484,7.812,0
1556049154.313,12.207,-972.168,20.996,24.414,39.062,0
1556049154.316,11.230,-972.168,17.578,16.602,70.801,0
1556049154.320,50.781,-972.656,19.531,2.441,52.734,0
1556049154.324,61.035,-972.168,15.625,7.324,-10.254,0
1556049154.328,20.020,-972.168,18.555,17.578,6.348,0
1556049154.332,1.465,-972.168,20.996,22.949,30.762,0
1556049154.334,40.527,-972.168,16.113,20.020,11.230,0
1556049154.338,58.594,-972.168,16.602,19.531,25.879,0
1556049154.342,23.438,-972.168,17.578,20.020,37.109,0
1556049154.346,2.441,-972.168,17.578,23.438,9.277,0
1556049154.350,28.809,-972.168,17.090,20.508,-23.926,0
1556049154.354,52.734,-972.656,17.578,14.160,2.441,0
1556049154.358,34.668,-972.656,17.090,15.137,-20.996,0
1556049154.361,0.977,-972.656,15.625,20.996,-1.953,0
1556049154.365,13.184,-972.168,14.648,9.766,79.102,0
1556049154.369,48.340,-972.168,19.043,12.207,47.852,0
1556049154.373,39.062,-972.656,21.973,20.020,64.453,0
1556049154.377,1.953,-972.168,17.578,10.254,33.691,0
1556049154.379,2.441,-972.168,16.113,13.672,-36.133,0
1556049154.383,38.086,-972.168,18.555,9.766,-8.789,0
1556049154.387,46.875,-972.168,17.578,12.695,44.434,0
1556049154.391,11.719,-972.656,16.602,14.648,70.312,0
1556049154.395,0.977,-972.168,17.578,8.301,39.062,0
1556049154.399,36.621,-972.656,16.113,6.348,23.438,0
1556049154.403,50.293,-972.168,14.648,-0.977,19.531,0
1556049154.406,17.578,-972.168,17.090,-2.930,-2.441,0
1556049154.410,-5.371,-972.656,18.555,3.906,57.617,0
1556049154.414,30.273,-972.656,17.578,-0.977,26.855,0
1556049154.418,53.711,-972.168,17.090,1.465,-6.836,0
1556049154.422,33.203,-972.656,14.648,16.602,2.930,0
1556049154.424,6.348,-972.168,11.719,19.531,-1.465,0
1556049154.428,20.508,-972.656,10.742,23.438,-9.766,0
1556049154.432,59.570,-972.168,11.719,28.320,-28.809,0
1556049154.436,44.922,-972.168,15.625,28.809,33.203,0
1556049154.440,-3.418,-972.168,18.555,27.832,60.059,0
1556049154.444,0.488,-972.168,15.137,31.738,73.730,0
1556049154.448,42.480,-972.168,15.625,22.949,28.809,0
1556049154.451,47.852,-972.168,17.578,10.254,-18.555,0
1556049154.455,10.742,-972.168,16.602,17.090,36.133,0
1556049154.459,-0.488,-972.168,17.578,21.973,58.105,0
1556049154.463,38.086,-972.656,13.672,19.043,22.461,0
1556049154.467,55.664,-972.168,11.719,20.996,16.113,0
1556049154.469,31.738,-972.168,10.742,17.090,42.480,0
1556049154.473,5.371,-972.168,8.789,15.137,25.391,0
1556049154.477,21.973,-972.168,7.812,13.672,21.973,0
1556049154.481,53.223,-972.656,7.812,6.836,37.109,0
1556049154.485,43.457,-972.168,8.301,1.953,71.289,0
1556049154.489,2.930,-972.656,10.742,5.859,62.012,0
1556049154.493,14.648,-972.168,9.766,9.277,37.109,0
1556049154.496,62.012,-972.656,7.324,-0.488,27.344,0
1556049154.500,47.363,-972.168,10.742,3.418,3.418,0
1556049154.504,-5.859,-972.168,11.719,6.348,17.090,0
1556049154.508,-14.648,-972.168,12.207,-7.324,38.086,0
1556049154.512,28.320,-972.168,12.207,-5.371,37.109,0
1556049154.513,42.480,-972.168,12.695,5.859,40.527,0
1556049154.517,0.000,-972.168,15.137,1.465,21.484,0
1556049154.521,-21.484,-972.168,16.602,-8.301,37.109,0
1556049154.525,12.695,-972.168,15.137,-9.766,51.758,0
1556049154.529,31.250,-972.168,15.625,-2.930,19.531,0
1556049154.533,6.836,-972.168,16.113,7.812,-5.371,0
1556049154.537,-13.672,-972.168,19.531,13.672,-11.230,0
1556049154.540,8.301,-972.168,22.461,7.812,63.477,2
1556049154.544,45.898,-972.656,21.484,11.719,14.648,0
1556049154.548,34.180,-972.168,21.484,8.789,-26.855,0
1556049154.552,-9.766,-972.168,17.090,11.230,30.273,0
1556049154.556,-2.441,-972.168,12.695,14.648,12.695,0
1556049154.573,41.992,-972.168,12.695,8.301,23.926,0
1556049154.577,45.898,-972.168,13.184,11.230,16.602,0
1556049154.581,3.906,-972.168,13.184,3.906,30.762,0
1556049154.585,-12.207,-972.168,15.625,-3.906,37.109,0
1556049154.589,25.879,-972.168,15.137,8.789,22.461,0
1556049154.593,44.922,-972.168,13.672,2.930,13.184,0
1556049154.597,14.160,-972.168,13.672,-7.324,-7.324,0
1556049154.600,-1.465,-972.168,15.137,10.254,-4.883,0
1556049154.604,26.367,-972.168,15.137,18.066,41.504,0
1556049154.608,49.316,-972.168,12.695,11.230,58.105,0
1556049154.612,29.785,-972.168,12.207,10.254,34.180,0
1556049154.616,0.000,-972.168,14.160,19.043,36.133,0
1556049154.618,19.531,-972.656,9.766,16.602,62.012,0
1556049154.622,49.316,-972.168,9.277,12.207,55.176,0
1556049154.626,38.086,-972.656,16.113,13.672,40.039,0
1556049154.630,7.324,-972.168,22.949,13.672,34.668,0
1556049154.634,12.695,-972.656,21.973,16.602,28.809,0
1556049154.638,46.875,-972.656,16.602,23.438,30.273,0
1556049154.642,49.805,-972.168,16.113,26.367,5.859,0
1556049154.645,14.648,-972.168,16.113,17.090,19.531,0
1556049154.649,-1.465,-972.656,16.602,16.602,32.715,0
1556049154.653,30.762,-972.656,16.113,19.043,26.367,0
1556049154.657,55.176,-972.168,11.230,18.066,24.902,0
1556049154.661,23.438,-972.168,11.719,20.996,71.289,0
1556049154.663,-7.324,-972.168,14.160,25.391,91.797,0
1556049154.667,25.879,-972.168,13.672,23.438,51.758,0
1556049154.671,56.152,-972.168,11.230,22.461,21.484,0
1556049154.675,33.691,-972.168,13.184,21.484,49.316,0
1556049154.679,-5.859,-972.168,16.113,18.066,81.055,0
1556049154.683,7.324,-972.168,15.137,17.578,73.730,0
1556049154.687,45.410,-972.656,15.137,14.648,4.883,0
1556049154.690,32.715,-972.168,19.043,15.625,-47.852,0
1556049154.694,-2.930,-972.168,22.949,17.578,-2.441,0
1556049154.698,1.465,-972.656,20.996,7.324,3.418,0
1556049154.702,37.598,-972.656,16.113,4.883,35.645,0
1556049154.706,48.340,-972.656,16.602,10.742,89.844,0
1556049154.708,18.066,-972.168,18.555,11.230,56.641,0
1556049154.712,-2.441,-972.168,13.184,2.930,43.945,0
1556049154.716,23.438,-972.656,10.254,-0.977,9.766,0
1556049154.720,44.922,-972.168,12.695,-1.953,-2.441,0
1556049154.724,23.438,-972.168,13.184,5.859,71.289,0
1556049154.728,-6.836,-972.168,13.672,18.555,62.012,0
1556049154.732,11.230,-972.656,15.625,17.090,10.742,0
1556049154.735,47.363,-972.168,17.090,11.230,29.297,0
1556049154.739,28.320,-972.168,16.113,16.113,19.531,0
1556049154.743,-8.789,-972.168,16.602,25.391,32.227,0
1556049154.747,2.441,-972.656,20.508,38.574,8.789,0
1556049154.751,37.598,-972.168,19.043,36.133,2.441,0
1556049154.753,40.039,-972.168,20.508,22.461,16.113,0
1556049154.757,5.859,-972.168,21.484,23.926,8.789,0
1556049154.761,-6.348,-972.656,18.555,24.902,22.461,0
1556049154.765,31.738,-972.656,18.066,23.926,26.855,0
1556049154.769,50.781,-972.168,14.648,20.020,18.066,0
1556049154.773,26.367,-972.168,12.207,19.043,-11.230,0
1556049154.777,6.348,-972.168,15.625,28.320,-7.812,0
1556049154.780,32.715,-972.168,13.672,29.785,8.789,0
1556049154.784,65.430,-972.168,11.719,16.113,24.414,0
1556049154.788,45.410,-972.168,16.602,17.090,62.012,0
1556049154.792,14.648,-972.168,18.555,20.508,40.039,0
1556049154.796,31.250,-972.168,15.625,16.602,-3.418,0
1556049154.799,63.477,-972.168,12.695,20.020,62.500,0
1556049154.803,52.734,-972.656,15.625,27.344,92.285,0
1556049154.807,10.254,-972.656,17.578,26.367,11.230,0
1556049154.811,9.277,-972.656,16.602,19.043,-13.184,0
1556049154.815,41.992,-972.168,15.625,17.090,16.113,0
1556049154.819,46.387,-972.168,14.160,18.066,-15.625,0
1556049154.823,16.113,-972.168,15.137,22.461,-12.695,0
1556049154.826,6.348,-972.168,17.578,29.297,7.812,0
1556049154.830,36.133,-972.168,17.578,30.762,44.434,0
1556049154.834,54.199,-972.168,18.555,34.180,52.246,0
1556049154.838,25.391,-972.168,18.066,38.086,25.391,0
1556049154.842,-2.441,-972.168,19.043,35.156,10.742,0
1556049154.844,28.320,-972.168,19.043,33.691,20.996,0
1556049154.848,56.152,-972.168,16.602,36.133,56.152,0
1556049154.852,30.273,-972.168,14.160,31.738,27.344,0
1556049154.856,-1.953,-972.168,13.672,23.926,32.227,0
1556049154.860,18.555,-972.168,14.648,21.973,7.324,0
1556049154.864,58.105,-972.168,11.230,18.555,-36.621,0
1556049154.868,43.945,-972.168,10.742,7.812,18.555,0
1556049154.871,-3.418,-972.168,15.137,-1.953,-5.859,0
1556049154.875,1.953,-972.168,16.602,1.953,-6.836,0
1556049154.879,45.898,-972.168,10.742,-0.977,-10.742,0
1556049154.883,49.316,-972.168,11.719,-5.371,-11.230,0
1556049154.887,3.906,-972.168,17.578,0.488,24.902,0
1556049154.889,-9.277,-972.168,19.531,4.395,55.664,0
1556049154.893,26.855,-972.168,18.555,-1.953,26.367,0
1556049154.897,38.086,-972.168,16.113,-11.230,-20.996,0
1556049154.901,8.301,-972.168,18.555,-5.859,33.691,0
1556049154.905,-12.695,-972.168,19.043,0.000,10.742,0
1556049154.909,8.301,-972.656,19.531,0.000,-11.719,0
1556049154.913,36.621,-972.168,20.996,-5.859,56.641,0
1556049154.916,23.926,-972.168,19.531,-3.418,41.016,0
1556049154.920,-11.719,-972.656,22.949,9.766,-25.391,0
1556049154.924,0.488,-972.656,26.855,16.602,9.277,0
1556049154.928,37.109,-972.168,22.949,13.184,50.293,0
1556049154.932,36.133,-972.168,24.414,15.625,33.691,0
1556049154.949,7.324,-972.168,28.320,28.809,55.176,0
1556049154.953,7.812,-972.168,21.484,30.273,13.184,0
1556049154.957,42.480,-972.168,18.555,26.855,-20.996,0
1556049154.961,54.688,-972.656,21.973,26.855,52.734,0
1556049154.965,26.855,-972.656,20.508,20.996,60.547,0
1556049154.969,14.648,-972.656,18.555,17.578,42.480,0
1556049154.973,43.457,-972.168,18.555,9.766,43.457,0
1556049154.976,65.918,-972.656,17.578,9.277,38.574,0
1556049154.980,39.062,-972.168,20.508,14.648,48.828,0
1556049154.984,6.348,-972.168,24.414,16.113,29.297,0
1556049154.988,32.227,-972.656,24.414,17.578,21.973,0
1556049154.992,58.594,-972.656,22.949,21.484,-5.859,0
1556049154.994,37.109,-972.656,22.461,24.902,-41.016,0
1556049154.998,12.207,-972.656,24.414,25.879,20.996,0
1556049155.002,15.625,-972.168,21.484,20.996,45.898,0
1556049155.006,47.852,-972.168,20.508,27.344,43.945,0
1556049155.010,58.105,-972.656,22.949,33.691,59.082,0
1556049155.014,11.230,-972.168,21.484,26.367,32.227,0
1556049155.018,-3.418,-972.168,20.020,28.320,55.664,0
1556049155.021,42.969,-972.168,18.555,31.738,73.242,0
1556049155.025,60.547,-972.168,21.484,29.297,85.938,0
1556049155.029,25.391,-972.168,20.508,23.926,116.699,0
1556049155.033,3.418,-972.168,19.531,24.414,62.988,0
1556049155.037,31.250,-972.168,20.508,24.902,39.551,0
1556049155.039,57.129,-972.168,17.578,23.926,56.152,0
1556049155.043,31.250,-972.168,16.113,27.832,15.137,0
1556049155.047,-2.441,-972.656,17.090,28.320,-7.324,0
1556049155.051,20.020,-972.656,16.113,22.949,-20.996,0
1556049155.055,54.199,-972.168,16.113,22.461,12.207,0
1556049155.059,43.945,-972.168,16.602,20.020,19.043,0
1556049155.063,4.395,-972.656,17.090,20.996,29.785,0
1556049155.066,12.207,-972.168,18.066,18.555,35.156,0
1556049155.070,49.316,-972.168,20.508,8.301,19.043,0
1556049155.074,42.969,-972.168,19.043,2.930,39.551,0
1556049155.078,2.441,-972.168,18.066,8.789,77.637,0
1556049155.082,-3.418,-972.168,19.043,18.066,75.684,0
1556049155.084,31.738,-972.168,19.043,13.184,11.230,0
1556049155.088,42.480,-972.168,18.066,9.766,9.277,0
1556049155.092,10.742,-972.656,16.113,8.301,40.039,0
1556049155.096,-16.113,-972.168,16.602,2.441,47.363,0
1556049155.100,15.625,-972.168,17.090,8.789,17.578,0
1556049155.104,53.223,-972.656,18.555,20.996,20.020,0
1556049155.108,38.574,-972.168,20.996,26.855,39.062,0
1556049155.111,11.719,-972.168,21.973,25.879,58.105,0
1556049155.115,30.762,-972.168,18.555,15.625,40.039,0
1556049155.119,65.430,-972.656,16.602,24.414,30.762,0
1556049155.123,52.734,-972.656,15.625,42.969,49.805,0
1556049155.127,15.625,-972.168,14.648,38.086,-1.465,0
1556049155.129,15.625,-972.168,14.648,35.645,-1.465,0
1556049155.133,43.457,-972.168,15.137,29.785,9.766,0
1556049155.137,51.758,-972.168,15.625,24.902,7.324,0
1556049155.141,20.508,-972.168,15.625,23.438,-16.602,0
1556049155.145,5.859,-972.168,15.625,24.902,4.883,0
1556049155.149,35.156,-972.168,18.066,25.879,39.551,0
1556049155.153,50.293,-972.656,19.531,29.785,50.293,0
1556049155.156,26.855,-972.168,17.578,31.250,74.219,0
1556049155.160,12.695,-972.168,17.578,24.902,23.438,0
1556049155.164,44.922,-972.656,16.113,25.391,31.250,0
1556049155.168,68.359,-972.168,13.672,24.902,54.688,0
1556049155.172,45.410,-972.168,14.160,24.414,11.230,0
1556049155.174,13.184,-972.168,15.137,22.461,12.207,0
1556049155.178,24.414,-972.168,15.137,22.949,49.805,0
1556049155.182,50.293,-972.168,15.625,21.973,21.973,0
1556049155.186,42.969,-972.168,16.113,11.719,-7.812,0
1556049155.190,3.906,-972.168,14.160,7.324,18.555,0
1556049155.194,-8.789,-972.168,12.695,1.953,-13.184,0
1556049155.198,28.809,-972.168,14.160,0.977,30.762,0
1556049155.201,40.039,-972.656,15.137,3.418,86.426,0
1556049155.205,5.859,-972.168,10.742,5.859,48.340,0
1556049155.209,-15.625,-972.168,11.230,7.812,6.836,0
1556049155.213,16.602,-972.656,17.090,8.789,5.859,0
1556049155.217,48.340,-972.168,18.555,10.742,-11.719,0
1556049155.219,29.297,-972.168,23.926,22.949,1.465,0
1556049155.223,31.738,-972.168,54.199,54.199,30.762,0
1556049155.227,78.125,-972.168,79.590,75.195,12.695,0
1556049155.231,112.793,-972.656,88.379,89.355,25.391,0
1556049155.235,105.957,-972.656,93.750,97.168,-1.465,0
1556049155.239,74.219,-972.656,98.145,99.609,-12.207,0
1556049155.243,80.078,-972.656,102.539,94.727,13.672,0
1556049155.246,124.512,-972.168,102.539,83.008,-17.578,0
1556049155.250,125.488,-972.656,99.609,85.938,7.812,0
1556049155.254,69.824,-972.656,86.914,76.172,96.680,0
1556049155.258,41.016,-972.656,64.941,52.246,79.590,0
1556049155.262,54.199,-972.656,48.340,32.715,34.668,0
1556049155.264,55.176,-972.656,35.156,20.508,39.062,0
1556049155.268,22.949,-972.168,26.855,13.672,24.902,0
1556049155.272,-11.230,-972.656,22.461,16.113,15.137,0
1556049155.276,4.883,-972.168,18.066,16.113,38.086,0
1556049155.280,33.691,-972.168,12.695,9.277,65.918,0
1556049155.284,12.207,-972.656,9.277,7.324,14.648,0
1556049155.288,-26.367,-972.656,10.254,7.324,-0.977,0
1556049155.291,-5.371,-972.168,6.348,-1.465,16.113,0
1556049155.295,33.691,-972.168,2.930,-0.488,-0.488,0
1556049155.299,26.855,-972.168,5.371,6.836,-17.578,0
1556049155.303,-4.395,-972.656,3.906,10.254,-0.488,0
1556049155.307,2.441,-972.656,0.488,7.812,31.738,0
1556049155.324,49.316,-972.168,0.488,1.465,41.504,0
1556049155.328,53.223,-972.168,0.977,1.953,47.852,0
1556049155.332,10.254,-972.168,0.488,2.441,55.664,0
1556049155.336,-1.465,-972.168,-0.977,1.465,-0.488,0
1556049155.340,29.785,-972.656,0.488,2.930,-11.719,0
1556049155.344,37.109,-972.656,0.000,-0.488,8.789,0
1556049155.348,1.953,-972.168,-3.906,-7.812,51.270,0
1556049155.351,-18.066,-972.168,-1.953,0.488,83.984,0
1556049155.355,9.277,-972.656,1.953,6.348,40.527,0
1556049155.359,33.691,-972.168,1.465,-2.930,25.879,0
1556049155.363,8.789,-972.168,0.000,-16.602,37.598,0
1556049155.367,-29.297,-972.656,0.488,-19.043,41.016,0
1556049155.369,-13.184,-972.656,-0.488,-10.254,28.320,0
1556049155.373,41.992,-972.656,19.531,7.812,6.836,0
1556049155.377,68.848,-972.168,58.105,34.668,28.809,0
1556049155.381,44.922,-972.168,67.383,48.340,20.996,0
1556049155.385,30.273,-972.168,52.246,36.621,2.441,0
1556049155.389,52.734,-972.656,37.598,19.043,-0.488,0
1556049155.393,53.223,-972.168,26.367,10.742,-18.066,0
1556049155.396,16.602,-972.168,21.484,10.742,4.395,0
1556049155.400,-2.441,-972.168,16.113,8.301,78.125,0
1556049155.404,24.902,-972.168,9.766,-10.742,32.715,0
1556049155.408,42.969,-972.656,9.766,-6.348,-19.043,0
1556049155.412,7.812,-972.656,10.742,16.602,0.000,0
1556049155.414,-19.531,-972.656,10.254,12.207,25.391,0
1556049155.418,7.812,-972.168,9.277,2.930,45.898,0
1556049155.422,33.691,-972.168,8.301,4.395,35.645,0
1556049155.426,17.578,-972.168,8.789,8.301,23.926,0
1556049155.430,-18.555,-972.656,4.883,5.371,33.203,0
1556049155.434,-9.766,-972.656,2.441,-2.441,25.391,0
1556049155.438,24.902,-972.168,4.395,-3.906,44.922,0
1556049155.441,16.113,-972.168,2.441,-2.930,49.316,0
1556049155.445,-22.949,-972.168,4.883,-11.230,22.949,0
1556049155.449,-24.902,-972.168,5.859,-11.230,44.434,0
1556049155.453,20.508,-972.656,-2.930,-10.254,32.715,0
1556049155.457,34.180,-972.168,-0.488,-10.254,-10.254,0
1556049155.458,-0.488,-972.168,5.859,-7.812,-41.504,0
1556049155.462,-17.578,-972.656,4.395,-6.348,-27.832,0
1556049155.466,16.602,-972.656,-0.977,-7.324,37.109,0
1556049155.470,42.480,-972.168,2.441,0.000,60.547,0
1556049155.474,13.672,-972.168,6.348,10.742,27.344,0
1556049155.478,-10.254,-972.656,2.441,15.137,14.160,0
1556049155.482,23.926,-972.656,3.418,13.672,69.824,0
1556049155.485,54.199,-972.168,3.906,5.859,83.496,0
1556049155.489,37.598,-972.168,3.418,4.395,66.406,0
1556049155.493,-4.395,-972.656,4.883,12.207,56.641,0
1556049155.497,0.977,-972.168,5.859,17.578,47.852,0
1556049155.501,45.410,-972.168,7.324,17.090,23.438,0
1556049155.503,39.062,-972.168,6.836,9.766,-7.812,0
1556049155.507,-2.930,-972.168,7.324,4.395,-6.348,0
1556049155.511,-7.812,-972.168,9.277,3.418,6.348,0
1556049155.515,40.527,-972.656,18.555,14.160,15.137,0
1556049155.519,73.242,-972.168,38.086,30.762,13.672,0
1556049155.523,39.551,-972.168,41.016,30.273,80.566,0
1556049155.527,7.812,-972.168,31.250,26.367,72.754,0
1556049155.530,32.715,-972.168,24.414,25.879,18.066,0
1556049155.534,55.176,-972.168,20.020,17.578,24.414,0
1556049155.538,25.391,-972.168,16.602,14.160,13.184,0
1556049155.542,-8.301,-972.168,15.625,18.555,16.113,0
1556049155.546,15.625,-972.168,12.695,17.090,8.789,0
1556049155.548,49.805,-972.656,9.766,13.672,13.672,0
1556049155.552,31.250,-972.168,9.766,12.695,41.992,0
1556049155.556,-7.812,-972.168,6.836,9.277,108.887,0
1556049155.560,3.906,-972.168,2.441,10.742,51.758,0
1556049155.564,43.945,-972.656,1.953,15.137,-16.113,0
1556049155.568,43.945,-972.168,1.465,8.789,23.438,0
1556049155.572,12.695,-972.168,3.906,6.348,35.156,0
1556049155.575,0.977,-972.168,5.859,-8.301,48.828,0
1556049155.579,33.203,-972.168,5.371,-9.766,54.199,0
1556049155.583,56.152,-972.168,2.441,1.953,34.180,0
1556049155.587,22.949,-972.168,6.348,3.906,48.340,0
1556049155.591,-3.418,-972.168,10.742,4.883,3.906,0
1556049155.593,24.414,-972.656,5.371,-1.465,-20.020,0
1556049155.597,42.480,-972.656,5.859,-2.930,-1.953,0
1556049155.601,21.973,-972.168,10.742,13.672,-11.719,0
1556049155.605,-8.789,-972.656,12.695,28.320,-35.156,0
1556049155.609,8.789,-972.168,13.672,25.879,-61.035,2
1556049155.613,47.852,-972.656,14.160,20.508,-22.461,0
1556049155.617,36.133,-972.656,15.137,21.973,42.969,0
1556049155.620,1.953,-972.656,13.672,19.531,-16.602,0
1556049155.624,2.930,-972.656,12.207,14.160,13.184,0
1556049155.628,37.598,-972.168,11.719,13.184,72.266,0
1556049155.632,42.480,-972.656,10.742,5.371,22.949,0
1556049155.636,4.395,-972.656,10.254,0.488,14.648,0
1556049155.638,-17.578,-972.656,12.695,5.859,26.367,0
1556049155.642,10.254,-972.656,13.672,0.000,48.340,0
1556049155.646,35.156,-972.168,14.160,-2.441,33.203,0
1556049155.650,10.254,-972.168,13.672,7.324,-9.766,0
1556049155.654,-16.113,-972.656,12.207,9.277,-18.066,0
1556049155.658,4.883,-972.656,9.766,2.930,14.648,0
1556049155.662,38.086,-972.168,9.766,-1.465,5.859,0
1556049155.665,31.250,-972.656,12.207,3.906,19.531,0
1556049155.669,-0.977,-972.656,13.672,9.277,44.434,0
1556049155.673,6.836,-972.168,13.184,12.207,55.176,0
1556049155.677,49.805,-972.168,15.137,20.508,57.617,0
1556049155.681,54.199,-972.168,16.602,16.602,38.086,0
1556049155.698,9.766,-972.656,12.207,9.277,47.363,0
1556049155.702,2.441,-972.656,9.766,4.883,56.641,0
1556049155.706,43.945,-972.656,12.207,-1.953,40.039,0
1556049155.710,60.059,-972.656,12.207,1.465,71.289,0
1556049155.714,25.879,-972.656,14.160,15.137,96.191,0
1556049155.718,-4.395,-972.656,14.160,6.348,17.090,0
1556049155.722,23.438,-972.656,12.695,-9.277,36.133,0
1556049155.725,54.688,-972.168,15.137,4.883,55.664,0
1556049155.729,27.344,-972.168,17.090,15.137,70.312,0
1556049155.733,-4.395,-972.656,20.508,16.602,39.062,0
1556049155.737,17.578,-972.168,18.066,14.648,4.395,0
1556049155.741,46.875,-972.168,16.602,19.531,26.367,0
1556049155.743,33.203,-972.656,20.020,17.090,-50.293,0
1556049155.747,-1.465,-972.656,18.555,10.254,21.484,0
1556049155.751,2.930,-972.656,18.066,7.812,91.309,0
1556049155.755,40.527,-972.656,19.531,3.906,-15.137,0
1556049155.759,39.062,-972.168,18.555,3.418,-3.418,0
1556049155.763,8.301,-972.168,16.113,8.789,20.508,0
1556049155.767,7.324,-972.168,17.578,13.672,-27.344,0
1556049155.770,42.969,-972.168,19.043,13.672,16.113,0
1556049155.774,57.129,-972.168,14.648,11.230,70.801,0
1556049155.778,26.855,-972.656,14.160,18.555,60.547,0
1556049155.782,1.465,-972.656,14.160,20.996,25.391,0
1556049155.786,31.250,-972.168,8.789,18.066,33.203,0
1556049155.789,51.270,-972.168,5.859,15.625,52.246,0
1556049155.793,21.484,-972.168,8.789,10.254,50.781,0
1556049155.797,-8.301,-972.656,10.254,17.578,13.672,0
1556049155.801,6.348,-972.168,7.812,20.996,-32.227,0
1556049155.805,38.574,-972.168,6.836,16.602,33.691,0
1556049155.809,30.762,-972.168,10.254,23.926,60.547,0
1556049155.813,-11.230,-972.168,11.719,20.996,8.789,0
1556049155.816,-3.418,-972.168,11.719,19.531,26.855,0
1556049155.820,43.457,-972.656,11.719,11.719,84.961,0
1556049155.824,42.480,-972.656,9.766,2.441,37.598,0
1556049155.828,12.207,-972.656,12.695,15.625,51.270,0
1556049155.832,3.906,-972.656,15.137,22.949,112.793,0
1556049155.834,37.109,-972.656,12.695,19.531,43.945,0
1556049155.838,54.688,-972.168,14.160,16.602,16.602,0
1556049155.842,21.484,-972.168,15.137,22.949,47.852,0
1556049155.846,-5.371,-972.168,10.742,25.391,14.160,0
1556049155.850,20.508,-972.656,9.766,19.531,45.410,0
1556049155.854,44.434,-972.656,8.789,18.555,11.719,0
1556049155.858,16.602,-972.168,8.789,14.648,1.465,0
1556049155.861,-11.719,-972.168,8.789,10.742,63.477,0
1556049155.865,12.695,-972.656,8.301,14.160,59.570,0
1556049155.869,46.387,-972.168,6.836,11.230,35.156,0
1556049155.873,33.203,-972.168,5.859,11.719,-3.906,0
1556049155.877,-5.371,-972.656,5.371,17.578,-1.953,0
1556049155.879,0.000,-972.656,3.418,17.090,-20.508,0
1556049155.883,34.668,-972.168,2.441,12.207,28.809,0
1556049155.887,44.922,-972.656,1.953,6.836,34.180,0
1556049155.891,15.625,-972.168,4.395,7.324,-31.250,0
1556049155.895,-7.812,-972.168,4.395,8.301,0.000,0
1556049155.899,25.391,-972.168,1.465,10.742,32.715,0
1556049155.903,50.293,-972.168,5.859,10.254,42.969,0
1556049155.906,21.484,-972.656,9.277,-6.836,43.945,0
1556049155.910,-3.906,-972.656,7.812,-4.883,74.707,0
1556049155.914,21.484,-972.168,10.254,12.207,39.551,0
1556049155.918,51.270,-972.168,10.742,16.602,-30.273,0
1556049155.922,34.180,-972.168,9.766,20.996,-8.301,0
1556049155.925,2.441,-972.656,13.184,29.297,23.438,0
1556049155.929,8.301,-972.656,13.672,24.902,37.598,0
1556049155.933,39.551,-972.168,12.695,13.184,2.930,0
1556049155.937,28.809,-972.168,15.137,8.301,7.324,0
1556049155.941,-17.578,-972.656,17.578,0.000,47.363,0
1556049155.945,-20.020,-972.656,18.555,-2.930,62.500,0
1556049155.949,21.973,-972.656,18.555,5.859,31.250,0
1556049155.952,32.715,-972.168,16.113,-3.418,0.977,0
1556049155.956,-6.836,-972.168,16.113,-7.812,32.715,0
1556049155.960,-20.508,-972.656,16.113,3.906,11.230,0
1556049155.964,14.160,-972.656,9.766,0.000,-19.043,0
1556049155.968,39.062,-972.656,7.324,1.953,-1.465,0
1556049155.969,18.066,-972.656,11.719,13.184,38.086,0
1556049155.973,-6.348,-972.168,10.742,18.555,23.438,0
1556049155.977,22.461,-972.168,11.230,13.672,23.926,0
1556049155.981,55.664,-972.168,14.160,5.371,47.363,0
1556049155.985,34.668,-972.656,10.742,-0.977,19.043,0
1556049155.989,1.465,-972.656,7.812,-2.441,10.254,0
1556049155.993,20.996,-972.656,8.301,6.348,45.410,0
1556049155.996,60.547,-972.168,11.719,15.137,69.336,0
1556049156.000,52.734,-972.656,13.672,20.996,34.668,0
1556049156.004,13.184,-972.656,14.160,30.273,-11.230,0
1556049156.008,8.301,-972.656,12.695,33.691,53.223,0
1556049156.012,44.434,-972.168,12.207,33.203,70.312,0
1556049156.014,57.129,-972.656,14.648,29.785,-1.953,0
1556049156.018,27.832,-972.656,14.648,33.203,33.691,0
1556049156.022,8.301,-972.656,11.719,38.574,87.402,0
1556049156.026,39.062,-972.656,9.766,32.715,46.875,0
1556049156.030,69.824,-972.168,11.230,29.297,48.340,0
1556049156.034,43.945,-972.168,11.719,23.926,61.523,0
1556049156.038,4.395,-972.656,10.254,9.766,10.742,0
1556049156.041,37.598,-972.656,20.996,23.926,-20.996,0
1556049156.045,75.684,-972.656,27.832,38.574,-7.324,0
1556049156.049,60.059,-972.656,23.438,25.879,19.531,0
1556049156.053,24.902,-972.168,23.926,25.391,58.594,0
1556049156.057,20.508,-972.656,20.996,24.414,26.855,0
1556049156.074,53.711,-972.168,17.090,18.066,0.000,0
1556049156.078,63.965,-972.168,14.648,17.578,29.785,0
1556049156.082,29.785,-972.168,12.207,18.555,18.066,0
1556049156.086,12.207,-972.168,11.719,11.230,23.438,0
1556049156.090,39.551,-972.656,10.742,5.859,53.223,0
1556049156.094,49.316,-972.168,11.719,1.465,59.082,0
1556049156.098,15.625,-972.168,13.672,-0.977,18.555,0
1556049156.101,-6.836,-972.656,11.230,-2.441,-0.977,0
1556049156.105,23.438,-972.656,11.230,-4.883,-52.246,0
1556049156.109,43.945,-972.656,13.184,-5.859,-13.184,0
1556049156.113,17.090,-972.168,14.648,1.465,33.691,0
1556049156.117,-9.277,-972.656,17.090,18.555,10.742,0
1556049156.119,6.348,-972.656,15.137,17.578,5.371,0
1556049156.123,36.621,-972.656,11.230,9.277,7.324,0
1556049156.127,30.273,-972.168,13.184,14.648,31.250,0
1556049156.131,-3.906,-972.168,16.602,19.531,36.621,0
1556049156.135,-3.906,-972.656,16.602,15.137,25.879,0
1556049156.139,35.156,-972.656,17.090,8.301,-15.137,0
1556049156.143,44.434,-972.656,12.695,13.184,9.277,0
1556049156.146,9.766,-972.168,13.184,17.090,33.691,0
1556049156.150,1.953,-972.656,17.578,14.160,-22.461,0
1556049156.154,31.250,-972.656,15.625,3.418,-8.789,0
1556049156.158,49.316,-972.656,14.648,6.348,26.855,0
1556049156.162,33.691,-972.656,17.090,19.531,36.621,0
1556049156.164,12.695,-972.656,14.648,6.836,52.734,0
1556049156.168,35.645,-972.168,12.207,-1.465,59.082,0
1556049156.172,61.035,-972.656,15.137,1.465,67.383,0
1556049156.176,41.992,-972.168,14.648,-1.465,-22.461,0
1556049156.180,4.883,-972.168,12.207,3.906,-37.598,0
1556049156.184,18.066,-972.168,11.719,-0.488,28.809,0
1556049156.188,59.082,-972.656,11.719,-1.953,40.039,0
1556049156.191,52.734,-972.168,11.230,11.230,69.824,0
1556049156.195,15.137,-972.656,11.230,12.207,62.012,0
1556049156.199,13.672,-972.168,7.812,3.906,44.434,0
1556049156.203,52.246,-972.168,6.348,8.301,32.227,0
1556049156.207,62.500,-972.656,3.418,12.207,-28.809,0
1556049156.209,28.809,-972.656,5.859,17.578,-30.762,0
1556049156.213,10.742,-972.656,7.812,24.414,-2.930,0
1556049156.217,36.133,-972.656,6.348,21.973,8.789,0
1556049156.221,51.270,-972.656,8.301,20.020,-18.555,0
1556049156.225,26.367,-972.656,7.324,27.832,-17.090,0
1556049156.229,-3.418,-972.656,3.906,26.855,-15.137,0
1556049156.233,14.160,-972.656,3.906,21.973,31.738,0
1556049156.236,60.059,-972.656,16.113,36.621,75.684,0
1556049156.240,51.270,-972.656,24.902,38.574,-7.324,0
1556049156.244,8.301,-972.656,21.973,37.109,-22.461,0
1556049156.248,19.043,-972.656,19.043,36.133,-8.789,0
1556049156.252,53.711,-972.656,12.695,18.066,32.227,0
1556049156.254,54.199,-972.656,7.324,8.789,20.020,0
1556049156.258,18.066,-972.656,7.812,11.230,1.465,0
1556049156.262,8.789,-972.656,7.812,7.812,21.484,0
1556049156.266,41.992,-972.656,4.883,-5.859,-10.742,0
1556049156.270,41.992,-972.168,0.488,-19.043,1.465,0
1556049156.274,4.883,-972.168,-1.465,-16.602,61.035,0
1556049156.278,-8.301,-972.656,-1.465,-5.371,44.434,0
1556049156.281,21.484,-972.656,-1.465,-5.859,39.551,0
1556049156.285,37.109,-972.168,-5.371,-14.160,57.617,0
1556049156.289,8.301,-972.168,-2.441,-13.184,63.965,0
1556049156.293,-20.508,-972.168,0.000,-9.766,50.293,0
1556049156.297,-2.441,-972.656,-0.977,-6.836,1.953,0
1556049156.299,28.809,-972.656,3.418,-6.348,-1.465,0
1556049156.303,22.949,-972.168,4.395,4.883,4.395,0
1556049156.307,-9.766,-972.168,4.395,15.137,66.406,0
1556049156.311,-7.324,-972.656,8.301,4.883,38.574,0
1556049156.315,36.133,-972.656,8.301,5.859,-31.738,0
1556049156.319,45.898,-972.656,7.812,18.066,-36.621,0
1556049156.323,6.348,-972.656,8.789,13.184,35.156,0
1556049156.326,-10.254,-972.168,3.418,-1.465,56.641,0
1556049156.330,24.902,-972.168,3.906,6.348,17.090,0
1556049156.334,50.293,-972.168,6.836,20.508,-9.766,0
1556049156.338,23.926,-972.168,6.348,21.973,15.625,0
1556049156.342,-3.418,-972.168,9.766,22.461,-1.465,0
1556049156.344,27.832,-972.656,9.277,22.949,-35.156,0
1556049156.348,60.059,-972.168,8.301,21.484,5.371,0
1556049156.352,37.109,-972.168,10.254,20.508,21.973,0
1556049156.356,-1.953,-972.656,13.184,23.926,4.883,0
1556049156.360,16.602,-972.656,15.137,27.832,50.781,0
1556049156.364,62.988,-972.168,18.066,32.227,46.387,0
1556049156.368,60.059,-972.656,18.555,28.809,21.973,0
1556049156.371,10.742,-972.656,20.996,21.484,49.805,0
1556049156.375,-4.395,-972.656,20.020,19.531,82.031,0
1556049156.379,28.809,-972.656,16.602,12.207,58.594,0
1556049156.383,42.969,-972.168,19.043,3.418,52.734,0
1556049156.387,16.602,-972.168,18.555,8.789,65.918,0
1556049156.389,3.906,-972.168,19.531,20.020,28.809,0
1556049156.393,38.574,-972.168,22.461,20.508,7.812,0
1556049156.397,59.570,-972.656,24.414,20.020,50.293,0
1556049156.401,27.832,-972.168,25.391,20.020,35.156,0
1556049156.405,3.906,-972.656,21.484,26.367,17.578,0
1556049156.409,32.227,-972.656,20.996,33.203,79.102,0
1556049156.413,61.035,-972.168,23.438,29.297,95.703,0
1556049156.416,39.551,-972.656,21.484,28.320,17.578,0
1556049156.420,6.836,-972.656,20.996,30.273,32.715,0
1556049156.424,27.344,-972.656,20.508,25.879,53.223,0
1556049156.428,65.918,-972.656,20.020,20.996,11.719,0
1556049156.432,61.523,-972.168,19.531,20.996,1.465,0
1556049156.449,20.996,-972.168,20.020,25.879,20.996,0
1556049156.453,5.371,-972.656,22.949,20.996,-3.906,0
1556049156.457,42.969,-972.168,21.973,13.672,50.293,0
1556049156.461,55.176,-972.168,20.020,7.324,48.340,0
1556049156.465,7.812,-972.656,20.508,8.789,-33.203,0
1556049156.469,-8.789,-972.168,18.066,16.602,-40.527,0
1556049156.473,23.926,-972.168,16.113,5.859,31.738,0
1556049156.476,44.434,-972.656,17.090,0.488,41.016,0
1556049156.480,26.855,-972.656,19.531,11.230,20.508,0
1556049156.484,-2.930,-972.168,18.066,7.324,14.648,0
1556049156.488,18.555,-972.168,15.137,7.812,53.223,0
1556049156.492,60.059,-972.168,17.578,26.367,84.473,0
1556049156.494,48.340,-972.168,20.020,29.785,32.227,0
1556049156.498,10.742,-972.168,20.996,37.109,64.941,0
1556049156.502,20.020,-972.168,22.949,40.527,83.008,0
1556049156.506,54.688,-972.656,22.949,28.809,23.926,0
1556049156.510,50.781,-972.656,22.949,26.367,-8.301,0
1556049156.514,11.230,-972.168,23.926,30.273,43.945,0
1556049156.518,2.441,-972.656,20.996,33.691,96.191,0
1556049156.521,45.410,-972.656,18.555,28.320,66.895,0
1556049156.525,64.941,-972.168,18.555,26.367,-7.812,0
1556049156.529,34.180,-972.168,18.066,24.902,-11.230,0
1556049156.533,4.883,-972.168,18.555,20.508,32.227,0
1556049156.537,32.227,-972.656,14.160,25.879,47.852,0
1556049156.539,61.523,-972.656,12.695,29.297,72.266,0
1556049156.543,38.086,-972.656,19.531,24.414,33.691,0
1556049156.547,4.395,-972.656,21.973,30.762,29.785,0
1556049156.551,20.508,-972.656,21.973,30.762,68.848,0
1556049156.555,51.270,-972.168,20.508,19.043,41.016,0
1556049156.559,43.945,-972.168,19.531,19.531,15.625,0
1556049156.563,5.859,-972.656,21.973,25.391,-1.465,0
1556049156.566,3.418,-972.168,21.973,22.949,-40.527,0
1556049156.570,41.504,-972.168,20.508,10.254,-51.758,0
1556049156.574,45.410,-972.656,20.996,9.277,3.906,0
1556049156.578,8.301,-972.168,21.973,22.461,41.016,0
1556049156.582,0.488,-972.168,17.090,26.855,72.754,0
1556049156.584,33.203,-972.168,17.578,24.902,63.477,0
1556049156.588,49.805,-972.168,20.020,26.367,40.039,0
1556049156.592,24.414,-972.656,20.996,35.156,4.395,0
1556049156.596,-3.418,-972.168,22.949,34.668,1.953,0
1556049156.600,21.484,-972.168,22.461,24.414,12.207,0
1556049156.604,50.781,-972.656,22.461,19.043,14.648,0
1556049156.608,27.344,-972.656,21.973,14.648,43.945,0
1556049156.611,-6.836,-972.168,24.414,25.391,53.711,0
1556049156.615,3.906,-972.168,23.926,20.020,29.297,0
1556049156.619,36.133,-972.656,18.066,6.836,11.230,0
1556049156.623,32.227,-972.168,19.043,11.230,39.062,0
1556049156.627,-4.883,-972.168,20.996,9.766,22.949,0
1556049156.628,-0.488,-972.656,20.508,13.184,-45.898,0
1556049156.632,34.668,-972.656,22.461,19.043,20.996,0
1556049156.636,31.250,-972.168,22.949,13.184,40.527,0
1556049156.640,-1.465,-972.656,25.879,19.531,2.930,0
1556049156.644,-10.254,-972.168,23.926,20.996,19.531,0
1556049156.648,18.555,-972.168,23.926,18.066,-3.906,0
1556049156.652,41.016,-972.656,24.414,20.996,20.996,0
1556049156.655,13.184,-972.656,21.973,8.301,83.496,0
1556049156.659,-19.531,-972.656,21.484,3.418,61.035,0
1556049156.663,6.836,-972.168,20.996,13.672,56.152,0
1556049156.667,41.504,-972.656,20.020,21.973,39.062,0
1556049156.671,29.297,-972.168,19.043,25.879,-2.930,0
1556049156.673,8.789,-972.168,21.973,33.691,-10.254,0
1556049156.677,26.367,-972.656,23.438,41.992,17.090,0
1556049156.681,49.316,-972.656,23.438,27.832,50.293,0
1556049156.685,47.363,-972.168,22.461,13.672,24.414,0
1556049156.689,23.438,-972.168,20.020,28.320,25.391,0
1556049156.693,12.207,-972.656,19.531,36.621,58.594,0
1556049156.697,41.016,-972.656,17.578,26.367,72.266,0
1556049156.700,61.523,-972.168,18.555,12.695,63.477,0
1556049156.704,21.973,-972.656,19.043,17.090,49.805,0
1556049156.708,2.930,-972.656,13.184,26.367,39.551,0
1556049156.712,43.457,-972.168,13.672,27.832,35.156,0
1556049156.716,59.570,-972.656,16.602,26.855,28.320,0
1556049156.718,32.227,-972.168,17.578,26.367,39.551,0
1556049156.722,5.371,-972.168,18.555,29.297,22.461,0
1556049156.726,24.414,-972.168,17.578,20.508,6.836,0
1556049156.730,52.734,-972.656,16.602,18.555,48.340,0
1556049156.734,36.133,-972.656,14.648,20.020,91.309,0
1556049156.738,1.953,-972.168,18.066,18.066,62.500,0
1556049156.742,4.395,-972.656,18.555,8.789,42.969,0
1556049156.745,33.203,-972.168,13.184,-3.418,9.766,0
1556049156.749,43.945,-972.168,12.695,12.695,-1.953,2
1556049156.753,11.230,-972.656,15.137,20.020,-1.465,0
1556049156.757,3.906,-972.656,16.602,13.672,18.555,0
1556049156.761,53.223,-972.656,17.090,22.949,16.602,0
1556049156.763,59.082,-972.656,19.043,19.043,6.836,0
1556049156.767,17.090,-972.168,22.949,14.160,56.641,0
1556049156.771,0.977,-972.168,22.461,20.508,76.660,0
1556049156.775,24.414,-972.656,19.043,19.531,95.703,0
1556049156.779,52.246,-972.656,18.555,19.043,68.359,0
1556049156.783,37.109,-972.656,18.066,24.414,4.395,0
1556049156.787,-0.488,-972.656,17.578,20.508,5.371,0
1556049156.790,16.602,-972.656,16.113,13.672,41.992,0
1556049156.794,47.852,-972.656,15.137,12.695,31.250,0
1556049156.798,30.273,-972.656,13.672,7.324,23.926,0
1556049156.802,-3.418,-972.656,14.160,-0.488,55.176,0
1556049156.806,-0.977,-972.656,14.160,-9.766,45.410,0
1556049156.824,29.785,-972.656,13.672,-7.324,25.391,0
1556049156.828,34.180,-972.168,12.207,-0.488,18.555,0
1556049156.832,3.906,-972.656,14.648,-6.836,12.695,0
1556049156.836,-2.441,-972.656,16.602,-3.418,23.438,0
1556049156.840,26.367,-972.168,15.625,-1.953,8.301,0
1556049156.844,41.016,-972.656,13.184,-14.160,3.906,0
1556049156.848,15.137,-972.656,10.742,-14.648,-15.625,0
1556049156.851,-8.789,-972.656,17.578,0.488,-31.738,0
1556049156.855,24.902,-972.656,18.555,-1.465,21.973,0
1556049156.859,51.758,-972.656,15.625,-13.672,6.348,0
1556049156.863,34.180,-972.168,19.531,-13.184,-28.809,0
1556049156.867,-1.953,-972.168,21.973,-12.695,-18.555,0
1556049156.869,14.160,-972.168,21.973,-9.766,-14.160,0
1556049156.873,53.711,-972.656,21.973,-4.883,14.160,0
1556049156.877,38.574,-972.656,19.043,-11.230,34.180,0
1556049156.881,1.953,-972.656,19.043,-18.555,43.457,0
1556049156.885,2.930,-972.656,18.555,-18.555,17.090,0
1556049156.889,35.645,-972.656,17.578,-15.625,-9.766,0
1556049156.893,33.691,-972.168,16.602,-17.578,-22.949,0
1556049156.896,2.930,-972.168,17.578,-20.508,-2.930,0
1556049156.900,0.977,-972.656,22.461,-13.672,44.434,0
1556049156.904,34.180,-972.168,21.973,-19.531,39.062,0
1556049156.908,50.293,-972.656,19.531,-27.832,3.418,0
1556049156.912,23.438,-972.656,22.461,-12.207,-9.277,0
1556049156.914,6.836,-972.168,24.902,0.488,27.832,0
1556049156.918,30.762,-972.168,22.949,4.395,10.254,0
1556049156.922,65.918,-972.168,21.973,-0.977,-13.184,0
1556049156.926,51.758,-972.656,22.461,0.000,-22.461,0
1556049156.930,11.719,-972.656,26.367,15.137,17.578,0
1556049156.934,18.555,-972.168,24.902,16.113,57.129,0
1556049156.938,52.246,-972.168,21.484,7.324,22.949,0
1556049156.941,54.199,-972.168,23.438,5.859,-19.043,0
1556049156.945,19.043,-972.168,26.855,7.324,-8.789,0
1556049156.949,4.395,-972.168,26.367,2.930,61.523,0
1556049156.953,42.969,-972.656,22.949,1.953,66.406,0
1556049156.957,56.641,-972.656,23.926,3.906,46.875,0
1556049156.959,14.648,-972.656,21.484,10.254,-8.789,0
1556049156.963,-5.371,-972.656,15.625,13.184,-37.109,0
1556049156.967,35.156,-972.168,22.949,11.230,3.906,0
1556049156.971,73.730,-972.656,39.551,23.926,-20.020,0
1556049156.975,44.922,-972.656,40.039,24.902,-27.832,0
1556049156.979,13.184,-972.168,34.180,21.973,-21.973,0
1556049156.983,35.156,-972.168,29.297,18.555,7.324,0
1556049156.986,58.594,-972.168,25.879,10.254,41.504,0
1556049156.990,52.246,-972.656,24.902,5.859,50.293,0
1556049156.994,30.273,-972.656,21.484,20.508,34.668,0
1556049156.998,17.090,-972.656,23.926,22.949,20.996,0
1556049157.002,44.434,-972.656,25.879,11.230,38.574,0
1556049157.004,50.781,-972.656,26.367,22.949,15.137,0
1556049157.008,4.395,-972.656,29.297,26.855,41.016,0
1556049157.012,0.000,-972.168,28.320,32.715,63.477,0
1556049157.016,44.922,-972.168,24.414,35.645,1.465,0
1556049157.020,51.758,-972.656,22.949,30.273,16.602,0
1556049157.024,15.137,-972.656,25.391,36.133,60.547,0
1556049157.028,-10.254,-972.656,24.414,31.738,13.672,0
1556049157.031,24.902,-972.168,20.508,10.742,5.371,0
1556049157.035,61.035,-972.168,14.648,2.930,14.648,0
1556049157.039,34.668,-972.656,14.648,20.020,42.969,0
1556049157.043,0.488,-972.656,19.531,32.227,24.414,0
1556049157.047,22.949,-972.656,19.531,31.738,22.461,0
1556049157.049,64.453,-972.168,17.090,25.879,88.867,0
1556049157.053,50.293,-972.168,17.578,24.414,36.133,0
1556049157.057,12.695,-972.168,20.996,30.273,13.672,0
1556049157.061,17.090,-972.168,20.508,34.668,42.480,0
1556049157.065,51.758,-972.656,20.508,38.574,45.898,0
1556049157.069,49.316,-972.656,21.484,22.461,47.852,0
1556049157.073,15.625,-972.656,22.949,18.555,4.395,0
1556049157.076,12.207,-972.168,25.879,28.320,9.766,0
1556049157.080,44.922,-972.168,23.926,20.996,50.293,0
1556049157.084,61.035,-972.656,22.949,24.414,77.148,0
1556049157.088,33.691,-972.656,26.855,34.668,63.477,0
1556049157.092,10.742,-972.656,28.809,35.645,15.137,0
1556049157.094,40.039,-972.656,27.344,34.180,20.996,0
1556049157.098,66.895,-972.656,27.344,35.645,-8.301,0
1556049157.102,45.898,-972.656,29.297,41.992,-9.766,0
1556049157.106,18.555,-972.656,29.297,44.922,78.613,0
1556049157.110,28.809,-972.656,27.344,33.691,-0.977,0
1556049157.114,55.664,-972.656,24.414,35.156,-36.621,0
1556049157.118,38.086,-972.656,21.973,25.391,43.945,0
1556049157.121,-1.465,-972.168,23.926,15.625,28.809,0
1556049157.125,5.859,-972.656,23.438,26.855,44.922,0
1556049157.129,41.016,-972.656,22.949,27.344,75.195,0
1556049157.133,48.828,-972.168,23.926,17.578,53.223,0
1556049157.137,10.254,-972.168,20.508,11.230,4.395,0
1556049157.139,-1.465,-972.656,16.113,13.184,-30.273,0
1556049157.143,32.227,-972.168,16.113,7.812,-13.184,0
1556049157.147,42.480,-972.168,17.090,1.465,-6.348,0
1556049157.151,14.648,-972.656,18.066,5.371,-59.570,0
1556049157.155,-11.230,-972.656,19.531,10.742,10.742,0
1556049157.159,6.836,-972.168,25.879,14.648,68.848,0
1556049157.163,32.715,-972.168,25.879,2.441,44.922,0
1556049157.166,20.508,-972.168,26.367,4.395,43.457,0
1556049157.170,-7.324,-972.168,29.297,25.879,8.301,0
1556049157.174,6.348,-972.168,26.367,19.531,29.785,0
1556049157.178,40.039,-972.656,22.461,6.348,25.879,0
1556049157.182,35.645,-972.656,20.996,10.254,48.340,0
1556049157.199,2.441,-972.168,22.461,19.043,72.266,0
1556049157.203,5.859,-972.656,21.973,33.203,34.180,0
1556049157.207,43.457,-972.656,15.625,28.809,40.527,0
1556049157.211,48.828,-972.656,14.160,27.832,72.754,0
1556049157.215,22.949,-972.656,20.508,37.109,105.469,0
1556049157.219,5.859,-972.168,25.391,24.902,41.992,0
1556049157.223,32.227,-972.168,23.926,24.414,1.953,0
1556049157.226,61.523,-972.656,21.484,25.879,14.648,0
1556049157.230,34.668,-972.168,20.020,21.484,11.719,0
1556049157.234,-7.812,-972.168,18.066,20.020,-11.719,0
1556049157.238,19.531,-972.168,17.578,12.695,5.859,0
1556049157.242,59.570,-972.168,14.648,12.207,33.691,0
1556049157.244,42.969,-972.656,13.184,10.254,15.137,0
1556049157.248,10.254,-972.168,14.648,11.230,-4.883,0
1556049157.252,14.648,-972.168,15.625,16.113,0.000,0
1556049157.256,48.340,-972.656,14.160,20.996,27.832,0
1556049157.260,45.410,-972.656,15.137,22.461,24.902,0
1556049157.264,6.836,-972.168,17.090,25.391,19.531,0
1556049157.268,4.395,-972.656,16.602,28.809,-17.090,0
1556049157.271,43.457,-972.656,13.672,22.461,-7.324,0
1556049157.275,50.293,-972.168,8.789,23.438,34.668,0
1556049157.279,18.066,-972.168,12.695,14.648,30.762,0
1556049157.283,1.953,-972.656,16.602,24.902,72.266,0
1556049157.287,36.621,-972.168,12.207,33.203,106.445,0
1556049157.289,62.988,-972.656,10.254,25.879,25.391,0
1556049157.293,31.738,-972.656,14.160,31.250,-11.230,0
1556049157.297,-1.953,-972.168,17.090,27.344,29.785,0
1556049157.301,16.113,-972.168,15.137,24.414,17.090,0
1556049157.305,54.199,-972.656,13.184,28.809,20.508,0
1556049157.309,38.086,-972.656,13.672,22.949,36.133,0
1556049157.313,-0.977,-972.656,12.207,20.020,33.203,0
1556049157.316,7.324,-972.656,9.766,17.578,70.801,0
1556049157.320,38.574,-972.168,8.789,5.371,62.500,0
1556049157.324,35.156,-972.656,9.277,-5.371,43.457,0
1556049157.328,7.812,-972.656,10.742,-2.930,22.461,0
1556049157.332,2.441,-972.168,12.695,3.906,34.180,0
1556049157.336,29.297,-972.656,8.301,-4.883,29.785,0
1556049157.340,40.039,-972.656,7.324,-10.742,14.160,0
1556049157.344,6.836,-972.656,11.230,-4.395,69.336,0
1556049157.348,-14.160,-972.168,12.695,0.488,61.035,0
1556049157.352,17.090,-972.168,8.789,4.883,12.207,0
1556049157.356,47.852,-972.656,2.930,3.906,-41.016,0
1556049157.360,30.273,-972.656,2.441,9.277,-8.301,0
1556049157.363,1.953,-972.168,10.254,19.043,-13.184,0
1556049157.367,18.555,-972.168,12.695,9.766,-39.551,0
1556049157.371,52.734,-972.168,12.207,16.113,17.578,0
1556049157.375,51.270,-972.656,15.137,29.297,50.781,0
1556049157.379,7.812,-972.656,18.066,21.484,72.266,0
1556049157.379,-1.465,-972.656,17.090,19.531,69.824,0
1556049157.383,44.434,-972.656,13.672,22.949,64.941,0
1556049157.387,55.664,-972.656,14.160,25.391,66.895,0
1556049157.391,20.508,-972.656,16.113,26.855,46.875,0
1556049157.395,6.836,-972.656,17.090,30.273,25.879,0
1556049157.399,42.480,-972.656,16.113,31.250,74.707,0
1556049157.403,56.641,-972.656,15.137,26.367,45.410,0
1556049157.406,23.926,-972.656,15.137,23.438,4.395,0
1556049157.410,3.906,-972.656,14.160,15.137,49.805,0
1556049157.414,27.344,-972.168,9.766,14.160,33.691,0
1556049157.418,50.781,-972.656,8.789,20.996,-29.297,0
1556049157.422,31.738,-972.656,9.766,27.832,42.969,0
1556049157.424,2.441,-972.656,11.719,29.785,111.816,0
1556049157.428,16.113,-972.656,11.230,28.809,59.082,0
1556049157.432,48.828,-972.656,12.207,28.320,54.199,0
1556049157.436,38.086,-972.656,14.160,29.297,50.781,0
1556049157.440,0.977,-972.168,13.672,21.973,28.320,0
1556049157.444,2.930,-972.168,14.648,19.531,35.156,0
1556049157.448,35.156,-972.168,15.625,27.344,11.230,0
1556049157.451,43.457,-972.656,15.137,18.066,6.348,0
1556049157.455,19.531,-972.656,17.578,12.695,43.457,0
1556049157.459,-8.301,-972.656,17.578,20.508,34.668,0
1556049157.463,18.555,-972.168,15.137,24.414,23.438,0
1556049157.467,52.246,-972.656,17.090,32.715,40.039,0
1556049157.469,19.531,-972.656,17.578,28.809,52.246,0
1556049157.473,-7.324,-972.656,15.625,21.973,90.332,0
1556049157.477,11.719,-972.656,12.695,19.531,80.566,0
1556049157.481,37.109,-972.168,11.230,16.113,57.129,0
1556049157.485,33.691,-972.656,12.207,17.578,56.641,0
1556049157.489,-1.465,-972.656,16.602,20.020,4.395,0
1556049157.493,7.324,-972.168,17.578,12.207,16.602,0
1556049157.496,40.527,-972.168,15.137,6.836,43.457,0
1556049157.500,37.109,-972.656,15.625,22.949,44.434,0
1556049157.504,16.602,-972.168,18.066,44.922,44.922,0
1556049157.508,-0.488,-972.168,16.602,41.016,45.410,0
1556049157.512,21.484,-972.656,12.207,25.391,30.762,0
1556049157.514,35.645,-972.168,12.207,21.484,0.488,0
1556049157.518,5.371,-972.168,12.695,21.973,43.945,0
1556049157.522,-13.184,-972.168,12.207,25.391,58.594,0
1556049157.526,8.301,-972.168,13.184,15.625,44.434,0
1556049157.530,29.785,-972.168,12.695,14.648,37.598,0
1556049157.534,10.742,-972.656,13.184,22.949,34.180,0
1556049157.538,-18.066,-972.656,11.719,11.230,54.199,0
1556049157.541,5.859,-972.656,12.207,5.859,20.508,0
1556049157.545,43.945,-972.656,11.230,9.766,32.715,0
1556049157.549,41.016,-972.168,6.836,1.465,65.918,0
1556049157.553,4.395,-972.168,9.277,1.953,57.617,0
1556049157.557,1.465,-972.168,9.277,1.465,35.156,0
1556049157.574,41.504,-972.168,5.371,-0.977,60.059,0
1556049157.578,47.852,-972.656,4.883,0.000,41.016,0
1556049157.582,13.672,-972.656,6.836,-3.906,0.000,0
1556049157.586,2.441,-972.656,8.789,-5.371,4.883,0
1556049157.590,38.574,-972.656,9.277,1.953,17.090,0
1556049157.594,58.105,-972.168,10.254,0.977,47.852,0
1556049157.598,28.320,-972.656,11.719,-4.883,37.598,0
1556049157.601,4.883,-972.656,9.766,10.254,-5.859,0
1556049157.605,27.344,-972.168,6.348,2.441,23.438,0
1556049157.609,47.852,-972.168,7.812,-1.465,22.461,0
1556049157.613,35.156,-972.168,12.207,13.672,5.371,0
1556049157.617,5.371,-972.656,16.113,17.090,15.625,0
1556049157.619,7.324,-972.168,16.602,14.648,-10.254,0
1556049157.623,39.062,-972.168,14.160,17.090,-15.137,0
1556049157.627,38.574,-972.656,16.113,20.020,-0.488,0
1556049157.631,2.930,-972.168,20.020,20.508,26.367,0
1556049157.635,0.000,-972.656,17.578,20.508,45.898,0
1556049157.639,40.527,-972.168,15.137,17.090,61.523,0
1556049157.643,43.457,-972.656,15.625,9.766,46.875,0
1556049157.646,4.883,-972.656,17.090,4.883,2.930,0
1556049157.650,-8.301,-972.656,15.137,-3.906,3.418,0
1556049157.654,23.926,-972.656,10.254,-20.508,25.879,0
1556049157.658,40.527,-972.168,9.766,-26.367,54.199,0
1556049157.662,1.465,-972.168,11.719,-31.250,70.801,0
1556049157.664,-20.508,-972.656,9.766,-36.133,49.316,0
1556049157.668,14.160,-972.168,6.836,-33.691,12.207,0
1556049157.672,46.387,-972.168,9.277,-35.156,13.672,0
1556049157.676,29.297,-972.656,11.230,-35.645,10.742,0
1556049157.680,-10.254,-972.656,7.812,-29.297,45.898,0
1556049157.684,-6.348,-972.656,8.301,-19.531,58.594,0
1556049157.688,30.273,-972.656,10.742,-12.695,24.414,0
1556049157.691,34.180,-972.656,12.695,-8.301,26.855,0
1556049157.695,-3.418,-972.656,15.137,-12.695,63.965,0
1556049157.699,-10.742,-972.656,15.625,-17.090,37.109,0
1556049157.703,23.438,-972.168,17.578,-7.324,13.184,0
1556049157.707,35.645,-972.168,17.090,-7.324,-2.441,0
1556049157.709,2.441,-972.656,16.602,-12.207,-70.801,0
1556049157.713,-19.531,-972.656,16.113,-11.230,-12.695,0
1556049157.717,16.602,-972.656,13.672,-20.996,60.547,0
1556049157.721,47.363,-972.168,11.230,-20.020,5.371,0
1556049157.725,27.344,-972.168,8.789,-7.812,9.766,0
1556049157.729,0.977,-972.656,13.672,-0.488,8.301,0
1556049157.733,19.043,-972.168,13.672,-1.953,24.414,0
1556049157.736,49.316,-972.168,12.695,-0.488,28.809,0
1556049157.740,35.156,-972.168,20.020,-0.488,-1.465,0
1556049157.744,0.000,-972.656,18.066,-0.977,27.344,0
1556049157.748,4.395,-972.168,15.625,5.371,-5.371,0
1556049157.752,37.598,-972.168,19.531,5.371,-13.672,0
1556049157.754,40.527,-972.168,19.531,5.371,56.152,0
1556049157.758,2.441,-972.168,19.531,7.812,72.754,0
1556049157.762,-5.859,-972.656,21.973,9.277,40.039,0
1556049157.766,33.203,-972.168,19.043,-0.488,6.836,0
1556049157.770,48.828,-972.168,17.578,3.418,52.246,0
1556049157.774,10.742,-972.168,21.484,15.137,76.172,0
1556049157.778,-6.348,-972.168,18.066,12.695,20.020,0
1556049157.781,25.391,-972.656,14.160,5.371,35.645,0
1556049157.785,49.805,-972.656,16.602,7.812,66.895,0
1556049157.789,33.691,-972.656,18.066,18.066,67.871,0
1556049157.793,1.953,-972.656,17.578,29.785,46.875,0
1556049157.797,20.996,-972.168,19.531,34.180,-1.953,0
1556049157.799,49.805,-972.168,19.043,27.344,17.578,0
1556049157.803,36.621,-972.168,19.043,20.508,14.648,0
1556049157.807,0.488,-972.168,21.484,16.602,-13.184,0
1556049157.811,1.465,-972.168,22.949,24.902,1.465,0
1556049157.815,43.945,-972.168,22.949,19.531,-25.879,0
1556049157.819,45.898,-972.168,22.461,13.672,-28.809,0
1556049157.823,1.465,-972.168,23.438,16.602,49.805,0
1556049157.826,-6.836,-972.168,21.484,1.953,36.133,0
1556049157.830,31.250,-972.168,18.066,6.836,7.812,0
1556049157.834,47.852,-972.656,20.996,23.926,-21.484,0
1556049157.838,20.020,-972.168,21.484,21.973,20.020,0
1556049157.842,-6.348,-972.168,19.043,23.926,73.242,2
1556049157.844,16.602,-972.656,18.555,24.902,-13.672,0
1556049157.848,40.527,-972.168,21.484,29.785,-6.836,0
1556049157.852,23.438,-972.168,19.531,31.250,-1.953,0
1556049157.856,-9.766,-972.656,20.020,25.391,6.836,0
1556049157.860,2.441,-972.656,23.926,23.438,52.734,0
1556049157.864,32.227,-972.168,23.438,33.203,32.715,0
1556049157.868,29.785,-972.168,21.484,28.809,-28.809,0
1556049157.871,-5.859,-972.168,21.484,21.484,-18.066,0
1556049157.875,-15.137,-972.168,24.902,25.879,19.531,0
1556049157.879,23.438,-972.656,22.949,26.855,1.953,0
1556049157.883,33.203,-972.168,19.531,27.832,32.715,0
1556049157.887,-2.930,-972.168,21.973,24.414,12.695,0
1556049157.888,-8.789,-972.656,21.484,28.809,0.488,0
1556049157.892,27.832,-972.656,16.113,29.785,42.480,0
1556049157.896,48.340,-972.168,17.578,31.250,32.227,0
1556049157.900,36.133,-972.168,17.090,26.855,64.941,0
1556049157.904,11.230,-972.168,16.602,28.320,61.523,0
1556049157.908,29.785,-972.168,16.602,34.180,38.086,0
1556049157.912,62.500,-972.656,12.695,21.484,50.781,0
1556049157.915,43.945,-972.168,12.207,22.461,29.785,0
1556049157.919,18.555,-972.168,13.672,35.645,11.230,0
1556049157.923,32.715,-972.656,9.277,41.992,10.742,0
1556049157.927,61.523,-972.656,6.836,42.969,22.461,0
1556049157.931,53.223,-972.656,10.254,44.434,-0.488,0
1556049157.949,14.648,-972.168,12.207,49.805,17.090,0
1556049157.953,13.184,-972.656,13.184,46.387,46.875,0
1556049157.957,44.434,-972.656,12.207,44.434,48.828,0
1556049157.961,52.246,-972.656,11.230,39.551,37.598,0
1556049157.965,18.066,-972.656,11.230,38.574,13.184,0
1556049157.969,-13.184,-972.168,11.230,32.227,12.207,0
1556049157.973,18.066,-972.168,13.672,24.902,46.387,0
1556049157.976,51.270,-972.168,13.184,36.133,41.992,0
1556049157.980,29.785,-972.656,11.719,40.039,-25.879,0
1556049157.984,-2.441,-972.656,13.184,28.809,18.555,0
1556049157.988,16.602,-972.656,14.160,20.020,74.707,0
1556049157.992,52.246,-972.168,10.254,22.949,70.312,0
1556049157.994,36.133,-972.168,7.324,28.320,72.754,0
1556049157.998,4.395,-972.168,12.695,24.414,87.891,0
1556049158.002,11.230,-972.168,11.719,17.578,39.062,0
1556049158.006,44.922,-972.168,8.301,16.113,28.320,0
1556049158.010,47.363,-972.656,11.230,20.508,63.477,0
1556049158.014,7.324,-972.656,13.184,20.508,60.547,0
1556049158.018,-4.395,-972.656,9.766,6.836,38.574,0
1556049158.021,36.133,-972.168,12.207,15.625,23.438,0
1556049158.025,56.641,-972.168,12.695,23.926,42.480,0
1556049158.029,21.973,-972.168,9.766,1.953,20.508,0
1556049158.033,-5.859,-972.656,12.695,6.836,-20.996,0
1556049158.037,25.879,-972.656,14.648,22.949,24.902,0
1556049158.039,54.688,-972.168,16.602,16.113,25.391,0
1556049158.043,31.250,-972.656,20.508,13.672,44.922,0
1556049158.047,1.465,-972.168,21.484,24.902,43.457,0
1556049158.051,18.555,-972.656,20.996,29.297,14.160,0
1556049158.055,53.223,-972.656,20.996,29.785,7.812,0
1556049158.059,49.805,-972.168,19.531,30.273,16.602,0
1556049158.063,7.324,-972.168,21.973,34.180,62.500,0
1556049158.066,6.836,-972.168,25.879,39.551,53.223,0
1556049158.070,51.758,-972.656,24.414,37.598,11.719,0
1556049158.074,60.547,-972.168,22.461,33.691,23.438,0
1556049158.078,23.926,-972.168,24.414,36.621,51.758,0
1556049158.082,11.230,-972.168,24.414,43.457,50.293,0
1556049158.084,51.270,-972.168,21.973,42.480,2.930,0
1556049158.088,69.824,-972.656,19.043,35.645,13.672,0
1556049158.092,42.480,-972.168,15.625,37.598,13.184,0
1556049158.096,16.602,-972.656,17.578,43.457,41.016,0
1556049158.100,42.480,-972.656,15.137,36.621,71.777,0
1556049158.104,70.312,-972.168,14.648,29.297,22.461,0
1556049158.108,44.434,-972.168,22.461,32.227,52.246,0
1556049158.111,14.160,-972.168,26.855,32.715,93.750,0
1556049158.115,27.832,-972.168,26.855,20.996,57.617,0
1556049158.119,56.641,-972.168,27.832,27.344,53.223,0
1556049158.123,50.293,-972.656,23.926,35.645,72.266,0
1556049158.127,15.625,-972.656,18.066,38.086,25.391,0
1556049158.129,8.789,-972.656,20.020,37.598,-19.043,0
1556049158.133,50.293,-972.656,19.043,31.738,-12.207,0
1556049158.137,53.223,-972.656,18.555,23.438,46.875,0
1556049158.141,20.508,-972.168,21.484,15.625,71.289,0
1556049158.145,3.906,-972.656,21.484,27.832,12.207,0
1556049158.149,29.785,-972.656,19.531,23.926,9.277,0
1556049158.153,53.223,-972.656,20.020,17.578,39.551,0
1556049158.156,21.484,-972.168,24.414,18.555,-33.203,0
1556049158.160,-0.977,-972.168,20.996,17.578,-9.766,0
1556049158.164,34.180,-972.168,18.066,19.531,33.203,0
1556049158.168,66.406,-972.168,20.020,27.832,-13.184,0
1556049158.172,41.992,-972.168,23.926,30.273,27.832,0
1556049158.174,-3.906,-972.656,24.414,25.391,90.820,0
1556049158.178,6.836,-972.656,21.973,21.484,66.895,0
1556049158.182,32.227,-972.168,23.438,11.230,34.668,0
1556049158.186,17.578,-972.656,23.438,7.812,23.926,0
1556049158.190,-0.488,-972.168,23.438,19.043,71.289,0
1556049158.194,1.953,-972.656,23.926,20.996,61.523,0
1556049158.198,33.691,-972.168,18.555,12.695,58.594,0
1556049158.201,42.969,-972.168,16.113,8.789,74.707,0
1556049158.205,2.930,-972.168,18.066,11.719,48.340,0
1556049158.209,-15.137,-972.168,19.531,18.555,48.828,0
1556049158.213,21.973,-972.168,17.090,15.137,51.270,0
1556049158.217,42.480,-972.168,16.113,13.672,70.312,0
1556049158.219,23.926,-972.656,16.602,20.020,53.711,0
1556049158.223,8.301,-972.168,17.578,29.785,30.273,0
1556049158.227,25.391,-972.168,17.578,35.645,45.898,0
1556049158.231,53.223,-972.656,17.090,32.227,81.055,0
1556049158.235,48.828,-972.168,17.578,26.367,101.562,0
1556049158.239,17.578,-972.168,17.090,37.598,53.223,0
1556049158.243,16.113,-972.168,18.066,33.203,39.062,0
1556049158.246,50.293,-972.656,19.043,19.531,37.109,0
1556049158.250,56.641,-972.656,20.996,19.043,55.664,0
1556049158.254,16.113,-972.656,26.367,26.855,80.566,0
1556049158.258,7.324,-972.168,27.344,36.621,47.363,0
1556049158.262,45.898,-972.656,22.461,31.250,27.344,0
1556049158.264,61.035,-972.656,21.484,24.902,20.996,0
1556049158.268,32.715,-972.168,22.461,28.809,34.180,0
1556049158.272,9.277,-972.168,23.926,34.180,38.574,0
1556049158.276,35.645,-972.168,24.414,31.738,15.137,0
1556049158.280,61.035,-972.168,24.414,31.250,10.742,0
1556049158.284,39.062,-972.656,26.367,39.062,0.977,0
1556049158.288,13.672,-972.656,27.344,38.574,1.465,0
1556049158.291,25.879,-972.168,26.367,36.621,-6.836,0
1556049158.295,56.641,-972.656,24.414,29.785,-27.344,0
1556049158.299,43.457,-972.656,21.973,20.996,-10.254,0
1556049158.303,7.324,-972.168,20.996,25.391,1.465,0
1556049158.307,19.043,-972.168,19.043,28.320,41.504,0
1556049158.324,56.641,-972.656,17.090,22.949,39.551,0
1556049158.328,62.500,-972.656,17.090,20.508,-3.418,0
1556049158.332,23.926,-972.656,20.020,27.832,-9.766,0
1556049158.336,12.207,-972.656,20.508,27.344,40.039,0
1556049158.340,44.434,-972.168,16.602,23.438,39.551,0
1556049158.344,57.129,-972.656,16.113,20.996,-10.254,0
1556049158.348,33.691,-972.656,19.043,16.113,-0.488,0
1556049158.351,6.348,-972.168,20.020,22.461,37.109,0
1556049158.355,28.809,-972.656,18.066,27.344,60.059,0
1556049158.359,53.711,-972.656,15.625,17.578,73.730,0
1556049158.363,34.180,-972.168,15.625,6.836,35.156,0
1556049158.367,1.953,-972.656,16.602,8.789,10.742,0
1556049158.368,12.207,-972.656,17.578,10.742,-1.465,0
1556049158.372,37.598,-972.168,18.066,11.230,-14.160,0
1556049158.376,32.227,-972.656,20.508,11.230,-25.879,0
1556049158.380,2.930,-972.656,22.949,20.020,-10.254,0
1556049158.384,-2.930,-972.656,21.973,23.438,34.668,0
1556049158.388,40.527,-972.168,20.020,20.020,54.199,0
1556049158.392,61.523,-972.656,21.484,29.785,17.578,0
1556049158.395,21.973,-972.656,20.996,25.879,39.062,0
1556049158.399,-3.906,-972.656,18.066,14.648,59.570,0
1556049158.403,32.227,-972.656,13.184,10.254,11.230,0
1556049158.407,52.734,-972.168,12.207,8.789,-13.672,0
1556049158.411,16.602,-972.656,13.672,10.742,20.996,0
1556049158.414,-12.695,-972.656,11.719,6.348,60.059,0
1556049158.418,7.812,-972.656,13.184,-0.488,37.109,0
1556049158.422,42.480,-972.656,18.066,6.836,28.320,0
1556049158.426,29.785,-972.656,21.973,15.625,19.531,0
1556049158.430,-1.465,-972.656,22.949,16.602,44.922,0
1556049158.434,16.113,-972.656,22.461,16.602,53.223,0
1556049158.438,44.922,-972.168,22.949,14.648,8.789,0
1556049158.441,41.992,-972.168,21.484,16.602,25.879,0
1556049158.445,7.812,-972.168,17.578,11.230,29.785,0
1556049158.449,-1.953,-972.168,15.137,2.441,39.062,0
1556049158.453,39.062,-972.656,17.578,6.348,42.480,0
1556049158.457,50.781,-972.656,17.090,13.184,36.621,0
1556049158.459,16.602,-972.656,15.137,9.766,42.969,0
1556049158.463,2.930,-972.656,14.648,9.766,-31.250,0
1556049158.467,34.180,-972.656,10.742,12.695,-17.578,0
1556049158.471,58.105,-972.656,8.789,13.184,82.031,0
1556049158.475,29.785,-972.168,13.672,16.602,84.473,0
1556049158.479,-0.488,-972.656,19.531,16.602,54.199,0
1556049158.483,15.625,-972.168,16.602,22.461,70.312,0
1556049158.486,44.434,-972.656,15.137,23.438,66.406,0
1556049158.490,45.410,-972.168,18.555,19.043,10.742,0
1556049158.494,6.348,-972.656,18.555,19.531,-22.461,0
1556049158.498,10.254,-972.656,16.113,21.484,-20.996,0
1556049158.502,48.828,-972.168,14.160,21.973,14.648,0
1556049158.504,42.969,-972.656,16.113,11.719,58.105,0
1556049158.508,12.695,-972.656,18.066,7.812,56.641,0
1556049158.512,6.348,-972.168,17.578,7.812,59.082,0
1556049158.516,34.180,-972.656,17.578,5.371,53.223,0
1556049158.520,51.758,-972.656,14.160,2.930,51.270,0
1556049158.524,26.367,-972.168,16.113,3.906,66.406,0
1556049158.528,-6.836,-972.656,18.066,7.324,75.684,0
1556049158.531,8.789,-972.656,19.531,1.465,71.289,0
1556049158.535,34.668,-972.168,19.531,-1.465,38.086,0
1556049158.539,13.672,-972.168,13.672,-1.953,24.414,0
1556049158.543,-17.578,-972.656,11.230,-4.395,81.543,0
1556049158.547,5.371,-972.656,11.230,4.395,88.867,0
1556049158.549,37.109,-972.168,16.113,3.906,95.215,0
1556049158.553,17.578,-972.168,19.531,-8.789,7.324,0
1556049158.557,-7.324,-972.656,18.066,-7.324,-49.316,0
1556049158.561,-3.906,-972.168,18.066,2.441,20.020,0
1556049158.565,25.391,-972.656,18.555,1.465,7.324,0
1556049158.569,38.574,-972.656,18.555,-3.418,-44.434,0
1556049158.573,2.441,-972.656,20.020,2.441,18.555,0
1556049158.576,-23.926,-972.656,21.973,5.859,92.285,0
1556049158.580,20.020,-972.168,18.555,8.789,43.457,0
1556049158.584,49.316,-972.168,12.207,7.324,-5.859,0
1556049158.588,22.461,-972.168,13.672,15.625,-2.441,0
1556049158.592,-8.301,-972.656,17.578,15.137,-31.250,0
1556049158.594,12.207,-972.656,15.625,-1.953,-20.996,0
1556049158.598,50.293,-972.168,16.113,4.883,-6.836,0
1556049158.602,33.691,-972.168,20.508,8.301,6.836,0
1556049158.606,1.953,-972.168,21.973,9.766,50.293,0
1556049158.610,10.254,-972.168,21.484,14.160,23.926,0
1556049158.614,43.945,-972.168,21.973,16.602,-3.906,0
1556049158.618,37.109,-972.168,20.996,11.230,3.418,0
1556049158.621,3.418,-972.656,18.066,6.348,19.043,0
1556049158.625,4.883,-972.656,18.555,7.324,42.480,0
1556049158.629,37.109,-972.656,17.090,0.000,28.809,0
1556049158.633,41.016,-972.656,15.625,0.000,-5.859,0
1556049158.637,7.324,-972.656,16.113,8.301,-2.930,0
1556049158.639,-10.742,-972.168,14.648,11.230,37.109,0
1556049158.643,21.484,-972.656,16.113,4.883,80.078,0
1556049158.647,46.387,-972.656,16.113,-4.395,59.082,0
1556049158.651,27.832,-972.168,18.555,2.930,6.836,0
1556049158.655,1.465,-972.656,25.391,14.160,32.715,0
1556049158.659,14.648,-972.656,25.879,9.277,46.387,0
1556049158.663,43.945,-972.656,20.020,1.953,35.645,0
1556049158.666,38.086,-972.656,19.043,6.348,62.988,0
1556049158.670,0.977,-972.656,20.508,6.348,53.223,0
1556049158.674,-7.812,-972.168,18.555,-5.371,61.523,0
1556049158.678,20.020,-972.168,13.672,-16.113,75.684,0
1556049158.682,16.602,-972.656,12.207,-23.438,50.293,0
1556049158.699,-25.879,-972.656,15.625,-17.090,23.438,0
1556049158.703,-36.621,-972.656,16.602,-13.672,23.438,0
1556049158.707,8.301,-972.656,15.625,-15.625,44.434,0
1556049158.711,17.578,-972.656,14.160,-22.461,56.641,0
1556049158.715,-12.207,-972.656,15.625,-19.531,75.684,0
1556049158.719,-23.926,-972.656,15.137,-11.230,24.414,0
1556049158.723,3.418,-972.656,12.695,-12.695,-0.977,0
1556049158.726,32.227,-972.656,15.625,-7.812,1.465,0
1556049158.730,8.301,-972.656,15.625,-13.184,11.230,0
1556049158.734,-37.109,-972.656,15.625,-13.184,70.801,0
1556049158.738,-19.043,-972.656,16.113,-4.883,73.242,0
1556049158.742,25.391,-972.656,18.066,2.930,-4.395,0
1556049158.744,22.949,-972.656,21.484,0.977,-19.531,0
1556049158.748,-16.602,-972.656,22.949,-1.953,26.367,0
1556049158.752,-17.578,-972.168,24.414,5.371,50.293,0
1556049158.756,23.438,-972.168,25.391,2.930,-40.527,0
1556049158.760,26.367,-972.168,27.832,6.348,-66.895,0
1556049158.764,-13.184,-972.168,30.273,7.812,55.176,0
1556049158.768,-27.832,-972.168,25.391,3.906,49.805,0
1556049158.771,17.578,-972.168,20.508,4.395,-9.766,0
1556049158.775,47.852,-972.656,22.461,4.883,-23.438,0
1556049158.779,14.160,-972.656,27.344,6.836,-6.348,0
1556049158.783,-2.930,-972.168,28.809,10.254,4.883,0
1556049158.787,33.203,-972.168,27.344,9.766,14.160,0
1556049158.789,60.059,-972.168,27.832,7.812,53.223,0
1556049158.793,40.527,-972.656,25.391,10.742,39.551,0
1556049158.797,-3.906,-972.168,26.855,16.602,50.293,0
1556049158.801,16.113,-972.656,28.320,19.043,44.922,0
1556049158.805,57.129,-972.656,28.809,20.020,25.879,0
1556049158.809,43.945,-972.168,29.785,19.043,72.754,0
1556049158.813,8.301,-972.656,31.250,22.949,69.336,0
1556049158.816,-3.418,-972.656,33.203,32.227,10.254,0
1556049158.820,25.879,-972.656,33.203,29.785,17.090,0
1556049158.824,33.691,-972.656,30.273,19.531,31.250,0
1556049158.828,-1.953,-972.168,27.832,20.020,14.648,0
1556049158.832,-17.090,-972.656,27.832,18.555,26.855,0
1556049158.833,23.926,-972.656,23.926,16.113,29.297,0
1556049158.837,43.457,-972.656,21.484,15.137,34.180,0
1556049158.841,14.648,-972.168,22.461,7.812,0.000,0
1556049158.845,0.977,-972.168,24.414,14.160,21.484,0
1556049158.849,21.973,-972.656,22.949,18.555,51.758,0
1556049158.853,52.734,-972.168,21.973,13.184,9.277,0
1556049158.857,40.527,-972.168,21.484,13.672,20.020,0
1556049158.860,-5.859,-972.656,16.602,10.254,25.391,0
1556049158.864,7.324,-972.656,15.625,7.812,0.488,0
1556049158.868,50.293,-972.656,16.602,0.000,19.531,0
1556049158.872,38.574,-972.168,18.066,-4.883,15.137,0
1556049158.876,-3.906,-972.168,20.508,6.836,12.695,0
1556049158.878,-4.883,-972.656,23.926,9.766,22.461,0
1556049158.882,29.297,-972.168,24.414,6.348,-18.066,0
1556049158.886,34.668,-972.656,24.902,4.395,4.395,0
1556049158.890,4.395,-972.656,26.855,0.000,-31.738,0
1556049158.894,-21.973,-972.656,26.367,4.395,-22.461,0
1556049158.898,1.953,-972.168,27.344,6.348,47.852,0
1556049158.902,34.668,-972.168,24.902,0.977,-16.602,0
1556049158.905,20.996,-972.656,20.508,-1.465,-34.668,0
1556049158.909,-16.113,-972.656,20.020,-1.953,10.742,0
1556049158.913,-2.930,-972.656,19.043,6.836,-2.441,0
1556049158.917,42.969,-972.656,18.555,7.812,28.320,0
1556049158.921,34.180,-972.168,18.066,8.789,62.500,0
1556049158.923,4.395,-972.168,17.090,16.602,-5.859,0
1556049158.927,9.766,-972.168,16.113,9.277,-20.996,0
1556049158.931,51.758,-972.168,16.113,2.930,41.016,0
1556049158.935,53.223,-972.168,17.578,2.441,45.410,0
1556049158.939,6.348,-972.168,19.531,1.465,-11.719,0
1556049158.943,-4.883,-972.656,20.996,9.766,-25.879,0
1556049158.947,40.527,-972.656,19.043,10.742,3.906,0
1556049158.950,57.129,-972.168,20.996,1.465,13.672,1
1556049158.954,25.879,-972.656,23.438,7.324,10.742,0
1556049158.958,11.230,-972.656,21.973,16.602,26.855,0
1556049158.962,42.969,-972.656,20.996,21.484,51.758,0
1556049158.966,64.453,-972.656,18.066,15.625,9.766,0
1556049158.968,27.832,-972.656,19.531,4.883,-10.742,0
1556049158.972,11.719,-972.656,22.949,12.207,29.297,0
1556049158.976,33.691,-972.656,20.996,7.324,-10.254,0
1556049158.980,47.363,-972.168,18.066,-0.977,-47.363,0
1556049158.984,30.762,-972.168,18.555,3.906,18.555,0
1556049158.988,14.160,-972.168,20.996,16.113,-8.301,0
1556049158.992,14.160,-972.168,19.531,-0.488,-20.996,0
1556049158.995,31.738,-972.168,18.066,-13.184,25.391,0
1556049158.999,36.133,-972.168,18.066,2.930,87.891,0
1556049159.003,-3.906,-972.656,19.043,-1.953,60.059,0
1556049159.007,-12.207,-972.168,20.996,-4.883,59.570,0
1556049159.011,21.973,-972.168,21.973,-2.930,59.570,0
1556049159.013,39.062,-972.168,22.461,3.418,21.973,0
1556049159.017,16.602,-972.168,25.391,10.254,60.547,0
1556049159.021,-10.254,-972.168,26.367,10.742,84.961,0
1556049159.025,20.996,-972.168,23.926,14.648,23.438,0
1556049159.029,62.988,-972.168,21.973,13.184,-0.488,0
1556049159.033,30.762,-972.656,23.438,9.277,51.270,0
1556049159.037,-15.137,-972.168,24.902,5.859,51.270,0
1556049159.040,9.277,-972.168,21.973,9.766,65.430,0
1556049159.044,54.199,-972.168,21.973,15.137,58.105,0
1556049159.048,38.574,-972.656,24.902,12.207,44.922,0
1556049159.052,-2.441,-972.656,23.926,25.391,16.113,0
1556049159.056,11.719,-972.168,26.367,25.391,40.527,0
1556049159.073,45.898,-972.656,27.344,12.207,32.715,0
1556049159.077,37.598,-972.656,23.926,13.184,16.113,0
1556049159.081,4.395,-972.656,23.438,13.672,82.520,0
1556049159.085,-12.207,-972.168,22.461,9.277,72.266,0
1556049159.089,20.508,-972.168,21.484,13.184,18.066,0
1556049159.093,40.527,-972.656,20.996,8.789,-3.906,0
1556049159.097,-4.883,-972.656,22.461,-1.465,74.219,0
1556049159.100,-34.668,-972.656,23.438,1.953,98.145,0
1556049159.104,-0.488,-972.656,22.949,-3.906,40.039,0
1556049159.108,27.832,-972.168,24.902,-13.672,-9.277,0
1556049159.112,11.719,-972.168,22.949,-6.836,30.762,0
1556049159.116,-7.812,-972.168,21.484,5.859,59.082,0
1556049159.119,3.418,-972.168,21.973,9.277,8.301,0
1556049159.123,36.133,-972.168,20.020,2.930,55.664,0
1556049159.127,32.715,-972.168,17.578,-8.301,52.246,0
1556049159.131,-7.812,-972.656,14.648,-10.254,2.930,0
1556049159.135,0.977,-972.656,14.648,-8.301,27.344,0
1556049159.139,44.922,-972.656,16.113,-11.719,-2.930,0
1556049159.143,53.223,-972.656,17.090,-2.441,-25.879,0
1556049159.146,27.344,-972.168,20.020,6.348,22.461,0
1556049159.150,0.977,-972.168,22.949,17.578,49.316,0
1556049159.154,26.855,-972.168,19.531,14.160,95.215,0
1556049159.158,59.570,-972.168,20.020,10.742,84.473,0
1556049159.162,37.598,-972.168,22.949,23.926,36.133,0
1556049159.164,13.184,-972.168,20.996,44.922,58.105,0
1556049159.168,44.922,-972.168,17.578,50.781,41.016,0
1556049159.172,74.707,-972.168,19.531,33.691,29.785,0
1556049159.176,37.598,-972.168,24.414,20.020,13.184,0
1556049159.180,-5.371,-972.656,26.367,30.762,17.578,0
1556049159.184,13.672,-972.656,28.809,34.180,9.766,0
1556049159.188,57.617,-972.168,27.344,30.762,16.113,0
1556049159.191,51.270,-972.656,27.344,43.457,70.801,0
1556049159.195,0.488,-972.656,25.879,31.250,32.227,0
1556049159.199,-4.883,-972.656,23.926,18.066,19.531,0
1556049159.203,34.180,-972.656,24.414,13.672,38.086,0
1556049159.207,44.922,-972.656,25.391,15.137,11.719,0
1556049159.209,20.020,-972.656,24.902,19.531,19.531,0
1556049159.213,2.441,-972.656,22.461,12.207,62.012,0
1556049159.217,26.855,-972.656,24.902,12.695,61.523,0
1556049159.221,60.059,-972.168,22.949,15.625,65.918,0
1556049159.225,36.621,-972.168,19.043,10.254,66.406,0
1556049159.229,-6.836,-972.168,20.508,11.230,30.762,0
1556049159.233,16.602,-972.656,22.949,18.066,-3.906,0
1556049159.236,57.129,-972.656,25.879,9.766,15.625,0
1556049159.240,40.527,-972.656,29.785,-1.465,-21.484,0
1556049159.244,5.859,-972.656,27.344,4.395,6.836,0
1556049159.248,11.230,-972.656,23.438,14.160,68.359,0
1556049159.252,45.410,-972.168,23.438,11.719,16.602,0
1556049159.269,44.434,-972.656,22.949,17.578,-27.832,0
1556049159.273,6.836,-972.656,22.949,10.742,-46.387,0
1556049159.277,-6.348,-972.168,19.531,7.812,-4.883,0
1556049159.281,31.250,-972.168,15.137,2.441,27.832,0
1556049159.285,48.828,-972.656,16.602,5.859,34.180,0
1556049159.289,15.137,-972.656,19.043,16.113,37.109,0
1556049159.293,-10.742,-972.656,18.555,10.742,43.457,0
1556049159.296,27.832,-972.656,20.020,4.395,81.055,0
1556049159.300,60.059,-972.656,20.020,2.441,57.617,0
1556049159.304,32.227,-972.656,20.508,11.719,44.434,0
1556049159.308,4.395,-972.656,20.020,12.207,56.152,0
1556049159.312,20.020,-972.168,22.461,10.742,21.973,0
1556049159.299,62.988,-972.168,23.926,16.113,20.020,0
1556049159.303,57.129,-972.656,22.461,9.277,55.176,0
1556049159.307,6.348,-972.168,23.438,5.859,15.625,0
1556049159.311,7.324,-972.168,25.879,3.418,-14.648,0
1556049159.315,50.293,-972.168,22.949,-0.977,45.410,0
1556049159.319,54.688,-972.656,22.461,11.719,63.477,0
1556049159.323,9.277,-972.656,22.461,9.766,-5.859,0
1556049159.326,-6.348,-971.191,23.926,7.812,-9.766,0
1556049159.330,39.062,-975.586,26.367,11.719,31.250,0
1556049159.334,69.336,-958.008,28.320,14.160,19.531,0
1556049159.338,23.926,-949.219,32.227,17.090,36.621,0
1556049159.342,0.488,-976.074,28.320,18.066,3.418,0
1556049159.344,23.926,-967.285,23.438,12.207,31.738,0
1556049159.348,39.062,-915.527,26.855,10.742,58.594,0
1556049159.352,22.949,-936.523,30.762,20.020,19.531,0
1556049159.356,0.488,-978.027,28.809,26.367,33.691,0
1556049159.360,5.859,-970.703,23.926,25.391,32.227,0
1556049159.364,32.715,-972.168,23.926,22.949,11.230,0
1556049159.368,27.832,-972.656,22.461,13.672,-5.859,0
1556049159.371,-10.254,-972.656,22.949,-1.465,-20.508,0
1556049159.375,-16.113,-972.168,21.484,-1.953,-8.301,0
1556049159.379,9.277,-972.656,19.043,0.977,4.395,0
1556049159.383,24.414,-972.656,21.484,-1.465,7.812,0
1556049159.387,-16.113,-972.656,23.926,-8.301,59.570,0
1556049159.389,-45.898,-972.168,21.973,-11.230,50.293,0
1556049159.393,-7.812,-972.656,14.648,-20.508,10.742,0
1556049159.397,13.672,-972.656,12.695,-34.668,14.160,0
1556049159.401,-27.344,-972.168,18.066,-31.250,9.766,0
1556049159.405,-48.828,-972.656,20.020,-22.461,19.043,0
1556049159.409,-21.484,-972.656,17.578,-25.879,-3.418,0
1556049159.413,-18.066,-972.168,18.555,-39.062,37.109,0
1556049159.416,-36.621,-972.168,21.484,-34.668,76.172,0
1556049159.420,-58.594,-972.168,20.508,-31.738,45.898,0
1556049159.424,-57.129,-972.168,17.090,-47.852,8.789,0
1556049159.428,-32.715,-972.168,14.648,-53.711,-10.254,0
1556049159.432,-30.762,-972.656,9.766,-59.570,30.762,0
1556049159.449,-62.988,-972.656,3.418,-57.129,44.434,0
1556049159.453,-84.473,-972.656,3.906,-48.828,22.461,0
1556049159.457,-62.012,-972.656,4.883,-60.547,28.809,0
1556049159.461,-49.805,-972.168,3.418,-72.266,22.949,0
1556049159.465,-77.637,-972.656,-0.977,-70.801,-3.418,0
1556049159.469,-99.609,-972.656,-0.488,-86.914,0.977,0
1556049159.473,-72.754,-972.656,3.418,-84.473,33.203,0
1556049159.476,-40.039,-972.656,2.441,-72.266,53.711,0
1556049159.480,-54.688,-972.656,5.859,-64.941,76.172,0
1556049159.484,-69.336,-972.168,9.277,-61.523,83.008,0
1556049159.488,-45.898,-972.168,9.766,-62.500,41.992,0
1556049159.492,-20.020,-972.656,10.254,-68.359,41.992,0
1556049159.494,-12.207,-972.656,14.648,-54.199,51.758,0
1556049159.498,-47.363,-972.656,20.508,-41.992,52.734,0
1556049159.502,-49.805,-972.656,20.020,-39.551,13.184,0
1556049159.506,-0.977,-972.656,22.461,-40.039,3.418,0
1556049159.510,5.859,-972.656,25.391,-40.039,8.301,0
1556049159.514,-22.949,-972.656,25.391,-21.973,20.508,0
1556049159.518,-16.602,-972.168,26.367,-13.184,52.246,0
1556049159.521,15.625,-972.168,28.320,-9.277,29.785,0
1556049159.525,36.621,-972.656,29.297,8.301,23.438,0
1556049159.529,17.578,-972.168,31.250,4.395,50.781,0
1556049159.533,-7.324,-972.656,32.227,-6.348,35.645,0
1556049159.537,34.180,-972.656,30.273,3.418,48.828,0
1556049159.539,60.547,-972.656,29.785,2.441,30.273,0
1556049159.543,32.715,-972.656,30.273,3.418,44.922,0
1556049159.547,2.930,-972.656,32.715,8.301,21.484,0
1556049159.551,21.484,-972.656,32.715,0.488,-20.996,0
1556049159.555,60.059,-972.168,32.227,-2.930,-15.625,0
1556049159.559,54.688,-972.656,32.227,1.465,24.414,0
1556049159.563,20.996,-972.656,32.227,13.184,71.289,0
1556049159.566,15.137,-972.656,31.250,23.926,-13.184,0
1556049159.570,46.875,-972.656,27.832,12.207,-20.508,0
1556049159.574,54.199,-972.168,27.832,-2.441,9.277,0
1556049159.578,28.320,-972.168,27.832,-0.977,10.742,0
1556049159.582,20.996,-972.656,26.367,0.488,-24.414,0
1556049159.584,55.176,-972.168,25.391,-1.953,-14.648,0
1556049159.588,71.777,-972.168,23.438,-1.953,56.152,0
1556049159.592,28.320,-972.656,22.461,-8.301,-7.812,0
1556049159.596,-0.488,-972.168,29.785,-4.883,-18.555,0
1556049159.600,22.949,-972.656,29.297,-5.371,34.668,0
1556049159.604,56.152,-972.656,27.832,-6.836,50.293,0
1556049159.608,42.480,-972.656,32.227,4.395,34.180,0
1556049159.611,17.578,-972.168,35.645,17.090,23.438,0
1556049159.615,23.926,-972.656,32.227,0.977,-0.488,0
1556049159.619,47.363,-972.656,31.738,-11.719,-4.395,0
1556049159.623,54.199,-972.168,34.180,0.000,22.949,0
1556049159.627,20.996,-972.168,32.227,-0.488,54.199,0
1556049159.629,19.531,-972.656,33.203,0.977,41.504,0
1556049159.633,50.293,-972.168,29.297,-0.488,25.879,0
1556049159.637,61.035,-972.168,26.855,9.766,14.648,0
1556049159.641,36.133,-972.656,26.855,13.184,23.926,0
1556049159.645,29.785,-972.168,25.391,2.441,-2.441,0
1556049159.649,59.082,-972.168,25.879,-1.953,0.488,0
1556049159.653,66.895,-972.656,24.902,2.930,73.730,0
1556049159.656,41.504,-972.168,27.344,11.719,16.113,0
1556049159.660,18.555,-972.656,29.785,6.348,25.391,0
1556049159.664,46.875,-972.656,25.391,19.531,12.207,0
1556049159.668,81.055,-972.168,26.855,28.809,-19.043,0
1556049159.672,70.801,-972.656,34.668,24.414,33.203,0
1556049159.674,30.273,-972.168,33.203,26.855,13.672,0
1556049159.678,27.344,-972.168,32.715,22.461,18.555,0
1556049159.682,57.129,-972.168,30.273,30.273,33.203,0
1556049159.686,59.082,-972.656,27.832,23.438,30.273,0
1556049159.690,25.391,-972.656,31.250,8.789,29.785,0
1556049159.694,20.996,-972.168,32.227,17.090,26.855,0
1556049159.698,66.895,-972.168,28.320,19.043,58.105,0
1556049159.701,65.430,-972.168,28.320,2.930,45.410,0
1556049159.705,21.484,-972.168,33.203,10.254,-17.578,0
1556049159.709,8.789,-972.168,34.180,20.508,0.977,0
1556049159.713,49.316,-972.656,32.715,12.695,25.391,0
1556049159.717,63.965,-972.168,33.691,11.719,31.250,0
1556049159.718,29.785,-972.656,32.227,1.953,6.836,0
1556049159.722,8.789,-972.168,32.227,4.883,-4.395,0
1556049159.726,17.578,-972.168,34.180,5.371,-4.883,0
1556049159.730,57.617,-972.656,38.086,10.254,-19.043,0
1556049159.734,49.805,-972.168,40.039,14.648,18.555,0
1556049159.738,4.395,-972.168,38.574,23.438,55.664,0
1556049159.742,8.301,-972.656,39.551,20.996,82.031,0
1556049159.745,55.664,-972.656,40.527,6.836,49.316,0
1556049159.749,71.777,-972.656,37.598,9.766,-10.254,0
1556049159.753,25.391,-972.656,36.133,17.090,-23.438,0
1556049159.757,10.742,-972.656,34.668,0.488,23.438,0
1556049159.761,41.992,-972.168,35.645,-4.395,64.453,0
1556049159.763,56.641,-972.656,37.109,4.883,88.867,0
1556049159.767,50.781,-972.656,38.086,5.859,66.895,0
1556049159.771,28.320,-972.656,40.527,13.184,13.184,0
1556049159.775,36.133,-972.168,39.551,10.254,91.797,0
1556049159.779,65.430,-972.656,36.621,11.230,80.078,0
1556049159.783,49.805,-972.656,38.086,11.719,27.344,0
1556049159.787,8.301,-972.656,36.621,1.465,36.621,0
1556049159.790,26.367,-972.656,35.645,4.395,46.387,0
1556049159.794,58.594,-972.656,34.668,6.348,43.457,0
1556049159.798,55.176,-972.656,33.691,-0.977,-9.277,0
1556049159.802,30.762,-972.656,39.062,17.090,41.016,0
1556049159.806,18.555,-972.656,40.527,30.762,65.430,0
1556049159.809,41.992,-972.656,39.551,12.695,30.762,0
1556049159.813,60.059,-972.656,40.527,6.348,2.441,0
1556049159.817,46.387,-972.656,39.551,17.578,18.066,0
1556049159.821,32.715,-972.168,37.598,7.812,23.438,0
1556049159.825,55.664,-972.656,37.109,7.324,3.906,0
1556049159.829,69.336,-972.656,35.645,6.836,52.246,0
1556049159.833,48.340,-972.168,31.250,7.812,25.879,0
1556049159.836,21.973,-972.656,30.273,15.625,0.000,0
1556049159.840,52.246,-972.168,30.273,11.230,48.828,0
1556049159.844,87.402,-972.168,27.832,10.742,31.738,0
1556049159.848,62.500,-972.656,30.273,20.508,-17.090,0
1556049159.852,30.273,-972.656,30.273,15.625,-27.832,0
1556049159.869,50.781,-972.656,25.391,6.836,27.344,0
1556049159.873,92.285,-972.656,28.320,10.254,67.871,0
1556049159.877,76.660,-972.168,29.785,5.371,63.477,0
1556049159.881,45.410,-972.168,25.879,12.695,55.176,0
1556049159.885,46.387,-972.656,24.414,26.855,35.645,0
1556049159.889,86.914,-972.168,23.438,8.789,41.504,0
1556049159.893,106.445,-972.168,22.461,3.906,53.711,0
1556049159.896,59.082,-972.656,22.461,20.996,28.809,0
1556049159.900,34.668,-968.262,26.367,6.836,28.809,0
1556049159.904,79.102,-984.863,26.367,5.371,4.395,0
1556049159.908,113.281,-918.457,21.484,13.184,36.621,0
1556049159.912,86.914,-894.531,23.926,10.254,76.172,0
1556049159.914,47.363,-976.074,28.320,8.789,5.371,0
1556049159.918,67.383,-975.098,26.855,18.066,0.488,0
1556049159.922,126.465,-967.773,26.855,24.414,-13.184,0
1556049159.926,112.793,-955.566,29.785,7.324,36.621,0
1556049159.930,68.848,-968.262,26.855,-4.395,61.035,0
1556049159.934,65.918,-974.609,22.949,1.953,26.367,0
1556049159.938,95.703,-971.191,22.461,9.766,21.973,0
1556049159.941,86.426,-972.656,25.879,3.418,22.461,0
1556049159.945,50.781,-972.656,27.344,8.301,29.785,0
1556049159.949,60.059,-972.168,24.414,-4.883,30.273,0
1556049159.953,101.074,-972.656,23.926,-11.230,19.531,0
1556049159.957,105.469,-972.656,24.414,-1.953,-22.949,0
1556049159.989,75.195,-972.168,23.438,-10.254,-21.484,0
1556049159.993,51.270,-972.656,22.949,-10.742,-18.066,0
1556049159.997,74.219,-972.656,23.926,-3.418,-12.207,0
1556049160.001,105.469,-972.656,23.926,0.977,39.062,0
1556049160.005,87.402,-972.656,24.414,-3.906,53.711,0
1556049160.009,50.781,-972.168,23.438,-10.254,15.625,0
1556049160.013,68.359,-972.168,22.461,-12.207,29.785,0
1556049160.016,112.305,-972.656,20.996,-3.418,51.758,0
1556049160.020,95.703,-972.656,16.602,-10.742,-17.578,0
1556049160.024,44.434,-972.168,16.602,-13.672,7.324,0
1556049160.028,46.875,-972.656,18.066,-8.789,42.969,0
1556049160.032,83.984,-972.656,20.508,-8.301,18.555,0
1556049160.004,102.051,-972.168,18.066,4.883,-12.695,0
1556049160.008,63.965,-972.656,18.555,1.465,11.719,0
1556049160.012,38.574,-972.656,20.996,-8.301,23.438,0
1556049160.016,84.961,-972.656,21.484,-6.348,33.203,0
1556049160.020,96.680,-972.168,24.414,0.977,65.918,0
1556049160.024,52.734,-972.168,21.973,4.883,53.223,0
1556049160.028,35.645,-972.656,22.949,-2.930,27.832,0
1556049160.031,61.523,-972.168,23.438,-4.883,55.664,0
1556049160.035,89.844,-971.191,22.461,0.977,47.363,0
1556049160.039,73.242,-972.168,26.367,-5.859,19.531,0
1556049160.043,43.457,-970.703,28.809,-12.695,35.645,0
1556049160.047,43.457,-975.586,30.762,-2.441,49.805,0
1556049160.049,70.801,-965.820,25.879,-1.465,37.598,0
1556049160.053,81.543,-945.312,25.879,-10.742,12.207,0
1556049160.057,53.223,-965.332,27.344,-5.859,47.363,0
1556049160.061,48.828,-984.863,26.855,5.859,77.637,0
1556049160.065,73.242,-918.457,31.738,-3.418,104.492,0
1556049160.069,74.219,-917.969,28.809,6.836,107.910,0
1556049160.073,45.410,-981.445,29.785,7.324,32.227,0
1556049160.076,35.156,-968.750,36.621,-8.789,-10.742,0
1556049160.080,60.547,-977.051,30.762,-12.695,20.508,0
1556049160.084,85.938,-956.055,27.344,18.555,27.832,0
1556049160.088,51.270,-941.895,32.227,16.113,26.855,0
1556049160.092,18.555,-973.633,33.691,-13.672,29.785,0
1556049160.094,43.945,-973.145,29.785,-2.441,-11.230,0
1556049160.098,76.660,-971.191,28.809,-17.090,-31.250,0
1556049160.102,60.059,-972.656,31.738,-4.883,3.906,0
1556049160.106,12.695,-972.656,33.691,-3.906,42.480,0
1556049160.110,27.344,-972.656,31.250,-10.742,59.570,0
1556049160.114,70.312,-972.656,27.832,-4.883,40.527,0
1556049160.118,58.105,-972.168,30.762,-9.277,25.879,0
1556049160.121,13.184,-972.168,30.273,-7.812,38.086,0
1556049160.125,36.133,-972.656,28.809,1.953,-18.555,0
1556049160.129,74.707,-972.168,29.785,-2.441,-25.879,0
1556049160.133,51.758,-972.168,28.320,-14.648,0.000,0
1556049160.137,17.578,-972.656,26.855,-29.785,1.465,0
1556049160.139,-1.465,-972.656,28.809,-22.461,-8.789,0
1556049160.143,41.504,-972.168,29.297,-20.020,-19.043,0
1556049160.147,62.500,-972.656,27.344,-30.273,-0.977,1
1556049160.151,32.715,-972.168,28.809,-8.789,-28.809,0
1556049160.155,-0.977,-972.656,31.738,-18.066,-33.203,0
1556049160.159,20.508,-972.168,29.785,-33.691,-9.766,0
1556049160.163,62.988,-972.168,30.273,-31.250,17.090,0
1556049160.166,36.621,-972.656,31.738,-27.344,31.250,0
1556049160.170,1.953,-972.656,27.832,-25.879,21.973,0
1556049160.174,5.371,-972.656,29.785,-30.273,37.598,0
1556049160.178,47.852,-972.168,36.621,-33.203,9.766,0
1556049160.182,62.988,-972.656,32.715,-34.180,-10.742,0
1556049160.199,12.695,-972.656,36.133,-19.531,25.879,0
1556049160.203,-5.859,-972.656,38.574,-29.297,24.902,0
1556049160.207,46.875,-972.656,32.227,-56.641,3.906,0
1556049160.211,57.129,-972.656,30.762,-50.293,40.039,0
1556049160.215,11.719,-972.656,30.273,-37.598,53.711,0
1556049160.219,-1.953,-972.168,28.809,-31.738,-12.695,0
1556049160.223,33.691,-972.656,26.855,-32.227,-12.207,0
1556049160.226,56.152,-972.168,25.391,-38.086,5.859,0
1556049160.230,33.203,-972.168,27.344,-53.223,55.176,0
1556049160.234,2.441,-972.656,30.273,-31.738,38.086,0
1556049160.238,12.695,-972.656,25.879,-11.230,39.551,0
1556049160.242,24.414,-972.656,27.344,-21.973,77.637,0
1556049160.244,24.414,-972.656,31.250,-27.344,32.227,0
1556049160.248,7.324,-972.656,31.250,-23.926,-25.879,0
1556049160.252,2.441,-972.168,33.691,-20.996,-2.930,0
1556049160.256,35.156,-972.168,37.109,1.465,68.359,0
1556049160.260,51.270,-972.656,35.156,-6.348,88.379,0
1556049160.264,26.855,-972.656,33.691,-14.648,34.180,0
1556049160.268,11.719,-972.656,34.180,-7.812,41.992,0
1556049160.271,36.133,-972.656,38.574,-4.395,26.367,0
1556049160.275,43.945,-972.168,36.133,-5.859,-28.809,0
1556049160.279,22.949,-972.656,34.668,-18.066,-45.410,0
1556049160.283,11.719,-972.656,37.109,-15.625,-1.953,0
1556049160.287,30.762,-972.656,33.203,-6.348,44.922,0
1556049160.289,61.035,-972.656,32.715,3.906,27.832,0
1556049160.293,52.734,-972.168,36.133,3.418,10.742,0
1556049160.297,8.301,-972.168,37.109,-3.906,1.953,0
1556049160.301,8.789,-972.656,33.691,-13.184,21.973,0
1556049160.305,41.992,-972.656,35.156,-11.230,8.301,0
1556049160.309,41.016,-972.168,35.645,-11.230,-2.930,0
1556049160.313,3.906,-972.656,38.086,-11.230,8.789,0
1556049160.316,1.953,-972.656,39.551,-6.836,38.574,0
1556049160.320,41.992,-972.168,35.156,-6.348,56.641,0
1556049160.324,53.223,-972.656,34.180,-14.160,27.832,0
1556049160.328,28.809,-972.656,35.156,0.000,24.902,0
1556049160.332,1.953,-972.168,33.203,0.977,14.160,0
1556049160.334,23.926,-972.168,31.250,-13.672,23.438,0
1556049160.338,44.434,-972.168,27.344,-17.090,73.730,0
1556049160.342,6.348,-972.168,23.926,-9.766,83.008,0
1556049160.346,-21.484,-972.656,26.367,6.836,73.730,0
1556049160.350,22.461,-972.656,26.367,-3.906,33.691,0
1556049160.354,56.152,-972.656,27.832,-8.301,7.324,0
1556049160.358,25.391,-972.656,28.320,0.488,56.641,0
1556049160.361,1.465,-972.656,27.344,2.441,41.016,0
1556049160.365,6.836,-972.656,29.785,-11.719,19.043,0
1556049160.369,40.527,-972.168,31.250,-17.578,42.480,0
1556049160.373,33.691,-972.168,31.738,-15.137,28.320,0
1556049160.377,0.977,-972.656,30.273,-2.441,14.160,0
1556049160.379,12.695,-972.168,30.762,14.160,35.645,0
1556049160.383,46.875,-972.168,29.297,5.859,27.344,0
1556049160.387,47.852,-972.168,27.344,-10.254,56.152,0
1556049160.391,25.391,-972.168,29.785,-6.836,95.703,0
1556049160.395,25.391,-972.656,34.180,10.254,84.473,0
1556049160.399,54.688,-972.656,32.715,15.137,88.379,0
1556049160.403,68.359,-972.168,33.691,2.441,70.312,0
1556049160.406,44.922,-972.168,38.574,-11.719,47.363,0
1556049160.410,9.277,-972.168,37.109,-9.277,53.711,0
1556049160.414,38.574,-972.656,35.645,9.277,29.297,0
1556049160.418,81.543,-972.656,39.551,16.113,24.902,0
1556049160.422,61.035,-972.656,41.504,17.578,73.242,0
1556049160.424,16.602,-972.656,41.504,14.648,123.535,0
1556049160.428,20.508,-972.656,41.016,4.395,42.480,0
1556049160.432,56.152,-972.656,41.016,11.230,-2.930,0
1556049160.436,71.289,-972.656,39.551,18.066,40.039,0
1556049160.440,25.879,-972.656,37.598,7.812,36.133,0
1556049160.444,-4.395,-972.656,40.527,17.578,35.156,0
1556049160.448,50.293,-972.168,36.621,12.695,53.711,0
1556049160.451,73.242,-972.168,36.133,-12.695,50.781,0
1556049160.455,11.719,-972.656,38.574,-11.719,41.016,0
1556049160.459,-15.625,-972.656,31.738,-7.812,19.043,0
1556049160.463,33.203,-972.656,29.785,11.230,24.902,0
1556049160.467,53.223,-972.656,35.645,5.371,24.414,0
1556049160.469,36.621,-972.168,36.133,-2.930,21.973,0
1556049160.473,13.672,-972.656,32.227,14.160,20.508,0
1556049160.477,19.531,-972.656,30.762,3.906,10.742,0
1556049160.481,58.105,-972.168,31.250,5.859,-32.227,0
1556049160.485,60.547,-972.168,30.762,17.090,-51.270,0
1556049160.489,27.832,-972.656,30.762,12.695,-14.648,0
1556049160.493,17.090,-972.656,29.785,-14.648,-11.230,0
1556049160.496,47.852,-972.656,25.879,-17.578,35.156,0
1556049160.500,58.105,-972.656,23.926,0.488,39.551,0
1556049160.504,17.578,-972.656,28.809,-5.859,10.742,0
1556049160.508,5.371,-972.656,33.691,-8.789,7.324,0
1556049160.512,43.457,-972.656,34.180,4.883,-2.930,0
1556049160.514,65.430,-972.168,32.715,9.277,16.113,0
1556049160.518,19.531,-972.168,30.762,-23.926,21.484,0
1556049160.522,-19.531,-972.656,34.180,-23.438,27.344,0
1556049160.526,22.461,-972.168,36.621,-3.418,-6.836,0
1556049160.530,57.617,-972.168,36.621,-10.742,8.789,0
1556049160.534,24.902,-972.656,35.156,-9.277,49.316,0
1556049160.538,-1.953,-972.656,34.668,-16.113,56.641,0
1556049160.541,0.000,-972.656,30.273,-27.344,60.547,0
1556049160.545,29.785,-972.656,32.227,-17.090,66.895,0
1556049160.549,41.504,-972.656,35.156,-5.371,45.898,0
1556049160.553,0.000,-972.168,29.297,-13.672,8.789,0
1556049160.557,-8.301,-972.168,28.320,-22.461,16.113,0
1556049160.559,47.852,-972.656,27.832,-19.531,-29.785,0
1556049160.563,64.453,-972.656,29.297,-14.160,-18.066,0
1556049160.567,17.578,-972.168,33.691,8.301,36.621,0
1556049160.571,-0.488,-972.168,35.156,20.020,69.336,0
1556049160.575,52.246,-972.168,35.156,1.465,22.949,0
1556049160.579,62.012,-972.168,38.574,-6.836,9.766,0
1556049160.583,38.086,-972.656,37.598,-13.672,86.426,0
1556049160.586,11.719,-972.656,35.156,-14.160,47.852,0
1556049160.590,16.113,-972.656,36.621,-10.742,43.945,0
1556049160.594,46.387,-972.168,36.621,-6.348,57.617,0
1556049160.598,37.109,-972.168,35.645,-10.254,33.203,0
1556049160.602,17.090,-972.656,35.156,-0.488,6.836,0
1556049160.619,24.414,-972.656,34.180,1.953,18.555,0
1556049160.623,58.594,-972.656,35.645,6.348,33.691,0
1556049160.627,43.945,-972.656,35.156,5.371,8.789,0
1556049160.631,10.742,-972.168,33.203,11.230,-1.465,0
1556049160.635,10.254,-972.168,31.250,9.277,13.672,0
1556049160.639,49.805,-972.656,30.762,-3.418,56.152,0
1556049160.643,79.102,-972.656,32.715,13.672,41.992,0
1556049160.646,31.250,-972.656,35.156,19.531,1.953,0
1556049160.650,14.160,-971.191,37.598,26.855,33.203,0
1556049160.654,58.105,-975.098,33.203,16.113,49.805,0
1556049160.658,72.266,-965.332,31.738,12.695,20.508,0
1556049160.662,48.340,-956.055,35.156,25.391,54.199,0
1556049160.665,26.367,-972.168,33.691,12.695,58.594,0
1556049160.669,51.758,-973.633,34.180,6.836,43.457,0
1556049160.673,63.965,-971.680,38.086,-2.930,33.691,0
1556049160.677,44.434,-972.656,36.621,4.883,29.297,0
1556049160.681,18.066,-972.656,40.039,20.020,-3.906,0
1556049160.685,14.648,-972.656,40.527,-6.348,-16.602,0
1556049160.689,45.410,-972.656,38.086,-7.324,-10.742,0
1556049160.692,60.547,-972.656,39.551,15.137,-13.672,0
1556049160.696,14.648,-972.656,41.016,-10.742,2.441,0
1556049160.700,-5.859,-972.656,37.109,-23.926,30.762,0
1556049160.704,38.574,-972.656,32.715,-9.766,58.105,0
1556049160.708,50.293,-972.168,32.227,-1.953,56.152,0
