timestamps,TP9,AF7,AF8,TP10,Right AUX,Marker0
1581694863.903,26.367,33.203,27.344,22.461,0.0,0
1581694863.907,22.461,22.461,28.32,19.531,0.0,0
1581694863.911,20.508000000000006,24.902,35.645,16.602,0.0,0
1581694863.915,20.996,32.715,34.18,20.02,0.0,0
1581694863.919,20.508000000000006,35.156,27.344,9.766,0.0,0
1581694863.923,24.414,36.133,27.344,17.09,0.0,0
1581694863.927,29.297,38.574,23.926,23.438,0.0,0
1581694863.93,33.203,38.086,23.926,20.508000000000006,0.0,0
1581694863.934,32.227,33.691,25.391,11.23,0.0,0
1581694863.938,25.391,36.621,25.879,7.812,0.0,0
1581694863.9420002,22.949,37.109,25.391,17.578,0.0,0
1581694863.946,20.508000000000006,24.902,22.949,20.02,0.0,0
1581694863.948,15.625,18.555,22.949,12.695,0.0,0
1581694863.952,19.043,26.367,24.902,10.742,0.0,0
1581694863.956,19.043,30.762,25.879,16.602,0.0,0
1581694863.96,13.184,29.785,27.832,19.531,0.0,0
1581694863.964,18.555,33.203,26.367,16.602,0.0,0
1581694863.968,28.32,35.645,24.414,19.531,0.0,0
1581694863.972,31.25,34.18,26.367,25.879,0.0,0
1581694863.975,33.691,34.18,29.297,23.438,0.0,0
1581694863.979,36.133,34.668,32.715,19.043,0.0,0
1581694863.9829998,32.715,27.832,31.738000000000003,19.043,0.0,0
1581694863.9870002,33.691,27.832,24.902,24.902,0.0,0
1581694863.9910002,32.227,34.668,21.973000000000006,31.738000000000003,0.0,0
1581694863.9929998,27.344,32.227,24.902,26.367,0.0,0
1581694863.9970002,24.902,31.25,25.391,18.555,0.0,0
1581694864.0010002,25.391,35.156,24.902,22.461,0.0,0
1581694864.005,26.855,35.156,26.855,26.367,0.0,0
1581694864.0089998,25.879,37.598,25.391,21.484,0.0,0
1581694864.0129998,24.414,35.645,25.879,25.879,0.0,0
1581694864.0170002,22.461,30.762,26.855,28.32,0.0,0
1581694864.02,20.508000000000006,31.738000000000003,26.367,23.438,0.0,0
1581694864.024,27.832,34.18,24.902,20.996,0.0,0
1581694864.028,29.297,39.551,24.414,18.555,0.0,0
1581694864.032,21.973000000000006,39.062,24.414,19.043,0.0,0
1581694864.036,19.531,33.691,22.461,20.996,0.0,0
1581694864.038,22.949,34.668,21.973000000000006,19.043,0.0,0
1581694864.042,22.461,35.645,21.484,13.184,0.0,0
1581694864.046,21.973000000000006,29.297,25.391,17.578,0.0,0
1581694864.05,20.996,26.855,29.297,21.484,0.0,0
1581694864.054,22.461,26.855,23.926,14.16,0.0,0
1581694864.0579998,27.344,24.902,20.508000000000006,8.789,0.0,0
1581694864.062,22.461,26.855,21.484,14.16,0.0,0
1581694864.065,17.578,28.809,19.531,15.137,0.0,0
1581694864.069,17.578,29.297,19.531,12.695,0.0,0
1581694864.073,20.02,29.297,23.438,15.625,0.0,0
1581694864.077,20.02,31.25,25.391,17.578,0.0,0
1581694864.081,17.09,32.715,28.32,19.043,0.0,0
1581694864.083,20.996,31.738000000000003,31.25,21.973000000000006,0.0,0
1581694864.087,26.855,33.691,32.227,27.344,0.0,0
1581694864.091,16.113,29.297,32.227,18.555,0.0,0
1581694864.095,13.672,27.344,23.926,14.16,0.0,0
1581694864.099,22.461,32.227,21.484,23.438,0.0,0
1581694864.103,27.832,31.25,29.297,22.949,0.0,0
1581694864.107,28.809,30.762,28.32,23.926,0.0,0
1581694864.11,25.879,30.762,29.297,24.414,0.0,0
1581694864.1139998,23.438,28.32,34.18,21.484,0.0,0
1581694864.1179998,22.461,28.809,38.086,15.137,0.0,0
1581694864.1220002,26.855,32.227,38.086,8.301,0.0,0
1581694864.1260002,32.227,33.203,36.133,7.324,0.0,0
1581694864.143,29.297,34.668,39.551,9.277,0.0,0
1581694864.147,30.762,38.086,38.574,12.207,0.0,0
1581694864.151,38.086,41.01600000000001,33.691,11.23,0.0,0
1581694864.155,48.828,38.086,30.273000000000003,19.043,0.0,0
1581694864.159,59.57,35.156,27.344,31.738000000000003,0.0,0
1581694864.163,46.875,31.738000000000003,30.762,21.484,0.0,0
1581694864.167,26.855,27.832,41.504,14.16,0.0,0
1581694864.17,26.367,28.809,45.898,22.461,0.0,0
1581694864.174,23.438,28.809,42.48,28.32,0.0,0
1581694864.178,16.602,26.367,39.062,26.855,0.0,0
1581694864.1820002,14.16,25.391,41.504,28.809,0.0,0
1581694864.186,9.766,26.367,44.434,29.785,0.0,0
1581694864.188,10.742,28.809,42.969,26.855,0.0,0
1581694864.1920002,9.277,28.32,42.48,28.809,0.0,0
1581694864.196,10.254,23.438,36.621,33.203,0.0,0
1581694864.2,17.578,21.973000000000006,35.156,23.926,0.0,0
1581694864.204,18.066,21.973000000000006,39.551,18.555,0.0,0
1581694864.208,17.09,19.043,33.691,24.414,0.0,0
1581694864.212,21.484,22.949,31.738000000000003,25.879,0.0,0
1581694864.215,28.809,32.227,38.574,28.809,0.0,0
1581694864.219,26.855,35.156,35.156,35.645,0.0,0
1581694864.2229998,26.855,27.344,34.668,36.133,0.0,0
1581694864.2270002,32.227,28.32,36.133,24.414,0.0,0
1581694864.231,30.762,31.738000000000003,32.715,29.785,0.0,0
1581694864.2329998,34.18,27.832,32.715,35.645,0.0,0
1581694864.2370002,34.668,29.785,35.645,26.855,0.0,0
1581694864.2410002,31.25,34.18,38.086,25.879,0.0,0
1581694864.245,29.785,31.738000000000003,33.203,15.137,0.0,0
1581694864.2489998,27.832,32.715,28.809,12.695,0.0,0
1581694864.2529998,22.949,33.691,28.809,21.973000000000006,0.0,0
1581694864.2570002,27.344,32.227,27.832,24.902,0.0,0
1581694864.26,26.367,29.297,27.344,25.391,0.0,0
1581694864.264,16.113,28.809,29.785,17.09,0.0,0
1581694864.268,22.949,29.785,30.762,19.043,0.0,0
1581694864.272,24.414,27.832,31.25,26.367,0.0,0
1581694864.276,22.461,25.391,33.203,18.555,0.0,0
1581694864.278,28.32,30.273000000000003,29.297,21.973000000000006,0.0,0
1581694864.282,36.621,33.691,28.809,27.344,0.0,0
1581694864.286,39.551,36.621,34.668,29.297,0.0,0
1581694864.29,33.691,35.645,32.227,27.344,0.0,0
1581694864.294,27.832,26.855,28.809,24.902,0.0,0
1581694864.298,27.832,26.367,31.738000000000003,24.414,0.0,0
1581694864.302,28.32,29.785,38.086,20.508000000000006,0.0,0
1581694864.305,23.926,32.715,33.691,25.879,0.0,0
1581694864.309,20.996,32.227,26.367,27.832,0.0,0
1581694864.313,19.043,26.855,26.855,20.02,0.0,0
1581694864.3170002,22.949,25.391,26.855,20.996,0.0,0
1581694864.321,25.391,26.367,24.414,24.902,0.0,0
1581694864.323,28.809,29.297,23.438,27.832,0.0,0
1581694864.327,30.762,28.32,20.996,22.461,0.0,0
1581694864.331,32.227,30.273000000000003,20.996,20.996,0.0,0
1581694864.335,32.227,37.109,27.832,26.367,0.0,0
1581694864.339,29.785,36.133,27.832,23.926,0.0,0
1581694864.343,32.227,32.227,22.949,24.414,0.0,0
1581694864.347,26.855,28.32,25.391,27.832,0.0,0
1581694864.35,26.855,27.344,26.367,29.297,0.0,0
1581694864.354,33.691,31.738000000000003,24.902,29.297,0.0,0
1581694864.3579998,28.32,35.645,25.879,19.531,0.0,0
1581694864.3620002,23.438,30.762,25.879,13.672,0.0,0
1581694864.3660002,22.949,25.391,27.344,25.391,0.0,0
1581694864.3679998,28.809,27.344,27.832,28.809,0.0,0
1581694864.3720002,30.273000000000003,28.809,24.902,28.32,0.0,0
1581694864.3760002,28.809,28.809,23.926,23.438,0.0,0
1581694864.38,33.691,37.598,28.809,19.043,0.0,0
1581694864.3839998,30.762,39.062,34.668,24.902,0.0,0
1581694864.3879998,25.391,32.227,38.086,20.02,0.0,0
1581694864.3920002,21.973000000000006,31.738000000000003,37.109,10.254,0.0,0
1581694864.395,22.461,31.25,29.785,14.648,0.0,0
1581694864.399,21.973000000000006,26.855,22.461,16.602,0.0,0
1581694864.403,20.996,25.391,22.461,18.555,0.0,0
1581694864.407,24.414,31.25,26.367,24.414,0.0,0
1581694864.411,27.344,28.32,30.762,32.715,0.0,0
1581694864.413,34.18,22.949,34.18,37.598,0.0,0
1581694864.417,35.156,30.273000000000003,31.738000000000003,27.344,0.0,0
1581694864.421,26.367,36.621,26.855,16.113,0.0,0
1581694864.425,21.484,36.621,26.367,9.766,0.0,0
1581694864.429,18.555,36.133,26.855,7.812,0.0,0
1581694864.4329998,19.043,41.01600000000001,29.785,9.766,0.0,0
1581694864.437,19.531,45.41,32.227,9.766,0.0,0
1581694864.44,16.113,40.039,29.785,8.301,0.0,0
1581694864.444,17.09,38.574,24.414,4.395,0.0,0
1581694864.448,20.508000000000006,40.527,19.043,10.742,0.0,0
1581694864.452,22.949,39.551,20.996,16.113,0.0,0
1581694864.456,25.879,34.18,22.949,4.883,0.0,0
1581694864.458,28.32,31.25,21.973000000000006,15.137,0.0,0
1581694864.462,28.809,38.086,21.484,26.367,0.0,0
1581694864.466,29.297,41.504,21.484,22.949,0.0,0
1581694864.47,29.297,38.086,21.484,25.391,0.0,0
1581694864.474,29.297,35.156,30.762,22.949,0.0,0
1581694864.478,27.832,37.109,34.668,24.414,0.0,0
1581694864.482,22.949,44.434,31.25,25.391,0.0,0
1581694864.485,22.461,40.039,38.086,26.855,0.0,0
1581694864.4889998,15.625,33.691,39.062,15.137,0.0,0
1581694864.4929998,17.578,37.598,39.062,16.113,0.0,0
1581694864.4970002,23.438,41.504,41.01600000000001,20.02,0.0,0
1581694864.5010002,7.812,38.086,34.668,8.301,0.0,0
1581694864.518,2.441,38.086,35.645,3.906,0.0,0
1581694864.522,3.906,41.992,42.969,-1.953,0.0,0
1581694864.526,-5.859,45.898,42.969,-1.953,0.0,0
1581694864.53,-2.93,51.27,44.922,4.883,0.0,0
1581694864.534,-8.301,53.223,44.434,-2.441,0.0,0
1581694864.538,-26.367,46.875,41.504,-21.484,0.0,0
1581694864.542,-34.18,49.805,51.27,-19.531,0.0,0
1581694864.545,-39.062,56.64100000000001,54.688,-19.043,0.0,0
1581694864.549,-54.688,48.34,49.805,-46.387,0.0,0
1581694864.553,-60.059,47.363,56.64100000000001,-59.082,0.0,0
1581694864.5570002,-67.87100000000001,57.617,59.57,-67.87100000000001,0.0,0
1581694864.561,-83.49600000000002,56.152,59.082,-84.473,0.0,0
1581694864.563,-91.309,55.176,66.406,-99.121,0.0,0
1581694864.5670002,-98.633,54.199,73.242,-112.305,0.0,0
1581694864.571,-105.469,52.246,72.75399999999998,-117.188,0.0,0
1581694864.575,-109.375,57.617,71.777,-117.188,0.0,0
1581694864.579,-114.746,60.547,74.219,-118.164,0.0,0
1581694864.583,-122.559,60.059,78.125,-121.582,0.0,0
1581694864.587,-125.488,63.477,78.613,-122.07,0.0,0
1581694864.59,-123.047,68.848,76.66,-131.34799999999998,0.0,0
1581694864.594,-125.0,70.801,74.219,-140.625,0.0,0
1581694864.5979998,-122.559,69.336,76.172,-137.207,0.0,0
1581694864.6020002,-131.34799999999998,64.453,78.125,-138.184,0.0,0
1581694864.606,-136.719,63.477,73.73,-138.184,0.0,0
1581694864.6079998,-128.418,66.406,68.359,-136.719,0.0,0
1581694864.6120002,-126.953,65.918,66.406,-133.789,0.0,0
1581694864.6160002,-120.605,65.918,63.965,-132.32399999999998,0.0,0
1581694864.62,-119.629,65.918,61.035,-128.418,0.0,0
1581694864.6239998,-120.117,60.059,61.035,-118.164,0.0,0
1581694864.6279998,-119.629,58.594,56.64100000000001,-117.188,0.0,0
1581694864.6320002,-116.211,60.059,50.78100000000001,-120.605,0.0,0
1581694864.635,-105.957,59.082,51.27,-120.605,0.0,0
1581694864.639,-101.562,52.246,49.805,-112.305,0.0,0
1581694864.643,-88.37899999999998,53.223,52.734,-95.703,0.0,0
1581694864.647,-80.566,60.547,47.852,-83.008,0.0,0
1581694864.651,-81.055,60.547,42.48,-90.332,0.0,0
1581694864.653,-72.266,59.57,50.78100000000001,-87.402,0.0,0
1581694864.657,-70.801,56.152,50.78100000000001,-76.66,0.0,0
1581694864.661,-74.219,51.27,44.434,-82.031,0.0,0
1581694864.665,-61.035,51.758,41.992,-77.637,0.0,0
1581694864.669,-48.828,54.688,41.504,-67.87100000000001,0.0,0
1581694864.673,-49.316,58.105,42.48,-62.5,0.0,0
1581694864.677,-52.734,53.71100000000001,43.945,-57.129,0.0,0
1581694864.68,-48.828,49.316,44.434,-48.828,0.0,0
1581694864.684,-39.551,52.246,38.574,-44.922,0.0,0
1581694864.688,-37.598,51.758,39.062,-39.551,0.0,0
1581694864.6920002,-41.992,45.898,39.062,-37.109,0.0,0
1581694864.696,-41.504,42.48,38.086,-37.109,0.0,0
1581694864.698,-31.25,43.945,36.621,-34.18,0.0,0
1581694864.702,-20.02,43.945,31.25,-30.273000000000003,0.0,0
1581694864.706,-17.09,46.387,32.227,-27.344,0.0,0
1581694864.71,-20.02,48.828,34.18,-32.227,0.0,0
1581694864.714,-22.461,44.434,33.203,-25.391,0.0,0
1581694864.718,-17.578,39.551,33.691,-19.531,0.0,0
1581694864.722,-10.742,40.039,30.273000000000003,-19.531,0.0,0
1581694864.725,-10.742,43.945,23.438,-16.113,0.0,0
1581694864.729,-7.812,46.387,17.09,-11.23,0.0,0
1581694864.7329998,-3.906,40.039,20.996,-2.93,0.0,0
1581694864.7370002,-3.418,32.715,27.832,2.441,0.0,0
1581694864.7410002,1.465,33.691,22.461,6.348,0.0,0
1581694864.7429998,13.184,34.18,19.043,0.977,0.0,0
1581694864.7470002,22.461,35.156,20.996,0.977,0.0,0
1581694864.7510002,27.832,33.691,14.648,11.719,0.0,0
1581694864.755,34.18,30.273000000000003,12.207,21.484,0.0,0
1581694864.7589998,37.598,28.32,14.648,22.949,0.0,0
1581694864.7629998,42.48,24.414,18.555,32.227,0.0,0
1581694864.7670002,52.246,24.414,20.02,44.922,0.0,0
1581694864.77,55.176,19.531,19.531,48.34,0.0,0
1581694864.774,58.594,12.207,18.066,53.223,0.0,0
1581694864.778,62.012,9.766,14.16,56.152,0.0,0
1581694864.782,68.359,10.254,11.719,58.105,0.0,0
1581694864.786,76.66,10.742,5.371,67.87100000000001,0.0,0
1581694864.788,83.984,11.23,1.465,76.172,0.0,0
1581694864.792,86.914,11.23,4.883,74.219,0.0,0
1581694864.796,84.473,6.836,5.371,72.266,0.0,0
1581694864.8,85.93799999999997,5.371,3.906,77.148,0.0,0
1581694864.804,95.215,3.418,0.977,83.008,0.0,0
1581694864.8079998,102.051,0.488,-4.883,92.773,0.0,0
1581694864.812,105.957,0.488,-2.93,98.145,0.0,0
1581694864.815,116.211,6.348,5.859,106.445,0.0,0
1581694864.819,119.141,9.766,8.301,120.117,0.0,0
1581694864.823,115.234,2.93,3.418,125.488,0.0,0
1581694864.827,118.164,1.953,-1.953,114.258,0.0,0
1581694864.831,122.559,6.348,-3.418,109.375,0.0,0
1581694864.833,126.953,5.859,-5.371,118.164,0.0,0
1581694864.837,132.32399999999998,6.836,-8.789,123.047,0.0,0
1581694864.841,139.648,10.254,-5.371,119.629,0.0,0
1581694864.845,142.09,11.23,-3.906,114.258,0.0,0
1581694864.849,134.27700000000002,6.836,-6.348,115.723,0.0,0
1581694864.853,129.395,-1.465,-2.93,120.117,0.0,0
1581694864.857,126.953,-0.488,0.488,131.836,0.0,0
1581694864.86,111.816,2.93,-0.488,137.207,0.0,0
1581694864.8639998,104.98,1.465,0.488,136.23,0.0,0
1581694864.8679998,107.91,2.441,-3.906,132.812,0.0,0
1581694864.8720002,107.422,4.883,-6.348,126.465,0.0,0
1581694864.8760002,105.469,0.977,3.418,132.32399999999998,0.0,0
1581694864.893,104.98,1.465,10.742,133.30100000000002,0.0,0
1581694864.897,106.934,9.766,10.254,125.977,0.0,0
1581694864.901,107.91,9.766,6.836,117.676,0.0,0
1581694864.905,110.84,7.324,4.395,114.746,0.0,0
1581694864.909,105.469,9.277,1.953,111.816,0.0,0
1581694864.913,99.121,11.719,4.395,101.562,0.0,0
1581694864.917,100.586,15.137,7.324,97.168,0.0,0
1581694864.92,100.098,16.602,5.859,99.609,0.0,0
1581694864.924,102.051,16.113,5.371,103.516,0.0,0
1581694864.928,104.004,19.531,4.395,96.68,0.0,0
1581694864.9320002,102.051,21.973000000000006,4.883,93.75,0.0,0
1581694864.936,102.539,19.043,8.789,108.887,0.0,0
1581694864.939,98.633,16.113,9.766,106.934,0.0,0
1581694864.9429998,94.727,17.578,6.348,100.586,0.0,0
1581694864.947,97.168,21.973000000000006,9.766,104.004,0.0,0
1581694864.951,93.262,24.414,14.648,95.215,0.0,0
1581694864.955,90.332,22.461,13.672,90.332,0.0,0
1581694864.959,90.332,23.438,9.277,91.797,0.0,0
1581694864.9629998,81.055,22.949,9.766,88.867,0.0,0
1581694864.966,75.684,20.02,17.578,87.402,0.0,0
1581694864.97,76.172,20.02,20.02,78.613,0.0,0
1581694864.974,75.684,23.926,17.09,79.59,0.0,0
1581694864.978,76.66,30.273000000000003,17.578,79.102,0.0,0
1581694864.982,74.707,30.762,15.625,70.312,0.0,0
1581694864.984,75.684,25.391,12.695,71.777,0.0,0
1581694864.988,74.219,24.414,11.719,71.777,0.0,0
1581694864.992,69.824,27.344,13.184,77.148,0.0,0
1581694864.996,68.359,24.902,11.719,70.312,0.0,0
1581694865.0,69.824,20.996,9.766,57.617,0.0,0
1581694865.004,69.336,23.438,7.812,64.453,0.0,0
1581694865.008,70.312,24.902,8.301,69.824,0.0,0
1581694865.0110002,70.801,25.391,14.648,69.824,0.0,0
1581694865.015,67.383,27.832,17.578,68.848,0.0,0
1581694865.019,62.5,23.926,18.555,63.965,0.0,0
1581694865.0229998,59.57,21.484,20.02,61.523,0.0,0
1581694865.0270002,56.64100000000001,20.996,19.531,63.477,0.0,0
1581694865.029,53.71100000000001,15.625,17.09,64.941,0.0,0
1581694865.033,54.199,17.09,13.672,58.594,0.0,0
1581694865.0370002,53.223,22.461,15.137,57.617,0.0,0
1581694865.041,50.293,28.809,15.137,57.129,0.0,0
1581694865.045,46.387,33.691,15.137,45.898,0.0,0
1581694865.049,45.41,35.156,17.09,36.133,0.0,0
1581694865.053,47.363,33.691,17.09,37.598,0.0,0
1581694865.056,43.457,30.762,18.066,41.992,0.0,0
1581694865.06,39.551,29.785,23.926,42.969,0.0,0
1581694865.064,41.504,32.227,23.926,28.809,0.0,0
1581694865.0679998,44.922,33.691,20.508000000000006,24.414,0.0,0
1581694865.072,58.594,33.203,18.555,57.129,0.0,0
1581694865.074,60.547,35.156,21.484,65.43,0.0,0
1581694865.0779998,27.344,32.227,27.832,25.391,0.0,0
1581694865.082,12.695,24.902,30.273000000000003,11.719,0.0,0
1581694865.086,21.973000000000006,22.461,31.738000000000003,23.438,0.0,0
1581694865.09,15.625,23.438,29.297,15.625,0.0,0
1581694865.094,7.324,24.414,27.344,4.883,0.0,0
1581694865.0979998,6.836,23.926,30.762,2.93,0.0,0
1581694865.101,-3.906,21.973000000000006,31.738000000000003,-12.207,0.0,0
1581694865.105,-16.113,22.461,24.902,-20.02,0.0,0
1581694865.109,-15.137,19.531,21.973000000000006,-16.602,0.0,0
1581694865.113,-13.672,15.137,25.391,-16.602,0.0,0
1581694865.117,-23.438,18.066,24.902,-26.367,0.0,0
1581694865.1179998,-23.926,21.973000000000006,25.391,-23.438,0.0,0
1581694865.1220002,-15.625,25.879,26.855,-9.277,0.0,0
1581694865.1260002,-12.695,27.344,24.414,-6.348,0.0,0
1581694865.13,-8.301,28.809,17.09,-0.488,0.0,0
1581694865.1339998,-2.441,29.297,12.695,0.0,0.0,0
1581694865.1379998,1.465,25.879,16.113,1.465,0.0,0
1581694865.1420002,8.301,23.926,20.02,10.742,0.0,0
1581694865.145,18.555,28.32,27.344,15.137,0.0,0
1581694865.149,28.32,31.25,31.25,17.578,0.0,0
1581694865.153,30.762,31.25,31.25,28.809,0.0,0
1581694865.157,26.367,30.762,27.832,36.133,0.0,0
1581694865.161,23.438,26.855,21.484,38.574,0.0,0
1581694865.163,25.879,27.344,20.996,42.969,0.0,0
1581694865.167,26.367,29.297,21.973000000000006,41.504,0.0,0
1581694865.171,23.926,24.414,18.555,40.527,0.0,0
1581694865.175,29.297,20.02,16.602,41.504,0.0,0
1581694865.179,27.344,20.02,16.602,40.039,0.0,0
1581694865.1829998,23.438,23.438,16.602,37.109,0.0,0
1581694865.187,25.879,29.297,19.531,29.297,0.0,0
1581694865.19,30.273000000000003,33.203,21.484,23.438,0.0,0
1581694865.194,26.367,30.762,22.461,24.902,0.0,0
1581694865.198,26.855,31.25,26.367,29.785,0.0,0
1581694865.202,29.785,34.18,25.879,31.25,0.0,0
1581694865.206,26.367,32.715,20.508000000000006,28.809,0.0,0
1581694865.2229998,25.879,33.203,20.02,31.25,0.0,0
1581694865.2270002,27.344,31.738000000000003,21.484,38.086,0.0,0
1581694865.231,30.273000000000003,29.785,21.973000000000006,39.062,0.0,0
1581694865.235,31.25,34.18,18.555,33.203,0.0,0
1581694865.2389998,34.18,38.574,16.602,33.203,0.0,0
1581694865.2429998,35.645,40.527,17.578,33.203,0.0,0
1581694865.2470002,32.715,36.133,21.484,30.762,0.0,0
1581694865.25,27.344,27.832,25.879,35.645,0.0,0
1581694865.254,25.391,31.738000000000003,26.367,38.574,0.0,0
1581694865.258,25.391,35.645,24.902,35.645,0.0,0
1581694865.262,25.879,37.109,25.879,30.762,0.0,0
1581694865.266,25.879,36.133,23.926,25.391,0.0,0
1581694865.268,22.461,31.738000000000003,18.555,21.484,0.0,0
1581694865.272,28.32,32.227,24.902,22.949,0.0,0
1581694865.276,28.32,34.18,30.273000000000003,22.949,0.0,0
1581694865.28,23.438,32.227,26.855,23.438,0.0,0
1581694865.284,28.32,30.273000000000003,26.367,25.391,0.0,0
1581694865.288,32.715,31.25,26.855,25.879,0.0,0
1581694865.292,30.762,31.738000000000003,29.785,27.344,0.0,0
1581694865.295,29.297,33.203,34.18,27.344,0.0,0
1581694865.299,31.738000000000003,36.621,34.18,21.973000000000006,0.0,0
1581694865.303,32.227,35.645,30.273000000000003,25.879,0.0,0
1581694865.3070002,28.32,33.203,28.32,28.32,0.0,0
1581694865.311,30.762,32.715,32.715,32.227,0.0,0
1581694865.313,32.715,32.715,33.203,40.039,0.0,0
1581694865.3170002,28.809,31.25,32.715,39.551,0.0,0
1581694865.321,28.32,31.25,36.133,32.715,0.0,0
1581694865.325,26.855,32.715,36.621,23.926,0.0,2
1581694865.329,30.762,32.715,37.598,37.598,0.0,0
1581694865.333,36.133,33.203,37.109,34.668,0.0,0
1581694865.337,28.32,25.879,32.227,12.695,0.0,0
1581694865.34,20.02,23.438,27.832,14.648,0.0,0
1581694865.344,20.996,32.227,31.25,17.09,0.0,0
1581694865.3479998,22.461,34.668,35.156,17.09,0.0,0
1581694865.3520002,22.461,35.156,34.18,18.555,0.0,0
1581694865.356,22.461,35.645,36.133,23.438,0.0,0
1581694865.3579998,22.949,33.203,38.574,24.414,0.0,0
1581694865.3620002,29.785,35.645,37.109,21.484,0.0,0
1581694865.3660002,31.25,38.574,37.109,21.973000000000006,0.0,0
1581694865.37,25.879,35.645,36.133,19.043,0.0,0
1581694865.3739998,23.926,29.297,30.273000000000003,16.113,0.0,0
1581694865.3779998,20.508000000000006,26.367,27.832,15.625,0.0,0
1581694865.3820002,20.508000000000006,29.297,30.273000000000003,17.09,0.0,0
1581694865.385,24.902,29.785,31.25,18.066,0.0,0
1581694865.389,28.809,31.25,34.668,23.438,0.0,0
1581694865.393,27.832,37.109,33.691,28.809,0.0,0
1581694865.397,25.391,37.598,28.809,22.461,0.0,0
1581694865.401,26.367,29.297,29.297,21.484,0.0,0
1581694865.403,22.949,25.879,31.25,27.344,0.0,0
1581694865.407,20.02,29.785,31.738000000000003,23.926,0.0,0
1581694865.411,24.902,37.109,29.297,23.438,0.0,0
1581694865.415,29.297,41.01600000000001,27.344,19.043,0.0,0
1581694865.419,25.391,34.668,33.203,18.555,0.0,0
1581694865.423,24.414,31.738000000000003,37.109,28.809,0.0,0
1581694865.427,27.832,35.645,35.156,23.438,0.0,0
1581694865.43,30.762,40.527,35.645,15.137,0.0,0
1581694865.434,33.203,45.898,37.109,20.02,0.0,0
1581694865.438,34.18,41.01600000000001,35.645,33.203,0.0,0
1581694865.4420002,40.039,31.738000000000003,38.086,39.551,0.0,0
1581694865.446,41.01600000000001,31.738000000000003,38.574,36.133,0.0,0
1581694865.448,23.438,33.691,31.738000000000003,19.531,0.0,0
1581694865.452,10.742,30.273000000000003,30.762,13.184,0.0,0
1581694865.456,10.254,31.25,30.762,18.555,0.0,0
1581694865.46,7.324,33.691,30.273000000000003,15.137,0.0,0
1581694865.464,10.742,33.691,32.227,7.324,0.0,0
1581694865.468,14.16,36.621,28.809,6.348,0.0,0
1581694865.472,13.184,35.645,25.879,10.742,0.0,0
1581694865.475,12.695,34.668,28.809,11.23,0.0,0
1581694865.479,13.672,35.156,29.297,11.719,0.0,0
1581694865.4829998,13.184,36.133,24.414,10.254,0.0,0
1581694865.4870002,13.672,38.086,25.391,12.207,0.0,0
1581694865.4910002,18.066,34.18,24.902,15.625,0.0,0
1581694865.4929998,21.484,30.762,25.391,14.648,0.0,0
1581694865.4970002,22.949,31.25,27.832,16.602,0.0,0
1581694865.5010002,21.484,35.156,25.391,21.973000000000006,0.0,0
1581694865.505,22.461,35.156,23.438,17.578,0.0,0
1581694865.5089998,21.973000000000006,32.227,25.391,11.719,0.0,0
1581694865.5129998,16.113,33.203,25.391,14.648,0.0,0
1581694865.5170002,20.02,28.32,22.461,22.461,0.0,0
1581694865.52,23.438,27.344,24.414,20.996,0.0,0
1581694865.524,21.973000000000006,30.273000000000003,30.762,15.625,0.0,0
1581694865.528,25.879,31.738000000000003,35.156,13.184,0.0,0
1581694865.532,26.855,33.691,31.738000000000003,17.09,0.0,0
1581694865.536,21.973000000000006,34.18,25.879,24.414,0.0,0
1581694865.538,27.344,38.574,29.785,31.738000000000003,0.0,0
1581694865.542,35.156,41.504,32.715,32.715,0.0,0
1581694865.546,36.133,39.062,30.273000000000003,31.25,0.0,0
1581694865.55,39.062,31.25,31.25,41.504,0.0,0
1581694865.554,45.898,29.297,31.25,51.27,0.0,0
1581694865.5579998,35.645,37.598,24.414,33.691,0.0,0
1581694865.562,25.391,37.598,21.484,12.207,0.0,0
1581694865.565,32.715,34.18,24.414,22.461,0.0,0
1581694865.569,40.039,38.574,22.461,33.691,0.0,0
1581694865.573,42.48,40.527,20.508000000000006,34.668,0.0,0
1581694865.577,53.223,40.527,22.949,38.086,0.0,0
1581694865.581,60.059,40.527,24.902,29.785,0.0,0
1581694865.583,61.035,35.645,25.391,27.832,0.0,0
1581694865.587,64.453,38.574,25.391,32.715,0.0,0
1581694865.591,61.035,41.01600000000001,28.32,33.203,0.0,0
1581694865.595,53.223,37.598,31.738000000000003,36.133,0.0,0
1581694865.599,45.41,37.109,32.715,46.387,0.0,0
1581694865.603,42.48,40.039,35.645,41.992,0.0,0
1581694865.607,43.457,44.434,38.086,35.645,0.0,0
1581694865.61,41.01600000000001,44.434,34.18,50.293,0.0,0
1581694865.6139998,38.574,41.01600000000001,28.809,48.828,0.0,0
1581694865.6179998,43.457,40.039,27.832,40.527,0.0,0
1581694865.6220002,45.41,42.48,26.855,39.551,0.0,0
1581694865.6260002,44.434,42.48,27.832,41.992,0.0,0
1581694865.643,42.969,41.01600000000001,32.715,53.223,0.0,0
1581694865.647,38.574,39.062,32.715,56.64100000000001,0.0,0
1581694865.651,40.039,39.551,34.18,49.316,0.0,0
1581694865.655,39.551,37.109,39.551,41.992,0.0,0
1581694865.659,36.621,33.691,36.133,36.133,0.0,0
1581694865.663,41.01600000000001,35.645,33.203,40.039,0.0,0
1581694865.667,40.039,39.062,35.645,35.645,0.0,0
1581694865.67,34.668,34.18,33.691,34.18,0.0,0
1581694865.674,35.156,30.762,28.809,40.527,0.0,0
1581694865.678,33.691,32.715,31.738000000000003,41.992,0.0,0
1581694865.6820002,33.691,34.18,32.227,38.086,0.0,0
1581694865.686,38.086,31.738000000000003,33.203,35.156,0.0,0
1581694865.688,36.621,29.297,35.645,44.434,0.0,0
1581694865.6920002,39.062,30.762,33.691,56.152,0.0,0
1581694865.696,42.969,31.25,32.227,48.828,0.0,0
1581694865.7,39.551,33.691,31.738000000000003,42.48,0.0,0
1581694865.704,41.01600000000001,34.668,28.809,44.922,0.0,0
1581694865.708,39.062,33.203,29.785,47.852,0.0,0
1581694865.712,32.715,35.156,35.156,41.992,0.0,0
1581694865.715,37.598,40.527,33.203,36.133,0.0,0
1581694865.719,40.527,39.551,28.32,42.48,0.0,0
1581694865.7229998,38.574,34.668,27.344,42.48,0.0,0
1581694865.7270002,37.598,34.668,28.32,44.434,0.0,0
1581694865.731,39.062,38.086,28.32,43.457,0.0,0
1581694865.7329998,40.527,36.133,28.809,42.969,0.0,0
1581694865.7370002,37.109,32.715,32.715,42.48,0.0,0
1581694865.7410002,36.133,34.18,35.156,48.828,0.0,0
1581694865.745,37.598,37.109,29.297,48.34,0.0,0
1581694865.7489998,38.574,37.598,24.902,26.367,0.0,0
1581694865.7529998,41.01600000000001,41.01600000000001,28.32,31.738000000000003,0.0,0
1581694865.7570002,42.969,40.527,26.855,42.969,0.0,0
1581694865.76,39.062,33.691,24.902,33.691,0.0,0
1581694865.764,35.645,35.156,26.367,25.879,0.0,0
1581694865.768,37.598,38.086,29.297,33.203,0.0,0
1581694865.772,39.062,35.156,27.832,36.621,0.0,0
1581694865.776,38.086,33.691,23.438,27.832,0.0,0
1581694865.778,38.086,31.738000000000003,22.949,31.738000000000003,0.0,0
1581694865.782,39.062,28.32,24.414,30.762,0.0,0
1581694865.786,39.062,34.668,28.32,31.25,0.0,0
1581694865.79,38.086,41.504,30.762,35.156,0.0,0
1581694865.794,36.133,35.156,27.832,37.598,0.0,0
1581694865.798,35.645,30.273000000000003,25.879,35.156,0.0,0
1581694865.802,32.227,32.715,26.367,30.762,0.0,0
1581694865.805,31.738000000000003,35.156,26.855,32.715,0.0,0
1581694865.809,37.109,31.738000000000003,26.367,33.691,0.0,0
1581694865.813,38.574,31.738000000000003,27.344,33.203,0.0,0
1581694865.8170002,34.668,33.203,28.32,33.203,0.0,0
1581694865.821,34.668,35.645,30.273000000000003,39.062,0.0,0
1581694865.823,36.621,33.203,28.32,42.48,0.0,0
1581694865.827,42.969,34.18,24.414,37.109,0.0,0
1581694865.831,42.969,34.668,25.391,37.109,0.0,0
1581694865.835,37.109,30.762,28.809,39.551,0.0,0
1581694865.839,36.133,32.715,30.273000000000003,33.691,0.0,0
1581694865.843,38.574,40.039,25.879,35.156,0.0,0
1581694865.847,53.71100000000001,37.109,26.367,45.898,0.0,0
1581694865.85,42.48,26.855,32.715,32.227,0.0,0
1581694865.854,15.137,24.902,37.598,12.207,0.0,0
1581694865.8579998,16.602,28.32,39.551,24.414,0.0,0
1581694865.8620002,22.461,28.809,37.598,29.297,0.0,0
1581694865.8660002,25.879,30.762,32.715,21.484,0.0,0
1581694865.8679998,22.949,34.18,30.762,20.996,0.0,0
1581694865.8720002,15.137,32.715,32.715,17.578,0.0,0
1581694865.8760002,15.625,31.738000000000003,34.18,9.766,0.0,0
1581694865.88,14.648,31.25,34.18,11.23,0.0,0
1581694865.8839998,13.184,29.785,34.668,25.879,0.0,0
1581694865.8879998,15.137,28.32,32.227,28.32,0.0,0
1581694865.8920002,16.113,26.367,32.715,28.809,0.0,0
1581694865.895,20.508000000000006,25.879,35.156,25.391,0.0,0
1581694865.899,21.484,28.32,33.691,33.203,0.0,0
1581694865.903,22.949,27.344,36.133,34.18,0.0,0
1581694865.907,24.414,23.926,33.203,27.832,0.0,0
1581694865.911,19.531,30.273000000000003,29.297,30.762,0.0,0
1581694865.913,14.16,34.18,30.762,25.879,0.0,0
1581694865.917,13.672,26.855,32.715,23.438,0.0,0
1581694865.921,14.648,24.414,32.227,24.902,0.0,0
1581694865.925,16.113,27.832,31.25,24.902,0.0,0
1581694865.929,17.578,28.32,32.715,19.043,0.0,0
1581694865.9329998,20.508000000000006,30.273000000000003,30.762,18.066,0.0,0
1581694865.937,21.973000000000006,32.227,30.762,23.438,0.0,0
1581694865.94,16.113,28.32,35.156,26.367,0.0,0
1581694865.944,19.043,28.32,32.715,21.973000000000006,0.0,0
1581694865.948,22.949,28.32,25.391,23.926,0.0,0
1581694865.952,20.996,29.297,22.461,27.344,0.0,0
1581694865.956,21.484,29.785,22.461,21.973000000000006,0.0,0
1581694865.958,25.391,30.762,18.555,22.949,0.0,0
1581694865.962,25.391,35.156,19.531,29.297,0.0,0
1581694865.966,21.484,37.109,26.855,26.367,0.0,0
1581694865.97,20.996,33.203,27.832,27.344,0.0,0
1581694865.974,22.949,28.809,27.832,20.508000000000006,0.0,0
1581694865.978,20.508000000000006,29.297,26.367,16.113,0.0,0
1581694865.982,20.508000000000006,28.32,26.855,21.973000000000006,0.0,0
1581694865.985,21.973000000000006,24.902,30.762,24.414,0.0,0
1581694865.9889998,21.973000000000006,27.344,31.25,23.438,0.0,0
1581694865.9929998,23.926,27.344,28.32,23.438,0.0,0
1581694865.9970002,23.438,28.32,20.996,24.902,0.0,0
1581694866.0010002,23.926,32.715,19.531,24.414,0.0,0
1581694866.018,28.809,35.156,24.414,23.438,0.0,0
1581694866.022,28.32,35.645,20.02,22.461,0.0,0
1581694866.026,22.949,31.738000000000003,19.043,21.973000000000006,0.0,0
1581694866.03,23.438,29.297,24.902,31.738000000000003,0.0,0
1581694866.034,26.367,28.32,28.32,32.227,0.0,0
1581694866.038,29.297,28.32,30.762,27.832,0.0,0
1581694866.042,29.297,30.762,30.273000000000003,30.762,0.0,0
1581694866.045,25.879,33.691,28.809,25.391,0.0,0
1581694866.049,27.832,37.598,29.785,24.902,0.0,0
1581694866.053,30.762,34.668,31.738000000000003,22.461,0.0,0
1581694866.0570002,31.738000000000003,31.738000000000003,30.273000000000003,22.949,0.0,0
1581694866.061,28.809,29.785,28.32,23.438,0.0,0
1581694866.063,29.297,28.32,30.762,24.902,0.0,0
1581694866.0670002,30.273000000000003,30.762,31.25,25.879,0.0,0
1581694866.071,28.809,29.785,27.832,23.438,0.0,0
1581694866.075,28.32,31.25,27.344,28.32,0.0,0
1581694866.079,28.32,33.203,27.832,32.715,0.0,0
1581694866.083,25.879,34.18,23.438,25.879,0.0,0
1581694866.087,25.391,38.086,26.367,24.902,0.0,0
1581694866.09,24.414,35.645,35.645,27.344,0.0,0
1581694866.094,22.949,26.855,33.203,32.227,0.0,0
1581694866.0979998,28.32,26.367,26.367,31.25,0.0,0
1581694866.1020002,32.227,33.691,30.273000000000003,26.367,0.0,0
1581694866.106,30.762,34.18,36.621,37.109,0.0,0
1581694866.1079998,32.227,28.809,38.574,44.922,0.0,0
1581694866.1120002,31.738000000000003,28.32,38.086,40.039,0.0,0
1581694866.1160002,29.785,35.156,38.086,29.297,0.0,0
1581694866.12,28.32,34.668,35.156,37.598,0.0,0
1581694866.1239998,22.949,33.691,29.785,37.598,0.0,0
1581694866.1279998,20.996,33.203,29.785,29.785,0.0,0
1581694866.1320002,24.414,25.879,27.832,25.391,0.0,0
1581694866.135,25.879,26.367,25.391,23.926,0.0,0
1581694866.139,28.32,23.438,29.297,35.645,0.0,0
1581694866.143,27.344,20.02,33.203,32.715,0.0,0
1581694866.147,20.02,31.738000000000003,35.156,10.254,0.0,0
1581694866.151,20.996,38.574,34.18,10.742,0.0,0
1581694866.153,26.367,35.645,32.227,26.367,0.0,0
1581694866.157,21.484,36.133,33.691,27.832,0.0,0
1581694866.161,22.461,35.645,33.691,26.855,0.0,0
1581694866.165,27.832,36.621,30.762,26.367,0.0,0
1581694866.169,25.879,36.133,27.344,28.809,0.0,0
1581694866.173,30.273000000000003,34.668,28.32,21.973000000000006,0.0,0
1581694866.177,33.203,33.691,31.738000000000003,19.043,0.0,0
1581694866.18,35.645,35.645,28.32,29.785,0.0,0
1581694866.184,36.621,35.156,26.855,18.555,0.0,0
1581694866.188,29.297,37.598,27.832,17.578,0.0,0
1581694866.1920002,26.855,40.527,28.809,27.344,0.0,0
1581694866.196,29.785,38.574,29.785,21.973000000000006,0.0,0
1581694866.198,30.762,39.062,25.879,18.555,0.0,0
1581694866.202,28.32,36.133,27.832,20.996,0.0,0
1581694866.206,27.832,35.156,32.715,20.996,0.0,0
1581694866.21,31.25,35.156,31.738000000000003,20.02,0.0,0
1581694866.214,29.297,35.156,29.297,25.391,0.0,0
1581694866.218,27.344,37.598,28.809,31.25,0.0,0
1581694866.222,24.902,37.598,26.855,26.367,0.0,0
1581694866.225,25.391,33.691,25.879,26.367,0.0,0
1581694866.229,31.25,32.227,29.785,25.879,0.0,0
1581694866.2329998,32.227,30.273000000000003,30.762,22.461,0.0,0
1581694866.2370002,27.832,27.344,29.785,26.367,0.0,0
1581694866.2410002,28.809,29.297,31.25,28.809,0.0,0
1581694866.2429998,31.738000000000003,31.25,29.785,34.668,0.0,0
1581694866.2470002,30.273000000000003,26.855,32.715,36.621,0.0,0
1581694866.2510002,29.297,28.32,38.086,25.391,0.0,0
1581694866.255,28.809,31.738000000000003,37.109,27.344,0.0,0
1581694866.2589998,27.344,31.25,33.691,27.832,0.0,0
1581694866.2629998,31.738000000000003,33.203,35.156,26.855,0.0,0
1581694866.2670002,30.273000000000003,36.133,38.086,27.344,0.0,0
1581694866.27,23.926,35.645,32.715,26.367,0.0,0
1581694866.274,22.949,31.738000000000003,27.832,25.879,0.0,0
1581694866.278,21.484,30.273000000000003,27.832,25.391,0.0,0
1581694866.282,19.531,27.832,26.367,24.414,0.0,0
1581694866.286,18.555,22.949,31.25,24.902,0.0,0
1581694866.288,20.02,21.484,33.691,31.25,0.0,0
1581694866.292,22.461,23.926,31.738000000000003,28.809,0.0,0
1581694866.296,19.043,26.367,31.738000000000003,27.832,0.0,0
1581694866.3,15.137,27.344,26.367,32.715,0.0,0
1581694866.304,18.066,28.32,23.926,32.715,0.0,0
1581694866.3079998,19.531,28.809,30.273000000000003,29.297,0.0,0
1581694866.312,18.066,33.691,33.691,22.949,0.0,0
1581694866.315,22.461,34.18,32.715,18.066,0.0,0
1581694866.319,26.855,24.902,32.715,12.207,0.0,0
1581694866.323,34.18,26.855,32.715,14.16,0.0,0
1581694866.327,41.01600000000001,35.156,29.297,19.531,0.0,0
1581694866.331,35.645,34.18,27.344,16.113,0.0,0
1581694866.333,28.32,28.32,25.391,19.531,0.0,0
1581694866.337,20.996,26.367,22.949,29.297,0.0,0
1581694866.341,17.578,23.438,26.855,31.738000000000003,0.0,0
1581694866.345,16.113,28.32,32.227,35.645,0.0,0
1581694866.349,14.648,28.809,34.668,38.086,0.0,0
1581694866.353,18.066,24.902,36.133,30.273000000000003,0.0,0
1581694866.357,18.555,30.273000000000003,34.18,28.809,0.0,0
1581694866.36,20.996,32.715,30.762,36.621,0.0,0
1581694866.3639998,25.879,39.062,34.668,36.133,0.0,0
1581694866.3679998,25.391,39.551,40.039,30.762,0.0,0
1581694866.3720002,19.043,28.809,36.621,32.227,0.0,0
1581694866.3760002,14.16,25.879,28.32,21.973000000000006,0.0,0
1581694866.393,21.973000000000006,23.926,23.438,25.391,0.0,0
1581694866.397,31.738000000000003,28.32,21.973000000000006,34.668,0.0,0
1581694866.401,27.832,30.273000000000003,29.297,25.391,0.0,0
1581694866.405,21.973000000000006,28.809,34.668,24.414,0.0,1
1581694866.409,20.02,31.25,31.25,23.438,0.0,0
1581694866.413,21.484,27.832,29.297,25.879,0.0,0
1581694866.417,24.414,24.414,27.344,34.18,0.0,0
1581694866.42,25.391,24.414,28.32,26.367,0.0,0
1581694866.424,26.855,27.344,28.32,20.996,0.0,0
1581694866.428,27.344,32.227,25.879,34.668,0.0,0
1581694866.4320002,28.809,39.062,28.32,33.203,0.0,0
1581694866.436,33.691,36.133,32.715,29.297,0.0,0
1581694866.438,35.156,30.762,30.762,35.645,0.0,0
1581694866.4420002,32.227,30.273000000000003,24.902,37.598,0.0,0
1581694866.446,28.809,29.297,23.926,32.715,0.0,0
1581694866.45,28.809,30.273000000000003,26.855,30.762,0.0,0
1581694866.454,31.25,33.691,23.926,26.367,0.0,0
1581694866.458,32.227,39.062,22.461,21.484,0.0,0
1581694866.462,31.25,39.062,30.762,27.344,0.0,0
1581694866.465,28.32,37.598,35.156,26.367,0.0,0
1581694866.469,28.32,39.062,30.762,17.09,0.0,0
1581694866.4729998,26.367,32.227,31.25,15.137,0.0,0
1581694866.4770002,32.227,30.762,34.668,25.879,0.0,0
1581694866.481,38.086,36.621,34.668,28.32,0.0,0
1581694866.498,35.156,34.18,31.738000000000003,25.879,0.0,0
1581694866.502,32.227,31.738000000000003,29.785,27.344,0.0,0
1581694866.506,31.25,30.273000000000003,32.227,31.738000000000003,0.0,0
1581694866.51,27.344,25.879,27.832,41.01600000000001,0.0,0
1581694866.514,26.367,26.855,26.367,34.18,0.0,0
1581694866.518,31.738000000000003,32.715,32.227,27.344,0.0,0
1581694866.522,33.691,32.715,37.598,27.344,0.0,0
1581694866.525,32.227,33.691,41.01600000000001,28.32,0.0,0
1581694866.529,32.715,35.156,37.598,29.297,0.0,0
1581694866.533,31.25,34.668,38.086,26.367,0.0,0
1581694866.5370002,35.156,37.109,40.039,31.25,0.0,0
1581694866.541,39.551,35.156,34.18,35.156,0.0,0
1581694866.528,40.039,33.203,29.297,29.785,0.0,0
1581694866.532,42.969,37.598,27.832,27.344,0.0,0
1581694866.536,35.645,35.156,28.32,35.156,0.0,0
1581694866.54,30.762,32.227,31.25,39.551,0.0,0
1581694866.544,31.738000000000003,36.133,29.785,34.18,0.0,0
1581694866.548,29.297,34.18,25.879,26.855,0.0,0
1581694866.552,29.785,32.715,26.367,29.785,0.0,0
1581694866.555,32.715,33.203,26.367,30.762,0.0,0
1581694866.559,32.227,28.809,24.414,18.066,0.0,0
1581694866.563,32.227,30.762,22.461,15.625,0.0,0
1581694866.5670002,31.25,33.203,26.367,20.996,0.0,0
1581694866.571,33.691,26.855,29.297,30.273000000000003,0.0,0
1581694866.573,34.668,25.391,25.391,31.25,0.0,0
1581694866.577,34.668,26.855,21.484,25.391,0.0,0
1581694866.581,41.992,26.855,21.973000000000006,26.855,0.0,0
1581694866.585,40.527,26.855,25.879,27.832,0.0,0
1581694866.589,33.691,27.832,24.414,22.949,0.0,0
1581694866.593,29.785,28.809,25.879,16.602,0.0,0
1581694866.597,24.414,32.715,27.832,13.672,0.0,0
1581694866.6,21.484,32.715,26.855,8.301,0.0,0
1581694866.604,21.973000000000006,28.809,32.227,15.625,0.0,0
1581694866.6079998,24.414,31.25,30.762,19.531,0.0,0
1581694866.6120002,28.32,34.668,27.344,14.16,0.0,0
1581694866.6160002,26.855,30.273000000000003,27.832,24.902,0.0,0
1581694866.6179998,22.461,28.32,30.273000000000003,30.762,0.0,0
1581694866.6220002,25.391,26.855,31.738000000000003,27.344,0.0,0
1581694866.6260002,27.344,25.879,28.809,24.414,0.0,0
1581694866.63,26.855,28.32,32.715,27.344,0.0,0
1581694866.6339998,25.879,30.762,40.039,36.133,0.0,0
1581694866.6379998,26.367,30.762,35.645,35.645,0.0,0
1581694866.6420002,26.367,30.273000000000003,31.738000000000003,41.01600000000001,0.0,0
1581694866.645,23.438,33.203,34.18,43.457,0.0,0
1581694866.649,22.949,36.133,32.227,21.973000000000006,0.0,0
1581694866.653,25.391,38.086,32.227,19.043,0.0,0
1581694866.657,26.367,35.645,34.18,22.461,0.0,0
1581694866.661,26.855,31.25,30.762,17.09,0.0,0
1581694866.663,31.25,30.273000000000003,26.367,23.926,0.0,0
1581694866.667,25.391,33.203,26.855,32.227,0.0,0
1581694866.671,11.719,31.738000000000003,29.785,28.32,0.0,0
1581694866.675,10.742,27.832,32.227,29.297,0.0,0
1581694866.679,18.555,27.344,35.156,37.598,0.0,0
1581694866.6829998,20.02,29.297,33.203,38.574,0.0,0
1581694866.687,14.16,32.715,31.738000000000003,30.273000000000003,0.0,0
1581694866.69,16.113,31.738000000000003,27.832,26.855,0.0,0
1581694866.694,21.973000000000006,28.32,23.926,24.414,0.0,0
1581694866.698,21.973000000000006,31.25,27.832,27.344,0.0,0
1581694866.702,23.926,34.18,32.227,30.273000000000003,0.0,0
1581694866.706,29.785,30.762,31.738000000000003,23.926,0.0,0
1581694866.709,29.785,29.297,33.203,24.414,0.0,0
1581694866.7129998,25.391,24.902,30.762,27.832,0.0,0
1581694866.717,24.414,24.414,20.996,37.598,0.0,0
1581694866.721,23.926,31.738000000000003,19.531,35.156,0.0,0
1581694866.725,23.926,32.715,21.484,37.598,0.0,0
1581694866.729,22.949,28.32,20.02,41.992,0.0,0
1581694866.7329998,21.973000000000006,26.855,16.113,29.785,0.0,0
1581694866.736,21.973000000000006,26.855,13.672,22.461,0.0,0
1581694866.74,22.461,29.785,11.719,17.578,0.0,0
1581694866.744,25.879,31.738000000000003,12.207,22.949,0.0,0
1581694866.748,26.855,30.273000000000003,16.113,25.391,0.0,0
1581694866.752,25.879,28.32,19.043,24.902,0.0,0
1581694866.769,27.832,28.32,20.508000000000006,27.344,0.0,0
1581694866.7729998,28.809,29.785,21.484,29.297,0.0,0
1581694866.7770002,24.414,23.926,22.949,35.645,0.0,0
1581694866.781,19.531,24.414,28.32,34.18,0.0,0
1581694866.785,20.508000000000006,30.762,31.25,31.738000000000003,0.0,0
1581694866.789,20.02,30.762,24.414,29.297,0.0,0
1581694866.793,17.578,30.762,18.066,18.066,0.0,0
1581694866.796,17.09,32.227,15.137,21.973000000000006,0.0,0
1581694866.8,20.02,36.133,19.043,32.715,0.0,0
1581694866.804,21.973000000000006,35.156,23.438,28.32,0.0,0
1581694866.8079998,21.484,29.785,21.973000000000006,22.949,0.0,0
1581694866.812,20.996,32.715,24.414,26.855,0.0,0
1581694866.815,22.461,34.668,27.344,21.484,0.0,0
1581694866.819,26.855,36.133,22.949,17.578,0.0,0
1581694866.823,24.902,34.668,21.484,22.461,0.0,0
1581694866.827,21.484,30.762,27.344,15.137,0.0,0
1581694866.831,21.484,31.738000000000003,29.297,16.113,0.0,0
1581694866.835,22.461,33.691,31.25,21.973000000000006,0.0,0
1581694866.839,26.855,35.645,29.785,17.09,0.0,0
1581694866.842,25.391,36.133,29.785,16.602,0.0,0
1581694866.846,20.508000000000006,32.715,31.25,16.113,0.0,0
1581694866.85,20.02,34.18,30.762,16.602,0.0,0
1581694866.854,22.949,39.062,29.785,12.695,0.0,0
1581694866.8579998,24.902,39.062,26.367,10.742,0.0,0
1581694866.859,21.973000000000006,31.738000000000003,24.414,20.02,0.0,0
1581694866.863,18.555,27.344,26.367,14.648,0.0,0
1581694866.867,18.066,27.344,26.855,10.254,0.0,0
1581694866.871,18.066,27.344,24.902,13.672,0.0,0
1581694866.875,20.02,26.367,22.461,13.672,0.0,0
1581694866.879,20.996,23.438,24.414,15.625,0.0,0
1581694866.883,22.461,25.391,23.438,18.066,0.0,0
1581694866.8860002,20.996,34.18,22.461,16.113,0.0,0
1581694866.89,21.973000000000006,34.668,27.344,21.973000000000006,0.0,0
1581694866.894,20.996,31.25,28.32,24.414,0.0,0
1581694866.8979998,17.578,30.762,29.297,16.113,0.0,0
1581694866.9020002,18.066,25.879,30.273000000000003,13.184,0.0,0
1581694866.904,20.996,26.855,30.273000000000003,14.16,0.0,0
1581694866.908,18.066,30.762,32.715,22.461,0.0,0
1581694866.9120002,17.578,30.273000000000003,39.551,28.32,0.0,0
1581694866.916,23.438,35.156,38.086,26.367,0.0,0
1581694866.92,22.949,40.527,30.273000000000003,19.531,0.0,0
1581694866.924,25.879,33.203,29.297,31.25,0.0,0
1581694866.928,29.785,22.949,29.297,39.062,0.0,0
1581694866.931,27.344,26.855,32.227,31.25,0.0,0
1581694866.935,30.762,39.062,35.645,31.738000000000003,0.0,0
1581694866.939,30.762,38.574,35.645,31.25,0.0,0
1581694866.9429998,30.762,36.133,34.18,27.832,0.0,0
1581694866.947,31.738000000000003,41.504,37.109,25.879,0.0,0
1581694866.949,25.391,40.039,39.551,26.855,0.0,0
1581694866.9529998,24.414,32.227,37.598,33.691,0.0,0
1581694866.957,24.902,30.273000000000003,37.598,36.133,0.0,0
1581694866.961,22.949,29.297,34.668,33.691,0.0,0
1581694866.965,29.297,30.273000000000003,30.273000000000003,27.344,0.0,0
1581694866.969,34.668,37.109,31.738000000000003,33.203,0.0,0
1581694866.9729998,27.832,38.574,30.762,29.297,0.0,0
1581694866.976,17.578,32.227,32.715,19.043,0.0,0
1581694866.98,18.555,26.855,40.039,23.926,0.0,0
1581694866.984,19.531,29.785,38.574,26.367,0.0,0
1581694866.988,18.555,29.785,33.691,25.879,0.0,0
1581694866.992,20.996,24.902,29.785,26.367,0.0,0
1581694866.994,24.414,26.367,30.273000000000003,20.02,0.0,0
1581694866.998,25.391,27.344,30.273000000000003,22.949,0.0,0
1581694867.002,19.531,25.879,24.902,25.879,0.0,0
1581694867.006,20.02,28.32,23.926,20.508000000000006,0.0,0
1581694867.01,23.438,31.738000000000003,29.297,18.555,0.0,0
1581694867.014,20.996,32.227,35.156,19.043,0.0,0
1581694867.018,20.02,32.227,30.762,23.926,0.0,0
1581694867.021,22.461,34.18,30.762,22.461,0.0,0
1581694867.025,22.949,31.25,35.156,17.09,0.0,0
1581694867.029,26.367,30.762,34.18,18.066,0.0,0
1581694867.033,28.809,32.715,30.273000000000003,25.879,0.0,0
1581694867.0370002,27.344,30.762,27.832,27.832,0.0,0
1581694867.039,32.227,29.785,29.297,24.414,0.0,0
1581694867.043,31.738000000000003,29.785,32.715,20.996,0.0,0
1581694867.0470002,23.926,27.344,32.715,22.949,0.0,0
1581694867.051,19.043,27.344,30.273000000000003,27.344,0.0,0
1581694867.055,20.508000000000006,29.785,30.273000000000003,25.391,0.0,0
1581694867.059,23.926,27.832,32.227,22.949,0.0,0
1581694867.063,24.902,29.785,32.227,19.043,0.0,0
1581694867.066,22.461,30.273000000000003,24.414,20.508000000000006,0.0,0
1581694867.07,21.973000000000006,25.879,22.461,21.484,0.0,0
1581694867.074,26.367,29.297,26.367,20.508000000000006,0.0,0
1581694867.0779998,21.484,31.738000000000003,24.902,17.578,0.0,0
1581694867.082,13.672,27.344,23.926,15.625,0.0,0
1581694867.084,12.207,26.855,24.902,11.719,0.0,0
1581694867.0879998,15.625,27.832,20.996,9.766,0.0,0
1581694867.092,21.484,28.809,22.949,13.184,0.0,0
1581694867.096,22.949,31.25,25.879,20.508000000000006,0.0,0
1581694867.1,24.902,30.762,24.902,21.484,0.0,0
1581694867.104,27.344,30.762,25.391,10.254,0.0,0
1581694867.1079998,31.738000000000003,31.738000000000003,21.973000000000006,3.906,0.0,0
1581694867.111,38.574,31.738000000000003,20.02,13.672,0.0,0
1581694867.115,35.645,30.762,23.438,20.508000000000006,0.0,0
1581694867.119,27.344,31.738000000000003,24.414,20.02,0.0,0
1581694867.123,23.926,32.715,25.879,24.902,0.0,0
1581694867.127,18.066,33.691,28.32,29.785,0.0,0
1581694867.144,16.602,33.203,25.879,26.367,0.0,0
1581694867.1479998,16.113,32.715,25.391,19.531,0.0,0
1581694867.1520002,12.207,29.785,24.902,15.625,0.0,0
1581694867.156,10.254,25.879,24.902,19.043,0.0,0
1581694867.16,8.301,25.879,29.297,20.996,0.0,0
1581694867.164,9.277,30.762,36.621,23.926,0.0,0
1581694867.168,14.16,37.598,39.551,20.508000000000006,0.0,0
1581694867.171,12.695,30.273000000000003,32.227,13.184,0.0,0
1581694867.175,8.789,24.414,27.344,15.137,0.0,0
1581694867.179,12.695,30.762,26.855,19.043,0.0,0
1581694867.1829998,19.043,32.227,26.367,20.996,0.0,0
1581694867.187,19.043,29.785,26.855,17.578,0.0,0
1581694867.188,17.578,29.297,26.855,24.414,0.0,0
1581694867.1920002,19.043,33.691,28.809,30.273000000000003,0.0,0
1581694867.196,20.02,32.227,30.273000000000003,25.391,0.0,0
1581694867.2,19.531,31.25,31.738000000000003,19.531,0.0,0
1581694867.204,21.484,32.715,32.715,16.602,0.0,0
1581694867.208,21.484,26.367,34.668,18.555,0.0,0
1581694867.212,20.508000000000006,24.902,34.668,20.996,0.0,0
1581694867.215,22.949,30.273000000000003,39.062,22.461,0.0,0
1581694867.219,24.414,32.227,40.039,26.367,0.0,0
1581694867.2229998,25.391,32.227,36.133,20.508000000000006,0.0,0
1581694867.2270002,24.414,31.738000000000003,36.621,16.602,0.0,0
1581694867.231,24.902,29.297,33.691,21.973000000000006,0.0,0
1581694867.2329998,26.855,26.855,31.25,22.949,0.0,0
1581694867.2370002,24.414,28.32,33.691,26.855,0.0,0
1581694867.2410002,22.949,28.32,33.203,23.438,0.0,0
1581694867.245,22.949,32.227,33.203,15.137,0.0,0
1581694867.2489998,26.367,34.668,34.18,15.137,0.0,0
1581694867.2529998,22.949,32.227,33.203,16.602,0.0,0
1581694867.2570002,17.09,30.273000000000003,33.203,16.113,0.0,0
1581694867.26,17.578,32.715,26.367,21.484,0.0,0
1581694867.264,20.996,30.762,21.973000000000006,22.949,0.0,0
1581694867.268,24.902,27.344,29.785,22.949,0.0,0
1581694867.272,22.461,29.297,36.621,24.414,0.0,0
1581694867.276,23.926,33.691,37.598,20.996,0.0,0
1581694867.278,27.344,33.203,34.668,20.508000000000006,0.0,0
1581694867.282,27.344,25.391,33.691,14.648,0.0,0
1581694867.286,26.855,19.531,33.691,17.09,0.0,0
1581694867.29,18.555,22.461,33.691,21.484,0.0,0
1581694867.294,16.602,31.25,34.668,24.414,0.0,0
1581694867.298,20.996,32.715,32.227,15.137,0.0,0
1581694867.302,22.461,33.691,28.809,6.836,0.0,0
1581694867.305,27.832,38.086,27.832,18.555,0.0,0
1581694867.309,27.832,34.18,27.832,16.602,0.0,0
1581694867.313,25.879,28.809,30.273000000000003,11.23,0.0,0
1581694867.3170002,27.832,28.809,34.18,16.113,0.0,0
1581694867.321,27.832,29.785,31.738000000000003,23.926,0.0,0
1581694867.323,28.32,31.25,29.297,24.414,0.0,0
1581694867.327,30.273000000000003,31.738000000000003,33.203,19.043,0.0,0
1581694867.331,29.785,29.297,34.668,28.32,0.0,0
1581694867.335,28.809,32.715,31.738000000000003,40.527,0.0,0
1581694867.339,25.391,35.645,31.738000000000003,36.621,0.0,0
1581694867.343,27.832,29.785,31.25,26.367,0.0,0
1581694867.347,33.203,27.344,25.391,19.531,0.0,0
1581694867.35,35.156,35.156,26.367,17.578,0.0,0
1581694867.354,39.551,34.668,24.414,21.484,0.0,0
1581694867.3579998,39.062,25.391,19.043,24.902,0.0,0
1581694867.3620002,28.809,23.926,20.996,23.926,0.0,0
1581694867.3660002,31.25,28.809,23.926,28.32,0.0,0
1581694867.3679998,31.25,30.273000000000003,24.902,31.25,0.0,0
1581694867.3720002,24.902,27.832,28.32,23.438,0.0,0
1581694867.3760002,27.832,33.691,30.762,27.344,0.0,0
1581694867.38,29.297,34.668,26.855,28.32,0.0,0
1581694867.3839998,26.855,25.879,26.855,22.461,0.0,0
1581694867.3879998,22.949,26.855,28.32,24.902,0.0,0
1581694867.3920002,24.902,32.227,26.367,23.926,0.0,0
1581694867.395,29.297,31.25,31.25,24.414,0.0,0
1581694867.399,26.855,28.32,35.156,25.879,0.0,0
1581694867.403,24.902,28.809,34.18,31.25,0.0,0
1581694867.407,22.461,29.785,35.645,30.273000000000003,0.0,0
1581694867.411,22.949,29.785,37.109,26.367,0.0,0
1581694867.413,25.879,28.32,37.109,29.297,0.0,0
1581694867.417,26.367,24.902,35.645,21.484,0.0,0
1581694867.421,24.414,23.438,35.156,15.625,0.0,0
1581694867.425,21.484,23.438,33.691,19.531,0.0,0
1581694867.429,21.484,24.414,29.297,25.391,0.0,0
1581694867.4329998,21.973000000000006,29.785,26.855,26.855,0.0,0
1581694867.437,22.949,34.18,28.32,18.555,0.0,2
1581694867.44,20.02,28.32,29.297,17.09,0.0,0
1581694867.444,14.16,26.855,24.414,23.926,0.0,0
1581694867.448,14.648,29.297,20.508000000000006,26.855,0.0,0
1581694867.452,16.113,26.855,20.996,27.832,0.0,0
1581694867.456,13.672,23.926,23.926,24.902,0.0,0
1581694867.458,18.555,22.949,24.414,12.207,0.0,0
1581694867.462,20.02,27.832,22.949,3.418,0.0,0
1581694867.466,11.719,24.414,21.973000000000006,7.324,0.0,0
1581694867.47,9.766,20.508000000000006,20.996,14.16,0.0,0
1581694867.474,18.066,23.926,26.855,29.297,0.0,0
1581694867.478,28.809,25.391,28.32,33.691,0.0,0
1581694867.482,20.02,28.809,20.996,17.09,0.0,0
1581694867.485,11.719,30.762,13.672,8.789,0.0,0
1581694867.4889998,13.184,32.227,18.066,15.137,0.0,0
1581694867.4929998,6.348,27.344,23.926,15.625,0.0,0
1581694867.4970002,5.371,20.996,26.855,21.484,0.0,0
1581694867.5010002,14.16,26.855,28.32,32.227,0.0,0
1581694867.518,19.531,30.762,22.949,27.344,0.0,0
1581694867.522,19.043,29.297,19.043,17.578,0.0,0
1581694867.526,17.09,34.668,21.973000000000006,11.23,0.0,0
1581694867.53,19.043,39.551,27.344,16.113,0.0,0
1581694867.534,20.996,39.062,24.902,16.113,0.0,0
1581694867.538,17.578,30.273000000000003,20.996,14.648,0.0,0
1581694867.542,14.648,23.438,23.926,17.09,0.0,0
1581694867.545,20.996,30.762,27.832,19.531,0.0,0
1581694867.549,24.414,31.25,31.25,21.484,0.0,0
1581694867.553,17.09,26.855,29.297,17.578,0.0,0
1581694867.5570002,18.555,31.738000000000003,25.391,21.484,0.0,0
1581694867.561,25.391,29.785,24.414,22.461,0.0,0
1581694867.563,20.02,27.344,27.344,14.648,0.0,0
1581694867.5670002,14.16,28.809,31.738000000000003,14.648,0.0,0
1581694867.571,13.184,26.855,34.18,14.16,0.0,0
1581694867.575,10.254,24.902,28.32,16.113,0.0,0
1581694867.579,18.066,22.949,27.832,26.855,0.0,0
1581694867.583,24.414,27.344,35.645,21.973000000000006,0.0,0
1581694867.587,20.996,31.738000000000003,35.645,15.137,0.0,0
1581694867.59,21.973000000000006,35.156,28.809,27.832,0.0,0
1581694867.594,24.414,31.738000000000003,28.809,34.668,0.0,0
1581694867.5979998,26.367,23.438,31.25,21.973000000000006,0.0,0
1581694867.6020002,24.902,25.391,30.273000000000003,13.672,0.0,0
1581694867.606,20.996,33.691,34.18,22.461,0.0,0
1581694867.6079998,20.508000000000006,38.086,37.598,25.391,0.0,0
1581694867.6120002,20.996,33.691,36.133,24.414,0.0,0
1581694867.6160002,24.414,29.297,38.086,18.066,0.0,0
1581694867.62,27.344,27.832,39.551,21.973000000000006,0.0,0
1581694867.6239998,28.32,27.344,34.668,29.785,0.0,0
1581694867.6279998,23.926,29.785,33.203,29.297,0.0,0
1581694867.6320002,28.809,29.297,31.738000000000003,27.832,0.0,0
1581694867.635,37.598,30.273000000000003,29.785,26.367,0.0,0
1581694867.639,30.762,33.691,32.227,33.691,0.0,0
1581694867.643,28.809,34.668,33.691,28.809,0.0,0
1581694867.647,32.227,31.738000000000003,35.645,19.531,0.0,0
1581694867.651,29.297,27.344,33.203,25.879,0.0,0
1581694867.654,29.297,24.902,27.832,29.785,0.0,0
1581694867.658,26.367,31.25,31.25,32.227,0.0,0
1581694867.6620002,20.996,37.109,34.668,29.297,0.0,0
1581694867.666,29.785,36.133,27.832,20.508000000000006,0.0,0
1581694867.67,30.762,34.668,29.297,22.461,0.0,0
1581694867.674,27.344,33.691,34.18,28.809,0.0,0
1581694867.678,30.273000000000003,34.18,31.738000000000003,28.809,0.0,0
1581694867.681,26.855,32.227,30.762,20.508000000000006,0.0,0
1581694867.685,20.508000000000006,33.203,32.715,20.508000000000006,0.0,0
1581694867.689,19.043,33.203,35.156,26.367,0.0,0
1581694867.6929998,21.484,31.738000000000003,30.762,22.461,0.0,0
1581694867.697,18.555,32.227,27.344,15.625,0.0,0
1581694867.699,19.043,33.203,28.32,24.414,0.0,0
1581694867.7029998,21.484,29.297,28.32,28.32,0.0,0
1581694867.707,20.508000000000006,23.438,28.32,22.461,0.0,0
1581694867.711,22.461,22.949,26.855,19.043,0.0,0
1581694867.715,24.902,26.367,28.32,20.996,0.0,0
1581694867.719,21.484,30.762,27.832,24.902,0.0,0
1581694867.7229998,18.066,28.809,30.273000000000003,16.113,0.0,0
1581694867.726,19.531,27.832,34.18,17.578,0.0,0
1581694867.73,22.461,30.273000000000003,37.109,15.625,0.0,0
1581694867.734,21.973000000000006,28.32,34.18,19.531,0.0,0
1581694867.738,22.949,31.25,32.715,31.738000000000003,0.0,0
1581694867.742,25.391,32.227,36.133,28.32,0.0,0
1581694867.744,28.32,33.691,34.668,22.461,0.0,0
1581694867.748,28.32,35.156,32.227,27.344,0.0,0
1581694867.752,23.926,31.25,35.156,27.832,0.0,0
1581694867.756,26.855,25.879,41.504,28.32,0.0,0
1581694867.76,25.879,27.344,40.039,18.555,0.0,0
1581694867.764,17.09,33.691,32.227,-0.488,0.0,0
1581694867.768,19.531,36.133,29.785,11.23,0.0,0
1581694867.771,23.926,36.133,34.668,20.508000000000006,0.0,0
1581694867.775,27.832,34.18,38.086,20.508000000000006,0.0,0
1581694867.779,25.391,33.203,34.668,19.531,0.0,0
1581694867.783,22.461,34.668,29.785,20.508000000000006,0.0,0
1581694867.7870002,24.414,32.715,30.273000000000003,21.484,0.0,0
1581694867.789,23.438,33.691,29.297,18.555,0.0,0
1581694867.793,23.438,33.691,24.902,21.973000000000006,0.0,0
1581694867.7970002,24.414,30.273000000000003,20.508000000000006,32.715,0.0,0
1581694867.801,25.879,32.227,22.949,30.762,0.0,0
1581694867.805,24.902,29.785,27.832,24.902,0.0,0
1581694867.809,29.297,31.738000000000003,25.879,23.438,0.0,0
1581694867.813,22.949,30.762,27.344,22.461,0.0,0
1581694867.816,14.648,28.32,32.227,20.508000000000006,0.0,0
1581694867.82,19.531,30.273000000000003,27.344,27.344,0.0,0
1581694867.824,20.02,30.762,22.949,24.902,0.0,0
1581694867.8279998,19.043,33.203,28.32,22.461,0.0,0
1581694867.832,22.461,33.691,28.32,26.367,0.0,0
1581694867.834,24.414,35.645,26.855,13.184,0.0,0
1581694867.8379998,26.367,34.18,27.832,17.578,0.0,0
1581694867.842,29.297,33.203,25.391,24.902,0.0,0
1581694867.846,31.738000000000003,35.156,28.32,22.949,0.0,0
1581694867.85,31.25,31.738000000000003,28.809,29.785,0.0,0
1581694867.854,25.879,29.785,28.32,33.691,0.0,0
1581694867.8579998,24.414,32.715,31.25,29.785,0.0,0
1581694867.861,20.996,31.25,30.273000000000003,31.738000000000003,0.0,0
1581694867.865,25.391,29.785,31.738000000000003,31.25,0.0,0
1581694867.869,34.668,32.715,33.691,27.344,0.0,0
1581694867.873,39.551,30.273000000000003,28.32,23.438,0.0,0
1581694867.877,41.992,30.762,28.32,22.949,0.0,0
1581694867.894,41.504,35.156,32.227,20.02,0.0,0
1581694867.8979998,45.41,39.062,28.809,22.949,0.0,0
1581694867.9020002,49.316,40.039,28.32,28.32,0.0,0
1581694867.906,46.387,34.18,33.203,22.949,0.0,0
1581694867.91,36.133,29.297,34.18,24.414,0.0,0
1581694867.914,30.762,28.32,33.203,31.25,0.0,0
1581694867.918,25.391,23.438,32.715,33.203,0.0,0
1581694867.921,23.438,24.414,30.273000000000003,29.785,0.0,0
1581694867.925,20.508000000000006,27.832,29.297,34.668,0.0,0
1581694867.929,13.184,27.832,30.273000000000003,36.621,0.0,0
1581694867.9329998,17.09,29.297,26.855,30.762,0.0,0
1581694867.937,15.137,28.32,23.926,35.645,0.0,0
1581694867.939,14.648,30.762,26.855,33.203,0.0,0
1581694867.9429998,18.066,33.203,30.762,27.344,0.0,0
1581694867.947,18.555,33.203,30.273000000000003,31.25,0.0,0
1581694867.951,21.973000000000006,33.203,27.344,21.484,0.0,0
1581694867.955,21.484,33.691,29.297,19.043,0.0,0
1581694867.959,23.438,30.762,29.297,28.809,0.0,0
1581694867.9629998,21.484,29.785,26.367,24.414,0.0,0
1581694867.966,22.949,32.715,25.879,24.414,0.0,0
1581694867.97,28.809,30.273000000000003,30.273000000000003,30.273000000000003,0.0,0
1581694867.974,26.367,26.367,26.855,20.996,0.0,0
1581694867.978,19.043,28.32,23.438,18.066,0.0,0
1581694867.982,20.996,31.738000000000003,22.949,26.855,0.0,0
1581694867.984,21.484,32.227,20.508000000000006,19.531,0.0,0
1581694867.988,15.625,33.691,22.949,16.602,0.0,0
1581694867.992,15.137,30.762,20.508000000000006,22.461,0.0,0
1581694867.996,18.066,31.25,19.531,19.043,0.0,0
1581694868.0,29.785,37.109,21.973000000000006,22.949,0.0,0
1581694868.004,42.969,37.109,28.32,33.203,0.0,0
1581694868.008,23.438,31.738000000000003,37.598,30.762,0.0,0
1581694868.0110002,11.719,25.391,38.574,19.043,0.0,0
1581694868.015,24.902,22.461,39.551,11.23,0.0,0
1581694868.019,25.391,22.949,34.18,9.277,0.0,0
1581694868.0229998,29.785,27.344,25.391,20.02,0.0,0
1581694868.0270002,22.461,27.832,26.855,20.996,0.0,0
1581694868.029,6.836,20.508000000000006,28.809,11.719,0.0,0
1581694868.033,12.207,19.531,26.367,12.695,0.0,0
1581694868.0370002,11.719,22.461,24.414,11.23,0.0,0
1581694868.041,8.789,23.438,29.297,19.043,0.0,0
1581694868.045,26.855,25.879,32.227,22.461,0.0,0
1581694868.049,24.902,25.391,29.785,8.789,0.0,0
1581694868.053,12.207,28.32,29.785,13.672,0.0,0
1581694868.056,19.531,29.785,28.809,23.926,0.0,0
1581694868.06,13.184,21.973000000000006,25.879,20.02,0.0,0
1581694868.064,12.695,21.973000000000006,23.438,12.207,0.0,0
1581694868.0679998,7.812,23.438,26.855,15.137,0.0,0
1581694868.072,5.371,25.391,31.25,25.879,0.0,0
1581694868.074,25.391,27.344,27.832,26.367,0.0,0
1581694868.0779998,32.715,25.391,31.738000000000003,21.484,0.0,0
1581694868.082,35.156,28.809,33.203,19.043,0.0,0
1581694868.086,29.297,30.762,28.32,23.926,0.0,0
1581694868.09,23.438,30.273000000000003,29.785,25.879,0.0,0
1581694868.094,15.137,29.785,31.25,22.461,0.0,0
1581694868.0979998,18.555,28.809,30.762,18.555,0.0,0
1581694868.101,34.18,31.25,30.762,16.602,0.0,0
1581694868.105,35.156,30.762,32.227,20.996,0.0,0
1581694868.109,30.762,27.832,33.691,23.438,0.0,0
1581694868.113,35.645,30.762,35.156,17.578,0.0,0
1581694868.117,32.715,29.785,36.133,20.508000000000006,0.0,0
1581694868.119,25.879,28.32,35.645,25.391,0.0,0
1581694868.123,33.203,28.32,30.762,26.855,0.0,0
1581694868.127,31.25,23.438,30.762,20.508000000000006,0.0,0
1581694868.131,30.762,27.832,32.227,16.113,0.0,0
1581694868.135,32.227,34.668,30.762,22.949,0.0,0
1581694868.139,28.32,31.738000000000003,32.715,23.438,0.0,0
1581694868.143,25.879,32.227,37.109,27.832,0.0,0
1581694868.146,19.043,33.691,39.062,24.414,0.0,0
1581694868.15,30.762,36.133,36.133,25.879,0.0,0
1581694868.154,36.133,37.109,36.621,31.738000000000003,0.0,0
1581694868.158,30.273000000000003,33.203,37.598,29.297,0.0,0
1581694868.1620002,31.25,34.668,33.691,20.996,0.0,0
1581694868.164,27.344,36.133,28.32,19.043,0.0,0
1581694868.168,24.902,34.668,27.832,29.297,0.0,0
1581694868.1720002,26.367,36.621,30.762,20.508000000000006,0.0,0
1581694868.176,24.902,29.785,30.762,10.742,0.0,0
1581694868.18,24.902,22.949,25.879,20.02,0.0,0
1581694868.184,22.461,33.691,26.855,30.273000000000003,0.0,0
1581694868.188,24.414,42.48,31.738000000000003,32.227,0.0,0
1581694868.191,19.043,35.156,28.32,25.391,0.0,0
1581694868.195,23.438,31.25,29.297,19.043,0.0,0
1581694868.199,30.762,36.621,33.691,22.461,0.0,0
1581694868.2029998,22.461,31.738000000000003,29.785,25.391,0.0,0
1581694868.207,29.297,31.738000000000003,26.855,25.879,0.0,0
1581694868.209,27.344,33.203,26.855,25.879,0.0,0
1581694868.2129998,29.785,32.227,29.785,29.785,0.0,0
1581694868.217,26.367,36.133,30.273000000000003,29.785,0.0,0
1581694868.221,19.043,38.086,32.227,28.32,0.0,0
1581694868.225,20.996,32.715,33.691,28.32,0.0,0
1581694868.229,19.531,28.809,35.156,17.09,0.0,0
1581694868.2329998,19.531,31.25,36.133,12.207,0.0,0
1581694868.236,17.578,31.25,36.133,15.137,0.0,0
1581694868.24,17.09,29.785,36.621,21.484,0.0,0
1581694868.244,19.531,29.297,36.133,23.438,0.0,0
1581694868.248,21.973000000000006,30.762,34.668,24.902,0.0,0
1581694868.252,23.926,35.645,33.203,26.855,0.0,0
1581694868.269,20.996,32.715,33.203,21.484,0.0,0
1581694868.2729998,22.949,30.273000000000003,31.738000000000003,21.484,0.0,0
1581694868.2770002,26.367,33.691,33.691,35.645,0.0,0
1581694868.281,22.461,35.645,31.25,31.25,0.0,0
1581694868.285,18.066,28.32,25.391,18.066,0.0,0
1581694868.289,17.578,29.297,25.391,18.066,0.0,0
1581694868.293,14.648,35.156,25.391,20.996,0.0,0
1581694868.296,18.066,31.738000000000003,26.367,18.066,0.0,0
1581694868.3,20.996,28.809,21.973000000000006,10.254,0.0,0
1581694868.304,21.484,34.18,22.461,10.254,0.0,0
1581694868.3079998,24.414,35.645,28.809,23.926,0.0,0
1581694868.312,24.414,34.18,25.879,31.738000000000003,0.0,0
1581694868.314,24.414,32.227,17.578,15.137,0.0,0
1581694868.3179998,25.391,29.297,21.973000000000006,16.113,0.0,0
1581694868.322,21.973000000000006,30.762,31.25,22.461,0.0,0
1581694868.326,17.578,34.18,35.156,21.973000000000006,0.0,0
1581694868.33,21.973000000000006,38.086,41.504,27.344,0.0,0
1581694868.334,23.438,40.527,43.457,34.18,0.0,0
1581694868.3379998,24.902,39.551,36.133,36.621,0.0,0
1581694868.341,31.738000000000003,37.109,29.785,33.203,0.0,0
1581694868.345,24.414,32.227,27.832,26.855,0.0,0
1581694868.349,22.461,27.344,28.32,20.996,0.0,0
1581694868.353,25.391,28.809,25.879,28.32,0.0,0
1581694868.357,23.438,32.227,31.25,34.668,0.0,0
1581694868.359,25.391,34.18,38.086,25.391,0.0,0
1581694868.363,23.926,36.621,33.691,19.043,0.0,0
1581694868.367,21.484,39.551,30.273000000000003,22.461,0.0,0
1581694868.371,18.555,40.527,30.762,20.508000000000006,0.0,0
1581694868.375,19.531,41.01600000000001,31.738000000000003,21.484,0.0,0
1581694868.379,19.043,35.645,30.273000000000003,20.996,0.0,0
1581694868.383,14.648,26.367,30.273000000000003,16.602,0.0,0
1581694868.3860002,19.043,30.273000000000003,29.297,22.461,0.0,0
1581694868.39,27.832,34.668,27.832,27.832,0.0,0
1581694868.394,26.367,34.18,29.297,27.344,0.0,0
1581694868.3979998,24.414,34.18,27.344,30.762,0.0,0
1581694868.4020002,29.297,38.086,26.855,32.715,0.0,0
1581694868.404,28.32,42.969,31.25,30.273000000000003,0.0,0
1581694868.408,27.344,40.039,31.25,37.109,0.0,0
1581694868.4120002,29.297,36.133,28.32,41.992,0.0,0
1581694868.416,29.785,32.227,29.785,22.461,0.0,0
1581694868.42,23.438,30.762,33.691,18.555,0.0,0
1581694868.424,21.484,36.133,33.203,27.344,0.0,0
1581694868.428,30.273000000000003,38.086,30.762,27.344,0.0,0
1581694868.431,31.25,33.203,30.273000000000003,29.785,0.0,0
1581694868.435,30.762,30.273000000000003,31.25,28.32,0.0,0
1581694868.439,31.25,31.738000000000003,31.25,25.879,0.0,0
1581694868.4429998,29.785,34.18,31.25,32.715,0.0,0
1581694868.447,31.25,31.25,34.18,37.109,0.0,0
1581694868.448,35.645,27.832,37.598,28.32,0.0,0
1581694868.452,35.156,32.227,34.18,23.438,0.0,0
1581694868.456,32.227,39.062,29.297,29.785,0.0,0
1581694868.46,32.227,38.086,25.391,38.086,0.0,0
1581694868.464,28.32,32.227,27.344,33.203,0.0,0
1581694868.468,30.762,34.18,34.668,26.367,0.0,0
1581694868.472,29.297,31.738000000000003,35.645,34.668,0.0,0
1581694868.475,25.391,31.738000000000003,33.691,32.715,0.0,0
1581694868.479,31.25,36.621,34.18,22.461,0.0,0
1581694868.4829998,32.715,34.18,32.227,21.973000000000006,0.0,0
1581694868.4870002,30.762,35.645,30.762,25.879,0.0,0
1581694868.4910002,29.297,37.598,30.273000000000003,26.367,0.0,0
1581694868.4929998,31.738000000000003,39.062,25.391,30.762,0.0,0
1581694868.4970002,33.203,38.086,23.438,39.062,0.0,0
1581694868.5010002,30.273000000000003,35.156,22.949,26.855,0.0,0
1581694868.505,27.344,37.109,23.926,25.391,0.0,0
1581694868.5089998,29.785,33.203,27.832,26.367,0.0,0
1581694868.5129998,31.25,29.785,34.18,21.973000000000006,0.0,0
1581694868.5170002,30.273000000000003,29.785,38.574,31.25,0.0,0
1581694868.52,31.25,30.762,32.227,33.203,0.0,0
1581694868.524,32.715,37.598,24.902,28.32,0.0,0
1581694868.528,28.32,39.551,26.367,28.32,0.0,0
1581694868.532,28.809,34.668,25.391,34.18,0.0,0
1581694868.536,26.367,34.668,22.949,34.668,0.0,0
1581694868.538,23.438,29.297,25.391,24.902,0.0,0
1581694868.542,28.809,24.414,21.973000000000006,18.555,0.0,0
1581694868.546,32.715,29.785,19.531,25.879,0.0,0
1581694868.55,36.621,33.203,26.367,32.715,0.0,0
1581694868.554,30.762,28.809,30.273000000000003,33.203,0.0,0
1581694868.5579998,24.414,27.832,28.809,36.133,0.0,0
1581694868.562,24.902,29.785,25.879,30.762,0.0,0
1581694868.565,20.508000000000006,33.203,23.926,27.344,0.0,0
1581694868.569,22.461,29.297,25.879,27.832,0.0,0
1581694868.573,26.855,18.555,24.902,24.414,0.0,0
1581694868.577,20.508000000000006,17.578,28.32,20.508000000000006,0.0,0
1581694868.581,20.02,22.949,30.273000000000003,18.066,0.0,0
1581694868.583,22.949,27.832,27.832,16.113,0.0,0
1581694868.587,23.438,34.18,29.785,23.926,0.0,0
1581694868.591,24.414,32.227,33.691,27.344,0.0,0
1581694868.595,20.508000000000006,26.855,34.18,21.973000000000006,0.0,0
1581694868.599,16.602,23.926,32.227,29.297,0.0,0
1581694868.603,19.043,26.367,26.367,23.438,0.0,0
1581694868.607,16.602,31.738000000000003,23.926,10.742,0.0,0
1581694868.61,20.508000000000006,23.438,30.762,15.137,0.0,0
1581694868.6139998,27.344,20.996,35.156,29.297,0.0,0
1581694868.6179998,29.297,31.25,31.738000000000003,32.227,0.0,0
1581694868.6220002,28.32,33.203,34.668,27.344,0.0,0
1581694868.6260002,27.344,30.762,34.668,33.203,0.0,0
1581694868.643,22.949,29.297,27.832,37.109,0.0,1
1581694868.647,19.531,20.02,33.203,36.133,0.0,0
1581694868.651,22.461,15.137,37.598,29.297,0.0,0
1581694868.655,22.461,21.484,35.156,17.09,0.0,0
1581694868.659,22.461,29.297,35.645,16.602,0.0,0
1581694868.663,21.973000000000006,31.738000000000003,32.715,10.254,0.0,0
1581694868.667,20.02,32.715,31.25,5.859,0.0,0
1581694868.67,22.461,31.738000000000003,33.691,17.09,0.0,0
1581694868.674,27.832,29.785,30.762,15.137,0.0,0
1581694868.678,32.715,32.715,29.785,11.719,0.0,0
1581694868.6820002,29.297,31.738000000000003,30.273000000000003,11.23,0.0,0
1581694868.686,26.855,30.762,29.297,13.184,0.0,0
1581694868.688,29.785,32.715,31.738000000000003,21.973000000000006,0.0,0
1581694868.6920002,24.902,30.273000000000003,31.738000000000003,32.715,0.0,0
1581694868.696,20.508000000000006,24.414,32.227,26.367,0.0,0
1581694868.7,19.531,22.461,34.668,15.137,0.0,0
1581694868.704,19.531,31.25,36.133,20.508000000000006,0.0,0
1581694868.708,16.602,36.133,38.574,29.297,0.0,0
1581694868.712,19.043,29.297,31.738000000000003,28.32,0.0,0
1581694868.715,17.578,26.855,24.902,22.949,0.0,0
1581694868.719,16.113,30.273000000000003,30.273000000000003,22.949,0.0,0
1581694868.7229998,17.578,32.715,33.203,25.879,0.0,0
1581694868.7270002,24.902,34.668,34.668,30.273000000000003,0.0,0
1581694868.731,27.344,37.598,33.203,23.438,0.0,0
1581694868.7329998,20.996,37.598,31.25,20.02,0.0,0
1581694868.7370002,20.996,34.668,33.203,25.391,0.0,0
1581694868.7410002,19.531,27.832,37.109,22.949,0.0,0
1581694868.745,19.043,27.832,38.086,17.09,0.0,0
1581694868.7489998,18.555,32.227,30.762,20.508000000000006,0.0,0
1581694868.7529998,14.648,32.715,32.227,23.926,0.0,0
1581694868.7570002,15.137,36.133,34.668,20.508000000000006,0.0,0
1581694868.76,20.02,28.32,30.762,22.461,0.0,0
1581694868.764,24.414,24.902,32.715,20.996,0.0,0
1581694868.768,20.508000000000006,31.25,33.203,20.996,0.0,0
1581694868.772,20.508000000000006,29.297,33.203,32.227,0.0,0
1581694868.776,26.855,27.344,37.109,30.273000000000003,0.0,0
1581694868.778,28.32,24.902,34.18,23.926,0.0,0
1581694868.782,29.297,23.926,29.785,23.438,0.0,0
1581694868.786,30.762,27.832,34.18,22.461,0.0,0
1581694868.79,31.738000000000003,27.832,36.133,27.832,0.0,0
1581694868.794,33.691,24.414,31.25,30.273000000000003,0.0,0
1581694868.798,33.203,28.809,28.32,26.367,0.0,0
1581694868.802,30.762,35.645,30.273000000000003,30.762,0.0,0
1581694868.805,31.25,30.762,33.203,40.039,0.0,0
1581694868.809,30.762,24.902,31.25,31.25,0.0,0
1581694868.813,26.855,29.297,23.926,16.113,0.0,0
1581694868.8170002,23.438,29.297,24.414,22.461,0.0,0
1581694868.821,26.367,29.297,27.832,32.227,0.0,0
1581694868.823,28.32,35.156,27.832,29.297,0.0,0
1581694868.827,26.855,38.086,28.32,23.926,0.0,0
1581694868.831,29.785,38.086,29.785,27.344,0.0,0
1581694868.835,25.879,30.762,31.25,29.785,0.0,0
1581694868.839,24.414,25.391,33.203,29.297,0.0,0
1581694868.843,26.855,29.785,33.691,30.273000000000003,0.0,0
1581694868.847,26.855,31.25,31.738000000000003,23.438,0.0,0
1581694868.85,30.762,28.32,29.297,22.949,0.0,0
1581694868.854,32.227,23.926,27.344,29.297,0.0,0
1581694868.8579998,30.762,24.414,26.367,32.715,0.0,0
1581694868.8620002,33.203,34.18,26.855,28.809,0.0,0
1581694868.8660002,31.738000000000003,42.48,26.855,26.855,0.0,0
1581694868.8679998,25.391,34.668,25.391,32.227,0.0,0
1581694868.8720002,28.32,28.32,24.902,33.691,0.0,0
1581694868.8760002,40.039,31.25,25.879,39.062,0.0,0
1581694868.88,41.01600000000001,34.668,30.273000000000003,36.133,0.0,0
1581694868.8839998,30.273000000000003,31.25,33.203,36.621,0.0,0
1581694868.8879998,21.973000000000006,20.02,35.156,29.297,0.0,0
1581694868.8920002,23.926,19.043,36.133,14.648,0.0,0
1581694868.895,31.738000000000003,28.32,32.715,15.625,0.0,0
1581694868.899,34.668,30.273000000000003,31.738000000000003,21.484,0.0,0
1581694868.903,29.297,28.32,31.738000000000003,26.367,0.0,0
1581694868.907,26.855,26.855,25.879,27.344,0.0,0
1581694868.911,30.762,26.855,22.461,23.926,0.0,0
1581694868.914,33.203,31.25,25.879,21.973000000000006,0.0,0
1581694868.918,30.762,34.668,28.809,24.902,0.0,0
1581694868.9220002,33.691,35.156,26.855,21.973000000000006,0.0,0
1581694868.926,34.668,34.18,29.297,26.367,0.0,0
1581694868.93,32.227,33.203,34.18,35.645,0.0,0
1581694868.934,26.367,30.273000000000003,26.367,31.25,0.0,0
1581694868.938,28.32,30.762,22.461,30.273000000000003,0.0,0
1581694868.941,33.691,33.691,25.391,34.18,0.0,0
1581694868.945,32.227,27.832,26.367,32.715,0.0,0
1581694868.949,33.691,26.855,27.832,34.18,0.0,0
1581694868.9529998,29.785,33.203,31.25,32.715,0.0,0
1581694868.957,30.762,33.203,29.297,32.227,0.0,0
1581694868.959,29.297,32.227,25.391,32.227,0.0,0
1581694868.9629998,21.484,30.762,26.367,28.809,0.0,0
1581694868.967,18.555,24.414,22.461,22.949,0.0,0
1581694868.971,20.996,25.879,23.438,15.137,0.0,0
1581694868.975,21.484,27.832,27.344,21.973000000000006,0.0,0
1581694868.979,21.484,30.762,29.297,28.32,0.0,0
1581694868.9829998,21.973000000000006,33.203,33.203,23.926,0.0,0
1581694868.986,22.949,33.691,34.18,33.203,0.0,0
1581694868.99,28.32,35.156,35.156,36.621,0.0,0
1581694868.994,27.344,31.738000000000003,36.621,31.25,0.0,0
1581694868.998,24.414,32.227,28.809,32.715,0.0,0
1581694869.002,18.555,36.133,27.344,28.32,0.0,0
1581694869.019,16.602,33.203,30.273000000000003,23.926,0.0,0
1581694869.0229998,21.973000000000006,29.785,26.855,27.832,0.0,0
1581694869.0270002,17.578,27.344,27.832,31.25,0.0,0
1581694869.031,10.742,30.762,26.855,29.785,0.0,0
1581694869.035,17.09,33.203,24.902,28.809,0.0,0
1581694869.039,22.949,32.227,27.832,20.508000000000006,0.0,0
1581694869.043,24.414,32.715,29.785,21.973000000000006,0.0,0
1581694869.046,21.973000000000006,31.25,23.438,22.461,0.0,0
1581694869.05,20.02,29.297,21.484,16.602,0.0,0
1581694869.054,21.484,31.25,27.832,20.02,0.0,0
1581694869.0579998,15.625,27.832,28.32,28.809,0.0,0
1581694869.062,15.137,25.879,28.32,29.785,0.0,0
1581694869.064,21.484,29.785,31.738000000000003,26.855,0.0,0
1581694869.0679998,27.344,31.738000000000003,33.691,30.762,0.0,0
1581694869.072,24.902,27.832,31.25,21.484,0.0,0
1581694869.076,19.531,27.344,26.855,16.602,0.0,0
1581694869.08,14.648,30.273000000000003,25.391,21.484,0.0,0
1581694869.084,15.625,28.32,25.391,17.578,0.0,0
1581694869.0879998,21.973000000000006,23.438,28.809,24.902,0.0,0
1581694869.091,23.438,24.902,34.668,23.438,0.0,0
1581694869.095,28.32,30.273000000000003,31.738000000000003,20.02,0.0,0
1581694869.099,32.227,34.18,27.832,24.902,0.0,0
1581694869.103,27.832,35.645,24.902,24.902,0.0,0
1581694869.107,23.926,31.738000000000003,26.855,23.438,0.0,0
1581694869.109,21.973000000000006,26.855,31.25,23.926,0.0,0
1581694869.113,22.949,28.32,31.25,27.344,0.0,0
1581694869.117,26.367,32.715,33.203,26.855,0.0,0
1581694869.121,27.832,31.738000000000003,30.273000000000003,25.391,0.0,0
1581694869.125,22.461,31.738000000000003,30.273000000000003,29.297,0.0,0
1581694869.129,20.02,30.273000000000003,30.273000000000003,33.203,0.0,0
1581694869.133,27.344,25.879,25.879,29.297,0.0,0
1581694869.1360002,27.832,27.832,25.391,20.02,0.0,0
1581694869.14,27.832,31.25,29.297,16.602,0.0,0
1581694869.144,27.344,32.715,25.391,22.949,0.0,0
1581694869.1479998,29.297,34.18,21.973000000000006,22.461,0.0,0
1581694869.1520002,29.785,30.762,26.367,19.531,0.0,0
1581694869.154,26.367,25.391,30.273000000000003,21.484,0.0,0
1581694869.158,24.902,24.414,28.32,24.414,0.0,0
1581694869.1620002,25.391,28.32,22.461,22.461,0.0,0
1581694869.166,24.902,32.715,20.508000000000006,16.113,0.0,0
1581694869.17,22.461,31.738000000000003,25.391,20.02,0.0,0
1581694869.174,22.949,31.738000000000003,35.645,28.32,0.0,0
1581694869.178,23.438,30.762,40.527,24.414,0.0,0
1581694869.181,23.438,30.273000000000003,38.574,23.438,0.0,0
1581694869.185,18.555,25.879,37.598,26.367,0.0,0
1581694869.189,20.996,24.902,31.25,27.832,0.0,0
1581694869.1929998,28.32,30.762,30.762,31.25,0.0,0
1581694869.197,25.391,29.297,36.133,30.762,0.0,0
1581694869.199,23.438,25.879,33.691,19.043,0.0,0
1581694869.2029998,21.973000000000006,27.832,29.785,16.602,0.0,0
1581694869.207,23.926,32.227,29.785,21.973000000000006,0.0,0
1581694869.211,21.484,38.574,35.645,22.949,0.0,0
1581694869.215,20.508000000000006,41.01600000000001,35.156,19.531,0.0,0
1581694869.219,26.855,35.645,28.32,21.973000000000006,0.0,0
1581694869.2229998,23.438,31.25,30.762,22.461,0.0,0
1581694869.226,16.602,31.25,34.668,20.02,0.0,0
1581694869.23,16.113,31.25,35.156,18.066,0.0,0
1581694869.234,16.113,31.738000000000003,34.668,19.043,0.0,0
1581694869.238,14.648,35.645,33.203,20.508000000000006,0.0,0
1581694869.242,15.625,37.109,36.133,19.043,0.0,0
1581694869.244,17.09,33.691,38.574,21.973000000000006,0.0,0
1581694869.248,20.02,28.32,38.086,23.926,0.0,0
1581694869.252,23.438,33.691,34.668,26.367,0.0,0
1581694869.256,20.996,40.527,33.203,29.297,0.0,0
1581694869.26,24.414,37.598,34.668,22.949,0.0,0
1581694869.264,29.785,32.715,31.25,20.02,0.0,0
1581694869.268,28.32,32.227,29.297,22.949,0.0,0
1581694869.271,30.273000000000003,34.668,30.273000000000003,25.879,0.0,0
1581694869.275,30.762,33.691,25.879,29.785,0.0,0
1581694869.279,28.32,32.227,27.344,20.996,0.0,0
1581694869.283,19.531,31.25,30.762,14.648,0.0,0
1581694869.2870002,23.438,36.133,31.25,18.066,0.0,0
1581694869.289,29.297,39.062,34.668,16.602,0.0,0
1581694869.293,26.855,30.273000000000003,34.668,23.438,0.0,0
1581694869.2970002,22.949,26.367,27.832,25.879,0.0,0
1581694869.301,20.508000000000006,33.691,27.832,27.832,0.0,0
1581694869.305,21.973000000000006,36.133,28.809,26.855,0.0,0
1581694869.309,22.949,27.832,25.391,28.32,0.0,0
1581694869.313,20.996,26.367,22.461,27.344,0.0,0
1581694869.316,18.555,27.344,22.949,25.391,0.0,0
1581694869.32,23.926,28.809,25.879,23.926,0.0,0
1581694869.324,28.809,27.344,30.273000000000003,20.508000000000006,0.0,0
1581694869.3279998,32.227,27.832,35.156,26.367,0.0,0
1581694869.332,34.18,27.344,32.227,23.438,0.0,0
1581694869.334,28.32,26.367,31.25,20.02,0.0,0
1581694869.3379998,31.25,27.832,29.785,27.344,0.0,0
1581694869.342,31.738000000000003,24.902,26.855,27.344,0.0,0
1581694869.346,27.832,27.344,29.297,24.414,0.0,0
1581694869.35,26.855,34.668,29.297,22.949,0.0,0
1581694869.354,29.785,34.668,22.461,26.855,0.0,0
1581694869.3579998,29.785,29.297,23.438,29.785,0.0,0
1581694869.361,26.367,24.902,33.691,30.273000000000003,0.0,0
1581694869.365,20.02,27.832,33.203,27.344,0.0,0
1581694869.369,14.16,27.832,33.203,30.762,0.0,0
1581694869.373,17.09,24.414,30.762,30.273000000000003,0.0,0
1581694869.377,18.066,25.879,26.855,20.996,0.0,0
1581694869.394,17.578,25.879,28.809,19.043,0.0,0
1581694869.3979998,21.973000000000006,27.832,30.273000000000003,21.973000000000006,0.0,0
1581694869.4020002,28.809,27.832,33.691,26.855,0.0,0
1581694869.406,27.832,21.973000000000006,34.668,19.043,0.0,0
1581694869.41,16.602,22.461,31.25,9.766,0.0,0
1581694869.414,15.625,28.809,27.832,10.254,0.0,0
1581694869.418,27.832,33.203,32.715,12.695,0.0,0
1581694869.421,33.691,32.715,33.203,10.254,0.0,0
1581694869.425,32.227,31.738000000000003,24.902,6.348,0.0,0
1581694869.429,26.367,31.738000000000003,23.926,2.93,0.0,0
1581694869.4329998,19.043,29.785,26.855,5.859,0.0,0
1581694869.437,20.02,31.738000000000003,31.738000000000003,13.672,0.0,0
1581694869.438,24.414,37.598,34.668,19.043,0.0,0
1581694869.4420002,16.113,30.762,32.715,17.578,0.0,0
1581694869.446,14.648,27.832,30.762,19.531,0.0,0
1581694869.45,17.578,31.738000000000003,34.668,20.02,0.0,0
1581694869.454,14.16,29.785,33.691,29.297,0.0,0
1581694869.458,12.695,28.32,27.832,31.25,0.0,0
1581694869.462,12.695,27.344,29.785,25.879,0.0,0
1581694869.465,15.137,29.785,30.762,21.484,0.0,0
1581694869.469,13.184,30.762,22.461,12.207,0.0,0
1581694869.4729998,15.137,27.832,20.02,17.578,0.0,0
1581694869.4770002,20.996,31.738000000000003,21.973000000000006,24.414,0.0,0
1581694869.481,22.949,35.156,25.391,23.926,0.0,0
1581694869.484,19.531,27.832,29.785,22.949,0.0,0
1581694869.488,13.184,22.461,29.297,15.625,0.0,0
1581694869.492,19.043,21.484,27.832,11.23,0.0,0
1581694869.496,26.367,27.344,30.273000000000003,18.066,0.0,0
1581694869.5,26.855,32.715,31.25,20.02,0.0,0
1581694869.504,24.902,36.621,32.227,13.672,0.0,0
1581694869.508,26.855,41.992,35.645,17.578,0.0,0
1581694869.5110002,28.32,42.969,35.645,25.391,0.0,0
1581694869.515,23.438,38.574,28.32,20.508000000000006,0.0,0
1581694869.519,23.926,30.273000000000003,21.484,20.508000000000006,0.0,0
1581694869.5229998,29.785,27.344,22.949,20.508000000000006,0.0,0
1581694869.5270002,29.785,31.738000000000003,30.273000000000003,17.578,0.0,0
1581694869.528,28.809,33.691,31.25,17.09,0.0,0
1581694869.532,27.832,34.18,31.25,19.043,0.0,0
1581694869.536,28.32,35.645,29.785,29.785,0.0,0
1581694869.54,31.25,36.621,29.785,32.227,0.0,0
1581694869.544,32.227,34.668,32.715,21.484,0.0,0
1581694869.548,34.18,35.645,29.785,17.578,0.0,0
1581694869.552,29.297,33.691,24.414,20.508000000000006,0.0,0
1581694869.555,24.414,29.785,25.391,20.02,0.0,0
1581694869.559,22.461,31.738000000000003,25.879,14.648,0.0,0
1581694869.563,18.555,31.738000000000003,25.391,12.207,0.0,0
1581694869.5670002,13.184,34.18,29.297,17.09,0.0,0
1581694869.571,11.719,35.645,30.762,14.648,0.0,0
1581694869.573,18.066,32.715,32.715,13.672,0.0,0
1581694869.577,20.02,30.273000000000003,34.668,21.973000000000006,0.0,0
1581694869.581,26.367,29.785,34.18,25.879,0.0,0
1581694869.585,27.344,26.855,29.297,20.02,0.0,0
1581694869.589,22.949,25.879,29.297,19.531,0.0,0
1581694869.593,19.531,30.762,34.668,26.367,0.0,0
1581694869.597,20.508000000000006,32.227,33.691,21.484,0.0,0
1581694869.6,20.02,32.227,32.715,13.672,0.0,0
1581694869.604,20.02,34.668,30.762,14.648,0.0,0
1581694869.6079998,19.043,31.738000000000003,27.832,20.02,0.0,0
1581694869.6120002,20.508000000000006,29.785,32.715,23.926,0.0,0
1581694869.6160002,25.879,25.391,35.156,26.367,0.0,0
1581694869.6179998,25.391,20.508000000000006,34.668,33.203,0.0,0
1581694869.6220002,28.809,23.926,33.203,26.855,0.0,0
1581694869.6260002,25.879,26.855,30.762,20.02,0.0,0
1581694869.63,23.926,29.785,33.203,23.926,0.0,0
1581694869.6339998,29.785,33.691,38.086,24.902,0.0,0
1581694869.6379998,31.25,37.598,37.109,22.949,0.0,0
1581694869.6420002,35.645,35.645,34.668,25.879,0.0,0
1581694869.645,41.01600000000001,37.109,38.574,33.691,0.0,0
1581694869.649,33.203,37.598,42.48,36.621,0.0,0
1581694869.653,22.461,25.879,41.992,34.668,0.0,0
1581694869.657,21.484,20.996,39.551,22.949,0.0,0
1581694869.661,23.926,28.32,37.598,20.996,0.0,0
1581694869.663,27.832,32.227,38.086,21.484,0.0,0
1581694869.667,27.344,31.738000000000003,35.645,22.461,0.0,0
1581694869.671,27.344,28.32,35.156,20.508000000000006,0.0,0
1581694869.675,25.879,25.391,37.109,13.184,0.0,0
1581694869.679,28.32,31.25,30.762,18.066,0.0,0
1581694869.6829998,26.367,31.738000000000003,20.02,23.926,0.0,0
1581694869.687,20.996,24.902,21.484,15.137,0.0,0
1581694869.69,27.832,27.344,31.738000000000003,20.996,0.0,0
1581694869.694,29.785,34.18,37.109,33.203,0.0,0
1581694869.698,27.832,36.621,34.18,23.926,0.0,0
1581694869.702,24.902,33.691,29.297,19.043,0.0,0
1581694869.706,21.484,33.203,31.25,21.973000000000006,0.0,0
1581694869.708,22.949,32.227,28.809,21.484,0.0,0
1581694869.712,20.996,28.32,25.391,23.926,0.0,0
1581694869.716,17.09,24.902,22.461,27.832,0.0,0
1581694869.72,23.438,27.832,18.555,35.645,0.0,0
1581694869.724,29.297,34.668,20.508000000000006,33.691,0.0,0
1581694869.728,28.32,35.156,25.391,29.297,0.0,0
1581694869.732,24.414,30.762,32.715,37.598,0.0,0
1581694869.735,23.438,30.273000000000003,35.156,29.785,0.0,0
1581694869.7389998,21.973000000000006,29.785,29.785,15.625,0.0,1
1581694869.7429998,19.531,27.344,29.297,16.602,0.0,0
1581694869.7470002,17.578,29.785,31.738000000000003,20.996,0.0,0
1581694869.7510002,19.043,28.809,30.273000000000003,17.09,0.0,0
1581694869.768,22.949,30.273000000000003,25.391,15.625,0.0,0
1581694869.772,20.508000000000006,36.133,22.949,17.09,0.0,0
1581694869.776,21.484,37.109,20.02,21.973000000000006,0.0,0
1581694869.78,24.902,35.156,18.555,22.949,0.0,0
1581694869.784,24.414,32.227,25.879,21.973000000000006,0.0,0
1581694869.788,20.02,34.668,32.715,20.508000000000006,0.0,0
1581694869.792,18.555,35.156,33.691,21.484,0.0,0
1581694869.795,16.602,31.738000000000003,32.715,29.297,0.0,0
1581694869.799,20.508000000000006,33.203,31.25,32.715,0.0,0
1581694869.803,29.785,29.297,27.832,29.297,0.0,0
1581694869.8070002,30.762,29.785,29.297,28.32,0.0,0
1581694869.811,29.297,33.203,32.715,33.203,0.0,0
1581694869.813,27.344,32.227,26.855,27.344,0.0,0
1581694869.8170002,17.578,31.25,24.902,22.949,0.0,0
1581694869.821,16.113,31.25,32.227,27.344,0.0,0
1581694869.825,18.066,34.668,33.691,23.438,0.0,0
1581694869.829,18.555,35.156,28.809,20.996,0.0,0
1581694869.833,16.602,33.691,26.367,20.508000000000006,0.0,0
1581694869.837,11.719,29.785,26.855,17.578,0.0,0
1581694869.84,10.254,28.809,26.367,20.996,0.0,0
1581694869.844,13.672,28.32,26.367,18.066,0.0,0
1581694869.8479998,20.508000000000006,26.855,23.438,23.438,0.0,0
1581694869.8520002,25.391,28.32,22.461,27.344,0.0,0
1581694869.856,26.855,24.414,23.926,20.02,0.0,0
1581694869.8579998,25.879,24.414,20.508000000000006,16.113,0.0,0
1581694869.8620002,24.902,25.391,22.949,17.09,0.0,0
1581694869.8660002,21.484,24.414,27.344,18.555,0.0,0
1581694869.87,16.602,26.855,27.832,12.207,0.0,0
1581694869.8739998,16.113,25.879,26.855,13.184,0.0,0
1581694869.8779998,19.531,24.414,25.391,15.625,0.0,0
1581694869.8820002,21.973000000000006,29.297,19.531,7.812,0.0,0
1581694869.885,18.555,34.18,17.09,6.836,0.0,0
1581694869.889,15.625,34.668,22.949,12.695,0.0,0
1581694869.893,20.02,34.18,29.297,12.695,0.0,0
1581694869.897,24.902,32.227,27.832,17.09,0.0,0
1581694869.901,24.902,30.762,22.949,22.949,0.0,0
1581694869.903,25.879,31.25,22.949,28.809,0.0,0
1581694869.907,23.926,28.809,24.414,24.414,0.0,0
1581694869.911,23.926,25.391,19.531,21.484,0.0,0
1581694869.915,32.227,28.809,14.16,24.414,0.0,0
1581694869.919,32.715,34.18,16.113,23.438,0.0,0
1581694869.923,31.25,35.645,20.508000000000006,29.297,0.0,0
1581694869.927,28.32,28.809,25.391,29.297,0.0,0
1581694869.93,27.832,26.367,22.949,24.414,0.0,0
1581694869.934,27.344,31.738000000000003,19.531,22.949,0.0,0
1581694869.938,22.461,25.391,23.926,18.066,0.0,0
1581694869.9420002,22.461,21.973000000000006,22.949,20.996,0.0,0
1581694869.946,28.32,29.785,19.043,21.973000000000006,0.0,0
1581694869.948,24.902,30.273000000000003,23.438,20.996,0.0,0
1581694869.952,21.973000000000006,29.297,25.391,25.879,0.0,0
1581694869.956,26.855,30.762,24.902,25.879,0.0,0
1581694869.96,26.855,30.762,25.391,27.344,0.0,0
1581694869.964,22.461,29.785,29.785,28.809,0.0,0
1581694869.968,22.461,29.785,35.156,24.902,0.0,0
1581694869.972,22.949,30.273000000000003,32.715,22.461,0.0,0
1581694869.975,16.602,27.344,25.879,17.578,0.0,0
1581694869.979,15.137,28.809,23.926,15.625,0.0,0
1581694869.9829998,20.02,32.715,23.438,20.508000000000006,0.0,0
1581694869.9870002,21.973000000000006,32.227,22.949,19.531,0.0,0
1581694869.9910002,20.02,28.32,20.508000000000006,19.531,0.0,0
1581694869.9929998,15.625,27.832,22.461,17.578,0.0,0
1581694869.9970002,19.531,27.832,28.809,16.602,0.0,0
1581694870.0010002,20.508000000000006,23.438,28.809,25.879,0.0,0
1581694870.005,17.09,20.508000000000006,25.391,23.438,0.0,0
1581694870.0089998,15.137,26.367,26.367,18.555,0.0,0
1581694870.0129998,19.531,38.574,30.273000000000003,20.996,0.0,0
1581694870.0170002,20.02,42.48,28.809,30.762,0.0,0
1581694870.02,17.578,32.227,22.461,29.785,0.0,0
1581694870.024,24.902,28.32,25.391,28.809,0.0,0
1581694870.028,20.996,29.297,27.832,31.738000000000003,0.0,0
1581694870.032,16.602,28.32,21.484,28.32,0.0,0
1581694870.036,19.043,33.203,20.996,28.809,0.0,0
1581694870.038,27.832,37.598,24.902,24.902,0.0,0
1581694870.042,35.645,33.691,28.32,25.879,0.0,0
1581694870.046,26.855,30.273000000000003,28.809,29.297,0.0,0
1581694870.05,23.438,31.25,33.203,26.367,0.0,0
1581694870.054,29.297,30.273000000000003,34.18,28.32,0.0,0
1581694870.0579998,27.344,30.273000000000003,28.809,22.461,0.0,0
1581694870.062,26.367,33.203,26.855,25.391,0.0,0
1581694870.065,26.367,28.32,25.879,31.738000000000003,0.0,0
1581694870.069,24.414,24.902,25.879,27.832,0.0,0
1581694870.073,22.949,27.832,26.367,22.949,0.0,0
1581694870.077,17.578,30.273000000000003,28.809,23.926,0.0,0
1581694870.081,18.066,32.715,29.297,21.484,0.0,0
1581694870.084,17.09,33.203,29.785,18.066,0.0,0
1581694870.0879998,14.648,33.203,29.297,16.602,0.0,0
1581694870.092,21.484,28.32,27.832,13.184,0.0,0
1581694870.096,18.066,24.414,26.855,11.719,0.0,0
1581694870.1,12.207,26.367,25.879,11.719,0.0,0
1581694870.104,17.09,31.738000000000003,26.367,12.207,0.0,0
1581694870.1079998,20.996,34.18,26.367,9.277,0.0,0
1581694870.111,18.555,30.273000000000003,28.32,9.277,0.0,0
1581694870.115,24.902,30.762,27.344,15.625,0.0,0
1581694870.119,32.227,33.691,22.949,14.16,0.0,0
1581694870.123,32.227,30.762,21.484,12.695,0.0,0
1581694870.127,25.391,27.344,23.926,15.625,0.0,0
1581694870.143,21.484,31.25,29.785,27.832,0.0,0
1581694870.147,21.973000000000006,32.227,30.762,27.832,0.0,0
1581694870.151,25.879,28.809,25.879,18.555,0.0,0
1581694870.155,26.855,29.297,23.926,22.949,0.0,0
1581694870.159,21.973000000000006,29.297,22.949,20.508000000000006,0.0,0
1581694870.163,21.973000000000006,29.785,24.414,18.066,0.0,0
1581694870.167,24.902,31.25,27.344,22.949,0.0,0
1581694870.17,28.809,34.18,27.832,24.902,0.0,0
1581694870.174,23.926,34.668,27.832,20.996,0.0,0
1581694870.178,25.391,34.668,28.809,18.066,0.0,0
1581694870.1820002,32.715,32.227,29.785,21.484,0.0,0
1581694870.186,33.691,30.273000000000003,26.855,22.949,0.0,0
1581694870.188,30.273000000000003,28.32,27.344,26.855,0.0,0
1581694870.1920002,28.32,27.344,30.762,24.414,0.0,0
1581694870.196,33.203,32.715,28.32,19.043,0.0,0
1581694870.2,32.227,32.715,26.367,23.926,0.0,0
1581694870.204,25.879,31.25,24.414,31.738000000000003,0.0,0
1581694870.208,20.508000000000006,24.414,26.855,36.621,0.0,0
1581694870.212,18.066,20.996,34.18,28.32,0.0,0
1581694870.215,21.484,28.809,34.18,27.832,0.0,0
1581694870.219,25.391,32.227,33.203,32.715,0.0,0
1581694870.2229998,26.855,32.715,30.762,30.762,0.0,0
1581694870.2270002,26.367,34.668,26.855,26.855,0.0,0
1581694870.231,28.809,36.621,21.973000000000006,28.32,0.0,0
1581694870.234,27.832,37.109,22.949,29.297,0.0,0
1581694870.238,21.973000000000006,33.691,25.879,27.832,0.0,0
1581694870.242,23.926,31.25,30.762,26.367,0.0,0
1581694870.246,27.344,30.762,32.227,20.996,0.0,0
1581694870.25,26.367,30.762,29.785,17.09,0.0,0
1581694870.254,22.949,28.809,29.297,18.066,0.0,0
1581694870.258,20.02,26.367,29.785,21.484,0.0,0
1581694870.2610002,20.996,33.203,30.273000000000003,20.508000000000006,0.0,0
1581694870.265,21.973000000000006,35.156,27.344,18.555,0.0,0
1581694870.269,19.043,26.367,24.414,23.926,0.0,0
1581694870.2729998,24.414,26.367,26.855,26.367,0.0,0
1581694870.2770002,33.203,31.738000000000003,31.25,26.367,0.0,0
1581694870.279,30.762,30.762,30.762,31.738000000000003,0.0,0
1581694870.283,26.367,23.926,29.785,34.668,0.0,0
1581694870.2870002,22.949,26.855,33.203,25.879,0.0,0
1581694870.291,22.949,36.621,30.762,23.438,0.0,0
1581694870.295,23.438,35.645,29.297,23.438,0.0,0
1581694870.299,20.508000000000006,33.203,31.25,21.973000000000006,0.0,0
1581694870.303,23.438,34.668,31.738000000000003,23.438,0.0,0
1581694870.306,21.973000000000006,32.715,34.668,21.973000000000006,0.0,0
1581694870.31,19.043,33.691,39.062,21.973000000000006,0.0,0
1581694870.314,19.531,34.668,36.133,17.578,0.0,0
1581694870.3179998,20.508000000000006,32.227,32.227,20.996,0.0,0
1581694870.322,23.438,33.691,35.645,28.32,0.0,0
1581694870.324,25.391,33.691,33.691,27.832,0.0,0
1581694870.3279998,26.855,31.25,30.762,21.484,0.0,0
1581694870.332,26.855,36.133,29.297,32.715,0.0,0
1581694870.336,34.668,42.969,28.32,39.062,0.0,0
1581694870.34,36.621,39.551,26.855,31.738000000000003,0.0,0
1581694870.344,20.508000000000006,32.227,26.855,23.926,0.0,0
1581694870.3479998,18.555,31.25,30.762,20.996,0.0,0
1581694870.351,26.855,31.738000000000003,34.668,34.668,0.0,0
1581694870.355,24.414,29.785,30.762,27.832,0.0,0
1581694870.359,24.902,31.25,24.902,10.742,0.0,0
1581694870.363,35.645,34.18,25.879,21.973000000000006,0.0,0
1581694870.367,38.574,31.738000000000003,24.414,35.645,0.0,0
1581694870.369,38.086,26.367,18.555,32.715,0.0,0
1581694870.373,40.527,25.391,23.926,29.297,0.0,0
1581694870.377,38.574,30.762,27.832,27.832,0.0,0
1581694870.381,36.133,33.691,27.344,27.344,0.0,0
1581694870.385,34.668,33.203,33.691,30.273000000000003,0.0,0
1581694870.389,29.297,31.25,32.227,27.832,0.0,0
1581694870.393,27.344,33.203,26.855,29.297,0.0,0
1581694870.396,27.832,30.762,27.344,29.297,0.0,0
1581694870.4,27.832,27.832,31.738000000000003,29.785,0.0,0
1581694870.404,33.691,33.203,28.809,35.156,0.0,0
1581694870.408,38.574,31.25,28.809,34.18,0.0,0
1581694870.4120002,31.25,27.344,36.133,33.203,0.0,0
1581694870.414,25.879,30.273000000000003,40.527,36.133,0.0,0
1581694870.418,26.855,29.297,37.598,35.156,0.0,0
1581694870.4220002,27.344,28.809,30.762,29.785,0.0,0
1581694870.426,30.762,31.738000000000003,29.297,22.461,0.0,0
1581694870.43,29.297,29.785,21.973000000000006,25.391,0.0,0
1581694870.434,30.273000000000003,30.273000000000003,19.043,29.785,0.0,0
1581694870.438,36.621,31.25,22.461,20.02,0.0,0
1581694870.441,35.156,30.762,23.438,20.02,0.0,0
1581694870.445,30.762,28.809,32.715,21.973000000000006,0.0,0
1581694870.449,33.691,34.668,37.109,24.414,0.0,0
1581694870.4529998,35.645,40.527,30.762,26.367,0.0,0
1581694870.457,34.18,35.645,24.902,30.273000000000003,0.0,0
1581694870.459,37.598,36.621,23.438,34.668,0.0,0
1581694870.4629998,38.574,39.551,23.926,30.273000000000003,0.0,0
1581694870.467,33.203,36.621,20.02,33.691,0.0,0
1581694870.471,36.621,32.227,20.508000000000006,30.273000000000003,0.0,0
1581694870.475,39.551,30.273000000000003,24.414,21.484,0.0,0
1581694870.479,33.691,29.297,29.297,20.996,0.0,0
1581694870.4829998,29.785,29.297,31.738000000000003,20.508000000000006,0.0,0
1581694870.486,26.855,29.297,29.785,17.09,0.0,0
1581694870.49,20.508000000000006,27.344,30.273000000000003,15.137,0.0,0
1581694870.494,22.461,26.855,33.691,24.414,0.0,0
1581694870.498,22.949,30.273000000000003,32.227,32.715,0.0,0
1581694870.502,16.113,32.715,26.855,24.414,0.0,0
1581694870.519,13.672,34.668,24.414,17.578,0.0,0
1581694870.5229998,17.578,29.785,28.32,25.879,0.0,0
1581694870.5270002,20.508000000000006,27.832,25.391,36.621,0.0,0
1581694870.531,21.484,28.809,19.043,28.809,0.0,0
1581694870.535,25.879,30.273000000000003,21.484,21.484,0.0,0
1581694870.539,25.391,32.227,21.484,20.02,0.0,0
1581694870.543,24.902,29.297,23.926,13.672,0.0,0
1581694870.546,29.785,31.738000000000003,27.832,10.742,0.0,0
1581694870.55,31.25,35.645,26.367,11.719,0.0,0
1581694870.554,28.32,34.18,23.926,22.949,0.0,0
1581694870.5579998,24.902,33.203,23.926,24.902,0.0,0
1581694870.562,23.926,32.227,22.461,19.531,0.0,0
1581694870.564,22.461,35.645,23.438,23.438,0.0,0
1581694870.5679998,19.043,30.273000000000003,19.531,12.695,0.0,0
1581694870.572,21.484,24.902,18.066,17.578,0.0,0
1581694870.576,30.762,28.809,23.438,35.156,0.0,0
1581694870.58,31.25,29.297,24.414,31.25,0.0,0
1581694870.584,22.461,35.156,20.996,14.16,0.0,0
1581694870.5879998,18.066,41.992,20.02,10.742,0.0,0
1581694870.591,19.043,40.527,19.531,12.695,0.0,0
1581694870.595,15.625,37.109,18.555,15.625,0.0,0
1581694870.599,11.719,39.551,23.926,20.02,0.0,0
1581694870.603,12.207,39.551,26.855,7.324,0.0,0
1581694870.607,11.719,33.691,25.879,8.301,0.0,0
1581694870.609,5.371,33.203,25.391,12.207,0.0,0
1581694870.613,1.465,34.668,23.438,9.766,0.0,0
1581694870.617,7.812,36.133,22.949,7.812,0.0,0
1581694870.621,10.254,43.457,24.902,6.348,0.0,0
1581694870.625,16.113,41.504,29.297,17.09,0.0,0
1581694870.629,16.602,30.273000000000003,29.297,17.09,0.0,0
1581694870.633,19.531,31.738000000000003,25.391,11.719,0.0,0
1581694870.6360002,22.949,34.18,23.926,20.508000000000006,0.0,0
1581694870.64,22.949,32.715,25.391,25.391,0.0,0
1581694870.644,23.926,33.203,29.297,14.16,0.0,0
1581694870.6479998,23.926,33.691,28.809,12.695,0.0,0
1581694870.6520002,27.832,36.133,26.855,20.02,0.0,0
1581694870.654,22.949,37.109,24.414,23.438,0.0,0
1581694870.658,22.949,35.156,23.926,22.461,0.0,0
1581694870.6620002,26.367,30.762,22.949,13.672,0.0,0
1581694870.666,21.484,25.391,23.926,14.648,0.0,0
1581694870.67,20.508000000000006,30.762,27.344,21.484,0.0,0
1581694870.674,23.926,39.062,21.973000000000006,20.02,0.0,0
1581694870.678,25.391,38.086,20.508000000000006,24.902,0.0,0
1581694870.681,26.367,35.645,28.809,27.344,0.0,0
1581694870.685,28.32,37.598,30.762,23.438,0.0,0
1581694870.689,22.461,34.668,29.785,19.043,0.0,0
1581694870.6929998,17.09,31.738000000000003,31.25,20.508000000000006,0.0,0
1581694870.697,18.555,31.738000000000003,33.691,24.902,0.0,0
1581694870.698,16.113,28.809,26.855,22.949,0.0,0
1581694870.702,20.508000000000006,26.367,21.484,23.438,0.0,0
1581694870.706,23.926,27.832,24.414,30.762,0.0,0
1581694870.71,26.367,33.691,27.344,28.809,0.0,0
1581694870.714,23.926,35.645,24.414,21.484,0.0,0
1581694870.718,18.555,30.273000000000003,26.367,26.855,0.0,0
1581694870.722,23.438,33.691,30.273000000000003,23.926,0.0,0
1581694870.725,26.855,33.691,29.785,18.555,0.0,0
1581694870.729,28.809,28.32,28.32,17.578,0.0,0
1581694870.7329998,26.367,32.227,29.297,21.973000000000006,0.0,0
1581694870.7370002,25.391,37.109,29.297,29.297,0.0,0
1581694870.7410002,25.879,34.668,28.32,25.391,0.0,0
1581694870.7429998,25.391,30.762,26.367,18.066,0.0,0
1581694870.7470002,28.809,28.809,27.344,20.02,0.0,0
1581694870.7510002,30.762,30.273000000000003,34.668,24.414,0.0,0
1581694870.755,24.414,38.086,32.227,22.461,0.0,0
1581694870.7589998,17.578,37.109,23.438,18.066,0.0,0
1581694870.7629998,15.625,30.762,28.32,17.09,0.0,0
1581694870.7670002,18.066,32.715,31.738000000000003,19.043,0.0,0
1581694870.77,20.996,32.715,25.879,20.508000000000006,0.0,0
1581694870.774,20.02,28.32,22.461,17.09,0.0,0
1581694870.778,18.555,26.855,21.484,18.555,0.0,0
1581694870.782,20.02,23.438,22.949,28.809,0.0,0
1581694870.786,23.926,31.25,28.32,35.156,0.0,0
1581694870.788,24.414,33.691,29.297,22.461,0.0,0
1581694870.792,23.438,26.855,27.832,12.695,0.0,0
1581694870.796,31.738000000000003,30.762,24.902,22.949,0.0,0
1581694870.8,27.832,36.621,22.949,23.926,0.0,0
1581694870.804,19.043,35.156,25.391,16.113,0.0,0
1581694870.8079998,20.02,26.367,26.855,18.555,0.0,0
1581694870.812,15.137,23.438,29.297,19.043,0.0,0
1581694870.815,16.113,29.297,33.691,26.855,0.0,0
1581694870.819,20.508000000000006,29.297,34.668,40.039,0.0,0
1581694870.823,23.438,25.879,27.344,31.738000000000003,0.0,0
1581694870.827,18.555,26.367,25.391,16.113,0.0,0
1581694870.831,12.207,30.273000000000003,25.879,17.09,0.0,0
1581694870.833,17.578,33.203,22.949,20.508000000000006,0.0,0
1581694870.837,19.531,28.32,22.949,18.555,0.0,0
1581694870.841,18.555,27.832,27.832,12.207,0.0,0
1581694870.845,24.902,31.25,32.715,16.113,0.0,0
1581694870.849,25.879,33.691,31.738000000000003,23.438,0.0,0
1581694870.853,22.461,31.738000000000003,34.668,21.973000000000006,0.0,0
1581694870.857,24.414,26.855,34.18,18.555,0.0,0
1581694870.86,19.531,24.902,30.273000000000003,27.832,0.0,0
1581694870.8639998,15.625,23.926,25.879,32.715,0.0,0
1581694870.8679998,20.02,28.32,26.367,24.902,0.0,0
1581694870.8720002,24.902,30.762,33.203,23.438,0.0,0
1581694870.8760002,25.391,31.25,31.25,27.344,0.0,0
1581694870.893,27.832,31.738000000000003,22.461,34.18,0.0,2
1581694870.897,26.367,33.691,21.973000000000006,32.715,0.0,0
1581694870.901,18.555,33.691,29.785,20.996,0.0,0
1581694870.905,9.766,26.367,33.203,14.648,0.0,0
1581694870.909,13.672,28.809,30.762,20.02,0.0,0
1581694870.913,21.973000000000006,35.645,28.809,21.973000000000006,0.0,0
1581694870.917,23.438,34.668,29.297,21.973000000000006,0.0,0
1581694870.92,18.066,33.691,33.691,18.066,0.0,0
1581694870.924,19.043,36.621,34.668,11.23,0.0,0
1581694870.928,27.344,35.156,29.297,18.066,0.0,0
1581694870.9320002,26.367,29.785,29.297,22.461,0.0,0
1581694870.936,24.414,32.715,30.273000000000003,18.066,0.0,0
1581694870.938,27.344,33.691,26.855,17.578,0.0,0
1581694870.9420002,32.227,29.297,31.25,25.391,0.0,0
1581694870.946,38.086,30.762,37.598,27.832,0.0,0
1581694870.95,40.527,34.18,33.691,22.949,0.0,0
1581694870.954,42.969,35.156,29.785,22.949,0.0,0
1581694870.958,44.922,33.203,26.855,20.508000000000006,0.0,0
1581694870.962,35.645,33.691,26.367,22.461,0.0,0
1581694870.965,27.344,30.762,28.32,20.508000000000006,0.0,0
1581694870.969,27.344,28.809,27.832,20.508000000000006,0.0,0
1581694870.9729998,21.973000000000006,32.227,26.855,25.879,0.0,0
1581694870.9770002,17.09,33.691,29.297,25.391,0.0,0
1581694870.981,18.555,31.738000000000003,33.203,24.902,0.0,0
1581694870.9829998,10.254,27.832,32.227,21.484,0.0,0
1581694870.9870002,7.812,29.785,28.32,21.973000000000006,0.0,0
1581694870.9910002,12.695,29.785,30.762,30.762,0.0,0
1581694870.995,12.695,28.32,34.668,30.273000000000003,0.0,0
1581694870.9989998,19.043,29.297,29.785,22.949,0.0,0
1581694871.0029998,22.949,28.32,22.461,19.531,0.0,0
1581694871.0070002,22.461,28.809,21.484,14.16,0.0,0
1581694871.01,23.926,34.668,26.367,14.16,0.0,0
1581694871.014,27.832,44.434,28.32,28.32,0.0,0
1581694871.018,27.344,48.34,24.414,26.855,0.0,0
1581694871.022,24.902,39.551,26.367,27.832,0.0,0
1581694871.026,24.902,30.273000000000003,29.785,36.133,0.0,0
1581694871.028,27.832,28.809,28.809,34.668,0.0,0
1581694871.032,31.738000000000003,29.297,27.832,36.621,0.0,0
1581694871.036,37.109,31.25,29.297,40.039,0.0,0
1581694871.04,39.062,35.645,28.32,40.039,0.0,0
1581694871.044,36.133,38.086,26.367,31.25,0.0,0
1581694871.048,31.738000000000003,40.039,23.438,25.879,0.0,0
1581694871.052,32.227,37.109,20.02,25.879,0.0,0
1581694871.055,37.109,33.203,21.973000000000006,30.273000000000003,0.0,0
1581694871.059,34.18,32.227,24.902,31.25,0.0,0
1581694871.063,34.18,32.227,27.832,28.32,0.0,0
1581694871.0670002,34.668,37.109,32.227,30.762,0.0,0
1581694871.071,31.738000000000003,35.645,33.691,32.227,0.0,0
1581694871.073,30.273000000000003,31.738000000000003,30.273000000000003,25.391,0.0,0
1581694871.077,31.25,36.621,27.344,22.461,0.0,0
1581694871.081,28.32,34.668,30.273000000000003,20.02,0.0,0
1581694871.085,24.414,33.203,28.32,21.973000000000006,0.0,0
1581694871.089,25.391,34.668,27.344,19.043,0.0,0
1581694871.093,25.391,33.203,24.902,12.207,0.0,0
1581694871.097,22.461,31.25,26.855,18.066,0.0,0
1581694871.1,20.996,35.156,36.621,33.203,0.0,0
1581694871.104,24.902,38.086,34.668,36.621,0.0,0
1581694871.1079998,25.391,36.133,29.297,27.344,0.0,0
1581694871.1120002,31.25,39.062,30.762,27.832,0.0,0
1581694871.1160002,32.227,37.598,30.762,36.621,0.0,0
1581694871.1179998,24.414,38.086,29.785,34.18,0.0,0
1581694871.1220002,27.344,36.133,31.25,24.902,0.0,0
1581694871.1260002,28.809,31.25,30.273000000000003,24.902,0.0,0
1581694871.13,26.367,29.785,29.785,27.344,0.0,0
1581694871.1339998,34.668,31.25,32.715,29.297,0.0,0
1581694871.1379998,37.598,33.691,36.133,33.203,0.0,0
1581694871.1420002,36.133,34.18,38.574,35.156,0.0,0
1581694871.145,36.133,33.691,34.668,36.133,0.0,0
1581694871.149,35.156,33.691,26.367,33.203,0.0,0
1581694871.153,34.668,32.715,26.855,24.902,0.0,0
1581694871.157,34.18,32.715,27.344,20.508000000000006,0.0,0
1581694871.161,32.715,34.18,23.438,25.391,0.0,0
1581694871.163,27.832,33.691,25.879,33.203,0.0,0
1581694871.167,27.344,30.762,28.32,32.227,0.0,0
1581694871.171,27.344,30.762,29.297,23.926,0.0,0
1581694871.175,28.809,31.738000000000003,30.762,29.297,0.0,0
1581694871.179,36.133,29.297,31.738000000000003,38.574,0.0,0
1581694871.1829998,36.133,29.785,31.738000000000003,38.086,0.0,0
1581694871.187,26.855,33.203,31.25,31.738000000000003,0.0,0
1581694871.19,21.973000000000006,29.785,32.227,24.902,0.0,0
1581694871.194,22.461,26.367,33.203,28.32,0.0,0
1581694871.198,22.949,26.855,30.762,21.484,0.0,0
1581694871.202,26.367,26.367,26.367,18.555,0.0,0
1581694871.206,25.879,27.832,30.762,23.438,0.0,0
1581694871.209,27.832,27.832,33.691,23.926,0.0,0
1581694871.2129998,32.715,23.438,28.809,23.926,0.0,0
1581694871.217,29.785,22.949,26.367,22.461,0.0,0
1581694871.221,27.344,29.297,23.926,21.973000000000006,0.0,0
1581694871.225,32.715,33.203,22.461,23.438,0.0,0
1581694871.229,29.785,37.598,23.926,25.879,0.0,0
1581694871.2329998,23.438,36.133,28.32,30.273000000000003,0.0,0
1581694871.236,31.738000000000003,31.738000000000003,30.762,32.715,0.0,0
1581694871.24,33.203,30.762,26.367,31.738000000000003,0.0,0
1581694871.244,27.832,33.203,22.949,36.621,0.0,0
1581694871.248,26.367,36.133,25.879,41.504,0.0,0
1581694871.252,24.414,35.156,23.926,24.414,0.0,0
1581694871.269,24.414,33.691,30.762,15.625,0.0,0
1581694871.2729998,20.508000000000006,35.156,38.574,26.367,0.0,0
1581694871.2770002,19.043,35.645,36.133,21.973000000000006,0.0,0
1581694871.281,22.461,35.156,34.18,20.508000000000006,0.0,0
1581694871.285,23.926,33.203,30.273000000000003,21.484,0.0,0
1581694871.289,18.555,36.133,25.879,17.09,0.0,0
1581694871.293,12.695,37.109,24.414,20.996,0.0,0
1581694871.296,12.695,31.25,25.879,24.902,0.0,0
1581694871.3,14.16,26.367,31.738000000000003,22.949,0.0,0
1581694871.304,16.602,23.438,37.109,20.996,0.0,0
1581694871.3079998,19.043,26.855,31.738000000000003,23.438,0.0,0
1581694871.312,19.531,29.297,27.832,20.996,0.0,0
1581694871.314,18.555,30.273000000000003,34.18,16.602,0.0,0
1581694871.3179998,12.207,36.133,36.133,15.625,0.0,0
1581694871.322,10.254,36.621,31.738000000000003,17.09,0.0,0
1581694871.326,17.578,29.297,30.273000000000003,16.113,0.0,0
1581694871.33,20.02,29.297,25.391,14.16,0.0,0
1581694871.334,20.508000000000006,34.18,22.949,19.531,0.0,0
1581694871.3379998,24.414,33.203,26.855,18.066,0.0,0
1581694871.341,28.32,31.738000000000003,26.855,15.137,0.0,0
1581694871.345,27.832,29.785,28.32,27.344,0.0,0
1581694871.349,26.367,32.227,27.344,27.344,0.0,0
1581694871.353,29.785,34.18,31.25,18.066,0.0,0
1581694871.357,30.762,29.297,38.574,21.484,0.0,0
1581694871.3739998,23.926,26.367,37.598,23.926,0.0,0
1581694871.3779998,20.508000000000006,28.32,33.691,24.414,0.0,0
1581694871.3820002,24.414,33.691,34.668,27.832,0.0,0
1581694871.3860002,29.785,32.715,33.203,28.32,0.0,0
1581694871.39,23.438,27.832,26.367,34.668,0.0,0
1581694871.394,26.367,22.949,20.508000000000006,31.25,0.0,0
1581694871.3979998,37.598,22.461,22.949,20.996,0.0,0
1581694871.401,32.227,26.367,29.785,33.691,0.0,0
1581694871.405,30.762,23.926,31.25,38.574,0.0,0
1581694871.409,31.25,22.949,34.18,27.832,0.0,0
1581694871.413,29.297,31.738000000000003,38.574,24.902,0.0,0
1581694871.417,31.25,39.551,37.109,29.785,0.0,0
1581694871.404,28.809,41.01600000000001,34.18,33.691,0.0,0
1581694871.408,25.391,35.156,32.715,30.273000000000003,0.0,0
1581694871.4120002,29.785,28.809,26.855,31.738000000000003,0.0,0
1581694871.416,33.691,28.809,22.949,35.156,0.0,0
1581694871.42,31.738000000000003,30.762,21.484,26.855,0.0,0
1581694871.424,30.273000000000003,27.344,23.926,24.414,0.0,0
1581694871.428,28.32,28.809,25.879,32.227,0.0,0
1581694871.431,25.879,29.297,27.344,27.344,0.0,0
1581694871.435,22.461,32.227,28.32,22.461,0.0,0
1581694871.439,18.555,36.621,26.367,21.484,0.0,0
1581694871.4429998,21.484,29.785,22.949,23.438,0.0,0
1581694871.447,18.066,25.879,19.043,17.09,0.0,0
1581694871.449,18.066,25.879,21.484,15.625,0.0,0
1581694871.4529998,22.461,25.391,23.926,22.949,0.0,0
1581694871.457,15.137,30.273000000000003,21.484,17.09,0.0,0
1581694871.461,10.742,34.668,20.996,18.066,0.0,0
1581694871.465,12.207,31.738000000000003,25.879,24.414,0.0,0
1581694871.469,10.742,30.762,27.344,21.973000000000006,0.0,0
1581694871.4729998,14.648,36.621,20.996,21.484,0.0,0
1581694871.476,15.137,32.715,17.09,21.484,0.0,0
1581694871.48,11.719,23.926,16.113,14.648,0.0,0
1581694871.484,14.16,26.367,17.578,15.137,0.0,0
1581694871.488,12.695,31.25,20.508000000000006,13.672,0.0,0
1581694871.492,12.207,33.203,24.902,4.883,0.0,0
1581694871.494,18.066,32.715,26.855,5.859,0.0,0
1581694871.498,15.137,30.762,26.855,12.207,0.0,0
1581694871.502,11.23,34.668,26.367,11.23,0.0,0
1581694871.506,14.16,35.156,29.785,12.695,0.0,0
1581694871.51,19.531,31.738000000000003,34.668,15.137,0.0,0
1581694871.514,19.043,38.086,34.18,16.602,0.0,0
1581694871.518,18.066,35.645,35.645,22.461,0.0,0
1581694871.521,25.391,25.391,40.039,28.32,0.0,0
1581694871.525,29.297,33.691,37.109,24.414,0.0,0
1581694871.529,20.996,41.992,28.809,14.16,0.0,0
1581694871.533,18.555,42.48,30.273000000000003,16.602,0.0,0
1581694871.5370002,20.508000000000006,39.551,30.762,22.949,0.0,0
1581694871.539,20.508000000000006,35.645,29.785,21.484,0.0,0
1581694871.543,22.461,37.109,30.273000000000003,20.02,0.0,0
1581694871.5470002,20.508000000000006,35.645,29.785,24.414,0.0,0
1581694871.551,18.066,35.156,29.297,19.043,0.0,0
1581694871.555,19.043,37.598,32.715,7.812,0.0,0
1581694871.559,20.996,40.039,34.668,7.812,0.0,0
1581694871.563,24.414,38.574,28.32,14.16,0.0,0
1581694871.566,22.461,34.668,25.879,21.484,0.0,0
1581694871.57,23.438,36.133,31.25,22.461,0.0,0
1581694871.574,24.902,34.18,32.227,22.461,0.0,0
1581694871.5779998,23.438,31.25,23.926,23.926,0.0,0
1581694871.582,25.391,35.156,19.043,29.785,0.0,0
1581694871.584,26.367,38.086,21.484,26.855,0.0,0
1581694871.5879998,29.297,40.039,29.297,26.855,0.0,0
1581694871.592,24.414,38.086,34.668,29.785,0.0,0
1581694871.596,15.137,29.297,30.762,18.555,0.0,0
1581694871.6,17.578,28.809,26.367,20.508000000000006,0.0,0
1581694871.604,22.949,34.18,23.438,21.484,0.0,0
1581694871.6079998,27.832,37.109,29.297,13.184,0.0,0
1581694871.611,29.785,37.109,33.203,18.555,0.0,0
1581694871.615,31.25,36.133,28.32,28.809,0.0,0
1581694871.619,35.645,41.01600000000001,26.855,22.949,0.0,0
1581694871.623,33.203,38.574,27.344,20.996,0.0,0
1581694871.627,29.297,34.668,29.297,31.738000000000003,0.0,0
1581694871.644,31.25,40.039,33.203,26.367,0.0,0
1581694871.6479998,30.762,34.18,33.203,19.531,0.0,0
1581694871.6520002,27.832,26.367,32.715,17.09,0.0,0
1581694871.656,29.297,30.273000000000003,37.598,17.578,0.0,0
1581694871.66,29.297,34.668,37.109,23.926,0.0,0
1581694871.664,28.809,37.109,31.25,24.902,0.0,0
1581694871.668,30.273000000000003,36.621,32.227,28.32,0.0,0
1581694871.671,27.344,33.691,34.18,26.367,0.0,0
1581694871.675,20.996,34.668,27.344,18.066,0.0,0
1581694871.679,17.578,36.621,27.832,20.508000000000006,0.0,0
1581694871.6829998,19.531,36.133,35.156,13.672,0.0,0
1581694871.687,14.648,31.738000000000003,39.062,14.648,0.0,0
1581694871.689,13.184,28.32,37.598,20.996,0.0,0
1581694871.6929998,13.672,29.297,37.109,21.484,0.0,0
1581694871.697,11.23,28.809,39.062,23.438,0.0,0
1581694871.701,12.695,26.855,36.621,26.367,0.0,0
1581694871.705,11.23,29.785,33.203,20.02,0.0,0
1581694871.709,13.184,28.32,34.668,16.113,0.0,0
1581694871.7129998,21.973000000000006,27.832,35.156,17.578,0.0,0
1581694871.716,27.344,28.32,32.715,13.672,0.0,0
1581694871.72,28.809,27.344,34.668,19.043,0.0,0
1581694871.724,25.391,28.809,31.738000000000003,24.414,0.0,0
1581694871.728,28.32,35.645,28.809,25.879,0.0,0
1581694871.732,31.738000000000003,39.551,37.109,26.855,0.0,0
1581694871.734,27.344,36.621,40.039,25.391,0.0,0
1581694871.738,22.949,33.203,37.109,24.902,0.0,0
1581694871.742,21.484,28.809,38.574,24.902,0.0,0
1581694871.746,24.902,26.855,38.086,17.578,0.0,0
1581694871.75,28.32,30.273000000000003,35.156,10.254,0.0,0
1581694871.754,25.879,31.738000000000003,37.598,14.16,0.0,0
1581694871.758,28.809,33.691,36.133,16.602,0.0,0
1581694871.7610002,34.668,36.133,37.109,18.555,0.0,0
1581694871.765,35.156,37.109,38.086,14.648,0.0,0
1581694871.769,33.691,35.156,32.715,19.531,0.0,0
1581694871.7729998,30.273000000000003,39.062,32.715,22.461,0.0,0
1581694871.7770002,21.973000000000006,34.668,39.062,21.484,0.0,0
1581694871.794,18.555,22.461,45.41,27.344,0.0,0
1581694871.798,18.555,22.949,41.01600000000001,24.902,0.0,0
1581694871.802,14.16,24.414,38.086,27.832,0.0,0
1581694871.806,14.16,29.785,43.945,32.715,0.0,0
1581694871.81,11.23,30.762,42.48,26.367,0.0,0
1581694871.814,6.348,27.344,40.039,20.996,0.0,0
1581694871.8179998,5.371,25.879,37.109,23.438,0.0,0
1581694871.821,11.23,24.414,31.738000000000003,21.973000000000006,0.0,0
1581694871.825,22.949,30.273000000000003,31.738000000000003,19.043,0.0,0
1581694871.829,29.297,34.668,32.715,24.414,0.0,0
1581694871.833,23.438,33.691,31.738000000000003,24.414,0.0,0
1581694871.837,17.09,32.715,33.203,30.762,0.0,0
1581694871.824,18.555,30.762,36.133,26.367,0.0,0
1581694871.8279998,20.02,33.691,36.133,21.484,0.0,0
1581694871.832,19.043,34.668,35.645,20.508000000000006,0.0,0
1581694871.836,20.996,34.668,38.574,18.555,0.0,0
1581694871.84,22.949,37.598,41.992,22.949,0.0,0
1581694871.844,20.508000000000006,36.133,39.062,16.602,0.0,0
1581694871.8479998,22.461,30.762,35.645,16.602,0.0,0
1581694871.851,28.32,29.785,29.785,24.414,0.0,0
1581694871.855,29.297,31.25,23.438,23.438,0.0,0
1581694871.859,21.484,33.203,26.855,30.762,0.0,0
1581694871.863,23.926,32.715,32.227,35.156,0.0,0
1581694871.867,27.832,32.227,33.203,29.785,0.0,0
1581694871.8679998,24.902,36.133,39.062,27.832,0.0,0
1581694871.8720002,25.391,33.691,39.551,26.367,0.0,0
1581694871.8760002,20.508000000000006,27.832,33.203,28.809,0.0,0
1581694871.88,19.043,28.32,33.691,34.668,0.0,0
1581694871.8839998,20.02,32.227,33.691,34.668,0.0,0
1581694871.8879998,20.508000000000006,35.645,31.738000000000003,28.809,0.0,0
1581694871.8920002,25.391,35.645,29.785,22.949,0.0,0
1581694871.895,27.344,33.691,29.785,15.625,0.0,0
1581694871.899,21.484,33.203,36.133,14.16,0.0,0
1581694871.903,18.555,33.691,34.668,14.16,0.0,0
1581694871.907,16.113,32.227,27.832,10.254,0.0,0
1581694871.911,14.648,28.809,27.832,20.02,0.0,0
1581694871.913,18.066,28.809,26.855,22.461,0.0,0
1581694871.917,23.926,28.809,26.367,14.16,0.0,0
1581694871.921,23.926,33.691,30.762,18.066,0.0,0
1581694871.925,25.879,34.18,32.715,22.949,0.0,0
1581694871.929,27.344,31.25,28.809,27.344,0.0,0
1581694871.9329998,25.879,30.762,25.391,25.391,0.0,0
1581694871.937,33.691,30.273000000000003,23.926,22.949,0.0,0
1581694871.94,35.645,30.762,24.414,26.855,0.0,0
1581694871.944,35.645,30.762,31.738000000000003,30.762,0.0,0
1581694871.948,36.133,31.25,34.18,27.344,0.0,0
1581694871.952,33.691,28.809,30.273000000000003,24.902,0.0,0
1581694871.956,32.715,32.227,31.738000000000003,25.391,0.0,0
1581694871.958,30.762,37.598,31.738000000000003,23.438,0.0,0
1581694871.962,28.32,34.18,29.785,28.809,0.0,0
1581694871.966,27.832,32.715,29.297,32.227,0.0,0
1581694871.97,24.414,31.738000000000003,25.879,23.926,0.0,0
1581694871.974,25.391,28.32,28.32,21.973000000000006,0.0,0
1581694871.978,22.461,25.391,29.785,24.414,0.0,0
1581694871.982,20.508000000000006,29.785,26.855,24.414,0.0,0
1581694871.985,26.855,37.109,35.156,26.855,0.0,0
1581694871.9889998,28.809,36.133,39.551,25.391,0.0,0
1581694871.9929998,27.832,37.109,35.645,21.973000000000006,0.0,0
1581694871.9970002,22.949,36.621,32.227,23.438,0.0,0
1581694872.0010002,21.973000000000006,32.227,32.227,26.367,0.0,0
1581694872.018,30.273000000000003,32.715,33.203,31.25,0.0,0
1581694872.022,35.645,34.18,32.715,29.297,0.0,0
1581694872.026,37.598,33.203,33.691,23.926,0.0,0
1581694872.03,41.01600000000001,33.203,34.18,24.414,0.0,0
1581694872.034,37.598,34.18,35.645,27.832,0.0,0
1581694872.038,33.203,31.738000000000003,35.156,30.762,0.0,0
1581694872.042,32.227,31.738000000000003,32.715,33.691,0.0,0
1581694872.045,27.344,34.18,35.645,33.691,0.0,0
1581694872.049,22.949,39.551,38.574,29.785,0.0,0
1581694872.053,21.484,33.691,37.598,26.367,0.0,0
1581694872.0570002,21.484,27.832,39.551,25.391,0.0,0
1581694872.061,19.531,36.621,37.598,27.832,0.0,0
1581694872.063,17.09,32.227,30.762,29.785,0.0,0
1581694872.0670002,16.602,23.438,29.785,28.32,0.0,0
1581694872.071,14.648,24.414,33.691,24.902,0.0,0
1581694872.075,9.277,28.32,35.156,24.414,0.0,1
1581694872.079,11.23,30.762,31.25,25.879,0.0,0
1581694872.083,15.137,31.738000000000003,28.32,17.578,0.0,0
1581694872.087,17.578,30.762,33.691,23.438,0.0,0
1581694872.09,19.043,27.832,36.133,29.785,0.0,0
1581694872.094,18.555,27.344,28.809,26.367,0.0,0
1581694872.0979998,21.484,29.297,25.391,20.996,0.0,0
1581694872.1020002,18.555,23.438,26.367,22.461,0.0,0
1581694872.106,20.02,20.508000000000006,26.367,27.344,0.0,0
1581694872.1079998,23.926,24.902,31.25,18.066,0.0,0
1581694872.1120002,25.879,28.809,33.691,20.02,0.0,0
1581694872.1160002,30.762,30.273000000000003,30.762,28.32,0.0,0
1581694872.12,25.879,30.762,35.156,32.715,0.0,0
1581694872.1239998,16.602,31.738000000000003,35.645,31.738000000000003,0.0,0
1581694872.1279998,20.02,34.668,28.809,20.996,0.0,0
1581694872.1320002,22.461,35.645,29.297,9.277,0.0,0
1581694872.135,18.066,31.25,30.762,4.883,0.0,0
1581694872.139,15.137,32.227,30.273000000000003,6.836,0.0,0
1581694872.143,17.578,36.621,30.762,14.648,0.0,0
1581694872.147,18.066,32.715,25.391,27.344,0.0,0
1581694872.151,17.578,27.832,22.461,21.484,0.0,0
1581694872.153,18.555,30.762,27.832,16.113,0.0,0
1581694872.157,16.113,31.738000000000003,34.668,24.414,0.0,0
1581694872.161,17.09,31.738000000000003,33.691,24.414,0.0,0
1581694872.165,20.508000000000006,29.297,29.297,25.879,0.0,0
1581694872.169,23.926,30.273000000000003,32.715,28.809,0.0,0
1581694872.173,26.367,31.25,32.227,28.32,0.0,0
1581694872.177,20.02,26.855,26.367,21.973000000000006,0.0,0
1581694872.18,20.02,33.691,30.762,17.578,0.0,0
1581694872.184,24.902,38.086,29.785,22.949,0.0,0
1581694872.188,19.531,28.32,25.879,28.32,0.0,0
1581694872.1920002,15.137,27.832,21.973000000000006,25.879,0.0,0
1581694872.196,18.555,32.227,19.043,19.531,0.0,0
1581694872.198,19.531,32.715,23.438,24.902,0.0,0
1581694872.202,21.973000000000006,35.156,26.855,29.785,0.0,0
1581694872.206,25.391,37.109,28.32,29.297,0.0,0
1581694872.21,24.902,37.598,34.18,29.297,0.0,0
1581694872.214,22.949,32.227,33.203,24.414,0.0,0
1581694872.218,19.531,31.25,29.785,23.926,0.0,0
1581694872.222,18.555,30.762,27.832,19.043,0.0,0
1581694872.225,23.438,32.715,28.809,16.602,0.0,0
1581694872.229,23.926,34.18,29.297,19.043,0.0,0
1581694872.2329998,20.02,28.32,27.832,27.344,0.0,0
1581694872.2370002,18.555,26.367,30.762,34.668,0.0,0
1581694872.2410002,19.531,21.484,28.809,38.086,0.0,0
1581694872.244,22.461,21.973000000000006,26.855,40.039,0.0,0
1581694872.248,25.879,31.738000000000003,33.203,31.25,0.0,0
1581694872.252,30.273000000000003,35.156,34.668,25.879,0.0,0
1581694872.256,35.156,35.156,31.738000000000003,26.367,0.0,0
1581694872.26,33.691,35.156,32.715,26.367,0.0,0
1581694872.264,29.297,34.668,35.156,29.785,0.0,0
1581694872.268,25.879,34.18,31.738000000000003,33.691,0.0,0
1581694872.271,24.902,35.156,30.273000000000003,31.738000000000003,0.0,0
1581694872.275,25.879,35.645,31.738000000000003,32.227,0.0,0
1581694872.279,26.367,33.203,32.227,35.156,0.0,0
1581694872.283,21.484,31.738000000000003,35.645,28.809,0.0,0
1581694872.2870002,17.578,33.203,31.25,23.926,0.0,0
1581694872.288,19.531,31.25,20.996,19.531,0.0,0
1581694872.292,19.043,31.25,26.855,20.02,0.0,0
1581694872.296,18.066,32.715,36.133,22.461,0.0,0
1581694872.3,18.555,30.762,36.621,20.996,0.0,0
1581694872.304,24.902,32.227,38.574,26.367,0.0,0
1581694872.3079998,28.809,34.18,39.062,26.367,0.0,0
1581694872.312,28.32,33.691,34.18,25.391,0.0,0
1581694872.315,30.273000000000003,39.062,32.715,22.461,0.0,0
1581694872.319,28.809,40.039,37.598,25.391,0.0,0
1581694872.323,27.832,31.738000000000003,37.109,33.691,0.0,0
1581694872.327,26.855,25.879,34.668,34.18,0.0,0
1581694872.331,23.926,24.902,32.227,32.715,0.0,0
1581694872.349,23.926,24.414,29.297,31.25,0.0,0
1581694872.353,30.762,27.832,33.203,31.25,0.0,0
1581694872.357,34.18,32.715,39.551,34.668,0.0,0
1581694872.361,26.367,33.691,35.156,30.762,0.0,0
1581694872.365,24.414,35.645,27.832,25.391,0.0,0
1581694872.369,29.297,33.203,30.273000000000003,30.762,0.0,0
1581694872.373,33.203,24.902,31.738000000000003,24.414,0.0,0
1581694872.3760002,33.203,21.973000000000006,31.738000000000003,26.855,0.0,0
1581694872.38,29.297,23.438,33.203,33.203,0.0,0
1581694872.3839998,26.855,25.391,30.762,22.949,0.0,0
1581694872.3879998,29.297,32.227,29.785,24.902,0.0,0
1581694872.3920002,31.25,38.574,25.391,28.32,0.0,0
1581694872.393,31.25,37.109,21.484,31.25,0.0,0
1581694872.397,33.691,34.668,25.391,28.32,0.0,0
1581694872.401,28.32,32.715,28.32,20.996,0.0,0
1581694872.405,23.926,25.879,30.762,22.461,0.0,0
1581694872.409,23.438,21.973000000000006,29.297,24.414,0.0,0
1581694872.413,22.461,25.391,24.414,29.785,0.0,0
1581694872.417,22.949,26.855,24.414,32.715,0.0,0
1581694872.42,28.32,24.902,25.879,30.273000000000003,0.0,0
1581694872.424,27.344,26.855,26.855,31.25,0.0,0
1581694872.428,28.809,29.785,29.297,38.086,0.0,0
1581694872.4320002,34.668,26.367,27.832,30.762,0.0,0
1581694872.436,25.391,24.414,23.438,22.461,0.0,0
1581694872.4529998,21.973000000000006,26.855,22.461,27.344,0.0,0
1581694872.457,25.391,29.785,23.926,25.391,0.0,0
1581694872.461,20.996,28.32,25.391,23.438,0.0,0
1581694872.465,20.996,23.926,26.855,26.367,0.0,0
1581694872.469,24.414,24.414,22.461,21.484,0.0,0
1581694872.4729998,28.809,23.438,15.137,20.996,0.0,0
1581694872.4770002,37.109,25.391,19.531,24.902,0.0,0
1581694872.48,34.18,33.203,27.832,21.484,0.0,0
1581694872.484,25.391,35.156,24.414,18.555,0.0,0
1581694872.488,22.461,32.227,20.02,20.02,0.0,0
1581694872.492,21.973000000000006,31.738000000000003,20.508000000000006,20.02,0.0,0
1581694872.496,28.32,31.25,21.484,24.414,0.0,0
1581694872.4829998,30.273000000000003,29.297,18.555,30.273000000000003,0.0,0
1581694872.4870002,25.879,22.949,17.09,25.879,0.0,0
1581694872.4910002,24.902,20.02,24.902,19.531,0.0,0
1581694872.495,20.996,25.879,30.762,24.414,0.0,0
1581694872.4989998,17.578,27.832,31.25,25.879,0.0,0
1581694872.5029998,18.555,20.02,32.227,26.367,0.0,0
1581694872.5070002,14.648,19.531,32.227,38.574,0.0,0
1581694872.51,22.461,27.832,24.902,27.832,0.0,0
1581694872.514,29.297,34.668,24.414,13.672,0.0,0
1581694872.518,22.949,31.738000000000003,25.391,21.484,0.0,0
1581694872.522,18.555,25.391,21.973000000000006,31.738000000000003,0.0,0
1581694872.526,19.531,24.902,25.391,31.738000000000003,0.0,0
1581694872.528,21.973000000000006,28.809,32.715,22.461,0.0,0
1581694872.532,21.484,27.832,36.621,20.02,0.0,0
1581694872.536,23.926,26.855,34.668,25.879,0.0,0
1581694872.54,25.391,33.691,29.785,27.344,0.0,0
1581694872.544,20.508000000000006,34.18,25.879,20.508000000000006,0.0,0
1581694872.548,19.531,30.273000000000003,25.879,19.531,0.0,0
1581694872.552,20.02,33.203,30.273000000000003,23.926,0.0,0
1581694872.555,18.066,30.273000000000003,31.25,32.715,0.0,0
1581694872.559,21.973000000000006,23.438,28.809,30.762,0.0,0
1581694872.563,24.902,21.484,25.879,26.367,0.0,0
1581694872.5670002,26.855,26.367,25.391,30.762,0.0,0
1581694872.571,24.414,29.785,35.156,29.297,0.0,0
1581694872.573,24.414,30.762,38.086,28.809,0.0,0
1581694872.577,27.344,33.203,34.668,32.227,0.0,0
1581694872.581,23.926,33.691,36.621,27.344,0.0,0
1581694872.585,23.926,29.785,36.621,24.902,0.0,0
1581694872.589,24.414,26.855,36.133,27.344,0.0,0
1581694872.593,25.391,26.855,37.109,24.414,0.0,0
1581694872.597,34.668,33.203,33.691,24.414,0.0,0
1581694872.6,39.551,40.039,26.855,25.391,0.0,0
1581694872.604,41.992,36.621,31.25,25.391,0.0,0
1581694872.6079998,41.504,34.18,36.621,19.531,0.0,0
1581694872.6120002,40.039,33.203,35.156,12.695,0.0,0
1581694872.6160002,31.25,30.273000000000003,36.133,21.484,0.0,0
1581694872.6179998,25.879,24.902,34.18,27.344,0.0,0
1581694872.6220002,25.879,21.484,30.273000000000003,27.832,0.0,0
1581694872.6260002,17.578,26.367,31.738000000000003,25.879,0.0,0
1581694872.63,14.648,34.668,31.25,28.32,0.0,0
