timestamps,TP9,AF7,AF8,TP10,Right AUX,Marker0
1581710710.401,41.992,35.156,27.344,-66.895,0.0,0
1581710710.405,44.434,18.555,28.32,-33.691,0.0,0
1581710710.409,41.01600000000001,12.207,30.762,-23.926,0.0,0
1581710710.413,27.832,30.273000000000003,23.926,-88.37899999999998,0.0,0
1581710710.417,25.879,34.18,17.09,-120.117,0.0,0
1581710710.421,23.926,11.719,20.508000000000006,-88.37899999999998,0.0,0
1581710710.424,14.16,-5.859,18.555,-57.617,0.0,0
1581710710.428,17.09,12.207,20.508000000000006,-88.37899999999998,0.0,0
1581710710.4320002,25.391,30.273000000000003,24.902,-136.23,0.0,0
1581710710.436,20.996,22.949,28.32,-105.957,0.0,0
1581710710.44,16.113,25.391,35.156,-67.383,0.0,0
1581710710.444,24.414,21.484,29.297,-73.73,0.0,0
1581710710.446,32.715,13.672,27.832,-121.094,0.0,0
1581710710.45,30.762,4.395,39.551,-133.30100000000002,0.0,0
1581710710.454,12.695,3.906,35.156,-80.078,0.0,0
1581710710.458,6.836,19.531,24.902,-65.918,0.0,0
1581710710.462,19.043,14.648,29.297,-91.797,0.0,0
1581710710.466,19.531,-3.906,26.367,-106.934,0.0,0
1581710710.469,10.742,6.836,21.484,-75.195,0.0,0
1581710710.4729998,14.16,34.668,31.25,-25.391,0.0,0
1581710710.4770002,18.066,24.414,34.668,-39.551,0.0,0
1581710710.481,15.625,8.789,31.738000000000003,-66.895,0.0,0
1581710710.485,1.953,29.785,26.367,-51.27,0.0,0
1581710710.4889998,-8.301,41.01600000000001,20.996,-29.297,0.0,0
1581710710.506,5.859,26.367,24.414,-40.527,0.0,0
1581710710.51,13.184,10.254,27.832,-84.961,0.0,0
1581710710.514,-0.977,14.16,22.949,-95.703,0.0,0
1581710710.518,-5.371,24.414,27.832,-68.848,0.0,0
1581710710.522,0.977,18.066,26.855,-79.102,0.0,0
1581710710.526,9.277,8.789,26.855,-114.258,0.0,0
1581710710.529,20.508000000000006,21.484,28.32,-114.746,0.0,0
1581710710.533,11.719,46.387,27.832,-66.895,0.0,0
1581710710.5370002,8.301,40.527,36.621,-45.41,0.0,0
1581710710.541,13.184,3.906,34.668,-78.613,0.0,0
1581710710.545,-0.488,11.719,30.273000000000003,-86.914,0.0,0
1581710710.549,-2.93,30.273000000000003,32.715,-52.246,0.0,0
1581710710.551,8.301,18.555,43.945,-19.043,0.0,0
1581710710.555,14.648,20.508000000000006,44.922,-51.27,0.0,0
1581710710.559,20.508000000000006,0.488,37.598,-90.332,0.0,0
1581710710.563,18.555,-5.371,37.598,-50.293,0.0,0
1581710710.5670002,8.789,1.953,34.668,2.93,0.0,0
1581710710.571,7.324,-13.672,30.762,1.953,0.0,0
1581710710.574,9.766,5.371,31.738000000000003,-53.71100000000001,0.0,0
1581710710.5779998,8.789,31.738000000000003,33.203,-62.5,0.0,0
1581710710.582,6.348,-8.301,35.156,2.93,0.0,0
1581710710.586,13.184,-22.949,37.598,19.531,0.0,0
1581710710.59,19.043,31.25,41.504,-4.883,0.0,0
1581710710.594,14.16,25.879,34.18,-6.348,0.0,0
1581710710.597,5.371,-0.977,30.273000000000003,40.039,0.0,0
1581710710.601,-5.371,0.977,37.109,70.312,0.0,0
1581710710.605,-2.441,11.23,34.18,17.09,0.0,0
1581710710.609,9.766,-2.441,31.738000000000003,-34.18,0.0,0
1581710710.613,9.277,-13.672,29.297,-39.062,0.0,0
1581710710.617,5.371,-3.906,22.949,-33.691,0.0,0
1581710710.62,11.23,17.09,25.391,-59.082,0.0,0
1581710710.6239998,26.367,31.738000000000003,26.855,-96.68,0.0,0
1581710710.6279998,17.09,6.836,25.391,-59.57,0.0,0
1581710710.6320002,0.0,8.301,33.203,-12.207,0.0,0
1581710710.6360002,19.043,44.434,38.086,-1.465,0.0,0
1581710710.64,20.508000000000006,34.18,34.668,0.977,0.0,0
1581710710.641,2.441,25.391,29.785,13.672,0.0,0
1581710710.645,-3.906,27.832,27.832,65.918,0.0,0
1581710710.649,-1.953,15.137,20.996,59.57,0.0,0
1581710710.653,0.0,-3.906,24.414,5.371,0.0,0
1581710710.657,5.859,11.23,45.41,12.695,0.0,0
1581710710.661,-2.93,20.02,41.01600000000001,38.086,0.0,0
1581710710.664,-17.09,30.762,30.762,40.039,0.0,0
1581710710.668,-10.254,10.254,42.969,-11.719,0.0,0
1581710710.6720002,-4.395,-24.414,43.945,-66.895,0.0,0
1581710710.676,-9.277,28.809,43.945,-23.926,0.0,0
1581710710.68,-8.301,40.527,40.039,16.602,0.0,0
1581710710.684,-11.719,21.484,27.344,-7.324,0.0,0
1581710710.686,-2.93,18.555,27.344,-53.223,0.0,0
1581710710.69,-1.465,15.625,22.949,-50.78100000000001,0.0,0
1581710710.694,-11.719,12.695,19.043,-8.789,0.0,0
1581710710.698,2.441,9.277,30.273000000000003,-21.973000000000006,0.0,0
1581710710.702,19.531,9.766,39.062,-64.453,0.0,0
1581710710.706,15.137,-6.348,32.715,-77.637,0.0,0
1581710710.709,8.789,7.324,23.926,-56.152,0.0,0
1581710710.7129998,9.766,4.395,35.645,-49.316,0.0,0
1581710710.717,22.461,20.508000000000006,37.598,-88.867,0.0,0
1581710710.721,24.902,59.082,31.738000000000003,-114.746,0.0,0
1581710710.725,10.742,34.668,23.926,-99.609,0.0,0
1581710710.729,4.883,19.043,16.113,-70.801,0.0,0
1581710710.732,10.254,31.25,29.785,-89.355,0.0,0
1581710710.736,5.371,33.203,39.551,-135.254,0.0,0
1581710710.74,-3.906,9.277,36.133,-117.188,0.0,0
1581710710.744,-9.766,-0.977,38.574,-91.797,0.0,0
1581710710.748,-9.277,8.789,36.133,-119.629,0.0,0
1581710710.752,-8.301,4.395,30.762,-145.02,0.0,0
1581710710.755,-9.277,-10.742,32.227,-124.023,0.0,0
1581710710.7589998,-6.348,-3.418,34.18,-83.984,0.0,0
1581710710.7629998,0.488,39.062,26.855,-90.332,0.0,0
1581710710.7670002,-1.465,28.32,26.367,-139.648,0.0,0
1581710710.771,-4.883,-3.418,31.738000000000003,-133.789,0.0,0
1581710710.775,-4.883,-0.488,31.25,-93.75,0.0,0
1581710710.7770002,-8.301,10.254,33.203,-80.078,0.0,0
1581710710.781,2.441,15.625,39.062,-123.047,0.0,0
1581710710.785,8.301,18.066,38.086,-148.438,0.0,0
1581710710.789,-5.859,14.648,30.762,-105.957,0.0,0
1581710710.793,-2.441,6.348,30.273000000000003,-76.66,0.0,0
1581710710.7970002,11.719,3.906,32.227,-83.008,0.0,0
1581710710.8,20.996,-27.344,36.133,-116.699,0.0,0
1581710710.804,15.625,-9.766,27.344,-90.332,0.0,0
1581710710.8079998,4.395,40.039,23.926,-24.414,0.0,0
1581710710.812,10.254,34.668,33.691,-28.32,0.0,0
1581710710.816,14.16,16.113,29.785,-63.477,0.0,0
1581710710.82,5.859,16.113,24.414,-70.801,0.0,0
1581710710.821,-1.953,24.414,32.227,-28.32,0.0,0
1581710710.825,7.812,8.789,34.668,-1.953,0.0,0
1581710710.829,26.367,13.184,30.762,-39.062,0.0,0
1581710710.833,4.395,25.391,40.527,-65.43,0.0,0
1581710710.837,-12.207,16.602,44.434,-49.805,0.0,0
1581710710.841,4.395,-12.207,34.668,-27.832,0.0,0
1581710710.844,0.488,-25.879,36.621,-60.059,0.0,0
1581710710.8479998,-8.789,12.207,43.945,-97.168,0.0,0
1581710710.8520002,-20.02,10.254,39.551,-65.918,0.0,0
1581710710.856,-26.855,-23.438,34.668,-64.941,0.0,0
1581710710.86,-11.719,-18.066,41.01600000000001,-96.191,0.0,0
1581710710.8639998,0.488,7.812,46.387,-109.375,0.0,0
1581710710.8820002,-10.742,15.137,43.457,-101.074,0.0,0
1581710710.8860002,-21.484,-7.812,36.621,-64.453,0.0,0
1581710710.89,-5.371,-0.977,37.109,-87.402,0.0,0
1581710710.894,-1.465,16.113,36.133,-147.461,0.0,0
1581710710.8979998,-16.602,2.441,34.668,-127.93,0.0,0
1581710710.9020002,-10.742,-8.789,37.109,-71.289,0.0,0
1581710710.905,-10.742,6.348,34.18,-60.547,0.0,0
1581710710.909,-13.184,26.367,33.203,-104.98,0.0,0
1581710710.913,-7.812,10.742,25.879,-101.074,0.0,0
1581710710.917,-12.695,-9.766,22.461,-32.227,0.0,0
1581710710.921,-10.254,12.207,29.785,8.789,0.0,0
1581710710.925,-7.812,35.645,33.691,6.836,0.0,0
1581710710.927,-1.465,10.254,41.01600000000001,12.207,0.0,0
1581710710.931,-2.93,10.742,42.969,82.031,0.0,0
1581710710.935,-8.301,15.137,43.945,152.832,0.0,0
1581710710.939,-5.859,5.859,38.086,150.391,0.0,0
1581710710.9429998,-7.324,-4.395,32.715,132.812,0.0,0
1581710710.947,-15.137,-19.043,26.855,161.13299999999995,0.0,0
1581710710.95,-5.371,2.441,31.738000000000003,205.566,0.0,0
1581710710.954,0.977,27.344,40.039,202.637,0.0,0
1581710710.958,-2.93,1.953,34.18,149.90200000000004,0.0,0
1581710710.962,-0.488,-12.695,30.762,133.789,0.0,0
1581710710.966,-9.766,41.992,27.832,148.92600000000004,0.0,0
1581710710.97,-8.789,39.062,33.203,146.97299999999996,0.0,0
1581710710.971,2.93,14.16,35.645,98.633,0.0,0
1581710710.975,6.836,17.578,32.227,45.41,0.0,0
1581710710.979,3.906,19.531,29.297,56.152,0.0,0
1581710710.9829998,7.324,11.23,27.344,35.645,0.0,0
1581710710.9870002,9.766,1.953,25.879,-36.133,0.0,0
1581710710.9910002,10.742,-9.277,26.855,-80.078,0.0,0
1581710710.994,4.395,-0.488,33.691,-62.5,0.0,0
1581710710.998,-4.395,18.066,26.855,-34.18,0.0,0
1581710711.002,6.348,0.488,35.645,-80.566,0.0,0
1581710711.006,11.23,12.207,49.316,-128.418,0.0,0
1581710711.01,-1.953,42.48,42.48,-96.191,0.0,0
1581710711.014,-4.883,31.738000000000003,36.621,-47.852,0.0,0
1581710711.016,2.441,13.672,28.32,-42.969,0.0,0
1581710711.02,-1.953,5.859,22.949,-99.609,0.0,0
1581710711.024,-3.418,11.23,27.832,-113.281,0.0,0
1581710711.028,-3.906,0.977,24.902,-62.012,0.0,0
1581710711.032,0.977,-16.602,19.531,-61.035,0.0,0
1581710711.036,9.766,-10.254,29.785,-107.422,0.0,0
1581710711.039,8.301,16.602,31.738000000000003,-127.93,0.0,0
1581710711.043,0.488,4.883,27.344,-87.891,0.0,0
1581710711.0470002,-1.953,-3.906,36.621,-36.621,0.0,0
1581710711.051,4.883,37.598,33.691,-61.035,0.0,0
1581710711.055,13.672,31.25,33.203,-87.402,0.0,0
1581710711.059,13.184,8.789,39.551,-61.035,0.0,0
1581710711.062,5.371,7.812,32.715,-22.949,0.0,0
1581710711.066,10.254,21.484,31.738000000000003,-26.855,0.0,0
1581710711.07,9.277,17.09,32.715,-69.336,0.0,0
1581710711.074,0.0,5.859,34.18,-45.898,0.0,0
1581710711.0779998,-12.207,0.977,29.297,-7.324,0.0,0
1581710711.082,-18.555,1.953,20.508000000000006,-30.762,0.0,0
1581710711.085,-3.906,8.789,23.438,-69.824,0.0,0
1581710711.089,-0.977,3.418,20.508000000000006,-98.145,0.0,0
1581710711.093,-10.254,18.066,17.578,-60.059,0.0,0
1581710711.097,-8.789,42.48,35.645,-48.34,0.0,0
1581710711.101,-7.812,31.25,41.992,-105.469,0.0,0
1581710711.105,-0.977,12.207,40.039,-120.605,0.0,0
1581710711.107,0.488,11.719,37.109,-87.402,0.0,0
1581710711.111,-2.93,-0.488,34.668,-62.988,0.0,0
1581710711.115,-1.953,-10.254,33.691,-120.117,0.0,0
1581710711.119,1.953,5.371,30.762,-179.199,0.0,0
1581710711.123,-1.465,12.207,37.109,-147.461,0.0,0
1581710711.127,-7.324,8.789,32.715,-110.84,0.0,0
1581710711.13,-13.184,-6.348,20.996,-134.27700000000002,0.0,0
1581710711.1339998,-9.766,-14.648,26.855,-190.918,0.0,0
1581710711.1379998,-8.301,18.555,32.715,-177.734,0.0,0
1581710711.1420002,-18.066,30.273000000000003,30.273000000000003,-99.121,0.0,0
1581710711.146,-13.672,2.441,35.645,-84.473,0.0,0
1581710711.15,-0.977,-4.883,38.574,-118.652,0.0,0
1581710711.151,9.277,4.395,39.551,-116.211,0.0,0
1581710711.155,18.555,5.371,42.48,-56.64100000000001,0.0,0
1581710711.159,12.695,15.137,33.691,-38.086,0.0,0
1581710711.163,2.93,21.973000000000006,26.367,-91.797,0.0,0
1581710711.167,8.789,18.066,23.438,-103.516,0.0,0
1581710711.171,10.742,7.324,12.207,-53.71100000000001,0.0,0
1581710711.174,3.906,-20.508000000000006,21.484,-17.578,0.0,0
1581710711.178,1.953,-1.953,41.992,-34.18,0.0,0
1581710711.1820002,8.789,26.855,41.504,-74.219,0.0,0
1581710711.186,9.277,8.789,33.203,-57.617,0.0,0
1581710711.19,0.977,-0.488,29.785,-40.039,0.0,0
1581710711.194,3.418,7.812,27.832,-65.918,0.0,0
1581710711.196,11.23,29.785,22.949,-90.332,0.0,0
1581710711.2,4.395,6.836,26.855,-92.285,0.0,0
1581710711.204,-2.93,-3.906,39.062,-44.922,0.0,0
1581710711.208,6.836,1.953,41.504,-56.152,0.0,0
1581710711.212,11.719,-13.672,30.762,-123.535,0.0,0
1581710711.216,3.906,-14.648,34.668,-131.836,0.0,0
1581710711.219,0.488,3.906,40.527,-88.37899999999998,0.0,0
1581710711.2229998,3.418,39.551,37.598,-64.453,0.0,0
1581710711.2270002,14.16,41.504,33.691,-100.586,0.0,0
1581710711.231,13.672,11.719,28.809,-117.188,0.0,0
1581710711.235,11.23,10.254,22.461,-60.059,0.0,0
1581710711.2389998,13.672,18.555,23.926,-7.324,0.0,0
1581710711.256,18.066,13.672,30.273000000000003,-20.508000000000006,0.0,0
1581710711.26,21.484,10.254,33.691,-69.824,0.0,0
1581710711.264,11.23,5.371,30.762,-30.762,0.0,0
1581710711.268,7.812,21.484,24.414,45.41,0.0,0
1581710711.272,4.395,28.809,18.555,44.434,0.0,0
1581710711.276,7.324,20.996,23.438,20.508000000000006,0.0,0
1581710711.279,29.297,21.484,41.01600000000001,39.062,0.0,0
1581710711.283,24.902,48.828,45.898,121.582,0.0,0
1581710711.2870002,20.508000000000006,45.41,36.133,158.203,0.0,0
1581710711.291,23.926,2.93,29.785,104.004,0.0,0
1581710711.295,25.391,21.973000000000006,30.762,87.402,0.0,0
1581710711.299,25.391,54.199,29.297,119.141,0.0,0
1581710711.301,30.273000000000003,29.297,36.133,137.695,0.0,0
1581710711.305,36.133,21.973000000000006,30.762,93.75,0.0,0
1581710711.309,34.18,29.297,26.367,40.527,0.0,0
1581710711.313,29.785,26.367,35.645,64.453,0.0,0
1581710711.3170002,20.508000000000006,26.367,33.203,83.984,0.0,0
1581710711.321,22.461,13.672,25.391,57.617,0.0,0
1581710711.324,20.508000000000006,22.461,25.391,17.09,0.0,0
1581710711.3279998,18.066,39.551,31.25,24.902,0.0,0
1581710711.332,14.648,21.484,28.32,79.59,0.0,0
1581710711.336,12.207,3.906,25.391,72.75399999999998,0.0,0
1581710711.34,24.902,33.691,34.18,33.691,0.0,0
1581710711.344,27.344,38.086,36.133,41.01600000000001,0.0,0
1581710711.346,19.043,33.691,33.691,90.82,0.0,0
1581710711.35,18.066,42.969,35.156,112.305,0.0,0
1581710711.354,21.973000000000006,44.434,33.203,54.199,0.0,0
1581710711.3579998,27.344,43.457,34.668,25.879,0.0,0
1581710711.3620002,27.832,29.785,41.01600000000001,81.543,0.0,0
1581710711.3660002,23.926,21.973000000000006,30.273000000000003,117.676,0.0,0
1581710711.369,21.973000000000006,30.273000000000003,22.461,86.914,0.0,0
1581710711.373,22.461,35.645,25.879,45.898,0.0,0
1581710711.377,22.461,30.762,30.762,88.37899999999998,0.0,1
1581710711.381,24.902,46.387,42.48,147.94899999999996,0.0,0
1581710711.385,25.391,53.71100000000001,43.457,120.605,0.0,0
1581710711.389,20.996,14.648,24.414,66.895,0.0,0
1581710711.391,10.742,11.23,22.461,64.453,0.0,0
1581710711.395,-1.953,35.645,37.109,111.328,0.0,0
1581710711.399,5.859,34.668,32.227,107.91,0.0,0
1581710711.403,10.254,20.996,24.414,23.926,0.0,0
1581710711.407,14.648,9.766,28.32,-18.066,0.0,0
1581710711.411,21.973000000000006,8.301,31.738000000000003,-2.441,0.0,0
1581710711.414,10.742,28.32,28.809,1.465,0.0,0
1581710711.418,6.836,18.066,33.203,-51.27,0.0,0
1581710711.4220002,19.043,-1.465,34.18,-86.914,0.0,0
1581710711.426,20.02,33.203,28.809,-31.738000000000003,0.0,0
1581710711.43,10.742,23.438,34.18,25.391,0.0,0
1581710711.434,13.184,-5.859,38.086,20.996,0.0,0
1581710711.436,14.648,24.414,34.668,-4.395,0.0,0
1581710711.44,9.766,35.645,28.32,21.973000000000006,0.0,0
1581710711.444,7.324,31.738000000000003,32.227,78.125,0.0,0
1581710711.448,15.625,38.086,41.01600000000001,63.477,0.0,0
1581710711.452,17.09,28.809,44.922,18.555,0.0,0
1581710711.456,8.301,7.324,33.203,19.043,0.0,0
1581710711.459,7.324,12.695,25.391,56.64100000000001,0.0,0
1581710711.4629998,8.789,2.93,29.297,54.688,0.0,0
1581710711.467,-0.977,-0.977,32.715,-21.973000000000006,0.0,0
1581710711.471,0.0,37.598,33.691,-38.574,0.0,0
1581710711.475,-1.953,29.785,28.809,13.184,0.0,0
1581710711.479,-3.418,21.973000000000006,36.133,30.273000000000003,0.0,0
1581710711.481,5.859,32.227,38.574,-15.625,0.0,0
1581710711.485,2.441,10.254,35.156,-63.965,0.0,0
1581710711.4889998,4.883,6.836,35.156,-20.996,0.0,0
1581710711.4929998,11.23,15.137,32.227,41.01600000000001,0.0,0
1581710711.4970002,14.648,12.207,33.691,21.484,0.0,0
1581710711.5010002,19.043,24.414,41.01600000000001,-1.953,0.0,0
1581710711.504,15.625,15.625,41.504,5.371,0.0,0
1581710711.508,11.23,29.785,25.391,48.34,0.0,0
1581710711.512,17.09,65.43,17.09,50.293,0.0,0
1581710711.516,28.809,62.012,29.297,-3.906,0.0,0
1581710711.52,24.414,43.457,30.762,-10.254,0.0,0
1581710711.524,16.602,32.715,21.484,26.367,0.0,0
1581710711.526,11.23,38.086,26.367,40.039,0.0,0
1581710711.53,15.625,22.461,37.109,-9.766,0.0,0
1581710711.534,21.484,10.742,36.621,-38.086,0.0,0
1581710711.538,25.391,17.578,41.01600000000001,20.02,0.0,0
1581710711.542,26.855,-2.441,40.039,53.71100000000001,0.0,0
1581710711.546,31.25,-11.23,33.691,16.113,0.0,0
1581710711.549,36.133,8.789,35.156,-15.137,0.0,0
1581710711.553,25.391,43.457,28.809,16.602,0.0,0
1581710711.5570002,18.555,60.059,26.855,62.988,0.0,0
1581710711.561,27.832,38.086,38.574,36.621,0.0,0
1581710711.565,20.508000000000006,3.906,33.691,-9.277,0.0,0
1581710711.569,11.23,24.414,36.621,15.625,0.0,0
1581710711.572,9.277,30.762,44.434,65.43,0.0,0
1581710711.576,6.836,6.348,34.668,63.477,0.0,0
1581710711.58,13.672,4.883,30.273000000000003,16.113,0.0,0
1581710711.584,15.137,20.996,28.32,9.766,0.0,0
1581710711.5879998,12.695,43.457,26.367,62.5,0.0,0
1581710711.592,19.043,21.973000000000006,22.461,79.102,0.0,0
1581710711.595,21.484,10.742,28.809,33.203,0.0,0
1581710711.599,22.461,38.086,35.156,15.137,0.0,0
1581710711.603,24.902,37.598,36.133,69.824,0.0,0
1581710711.607,20.508000000000006,24.414,33.203,109.375,0.0,0
1581710711.611,20.508000000000006,21.973000000000006,25.391,76.66,0.0,0
1581710711.615,20.996,21.973000000000006,32.715,36.621,0.0,0
1581710711.6320002,19.531,19.531,35.645,57.617,0.0,0
1581710711.6360002,21.484,25.879,26.367,105.957,0.0,0
1581710711.64,21.973000000000006,21.484,32.715,91.309,0.0,0
1581710711.644,20.996,23.926,30.762,32.227,0.0,0
1581710711.6479998,25.391,31.738000000000003,22.461,29.785,0.0,0
1581710711.6520002,25.879,21.484,34.668,72.266,0.0,0
1581710711.655,25.391,19.531,34.18,65.918,0.0,0
1581710711.659,26.855,34.668,26.367,17.578,0.0,0
1581710711.663,18.555,11.23,31.738000000000003,8.301,0.0,0
1581710711.667,20.508000000000006,-9.277,41.504,65.918,0.0,0
1581710711.671,28.32,24.414,34.18,88.37899999999998,0.0,0
1581710711.675,35.156,49.316,27.344,46.387,0.0,0
1581710711.677,38.574,27.832,38.574,31.25,0.0,0
1581710711.681,32.715,10.254,38.086,75.195,0.0,0
1581710711.685,22.461,36.133,27.344,88.867,0.0,0
1581710711.689,17.09,41.504,24.414,32.715,0.0,0
1581710711.6929998,20.508000000000006,19.531,26.367,3.906,0.0,0
1581710711.697,22.949,15.137,28.809,43.945,0.0,0
1581710711.7,22.949,30.762,27.832,82.52,0.0,0
1581710711.704,24.414,44.434,17.578,61.035,0.0,0
1581710711.708,27.344,10.254,17.09,3.906,0.0,0
1581710711.712,26.367,-12.207,29.785,2.93,0.0,0
1581710711.716,23.926,52.246,21.973000000000006,62.012,0.0,0
1581710711.72,35.156,59.082,20.508000000000006,72.75399999999998,0.0,0
1581710711.722,34.668,29.297,37.598,17.09,0.0,0
1581710711.726,26.855,22.949,34.668,-2.93,0.0,0
1581710711.73,25.391,13.672,21.973000000000006,54.199,0.0,0
1581710711.734,19.043,30.762,22.949,90.82,0.0,0
1581710711.738,21.973000000000006,26.367,22.461,47.363,0.0,0
1581710711.742,27.832,8.789,21.973000000000006,19.043,0.0,0
1581710711.745,26.367,19.043,22.461,57.617,0.0,0
1581710711.7489998,23.926,34.18,20.508000000000006,103.027,0.0,0
1581710711.7529998,21.973000000000006,14.16,23.926,74.707,0.0,0
1581710711.7570002,22.949,25.391,35.645,24.414,0.0,0
1581710711.7610002,20.996,54.199,45.898,51.27,0.0,0
1581710711.765,16.602,24.414,41.504,96.191,0.0,0
1581710711.766,-1.953,19.043,29.785,86.426,0.0,0
1581710711.77,-3.906,24.902,22.461,31.25,0.0,0
1581710711.774,11.23,17.578,17.578,31.25,0.0,0
1581710711.778,15.137,14.648,24.902,92.285,0.0,0
1581710711.782,20.996,14.16,31.738000000000003,93.75,0.0,0
1581710711.786,23.926,3.418,28.809,49.316,0.0,0
1581710711.789,26.367,15.625,26.367,41.992,0.0,0
1581710711.793,25.391,24.902,29.297,96.191,0.0,0
1581710711.7970002,20.996,13.184,38.086,120.605,0.0,0
1581710711.801,20.996,35.156,37.109,63.965,0.0,0
1581710711.805,20.508000000000006,44.922,29.297,29.297,0.0,0
1581710711.809,11.23,22.949,27.832,60.547,0.0,0
1581710711.812,6.836,13.672,26.367,93.75,0.0,0
1581710711.816,6.348,26.855,30.273000000000003,65.43,0.0,0
1581710711.82,8.301,25.391,34.18,20.02,0.0,0
1581710711.824,3.418,13.672,36.621,51.27,0.0,0
1581710711.8279998,5.859,20.508000000000006,38.574,113.77,0.0,0
1581710711.832,9.277,24.902,39.551,106.934,0.0,0
1581710711.835,7.324,33.203,41.992,41.01600000000001,0.0,0
1581710711.839,9.766,17.09,42.969,17.578,0.0,0
1581710711.843,6.348,33.203,34.668,52.246,0.0,0
1581710711.847,3.906,58.594,28.809,44.922,0.0,0
1581710711.851,6.836,36.621,32.715,-15.625,0.0,0
1581710711.855,7.324,28.809,30.273000000000003,-46.387,0.0,0
1581710711.857,6.836,26.855,26.855,-1.465,0.0,0
1581710711.861,9.766,21.484,27.832,17.578,0.0,0
1581710711.865,20.508000000000006,24.902,23.438,-38.574,0.0,0
1581710711.869,25.391,31.738000000000003,25.879,-62.5,0.0,0
1581710711.873,17.578,36.133,36.133,-33.691,0.0,0
1581710711.877,9.277,39.062,35.156,-2.441,0.0,0
1581710711.88,4.883,19.043,29.785,-34.668,0.0,0
1581710711.8839998,2.441,19.043,25.879,-82.52,0.0,0
1581710711.8879998,6.348,53.223,20.508000000000006,-61.523,0.0,0
1581710711.8920002,-0.977,47.852,30.762,-13.184,0.0,0
1581710711.896,1.953,10.254,47.363,-25.879,0.0,0
1581710711.9,11.23,24.414,41.01600000000001,-75.684,0.0,0
1581710711.901,8.301,43.945,32.715,-79.102,0.0,0
1581710711.905,5.371,25.391,37.598,-26.367,0.0,0
1581710711.909,8.301,20.02,37.598,-3.906,0.0,0
1581710711.913,13.672,22.461,35.645,-49.805,0.0,0
1581710711.917,21.484,17.578,45.41,-71.289,0.0,0
1581710711.921,18.555,8.789,46.875,-31.738000000000003,0.0,0
1581710711.924,-0.488,0.977,29.297,-14.648,0.0,0
1581710711.928,7.812,29.297,22.949,-51.758,0.0,0
1581710711.9320002,16.602,56.152,34.668,-96.68,0.0,0
1581710711.936,2.93,18.066,32.715,-74.219,0.0,0
1581710711.94,0.0,12.695,23.438,-22.949,0.0,0
1581710711.944,1.953,22.949,27.344,-36.133,0.0,0
1581710711.946,3.418,22.461,33.691,-77.637,0.0,0
1581710711.95,7.812,22.949,32.715,-67.87100000000001,0.0,0
1581710711.954,17.578,20.996,32.227,-7.324,0.0,0
1581710711.958,28.809,41.992,43.945,15.625,0.0,0
1581710711.962,27.344,38.086,52.246,-30.762,0.0,0
1581710711.966,20.02,-8.301,42.48,-52.246,0.0,0
1581710711.969,15.137,-8.789,32.715,0.977,0.0,0
1581710711.9729998,13.184,31.738000000000003,33.691,41.01600000000001,0.0,0
1581710711.9770002,15.137,26.367,31.25,9.277,0.0,0
1581710711.981,21.973000000000006,12.207,39.062,-8.789,0.0,0
1581710711.985,11.719,24.902,38.574,30.273000000000003,0.0,0
1581710711.9889998,4.883,32.227,20.508000000000006,52.246,0.0,0
1581710712.006,13.184,16.113,23.926,22.461,0.0,0
1581710712.01,19.531,7.324,42.48,-9.277,0.0,0
1581710712.014,22.461,18.555,47.363,17.09,0.0,0
1581710712.018,25.391,24.902,34.668,66.895,0.0,0
1581710712.022,25.879,1.465,23.438,54.199,0.0,0
1581710712.026,24.902,-20.02,17.578,5.859,0.0,0
1581710712.029,22.461,1.953,17.09,4.395,0.0,0
1581710712.033,19.043,28.809,29.297,53.71100000000001,0.0,0
1581710712.0370002,19.043,27.344,32.227,76.172,0.0,0
1581710712.041,21.484,7.324,26.855,23.926,0.0,0
1581710712.045,25.391,6.836,28.32,0.0,0.0,0
1581710712.049,29.785,17.578,34.18,56.152,0.0,0
1581710712.051,22.461,-6.836,35.645,79.102,0.0,0
1581710712.055,8.789,-10.742,32.715,27.832,0.0,0
1581710712.059,14.16,27.344,36.621,-12.207,0.0,0
1581710712.063,17.578,31.25,35.156,27.344,0.0,0
1581710712.0670002,5.371,5.371,33.691,74.707,0.0,0
1581710712.071,5.371,-8.789,37.598,49.805,0.0,0
1581710712.074,8.301,3.906,41.01600000000001,4.395,0.0,0
1581710712.0779998,9.277,18.555,42.969,25.391,0.0,0
1581710712.082,9.277,-0.977,41.01600000000001,76.172,0.0,0
1581710712.086,15.625,3.906,29.785,67.87100000000001,0.0,0
1581710712.09,20.508000000000006,40.039,19.043,13.184,0.0,0
1581710712.094,17.578,33.203,28.809,14.648,0.0,0
1581710712.1120002,20.02,17.09,37.598,66.895,0.0,0
1581710712.1160002,28.32,13.672,37.598,80.566,0.0,0
1581710712.12,25.391,21.484,34.668,20.996,0.0,0
1581710712.1239998,14.16,28.32,34.18,-11.719,0.0,0
1581710712.1279998,12.207,20.508000000000006,31.25,26.855,0.0,0
1581710712.1320002,16.602,10.742,31.25,43.945,0.0,0
1581710712.135,20.02,20.508000000000006,29.785,6.836,0.0,0
1581710712.139,25.391,38.086,29.297,-27.344,0.0,0
1581710712.143,22.949,9.766,38.086,0.0,0.0,0
1581710712.147,18.066,27.832,41.992,36.133,0.0,0
1581710712.151,24.902,42.969,31.738000000000003,7.812,0.0,0
1581710712.155,27.344,17.09,22.461,-28.809,0.0,0
1581710712.141,20.02,18.555,32.227,-11.719,0.0,0
1581710712.145,12.207,39.062,34.18,39.551,0.0,0
1581710712.149,15.137,34.668,30.273000000000003,33.691,0.0,0
1581710712.153,20.996,14.16,33.691,-26.367,0.0,0
1581710712.157,20.996,22.461,31.738000000000003,-20.02,0.0,0
1581710712.161,15.137,29.785,23.438,26.855,0.0,0
1581710712.164,6.836,26.855,28.809,34.668,0.0,0
1581710712.168,6.348,12.207,40.039,-11.23,0.0,0
1581710712.1720002,6.348,19.043,32.227,-46.875,0.0,0
1581710712.176,15.137,35.645,25.391,16.113,0.0,0
1581710712.18,20.02,30.762,37.598,72.75399999999998,0.0,0
1581710712.184,13.184,11.23,39.062,48.34,0.0,0
1581710712.186,10.254,1.465,37.109,7.812,0.0,0
1581710712.19,14.648,18.555,41.992,29.785,0.0,0
1581710712.194,17.578,34.18,37.598,84.961,0.0,0
1581710712.198,15.625,45.898,41.01600000000001,53.71100000000001,0.0,0
1581710712.202,13.184,39.551,45.41,-8.789,0.0,0
1581710712.206,10.742,28.32,34.668,-8.789,0.0,0
1581710712.209,5.859,42.969,29.785,25.391,0.0,0
1581710712.2129998,5.859,32.715,24.902,23.926,0.0,0
1581710712.217,10.254,21.484,19.043,-45.41,0.0,0
1581710712.221,12.207,42.48,23.926,-74.707,0.0,0
1581710712.225,14.648,27.832,27.832,-33.691,0.0,0
1581710712.229,27.344,25.879,28.32,-20.02,0.0,0
1581710712.232,31.25,38.574,22.949,-60.547,0.0,0
1581710712.236,25.391,28.32,20.508000000000006,-73.73,0.0,0
1581710712.24,21.484,19.043,41.504,1.953,0.0,0
1581710712.244,10.254,14.648,40.039,37.598,0.0,0
1581710712.248,6.348,4.883,18.066,-8.301,0.0,0
1581710712.252,5.859,10.742,19.531,-26.855,0.0,0
1581710712.255,7.324,10.742,24.902,12.695,0.0,0
1581710712.2589998,14.648,17.578,16.602,58.105,0.0,0
1581710712.2629998,24.902,47.363,22.461,34.18,0.0,0
1581710712.2670002,37.109,37.109,38.086,-14.16,0.0,0
1581710712.271,30.273000000000003,5.859,37.598,-14.16,0.0,0
1581710712.275,19.043,10.742,30.762,25.391,0.0,0
1581710712.276,23.926,42.48,32.715,42.969,0.0,0
1581710712.28,26.367,33.203,27.344,-20.508000000000006,0.0,0
1581710712.284,13.184,12.207,17.578,-55.664,0.0,0
1581710712.288,0.0,20.02,23.438,7.324,0.0,0
1581710712.292,1.465,18.066,27.344,26.367,0.0,0
1581710712.296,3.906,7.812,26.367,-20.996,0.0,0
1581710712.299,5.371,-4.395,33.691,-51.27,0.0,0
1581710712.303,-3.418,-3.906,30.273000000000003,-23.438,0.0,0
1581710712.3070002,7.324,34.18,26.855,34.18,0.0,0
1581710712.311,26.855,40.039,40.039,17.09,0.0,0
1581710712.315,22.949,20.02,40.039,-29.785,0.0,0
1581710712.319,7.812,17.578,28.809,-24.902,0.0,0
1581710712.321,0.0,21.484,17.578,12.207,0.0,0
1581710712.325,0.488,16.113,14.16,17.09,0.0,0
1581710712.329,3.418,9.277,12.207,-31.25,0.0,0
1581710712.333,7.812,21.484,17.578,-22.949,0.0,0
1581710712.337,11.23,22.461,33.691,32.227,0.0,0
1581710712.341,13.184,3.906,41.504,47.363,0.0,0
1581710712.344,19.531,5.371,38.574,15.625,0.0,0
1581710712.3479998,25.391,32.715,36.621,-3.906,0.0,0
1581710712.3520002,19.531,37.109,33.203,41.01600000000001,0.0,0
1581710712.356,10.742,19.531,25.391,57.129,0.0,0
1581710712.36,13.672,7.324,23.438,14.648,0.0,0
1581710712.3639998,19.531,20.02,19.531,-3.906,0.0,0
1581710712.381,20.02,11.23,27.832,34.18,0.0,0
1581710712.385,18.066,-0.488,29.785,85.93799999999997,0.0,0
1581710712.389,20.508000000000006,21.973000000000006,28.32,51.27,0.0,0
1581710712.393,21.973000000000006,38.086,43.457,-7.812,0.0,0
1581710712.397,21.484,22.949,40.527,18.066,0.0,0
1581710712.401,25.391,7.812,36.133,66.406,0.0,0
1581710712.404,19.043,19.531,37.598,63.965,0.0,0
1581710712.408,13.672,21.484,35.156,4.395,0.0,0
1581710712.4120002,11.23,18.555,28.809,-5.859,0.0,0
1581710712.416,7.324,6.836,22.949,54.199,0.0,0
1581710712.42,15.625,27.832,24.414,73.242,0.0,0
1581710712.424,17.09,40.039,24.414,26.367,0.0,0
1581710712.426,17.578,18.066,24.414,-3.906,0.0,0
1581710712.43,17.578,15.625,27.832,42.969,0.0,0
1581710712.434,9.766,31.738000000000003,36.133,80.078,0.0,0
1581710712.438,18.555,38.574,41.01600000000001,38.086,0.0,0
1581710712.4420002,14.16,14.648,33.691,-9.766,0.0,0
1581710712.446,-1.465,8.789,27.344,12.695,0.0,0
1581710712.449,6.348,16.113,33.203,56.152,0.0,0
1581710712.4529998,23.438,30.762,36.621,45.898,0.0,0
1581710712.457,27.344,20.508000000000006,36.621,6.836,0.0,0
1581710712.461,24.414,2.93,30.762,20.02,0.0,0
1581710712.465,29.297,50.78100000000001,27.344,63.477,0.0,0
1581710712.469,36.133,47.363,26.855,64.453,0.0,0
1581710712.471,37.109,12.207,22.949,20.02,0.0,0
1581710712.475,34.18,19.043,35.156,8.789,0.0,0
1581710712.479,30.762,39.551,40.039,62.012,0.0,0
1581710712.4829998,23.438,44.434,29.297,72.75399999999998,0.0,0
1581710712.4870002,18.555,29.297,28.32,31.738000000000003,0.0,0
1581710712.4910002,18.555,13.672,36.133,15.137,0.0,0
1581710712.494,8.789,10.742,40.039,52.246,0.0,0
1581710712.498,-2.93,15.137,39.062,85.449,0.0,0
1581710712.502,4.883,-11.23,38.574,27.344,0.0,0
1581710712.506,6.836,1.465,30.273000000000003,-24.414,0.0,0
1581710712.51,-3.906,43.457,26.367,22.949,0.0,2
1581710712.514,-1.953,40.039,28.809,83.49600000000002,0.0,0
1581710712.516,8.301,33.691,31.25,74.707,0.0,0
1581710712.52,5.371,27.344,20.02,-9.277,0.0,0
1581710712.524,-3.418,20.508000000000006,18.555,-18.066,0.0,0
1581710712.528,-10.742,15.625,31.25,60.547,0.0,0
1581710712.532,-3.418,14.648,30.762,69.824,0.0,0
1581710712.536,5.859,1.465,42.48,21.484,0.0,0
1581710712.539,10.254,10.742,41.01600000000001,3.906,0.0,0
1581710712.543,9.766,8.301,28.32,43.945,0.0,0
1581710712.5470002,6.836,3.906,25.879,69.824,0.0,0
1581710712.551,17.09,42.969,30.273000000000003,24.414,0.0,0
1581710712.555,23.926,44.922,36.133,5.859,0.0,0
1581710712.559,12.207,14.648,29.785,33.203,0.0,0
1581710712.561,0.977,1.953,25.879,59.082,0.0,0
1581710712.565,-4.395,4.883,30.762,44.922,0.0,0
1581710712.569,2.93,12.207,32.227,5.371,0.0,0
1581710712.573,2.93,25.879,34.18,26.855,0.0,0
1581710712.577,2.441,29.297,29.297,60.059,0.0,0
1581710712.581,17.578,20.02,19.043,44.922,0.0,0
1581710712.584,20.02,24.414,30.273000000000003,9.277,0.0,0
1581710712.5879998,9.277,10.254,43.457,-1.465,0.0,0
1581710712.592,1.953,11.23,40.039,42.969,0.0,0
1581710712.596,8.789,45.898,33.691,38.574,0.0,0
1581710712.6,20.508000000000006,17.578,33.203,-15.625,0.0,0
1581710712.604,16.113,29.297,36.621,-12.207,0.0,0
1581710712.606,12.695,50.78100000000001,33.203,35.645,0.0,0
1581710712.61,1.953,42.48,28.32,53.223,0.0,0
1581710712.6139998,-2.93,35.645,20.996,-8.301,0.0,0
1581710712.6179998,12.695,25.879,12.207,-45.898,0.0,0
1581710712.6220002,1.465,20.02,20.996,5.859,0.0,0
1581710712.6260002,-6.836,-12.207,40.039,45.898,0.0,0
1581710712.629,8.789,-6.348,44.922,31.738000000000003,0.0,0
1581710712.633,-0.977,15.625,36.621,-36.621,0.0,0
1581710712.637,-15.137,46.875,26.855,-34.18,0.0,0
1581710712.641,-23.438,59.082,19.043,45.898,0.0,0
1581710712.645,-19.531,32.227,24.414,45.898,0.0,0
1581710712.649,-7.812,25.879,36.133,-0.488,0.0,0
1581710712.651,-8.301,36.133,26.855,-14.648,0.0,0
1581710712.655,-17.09,26.855,13.672,23.438,0.0,0
1581710712.659,-13.184,15.625,19.043,47.363,0.0,0
1581710712.663,5.859,14.648,30.762,-6.348,0.0,0
1581710712.667,18.555,13.184,38.574,-24.414,0.0,0
1581710712.671,20.02,11.23,38.086,18.066,0.0,0
1581710712.674,11.719,4.395,35.156,39.551,0.0,0
1581710712.678,4.883,18.066,27.832,13.184,0.0,0
1581710712.6820002,11.719,50.78100000000001,21.973000000000006,-21.973000000000006,0.0,0
1581710712.686,19.531,31.738000000000003,29.297,13.672,0.0,0
1581710712.69,11.23,6.836,26.855,48.828,0.0,0
1581710712.694,8.789,10.742,24.414,17.09,0.0,0
1581710712.697,13.184,12.695,29.785,-24.414,0.0,0
1581710712.701,13.672,-7.812,22.949,-13.672,0.0,0
1581710712.705,18.066,2.441,22.461,40.527,0.0,0
1581710712.709,14.16,25.879,35.645,21.973000000000006,0.0,0
1581710712.7129998,13.184,16.602,28.32,-43.457,0.0,0
1581710712.717,6.348,-6.348,26.855,-44.434,0.0,0
1581710712.72,-5.371,-2.441,46.875,0.977,0.0,0
1581710712.724,-0.488,27.832,47.363,22.949,0.0,0
1581710712.728,7.812,34.18,40.039,-29.785,0.0,0
1581710712.732,6.348,4.395,37.598,-62.5,0.0,0
1581710712.736,0.488,-5.371,33.691,-7.324,0.0,0
1581710712.74,-1.465,31.25,36.621,18.555,0.0,0
1581710712.756,-0.977,38.574,37.109,-17.578,0.0,0
1581710712.76,6.348,22.461,42.969,-69.824,0.0,0
1581710712.764,8.789,13.184,40.527,-65.43,0.0,0
1581710712.768,0.0,25.391,28.32,-19.043,0.0,0
1581710712.772,-3.906,8.301,23.438,-53.71100000000001,0.0,0
1581710712.776,-1.465,-25.879,23.438,-100.098,0.0,0
1581710712.779,3.418,-0.488,31.25,-83.984,0.0,0
1581710712.783,5.371,43.945,39.062,-27.832,0.0,0
1581710712.7870002,13.184,42.969,29.785,-1.953,0.0,0
1581710712.791,12.207,9.766,15.137,-45.898,0.0,0
1581710712.795,6.836,11.23,24.414,-34.18,0.0,0
1581710712.799,5.859,36.621,31.738000000000003,32.227,0.0,0
1581710712.802,5.371,25.391,33.691,64.941,0.0,0
1581710712.806,3.418,6.836,40.039,45.41,0.0,0
1581710712.81,-0.977,7.812,31.25,21.484,0.0,0
1581710712.814,1.465,-2.441,28.809,78.613,0.0,0
1581710712.8179998,3.906,-8.301,38.574,109.375,0.0,0
1581710712.822,16.113,7.324,39.062,65.43,0.0,0
1581710712.825,27.832,26.855,34.18,27.832,0.0,0
1581710712.829,23.926,36.133,29.785,36.621,0.0,0
1581710712.833,27.344,20.996,25.391,86.914,0.0,0
1581710712.837,39.551,6.348,33.691,54.688,0.0,0
1581710712.841,51.27,33.203,44.922,-0.488,0.0,0
1581710712.845,44.922,35.645,36.133,22.461,0.0,0
1581710712.846,44.434,13.672,22.949,62.012,0.0,0
1581710712.85,44.434,23.926,27.832,63.477,0.0,0
1581710712.854,37.598,46.387,29.297,-6.348,0.0,0
1581710712.8579998,41.504,27.832,28.809,-32.715,0.0,0
1581710712.8620002,39.551,20.996,37.109,26.855,0.0,0
1581710712.8660002,34.668,20.996,34.18,28.809,0.0,0
1581710712.869,38.574,13.184,32.227,-11.719,0.0,0
1581710712.873,40.039,36.133,29.785,-41.504,0.0,0
1581710712.877,36.621,15.137,33.691,-13.672,0.0,0
1581710712.881,26.367,10.742,43.457,33.203,0.0,0
1581710712.885,21.484,43.945,40.527,-4.883,0.0,0
1581710712.889,13.672,24.902,33.203,-50.293,0.0,0
1581710712.8920002,9.766,9.766,27.832,-38.086,0.0,0
1581710712.896,6.348,19.531,30.273000000000003,11.23,0.0,0
1581710712.9,15.137,32.715,32.715,22.461,0.0,0
1581710712.904,26.855,28.32,31.738000000000003,-26.367,0.0,0
1581710712.908,25.879,21.973000000000006,30.273000000000003,-22.949,0.0,0
1581710712.9120002,27.832,22.461,37.109,24.414,0.0,0
1581710712.915,30.273000000000003,33.203,34.668,22.949,0.0,0
1581710712.919,27.832,21.484,27.832,-21.484,0.0,0
1581710712.923,26.855,7.324,27.832,-44.434,0.0,0
1581710712.927,21.484,43.945,29.297,7.324,0.0,0
1581710712.931,19.531,37.598,36.133,28.809,0.0,0
1581710712.935,21.973000000000006,7.812,32.715,-21.484,0.0,0
1581710712.952,25.391,20.508000000000006,27.832,-43.945,0.0,0
1581710712.956,22.949,29.785,32.715,-9.766,0.0,0
1581710712.96,17.578,26.855,34.668,37.598,0.0,0
1581710712.964,20.996,29.297,32.227,4.883,0.0,0
1581710712.968,28.32,28.32,34.18,-51.758,0.0,0
1581710712.972,27.344,20.02,35.156,-28.32,0.0,0
1581710712.975,19.531,13.672,32.227,10.254,0.0,0
1581710712.979,10.742,3.906,34.668,-17.09,0.0,0
1581710712.9829998,7.812,9.277,30.762,-91.797,0.0,0
1581710712.9870002,-0.488,32.227,15.137,-101.562,0.0,0
1581710712.9910002,-8.301,26.367,14.16,-26.367,0.0,0
1581710712.995,-5.859,30.762,28.32,-1.953,0.0,0
1581710712.981,-1.953,40.527,36.133,-40.039,0.0,0
1581710712.985,9.766,41.504,31.738000000000003,-66.895,0.0,0
1581710712.9889998,5.371,13.184,32.715,-23.438,0.0,0
1581710712.9929998,0.0,4.883,39.062,32.715,0.0,0
1581710712.9970002,8.301,26.855,38.574,-5.371,0.0,0
1581710713.0010002,12.207,26.367,37.598,-34.18,0.0,0
1581710713.004,7.324,8.301,31.738000000000003,0.488,0.0,0
1581710713.008,13.672,3.418,25.391,49.316,0.0,0
1581710713.012,20.02,9.277,26.367,42.969,0.0,0
1581710713.016,21.973000000000006,23.926,30.762,-13.672,0.0,0
1581710713.02,17.578,5.859,30.273000000000003,-9.277,0.0,0
1581710713.024,13.184,-9.766,26.855,28.809,0.0,0
1581710713.026,21.484,38.574,25.879,25.391,0.0,0
1581710713.03,32.715,46.875,33.691,-23.926,0.0,0
1581710713.034,36.133,23.438,34.18,-51.758,0.0,0
1581710713.038,25.391,17.578,29.297,-23.438,0.0,0
1581710713.042,20.996,22.461,38.574,-31.25,0.0,0
1581710713.046,27.832,12.207,37.109,-83.49600000000002,0.0,0
1581710713.049,18.555,-5.859,31.738000000000003,-104.98,0.0,0
1581710713.053,7.324,14.16,23.926,-56.152,0.0,0
1581710713.0570002,7.812,49.805,19.531,0.488,0.0,0
1581710713.061,8.789,25.391,28.32,-24.902,0.0,0
1581710713.065,9.277,13.672,35.645,-50.293,0.0,0
1581710713.069,8.789,36.621,28.809,-7.324,0.0,0
1581710713.072,-0.488,38.086,23.926,38.086,0.0,0
1581710713.076,-5.371,17.578,32.227,22.461,0.0,0
1581710713.08,0.0,6.836,39.062,-37.109,0.0,0
1581710713.084,1.953,23.438,38.086,-18.066,0.0,0
1581710713.0879998,-2.441,34.668,31.738000000000003,64.453,0.0,0
1581710713.092,3.906,5.371,28.809,59.57,0.0,0
1581710713.095,15.625,-1.465,36.133,4.883,0.0,0
1581710713.099,14.16,20.508000000000006,36.621,-8.301,0.0,0
1581710713.103,16.602,23.926,35.645,50.78100000000001,0.0,0
1581710713.107,15.137,20.508000000000006,36.621,78.125,0.0,0
1581710713.111,6.348,21.484,37.109,15.625,0.0,0
1581710713.115,5.859,35.156,32.227,-22.949,0.0,0
1581710713.1320002,13.184,20.508000000000006,26.367,-3.418,0.0,0
1581710713.1360002,14.16,7.324,33.203,39.062,0.0,0
1581710713.14,8.301,20.508000000000006,39.062,11.719,0.0,0
1581710713.144,9.277,11.719,34.18,-55.176,0.0,0
1581710713.1479998,11.23,14.16,32.227,-34.18,0.0,0
1581710713.1520002,0.488,19.043,34.18,-13.184,0.0,0
1581710713.155,5.371,18.066,26.367,-29.785,0.0,0
1581710713.159,10.742,23.438,32.715,-48.828,0.0,0
1581710713.163,7.812,15.625,37.598,-38.574,0.0,0
1581710713.167,9.277,-4.395,26.855,15.137,0.0,0
1581710713.171,16.602,23.926,33.691,29.785,0.0,0
1581710713.175,20.508000000000006,37.109,36.621,-6.348,0.0,0
1581710713.177,10.254,2.441,29.297,-27.344,0.0,0
1581710713.181,1.465,10.254,27.832,17.09,0.0,0
1581710713.185,1.465,32.227,34.668,46.875,0.0,0
1581710713.189,5.859,19.043,45.41,-1.953,0.0,0
1581710713.1929998,6.348,-2.93,40.039,-34.18,0.0,0
1581710713.197,0.977,14.648,31.738000000000003,10.254,0.0,0
1581710713.2,5.859,37.109,28.32,52.734,0.0,0
1581710713.204,16.602,42.969,26.855,25.391,0.0,0
1581710713.208,23.438,21.484,32.227,-29.785,0.0,0
1581710713.212,22.461,-9.766,30.762,-14.648,0.0,0
1581710713.216,8.789,18.066,21.973000000000006,45.898,0.0,0
1581710713.22,8.789,43.945,21.484,31.25,0.0,0
1581710713.222,20.02,34.18,28.809,-29.297,0.0,0
1581710713.226,18.066,35.645,33.203,-38.574,0.0,0
1581710713.23,12.207,31.738000000000003,32.227,16.602,0.0,0
1581710713.234,10.742,18.555,24.902,29.297,0.0,0
1581710713.238,8.301,19.531,19.531,-32.227,0.0,0
1581710713.242,7.324,16.113,29.785,-56.64100000000001,0.0,0
1581710713.245,-0.977,17.09,30.762,-24.414,0.0,0
1581710713.2489998,0.0,34.668,23.438,9.766,0.0,0
1581710713.2529998,10.742,0.0,28.32,-23.926,0.0,0
1581710713.2570002,9.766,5.371,24.414,-58.594,0.0,0
1581710713.2610002,4.395,53.223,25.879,-6.836,0.0,0
1581710713.265,5.371,27.344,31.738000000000003,46.875,0.0,0
1581710713.2670002,8.301,11.719,34.668,20.996,0.0,0
1581710713.271,16.113,17.09,34.18,-20.996,0.0,0
1581710713.275,20.996,23.438,24.902,1.953,0.0,0
1581710713.279,15.137,26.855,35.645,57.129,0.0,0
1581710713.283,14.648,25.879,45.41,48.34,0.0,0
1581710713.2870002,6.348,17.09,36.133,-8.789,0.0,0
1581710713.29,6.348,16.113,29.785,-6.836,0.0,0
1581710713.294,20.02,-3.418,27.344,43.945,0.0,0
1581710713.298,13.184,-6.836,28.809,46.387,0.0,0
1581710713.302,16.602,30.762,29.785,-10.742,0.0,0
1581710713.306,17.578,21.973000000000006,27.344,-31.25,0.0,0
1581710713.31,11.23,17.09,23.438,12.695,0.0,0
1581710713.312,16.113,33.203,25.391,38.574,0.0,0
1581710713.316,16.113,45.41,30.273000000000003,-3.418,0.0,0
1581710713.32,9.766,38.086,38.574,-48.828,0.0,0
1581710713.324,6.836,23.438,38.086,-18.555,0.0,0
1581710713.3279998,5.859,27.344,36.133,37.598,0.0,0
1581710713.332,7.812,33.203,39.551,29.785,0.0,0
1581710713.335,7.812,43.945,36.133,-12.207,0.0,0
1581710713.339,6.836,24.902,35.156,-15.625,0.0,0
1581710713.343,6.836,31.738000000000003,27.344,33.691,0.0,0
1581710713.347,9.766,60.547,32.227,38.574,0.0,0
1581710713.351,16.602,48.34,43.945,-14.648,0.0,0
1581710713.355,10.742,34.668,45.898,-27.832,0.0,0
1581710713.356,7.324,15.625,39.551,21.973000000000006,0.0,0
1581710713.36,5.859,41.01600000000001,27.344,51.758,0.0,0
1581710713.3639998,7.324,46.387,34.18,10.742,0.0,0
1581710713.3679998,20.02,18.066,38.574,-21.973000000000006,0.0,0
1581710713.3720002,22.949,20.02,34.18,17.578,0.0,0
1581710713.3760002,20.02,4.883,33.203,52.734,0.0,0
1581710713.379,22.461,7.812,31.25,22.949,0.0,0
1581710713.383,28.32,24.902,36.133,-5.371,0.0,0
1581710713.387,15.625,60.059,37.109,31.738000000000003,0.0,0
1581710713.391,0.488,61.035,33.691,79.59,0.0,0
1581710713.395,14.16,24.902,32.715,62.5,0.0,0
1581710713.399,21.973000000000006,24.414,31.738000000000003,15.625,0.0,0
1581710713.401,17.09,31.738000000000003,26.367,13.672,0.0,0
1581710713.405,27.832,13.184,25.391,78.613,0.0,0
1581710713.409,22.461,13.672,34.668,83.008,0.0,0
1581710713.413,-6.836,20.508000000000006,32.715,1.465,0.0,0
1581710713.417,-9.277,12.207,27.344,-5.859,0.0,0
1581710713.421,-9.277,11.719,39.062,59.57,0.0,0
1581710713.424,-11.719,-3.418,46.875,74.219,0.0,0
1581710713.428,-1.465,0.977,32.715,17.578,0.0,0
1581710713.4320002,3.418,19.531,25.879,-31.738000000000003,0.0,0
1581710713.436,1.465,12.207,27.832,8.789,0.0,0
1581710713.44,4.395,15.625,26.855,71.289,0.0,0
1581710713.444,14.648,11.719,32.227,49.805,0.0,0
1581710713.446,30.273000000000003,13.672,31.25,5.371,0.0,0
1581710713.45,23.438,15.625,18.066,15.625,0.0,0
1581710713.454,15.137,17.578,31.25,75.195,0.0,0
1581710713.458,18.066,38.086,49.316,74.707,0.0,0
1581710713.462,21.484,33.691,46.387,13.184,0.0,0
1581710713.466,18.066,2.93,43.945,8.301,0.0,0
1581710713.469,9.766,-9.277,37.109,58.105,0.0,0
1581710713.4729998,10.742,26.855,29.785,67.383,0.0,0
1581710713.4770002,10.742,42.48,27.832,11.719,0.0,0
1581710713.481,13.184,11.719,29.297,-17.578,0.0,0
1581710713.485,14.648,21.484,30.273000000000003,23.926,0.0,0
1581710713.4889998,7.812,48.828,29.785,51.758,0.0,0
1581710713.506,0.488,40.527,30.273000000000003,18.555,0.0,0
1581710713.51,9.277,21.973000000000006,29.297,-19.043,0.0,0
1581710713.514,12.695,33.691,25.879,13.184,0.0,0
1581710713.518,9.766,34.668,28.809,47.852,0.0,0
1581710713.522,21.484,22.949,35.645,4.395,0.0,0
1581710713.526,20.02,25.391,34.668,-56.64100000000001,0.0,0
1581710713.529,5.859,32.227,24.414,-51.758,0.0,0
1581710713.533,6.836,45.898,23.926,1.465,0.0,0
1581710713.5370002,17.578,43.457,33.203,10.254,0.0,0
1581710713.541,21.484,18.066,33.203,-31.25,0.0,0
1581710713.545,17.09,33.691,33.691,-18.555,0.0,1
1581710713.549,17.09,64.941,33.203,51.27,0.0,0
1581710713.551,26.367,34.18,33.691,68.848,0.0,0
1581710713.555,20.996,18.555,32.227,6.836,0.0,0
1581710713.559,14.16,36.621,34.18,-30.273000000000003,0.0,0
1581710713.563,23.438,50.78100000000001,38.574,24.414,0.0,0
1581710713.5670002,20.02,44.922,25.879,64.453,0.0,0
1581710713.571,18.555,13.672,23.926,18.066,0.0,0
1581710713.574,27.832,22.461,38.086,-26.367,0.0,0
1581710713.5779998,24.902,54.199,42.48,7.812,0.0,0
1581710713.582,20.02,33.203,40.527,61.035,0.0,0
1581710713.586,19.531,25.879,38.574,41.992,0.0,0
1581710713.59,22.461,55.664,36.621,-13.184,0.0,0
1581710713.594,20.996,41.01600000000001,38.574,5.859,0.0,0
1581710713.596,13.184,18.555,37.109,64.941,0.0,0
1581710713.6,18.066,19.043,36.621,64.941,0.0,0
1581710713.604,19.531,36.621,44.922,23.438,0.0,0
1581710713.6079998,13.184,33.691,45.898,17.09,0.0,0
1581710713.6120002,9.766,25.391,34.668,63.477,0.0,0
1581710713.6160002,8.301,21.973000000000006,29.297,86.914,0.0,0
1581710713.619,5.371,19.043,29.297,47.852,0.0,0
1581710713.623,0.488,25.391,27.344,23.926,0.0,0
1581710713.627,-1.953,10.742,32.715,77.637,0.0,0
1581710713.631,3.418,7.812,32.227,108.398,0.0,0
1581710713.635,6.836,42.969,30.273000000000003,66.895,0.0,0
1581710713.639,2.441,31.738000000000003,34.18,32.227,0.0,0
1581710713.641,-1.953,10.742,31.738000000000003,58.594,0.0,0
1581710713.645,-0.488,13.672,31.738000000000003,106.445,0.0,0
1581710713.649,5.371,19.531,32.227,91.309,0.0,0
1581710713.653,19.043,5.371,32.715,28.809,0.0,0
1581710713.657,28.32,6.348,37.109,38.574,0.0,0
1581710713.661,20.508000000000006,10.742,30.762,94.727,0.0,0
1581710713.664,21.484,20.02,27.832,92.285,0.0,0
1581710713.668,26.367,20.02,31.738000000000003,35.156,0.0,0
1581710713.6720002,22.461,9.277,26.855,8.789,0.0,0
1581710713.676,17.09,42.969,31.738000000000003,55.176,0.0,0
1581710713.68,13.184,45.41,38.574,71.289,0.0,0
1581710713.684,27.832,18.066,35.156,18.555,0.0,0
1581710713.686,31.738000000000003,14.648,37.598,-13.184,0.0,0
1581710713.69,32.715,24.902,36.133,22.949,0.0,0
1581710713.694,35.645,11.23,33.203,59.082,0.0,0
1581710713.698,40.527,2.441,38.086,31.738000000000003,0.0,0
1581710713.702,48.34,3.906,32.715,-17.578,0.0,0
1581710713.706,34.18,0.488,25.879,-7.812,0.0,0
1581710713.709,22.461,20.02,37.109,40.039,0.0,0
1581710713.7129998,14.16,9.277,49.316,28.32,0.0,0
1581710713.717,8.301,19.043,38.086,-28.32,0.0,0
1581710713.721,11.23,57.617,26.855,-27.344,0.0,0
1581710713.725,7.324,34.668,34.668,30.273000000000003,0.0,0
1581710713.729,8.789,-1.465,35.645,40.039,0.0,0
1581710713.731,18.066,-4.395,32.227,-7.812,0.0,0
1581710713.735,9.277,24.414,29.785,-25.879,0.0,0
1581710713.7389998,4.395,18.555,35.156,30.273000000000003,0.0,0
1581710713.7429998,2.93,6.836,35.156,51.758,0.0,0
1581710713.7470002,5.371,20.996,24.414,-12.695,0.0,0
1581710713.7510002,4.395,9.277,22.461,-49.805,0.0,0
1581710713.754,-4.395,-3.418,30.762,-10.254,0.0,0
1581710713.758,-5.371,-0.488,29.297,29.785,0.0,0
1581710713.762,3.418,46.875,32.227,10.254,0.0,0
1581710713.766,10.254,25.879,36.133,-38.086,0.0,0
1581710713.77,5.859,-5.371,30.762,-15.137,0.0,0
1581710713.774,4.395,20.996,32.715,35.156,0.0,0
1581710713.7770002,6.836,23.438,36.133,26.367,0.0,0
1581710713.781,13.672,12.207,41.01600000000001,-19.043,0.0,0
1581710713.785,15.137,8.301,38.086,-28.809,0.0,0
1581710713.789,8.301,36.621,32.227,30.762,0.0,0
1581710713.793,17.09,41.01600000000001,36.621,55.176,0.0,0
1581710713.7970002,30.762,15.625,40.527,7.812,0.0,0
1581710713.8,34.668,-9.766,42.48,-16.113,0.0,0
1581710713.804,34.668,9.277,37.598,28.32,0.0,0
1581710713.8079998,25.879,45.898,28.809,58.594,0.0,0
1581710713.812,9.766,24.414,23.926,18.555,0.0,0
1581710713.816,11.719,12.207,22.949,-14.16,0.0,0
1581710713.82,17.578,38.086,25.879,37.109,0.0,0
1581710713.822,17.09,39.062,31.25,90.332,0.0,0
1581710713.826,20.996,18.066,28.32,65.43,0.0,0
1581710713.83,27.344,33.203,23.438,20.996,0.0,0
1581710713.834,22.461,28.32,24.902,32.715,0.0,0
1581710713.8379998,26.367,18.555,37.109,95.215,0.0,0
1581710713.842,38.574,19.043,38.086,102.051,0.0,0
1581710713.845,30.273000000000003,19.531,37.598,50.78100000000001,0.0,0
1581710713.849,17.09,36.133,32.715,37.598,0.0,0
1581710713.853,12.207,39.062,18.066,70.312,0.0,0
1581710713.857,8.301,24.902,32.227,57.129,0.0,0
1581710713.861,5.371,17.09,41.504,-33.203,0.0,0
1581710713.865,4.395,32.227,27.344,-85.449,0.0,0
1581710713.8820002,4.883,28.32,30.273000000000003,-43.945,0.0,0
1581710713.8860002,2.441,4.395,39.551,-3.418,0.0,0
1581710713.89,6.836,10.254,30.273000000000003,-15.137,0.0,0
1581710713.894,15.137,19.531,25.391,-37.109,0.0,0
1581710713.8979998,20.508000000000006,5.371,32.715,6.836,0.0,0
1581710713.9020002,20.996,11.719,27.344,82.031,0.0,0
1581710713.905,21.973000000000006,23.438,36.621,100.586,0.0,0
1581710713.909,27.832,20.508000000000006,53.223,62.012,0.0,0
1581710713.913,14.648,22.461,42.969,61.035,0.0,0
1581710713.917,-0.488,12.207,19.531,112.305,0.0,0
1581710713.921,7.812,30.273000000000003,15.625,120.117,0.0,0
1581710713.925,22.461,49.316,32.715,68.359,0.0,0
1581710713.927,22.461,37.109,41.01600000000001,44.922,0.0,0
1581710713.931,18.066,30.273000000000003,40.527,82.52,0.0,0
1581710713.935,8.789,30.762,37.109,91.797,0.0,0
1581710713.939,12.695,27.832,31.25,37.598,0.0,0
1581710713.9429998,13.672,6.348,35.645,6.836,0.0,0
1581710713.947,1.953,5.371,45.898,39.062,0.0,0
1581710713.95,6.836,31.738000000000003,48.34,63.477,0.0,0
1581710713.954,22.461,44.922,42.48,24.902,0.0,0
1581710713.958,27.832,22.949,35.156,-19.043,0.0,0
1581710713.962,20.508000000000006,12.695,39.062,11.719,0.0,0
1581710713.966,17.578,38.574,40.527,55.176,0.0,0
1581710713.97,23.438,35.156,37.109,34.18,0.0,0
1581710713.972,27.832,20.508000000000006,46.875,-8.789,0.0,0
1581710713.976,26.855,13.672,45.898,-5.371,0.0,0
1581710713.98,14.16,28.809,32.227,35.156,0.0,0
1581710713.984,11.23,43.457,27.344,27.832,0.0,0
1581710713.988,18.066,30.762,29.785,-20.996,0.0,0
1581710713.992,22.949,18.555,36.133,-25.879,0.0,0
1581710713.995,13.184,35.645,37.109,14.648,0.0,0
1581710713.9989998,8.301,53.223,40.039,41.504,0.0,0
1581710714.0029998,14.16,21.484,40.527,0.0,0.0,0
1581710714.0070002,2.93,13.184,37.598,-54.199,0.0,0
1581710714.0110002,-20.508000000000006,53.71100000000001,36.133,-15.625,0.0,0
1581710714.015,-52.734,41.01600000000001,41.992,11.719,0.0,0
1581710714.0170002,-63.477,33.691,52.246,-28.32,0.0,0
1581710714.021,-49.316,63.965,57.617,-70.801,0.0,0
1581710714.025,-64.941,79.102,62.012,-69.824,0.0,0
1581710714.029,-102.051,87.891,71.777,-37.109,0.0,0
1581710714.033,-123.535,103.027,76.172,-62.012,0.0,0
1581710714.0370002,-131.34799999999998,111.816,76.66,-120.605,0.0,0
1581710714.04,-138.672,133.30100000000002,71.777,-143.555,0.0,0
1581710714.044,-160.156,150.879,70.801,-121.582,0.0,0
1581710714.048,-165.52700000000004,154.297,79.102,-107.422,0.0,0
1581710714.052,-153.32,202.148,78.613,-153.32,0.0,0
1581710714.056,-157.715,221.68,81.543,-180.176,0.0,0
1581710714.06,-166.016,202.637,83.49600000000002,-155.762,0.0,0
1581710714.062,-172.363,195.801,65.43,-154.297,0.0,0
1581710714.066,-178.22299999999996,212.402,66.406,-179.688,0.0,0
1581710714.07,-165.03900000000004,195.801,78.613,-198.73,0.0,0
1581710714.074,-157.715,181.641,75.684,-157.715,0.0,0
1581710714.0779998,-162.59799999999996,198.242,72.75399999999998,-120.605,0.0,0
1581710714.082,-158.203,188.965,62.012,-157.227,0.0,0
1581710714.085,-143.555,179.688,59.57,-184.082,0.0,0
1581710714.089,-142.09,158.691,65.918,-159.18,0.0,0
1581710714.093,-144.043,163.086,64.453,-112.305,0.0,0
1581710714.097,-127.93,201.66,57.129,-131.836,0.0,0
1581710714.101,-115.723,173.34,61.523,-183.105,0.0,0
1581710714.105,-113.281,142.09,71.777,-144.043,0.0,0
1581710714.107,-107.422,138.184,67.383,-73.242,0.0,0
1581710714.111,-90.82,142.09,55.176,-58.105,0.0,0
1581710714.115,-76.172,130.371,58.105,-108.887,0.0,0
1581710714.119,-51.27,102.539,62.988,-124.512,0.0,0
1581710714.123,-39.551,111.816,51.758,-43.945,0.0,0
1581710714.127,-35.645,102.051,41.992,5.859,0.0,0
1581710714.13,-12.207,76.66,36.621,-21.484,0.0,0
1581710714.1339998,3.906,63.965,36.621,-68.359,0.0,0
1581710714.1379998,15.625,72.75399999999998,36.621,-40.039,0.0,0
1581710714.1420002,22.461,73.73,34.18,37.598,0.0,0
1581710714.146,27.344,53.71100000000001,33.691,18.066,0.0,0
1581710714.15,40.527,60.059,28.809,-37.598,0.0,0
1581710714.1520002,40.039,64.941,20.508000000000006,-30.273000000000003,0.0,0
1581710714.156,32.227,46.875,18.066,15.137,0.0,0
1581710714.16,34.668,33.691,24.414,34.18,0.0,0
1581710714.164,43.945,22.461,25.391,-4.395,0.0,0
1581710714.168,45.41,18.555,22.461,-13.184,0.0,0
1581710714.1720002,50.78100000000001,7.324,30.762,30.273000000000003,0.0,0
1581710714.175,58.105,-21.484,27.344,47.363,0.0,0
1581710714.179,62.988,-18.555,12.695,14.16,0.0,0
1581710714.1829998,60.059,0.488,15.625,-18.555,0.0,0
1581710714.187,62.5,0.0,28.809,29.785,0.0,0
1581710714.191,63.477,0.977,25.879,61.035,0.0,0
1581710714.195,59.57,-3.906,20.508000000000006,12.695,0.0,0
1581710714.196,59.082,-1.953,20.996,-24.902,0.0,0
1581710714.2,47.363,-0.977,13.672,-12.207,0.0,0
1581710714.204,55.664,-5.859,10.742,38.086,0.0,0
1581710714.208,65.918,5.371,12.207,12.207,0.0,0
1581710714.212,67.87100000000001,4.883,19.531,-47.363,0.0,0
1581710714.216,66.895,-22.461,26.367,-22.461,0.0,0
1581710714.219,59.082,-28.32,23.438,21.973000000000006,0.0,0
1581710714.2229998,69.336,13.672,20.02,41.504,0.0,0
1581710714.2270002,75.684,11.719,24.414,2.441,0.0,0
1581710714.231,73.242,-11.719,23.438,-21.973000000000006,0.0,0
1581710714.235,75.195,11.23,19.531,47.852,0.0,0
1581710714.2389998,67.87100000000001,12.207,17.578,82.031,0.0,0
1581710714.2570002,68.359,-3.906,14.648,45.898,0.0,0
1581710714.2610002,70.801,-13.184,14.648,11.719,0.0,0
1581710714.265,66.406,-14.648,11.719,47.852,0.0,0
1581710714.269,77.148,0.0,19.043,108.887,0.0,0
1581710714.2729998,87.891,7.812,27.344,81.543,0.0,0
1581710714.2770002,82.52,-9.277,24.414,40.527,0.0,0
1581710714.28,78.613,-2.441,23.438,52.734,0.0,0
1581710714.284,79.102,21.484,28.32,91.797,0.0,0
1581710714.288,74.707,26.367,14.16,87.402,0.0,0
1581710714.292,77.148,3.418,5.371,25.879,0.0,0
1581710714.296,74.219,7.324,24.414,25.879,0.0,0
1581710714.3,58.594,26.367,19.043,56.152,0.0,0
1581710714.302,50.293,0.488,12.207,54.688,0.0,0
1581710714.306,57.617,-5.859,24.902,20.996,0.0,0
1581710714.31,61.035,6.348,23.926,4.395,0.0,0
1581710714.314,55.176,14.648,18.066,46.875,0.0,0
1581710714.3179998,55.176,13.184,10.742,49.805,0.0,0
1581710714.322,60.547,2.93,13.672,3.906,0.0,0
1581710714.325,61.523,7.324,12.207,-18.555,0.0,0
1581710714.329,52.246,28.32,15.137,10.742,0.0,0
1581710714.333,44.922,16.113,27.344,54.688,0.0,0
1581710714.337,47.363,-6.836,23.926,16.602,0.0,0
1581710714.341,49.316,13.672,23.926,-30.762,0.0,0
1581710714.345,30.762,15.137,26.367,6.348,0.0,0
1581710714.347,29.785,1.465,22.949,54.688,0.0,0
1581710714.351,45.898,13.184,26.367,43.457,0.0,0
1581710714.355,45.41,14.16,24.902,-26.855,0.0,0
1581710714.359,46.387,1.953,21.973000000000006,-40.039,0.0,0
1581710714.363,45.41,15.137,15.625,20.02,0.0,0
1581710714.367,42.969,14.648,14.648,31.738000000000003,0.0,0
1581710714.37,49.805,0.977,23.438,-14.648,0.0,0
1581710714.3739998,56.64100000000001,9.277,25.391,-44.434,0.0,0
1581710714.3779998,58.105,2.441,23.926,11.23,0.0,0
1581710714.3820002,50.78100000000001,4.395,22.949,55.664,0.0,0
1581710714.3860002,44.922,25.879,21.484,6.348,0.0,0
1581710714.39,49.316,18.066,27.344,-21.973000000000006,0.0,0
1581710714.3920002,46.387,6.348,26.855,-1.953,0.0,0
1581710714.396,34.668,2.93,22.461,29.785,0.0,0
1581710714.4,41.992,17.578,27.344,42.969,0.0,0
1581710714.404,59.082,13.184,24.414,13.184,0.0,0
1581710714.408,57.129,-8.301,21.484,28.32,0.0,0
1581710714.4120002,55.176,-11.719,25.391,75.195,0.0,0
1581710714.415,52.246,-0.488,29.297,65.918,0.0,0
1581710714.419,43.457,-2.441,26.855,15.137,0.0,0
1581710714.423,38.574,-1.465,27.832,-0.488,0.0,0
1581710714.427,31.25,29.297,31.25,50.293,0.0,0
1581710714.431,31.738000000000003,19.531,28.809,63.965,0.0,0
1581710714.435,52.734,-9.766,34.18,39.062,0.0,0
1581710714.437,42.969,0.0,26.855,14.16,0.0,0
1581710714.441,12.207,18.555,17.09,18.066,0.0,0
1581710714.445,22.461,15.137,20.02,66.895,0.0,0
1581710714.449,28.32,16.113,13.672,30.273000000000003,0.0,0
1581710714.4529998,18.066,14.16,2.93,-20.996,0.0,0
1581710714.457,13.672,-10.742,20.996,35.156,0.0,0
1581710714.46,6.348,7.324,33.203,84.473,0.0,0
1581710714.464,6.836,11.719,24.414,70.801,0.0,0
1581710714.468,14.648,-5.371,22.949,21.484,0.0,0
1581710714.472,12.207,4.395,24.902,37.598,0.0,0
1581710714.476,6.348,3.418,23.926,106.934,0.0,0
1581710714.48,17.09,9.766,18.066,104.004,0.0,0
1581710714.482,29.297,18.066,14.16,57.617,0.0,0
1581710714.486,28.809,21.484,16.113,34.668,0.0,0
1581710714.49,25.879,14.16,25.879,74.219,0.0,0
1581710714.494,39.062,10.254,26.855,107.91,0.0,0
1581710714.498,53.71100000000001,8.789,26.367,57.617,0.0,0
1581710714.502,50.293,-9.277,29.297,16.602,0.0,0
1581710714.505,44.434,-13.184,25.391,43.945,0.0,0
1581710714.5089998,49.805,1.953,26.367,88.37899999999998,0.0,0
1581710714.5129998,57.129,27.832,20.996,74.219,0.0,0
1581710714.5170002,61.035,31.25,8.789,30.273000000000003,0.0,0
1581710714.521,45.41,16.113,12.207,52.734,0.0,0
1581710714.525,33.691,7.324,30.762,87.402,0.0,0
1581710714.5270002,41.504,13.184,36.621,58.105,0.0,0
1581710714.531,42.969,31.738000000000003,23.926,14.648,0.0,0
1581710714.535,32.227,15.625,20.02,20.996,0.0,0
1581710714.539,21.484,8.301,20.996,71.777,0.0,0
1581710714.543,20.508000000000006,13.184,22.461,61.035,0.0,0
1581710714.5470002,24.902,-7.324,28.809,7.324,0.0,0
1581710714.55,30.762,-19.531,29.297,10.742,0.0,0
1581710714.554,23.438,12.695,31.25,52.734,0.0,0
1581710714.5579998,9.277,36.621,31.25,68.848,0.0,0
1581710714.562,13.184,20.508000000000006,23.438,16.113,0.0,0
1581710714.566,27.832,6.836,16.113,-18.555,0.0,0
1581710714.57,24.902,12.207,23.438,29.297,0.0,0
1581710714.571,19.531,27.344,35.645,74.707,0.0,0
1581710714.575,32.715,16.113,33.203,51.758,0.0,0
1581710714.579,41.504,13.184,25.879,-10.742,0.0,0
1581710714.583,38.574,19.531,24.902,4.395,0.0,0
1581710714.587,41.01600000000001,21.973000000000006,31.738000000000003,65.43,0.0,0
1581710714.591,32.227,0.977,27.344,38.574,0.0,0
1581710714.594,29.785,-7.324,20.996,-23.438,0.0,0
1581710714.5979998,38.086,16.113,28.809,-29.785,0.0,0
1581710714.6020002,32.227,35.645,33.203,13.184,0.0,0
1581710714.606,28.809,27.344,37.598,27.344,0.0,0
1581710714.61,32.715,24.902,31.738000000000003,-30.273000000000003,0.0,0
1581710714.6139998,24.902,32.715,27.344,-61.035,0.0,0
1581710714.631,18.066,21.973000000000006,37.598,-19.531,0.0,0
1581710714.635,26.855,22.461,37.598,14.16,0.0,0
1581710714.639,20.02,21.973000000000006,28.809,-22.949,0.0,0
1581710714.643,9.277,22.949,22.949,-69.336,0.0,0
1581710714.647,9.277,13.672,29.297,-28.809,0.0,0
1581710714.651,12.695,-3.906,35.156,7.324,0.0,0
1581710714.654,14.648,-11.719,30.273000000000003,-20.508000000000006,0.0,0
1581710714.658,16.602,-3.418,25.391,-54.199,0.0,0
1581710714.6620002,10.254,16.602,26.367,-44.434,0.0,0
1581710714.666,5.859,1.465,30.273000000000003,15.137,0.0,0
1581710714.67,12.207,19.531,34.668,14.16,0.0,0
1581710714.674,18.555,39.062,38.574,-33.691,0.0,0
1581710714.676,11.23,13.672,32.227,-23.926,0.0,0
1581710714.68,10.742,11.23,25.391,29.785,0.0,0
1581710714.684,22.461,26.855,38.086,57.617,0.0,0
1581710714.688,21.973000000000006,22.949,43.457,2.93,0.0,0
1581710714.6920002,24.414,-5.371,36.621,-28.32,0.0,0
1581710714.696,16.113,-17.09,32.715,21.973000000000006,0.0,0
1581710714.699,7.324,11.719,29.297,32.227,0.0,0
1581710714.7029998,10.742,37.598,27.832,-22.461,0.0,0
1581710714.707,15.625,12.695,26.855,-94.238,0.0,0
1581710714.711,15.137,-9.277,23.438,-95.215,0.0,0
1581710714.715,19.043,36.621,23.438,-38.086,0.0,0
1581710714.719,20.996,43.945,23.438,-57.129,0.0,0
1581710714.721,23.926,18.066,28.32,-102.539,0.0,0
1581710714.725,31.25,13.672,35.156,-89.844,0.0,0
1581710714.729,28.809,15.137,32.715,-20.02,0.0,0
1581710714.7329998,30.273000000000003,15.625,23.926,26.367,0.0,0
1581710714.7370002,33.203,10.742,21.973000000000006,-1.953,0.0,1
1581710714.7410002,28.32,7.324,24.414,5.371,0.0,0
1581710714.744,17.578,17.09,28.32,56.64100000000001,0.0,0
1581710714.748,14.16,32.227,27.832,72.266,0.0,0
1581710714.752,13.672,-1.953,18.066,33.203,0.0,0
1581710714.756,15.137,-2.441,20.508000000000006,-2.441,0.0,0
1581710714.76,8.789,36.133,27.832,39.062,0.0,0
1581710714.764,3.418,10.254,24.414,63.965,0.0,0
1581710714.766,8.789,-1.953,28.32,21.484,0.0,0
1581710714.77,8.301,11.719,30.762,-13.184,0.0,0
1581710714.774,7.324,16.602,31.25,2.93,0.0,0
1581710714.778,10.742,0.977,32.715,53.223,0.0,0
1581710714.782,15.137,-16.113,26.855,31.738000000000003,0.0,0
1581710714.786,7.812,-24.414,24.902,-33.203,0.0,0
1581710714.789,2.441,-2.441,25.391,-18.066,0.0,0
1581710714.793,0.0,0.977,28.809,35.156,0.0,0
1581710714.7970002,-0.488,-4.883,36.133,34.668,0.0,0
1581710714.801,7.812,33.691,26.855,-23.926,0.0,0
1581710714.805,7.324,30.273000000000003,17.578,-46.387,0.0,0
1581710714.809,7.812,-1.953,24.414,14.16,0.0,0
1581710714.811,13.672,-6.836,30.762,42.969,0.0,0
1581710714.815,12.695,7.812,30.273000000000003,8.301,0.0,0
1581710714.819,10.742,9.766,25.391,-25.879,0.0,0
1581710714.823,18.555,4.883,26.367,12.695,0.0,0
1581710714.827,19.531,-3.418,31.738000000000003,65.918,0.0,0
1581710714.831,8.301,-6.836,29.297,31.738000000000003,0.0,0
1581710714.834,4.395,19.531,23.926,-7.812,0.0,0
1581710714.8379998,10.254,0.977,24.902,-3.418,0.0,0
1581710714.842,11.23,10.742,27.344,50.78100000000001,0.0,0
1581710714.846,13.672,42.48,26.367,59.57,0.0,0
1581710714.85,11.23,10.254,27.344,1.953,0.0,0
1581710714.854,4.883,-3.906,29.785,-2.441,0.0,0
1581710714.856,-0.488,11.719,29.785,32.715,0.0,0
1581710714.86,-2.441,13.184,26.367,53.71100000000001,0.0,0
1581710714.8639998,8.789,-2.441,26.855,7.812,0.0,0
1581710714.8679998,8.301,-1.465,21.973000000000006,-26.367,0.0,0
1581710714.8720002,0.977,14.648,22.949,34.18,0.0,0
1581710714.8760002,8.789,7.324,27.832,54.199,0.0,0
1581710714.879,20.02,-7.812,23.438,15.137,0.0,0
1581710714.883,19.531,-10.254,17.578,-6.836,0.0,0
1581710714.887,14.16,26.367,20.508000000000006,29.785,0.0,0
1581710714.891,5.859,40.527,26.855,79.59,0.0,0
1581710714.895,22.949,9.766,35.156,57.617,0.0,0
1581710714.899,34.18,2.441,34.668,6.836,0.0,0
1581710714.9020002,26.367,27.344,29.297,23.438,0.0,0
1581710714.906,12.695,28.32,20.02,68.359,0.0,0
1581710714.91,12.207,7.324,24.414,61.523,0.0,0
1581710714.914,24.414,4.883,39.551,8.301,0.0,0
1581710714.918,18.555,7.812,33.691,0.977,0.0,0
1581710714.9220002,12.695,-8.301,30.762,57.617,0.0,0
1581710714.925,13.672,-22.949,34.668,77.148,0.0,0
1581710714.929,13.184,15.137,36.133,41.504,0.0,0
1581710714.9329998,15.625,48.34,29.785,11.23,0.0,0
1581710714.937,18.555,25.879,25.391,59.57,0.0,0
1581710714.941,24.902,21.973000000000006,26.855,104.98,0.0,0
1581710714.945,30.273000000000003,17.578,28.32,71.777,0.0,0
1581710714.947,22.461,11.23,30.762,32.227,0.0,0
1581710714.951,14.648,0.977,33.691,46.875,0.0,0
1581710714.955,12.207,-11.719,32.227,94.238,0.0,0
1581710714.959,12.207,-3.418,22.949,71.289,0.0,0
1581710714.9629998,12.207,9.766,21.973000000000006,20.02,0.0,0
1581710714.967,8.789,0.977,26.855,46.875,0.0,0
1581710714.97,14.648,-3.418,28.809,101.562,0.0,0
1581710714.974,32.715,21.484,37.598,108.398,0.0,0
1581710714.978,29.785,51.758,33.691,51.758,0.0,0
1581710714.982,14.648,46.875,20.508000000000006,25.879,0.0,0
1581710714.986,12.207,26.855,23.438,78.613,0.0,0
1581710714.99,14.16,31.25,27.344,85.449,0.0,0
1581710715.0070002,20.996,35.645,20.02,39.551,0.0,0
1581710715.0110002,13.184,30.762,16.113,15.137,0.0,0
1581710715.015,12.207,19.043,18.555,42.969,0.0,0
1581710715.019,27.832,35.156,9.766,97.168,0.0,0
1581710715.0229998,31.25,32.715,7.812,62.988,0.0,0
1581710715.0270002,31.738000000000003,11.719,15.625,16.602,0.0,0
1581710715.03,28.32,27.832,22.949,55.176,0.0,0
1581710715.034,30.273000000000003,47.363,30.273000000000003,108.398,0.0,0
1581710715.038,39.551,48.34,29.785,92.285,0.0,0
1581710715.042,35.645,18.555,24.414,20.996,0.0,0
1581710715.046,28.32,23.438,30.273000000000003,29.785,0.0,0
1581710715.05,19.043,45.41,32.227,90.332,0.0,0
1581710715.052,21.484,31.738000000000003,23.926,100.586,0.0,0
1581710715.056,26.367,45.41,24.414,54.688,0.0,0
1581710715.06,28.32,38.086,27.832,27.832,0.0,0
1581710715.064,16.113,17.578,23.438,72.266,0.0,0
1581710715.0679998,20.02,38.086,24.902,108.887,0.0,0
1581710715.072,38.086,35.645,38.086,71.777,0.0,0
1581710715.075,25.879,27.832,41.01600000000001,27.832,0.0,0
1581710715.079,11.719,45.41,32.227,45.41,0.0,0
1581710715.083,11.23,20.02,33.203,74.219,0.0,0
1581710715.087,17.578,-12.695,30.762,49.805,0.0,0
1581710715.091,15.137,37.109,20.02,8.301,0.0,0
1581710715.095,14.16,35.645,26.855,18.555,0.0,0
1581710715.097,20.02,11.719,39.062,53.71100000000001,0.0,0
1581710715.101,19.531,28.809,37.109,51.27,0.0,0
1581710715.105,25.391,44.434,19.043,7.812,0.0,0
1581710715.109,28.809,46.875,16.602,8.301,0.0,0
1581710715.113,21.484,29.297,31.738000000000003,51.758,0.0,0
1581710715.117,14.16,22.949,35.156,50.293,0.0,0
1581710715.12,15.137,21.484,32.227,6.836,0.0,0
1581710715.1239998,20.508000000000006,23.438,24.414,-5.371,0.0,0
1581710715.1279998,18.066,15.625,17.578,33.203,0.0,0
1581710715.1320002,18.066,14.16,27.832,56.64100000000001,0.0,0
1581710715.1360002,18.555,41.992,36.133,16.602,0.0,0
1581710715.14,18.066,31.738000000000003,32.227,-22.949,0.0,0
1581710715.1420002,19.043,37.598,34.668,9.766,0.0,0
1581710715.146,13.672,41.01600000000001,36.133,50.78100000000001,0.0,0
1581710715.15,14.16,31.738000000000003,22.949,31.25,0.0,0
1581710715.154,22.949,31.25,17.09,-15.625,0.0,0
1581710715.158,13.672,23.438,25.391,2.441,0.0,0
1581710715.1620002,2.93,15.137,25.879,59.082,0.0,0
1581710715.165,8.301,22.461,28.32,43.945,0.0,0
1581710715.169,18.066,11.23,34.668,-16.113,0.0,0
1581710715.173,23.926,-21.973000000000006,33.203,-23.438,0.0,0
1581710715.177,22.461,21.484,24.414,33.203,0.0,0
1581710715.181,21.484,51.758,28.32,46.875,0.0,0
1581710715.185,20.02,21.484,27.832,-8.789,0.0,0
1581710715.187,18.555,36.621,27.344,-28.32,0.0,0
1581710715.191,20.508000000000006,51.27,40.527,20.02,0.0,0
1581710715.195,16.113,43.945,37.109,59.082,0.0,0
1581710715.199,21.484,36.621,34.18,30.273000000000003,0.0,0
1581710715.2029998,31.738000000000003,15.137,42.48,1.953,0.0,0
1581710715.207,27.344,9.766,46.875,34.668,0.0,0
1581710715.21,15.137,39.062,36.621,73.242,0.0,0
1581710715.214,20.996,14.648,27.832,49.805,0.0,0
1581710715.218,27.832,13.184,22.949,-10.742,0.0,0
1581710715.222,15.625,62.988,21.484,-11.719,0.0,0
1581710715.226,5.371,48.828,26.855,33.203,0.0,0
1581710715.23,11.719,19.043,31.738000000000003,27.344,0.0,0
1581710715.232,15.625,19.531,35.645,-18.555,0.0,0
1581710715.236,9.277,35.645,36.133,-19.043,0.0,0
1581710715.24,7.324,16.602,25.879,26.855,0.0,0
1581710715.244,7.812,5.859,20.02,34.668,0.0,0
1581710715.248,5.859,23.926,27.832,-25.391,0.0,0
1581710715.252,3.418,7.812,32.227,-57.129,0.0,0
1581710715.255,5.371,-0.488,33.203,-7.812,0.0,0
1581710715.2589998,10.254,16.602,31.738000000000003,27.344,0.0,0
1581710715.2629998,15.625,42.48,30.273000000000003,-4.883,0.0,0
1581710715.2670002,20.996,35.645,36.133,-43.457,0.0,0
1581710715.271,16.113,15.137,33.203,-8.301,0.0,0
1581710715.275,8.789,6.836,29.785,31.25,0.0,0
1581710715.2770002,5.371,7.324,36.133,0.0,0.0,0
1581710715.281,7.324,0.0,28.809,-53.223,0.0,0
1581710715.285,7.324,-8.301,22.461,-53.223,0.0,0
1581710715.289,6.348,17.09,35.645,3.906,0.0,0
1581710715.293,2.441,17.09,41.01600000000001,4.395,0.0,0
1581710715.2970002,1.953,4.883,39.062,-43.457,0.0,0
1581710715.3,-2.93,-15.625,37.598,-55.176,0.0,0
1581710715.304,-9.277,-7.324,31.25,-17.578,0.0,0
1581710715.3079998,-4.883,39.551,27.832,9.766,0.0,0
1581710715.312,3.418,26.367,28.809,-35.645,0.0,0
1581710715.316,8.789,15.137,31.25,-75.684,0.0,0
1581710715.32,7.324,25.391,38.574,-41.992,0.0,0
1581710715.322,1.953,21.973000000000006,33.691,-16.113,0.0,0
1581710715.326,0.488,-3.418,26.855,-45.898,0.0,0
1581710715.33,10.254,-2.93,30.762,-72.266,0.0,0
1581710715.334,11.719,21.973000000000006,24.902,-46.875,0.0,0
1581710715.3379998,6.348,2.441,18.066,0.0,0.0,0
1581710715.342,7.812,-10.254,23.926,1.953,0.0,0
1581710715.345,10.742,12.695,26.855,-38.574,0.0,0
1581710715.349,14.16,26.855,32.227,-23.926,0.0,0
1581710715.353,17.578,31.25,41.01600000000001,36.621,0.0,0
1581710715.357,14.648,15.625,32.715,35.645,0.0,0
1581710715.361,10.742,-6.348,27.344,-19.531,0.0,0
1581710715.365,7.812,11.23,36.621,-33.691,0.0,0
1581710715.3820002,3.906,26.367,39.551,21.484,0.0,0
1581710715.3860002,0.977,24.414,33.691,57.129,0.0,0
1581710715.39,12.207,20.508000000000006,29.297,7.812,0.0,0
1581710715.394,13.672,40.039,18.066,-35.156,0.0,0
1581710715.3979998,5.371,26.855,18.066,-0.488,0.0,0
1581710715.4020002,15.137,-6.348,36.133,46.387,0.0,0
1581710715.405,20.508000000000006,26.855,31.25,17.578,0.0,0
1581710715.409,21.484,43.945,20.996,-37.598,0.0,0
1581710715.413,17.09,11.23,27.832,-32.715,0.0,0
1581710715.417,6.348,-6.348,26.367,2.441,0.0,0
1581710715.421,14.648,25.391,29.297,-6.348,0.0,0
1581710715.425,21.484,42.969,33.203,-46.387,0.0,0
1581710715.427,17.578,27.832,27.832,-38.574,0.0,0
1581710715.431,18.555,25.391,29.297,14.648,0.0,0
1581710715.435,23.926,44.434,36.621,38.086,0.0,0
1581710715.439,30.273000000000003,52.734,35.645,-2.441,0.0,0
1581710715.4429998,28.809,37.598,26.855,-25.879,0.0,0
1581710715.447,19.531,20.508000000000006,24.902,20.508000000000006,0.0,0
1581710715.45,16.113,3.418,29.785,40.527,0.0,0
1581710715.454,24.902,17.578,30.762,7.812,0.0,0
1581710715.458,21.484,17.09,32.715,-27.832,0.0,0
1581710715.462,11.719,3.906,33.691,-10.254,0.0,0
1581710715.466,4.395,49.316,33.691,26.367,0.0,0
1581710715.47,12.207,49.805,31.738000000000003,2.93,0.0,0
1581710715.472,23.438,26.367,32.227,-36.133,0.0,0
1581710715.476,13.672,36.621,27.832,-20.996,0.0,0
1581710715.48,11.719,46.387,24.902,31.738000000000003,0.0,0
1581710715.484,16.113,31.738000000000003,30.273000000000003,27.344,0.0,0
1581710715.488,13.184,14.648,29.785,-38.574,0.0,0
1581710715.492,8.789,16.602,32.227,-42.969,0.0,0
1581710715.495,4.395,22.949,37.109,9.277,0.0,0
1581710715.4989998,1.465,25.391,38.086,18.555,0.0,0
1581710715.5029998,5.371,-4.883,41.504,-25.879,0.0,0
1581710715.5070002,10.254,-6.836,40.527,-52.246,0.0,0
1581710715.5110002,-3.906,23.926,40.039,-4.883,0.0,0
1581710715.515,-2.93,25.879,29.297,34.18,0.0,0
1581710715.5170002,13.672,25.391,22.949,7.812,0.0,0
1581710715.521,9.766,13.184,30.762,-26.367,0.0,0
1581710715.525,0.488,1.465,25.391,-13.184,0.0,0
1581710715.529,-6.836,15.137,19.531,22.949,0.0,0
1581710715.533,0.0,21.973000000000006,28.32,8.789,0.0,0
1581710715.5370002,4.395,-2.93,39.551,-44.434,0.0,0
1581710715.54,9.277,7.324,38.086,-31.25,0.0,0
1581710715.544,13.672,1.953,35.645,29.297,0.0,0
1581710715.548,8.789,-20.508000000000006,35.645,21.973000000000006,0.0,0
1581710715.552,15.625,17.09,31.738000000000003,-38.086,0.0,0
1581710715.556,24.902,29.297,31.738000000000003,-45.898,0.0,0
1581710715.56,22.949,22.461,30.762,8.301,0.0,0
1581710715.562,22.461,29.297,30.273000000000003,30.273000000000003,0.0,0
1581710715.566,26.855,39.062,27.344,2.441,0.0,0
1581710715.57,31.738000000000003,26.367,25.391,-17.578,0.0,0
1581710715.574,17.09,14.16,25.391,13.672,0.0,0
1581710715.5779998,2.93,7.324,29.785,44.434,0.0,0
1581710715.582,9.766,1.465,40.039,2.441,0.0,0
1581710715.585,11.719,-0.488,32.715,-50.293,0.0,0
1581710715.589,8.301,-16.113,34.668,-31.25,0.0,0
1581710715.593,11.719,14.16,34.668,4.883,0.0,0
1581710715.597,16.113,57.617,25.391,-13.672,0.0,0
1581710715.601,19.531,28.809,25.391,-67.383,0.0,0
1581710715.605,20.02,4.883,32.227,-72.266,0.0,0
1581710715.607,18.555,25.391,39.062,-36.133,0.0,0
1581710715.611,24.414,23.438,29.785,-47.852,0.0,0
1581710715.615,31.25,1.953,24.902,-102.539,0.0,0
1581710715.619,22.461,-2.441,33.203,-110.84,0.0,0
1581710715.623,16.113,4.883,38.086,-41.992,0.0,0
1581710715.627,30.762,20.508000000000006,28.809,13.184,0.0,0
1581710715.63,44.434,18.555,25.391,13.184,0.0,0
1581710715.6339998,19.043,-3.906,39.551,-16.602,0.0,0
1581710715.6379998,3.418,19.531,44.434,21.973000000000006,0.0,0
1581710715.6420002,10.254,30.762,40.527,77.637,0.0,0
1581710715.646,8.789,5.859,43.457,44.922,0.0,0
1581710715.65,3.418,2.93,50.293,-8.301,0.0,0
1581710715.6520002,-7.324,14.648,46.875,3.418,0.0,0
1581710715.656,-11.23,0.977,38.086,44.922,0.0,0
1581710715.66,-3.418,-4.395,31.25,43.945,0.0,0
1581710715.664,-6.836,3.906,21.973000000000006,-1.953,0.0,0
1581710715.668,-8.789,15.137,19.043,-3.418,0.0,0
1581710715.6720002,6.348,1.465,27.344,45.898,0.0,0
1581710715.675,9.766,-22.949,28.809,39.062,0.0,0
1581710715.679,8.301,-3.906,30.762,-12.695,0.0,0
1581710715.6829998,20.508000000000006,43.945,35.645,-7.324,0.0,0
1581710715.687,18.555,33.203,32.715,43.457,0.0,0
1581710715.691,8.301,12.695,32.715,61.035,0.0,0
1581710715.695,20.02,13.672,36.621,25.879,0.0,0
1581710715.696,24.902,16.602,36.133,-1.953,0.0,0
1581710715.7,13.672,17.578,27.832,24.902,0.0,0
1581710715.704,16.113,11.719,25.391,61.035,0.0,0
1581710715.708,25.391,23.926,23.438,38.574,0.0,0
1581710715.712,23.926,32.227,17.09,-16.113,0.0,0
1581710715.716,17.09,8.789,21.484,-9.277,0.0,0
1581710715.719,20.02,5.371,38.574,41.992,0.0,0
1581710715.7229998,12.207,34.18,38.574,34.18,0.0,0
1581710715.7270002,5.371,39.062,28.32,-22.949,0.0,0
1581710715.731,14.648,16.113,29.785,-29.785,0.0,0
1581710715.735,7.324,4.883,22.461,35.156,0.0,0
1581710715.7389998,0.0,11.719,26.367,48.34,0.0,0
1581710715.756,6.836,3.418,30.762,-3.418,0.0,0
1581710715.76,18.555,-5.859,26.367,-29.785,0.0,0
1581710715.764,13.184,2.93,34.18,5.859,0.0,0
1581710715.768,9.766,24.902,39.062,54.688,0.0,0
1581710715.772,24.414,22.949,37.598,20.996,0.0,0
1581710715.776,20.02,6.836,38.086,-31.25,0.0,0
1581710715.779,9.277,0.977,35.156,-9.277,0.0,0
1581710715.783,9.766,11.23,29.785,41.01600000000001,0.0,0
1581710715.7870002,15.137,19.043,32.715,34.668,0.0,0
1581710715.791,8.301,-1.953,33.203,-22.949,0.0,0
1581710715.795,5.859,0.0,27.344,-14.16,0.0,0
1581710715.799,17.578,28.809,33.203,34.18,0.0,0
1581710715.801,17.578,25.391,44.922,28.32,0.0,0
1581710715.805,31.25,11.23,37.109,-8.789,0.0,0
1581710715.809,38.086,26.855,29.297,-11.23,0.0,0
1581710715.813,21.484,24.902,20.02,37.109,0.0,0
1581710715.8170002,23.926,1.465,16.113,39.062,0.0,0
1581710715.821,27.344,5.371,29.297,-15.137,0.0,0
1581710715.824,34.18,20.508000000000006,35.156,-33.691,0.0,0
1581710715.8279998,26.855,36.621,27.344,2.441,0.0,0
1581710715.832,16.113,33.691,31.25,38.574,0.0,0
1581710715.836,25.391,9.277,36.133,-3.418,0.0,0
1581710715.84,34.668,31.25,29.785,-50.293,0.0,0
1581710715.844,33.691,43.945,30.762,-11.719,0.0,0
1581710715.846,28.809,25.879,35.645,25.879,0.0,0
1581710715.85,19.043,13.184,31.738000000000003,-3.418,0.0,0
1581710715.854,14.648,15.625,29.297,-60.059,0.0,0
1581710715.8579998,18.066,25.879,33.203,-59.082,0.0,0
1581710715.8620002,14.16,23.438,25.879,1.465,0.0,0
1581710715.8660002,14.16,-0.977,26.855,8.789,0.0,0
1581710715.869,20.996,11.23,37.598,-38.574,0.0,0
1581710715.873,22.949,29.785,42.969,-56.152,0.0,0
1581710715.877,14.16,2.93,26.855,-27.832,0.0,0
1581710715.881,16.113,10.254,21.973000000000006,0.0,0.0,0
1581710715.885,22.949,38.574,37.598,-27.344,0.0,1
1581710715.889,11.23,25.879,33.203,-46.875,0.0,0
1581710715.891,3.906,29.297,25.879,-8.301,0.0,0
1581710715.895,-0.488,35.156,30.762,22.949,0.0,0
1581710715.899,4.395,31.738000000000003,35.645,-1.465,0.0,0
1581710715.903,16.602,19.531,30.273000000000003,-41.01600000000001,0.0,0
1581710715.907,8.301,11.23,27.344,-19.043,0.0,0
1581710715.911,-5.859,9.766,35.645,10.742,0.0,0
1581710715.914,11.719,13.672,40.039,-18.555,0.0,0
1581710715.918,15.137,10.254,41.01600000000001,-72.266,0.0,0
1581710715.9220002,13.672,-10.742,34.668,-80.078,0.0,0
1581710715.926,24.414,17.09,23.438,-25.391,0.0,0
1581710715.93,25.879,45.41,26.367,-25.391,0.0,0
1581710715.934,20.508000000000006,30.273000000000003,34.18,-90.82,0.0,0
1581710715.936,11.23,22.949,29.297,-95.703,0.0,0
1581710715.94,12.207,41.992,27.344,-41.01600000000001,0.0,0
1581710715.944,13.184,35.156,31.738000000000003,-9.277,0.0,0
1581710715.948,10.254,20.02,31.25,-48.34,0.0,0
1581710715.952,8.789,11.719,27.344,-76.172,0.0,0
1581710715.956,11.719,-4.883,35.645,-16.602,0.0,0
1581710715.959,11.719,-4.883,35.156,26.367,0.0,0
1581710715.9629998,10.254,13.672,36.621,-6.836,0.0,0
1581710715.967,15.137,33.203,43.457,-59.57,0.0,0
1581710715.971,11.719,53.71100000000001,33.691,-44.922,0.0,0
1581710715.975,7.812,31.25,25.391,14.648,0.0,0
1581710715.979,12.207,12.695,25.879,0.0,0.0,0
1581710715.981,8.301,21.484,24.902,-54.199,0.0,0
1581710715.985,6.348,24.902,38.086,-57.617,0.0,0
1581710715.9889998,12.207,12.207,35.156,-2.441,0.0,0
1581710715.9929998,15.137,25.879,21.973000000000006,27.344,0.0,0
1581710715.9970002,13.672,42.48,32.715,-28.809,0.0,0
1581710716.0010002,15.625,24.414,41.992,-55.664,0.0,0
1581710716.004,20.02,12.207,42.969,-12.695,0.0,0
1581710716.008,10.742,17.578,37.109,7.324,0.0,0
1581710716.012,5.371,48.34,23.926,-33.203,0.0,0
1581710716.016,13.184,41.504,19.531,-75.195,0.0,0
1581710716.02,8.301,0.488,24.414,-43.457,0.0,0
1581710716.024,0.977,12.207,29.297,-11.23,0.0,0
1581710716.026,14.16,42.969,27.832,-29.785,0.0,0
1581710716.03,35.156,30.273000000000003,25.879,-49.805,0.0,0
1581710716.034,35.645,6.348,27.344,-30.762,0.0,0
1581710716.038,33.691,17.09,26.367,34.668,0.0,0
1581710716.042,34.668,25.391,32.715,32.227,0.0,0
1581710716.046,33.203,-1.953,38.574,-27.344,0.0,0
1581710716.049,32.715,-8.301,41.992,-21.973000000000006,0.0,0
1581710716.053,26.367,25.391,38.086,20.996,0.0,0
1581710716.0570002,12.695,40.527,26.367,30.273000000000003,0.0,0
1581710716.061,14.16,29.297,29.297,-16.113,0.0,0
1581710716.065,14.648,31.25,29.297,-49.316,0.0,0
1581710716.069,5.371,24.902,24.414,3.906,0.0,0
1581710716.072,5.371,15.137,22.949,44.922,0.0,0
1581710716.076,7.324,2.93,27.832,12.695,0.0,0
1581710716.08,14.648,22.461,42.48,-20.02,0.0,0
1581710716.084,14.648,47.852,40.039,16.602,0.0,0
1581710716.0879998,9.766,29.297,28.32,66.895,0.0,0
1581710716.092,12.207,-5.371,23.926,44.922,0.0,0
1581710716.095,2.93,-5.859,26.855,5.859,0.0,0
1581710716.099,-3.418,19.043,29.785,10.254,0.0,0
1581710716.103,8.789,16.113,24.414,69.336,0.0,0
1581710716.107,14.648,7.812,27.832,87.402,0.0,0
1581710716.111,16.602,24.414,39.062,30.762,0.0,0
1581710716.115,19.531,38.574,34.18,19.531,0.0,0
1581710716.1320002,20.02,41.992,25.391,77.148,0.0,0
1581710716.1360002,20.508000000000006,21.973000000000006,27.832,101.562,0.0,0
1581710716.14,25.879,8.789,36.621,72.266,0.0,0
1581710716.144,27.832,30.273000000000003,31.25,48.34,0.0,0
1581710716.1479998,25.391,32.227,26.855,87.891,0.0,0
1581710716.1520002,11.719,3.418,24.414,104.492,0.0,0
1581710716.155,22.461,3.906,19.531,64.941,0.0,0
1581710716.159,32.715,22.949,22.461,41.504,0.0,0
1581710716.163,26.367,25.879,28.809,64.941,0.0,0
1581710716.167,31.738000000000003,-3.906,32.715,118.164,0.0,0
1581710716.171,29.785,8.789,24.902,90.332,0.0,0
1581710716.175,32.715,26.367,29.785,26.855,0.0,0
1581710716.177,32.715,23.438,39.062,52.246,0.0,0
1581710716.181,22.949,28.32,29.297,96.191,0.0,0
1581710716.185,22.949,15.625,22.949,90.82,0.0,0
1581710716.189,25.879,19.043,30.762,26.855,0.0,0
1581710716.1929998,18.066,5.859,27.344,-2.441,0.0,0
1581710716.197,12.695,-0.488,24.902,50.293,0.0,0
1581710716.2,16.602,9.277,35.645,73.242,0.0,0
1581710716.204,22.949,27.344,34.18,49.805,0.0,0
1581710716.208,24.414,23.926,30.762,15.625,0.0,0
1581710716.212,19.531,1.953,33.691,36.621,0.0,0
1581710716.216,15.625,30.273000000000003,37.109,81.055,0.0,0
1581710716.22,14.16,34.18,39.551,48.34,0.0,0
1581710716.222,19.531,22.461,36.133,7.324,0.0,0
1581710716.226,17.578,31.25,31.738000000000003,8.301,0.0,0
1581710716.23,9.766,42.969,34.668,51.758,0.0,0
1581710716.234,21.484,43.457,34.668,66.895,0.0,0
1581710716.238,31.738000000000003,21.973000000000006,32.715,19.531,0.0,0
1581710716.242,23.926,10.742,35.156,17.578,0.0,0
1581710716.245,19.043,26.367,41.504,53.223,0.0,0
1581710716.2489998,18.555,38.574,37.598,51.758,0.0,0
1581710716.2529998,15.137,1.465,35.156,-0.488,0.0,0
1581710716.2570002,17.09,12.695,32.715,-36.133,0.0,0
1581710716.2610002,20.996,41.504,19.531,9.766,0.0,0
1581710716.265,20.996,6.836,25.391,27.832,0.0,0
1581710716.2670002,12.207,11.23,27.832,-16.113,0.0,0
1581710716.271,2.441,29.297,24.414,-35.645,0.0,0
1581710716.275,-4.395,27.832,33.203,2.441,0.0,0
1581710716.279,-10.254,17.09,35.156,56.152,0.0,0
1581710716.283,-2.93,16.113,31.25,48.828,0.0,0
1581710716.2870002,12.207,4.395,35.645,31.738000000000003,0.0,0
1581710716.29,4.395,10.254,38.574,76.66,0.0,0
1581710716.294,5.371,19.531,33.203,119.629,0.0,0
1581710716.298,7.324,-3.906,30.762,111.816,0.0,0
1581710716.302,10.254,14.648,28.32,63.965,0.0,0
1581710716.306,13.184,21.973000000000006,25.391,49.805,0.0,0
1581710716.31,6.836,-0.488,20.508000000000006,99.121,0.0,0
1581710716.312,9.277,10.254,31.25,101.074,0.0,0
1581710716.316,15.625,41.504,42.969,41.504,0.0,0
1581710716.32,9.766,43.457,35.156,-18.066,0.0,0
1581710716.324,6.348,29.297,35.156,6.836,0.0,0
1581710716.3279998,5.859,32.715,40.039,57.129,0.0,0
1581710716.332,8.301,22.461,33.203,19.043,0.0,0
1581710716.335,22.949,29.785,34.18,-18.555,0.0,0
1581710716.339,17.09,13.672,37.109,-6.836,0.0,0
1581710716.343,11.23,9.766,33.691,28.32,0.0,0
1581710716.347,20.508000000000006,62.5,34.668,31.25,0.0,0
1581710716.351,19.531,63.477,41.992,-14.648,0.0,0
1581710716.355,0.977,49.316,44.434,-21.484,0.0,0
1581710716.357,-20.02,40.039,40.039,-8.789,0.0,0
1581710716.361,-23.438,38.574,41.504,-13.184,0.0,0
1581710716.365,-27.832,32.715,54.199,-64.453,0.0,0
1581710716.369,-50.293,25.879,62.5,-105.469,0.0,0
1581710716.373,-52.734,39.551,64.453,-53.71100000000001,0.0,0
1581710716.377,-61.523,44.434,63.965,-52.734,0.0,0
1581710716.38,-83.984,40.527,64.453,-124.023,0.0,0
1581710716.3839998,-90.82,45.41,69.824,-144.043,0.0,0
1581710716.3879998,-117.188,81.055,68.848,-130.859,0.0,0
1581710716.3920002,-143.066,86.426,62.5,-125.0,0.0,0
1581710716.396,-145.02,70.801,55.664,-168.945,0.0,0
1581710716.4,-146.97299999999996,69.824,56.152,-210.938,0.0,0
1581710716.4020002,-150.879,78.125,63.477,-172.852,0.0,0
1581710716.406,-158.691,74.707,66.406,-119.629,0.0,0
1581710716.41,-159.668,75.195,63.477,-138.672,0.0,0
1581710716.414,-154.297,83.49600000000002,61.035,-211.914,0.0,0
1581710716.418,-147.94899999999996,93.262,67.87100000000001,-202.148,0.0,0
1581710716.4220002,-147.461,76.172,63.477,-141.602,0.0,0
1581710716.425,-145.50799999999995,51.758,50.78100000000001,-148.438,0.0,0
1581710716.429,-127.441,52.734,55.176,-193.848,0.0,0
1581710716.4329998,-133.30100000000002,68.359,58.594,-227.051,0.0,0
1581710716.437,-138.184,63.965,61.523,-180.176,0.0,0
1581710716.441,-119.629,66.406,60.059,-125.488,0.0,0
1581710716.445,-114.746,80.078,56.152,-169.43400000000003,0.0,0
1581710716.447,-103.516,85.93799999999997,49.316,-190.43,0.0,0
1581710716.451,-86.914,76.172,48.34,-146.97299999999996,0.0,0
1581710716.455,-83.008,60.059,46.387,-104.004,0.0,0
1581710716.459,-70.801,61.523,43.457,-99.609,0.0,0
1581710716.4629998,-50.293,63.477,47.852,-133.789,0.0,0
1581710716.467,-49.316,50.293,43.945,-104.98,0.0,0
1581710716.47,-42.48,22.949,41.504,-50.78100000000001,0.0,0
1581710716.474,-25.391,42.48,40.527,-56.152,0.0,0
1581710716.478,-20.508000000000006,68.848,31.738000000000003,-80.078,0.0,0
1581710716.482,-17.578,34.668,39.551,-67.383,0.0,0
1581710716.486,-5.859,23.926,43.457,5.371,0.0,0
1581710716.49,13.672,23.926,30.273000000000003,17.578,0.0,0
1581710716.5070002,25.391,1.953,22.949,-37.109,0.0,0
1581710716.5110002,37.598,9.277,22.461,-24.414,0.0,0
1581710716.515,42.48,21.973000000000006,26.367,30.762,0.0,0
1581710716.519,44.922,24.414,19.043,63.965,0.0,0
1581710716.5229998,52.246,4.395,1.953,30.273000000000003,0.0,0
1581710716.5270002,50.78100000000001,-7.812,12.695,-2.441,0.0,0
1581710716.53,52.246,9.766,25.879,53.223,0.0,0
1581710716.534,52.734,19.531,16.602,95.703,0.0,0
1581710716.538,57.617,8.789,16.113,58.105,0.0,0
1581710716.542,75.684,-20.02,24.902,-20.02,0.0,0
1581710716.546,71.289,1.465,24.414,-45.41,0.0,0
1581710716.55,62.988,31.738000000000003,14.648,-2.93,0.0,0
1581710716.552,68.359,13.184,14.648,-11.719,0.0,0
1581710716.556,70.312,3.906,15.625,-63.477,0.0,0
1581710716.56,75.684,4.883,15.625,-57.129,0.0,0
1581710716.564,78.613,3.906,23.438,15.625,0.0,0
1581710716.5679998,73.73,5.371,17.09,62.988,0.0,0
1581710716.572,63.477,0.0,8.789,22.949,0.0,0
1581710716.575,54.688,-0.488,15.137,10.742,0.0,0
1581710716.579,49.316,20.02,21.973000000000006,57.617,0.0,0
1581710716.583,56.64100000000001,10.742,25.391,91.309,0.0,0
1581710716.587,57.617,-3.906,23.926,72.266,0.0,0
1581710716.591,61.035,18.555,19.531,41.504,0.0,0
1581710716.595,66.406,22.949,20.02,93.75,0.0,0
1581710716.597,60.547,1.465,21.973000000000006,131.836,0.0,0
1581710716.601,69.824,-4.395,18.555,95.215,0.0,0
1581710716.605,70.801,20.996,15.137,51.758,0.0,0
1581710716.609,59.57,28.809,18.555,58.105,0.0,0
1581710716.613,64.453,13.184,15.137,104.492,0.0,0
1581710716.617,64.453,-1.465,14.16,92.285,0.0,0
1581710716.62,59.57,9.766,23.926,31.25,0.0,0
1581710716.6239998,61.523,23.438,22.461,20.02,0.0,0
1581710716.6279998,58.594,-5.859,14.16,59.57,0.0,0
1581710716.6320002,52.734,-5.859,18.555,71.777,0.0,0
1581710716.6360002,62.5,27.344,28.809,14.16,0.0,0
1581710716.64,60.059,13.184,20.508000000000006,-11.719,0.0,0
1581710716.6420002,56.152,16.602,17.578,41.992,0.0,0
1581710716.646,56.152,27.344,22.949,82.031,0.0,0
1581710716.65,52.246,21.973000000000006,14.16,49.805,0.0,0
1581710716.654,55.176,1.953,9.277,-7.812,0.0,0
1581710716.658,40.527,-8.301,14.16,14.16,0.0,0
1581710716.6620002,37.109,-5.859,17.09,76.66,0.0,0
1581710716.665,55.176,0.488,22.461,62.5,0.0,0
1581710716.669,54.688,5.859,34.18,9.766,0.0,0
1581710716.673,43.457,9.766,33.203,-14.648,0.0,0
1581710716.677,39.062,42.969,27.344,26.855,0.0,0
1581710716.681,32.715,44.434,23.438,40.527,0.0,0
1581710716.685,36.621,13.184,18.066,-26.855,0.0,0
1581710716.687,40.039,24.414,20.508000000000006,-42.48,0.0,0
1581710716.691,29.297,26.367,16.602,-5.371,0.0,0
1581710716.695,28.32,-8.789,2.441,2.93,0.0,0
1581710716.699,37.598,4.883,5.371,-32.715,0.0,0
1581710716.7029998,33.691,31.738000000000003,21.973000000000006,-43.457,0.0,0
1581710716.707,23.926,23.438,34.18,-4.395,0.0,0
1581710716.71,26.855,24.414,32.227,20.996,0.0,0
1581710716.714,26.367,5.859,24.902,2.441,0.0,0
1581710716.718,26.367,-6.836,22.461,-34.668,0.0,0
1581710716.722,32.715,30.762,32.715,-4.883,0.0,0
1581710716.726,31.25,39.551,43.457,60.547,0.0,0
1581710716.73,23.926,23.438,32.715,39.062,0.0,0
1581710716.732,20.508000000000006,15.137,14.648,-15.625,0.0,0
1581710716.736,18.066,11.23,17.09,-3.418,0.0,0
1581710716.74,23.438,0.0,30.762,54.199,0.0,0
1581710716.744,27.832,9.277,30.273000000000003,61.523,0.0,0
1581710716.748,28.809,12.207,26.367,-10.254,0.0,0
1581710716.752,28.809,7.812,23.438,-22.461,0.0,0
1581710716.755,25.391,13.672,30.762,44.434,0.0,0
1581710716.7589998,22.949,9.766,30.762,70.801,0.0,0
1581710716.7629998,27.832,26.367,26.855,25.879,0.0,0
1581710716.7670002,29.297,26.367,32.227,-14.16,0.0,0
1581710716.771,15.625,10.742,25.879,24.902,0.0,0
1581710716.775,20.508000000000006,6.348,22.949,79.59,0.0,0
1581710716.776,35.645,12.207,29.297,50.78100000000001,0.0,0
1581710716.78,38.086,26.367,29.785,-3.418,0.0,0
1581710716.784,34.668,1.953,30.273000000000003,5.859,0.0,0
1581710716.788,30.273000000000003,-0.488,29.785,52.246,0.0,0
1581710716.792,31.738000000000003,36.621,27.832,64.941,0.0,0
1581710716.796,30.273000000000003,20.02,29.785,16.113,0.0,0
1581710716.799,28.32,-20.508000000000006,27.832,5.859,0.0,0
1581710716.803,19.043,-4.395,14.648,44.434,0.0,0
1581710716.8070002,13.672,34.668,9.766,63.965,0.0,0
1581710716.811,18.066,33.203,18.555,39.062,0.0,0
1581710716.815,18.066,39.551,25.391,15.137,0.0,0
1581710716.819,26.367,37.598,29.297,65.43,0.0,0
1581710716.821,39.062,26.855,24.902,89.844,0.0,0
1581710716.825,40.527,31.25,28.809,51.27,0.0,0
1581710716.829,40.039,30.273000000000003,23.926,20.996,0.0,0
1581710716.833,44.434,26.855,18.066,42.48,0.0,0
1581710716.837,42.48,20.996,33.203,94.238,0.0,0
1581710716.841,51.758,-3.906,39.551,66.895,0.0,0
1581710716.844,53.223,-5.859,34.18,23.926,0.0,0
1581710716.8479998,42.969,37.598,29.785,47.363,0.0,0
1581710716.8520002,38.574,42.969,27.344,104.98,0.0,0
1581710716.856,43.945,18.066,27.344,111.328,0.0,0
1581710716.86,47.852,2.93,24.414,46.875,0.0,0
1581710716.8639998,39.551,22.461,20.996,35.645,0.0,0
1581710716.881,31.25,35.156,20.996,86.914,0.0,0
1581710716.885,38.574,16.113,27.344,102.539,0.0,0
1581710716.889,48.828,24.414,23.926,62.5,0.0,0
1581710716.893,35.156,31.738000000000003,19.531,24.414,0.0,0
1581710716.897,21.484,28.809,19.531,67.87100000000001,0.0,0
1581710716.901,20.02,9.766,24.902,105.957,0.0,0
1581710716.904,20.996,21.973000000000006,26.367,70.312,0.0,0
1581710716.908,20.508000000000006,54.688,17.578,30.762,0.0,0
1581710716.9120002,10.254,45.898,22.949,47.363,0.0,0
1581710716.916,4.395,12.207,20.996,93.75,0.0,0
1581710716.92,3.418,14.16,29.297,72.75399999999998,0.0,0
1581710716.924,8.301,31.738000000000003,41.992,15.137,0.0,0
1581710716.926,17.578,24.414,29.297,21.973000000000006,0.0,0
1581710716.93,16.602,15.625,25.391,56.64100000000001,0.0,0
1581710716.934,7.812,31.738000000000003,21.973000000000006,51.758,0.0,0
1581710716.938,10.254,47.852,17.578,11.719,0.0,0
1581710716.9420002,22.949,22.461,12.695,0.488,0.0,0
1581710716.946,35.645,19.531,17.09,61.035,0.0,0
1581710716.949,34.18,35.156,23.438,83.49600000000002,0.0,0
1581710716.9529998,37.109,42.48,17.578,38.086,0.0,0
1581710716.957,42.48,34.668,23.438,16.113,0.0,0
1581710716.961,44.922,11.23,28.32,64.453,0.0,0
1581710716.965,43.945,30.273000000000003,18.555,109.375,0.0,0
1581710716.969,39.551,37.598,21.484,74.219,0.0,0
1581710716.971,56.152,6.836,38.574,42.48,0.0,0
1581710716.975,44.922,13.184,30.762,61.035,0.0,1
1581710716.979,22.949,46.875,18.555,96.68,0.0,0
1581710716.9829998,27.344,29.785,24.414,81.543,0.0,0
1581710716.9870002,30.762,14.648,27.832,23.438,0.0,0
1581710716.9910002,29.785,32.227,34.668,45.898,0.0,0
1581710716.994,33.691,42.969,36.133,110.84,0.0,0
1581710716.998,32.715,40.527,33.203,107.422,0.0,0
1581710717.002,34.668,3.418,31.738000000000003,50.78100000000001,0.0,0
1581710717.006,35.645,11.23,32.227,27.832,0.0,0
1581710717.01,21.973000000000006,45.41,32.227,70.801,0.0,0
1581710717.014,22.949,24.414,38.574,106.445,0.0,0
1581710717.016,33.203,5.371,46.875,76.66,0.0,0
1581710717.02,18.555,6.836,37.109,45.898,0.0,0
1581710717.024,8.301,20.508000000000006,27.344,69.824,0.0,0
1581710717.028,14.648,20.508000000000006,31.738000000000003,104.004,0.0,0
1581710717.032,19.531,10.742,31.25,74.219,0.0,0
1581710717.036,20.02,11.719,26.367,17.09,0.0,0
1581710717.039,21.973000000000006,24.414,34.18,28.809,0.0,0
1581710717.043,22.461,27.344,35.156,67.87100000000001,0.0,0
1581710717.0470002,27.832,11.23,33.203,51.758,0.0,0
1581710717.051,38.086,35.156,38.086,-0.977,0.0,0
1581710717.055,38.086,36.621,33.203,1.465,0.0,0
1581710717.059,35.645,18.555,25.879,46.387,0.0,0
1581710717.061,29.297,16.602,27.344,42.969,0.0,0
1581710717.065,30.762,28.32,23.438,1.953,0.0,0
1581710717.069,32.227,37.598,19.531,-10.742,0.0,0
1581710717.073,38.574,29.297,26.855,32.715,0.0,0
1581710717.077,40.039,20.02,28.809,62.012,0.0,0
1581710717.081,40.527,12.207,28.32,29.785,0.0,0
1581710717.084,38.574,36.621,35.645,0.0,0.0,0
1581710717.0879998,36.133,25.879,46.387,37.598,0.0,0
1581710717.092,32.715,11.23,39.551,75.195,0.0,0
1581710717.096,23.438,33.203,29.297,35.645,0.0,0
1581710717.1,15.137,15.137,28.32,-21.973000000000006,0.0,0
1581710717.104,7.324,8.301,22.949,-1.465,0.0,0
1581710717.106,4.883,19.531,27.832,57.617,0.0,0
1581710717.11,5.371,30.273000000000003,40.039,62.012,0.0,0
1581710717.1139998,5.371,25.391,41.504,15.137,0.0,0
1581710717.1179998,14.16,17.09,37.109,7.812,0.0,0
1581710717.1220002,20.508000000000006,9.277,35.645,72.266,0.0,0
1581710717.1260002,21.484,0.977,34.18,103.516,0.0,0
1581710717.129,26.855,-0.488,31.25,59.57,0.0,0
1581710717.133,21.973000000000006,-11.23,37.109,28.809,0.0,0
1581710717.137,9.766,12.695,39.551,61.035,0.0,0
1581710717.141,-1.953,27.832,39.062,84.961,0.0,0
1581710717.145,-0.977,11.719,35.645,46.875,0.0,0
1581710717.149,10.742,10.742,33.203,5.859,0.0,0
1581710717.151,3.906,28.32,34.18,39.551,0.0,0
1581710717.155,1.953,22.949,36.133,88.867,0.0,0
1581710717.159,8.301,19.043,37.109,78.613,0.0,0
1581710717.163,14.16,19.531,33.203,41.504,0.0,0
1581710717.167,18.555,9.766,26.367,65.918,0.0,0
1581710717.171,9.277,13.672,20.508000000000006,122.07,0.0,0
1581710717.174,8.789,1.953,20.508000000000006,114.746,0.0,0
1581710717.178,15.625,9.766,23.926,71.777,0.0,0
1581710717.1820002,11.23,47.363,20.02,67.87100000000001,0.0,0
1581710717.186,13.184,27.832,12.207,120.605,0.0,0
1581710717.19,21.973000000000006,6.836,21.484,128.418,0.0,0
1581710717.194,25.879,11.23,38.086,68.359,0.0,0
1581710717.197,24.902,27.832,42.969,46.875,0.0,0
1581710717.201,21.484,40.039,37.598,82.031,0.0,0
1581710717.205,18.555,36.133,30.273000000000003,113.281,0.0,0
1581710717.209,22.949,25.879,25.391,85.93799999999997,0.0,0
1581710717.2129998,34.18,-8.789,35.156,43.945,0.0,0
1581710717.217,33.203,-9.766,47.852,76.66,0.0,0
1581710717.22,22.461,6.836,46.875,118.652,0.0,0
1581710717.224,17.578,21.484,21.973000000000006,78.125,0.0,0
1581710717.228,18.555,38.574,8.789,23.438,0.0,0
1581710717.232,20.996,28.809,21.973000000000006,23.926,0.0,0
1581710717.236,21.484,25.879,27.344,78.125,0.0,0
1581710717.24,14.16,37.598,27.832,87.402,0.0,0
1581710717.2570002,22.461,20.02,31.25,33.691,0.0,0
1581710717.2610002,22.461,1.953,25.879,26.855,0.0,0
1581710717.265,15.625,0.977,29.785,78.125,0.0,0
1581710717.269,24.414,17.578,36.621,110.84,0.0,0
1581710717.2729998,27.344,24.902,30.273000000000003,72.266,0.0,0
1581710717.2770002,22.461,19.043,28.32,34.18,0.0,0
1581710717.28,13.184,28.32,21.973000000000006,59.57,0.0,0
1581710717.284,12.695,32.715,24.902,91.797,0.0,0
1581710717.288,20.996,25.391,35.156,77.637,0.0,0
1581710717.292,19.531,-4.395,25.879,31.25,0.0,0
1581710717.296,16.113,-2.93,15.625,35.156,0.0,0
1581710717.3,15.625,40.039,22.461,70.801,0.0,0
1581710717.302,23.438,27.344,33.203,56.152,0.0,0
1581710717.306,40.039,11.23,40.527,18.066,0.0,0
1581710717.31,30.273000000000003,27.344,34.18,13.184,0.0,0
1581710717.314,7.324,36.621,20.996,45.898,0.0,0
1581710717.3179998,8.301,33.691,20.508000000000006,51.758,0.0,0
1581710717.322,18.555,18.555,26.367,-1.953,0.0,0
1581710717.325,21.973000000000006,27.344,27.832,-9.766,0.0,0
1581710717.329,14.16,50.78100000000001,23.926,41.504,0.0,0
1581710717.333,1.953,22.461,25.391,55.176,0.0,0
1581710717.337,3.906,-0.488,24.902,2.93,0.0,0
1581710717.341,7.812,8.789,24.414,-36.133,0.0,0
1581710717.345,10.742,10.254,25.391,6.836,0.0,0
1581710717.347,11.719,24.902,25.879,49.316,0.0,0
1581710717.351,6.836,28.809,29.785,21.484,0.0,0
1581710717.355,12.207,33.203,23.926,-22.949,0.0,0
1581710717.359,7.812,27.344,26.367,-1.465,0.0,0
1581710717.363,2.441,17.09,33.691,61.523,0.0,0
1581710717.367,6.348,7.324,35.156,55.176,0.0,0
1581710717.37,16.113,28.32,34.668,8.301,0.0,0
1581710717.3739998,20.996,42.969,22.461,18.555,0.0,0
1581710717.3779998,15.137,7.324,28.32,71.777,0.0,0
1581710717.3820002,17.578,23.926,32.715,96.68,0.0,0
1581710717.3860002,24.414,59.57,24.414,55.664,0.0,0
1581710717.39,18.066,46.875,32.715,33.203,0.0,0
1581710717.3920002,17.09,33.691,31.738000000000003,77.148,0.0,0
1581710717.396,21.484,22.461,30.762,104.004,0.0,0
1581710717.4,20.996,33.203,37.598,69.824,0.0,0
1581710717.404,22.949,27.832,38.086,34.18,0.0,0
1581710717.408,17.578,14.16,33.203,45.41,0.0,0
1581710717.4120002,18.555,20.508000000000006,31.25,64.453,0.0,0
1581710717.415,20.508000000000006,26.855,30.273000000000003,11.23,0.0,0
1581710717.419,23.926,20.996,24.902,-52.734,0.0,0
1581710717.423,25.391,1.953,24.902,-54.688,0.0,0
1581710717.427,23.438,23.438,41.504,-22.949,0.0,0
1581710717.431,33.203,45.41,47.852,-22.949,0.0,0
1581710717.435,33.691,15.625,39.062,-76.66,0.0,0
1581710717.437,19.043,0.977,32.227,-73.73,0.0,0
1581710717.441,12.207,20.996,32.227,-1.953,0.0,0
1581710717.445,15.137,12.695,38.086,36.133,0.0,0
1581710717.449,20.508000000000006,0.488,43.945,16.602,0.0,0
1581710717.4529998,17.09,3.418,41.992,-7.812,0.0,0
1581710717.457,8.789,5.859,36.621,39.062,0.0,0
1581710717.46,20.996,23.926,32.715,90.82,0.0,0
1581710717.464,28.809,13.672,29.297,52.246,0.0,0
1581710717.468,18.555,16.602,24.902,-4.395,0.0,0
1581710717.472,13.184,35.156,25.879,10.254,0.0,0
1581710717.476,4.883,17.09,37.109,50.78100000000001,0.0,0
1581710717.48,6.836,13.184,41.992,28.809,0.0,0
1581710717.482,24.902,15.625,42.969,-21.973000000000006,0.0,0
1581710717.486,23.438,13.672,35.156,-20.996,0.0,0
1581710717.49,15.625,16.113,19.043,22.461,0.0,0
1581710717.494,18.555,28.32,21.484,31.738000000000003,0.0,0
1581710717.498,28.32,25.879,24.414,-10.742,0.0,0
1581710717.502,28.32,11.23,21.973000000000006,-22.461,0.0,0
1581710717.505,16.602,15.625,25.879,25.391,0.0,0
1581710717.5089998,15.137,16.602,32.227,39.551,0.0,0
1581710717.5129998,20.02,43.457,30.762,-1.465,0.0,0
1581710717.5170002,18.066,38.086,26.855,-19.043,0.0,0
1581710717.521,8.789,16.113,28.809,16.602,0.0,0
1581710717.525,2.93,30.762,26.367,52.246,0.0,0
1581710717.5270002,14.16,30.762,28.32,20.02,0.0,0
1581710717.531,19.043,20.02,23.438,-32.715,0.0,0
1581710717.535,19.531,10.742,25.391,-9.766,0.0,0
1581710717.539,27.832,13.672,36.621,48.828,0.0,0
1581710717.543,21.973000000000006,28.32,35.156,38.574,0.0,0
1581710717.5470002,19.043,19.531,27.344,-20.02,0.0,0
1581710717.55,15.625,0.488,21.484,-6.836,0.0,0
1581710717.554,6.836,5.859,20.02,47.852,0.0,0
1581710717.5579998,14.648,48.34,25.879,57.617,0.0,0
1581710717.562,28.32,39.062,33.691,14.16,0.0,0
1581710717.566,25.879,25.391,36.621,-1.953,0.0,0
1581710717.57,27.344,32.227,36.621,59.57,0.0,0
1581710717.572,21.484,28.809,26.855,86.914,0.0,0
1581710717.576,18.066,15.625,26.367,28.32,0.0,0
1581710717.58,12.695,18.066,36.621,-20.02,0.0,0
1581710717.584,6.836,41.01600000000001,36.621,5.371,0.0,0
1581710717.5879998,7.812,43.457,31.25,46.387,0.0,0
1581710717.592,11.23,20.02,30.762,12.207,0.0,0
1581710717.595,8.301,6.348,25.391,-43.457,0.0,0
1581710717.599,1.465,36.621,20.02,-23.438,0.0,0
1581710717.603,8.789,41.01600000000001,30.762,29.297,0.0,0
1581710717.607,16.602,-6.348,37.598,29.785,0.0,0
1581710717.611,9.766,3.418,37.109,-22.461,0.0,0
1581710717.615,6.348,37.598,33.203,-28.809,0.0,0
1581710717.6320002,11.23,21.484,32.715,22.461,0.0,0
1581710717.6360002,12.695,-2.441,41.504,35.156,0.0,0
1581710717.64,9.277,5.371,35.645,-5.371,0.0,0
1581710717.644,0.977,36.133,31.25,-32.715,0.0,0
1581710717.6479998,-0.977,33.691,31.738000000000003,3.906,0.0,0
1581710717.6520002,-0.488,-1.953,26.367,30.273000000000003,0.0,0
1581710717.655,-1.953,-3.418,27.344,-14.648,0.0,0
1581710717.659,-2.441,15.625,32.227,-49.805,0.0,0
1581710717.663,-2.93,10.742,30.273000000000003,-11.23,0.0,0
1581710717.667,-6.836,2.441,24.414,23.438,0.0,0
1581710717.671,-2.93,12.695,17.578,-12.695,0.0,0
1581710717.675,3.906,26.855,21.973000000000006,-64.941,0.0,0
1581710717.677,3.418,13.184,36.133,-45.898,0.0,0
1581710717.681,5.859,2.93,36.621,5.371,0.0,0
1581710717.685,6.348,24.902,28.32,5.371,0.0,0
1581710717.689,6.348,35.156,34.18,-45.898,0.0,0
1581710717.6929998,2.93,2.93,43.945,-68.848,0.0,0
1581710717.697,-7.812,-3.906,39.551,-17.578,0.0,0
1581710717.7,-7.324,13.672,35.645,-4.883,0.0,0
1581710717.704,-6.836,31.738000000000003,23.438,-62.5,0.0,0
1581710717.708,-7.812,26.367,17.578,-94.727,0.0,0
1581710717.712,-1.953,6.836,33.691,-56.64100000000001,0.0,0
1581710717.716,0.488,29.785,31.738000000000003,-14.648,0.0,0
1581710717.72,3.418,32.227,23.926,-55.176,0.0,0
1581710717.722,7.812,-5.859,29.297,-92.773,0.0,0
1581710717.726,0.488,-0.977,30.762,-72.75399999999998,0.0,0
1581710717.73,-2.93,26.367,27.832,-37.109,0.0,0
1581710717.734,-3.418,26.855,34.668,-43.457,0.0,0
1581710717.738,2.441,13.672,37.109,-95.703,0.0,0
1581710717.742,0.0,4.395,27.832,-85.449,0.0,0
1581710717.745,2.441,9.766,29.297,-30.762,0.0,0
1581710717.7489998,17.09,26.855,30.273000000000003,-20.996,0.0,0
1581710717.7529998,9.766,6.348,27.832,-59.57,0.0,0
1581710717.7570002,3.418,-3.418,35.156,-70.801,0.0,0
1581710717.7610002,7.812,28.32,35.645,-13.184,0.0,0
1581710717.765,11.23,21.484,35.645,-3.418,0.0,0
1581710717.7670002,9.277,20.508000000000006,30.273000000000003,-56.64100000000001,0.0,0
1581710717.771,4.395,26.855,20.02,-70.312,0.0,0
1581710717.775,-10.254,22.461,23.926,-26.855,0.0,0
1581710717.779,-7.324,14.16,28.809,19.043,0.0,0
1581710717.783,14.648,0.977,30.762,-5.371,0.0,0
1581710717.7870002,18.066,-6.836,35.156,-41.504,0.0,0
1581710717.79,13.184,14.16,30.762,-3.418,0.0,0
1581710717.794,12.207,23.438,24.902,32.227,0.0,0
1581710717.798,18.555,-1.465,27.344,15.625,0.0,0
1581710717.802,21.484,21.973000000000006,32.715,-39.062,0.0,0
1581710717.806,17.578,22.461,35.645,-38.574,0.0,0
1581710717.81,10.742,10.254,31.25,26.367,0.0,0
1581710717.812,7.324,21.973000000000006,25.879,23.438,0.0,0
1581710717.816,13.184,31.25,20.996,-25.391,0.0,0
1581710717.82,18.555,27.344,30.273000000000003,-41.992,0.0,0
1581710717.824,13.672,14.16,35.645,0.0,0.0,0
1581710717.8279998,7.324,19.531,25.879,42.48,0.0,0
1581710717.832,2.441,11.23,23.438,-0.488,0.0,0
1581710717.835,10.742,29.785,31.25,-22.949,0.0,0
1581710717.839,11.23,16.602,36.621,15.137,0.0,0
1581710717.843,2.93,2.93,30.273000000000003,41.504,0.0,0
1581710717.847,8.789,41.992,20.996,28.32,0.0,0
1581710717.851,7.812,42.969,24.414,-20.508000000000006,0.0,0
1581710717.855,-4.395,36.133,25.879,-7.324,0.0,0
1581710717.857,-2.441,36.621,23.926,36.621,0.0,0
1581710717.861,8.301,17.578,33.203,28.809,0.0,0
1581710717.865,19.043,12.695,33.691,0.0,0.0,0
1581710717.869,16.602,28.32,32.715,-2.93,0.0,0
1581710717.873,17.09,27.344,36.133,56.64100000000001,0.0,0
1581710717.877,27.344,17.578,35.156,75.195,0.0,0
1581710717.88,30.273000000000003,1.953,38.086,20.996,0.0,0
1581710717.8839998,43.457,17.09,33.691,13.184,0.0,0
1581710717.8879998,42.969,63.965,27.832,57.617,0.0,0
1581710717.8920002,32.227,58.105,33.203,80.078,0.0,0
1581710717.896,30.273000000000003,36.133,28.32,24.414,0.0,0
1581710717.9,26.367,24.414,23.926,-18.555,0.0,0
1581710717.9020002,18.066,25.391,28.32,34.18,0.0,0
1581710717.906,16.113,45.898,31.25,82.52,0.0,0
1581710717.91,20.02,36.621,35.645,62.012,0.0,0
1581710717.914,24.414,22.461,33.691,5.859,0.0,0
1581710717.918,22.949,28.809,25.391,13.672,0.0,0
1581710717.9220002,11.23,47.852,30.273000000000003,83.984,0.0,0
1581710717.925,7.324,33.203,31.25,74.707,0.0,0
1581710717.929,8.301,34.18,30.273000000000003,16.602,0.0,0
1581710717.9329998,10.254,49.805,27.832,5.371,0.0,0
1581710717.937,5.859,32.715,33.203,54.688,0.0,0
1581710717.941,0.977,28.809,39.551,90.332,0.0,0
1581710717.945,9.766,20.508000000000006,35.645,41.992,0.0,0
1581710717.946,14.16,28.32,32.715,22.461,0.0,0
1581710717.95,11.719,17.578,35.156,47.363,0.0,0
1581710717.954,5.371,10.742,29.297,62.5,0.0,0
1581710717.958,15.137,32.227,20.508000000000006,41.504,0.0,0
1581710717.962,14.648,36.621,26.855,-13.672,0.0,0
1581710717.966,5.371,21.973000000000006,34.18,14.16,0.0,0
1581710717.969,7.324,-7.812,35.156,40.039,0.0,0
1581710717.9729998,11.23,-0.488,27.344,7.324,0.0,0
1581710717.9770002,11.23,30.273000000000003,24.414,-9.766,0.0,0
1581710717.981,12.695,25.391,31.738000000000003,1.465,0.0,0
1581710717.985,9.766,26.855,34.18,44.434,0.0,0
1581710717.9889998,10.254,39.551,25.879,31.25,0.0,0
1581710718.006,13.672,25.879,20.996,-20.996,0.0,0
1581710718.01,11.719,17.09,23.438,-8.301,0.0,0
1581710718.014,20.02,31.738000000000003,13.672,51.758,0.0,0
1581710718.018,31.25,43.945,14.16,77.637,0.0,0
1581710718.022,36.621,33.691,34.668,20.508000000000006,0.0,0
1581710718.026,35.645,7.812,40.039,-17.578,0.0,0
1581710718.029,26.367,16.113,28.809,21.973000000000006,0.0,0
1581710718.033,19.531,44.434,20.996,35.156,0.0,0
1581710718.0370002,14.16,41.992,23.926,-9.766,0.0,0
1581710718.041,12.695,-1.465,32.715,-65.43,0.0,0
1581710718.045,11.23,4.883,36.621,-37.598,0.0,0
1581710718.049,8.789,43.945,33.691,26.367,0.0,0
1581710718.051,11.719,31.738000000000003,34.668,19.531,0.0,0
1581710718.055,14.16,24.414,34.668,-3.418,0.0,0
1581710718.059,19.531,28.32,29.297,0.977,0.0,0
1581710718.063,20.508000000000006,26.855,30.762,48.828,0.0,0
1581710718.0670002,21.973000000000006,16.113,36.133,72.75399999999998,0.0,0
1581710718.071,28.32,10.254,34.668,21.973000000000006,0.0,0
1581710718.074,19.043,24.902,31.738000000000003,18.066,0.0,0
1581710718.0779998,16.113,39.062,32.715,66.406,0.0,0
1581710718.082,21.973000000000006,18.066,36.621,86.914,0.0,0
1581710718.086,28.809,-6.348,38.086,55.664,0.0,0
1581710718.09,34.18,24.414,30.762,20.996,0.0,0
1581710718.094,26.855,25.879,26.367,62.988,0.0,0
1581710718.096,16.602,-0.977,32.227,85.449,0.0,0
1581710718.1,18.555,6.836,28.809,42.969,0.0,0
1581710718.104,18.555,32.715,27.832,5.859,0.0,0
1581710718.1079998,17.578,36.133,33.691,24.414,0.0,0
1581710718.1120002,16.602,25.879,30.762,78.613,0.0,0
1581710718.1160002,16.113,13.672,25.879,57.617,0.0,1
1581710718.119,20.996,13.184,27.344,-7.324,0.0,0
1581710718.123,17.578,32.715,30.762,9.277,0.0,0
1581710718.127,20.508000000000006,-2.441,37.598,57.617,0.0,0
1581710718.131,19.531,-17.578,36.133,58.594,0.0,0
1581710718.135,17.09,34.18,28.32,0.0,0.0,0
1581710718.139,23.926,31.25,32.227,-18.066,0.0,0
1581710718.141,11.719,13.672,29.297,43.945,0.0,0
1581710718.145,1.465,20.996,19.043,68.359,0.0,0
1581710718.149,6.348,24.414,26.855,35.645,0.0,0
1581710718.153,10.742,-3.418,35.156,-11.719,0.0,0
1581710718.157,15.625,-8.789,41.01600000000001,22.949,0.0,0
1581710718.161,21.973000000000006,-5.371,33.203,79.59,0.0,0
1581710718.164,35.645,6.348,27.344,55.664,0.0,0
1581710718.168,49.805,22.461,39.062,23.926,0.0,0
1581710718.1720002,51.758,0.977,41.01600000000001,25.879,0.0,0
1581710718.176,45.898,27.832,36.133,67.383,0.0,0
1581710718.18,48.34,54.688,34.18,77.637,0.0,0
1581710718.184,46.875,20.02,22.461,18.066,0.0,0
1581710718.186,41.992,13.672,20.996,8.789,0.0,0
1581710718.19,31.738000000000003,32.227,36.133,48.828,0.0,0
1581710718.194,23.438,30.762,35.156,51.27,0.0,0
1581710718.198,24.414,25.391,25.879,5.859,0.0,0
1581710718.202,24.414,28.32,21.973000000000006,-19.531,0.0,0
1581710718.206,15.625,19.043,30.273000000000003,24.902,0.0,0
1581710718.209,5.371,11.23,36.133,37.109,0.0,0
1581710718.2129998,1.953,-6.348,35.156,-4.883,0.0,0
1581710718.217,0.488,14.16,34.18,-23.438,0.0,0
1581710718.221,-3.906,58.105,23.438,7.324,0.0,0
1581710718.225,-16.602,30.273000000000003,20.02,46.875,0.0,0
1581710718.229,-18.555,23.438,27.832,17.09,0.0,0
1581710718.231,-9.277,32.227,30.762,-37.109,0.0,0
1581710718.235,-1.465,32.227,33.203,-19.531,0.0,0
1581710718.2389998,0.0,30.762,38.086,38.086,0.0,0
1581710718.2429998,0.0,19.531,40.039,36.621,0.0,0
1581710718.2470002,9.277,12.207,36.621,-23.438,0.0,0
1581710718.2510002,12.207,-1.465,29.297,-31.25,0.0,0
1581710718.254,8.301,10.254,23.926,30.762,0.0,0
1581710718.258,9.277,14.16,29.785,47.852,0.0,0
1581710718.262,16.602,29.297,30.762,12.207,0.0,0
1581710718.266,8.301,35.645,20.996,-24.902,0.0,0
1581710718.27,0.488,9.277,19.043,19.043,0.0,0
1581710718.274,2.441,10.742,29.785,70.801,0.0,0
1581710718.276,4.883,38.086,41.992,43.945,0.0,0
1581710718.28,12.695,45.898,39.062,20.02,0.0,0
1581710718.284,1.953,29.785,38.574,31.738000000000003,0.0,0
1581710718.288,-7.324,29.785,41.992,58.594,0.0,0
1581710718.292,12.695,34.668,39.551,55.176,0.0,0
1581710718.296,12.695,21.484,31.738000000000003,0.0,0.0,0
1581710718.299,3.906,11.719,28.32,3.418,0.0,0
1581710718.303,1.465,23.926,20.508000000000006,36.621,0.0,0
1581710718.3070002,-0.977,47.852,17.09,20.02,0.0,0
1581710718.311,13.672,34.668,31.25,-32.715,0.0,0
1581710718.315,17.09,25.879,38.086,-62.012,0.0,0
1581710718.319,9.277,27.832,30.762,-26.367,0.0,0
1581710718.322,13.184,33.203,26.855,-29.785,0.0,0
1581710718.326,20.02,22.461,29.297,-73.242,0.0,0
1581710718.33,24.902,22.461,32.227,-70.312,0.0,0
1581710718.334,33.203,50.78100000000001,41.01600000000001,-5.859,0.0,0
1581710718.3379998,34.18,48.828,40.527,53.223,0.0,0
1581710718.342,21.973000000000006,20.508000000000006,27.344,28.32,0.0,0
1581710718.345,18.555,6.348,19.043,-4.883,0.0,0
1581710718.349,14.648,47.363,22.461,39.062,0.0,0
1581710718.353,18.066,59.57,24.902,83.984,0.0,0
1581710718.357,29.785,21.484,24.902,68.848,0.0,0
1581710718.361,22.949,25.391,28.32,4.395,0.0,0
1581710718.365,12.207,43.457,30.273000000000003,-0.488,0.0,0
1581710718.3820002,19.043,30.762,29.297,59.082,0.0,0
1581710718.3860002,23.438,8.301,32.227,65.43,0.0,0
1581710718.39,25.391,7.324,32.227,20.508000000000006,0.0,0
1581710718.394,35.156,28.32,47.363,10.742,0.0,0
1581710718.3979998,29.297,21.973000000000006,49.316,59.57,0.0,0
1581710718.4020002,16.602,-4.395,25.391,85.449,0.0,0
1581710718.405,15.137,3.906,29.297,43.945,0.0,0
1581710718.409,19.043,31.738000000000003,36.133,16.113,0.0,0
1581710718.413,15.137,22.949,34.668,36.621,0.0,0
1581710718.417,15.625,-4.395,40.527,69.824,0.0,0
1581710718.421,21.484,16.113,41.01600000000001,57.129,0.0,0
1581710718.425,24.414,42.48,41.504,10.742,0.0,0
1581710718.427,16.602,28.32,38.574,29.785,0.0,0
1581710718.431,-3.418,20.508000000000006,38.086,62.988,0.0,0
1581710718.435,2.93,27.832,40.039,45.898,0.0,0
1581710718.439,8.301,23.926,31.738000000000003,13.184,0.0,0
1581710718.4429998,-7.812,8.301,23.438,0.977,0.0,0
1581710718.447,-22.461,-4.395,26.855,39.062,0.0,0
1581710718.45,-13.672,9.277,31.738000000000003,35.645,0.0,0
1581710718.454,0.977,19.043,31.25,-15.137,0.0,0
1581710718.458,3.418,10.254,33.691,-8.789,0.0,0
1581710718.462,17.09,8.301,40.527,53.223,0.0,0
1581710718.466,27.344,34.18,31.738000000000003,85.93799999999997,0.0,0
1581710718.47,26.855,37.598,19.531,33.203,0.0,0
1581710718.472,36.133,17.09,27.832,5.371,0.0,0
1581710718.476,41.01600000000001,23.438,37.598,65.918,0.0,0
1581710718.48,32.227,21.484,28.809,110.84,0.0,0
1581710718.484,35.645,12.207,16.602,81.055,0.0,0
1581710718.488,40.039,20.508000000000006,14.648,16.602,0.0,0
1581710718.492,33.691,15.625,21.973000000000006,26.855,0.0,0
1581710718.495,32.227,30.273000000000003,29.297,78.613,0.0,0
1581710718.4989998,36.133,42.969,29.297,69.824,0.0,0
1581710718.5029998,38.574,4.883,30.762,17.09,0.0,0
1581710718.5070002,41.504,8.789,34.668,-3.418,0.0,0
1581710718.5110002,36.133,59.082,35.156,57.129,0.0,0
1581710718.515,36.621,52.734,35.645,86.426,0.0,0
1581710718.5170002,39.551,14.16,30.762,35.156,0.0,0
1581710718.521,29.297,-2.93,27.832,4.395,0.0,0
1581710718.525,17.578,7.812,34.18,28.809,0.0,0
1581710718.529,6.348,13.672,38.086,55.664,0.0,0
1581710718.533,13.184,14.16,36.621,24.902,0.0,0
1581710718.5370002,19.531,11.23,42.969,-9.277,0.0,0
1581710718.54,11.23,32.715,41.01600000000001,21.973000000000006,0.0,0
1581710718.544,8.301,38.086,31.25,53.223,0.0,0
1581710718.548,12.695,6.348,35.156,38.574,0.0,0
1581710718.552,22.461,32.715,43.945,10.254,0.0,0
1581710718.556,18.555,47.363,38.086,23.438,0.0,0
1581710718.56,3.418,24.902,27.344,62.988,0.0,0
1581710718.562,-2.93,16.602,28.32,40.527,0.0,0
1581710718.566,0.0,17.09,26.367,-17.578,0.0,0
1581710718.57,3.906,25.879,20.996,-22.949,0.0,0
1581710718.574,8.301,22.461,19.043,27.832,0.0,0
1581710718.5779998,9.277,20.508000000000006,23.926,56.64100000000001,0.0,0
1581710718.582,9.277,13.672,27.344,3.906,0.0,0
1581710718.585,7.812,31.25,27.344,-19.531,0.0,0
1581710718.589,3.418,12.207,33.691,25.391,0.0,0
1581710718.593,2.441,-4.395,38.086,55.664,0.0,0
1581710718.597,10.254,32.715,26.367,28.809,0.0,0
1581710718.601,17.09,25.879,16.113,-21.484,0.0,0
1581710718.605,12.695,29.297,21.484,4.883,0.0,0
1581710718.607,14.648,47.852,29.785,68.848,0.0,0
1581710718.611,24.902,32.227,29.785,60.059,0.0,0
1581710718.615,25.879,19.531,25.391,2.441,0.0,0
1581710718.619,25.391,16.602,23.438,-7.812,0.0,0
1581710718.623,24.414,18.555,27.832,52.734,0.0,0
1581710718.627,31.25,26.367,31.25,76.172,0.0,0
1581710718.63,41.504,31.25,29.785,29.785,0.0,0
1581710718.6339998,37.598,32.715,23.926,14.648,0.0,0
1581710718.6379998,13.184,51.27,8.789,29.297,0.0,0
1581710718.6420002,0.977,48.34,8.789,40.039,0.0,0
1581710718.646,0.0,23.438,23.438,8.789,0.0,0
1581710718.65,5.371,17.09,26.367,-26.855,0.0,0
1581710718.6520002,7.812,32.715,28.32,20.508000000000006,0.0,0
1581710718.656,10.254,26.855,28.32,59.57,0.0,0
1581710718.66,20.996,-3.418,31.738000000000003,33.203,0.0,0
1581710718.664,16.113,-10.742,30.762,-5.859,0.0,0
1581710718.668,8.789,6.348,21.973000000000006,-1.953,0.0,0
1581710718.6720002,11.719,7.812,18.066,39.062,0.0,0
1581710718.675,10.742,3.418,13.672,25.879,0.0,0
1581710718.679,14.648,17.09,21.973000000000006,-16.113,0.0,0
1581710718.6829998,11.719,36.133,33.691,-17.578,0.0,0
1581710718.687,5.371,22.461,29.785,24.414,0.0,0
1581710718.691,10.254,4.395,28.32,38.574,0.0,0
1581710718.695,13.184,13.184,31.738000000000003,-19.043,0.0,0
1581710718.697,14.648,26.855,35.645,-34.668,0.0,0
1581710718.701,6.348,12.695,27.344,10.742,0.0,0
1581710718.705,-0.488,0.488,18.555,28.32,0.0,0
1581710718.709,6.348,24.902,21.484,0.0,0.0,0
1581710718.7129998,9.766,40.527,26.367,-26.855,0.0,0
1581710718.717,5.859,12.695,22.461,5.859,0.0,0
1581710718.72,3.418,-6.836,21.484,39.551,0.0,0
1581710718.724,3.418,33.691,29.297,12.207,0.0,0
1581710718.728,5.859,57.617,31.25,-28.32,0.0,0
1581710718.732,4.883,33.691,33.691,-22.949,0.0,0
1581710718.736,19.043,41.01600000000001,32.227,42.969,0.0,0
1581710718.74,17.578,44.922,25.391,49.805,0.0,0
1581710718.7570002,10.254,34.668,24.902,-8.789,0.0,0
1581710718.7610002,13.672,31.25,27.832,-13.672,0.0,0
1581710718.765,16.602,27.832,17.578,26.367,0.0,0
1581710718.769,21.484,39.062,9.766,41.504,0.0,0
1581710718.7729998,23.926,22.461,20.508000000000006,-3.906,0.0,0
1581710718.7770002,27.832,-12.207,29.785,-30.762,0.0,0
1581710718.78,16.602,7.812,27.832,12.695,0.0,0
1581710718.784,19.531,41.992,26.367,36.621,0.0,0
1581710718.788,27.832,43.457,24.902,8.789,0.0,0
1581710718.792,26.367,29.785,25.391,-17.578,0.0,0
1581710718.796,7.324,37.598,29.297,7.812,0.0,0
1581710718.8,0.977,49.805,33.203,51.27,0.0,0
1581710718.802,11.719,30.762,26.367,23.438,0.0,0
1581710718.806,11.719,16.602,20.996,-25.391,0.0,0
1581710718.81,15.137,10.254,26.367,-9.277,0.0,0
1581710718.814,8.301,18.066,29.785,49.805,0.0,0
1581710718.8179998,4.395,37.109,33.203,47.852,0.0,0
1581710718.822,1.953,17.578,31.738000000000003,-17.578,0.0,0
1581710718.825,-7.324,16.602,29.785,-25.391,0.0,0
1581710718.829,4.883,40.039,28.32,33.203,0.0,0
1581710718.833,13.184,30.273000000000003,34.18,60.547,0.0,0
1581710718.837,15.137,-0.977,35.645,11.23,0.0,0
1581710718.841,14.648,10.254,31.738000000000003,-18.066,0.0,0
1581710718.845,-0.488,41.992,17.09,26.855,0.0,0
1581710718.847,-3.418,53.223,9.766,67.87100000000001,0.0,0
1581710718.851,0.0,47.363,32.227,33.691,0.0,0
1581710718.855,0.488,39.551,42.969,-23.926,0.0,0
1581710718.859,-1.953,12.207,44.434,-11.719,0.0,0
1581710718.863,-16.602,-8.301,48.34,37.598,0.0,0
1581710718.867,-10.742,9.277,41.504,27.832,0.0,0
1581710718.87,5.371,10.742,32.715,-16.602,0.0,0
1581710718.8739998,-1.465,12.695,29.785,-7.324,0.0,0
1581710718.8779998,-12.695,-10.254,20.02,32.715,0.0,0
1581710718.8820002,-3.906,-0.488,18.555,35.156,0.0,0
1581710718.8860002,16.602,46.875,26.367,-12.207,0.0,0
1581710718.89,17.578,36.621,35.156,-34.18,0.0,0
1581710718.8920002,7.812,28.32,41.01600000000001,1.953,0.0,0
1581710718.896,-0.977,19.531,27.832,9.277,0.0,0
1581710718.9,-4.395,13.184,19.043,-34.668,0.0,0
1581710718.904,-2.93,7.324,25.879,-63.477,0.0,0
1581710718.908,-0.977,0.488,36.133,-27.344,0.0,0
1581710718.9120002,-6.836,19.043,33.203,10.742,0.0,0
1581710718.915,-14.16,26.367,24.902,-26.855,0.0,0
1581710718.919,-2.93,11.719,26.855,-71.289,0.0,0
1581710718.923,11.23,3.418,23.926,-42.969,0.0,0
1581710718.927,14.648,29.785,33.691,7.324,0.0,0
1581710718.931,21.973000000000006,39.062,41.504,3.418,0.0,0
1581710718.935,25.879,12.695,36.133,-48.828,0.0,0
1581710718.937,29.785,1.953,34.668,-51.27,0.0,0
1581710718.941,27.344,-0.977,33.691,-8.301,0.0,0
1581710718.945,24.414,2.441,31.738000000000003,-19.043,0.0,0
1581710718.949,25.879,5.859,25.879,-83.984,0.0,0
1581710718.9529998,19.531,3.418,13.672,-116.699,0.0,0
1581710718.957,15.625,6.836,12.207,-68.848,0.0,0
1581710718.96,12.695,11.23,23.926,-30.273000000000003,0.0,0
1581710718.964,14.648,-17.09,38.086,-72.75399999999998,0.0,0
1581710718.968,12.695,-13.672,43.945,-95.215,0.0,0
1581710718.972,13.672,7.324,35.645,-39.551,0.0,0
1581710718.976,8.789,-5.371,30.762,20.02,0.0,0
1581710718.98,-5.859,24.414,28.32,-3.906,0.0,0
1581710718.982,-10.742,32.227,27.832,-52.734,0.0,0
1581710718.986,-18.066,18.555,30.273000000000003,-24.414,0.0,0
1581710718.99,-20.02,10.254,32.227,27.344,0.0,0
1581710718.994,-11.23,9.277,30.273000000000003,19.531,0.0,0
1581710718.998,-7.324,-1.953,38.086,-29.785,0.0,0
1581710719.002,-15.625,-4.883,37.109,-38.574,0.0,0
1581710719.005,-13.184,0.0,28.32,3.906,0.0,0
1581710719.0089998,-0.977,0.0,38.086,10.742,0.0,0
1581710719.0129998,2.93,42.48,45.41,-32.715,0.0,0
1581710719.0170002,-2.441,45.41,41.504,-51.27,0.0,0
1581710719.021,-17.09,23.926,41.01600000000001,-13.672,0.0,0
1581710719.025,-21.973000000000006,33.691,44.922,11.719,0.0,0
1581710719.041,-19.043,34.668,44.922,-32.715,0.0,0
1581710719.045,-45.898,22.461,48.34,-88.37899999999998,0.0,0
1581710719.049,-71.777,22.949,54.199,-75.684,0.0,0
1581710719.053,-50.293,32.227,55.176,-24.414,0.0,0
1581710719.0570002,-60.547,36.621,69.336,-58.594,0.0,0
1581710719.061,-102.539,31.738000000000003,79.59,-152.832,0.0,0
1581710719.064,-124.023,29.297,72.75399999999998,-160.156,0.0,0
1581710719.0679998,-130.371,53.223,70.312,-104.492,0.0,0
1581710719.072,-153.809,89.844,72.266,-111.816,0.0,0
1581710719.076,-168.457,71.777,81.055,-179.688,0.0,0
1581710719.08,-166.99200000000005,53.223,89.355,-196.289,0.0,0
1581710719.084,-177.734,60.059,87.402,-142.09,0.0,0
1581710719.071,-177.734,75.195,88.37899999999998,-120.605,0.0,0
1581710719.075,-177.734,60.059,79.102,-180.176,0.0,0
1581710719.079,-177.24599999999995,51.758,60.547,-221.191,0.0,0
1581710719.083,-160.156,61.035,54.688,-175.78099999999995,0.0,0
1581710719.087,-155.762,58.594,61.523,-123.535,0.0,0
1581710719.091,-144.043,63.477,62.988,-147.461,0.0,0
1581710719.094,-123.047,78.125,65.918,-182.129,0.0,0
1581710719.0979998,-123.047,97.168,59.082,-148.438,0.0,0
1581710719.1020002,-118.652,106.934,50.78100000000001,-118.652,0.0,0
1581710719.106,-106.445,80.566,54.688,-137.207,0.0,0
1581710719.11,-88.37899999999998,43.945,59.082,-175.293,0.0,0
1581710719.1139998,-93.262,69.824,55.176,-176.27,0.0,0
1581710719.131,-95.215,81.543,53.223,-122.559,0.0,0
1581710719.135,-77.148,67.383,51.758,-109.863,0.0,0
1581710719.139,-63.477,62.988,41.992,-149.414,0.0,0
1581710719.143,-56.64100000000001,76.172,34.668,-143.066,0.0,0
1581710719.147,-47.363,65.43,44.434,-73.73,0.0,0
1581710719.151,-39.551,13.672,51.27,-41.01600000000001,0.0,0
1581710719.154,-37.109,0.488,48.34,-80.566,0.0,0
1581710719.158,-34.18,39.551,32.715,-99.609,0.0,0
1581710719.1620002,-17.578,41.01600000000001,22.461,-49.316,0.0,0
1581710719.166,-4.883,15.625,37.109,3.906,0.0,0
1581710719.17,5.859,20.996,32.715,-13.672,0.0,0
1581710719.174,23.926,21.973000000000006,22.949,-53.223,0.0,0
1581710719.176,28.32,5.859,30.273000000000003,-19.043,0.0,0
1581710719.18,29.297,-2.441,33.691,33.203,0.0,0
1581710719.184,41.504,-7.324,27.344,20.508000000000006,0.0,0
1581710719.188,68.848,-13.184,21.973000000000006,-20.996,0.0,0
1581710719.1920002,74.219,-18.066,16.602,-20.02,0.0,0
1581710719.196,62.5,-18.555,14.648,37.598,0.0,0
1581710719.199,77.148,-6.348,20.996,46.875,0.0,0
1581710719.2029998,83.008,12.207,8.789,-9.766,0.0,0
1581710719.207,84.961,4.883,3.418,-18.066,0.0,0
1581710719.211,83.008,-11.719,5.859,24.902,0.0,0
1581710719.215,89.355,8.301,11.23,45.41,0.0,0
1581710719.219,101.562,12.695,23.438,14.648,0.0,0
1581710719.221,88.867,-11.719,25.879,-15.137,0.0,0
1581710719.225,73.73,-13.184,18.555,17.09,0.0,0
1581710719.229,82.031,1.465,15.137,69.824,0.0,0
1581710719.2329998,92.285,3.418,19.531,64.453,0.0,0
1581710719.2370002,86.426,-3.906,16.113,14.16,0.0,0
1581710719.2410002,86.426,-6.836,14.16,16.113,0.0,1
1581710719.244,89.844,7.324,20.508000000000006,58.105,0.0,0
1581710719.248,94.238,19.531,25.879,56.152,0.0,0
1581710719.252,103.027,-0.977,21.973000000000006,19.043,0.0,0
1581710719.256,100.586,12.695,13.184,17.09,0.0,0
1581710719.26,93.75,45.898,13.672,65.43,0.0,0
1581710719.264,94.238,20.508000000000006,14.648,95.703,0.0,0
1581710719.266,93.75,16.113,11.23,77.148,0.0,0
1581710719.27,82.031,32.227,16.602,78.613,0.0,0
1581710719.274,79.59,23.926,27.344,124.023,0.0,0
1581710719.278,79.102,0.488,27.832,147.461,0.0,0
1581710719.282,72.75399999999998,-30.273000000000003,24.414,110.352,0.0,0
1581710719.286,66.406,-28.32,28.32,67.383,0.0,0
1581710719.289,54.199,-5.371,18.066,96.68,0.0,0
1581710719.293,55.664,0.488,5.859,140.625,0.0,0
1581710719.2970002,65.918,-17.09,13.672,111.816,0.0,0
1581710719.301,59.57,-11.719,21.973000000000006,55.664,0.0,0
1581710719.305,42.48,-4.883,25.879,62.988,0.0,0
1581710719.309,33.691,-13.184,15.625,104.004,0.0,0
1581710719.311,40.527,-18.066,13.184,94.727,0.0,0
1581710719.315,49.316,-31.738000000000003,17.09,30.762,0.0,0
1581710719.319,43.457,-33.203,16.602,10.254,0.0,0
1581710719.323,38.086,-13.672,18.066,53.223,0.0,0
1581710719.327,45.898,-7.324,18.066,64.941,0.0,0
1581710719.331,41.504,-15.625,13.672,20.508000000000006,0.0,0
1581710719.334,37.109,-14.648,17.578,-4.395,0.0,0
1581710719.3379998,41.01600000000001,-29.297,18.066,29.785,0.0,0
1581710719.342,43.945,-27.344,11.719,58.594,0.0,0
1581710719.346,47.852,0.0,17.09,29.785,0.0,0
1581710719.35,55.176,-14.16,24.414,-11.719,0.0,0
1581710719.354,51.758,-19.531,29.297,28.32,0.0,0
1581710719.356,37.109,-10.742,24.414,81.055,0.0,0
1581710719.36,47.363,-16.113,19.043,46.875,0.0,0
1581710719.3639998,56.64100000000001,-26.855,16.602,8.301,0.0,0
1581710719.3679998,43.945,-36.621,19.043,30.273000000000003,0.0,0
