timestamps,TP9,AF7,AF8,TP10,Right AUX,Marker0
1582147198.031,-198.242,83.49600000000002,-178.71099999999996,-212.891,0.0,0
1582147198.035,-208.984,40.039,-357.91,-226.562,0.0,0
1582147198.039,-228.516,15.625,-530.762,-235.84,0.0,0
1582147198.043,-204.59,34.18,-499.512,-224.121,0.0,0
1582147198.0470002,-183.594,25.879,-461.914,-210.449,0.0,0
1582147198.051,-153.809,-7.324,-553.2230000000002,-197.754,0.0,0
1582147198.055,-128.418,10.742,-710.449,-174.31599999999997,0.0,0
1582147198.0579998,-125.977,52.246,-499.023,-158.691,0.0,0
1582147198.062,-98.633,34.18,-234.375,-125.977,0.0,0
1582147198.066,-49.805,22.461,-230.957,-101.074,0.0,0
1582147198.07,-27.832,30.762,-209.961,-94.727,0.0,0
1582147198.074,-18.555,39.551,-104.492,-52.734,0.0,0
1582147198.092,9.277,29.297,-136.719,-18.555,0.0,0
1582147198.096,41.992,-5.859,-329.102,-23.438,0.0,0
1582147198.1,58.105,-5.371,-326.172,-8.301,0.0,0
1582147198.104,67.383,7.812,-213.867,25.879,0.0,0
1582147198.1079998,83.008,-15.625,-229.004,57.617,0.0,0
1582147198.1120002,117.676,-41.504,-411.133,83.008,0.0,0
1582147198.1160002,149.414,-13.672,-436.523,119.141,0.0,0
1582147198.119,163.57399999999996,20.02,-230.957,128.906,0.0,0
1582147198.123,171.875,18.066,-97.656,129.88299999999998,0.0,0
1582147198.127,187.012,2.93,-302.246,150.879,0.0,0
1582147198.131,213.867,17.09,-363.77,156.25,0.0,0
1582147198.135,204.102,8.301,-210.449,156.25,0.0,0
1582147198.1360002,180.176,-20.508000000000006,-340.332,174.31599999999997,0.0,0
1582147198.14,187.988,-23.438,-433.594,187.988,0.0,0
1582147198.144,206.543,-1.953,-378.906,188.477,0.0,0
1582147198.1479998,208.008,1.953,-404.785,206.055,0.0,0
1582147198.1520002,209.961,4.883,-492.676,227.051,0.0,0
1582147198.156,199.219,2.93,-579.59,199.707,0.0,0
1582147198.16,193.848,12.695,-637.207,176.75799999999995,0.0,0
1582147198.163,187.5,39.062,-501.465,164.551,0.0,0
1582147198.167,172.363,8.789,-599.609,159.668,0.0,0
1582147198.171,162.109,2.441,-835.938,166.50400000000005,0.0,0
1582147198.175,166.99200000000005,37.109,-703.125,169.43400000000003,0.0,0
1582147198.179,179.688,29.297,-549.805,183.594,0.0,0
1582147198.181,167.48,7.324,-584.4730000000002,190.43,0.0,0
1582147198.185,163.57399999999996,8.301,-701.66,193.359,0.0,0
1582147198.189,165.03900000000004,33.203,-733.887,186.035,0.0,0
1582147198.1929998,163.086,45.41,-633.789,171.875,0.0,0
1582147198.197,156.25,36.133,-676.758,192.383,0.0,0
1582147198.201,140.137,15.137,-799.316,199.219,0.0,0
1582147198.205,143.066,15.625,-850.0980000000002,182.617,0.0,0
1582147198.208,160.645,41.992,-727.539,197.266,0.0,0
1582147198.212,127.441,11.23,-792.9689999999998,188.965,0.0,0
1582147198.216,87.891,3.418,-955.078,152.832,0.0,0
1582147198.22,83.49600000000002,34.18,-721.191,135.254,0.0,0
1582147198.224,78.613,24.902,-613.77,132.812,0.0,0
1582147198.226,68.359,32.227,-640.137,123.047,0.0,0
1582147198.23,71.289,48.34,-554.688,137.695,0.0,0
1582147198.234,82.031,47.852,-486.816,156.738,0.0,0
1582147198.238,88.867,33.203,-486.328,151.36700000000005,0.0,0
1582147198.242,73.73,8.301,-520.996,127.441,0.0,0
1582147198.246,46.875,4.395,-550.781,112.305,0.0,0
1582147198.25,41.504,26.367,-541.504,119.141,0.0,0
1582147198.2529998,57.129,11.23,-509.277,127.93,0.0,0
1582147198.2570002,79.102,20.508000000000006,-581.055,133.30100000000002,0.0,0
1582147198.2610002,53.223,46.387,-513.672,114.258,0.0,0
1582147198.265,24.902,26.367,-504.883,85.93799999999997,0.0,0
1582147198.269,24.902,21.484,-539.062,77.148,0.0,0
1582147198.272,42.48,14.648,-475.098,78.125,0.0,0
1582147198.276,62.5,17.578,-458.496,83.984,0.0,0
1582147198.28,45.898,25.879,-442.383,93.75,0.0,0
1582147198.284,42.969,28.809,-502.441,85.449,0.0,0
1582147198.288,70.801,27.832,-526.855,60.547,0.0,0
1582147198.292,77.637,17.578,-522.9490000000002,83.49600000000002,0.0,0
1582147198.296,64.941,15.625,-563.965,94.727,0.0,0
1582147198.299,68.359,10.254,-742.676,89.355,0.0,0
1582147198.303,78.125,10.742,-775.3910000000002,80.566,0.0,0
1582147198.3070002,91.309,20.02,-540.039,60.059,0.0,0
1582147198.311,77.148,24.414,-504.883,80.566,0.0,0
1582147198.315,19.531,19.531,-534.668,49.316,0.0,0
1582147198.3170002,15.137,18.066,-619.629,23.438,0.0,0
1582147198.321,51.758,32.227,-603.0269999999998,47.852,0.0,0
1582147198.325,45.898,25.391,-474.609,48.828,0.0,0
1582147198.329,46.387,5.859,-531.25,74.219,0.0,0
1582147198.333,70.312,14.16,-582.52,86.914,0.0,0
1582147198.337,66.406,4.395,-667.9689999999998,67.383,0.0,0
1582147198.341,58.105,-7.324,-787.5980000000002,62.012,0.0,0
1582147198.344,55.176,-2.93,-853.5160000000002,66.895,0.0,0
1582147198.3479998,49.805,33.691,-692.383,74.219,0.0,0
1582147198.3520002,56.152,43.457,-488.281,77.637,0.0,0
1582147198.356,56.152,23.926,-520.02,73.242,0.0,0
1582147198.36,29.297,14.648,-574.219,65.43,0.0,0
1582147198.3620002,24.414,4.883,-548.34,56.152,0.0,0
1582147198.3660002,39.062,3.906,-541.016,50.78100000000001,0.0,0
1582147198.37,46.875,18.555,-568.359,51.27,0.0,0
1582147198.3739998,51.758,28.809,-694.824,59.082,0.0,0
1582147198.3779998,43.457,23.438,-700.684,76.172,0.0,0
1582147198.3820002,41.01600000000001,8.301,-680.664,73.242,0.0,0
1582147198.3860002,37.598,-1.953,-861.816,51.27,0.0,0
1582147198.389,21.973000000000006,6.836,-924.805,28.32,0.0,0
1582147198.393,16.602,19.531,-802.7339999999998,38.086,0.0,0
1582147198.397,21.484,18.066,-755.3710000000002,60.059,0.0,0
1582147198.401,38.086,22.461,-793.945,53.223,0.0,0
1582147198.405,41.01600000000001,38.574,-764.648,49.805,0.0,0
1582147198.407,24.414,33.691,-639.16,60.059,0.0,0
1582147198.411,21.484,16.602,-656.25,43.457,0.0,0
1582147198.415,20.996,10.742,-735.352,31.738000000000003,0.0,0
1582147198.419,29.297,7.324,-700.684,32.227,0.0,0
1582147198.423,35.156,22.949,-659.18,45.41,0.0,0
1582147198.427,24.902,26.367,-693.8480000000002,58.105,0.0,0
1582147198.431,28.809,18.555,-842.773,45.898,0.0,0
1582147198.434,37.109,38.086,-763.672,33.203,0.0,0
1582147198.438,24.902,35.645,-562.988,38.574,0.0,0
1582147198.4420002,2.93,5.371,-612.793,37.598,0.0,0
1582147198.446,14.16,20.02,-633.3009999999998,26.855,0.0,0
1582147198.45,30.762,38.086,-537.109,5.371,0.0,0
1582147198.467,17.578,23.926,-526.855,3.418,0.0,0
1582147198.471,15.137,27.344,-587.4019999999998,37.598,0.0,0
1582147198.475,12.695,19.043,-636.23,32.227,0.0,0
1582147198.479,17.09,24.902,-548.828,3.418,0.0,0
1582147198.4829998,21.484,30.762,-482.91,-3.418,0.0,0
1582147198.4870002,13.184,16.602,-712.8910000000002,2.441,0.0,0
1582147198.4910002,11.719,36.133,-783.691,19.531,0.0,0
1582147198.494,23.926,50.293,-570.312,37.109,0.0,0
1582147198.498,29.297,44.434,-485.352,25.391,0.0,0
1582147198.502,18.066,25.391,-663.574,15.625,0.0,0
1582147198.506,13.672,35.156,-726.074,21.973000000000006,0.0,0
1582147198.51,25.391,47.363,-509.277,42.48,0.0,0
1582147198.512,45.898,44.434,-431.152,52.734,0.0,0
1582147198.516,43.457,38.574,-500.48800000000006,49.316,0.0,0
1582147198.52,24.902,25.879,-535.645,23.438,0.0,0
1582147198.524,38.574,47.852,-418.945,25.879,0.0,0
1582147198.528,61.035,43.457,-440.43,49.316,0.0,0
1582147198.532,55.664,24.414,-576.66,41.992,0.0,0
1582147198.536,30.273000000000003,43.945,-602.539,22.461,0.0,0
1582147198.539,8.789,53.223,-516.113,17.578,0.0,0
1582147198.543,23.926,20.508000000000006,-461.426,14.648,0.0,0
1582147198.5470002,40.527,8.301,-575.195,-18.066,0.0,0
1582147198.551,32.227,43.457,-475.586,-2.441,0.0,0
1582147198.555,40.527,53.223,-251.953,29.297,0.0,0
1582147198.5570002,57.129,31.25,-272.461,14.648,0.0,0
1582147198.561,81.055,20.508000000000006,-323.73,2.93,0.0,0
1582147198.565,72.75399999999998,29.297,-161.13299999999995,9.766,0.0,0
1582147198.569,63.965,29.297,-88.37899999999998,31.738000000000003,0.0,0
1582147198.573,98.633,47.363,-65.43,42.48,0.0,0
1582147198.577,105.957,35.645,-67.383,28.32,0.0,0
1582147198.581,74.707,34.18,-37.109,13.672,0.0,0
1582147198.584,67.383,54.688,148.92600000000004,22.461,0.0,0
1582147198.5879998,93.75,39.062,73.73,47.363,0.0,0
1582147198.592,101.562,41.992,19.531,31.25,0.0,0
1582147198.596,87.891,46.875,302.7340000000001,13.184,0.0,0
1582147198.6,70.801,28.32,334.961,35.645,0.0,0
1582147198.6020002,68.848,28.32,269.043,32.715,0.0,0
1582147198.606,99.609,27.832,320.801,31.25,0.0,0
1582147198.61,102.539,29.297,375.977,37.109,0.0,0
1582147198.6139998,71.777,5.859,362.793,36.621,0.0,0
1582147198.6179998,83.984,9.766,385.742,65.43,0.0,0
1582147198.6220002,79.102,39.062,451.66,49.805,0.0,0
1582147198.6260002,45.898,48.34,455.078,11.719,0.0,0
1582147198.629,46.387,41.992,480.469,9.766,0.0,0
1582147198.633,42.48,24.414,371.582,16.602,0.0,0
1582147198.637,32.227,50.78100000000001,579.59,0.977,0.0,0
1582147198.641,44.434,49.805,834.961,-2.93,0.0,0
1582147198.645,38.574,19.043,731.934,-0.488,0.0,0
1582147198.647,31.25,5.859,665.5269999999998,0.0,0.0,0
1582147198.651,36.133,33.203,772.949,12.695,0.0,0
1582147198.655,47.852,32.715,839.8439999999998,0.488,0.0,0
1582147198.659,39.062,4.883,730.957,-24.414,0.0,0
1582147198.663,26.855,16.113,666.5039999999998,-6.836,0.0,0
1582147198.667,48.34,32.715,689.941,18.066,0.0,0
1582147198.671,62.988,29.297,681.6410000000002,20.02,0.0,0
1582147198.674,56.64100000000001,17.578,613.281,18.066,0.0,0
1582147198.678,36.133,21.484,611.816,9.277,0.0,0
1582147198.6820002,23.438,30.273000000000003,854.98,6.836,0.0,0
1582147198.686,50.293,26.855,935.547,8.789,0.0,0
1582147198.69,65.918,21.973000000000006,901.855,2.441,0.0,0
1582147198.6920002,44.922,17.09,955.078,5.859,0.0,0
1582147198.696,29.297,28.809,994.141,19.531,0.0,0
1582147198.7,40.527,25.879,986.328,19.531,0.0,0
1582147198.704,52.246,24.414,964.844,19.043,0.0,0
1582147198.708,56.64100000000001,26.367,990.234,10.254,0.0,0
1582147198.712,45.41,19.531,997.559,18.066,0.0,0
1582147198.716,27.832,16.602,966.309,13.184,0.0,0
1582147198.719,43.945,17.09,916.016,-1.465,0.0,0
1582147198.7229998,52.246,45.898,982.91,0.977,0.0,0
1582147198.7270002,53.223,25.391,-992.188,25.391,0.0,0
1582147198.731,53.223,7.812,994.629,32.715,0.0,0
1582147198.735,51.758,32.715,-999.512,13.672,0.0,0
1582147198.7370002,55.664,35.645,999.512,22.949,0.0,0
1582147198.7410002,49.805,20.996,999.512,33.203,0.0,0
1582147198.745,49.316,9.277,999.512,31.738000000000003,0.0,0
1582147198.7489998,67.383,37.109,999.512,33.691,0.0,0
1582147198.7529998,63.965,42.48,999.512,8.301,0.0,0
1582147198.7570002,44.922,16.602,999.512,-3.418,0.0,0
1582147198.7610002,33.691,-8.789,999.512,0.977,0.0,0
1582147198.764,28.809,1.953,999.512,-16.113,0.0,0
1582147198.768,41.504,33.203,999.512,-11.23,0.0,0
1582147198.772,56.64100000000001,29.785,999.512,10.742,0.0,0
1582147198.776,37.598,18.555,999.512,32.227,0.0,0
1582147198.78,23.926,17.578,999.512,25.391,0.0,0
1582147198.782,54.199,18.066,999.512,16.113,0.0,0
1582147198.786,60.059,16.602,999.512,12.695,0.0,0
1582147198.79,42.48,5.371,999.512,16.602,0.0,0
1582147198.794,48.828,9.277,999.512,40.527,0.0,0
1582147198.798,63.965,25.391,999.512,31.738000000000003,0.0,0
1582147198.802,46.387,-0.977,999.512,4.395,0.0,0
1582147198.806,25.391,11.23,999.512,-9.766,0.0,0
1582147198.809,21.973000000000006,46.387,999.512,-14.16,0.0,0
1582147198.813,24.902,37.109,999.512,1.465,0.0,0
1582147198.8170002,46.875,24.414,999.512,11.23,0.0,0
1582147198.821,40.527,19.531,999.512,17.09,0.0,0
1582147198.825,23.438,30.273000000000003,999.512,17.578,0.0,0
1582147198.841,38.086,32.227,999.512,24.902,0.0,0
1582147198.845,48.828,31.25,999.512,27.344,0.0,0
1582147198.849,43.945,40.527,999.512,-1.465,0.0,0
1582147198.853,25.391,28.809,999.512,-3.418,0.0,0
1582147198.857,16.113,12.695,999.512,16.602,0.0,0
1582147198.861,30.273000000000003,19.531,999.512,11.23,0.0,0
1582147198.865,22.949,34.668,999.512,6.348,0.0,0
1582147198.8679998,19.531,46.875,999.512,8.301,0.0,0
1582147198.8720002,19.531,40.039,999.512,0.488,0.0,0
1582147198.8760002,8.789,24.902,999.512,17.578,0.0,0
1582147198.88,3.418,29.297,999.512,11.23,0.0,0
1582147198.8839998,-2.93,34.18,999.512,2.441,0.0,0
1582147198.8860002,-13.184,10.742,999.512,17.09,0.0,0
1582147198.89,-2.93,29.297,999.512,16.602,0.0,0
1582147198.894,0.488,65.43,999.512,4.395,0.0,0
1582147198.8979998,-6.348,58.105,999.512,-4.395,0.0,0
1582147198.9020002,-3.418,48.34,999.512,34.668,0.0,0
1582147198.906,8.789,40.527,999.512,45.898,0.0,0
1582147198.91,12.207,30.762,999.512,18.555,0.0,0
1582147198.913,-12.695,20.02,999.512,1.465,0.0,0
1582147198.917,-30.273000000000003,12.207,999.512,-15.625,0.0,0
1582147198.921,-16.602,15.137,999.512,-19.531,0.0,0
1582147198.925,10.742,50.293,999.512,-19.531,0.0,0
1582147198.929,28.32,56.64100000000001,999.512,-10.742,0.0,0
1582147198.931,17.09,38.086,999.512,2.441,0.0,0
1582147198.935,10.254,38.574,999.512,-1.953,0.0,0
1582147198.939,19.531,42.969,999.512,-5.859,0.0,0
1582147198.9429998,33.691,36.133,999.512,-3.906,0.0,0
1582147198.947,40.039,20.996,999.512,-6.348,0.0,0
1582147198.951,44.922,10.742,999.512,6.836,0.0,0
1582147198.955,54.199,18.555,999.512,15.137,0.0,0
1582147198.958,62.988,40.527,999.512,10.742,0.0,0
1582147198.962,75.195,36.133,999.512,1.953,0.0,0
1582147198.966,58.105,23.926,999.512,-11.23,0.0,0
1582147198.97,29.785,26.855,999.512,-8.789,0.0,0
1582147198.974,46.387,16.602,999.512,-10.742,0.0,0
1582147198.976,67.383,15.137,999.512,-2.441,0.0,0
1582147198.98,62.988,25.879,999.512,21.484,0.0,0
1582147198.984,43.945,22.461,999.512,8.301,0.0,0
1582147198.988,31.738000000000003,18.555,999.512,-10.254,0.0,0
1582147198.992,38.086,9.277,999.512,2.93,0.0,0
1582147198.996,33.691,-6.348,999.512,16.602,0.0,0
1582147199.0,24.902,7.324,999.512,17.09,0.0,0
1582147199.0029998,45.41,-10.742,999.512,21.484,0.0,2
1582147199.0070002,46.387,-24.902,999.512,19.531,0.0,0
1582147199.0110002,33.691,20.508000000000006,999.512,29.297,0.0,0
1582147199.015,30.273000000000003,17.578,999.512,34.668,0.0,0
1582147199.019,33.691,-6.348,999.512,25.879,0.0,0
1582147199.021,59.57,-3.906,999.512,31.25,0.0,0
1582147199.025,74.219,19.043,999.512,37.598,0.0,0
1582147199.029,36.621,11.719,999.512,23.926,0.0,0
1582147199.033,16.113,9.277,999.512,13.672,0.0,0
1582147199.0370002,41.01600000000001,0.488,999.512,3.418,0.0,0
1582147199.041,49.805,-23.926,999.512,9.277,0.0,0
1582147199.045,43.457,-0.488,999.512,29.785,0.0,0
1582147199.048,42.48,19.531,999.512,30.762,0.0,0
1582147199.052,47.363,26.855,999.512,14.648,0.0,0
1582147199.056,58.105,34.18,999.512,10.254,0.0,0
1582147199.06,61.035,25.391,999.512,31.25,0.0,0
1582147199.064,15.625,23.438,999.512,8.789,0.0,0
1582147199.066,-15.625,3.906,999.512,-7.324,0.0,0
1582147199.07,13.672,8.789,999.512,17.09,0.0,0
1582147199.074,8.789,-1.953,999.512,17.578,0.0,0
1582147199.0779998,-4.395,-8.789,999.512,18.066,0.0,0
1582147199.082,8.789,18.066,999.512,12.207,0.0,0
1582147199.086,18.555,22.461,999.512,14.16,0.0,0
1582147199.09,15.625,23.438,999.512,26.367,0.0,0
1582147199.093,-10.254,12.207,999.512,12.207,0.0,0
1582147199.097,-16.113,35.645,999.512,10.254,0.0,0
1582147199.101,0.0,44.434,999.512,26.367,0.0,0
1582147199.105,13.672,12.695,999.512,11.23,0.0,0
1582147199.109,-10.742,2.441,999.512,31.738000000000003,0.0,0
1582147199.111,-29.297,10.742,999.512,21.973000000000006,0.0,0
1582147199.115,-7.324,2.441,999.512,7.324,0.0,0
1582147199.119,5.859,6.348,999.512,17.09,0.0,0
1582147199.123,1.953,26.855,-1000.0,5.371,0.0,0
1582147199.127,-12.695,23.926,996.094,13.184,0.0,0
1582147199.131,-12.207,7.812,-992.676,6.836,0.0,0
1582147199.135,1.953,-14.16,975.586,-5.859,0.0,0
1582147199.1379998,-4.395,3.906,955.566,-5.859,0.0,0
1582147199.1420002,-17.09,39.062,-998.535,0.0,0.0,0
1582147199.146,6.348,18.555,-999.512,28.809,0.0,0
1582147199.15,28.809,16.602,997.559,27.832,0.0,0
1582147199.154,12.695,28.32,999.512,0.0,0.0,0
1582147199.156,-19.043,15.137,999.512,-7.812,0.0,0
1582147199.16,-17.578,-0.977,999.512,19.043,0.0,0
1582147199.164,-3.906,14.648,-1000.0,26.855,0.0,0
1582147199.168,-14.16,23.438,995.605,-8.789,0.0,0
1582147199.1720002,-21.484,4.395,-996.094,-10.254,0.0,0
1582147199.176,-17.578,-2.93,995.605,17.09,0.0,0
1582147199.18,-10.254,11.23,919.922,12.695,0.0,0
1582147199.1829998,-9.277,39.062,964.355,0.977,0.0,0
1582147199.187,-12.207,34.668,-984.375,-1.465,0.0,0
1582147199.191,-23.438,5.371,973.633,2.441,0.0,0
1582147199.195,-40.527,19.531,978.516,7.324,0.0,0
1582147199.199,-37.109,34.18,-996.582,-16.113,0.0,0
1582147199.217,-20.508000000000006,27.344,999.023,-25.391,0.0,0
1582147199.221,-27.344,24.414,995.605,-10.254,0.0,0
1582147199.225,-37.109,5.371,995.605,-12.207,0.0,0
1582147199.229,-15.625,0.977,995.605,-19.043,0.0,0
1582147199.2329998,2.93,8.789,-984.863,-1.953,0.0,0
1582147199.2370002,-6.836,19.043,914.062,18.555,0.0,0
1582147199.2410002,-14.16,46.387,874.023,10.254,0.0,0
1582147199.244,-3.906,55.664,984.863,4.883,0.0,0
1582147199.248,23.438,47.363,-971.191,13.672,0.0,0
1582147199.252,13.184,18.555,872.07,2.441,0.0,0
1582147199.256,-13.184,12.207,789.551,-9.277,0.0,0
1582147199.26,5.859,13.672,962.891,0.0,0.0,0
1582147199.262,14.16,4.883,877.441,9.277,0.0,0
1582147199.266,12.695,35.645,792.9689999999998,17.09,0.0,0
1582147199.27,21.973000000000006,38.574,858.398,36.621,0.0,0
1582147199.274,15.137,36.621,919.922,29.785,0.0,0
1582147199.278,18.066,40.039,883.789,0.488,0.0,0
1582147199.282,46.387,42.48,700.195,10.254,0.0,0
1582147199.286,36.621,69.336,652.344,34.18,0.0,0
1582147199.289,-6.348,60.059,786.133,7.812,0.0,0
1582147199.293,-1.953,10.254,803.711,-17.578,0.0,0
1582147199.2970002,4.883,-8.789,635.254,-24.902,0.0,0
1582147199.301,-0.488,20.02,739.7460000000002,-20.508000000000006,0.0,0
1582147199.305,5.859,14.648,893.066,-3.418,0.0,0
1582147199.3070002,25.391,0.977,845.215,1.953,0.0,0
1582147199.311,47.363,11.719,819.824,19.531,0.0,0
1582147199.315,39.551,11.719,848.633,9.277,0.0,0
1582147199.319,33.203,4.883,783.691,5.859,0.0,0
1582147199.323,52.734,17.09,724.6089999999998,32.715,0.0,0
1582147199.327,60.547,14.16,683.5939999999998,26.367,0.0,0
1582147199.331,40.039,9.766,683.5939999999998,12.207,0.0,0
1582147199.334,14.16,3.906,824.707,2.441,0.0,0
1582147199.3379998,29.785,-12.207,697.2660000000002,14.16,0.0,0
1582147199.342,58.105,4.395,645.02,29.297,0.0,0
1582147199.346,55.664,23.926,885.2539999999998,25.391,0.0,0
1582147199.35,41.01600000000001,10.742,883.301,18.066,0.0,0
1582147199.3520002,38.086,3.906,906.25,23.438,0.0,0
1582147199.356,55.664,16.602,975.586,26.855,0.0,0
1582147199.36,73.242,27.832,967.285,40.527,0.0,0
1582147199.3639998,59.57,9.766,907.715,41.504,0.0,0
1582147199.3679998,34.18,-4.395,855.4689999999998,29.297,0.0,0
1582147199.3720002,43.945,7.812,802.7339999999998,28.809,0.0,0
1582147199.3760002,44.434,5.859,748.535,15.137,0.0,0
1582147199.379,41.504,-13.184,729.98,3.418,0.0,0
1582147199.383,36.133,-0.977,666.992,18.555,0.0,0
1582147199.387,42.969,36.133,789.551,40.039,0.0,0
1582147199.391,47.363,35.645,978.027,26.367,0.0,0
1582147199.395,30.273000000000003,10.742,964.355,1.953,0.0,0
1582147199.397,25.391,3.418,916.504,6.836,0.0,0
1582147199.401,41.504,25.391,959.473,36.133,0.0,0
1582147199.405,47.852,13.184,-993.164,24.902,0.0,0
1582147199.409,47.363,3.906,940.43,-6.348,0.0,0
1582147199.413,43.457,13.184,867.188,11.719,0.0,0
1582147199.417,39.551,17.09,801.758,29.297,0.0,0
1582147199.421,51.27,24.414,859.375,29.297,0.0,0
1582147199.424,59.082,8.301,688.965,25.879,0.0,0
1582147199.428,44.434,26.367,531.738,17.578,0.0,0
1582147199.4320002,22.949,43.457,741.699,20.02,0.0,0
1582147199.436,29.785,20.996,808.5939999999998,24.902,0.0,0
1582147199.44,43.457,8.301,796.387,13.184,0.0,0
1582147199.4420002,36.133,7.324,833.4960000000002,20.508000000000006,0.0,0
1582147199.446,28.32,12.207,869.1410000000002,19.043,0.0,0
1582147199.45,25.391,-2.93,751.465,0.977,0.0,0
1582147199.454,29.297,8.789,708.008,2.441,0.0,0
1582147199.458,41.01600000000001,26.367,820.312,20.02,0.0,0
1582147199.462,36.133,20.996,783.691,26.855,0.0,0
1582147199.466,15.625,4.883,624.512,7.324,0.0,0
1582147199.469,28.32,0.0,455.566,-1.465,0.0,0
1582147199.4729998,38.574,21.973000000000006,575.195,7.812,0.0,0
1582147199.4770002,20.996,27.344,794.434,15.625,0.0,0
1582147199.481,18.555,10.254,665.039,21.484,0.0,0
1582147199.485,24.414,5.371,579.59,7.812,0.0,0
1582147199.4870002,26.367,12.695,627.93,8.301,0.0,0
1582147199.4910002,29.297,11.719,610.352,25.391,0.0,0
1582147199.495,29.785,14.16,577.148,39.551,0.0,0
1582147199.4989998,31.25,22.949,588.379,33.203,0.0,0
1582147199.5029998,42.969,27.344,649.9019999999998,13.184,0.0,0
1582147199.5070002,31.738000000000003,20.996,554.688,5.859,0.0,0
1582147199.5110002,12.207,11.23,326.66,14.16,0.0,0
1582147199.514,31.738000000000003,6.348,291.504,27.832,0.0,0
1582147199.518,34.18,21.973000000000006,550.781,21.484,0.0,0
1582147199.522,11.719,26.367,671.387,7.812,0.0,0
1582147199.526,15.625,19.531,616.6990000000002,15.137,0.0,0
1582147199.53,16.602,28.809,601.562,16.602,0.0,0
1582147199.532,22.949,30.762,714.8439999999998,29.297,0.0,0
1582147199.536,27.344,17.578,724.1210000000002,37.598,0.0,0
1582147199.54,13.184,22.949,608.887,20.996,0.0,0
1582147199.544,-0.488,37.109,621.094,28.809,0.0,0
1582147199.548,19.043,33.203,686.523,39.551,0.0,0
1582147199.552,41.01600000000001,12.207,558.594,33.691,0.0,0
1582147199.556,17.578,-0.488,350.098,19.531,0.0,0
1582147199.559,4.883,20.508000000000006,453.61300000000006,15.625,0.0,0
1582147199.563,29.785,30.273000000000003,602.539,11.23,0.0,0
1582147199.5670002,39.551,12.207,597.656,7.812,0.0,0
1582147199.571,33.691,9.766,590.82,7.324,0.0,0
1582147199.575,36.133,26.855,665.039,16.602,0.0,0
1582147199.592,39.062,24.902,774.9019999999998,21.973000000000006,0.0,0
1582147199.596,50.78100000000001,17.578,691.4060000000002,11.23,0.0,0
1582147199.6,59.57,30.273000000000003,657.227,-1.465,0.0,0
1582147199.604,41.504,28.809,776.855,-5.859,0.0,0
1582147199.6079998,35.645,1.953,758.789,2.93,0.0,0
1582147199.6120002,59.57,-0.488,646.9730000000002,14.648,0.0,0
1582147199.6160002,63.477,-11.719,547.852,2.441,0.0,0
1582147199.619,56.64100000000001,-14.16,500.0,-2.441,0.0,0
1582147199.623,55.664,18.066,568.8480000000002,18.066,0.0,0
1582147199.627,62.012,3.906,486.816,15.137,0.0,0
1582147199.631,61.523,-6.348,401.855,-7.324,0.0,0
1582147199.635,42.48,0.488,552.246,-10.742,0.0,0
1582147199.637,24.902,-4.395,539.5509999999998,-0.977,0.0,0
1582147199.641,27.832,0.977,469.23800000000006,-0.488,0.0,0
1582147199.645,47.363,12.695,529.297,6.836,0.0,0
1582147199.649,45.41,12.695,627.93,12.207,0.0,0
1582147199.653,25.391,2.441,603.0269999999998,10.254,0.0,0
1582147199.657,26.855,-22.461,424.805,21.973000000000006,0.0,0
1582147199.661,43.945,-23.438,303.711,20.02,0.0,0
1582147199.664,38.574,3.418,384.277,18.555,0.0,0
1582147199.668,29.785,-4.395,383.301,39.062,0.0,0
1582147199.6720002,33.203,0.488,214.844,48.828,0.0,0
1582147199.676,37.598,36.621,391.11300000000006,25.879,0.0,0
1582147199.68,35.156,34.668,623.047,5.371,0.0,0
1582147199.6820002,18.066,20.508000000000006,529.297,8.789,0.0,0
1582147199.686,1.465,22.949,496.094,9.277,0.0,0
1582147199.69,13.184,19.043,592.285,11.719,0.0,0
1582147199.694,29.785,10.254,585.938,2.93,0.0,0
1582147199.698,12.207,15.137,554.688,-7.324,0.0,0
1582147199.702,-1.465,12.207,434.57,6.348,0.0,0
1582147199.706,-1.465,13.672,380.371,2.93,0.0,0
1582147199.709,23.926,32.227,507.324,0.488,0.0,0
1582147199.7129998,40.527,21.484,416.504,30.273000000000003,0.0,0
1582147199.717,5.371,17.578,319.336,23.438,0.0,0
1582147199.721,-19.043,33.691,557.617,3.906,0.0,0
1582147199.725,0.488,17.09,592.773,-3.418,0.0,0
1582147199.7270002,19.043,21.973000000000006,577.148,18.066,0.0,0
1582147199.731,7.324,41.01600000000001,662.1089999999998,38.086,0.0,0
1582147199.735,-13.672,44.922,726.074,12.207,0.0,0
1582147199.7389998,-11.23,37.109,725.0980000000002,13.184,0.0,0
1582147199.7429998,5.859,26.855,665.039,17.578,0.0,0
1582147199.7470002,-0.488,21.973000000000006,632.812,14.648,0.0,0
1582147199.7510002,-15.137,25.879,574.219,22.461,0.0,0
1582147199.754,3.906,15.137,579.102,18.066,0.0,0
1582147199.758,18.555,6.348,496.582,17.578,0.0,0
1582147199.762,22.949,36.133,573.242,21.973000000000006,0.0,0
1582147199.766,4.883,38.574,663.574,23.926,0.0,0
1582147199.77,-15.625,21.484,591.309,6.836,0.0,0
1582147199.772,3.418,30.273000000000003,658.203,5.371,0.0,0
1582147199.776,26.367,40.039,763.672,21.973000000000006,0.0,0
1582147199.78,18.555,31.738000000000003,760.2539999999998,14.648,0.0,0
1582147199.784,2.93,19.531,666.5039999999998,17.578,0.0,0
1582147199.788,17.09,20.508000000000006,688.965,25.391,0.0,0
1582147199.792,37.598,12.207,663.574,23.438,0.0,0
1582147199.796,40.039,26.855,672.852,50.78100000000001,0.0,0
1582147199.799,26.367,15.137,552.246,37.109,0.0,0
1582147199.803,3.418,8.301,403.809,0.488,0.0,0
1582147199.8070002,0.0,53.71100000000001,734.375,7.324,0.0,0
1582147199.811,12.695,47.852,869.6289999999998,5.859,0.0,0
1582147199.815,0.0,24.902,742.676,0.488,0.0,0
1582147199.816,6.348,20.996,671.387,15.137,0.0,0
1582147199.82,39.551,34.18,740.7230000000002,23.926,0.0,0
1582147199.824,27.344,26.855,776.855,15.625,0.0,0
1582147199.8279998,10.254,9.766,680.664,13.672,0.0,0
1582147199.832,23.438,13.184,691.4060000000002,23.926,0.0,0
1582147199.836,54.688,20.508000000000006,590.82,39.062,0.0,0
1582147199.84,58.594,29.297,482.422,46.875,0.0,0
1582147199.843,32.715,20.508000000000006,376.953,33.203,0.0,0
1582147199.847,18.555,40.527,473.633,14.16,0.0,0
1582147199.851,31.738000000000003,40.527,719.727,13.184,0.0,0
1582147199.855,38.574,17.09,670.898,12.695,0.0,0
1582147199.859,22.949,6.348,555.1759999999998,3.906,0.0,0
1582147199.861,19.043,28.32,665.039,7.324,0.0,0
1582147199.865,33.691,31.25,757.324,22.461,0.0,0
1582147199.869,53.71100000000001,8.789,625.488,21.973000000000006,0.0,0
1582147199.873,58.105,26.367,586.4259999999998,15.137,0.0,0
1582147199.877,36.133,44.434,626.953,32.715,0.0,0
1582147199.881,16.602,20.508000000000006,522.461,16.602,0.0,0
1582147199.885,15.137,-20.996,292.48,1.465,0.0,0
1582147199.8879998,24.902,-9.277,233.887,7.324,0.0,0
1582147199.8920002,16.113,20.508000000000006,467.773,2.441,0.0,0
1582147199.896,2.93,3.418,495.117,19.531,0.0,0
1582147199.9,17.578,19.531,504.395,10.254,0.0,0
1582147199.904,39.551,35.156,629.883,11.719,0.0,0
1582147199.906,34.668,20.996,648.438,23.438,0.0,0
1582147199.91,27.344,15.137,596.68,31.25,0.0,0
1582147199.914,42.969,16.602,503.418,29.785,0.0,0
1582147199.918,51.758,26.367,513.184,11.23,0.0,0
1582147199.9220002,56.152,15.625,582.52,31.738000000000003,0.0,0
1582147199.926,49.805,-8.789,427.246,45.898,0.0,0
1582147199.93,41.01600000000001,-4.395,236.816,15.137,0.0,0
1582147199.9329998,50.293,31.738000000000003,399.414,6.348,0.0,0
1582147199.937,49.316,42.48,630.859,17.578,0.0,0
1582147199.941,43.457,8.301,528.32,22.461,0.0,0
1582147199.945,43.457,-4.395,457.52,30.273000000000003,0.0,0
1582147199.949,45.41,0.0,523.438,15.625,0.0,0
1582147199.966,51.27,3.418,486.328,-2.441,0.0,0
1582147199.97,43.457,17.09,430.664,7.812,0.0,0
1582147199.974,33.691,20.508000000000006,410.645,13.184,0.0,0
1582147199.978,47.363,20.508000000000006,471.68,17.578,0.0,0
1582147199.982,56.64100000000001,17.578,531.25,21.484,0.0,0
1582147199.986,47.363,18.066,412.109,41.992,0.0,0
1582147199.99,43.457,23.438,276.855,51.27,0.0,0
1582147199.9929998,45.898,14.16,375.0,34.668,0.0,0
1582147199.9970002,56.152,13.672,461.914,29.785,0.0,0
1582147200.0010002,55.176,-4.883,225.586,35.645,0.0,0
1582147200.005,28.32,6.836,154.297,25.879,0.0,0
1582147200.0089998,34.668,34.668,414.551,23.438,0.0,0
1582147200.0110002,50.293,22.949,401.367,25.391,0.0,0
1582147200.015,44.434,22.461,336.426,19.531,0.0,0
1582147200.019,31.25,20.996,323.242,25.391,0.0,0
1582147200.0229998,36.133,14.16,304.688,31.738000000000003,0.0,0
1582147200.0270002,50.293,15.625,370.605,19.531,0.0,0
1582147200.031,43.457,13.672,327.637,20.508000000000006,0.0,0
1582147200.035,37.109,4.883,212.891,30.762,0.0,0
1582147200.038,48.828,6.836,328.125,43.457,0.0,0
1582147200.042,60.547,-0.977,340.332,42.969,0.0,1
1582147200.046,49.316,-2.93,97.168,18.066,0.0,0
1582147200.05,22.461,36.621,166.50400000000005,-0.488,0.0,0
1582147200.054,9.766,41.01600000000001,401.367,-4.395,0.0,0
1582147200.056,24.414,17.578,336.914,-3.418,0.0,0
1582147200.06,42.969,19.043,244.141,11.23,0.0,0
1582147200.064,41.01600000000001,26.855,327.148,21.484,0.0,0
1582147200.0679998,22.949,20.508000000000006,303.223,11.719,0.0,0
1582147200.072,29.297,25.391,223.633,13.672,0.0,0
1582147200.076,41.992,16.602,111.816,24.414,0.0,0
1582147200.08,37.109,8.301,84.961,25.879,0.0,0
1582147200.083,33.691,28.32,137.207,33.691,0.0,0
1582147200.087,23.926,10.742,-16.602,31.738000000000003,0.0,0
1582147200.091,21.484,12.207,-92.773,11.719,0.0,0
1582147200.095,19.531,50.293,144.531,5.371,0.0,0
1582147200.099,20.508000000000006,41.504,213.867,14.648,0.0,0
1582147200.101,14.648,21.973000000000006,136.23,20.508000000000006,0.0,0
1582147200.105,8.789,14.648,83.984,15.137,0.0,0
1582147200.109,26.367,25.391,155.762,12.207,0.0,0
1582147200.113,20.02,14.648,111.328,8.789,0.0,0
1582147200.117,8.789,10.742,13.672,18.066,0.0,0
1582147200.121,20.02,20.996,-41.504,27.344,0.0,0
1582147200.125,19.043,22.461,-60.059,0.977,0.0,0
1582147200.1279998,16.602,25.879,14.648,1.953,0.0,0
1582147200.1320002,-3.906,2.441,-145.996,10.254,0.0,0
1582147200.1360002,-15.625,11.719,-145.02,-13.184,0.0,0
1582147200.14,4.883,48.34,147.461,-0.488,0.0,0
1582147200.144,10.742,41.01600000000001,129.88299999999998,10.254,0.0,0
1582147200.146,0.977,31.738000000000003,-7.324,5.859,0.0,0
1582147200.15,-2.93,36.133,-8.301,8.301,0.0,0
1582147200.154,9.766,30.762,18.555,10.254,0.0,0
1582147200.158,19.043,15.625,-60.059,10.742,0.0,0
1582147200.1620002,4.395,17.09,-92.773,13.184,0.0,0
1582147200.166,1.953,5.859,-131.34799999999998,25.879,0.0,0
1582147200.17,13.184,20.508000000000006,-148.438,25.391,0.0,0
1582147200.173,7.812,30.273000000000003,-200.68400000000003,3.418,0.0,0
1582147200.177,0.0,35.156,-248.047,8.301,0.0,0
1582147200.181,-7.812,51.27,4.395,28.809,0.0,0
1582147200.185,1.465,32.715,107.91,30.762,0.0,0
1582147200.189,20.996,27.832,60.547,34.668,0.0,0
1582147200.191,-2.93,28.32,48.828,21.973000000000006,0.0,0
1582147200.195,-34.18,27.832,132.32399999999998,7.812,0.0,0
1582147200.199,-16.113,17.09,168.457,18.555,0.0,0
1582147200.2029998,4.395,9.766,97.168,16.602,0.0,0
1582147200.207,11.719,26.367,136.719,29.785,0.0,0
1582147200.211,3.906,23.438,85.449,42.969,0.0,0
1582147200.215,-13.672,15.625,-65.918,25.879,0.0,0
1582147200.218,2.93,24.414,-174.31599999999997,0.488,0.0,0
1582147200.222,8.301,46.387,-25.391,-8.789,0.0,0
1582147200.226,-3.906,42.48,221.68,3.418,0.0,0
1582147200.23,-0.977,11.23,160.645,2.441,0.0,0
1582147200.234,24.414,8.789,101.562,12.207,0.0,0
1582147200.236,41.01600000000001,35.156,197.266,15.625,0.0,0
1582147200.24,31.25,18.066,210.938,4.883,0.0,0
1582147200.244,19.043,-6.348,92.773,10.254,0.0,0
1582147200.248,36.133,16.602,4.395,12.695,0.0,0
1582147200.252,50.78100000000001,36.621,87.402,-2.441,0.0,0
1582147200.256,45.898,20.508000000000006,48.828,7.812,0.0,0
1582147200.26,31.738000000000003,5.859,-193.359,13.184,0.0,0
1582147200.2629998,28.809,17.578,-249.023,3.906,0.0,0
1582147200.2670002,45.41,33.203,-27.344,14.16,0.0,0
1582147200.271,56.152,31.738000000000003,9.277,23.438,0.0,0
1582147200.275,38.086,23.438,-68.359,21.484,0.0,0
1582147200.279,43.945,15.137,-109.863,25.391,0.0,0
1582147200.281,59.082,25.879,-77.148,35.156,0.0,0
1582147200.285,22.949,18.066,-52.246,14.648,0.0,0
1582147200.289,9.766,7.324,-184.57,6.348,0.0,0
1582147200.293,18.555,15.137,-206.055,25.879,0.0,0
1582147200.2970002,25.391,12.207,-111.816,33.203,0.0,0
1582147200.301,34.18,6.348,-221.191,23.438,0.0,0
1582147200.305,24.902,11.719,-442.383,10.254,0.0,0
1582147200.3079998,16.602,37.598,-301.758,7.324,0.0,0
1582147200.312,31.738000000000003,46.875,-61.035,20.02,0.0,0
1582147200.316,46.875,20.02,-147.94899999999996,25.391,0.0,0
1582147200.32,39.062,8.301,-232.91,17.578,0.0,0
1582147200.324,19.531,25.879,-150.391,15.625,0.0,0
1582147200.342,18.555,27.344,-60.059,13.672,0.0,0
1582147200.346,40.039,16.113,-127.441,15.137,0.0,0
1582147200.35,38.086,13.672,-185.05900000000003,15.625,0.0,0
1582147200.354,19.043,16.113,-83.984,10.742,0.0,0
1582147200.3579998,12.695,13.184,-70.312,10.742,0.0,0
1582147200.3620002,21.484,3.906,-233.398,8.789,0.0,0
1582147200.3660002,22.461,6.348,-336.914,4.395,0.0,0
1582147200.369,3.906,30.273000000000003,-183.594,5.371,0.0,0
1582147200.373,-8.301,23.438,-128.906,2.93,0.0,0
1582147200.377,10.254,4.883,-292.48,13.672,0.0,0
1582147200.381,32.227,14.648,-253.906,19.531,0.0,0
1582147200.385,21.973000000000006,22.461,-77.637,25.391,0.0,0
1582147200.387,10.742,21.973000000000006,-55.176,18.066,0.0,0
1582147200.391,8.301,20.508000000000006,-91.309,3.906,0.0,0
1582147200.395,10.254,32.227,-66.895,1.953,0.0,0
1582147200.399,4.883,34.668,0.977,5.859,0.0,0
1582147200.403,-6.836,25.391,30.273000000000003,13.672,0.0,0
1582147200.407,-1.953,15.625,-85.93799999999997,18.555,0.0,0
1582147200.411,0.0,3.906,-218.75,14.16,0.0,0
1582147200.414,19.531,4.883,-166.50400000000005,12.207,0.0,0
1582147200.418,15.625,5.859,-146.484,26.367,0.0,0
1582147200.4220002,-0.488,6.348,-334.473,23.926,0.0,0
1582147200.426,7.324,35.156,-200.195,7.324,0.0,0
1582147200.43,24.414,34.18,-10.254,8.301,0.0,0
1582147200.4320002,20.02,18.066,-135.254,22.949,0.0,0
1582147200.436,3.906,34.668,-53.71100000000001,15.137,0.0,0
1582147200.44,9.277,39.551,132.32399999999998,24.414,0.0,0
1582147200.444,27.832,25.391,176.75799999999995,27.344,0.0,0
1582147200.448,32.715,11.719,92.285,17.09,0.0,0
1582147200.452,18.555,7.812,-29.297,32.715,0.0,0
1582147200.456,20.996,25.391,-146.484,31.738000000000003,0.0,0
1582147200.459,16.113,35.156,-50.78100000000001,11.719,0.0,0
1582147200.4629998,12.695,6.836,-148.92600000000004,16.602,0.0,0
1582147200.467,11.719,7.324,-314.941,26.855,0.0,0
1582147200.471,7.324,38.086,-76.66,28.809,0.0,0
1582147200.475,17.578,21.484,-7.324,33.691,0.0,0
1582147200.4770002,20.996,18.066,-76.172,19.531,0.0,0
1582147200.481,13.672,33.691,-44.434,16.113,0.0,0
1582147200.485,14.648,22.461,-50.293,16.602,0.0,0
1582147200.4889998,12.695,12.207,-117.188,18.555,0.0,0
1582147200.4929998,9.277,14.16,-138.672,-4.395,0.0,0
1582147200.4970002,7.324,20.996,-182.129,-9.277,0.0,0
1582147200.5010002,6.348,30.762,-200.68400000000003,7.812,0.0,0
1582147200.504,11.719,20.02,-157.715,-1.465,0.0,0
1582147200.508,24.414,1.953,-288.574,-10.742,0.0,0
1582147200.512,31.738000000000003,21.973000000000006,-252.441,-0.977,0.0,0
1582147200.516,31.25,21.973000000000006,-65.43,19.531,0.0,0
1582147200.52,22.949,0.977,-154.785,14.648,0.0,0
1582147200.522,23.438,3.906,-209.473,-1.465,0.0,0
1582147200.526,30.273000000000003,24.902,-133.789,-11.719,0.0,0
1582147200.53,24.414,23.438,-112.305,-2.441,0.0,0
1582147200.534,20.02,12.695,-246.094,10.254,0.0,0
1582147200.538,32.227,19.043,-329.59,16.602,0.0,0
1582147200.542,43.457,27.344,-330.0780000000001,13.672,0.0,0
1582147200.546,29.297,20.02,-415.527,21.973000000000006,0.0,0
1582147200.549,19.531,-5.371,-577.637,28.32,0.0,0
1582147200.553,31.738000000000003,22.949,-591.309,30.273000000000003,0.0,0
1582147200.5570002,44.434,64.941,-294.922,37.109,0.0,0
1582147200.561,26.855,41.992,-223.633,18.555,0.0,0
1582147200.565,5.371,26.367,-318.3590000000001,10.742,0.0,0
1582147200.5670002,14.16,39.551,-279.297,16.602,0.0,0
1582147200.571,34.18,37.109,-224.121,13.672,0.0,0
1582147200.575,40.527,16.113,-293.457,16.602,0.0,0
1582147200.579,20.02,17.578,-357.91,23.438,0.0,0
1582147200.583,13.184,28.32,-352.051,15.137,0.0,0
1582147200.587,23.438,22.949,-402.832,8.301,0.0,0
1582147200.591,37.109,19.531,-540.5269999999998,18.066,0.0,0
1582147200.594,35.156,34.18,-691.4060000000002,21.973000000000006,0.0,0
1582147200.5979998,19.043,54.688,-612.305,13.672,0.0,0
1582147200.6020002,33.691,44.922,-440.43,9.277,0.0,0
1582147200.606,47.363,30.273000000000003,-448.242,15.625,0.0,0
1582147200.61,29.297,39.062,-450.195,23.438,0.0,0
1582147200.6120002,22.949,51.27,-365.234,29.785,0.0,0
1582147200.6160002,27.832,29.785,-399.902,24.414,0.0,0
1582147200.62,30.273000000000003,36.133,-487.305,7.324,0.0,0
1582147200.6239998,17.09,55.664,-464.355,0.488,0.0,0
1582147200.6279998,0.0,50.293,-410.645,16.602,0.0,0
1582147200.6320002,26.367,39.551,-513.672,29.297,0.0,0
1582147200.6360002,40.527,22.461,-737.305,8.301,0.0,0
1582147200.639,15.137,32.227,-751.465,0.488,0.0,0
1582147200.643,11.719,55.664,-474.121,16.602,0.0,0
1582147200.647,22.949,41.01600000000001,-418.457,28.809,0.0,0
1582147200.651,37.109,34.18,-526.367,32.227,0.0,0
1582147200.655,52.246,45.41,-582.52,29.785,0.0,0
1582147200.657,37.598,59.57,-485.84,41.992,0.0,0
1582147200.661,17.09,37.598,-412.109,40.039,0.0,0
1582147200.665,18.066,23.926,-562.012,12.207,0.0,0
1582147200.669,41.992,45.898,-590.82,-0.977,0.0,0
1582147200.673,41.504,49.316,-511.719,10.742,0.0,0
1582147200.677,31.738000000000003,27.832,-560.059,27.344,0.0,0
1582147200.681,41.504,3.906,-820.312,21.484,0.0,0
1582147200.684,46.387,27.344,-753.418,1.953,0.0,0
1582147200.688,50.78100000000001,49.316,-533.691,11.23,0.0,0
1582147200.6920002,42.48,24.414,-673.34,27.344,0.0,0
1582147200.696,52.246,27.344,-736.816,41.504,0.0,0
1582147200.7,68.848,51.758,-608.398,42.48,0.0,0
1582147200.717,47.363,39.551,-595.703,20.996,0.0,0
1582147200.721,21.484,24.414,-740.2339999999998,16.602,0.0,0
1582147200.725,24.414,18.555,-848.145,23.926,0.0,0
1582147200.729,25.879,19.531,-786.6210000000002,13.184,0.0,0
1582147200.7329998,30.273000000000003,30.273000000000003,-704.59,14.16,0.0,0
1582147200.7370002,21.973000000000006,19.531,-820.312,20.996,0.0,0
1582147200.7410002,7.812,14.648,-905.762,11.719,0.0,0
1582147200.744,14.648,36.133,-745.117,7.324,0.0,0
1582147200.748,37.598,48.828,-585.938,21.484,0.0,0
1582147200.752,41.504,34.668,-773.438,31.738000000000003,0.0,0
1582147200.756,16.113,27.832,-910.156,19.043,0.0,0
1582147200.76,23.438,44.922,-704.59,7.812,0.0,0
1582147200.762,43.945,47.852,-649.9019999999998,20.996,0.0,0
1582147200.766,43.945,39.551,-736.328,23.926,0.0,0
1582147200.77,24.414,26.855,-731.934,18.555,0.0,0
1582147200.774,22.949,19.531,-678.711,30.762,0.0,0
1582147200.778,41.01600000000001,21.484,-679.199,18.066,0.0,0
1582147200.782,45.898,20.508000000000006,-787.1089999999998,16.113,0.0,0
1582147200.786,33.691,8.301,-924.805,21.973000000000006,0.0,0
1582147200.789,25.391,21.973000000000006,-931.152,15.137,0.0,0
1582147200.793,33.691,28.32,-828.613,18.555,0.0,0
1582147200.7970002,35.645,13.184,-947.266,16.113,0.0,0
1582147200.801,21.973000000000006,55.176,-919.434,10.742,0.0,0
1582147200.805,19.043,54.199,-749.023,27.832,0.0,0
1582147200.8070002,19.043,20.02,-833.9839999999998,31.738000000000003,0.0,0
1582147200.811,14.16,25.879,-815.918,18.555,0.0,0
1582147200.815,17.578,45.898,-627.441,7.812,0.0,0
1582147200.819,9.766,37.109,-633.789,5.859,0.0,0
1582147200.823,6.348,14.16,-736.816,16.113,0.0,0
1582147200.827,16.602,8.789,-803.2230000000002,17.578,0.0,0
1582147200.831,14.16,30.762,-812.5,18.555,0.0,0
1582147200.834,18.555,41.01600000000001,-671.387,11.719,0.0,0
1582147200.8379998,17.578,7.812,-757.812,9.277,0.0,0
1582147200.842,19.043,17.578,-906.738,26.367,0.0,0
1582147200.846,20.508000000000006,58.105,-665.039,12.207,0.0,0
1582147200.85,4.395,39.062,-609.863,1.953,0.0,0
1582147200.8520002,-3.906,28.32,-739.258,10.254,0.0,0
1582147200.856,17.578,30.762,-718.262,8.301,0.0,0
1582147200.86,36.621,18.066,-676.27,1.953,0.0,0
1582147200.8639998,24.414,14.16,-751.953,8.789,0.0,0
1582147200.8679998,13.672,15.625,-829.102,19.043,0.0,0
1582147200.8720002,38.574,12.695,-920.41,15.137,0.0,0
1582147200.8760002,52.246,29.297,-875.0,7.324,0.0,0
1582147200.879,39.062,34.18,-773.438,4.883,0.0,0
1582147200.883,20.02,15.625,-934.57,2.441,0.0,0
1582147200.887,18.555,36.621,-892.09,7.812,0.0,0
1582147200.891,51.758,47.852,-676.27,13.672,0.0,0
1582147200.895,58.105,24.414,-813.965,8.789,0.0,0
1582147200.897,25.391,16.602,-909.18,8.301,0.0,0
1582147200.901,19.531,19.043,-758.301,1.465,0.0,0
1582147200.905,37.598,22.461,-723.145,11.719,0.0,0
1582147200.909,40.039,26.855,-804.688,8.301,0.0,0
1582147200.913,19.043,34.18,-859.863,5.371,0.0,0
1582147200.917,18.066,24.414,-883.789,15.625,0.0,0
1582147200.921,45.41,15.137,-957.031,14.648,0.0,0
1582147200.924,41.01600000000001,3.418,-972.168,13.672,0.0,0
1582147200.928,20.02,22.461,-957.52,12.207,0.0,0
1582147200.9320002,24.414,42.969,-843.262,20.508000000000006,0.0,0
1582147200.936,49.316,26.367,-725.586,44.434,0.0,0
1582147200.94,62.5,41.992,-805.664,48.828,0.0,0
1582147200.9420002,37.598,47.852,-853.0269999999998,24.902,0.0,0
1582147200.946,5.371,40.527,-789.551,7.324,0.0,0
1582147200.95,12.695,27.344,-880.8589999999998,20.996,0.0,0
1582147200.954,29.297,20.508000000000006,-986.328,22.949,0.0,0
1582147200.958,29.785,29.785,-902.832,12.695,0.0,0
1582147200.962,16.113,12.207,-908.203,16.602,0.0,0
1582147200.966,22.949,-4.883,-981.445,16.602,0.0,0
1582147200.969,44.434,7.812,-975.098,22.949,0.0,0
1582147200.9729998,33.203,35.156,-927.246,23.438,0.0,0
1582147200.9770002,25.391,41.01600000000001,-835.449,32.227,0.0,0
1582147200.981,23.926,29.785,-889.648,37.598,0.0,0
1582147200.985,34.18,35.156,-929.199,30.273000000000003,0.0,0
1582147200.986,42.969,42.969,-862.793,23.926,0.0,0
1582147200.99,25.879,31.738000000000003,-862.305,23.926,0.0,0
1582147200.994,2.441,21.973000000000006,-915.527,16.602,0.0,0
1582147200.998,9.277,24.902,-974.609,9.766,0.0,0
1582147201.002,32.227,17.578,-971.68,10.254,0.0,0
1582147201.006,19.531,1.953,-970.215,10.742,0.0,0
1582147201.01,-7.324,-4.883,-972.168,7.812,0.0,0
1582147201.0129998,0.977,19.531,-975.098,5.371,0.0,0
1582147201.0170002,17.578,47.363,-943.848,13.672,0.0,0
1582147201.021,30.762,32.227,-951.172,12.207,0.0,0
1582147201.025,19.043,19.043,-977.051,16.113,0.0,0
1582147201.029,12.695,21.973000000000006,-970.703,27.344,0.0,0
1582147201.031,35.645,45.41,-972.168,21.973000000000006,0.0,0
1582147201.035,38.574,30.762,-972.168,13.184,0.0,0
1582147201.039,20.996,13.672,-972.168,8.301,0.0,0
1582147201.043,18.066,22.461,-972.168,9.277,0.0,0
1582147201.0470002,35.645,16.113,-972.168,19.531,0.0,0
1582147201.051,44.434,15.625,-972.168,13.672,0.0,0
1582147201.055,30.762,22.461,-972.168,11.23,0.0,0
1582147201.0579998,26.855,41.01600000000001,-972.168,12.695,0.0,0
1582147201.062,32.715,39.062,-972.168,8.789,0.0,0
1582147201.066,35.645,24.414,-972.168,10.254,0.0,0
1582147201.07,36.621,17.09,-972.168,4.395,0.0,0
1582147201.074,25.391,26.367,-972.168,11.23,0.0,0
1582147201.091,25.879,35.156,-972.168,21.973000000000006,0.0,0
1582147201.095,41.01600000000001,23.438,-972.168,17.09,0.0,0
1582147201.099,34.18,16.602,-972.168,12.207,0.0,0
1582147201.103,31.25,34.668,-972.168,18.555,0.0,0
1582147201.107,23.926,32.715,-972.168,26.855,0.0,0
1582147201.111,18.555,23.926,-972.168,15.137,0.0,0
1582147201.115,43.457,36.621,-972.168,3.418,0.0,0
1582147201.1179998,42.969,35.645,-972.168,20.508000000000006,0.0,0
1582147201.1220002,33.691,28.32,-972.168,26.367,0.0,0
1582147201.1260002,36.133,16.602,-972.168,12.207,0.0,0
1582147201.13,32.715,25.391,-972.168,-5.859,0.0,0
1582147201.1339998,28.32,32.715,-972.168,-11.23,0.0,0
1582147201.1360002,8.301,28.809,-972.168,-8.789,0.0,0
1582147201.14,13.672,21.973000000000006,-972.168,7.812,0.0,0
1582147201.144,49.316,29.785,-972.168,15.137,0.0,0
1582147201.1479998,34.18,23.438,-972.168,5.371,0.0,0
1582147201.1520002,16.602,16.113,-972.168,4.395,0.0,0
1582147201.156,15.625,22.461,-972.168,5.859,0.0,0
1582147201.16,24.902,26.367,-972.168,8.301,0.0,0
1582147201.163,31.25,40.039,-972.168,1.465,0.0,0
1582147201.167,12.207,24.902,-972.168,-3.418,0.0,0
1582147201.171,7.324,13.184,-972.168,7.324,0.0,0
1582147201.175,24.414,29.785,-972.168,20.02,0.0,0
1582147201.179,42.48,31.738000000000003,-972.168,32.715,0.0,0
1582147201.181,44.922,32.227,-972.168,33.203,0.0,0
1582147201.185,18.555,29.785,-972.168,29.297,0.0,0
1582147201.189,2.441,22.949,-972.168,28.32,0.0,1
1582147201.1929998,15.625,21.484,-972.168,16.113,0.0,0
1582147201.197,19.043,21.484,-972.168,12.207,0.0,0
1582147201.201,11.23,23.926,-972.168,40.039,0.0,0
1582147201.205,25.879,20.996,-972.168,41.504,0.0,0
1582147201.208,38.086,31.25,-972.168,22.461,0.0,0
1582147201.212,41.992,9.766,-972.168,16.602,0.0,0
1582147201.216,35.645,13.672,-972.168,20.508000000000006,0.0,0
1582147201.22,28.32,50.293,-972.168,35.156,0.0,0
1582147201.224,34.668,38.086,-972.168,27.344,0.0,0
1582147201.226,28.809,33.203,-972.168,8.789,0.0,0
1582147201.23,21.484,37.598,-972.168,29.297,0.0,0
1582147201.234,14.648,35.645,-972.168,31.738000000000003,0.0,0
1582147201.238,30.273000000000003,25.391,-972.168,24.902,0.0,0
1582147201.242,56.152,2.93,-972.168,30.762,0.0,0
1582147201.246,26.855,12.695,-972.168,25.879,0.0,0
1582147201.25,9.277,39.062,-972.168,44.922,0.0,0
1582147201.2529998,12.695,37.598,-972.168,30.762,0.0,0
1582147201.2570002,16.602,41.01600000000001,-972.168,11.23,0.0,0
1582147201.2610002,25.391,58.594,-972.168,16.602,0.0,0
1582147201.265,13.672,51.27,-972.168,25.879,0.0,0
1582147201.269,16.113,28.32,-972.168,28.809,0.0,0
1582147201.271,27.832,22.461,-972.168,12.207,0.0,0
1582147201.275,32.227,30.273000000000003,-972.168,24.902,0.0,0
1582147201.279,33.691,25.879,-972.168,33.203,0.0,0
1582147201.283,24.414,29.785,-972.168,26.367,0.0,0
1582147201.2870002,27.832,55.176,-972.168,23.926,0.0,0
1582147201.291,26.855,60.059,-972.168,13.672,0.0,0
1582147201.295,16.602,61.035,-972.168,28.32,0.0,0
1582147201.298,11.23,41.992,-972.168,21.484,0.0,0
1582147201.302,22.949,33.203,-972.168,11.23,0.0,0
1582147201.306,34.668,57.617,-972.168,21.973000000000006,0.0,0
1582147201.31,21.973000000000006,41.504,-972.168,17.578,0.0,0
1582147201.314,12.695,20.996,-972.168,16.113,0.0,0
1582147201.316,18.555,31.25,-972.168,31.738000000000003,0.0,0
1582147201.32,33.203,57.129,-972.168,20.02,0.0,0
1582147201.324,33.203,59.082,-972.168,0.977,0.0,0
1582147201.3279998,24.414,52.246,-972.168,14.648,0.0,0
1582147201.332,23.926,62.988,-972.168,37.598,0.0,0
1582147201.336,45.41,66.895,-972.168,32.715,0.0,0
1582147201.34,68.359,45.898,-972.168,23.438,0.0,0
1582147201.343,49.805,27.832,-972.168,39.062,0.0,0
1582147201.347,26.855,44.922,-972.168,44.434,0.0,0
1582147201.351,34.668,40.527,-972.168,32.715,0.0,0
1582147201.355,43.945,26.367,-972.168,21.484,0.0,0
1582147201.359,25.879,35.645,-972.168,25.879,0.0,0
1582147201.3620002,2.93,43.457,-972.168,25.879,0.0,0
1582147201.3660002,15.625,47.852,-972.168,17.578,0.0,0
1582147201.37,35.645,50.293,-972.168,22.461,0.0,0
1582147201.3739998,28.809,60.547,-972.168,20.508000000000006,0.0,0
1582147201.3779998,5.371,60.547,-972.168,11.719,0.0,0
1582147201.3820002,4.395,44.434,-972.168,12.695,0.0,0
1582147201.3860002,21.973000000000006,30.762,-972.168,7.812,0.0,0
1582147201.389,23.438,42.48,-972.168,6.348,0.0,0
1582147201.393,20.02,68.848,-972.168,18.066,0.0,0
1582147201.397,20.508000000000006,60.059,-972.168,23.926,0.0,0
1582147201.401,33.691,55.664,-972.168,44.434,0.0,0
1582147201.405,25.879,61.035,-972.168,30.273000000000003,0.0,0
1582147201.407,11.23,63.477,-972.168,8.789,0.0,0
1582147201.411,18.066,72.266,-972.168,30.762,0.0,0
1582147201.415,15.625,61.523,-972.168,28.32,0.0,0
1582147201.419,20.996,45.41,-972.168,18.555,0.0,0
1582147201.423,11.719,40.527,-972.168,14.648,0.0,0
1582147201.427,-11.23,34.18,-972.168,20.996,0.0,0
1582147201.431,4.395,39.551,-972.168,18.066,0.0,0
1582147201.434,23.926,59.57,-972.168,10.742,0.0,0
1582147201.438,27.832,64.453,-972.168,39.551,0.0,0
1582147201.4420002,12.695,39.551,-972.168,48.828,0.0,0
1582147201.446,9.766,38.574,-972.168,44.434,0.0,0
1582147201.45,21.973000000000006,61.523,-972.168,43.945,0.0,0
1582147201.467,16.602,49.805,-972.168,29.297,0.0,0
1582147201.471,4.883,23.438,-972.168,40.527,0.0,0
1582147201.475,4.395,39.062,-972.168,59.57,0.0,0
1582147201.479,18.555,58.105,-972.168,52.734,0.0,0
1582147201.4829998,17.09,38.086,-972.168,28.32,0.0,0
1582147201.4870002,18.066,19.043,-972.168,38.574,0.0,0
1582147201.4910002,15.625,36.621,-972.168,56.64100000000001,0.0,0
1582147201.494,20.508000000000006,62.988,-972.168,45.41,0.0,0
1582147201.498,22.461,48.828,-972.168,26.855,0.0,0
1582147201.502,3.418,20.02,-972.168,11.719,0.0,0
1582147201.506,2.93,24.902,-972.168,14.16,0.0,0
1582147201.51,16.602,38.574,-972.168,21.973000000000006,0.0,0
1582147201.512,32.227,30.762,-972.168,13.672,0.0,0
1582147201.516,46.875,27.344,-972.168,17.09,0.0,0
1582147201.52,42.48,41.01600000000001,-972.168,34.18,0.0,0
1582147201.524,33.691,43.945,-972.168,24.902,0.0,0
1582147201.528,54.688,35.156,-972.168,18.066,0.0,0
1582147201.532,65.918,32.715,-972.168,27.344,0.0,0
1582147201.536,38.574,36.621,-972.168,19.043,0.0,0
1582147201.539,25.879,39.062,-972.168,7.812,0.0,0
1582147201.543,43.457,20.02,-972.168,10.254,0.0,0
1582147201.5470002,61.523,23.926,-972.168,15.137,0.0,0
1582147201.551,54.688,39.062,-972.168,18.066,0.0,0
1582147201.555,41.01600000000001,21.973000000000006,-972.168,30.273000000000003,0.0,0
1582147201.5570002,54.199,21.484,-972.168,26.367,0.0,0
1582147201.561,70.801,19.043,-972.168,33.691,0.0,0
1582147201.565,56.64100000000001,17.09,-972.168,48.34,0.0,0
1582147201.569,32.715,29.785,-972.168,35.645,0.0,0
1582147201.573,35.645,27.832,-972.168,31.25,0.0,0
1582147201.577,41.01600000000001,12.695,-972.168,21.484,0.0,0
1582147201.581,33.203,17.09,-972.168,27.344,0.0,0
1582147201.584,24.902,23.926,-972.168,41.992,0.0,0
1582147201.5879998,31.738000000000003,-7.324,-972.168,28.32,0.0,0
1582147201.592,42.969,8.789,-972.168,27.344,0.0,0
1582147201.596,49.805,29.785,-972.168,36.133,0.0,0
1582147201.6,41.504,12.695,-972.168,36.621,0.0,0
1582147201.6020002,33.203,28.809,-972.168,33.691,0.0,0
1582147201.606,35.156,27.344,-972.168,20.508000000000006,0.0,0
1582147201.61,38.086,24.902,-972.168,4.883,0.0,0
1582147201.6139998,41.01600000000001,33.691,-972.168,7.812,0.0,0
1582147201.6179998,33.691,28.32,-972.168,25.391,0.0,0
1582147201.6220002,39.551,15.625,-972.168,26.855,0.0,0
1582147201.6260002,58.594,8.789,-972.168,14.16,0.0,0
1582147201.629,42.969,0.977,-972.168,12.695,0.0,0
1582147201.633,27.832,4.883,-972.168,22.461,0.0,0
1582147201.637,40.039,39.062,-972.168,31.25,0.0,0
1582147201.641,46.875,48.828,-972.168,21.973000000000006,0.0,0
1582147201.645,38.574,34.18,-972.168,22.461,0.0,0
1582147201.647,20.996,33.691,-972.168,26.855,0.0,0
1582147201.651,27.832,36.621,-972.168,20.02,0.0,0
1582147201.655,39.062,13.184,-972.168,20.508000000000006,0.0,0
1582147201.659,41.01600000000001,16.602,-972.168,14.648,0.0,0
1582147201.663,38.086,39.062,-972.168,29.785,0.0,0
1582147201.667,28.32,37.598,-972.168,33.691,0.0,0
1582147201.671,37.598,44.922,-972.168,17.578,0.0,0
1582147201.674,46.875,38.574,-972.168,13.184,0.0,0
1582147201.678,41.504,30.762,-972.168,15.137,0.0,0
1582147201.6820002,39.062,50.78100000000001,-972.168,33.691,0.0,0
1582147201.686,51.27,40.039,-972.168,41.992,0.0,0
1582147201.69,66.406,39.551,-972.168,36.621,0.0,0
1582147201.6920002,70.801,59.57,-972.168,42.48,0.0,0
1582147201.696,54.199,59.57,-972.168,25.879,0.0,0
1582147201.7,35.645,37.598,-972.168,8.789,0.0,0
1582147201.704,34.18,26.367,-972.168,13.184,0.0,0
1582147201.708,40.527,31.738000000000003,-972.168,26.367,0.0,0
1582147201.712,30.762,26.367,-972.168,22.949,0.0,0
1582147201.716,27.832,20.02,-972.168,17.578,0.0,0
1582147201.719,42.969,14.648,-972.168,17.578,0.0,0
1582147201.7229998,62.5,33.691,-972.168,31.738000000000003,0.0,0
1582147201.7270002,53.223,40.039,-972.168,35.645,0.0,0
1582147201.731,40.039,36.133,-972.168,47.363,0.0,0
1582147201.735,54.688,39.551,-972.168,53.223,0.0,0
1582147201.7370002,35.156,50.293,-972.168,15.625,0.0,0
1582147201.7410002,15.137,45.898,-972.168,14.648,0.0,0
1582147201.745,29.785,26.855,-972.168,26.855,0.0,0
1582147201.7489998,33.203,35.645,-972.168,18.555,0.0,0
1582147201.7529998,45.41,48.34,-972.168,26.367,0.0,0
1582147201.7570002,51.758,49.805,-972.168,32.715,0.0,0
1582147201.7610002,29.785,35.156,-972.168,25.391,0.0,0
1582147201.764,23.926,28.809,-972.168,4.883,0.0,0
1582147201.768,37.598,40.039,-972.168,-3.418,0.0,0
1582147201.772,47.363,33.691,-972.168,19.531,0.0,0
1582147201.776,46.387,23.926,-972.168,20.996,0.0,0
1582147201.78,29.785,29.297,-972.168,18.555,0.0,0
1582147201.782,44.434,39.062,-972.168,20.508000000000006,0.0,0
1582147201.786,48.828,21.973000000000006,-972.168,-3.906,0.0,0
1582147201.79,16.113,13.672,-972.168,-10.742,0.0,0
1582147201.794,22.461,26.367,-972.168,15.625,0.0,0
1582147201.798,44.922,19.531,-972.168,20.02,0.0,0
1582147201.802,40.527,7.324,-972.168,-3.418,0.0,0
1582147201.806,30.273000000000003,20.996,-972.168,-6.348,0.0,0
1582147201.809,26.367,50.293,-972.168,20.996,0.0,0
1582147201.813,30.762,41.01600000000001,-972.168,26.855,0.0,0
1582147201.8170002,47.363,22.461,-972.168,22.949,0.0,0
1582147201.821,45.898,13.184,-972.168,28.32,0.0,0
1582147201.825,12.207,29.297,-972.168,27.832,0.0,0
1582147201.842,0.0,39.551,-972.168,25.879,0.0,0
1582147201.846,42.48,29.785,-972.168,24.902,0.0,0
1582147201.85,53.223,40.039,-972.168,21.484,0.0,0
1582147201.854,31.738000000000003,33.691,-972.168,31.25,0.0,0
1582147201.8579998,36.621,25.391,-972.168,36.133,0.0,0
1582147201.8620002,24.414,6.348,-972.168,16.602,0.0,0
1582147201.8660002,21.973000000000006,11.23,-972.168,1.465,0.0,0
1582147201.869,26.367,30.762,-972.168,0.977,0.0,0
1582147201.873,20.508000000000006,16.113,-972.168,2.93,0.0,0
1582147201.877,33.691,0.0,-972.168,20.996,0.0,0
1582147201.881,54.199,10.254,-972.168,30.762,0.0,0
1582147201.885,47.852,19.531,-972.168,26.367,0.0,0
1582147201.887,28.32,12.695,-972.168,29.297,0.0,0
1582147201.891,13.184,-3.418,-972.168,12.207,0.0,0
1582147201.895,23.926,12.695,-972.168,6.348,0.0,0
1582147201.899,28.809,28.809,-972.168,9.766,0.0,0
1582147201.903,12.207,17.578,-972.168,9.277,0.0,0
1582147201.907,32.715,13.672,-972.168,18.555,0.0,0
1582147201.911,51.758,15.625,-972.168,35.645,0.0,0
1582147201.914,41.504,38.574,-972.168,41.992,0.0,0
1582147201.918,43.945,23.926,-972.168,45.41,0.0,0
1582147201.9220002,20.02,-1.953,-972.168,25.391,0.0,0
1582147201.926,0.0,19.043,-972.168,-8.301,0.0,0
1582147201.93,15.625,20.508000000000006,-972.168,-13.672,0.0,0
1582147201.9320002,14.16,16.113,-972.168,0.488,0.0,0
1582147201.936,14.16,24.902,-972.168,24.902,0.0,0
1582147201.94,31.738000000000003,23.438,-972.168,32.227,0.0,0
1582147201.944,48.34,12.207,-972.168,30.273000000000003,0.0,0
1582147201.948,46.387,12.695,-972.168,41.504,0.0,0
1582147201.952,25.879,3.418,-972.168,31.25,0.0,0
1582147201.956,27.344,-2.441,-972.168,26.367,0.0,0
1582147201.959,54.199,26.855,-972.168,28.32,0.0,0
1582147201.9629998,54.199,9.766,-972.168,24.902,0.0,0
1582147201.967,34.668,-1.953,-972.168,24.414,0.0,0
1582147201.971,22.461,22.949,-972.168,27.344,0.0,0
1582147201.975,32.715,28.809,-972.168,25.391,0.0,0
1582147201.9770002,44.922,37.109,-972.168,30.762,0.0,0
1582147201.981,31.25,33.691,-972.168,32.715,0.0,0
1582147201.985,24.902,26.855,-972.168,34.18,0.0,0
1582147201.9889998,34.668,18.555,-972.168,33.691,0.0,0
1582147201.9929998,52.246,0.977,-972.168,6.348,0.0,0
1582147201.9970002,38.086,-9.766,-972.168,7.812,0.0,0
1582147202.0010002,17.09,20.508000000000006,-972.168,24.414,0.0,0
1582147202.004,48.828,31.738000000000003,-972.168,33.691,0.0,0
1582147202.008,63.477,14.648,-972.168,32.227,0.0,0
1582147202.012,26.367,37.598,-972.168,13.184,0.0,0
1582147202.016,3.418,39.551,-972.168,11.719,0.0,0
1582147202.02,10.742,25.391,-972.168,25.391,0.0,0
1582147202.022,40.039,25.391,-972.168,23.926,0.0,0
1582147202.026,39.062,22.949,-972.168,13.672,0.0,0
1582147202.03,7.324,17.09,-972.168,8.301,0.0,0
1582147202.034,2.93,20.508000000000006,-972.168,17.09,0.0,0
1582147202.038,20.508000000000006,18.555,-972.168,17.09,0.0,0
1582147202.042,42.969,21.484,-972.168,21.484,0.0,0
1582147202.046,50.78100000000001,40.039,-972.168,50.293,0.0,0
1582147202.049,27.344,25.391,-972.168,39.062,0.0,0
1582147202.053,21.484,10.742,-972.168,-0.977,0.0,0
1582147202.0570002,42.969,34.668,-972.168,-6.348,0.0,0
1582147202.061,30.762,41.504,-972.168,1.953,0.0,0
1582147202.065,6.348,32.227,-972.168,4.395,0.0,0
1582147202.066,0.977,27.344,-972.168,-0.977,0.0,0
1582147202.07,9.277,20.02,-972.168,-2.441,0.0,0
1582147202.074,11.719,17.578,-972.168,4.883,0.0,0
1582147202.0779998,0.977,24.902,-972.168,1.465,0.0,0
1582147202.082,-2.93,36.133,-972.168,7.812,0.0,0
1582147202.086,-1.953,25.879,-972.168,12.207,0.0,0
1582147202.09,12.207,11.719,-972.168,14.648,0.0,0
1582147202.093,2.93,15.625,-972.168,11.23,0.0,0
1582147202.097,-6.836,42.48,-972.168,14.16,0.0,0
1582147202.101,20.996,35.645,-972.168,25.391,0.0,0
1582147202.105,14.16,17.09,-972.168,19.531,0.0,0
1582147202.109,-5.371,15.137,-972.168,19.531,0.0,0
1582147202.111,-1.465,36.621,-972.168,40.527,0.0,0
1582147202.115,-0.488,38.086,-972.168,45.41,0.0,0
1582147202.119,15.625,29.297,-972.168,40.039,0.0,0
1582147202.123,12.207,35.156,-972.168,37.109,0.0,0
1582147202.127,-9.766,33.203,-972.168,33.691,0.0,0
1582147202.131,-6.348,27.832,-972.168,37.598,0.0,0
1582147202.135,18.555,11.719,-972.168,26.367,0.0,0
1582147202.1379998,4.883,15.137,-972.168,16.602,0.0,0
1582147202.1420002,-8.301,31.25,-972.168,12.695,0.0,0
1582147202.146,9.766,19.043,-972.168,16.113,0.0,0
1582147202.15,21.973000000000006,14.16,-972.168,23.438,0.0,0
1582147202.154,39.551,27.832,-972.168,20.02,0.0,0
1582147202.156,41.992,30.273000000000003,-972.168,20.996,0.0,0
1582147202.16,40.527,27.344,-972.168,27.344,0.0,0
1582147202.164,43.945,21.973000000000006,-972.168,20.508000000000006,0.0,0
1582147202.168,49.316,25.879,-972.168,11.719,0.0,0
1582147202.1720002,53.71100000000001,31.738000000000003,-972.168,10.742,0.0,0
1582147202.176,51.27,20.02,-972.168,41.504,0.0,0
1582147202.18,55.664,3.418,-972.168,31.25,0.0,0
1582147202.1829998,68.848,28.809,-972.168,11.23,0.0,0
1582147202.187,62.5,47.852,-972.168,29.297,0.0,0
1582147202.191,44.922,26.855,-972.168,37.109,0.0,0
1582147202.195,49.316,26.367,-972.168,41.01600000000001,0.0,0
1582147202.199,65.43,42.48,-972.168,45.41,0.0,0
1582147202.216,65.43,14.648,-972.168,36.621,0.0,0
1582147202.22,49.805,6.348,-972.168,38.574,0.0,0
1582147202.224,35.156,30.762,-972.168,56.64100000000001,0.0,0
1582147202.228,30.273000000000003,13.672,-972.168,46.875,0.0,0
1582147202.232,46.875,-2.93,-972.168,41.01600000000001,0.0,0
1582147202.236,45.898,8.301,-972.168,54.688,0.0,0
1582147202.24,32.715,36.621,-972.168,59.57,0.0,0
1582147202.2429998,38.574,33.691,-972.168,44.922,0.0,0
1582147202.2470002,39.062,8.789,-972.168,41.01600000000001,0.0,0
1582147202.2510002,36.133,11.23,-972.168,54.688,0.0,0
1582147202.255,26.367,29.785,-972.168,51.758,0.0,0
1582147202.2589998,32.715,44.922,-972.168,39.062,0.0,0
1582147202.2610002,40.527,32.227,-972.168,27.344,0.0,0
1582147202.265,20.996,20.996,-972.168,28.32,0.0,0
1582147202.269,22.461,21.484,-972.168,33.691,0.0,0
1582147202.2729998,50.78100000000001,17.578,-972.168,35.645,0.0,0
1582147202.2770002,56.64100000000001,23.438,-972.168,43.945,0.0,0
1582147202.281,52.734,30.762,-972.168,40.039,0.0,0
1582147202.285,39.551,29.785,-972.168,41.504,0.0,1
1582147202.288,23.438,36.621,-972.168,41.504,0.0,0
1582147202.292,30.762,10.742,-972.168,33.203,0.0,0
1582147202.296,34.18,-1.465,-972.168,25.391,0.0,0
1582147202.3,20.508000000000006,33.691,-972.168,28.809,0.0,0
1582147202.304,15.137,30.273000000000003,-972.168,23.926,0.0,0
1582147202.306,21.484,12.695,-972.168,15.625,0.0,0
1582147202.31,24.902,26.367,-972.168,11.23,0.0,0
1582147202.314,22.949,41.01600000000001,-972.168,23.926,0.0,0
1582147202.3179998,23.438,37.598,-972.168,41.992,0.0,0
1582147202.322,28.32,22.949,-972.168,42.969,0.0,0
1582147202.326,42.48,11.23,-972.168,34.18,0.0,0
1582147202.33,24.414,31.25,-972.168,26.855,0.0,0
1582147202.333,7.812,46.387,-972.168,33.691,0.0,0
1582147202.337,23.926,12.695,-972.168,28.32,0.0,0
1582147202.341,37.109,29.785,-972.168,28.32,0.0,0
1582147202.345,25.879,54.688,-972.168,28.809,0.0,0
1582147202.349,14.16,15.137,-972.168,25.391,0.0,0
1582147202.351,23.438,25.879,-972.168,40.039,0.0,0
1582147202.355,25.391,41.504,-972.168,30.762,0.0,0
1582147202.359,30.762,38.086,-972.168,15.137,0.0,0
1582147202.363,35.156,34.668,-972.168,30.273000000000003,0.0,0
1582147202.367,30.762,30.762,-972.168,38.086,0.0,0
1582147202.371,29.297,26.855,-972.168,32.227,0.0,0
1582147202.375,33.203,33.203,-972.168,20.996,0.0,0
1582147202.3779998,35.156,29.785,-972.168,21.973000000000006,0.0,0
1582147202.3820002,37.109,26.367,-972.168,36.133,0.0,0
1582147202.3860002,21.973000000000006,54.199,-972.168,21.973000000000006,0.0,0
1582147202.39,8.301,41.504,-972.168,-1.465,0.0,0
1582147202.394,5.371,15.625,-972.168,1.465,0.0,0
1582147202.396,3.418,25.879,-972.168,17.09,0.0,0
1582147202.4,13.184,40.039,-972.168,30.762,0.0,0
1582147202.404,39.062,28.32,-972.168,33.691,0.0,0
1582147202.408,41.01600000000001,29.297,-972.168,13.184,0.0,0
1582147202.4120002,6.836,33.203,-972.168,6.836,0.0,0
1582147202.416,8.301,21.973000000000006,-972.168,6.348,0.0,0
1582147202.42,29.785,35.645,-972.168,19.531,0.0,0
1582147202.423,36.621,22.949,-972.168,7.812,0.0,0
1582147202.427,28.809,27.344,-972.168,7.324,0.0,0
1582147202.431,21.484,49.316,-972.168,19.043,0.0,0
1582147202.435,30.762,32.227,-972.168,8.789,0.0,0
1582147202.439,41.504,23.438,-972.168,4.883,0.0,0
1582147202.441,39.551,30.273000000000003,-972.168,10.254,0.0,0
1582147202.445,33.203,28.809,-972.168,22.461,0.0,0
1582147202.449,41.504,22.949,-972.168,25.391,0.0,0
1582147202.4529998,54.688,34.18,-972.168,23.926,0.0,0
1582147202.457,47.363,40.039,-972.168,21.973000000000006,0.0,0
1582147202.461,17.578,23.926,-972.168,13.672,0.0,0
1582147202.465,6.836,25.391,-972.168,23.926,0.0,0
1582147202.468,23.438,43.945,-972.168,9.766,0.0,0
1582147202.472,44.922,73.242,-972.168,5.371,0.0,0
1582147202.476,24.902,48.828,-972.168,20.508000000000006,0.0,0
1582147202.48,5.859,17.578,-972.168,24.414,0.0,0
1582147202.484,22.461,42.48,-972.168,27.832,0.0,0
1582147202.4870002,17.09,46.875,-972.168,3.906,0.0,0
1582147202.4910002,-2.441,25.879,-972.168,5.371,0.0,0
1582147202.495,3.906,17.09,-972.168,22.949,0.0,0
1582147202.4989998,21.484,31.738000000000003,-972.168,29.297,0.0,0
1582147202.5029998,29.785,42.969,-972.168,17.09,0.0,0
1582147202.5070002,18.555,38.574,-972.168,-3.906,0.0,0
1582147202.5110002,8.301,35.645,-972.168,8.301,0.0,0
1582147202.514,20.508000000000006,52.246,-972.168,16.113,0.0,0
1582147202.518,46.875,64.941,-972.168,18.555,0.0,0
1582147202.522,49.316,55.664,-972.168,22.461,0.0,0
1582147202.526,34.668,58.105,-972.168,41.01600000000001,0.0,0
1582147202.53,29.297,67.87100000000001,-972.168,47.852,0.0,0
1582147202.532,41.992,75.684,-972.168,20.02,0.0,0
1582147202.536,45.898,57.129,-972.168,10.254,0.0,0
1582147202.54,20.02,41.01600000000001,-972.168,1.953,0.0,0
1582147202.544,8.789,44.434,-972.168,4.395,0.0,0
1582147202.548,23.926,41.01600000000001,-972.168,12.207,0.0,0
1582147202.552,46.875,41.01600000000001,-972.168,17.578,0.0,0
1582147202.556,47.852,41.504,-972.168,18.066,0.0,0
1582147202.559,31.25,67.87100000000001,-972.168,18.066,0.0,0
1582147202.563,33.203,66.895,-972.168,43.945,0.0,0
1582147202.5670002,53.71100000000001,27.832,-972.168,46.387,0.0,0
1582147202.571,51.27,41.504,-972.168,13.672,0.0,0
1582147202.575,17.09,70.312,-972.168,15.625,0.0,0
1582147202.592,3.418,68.848,-972.168,21.484,0.0,0
1582147202.596,28.809,49.316,-972.168,15.625,0.0,0
1582147202.6,33.691,30.273000000000003,-972.168,9.277,0.0,0
1582147202.604,22.949,44.434,-972.168,20.508000000000006,0.0,0
1582147202.6079998,28.809,44.434,-972.168,32.227,0.0,0
1582147202.6120002,37.109,38.086,-972.168,28.809,0.0,0
1582147202.6160002,39.551,43.457,-972.168,20.996,0.0,0
1582147202.619,20.996,37.598,-972.168,19.043,0.0,0
1582147202.623,9.277,43.457,-972.168,20.508000000000006,0.0,0
1582147202.627,9.277,35.156,-972.168,18.066,0.0,0
1582147202.631,27.832,28.32,-972.168,-7.324,0.0,0
1582147202.635,22.461,49.805,-972.168,-7.324,0.0,0
1582147202.637,11.719,35.645,-972.168,13.672,0.0,0
1582147202.641,18.066,7.812,-972.168,17.09,0.0,0
1582147202.645,22.461,7.812,-972.168,14.16,0.0,0
1582147202.649,39.551,19.043,-972.168,16.113,0.0,0
1582147202.653,17.09,16.602,-972.168,11.23,0.0,0
1582147202.657,-3.418,31.738000000000003,-972.168,8.301,0.0,0
1582147202.661,14.648,59.082,-972.168,10.254,0.0,0
1582147202.664,8.301,68.848,-972.168,-11.719,0.0,0
1582147202.668,-18.066,58.594,-972.168,-35.156,0.0,0
1582147202.6720002,-32.715,82.031,-972.168,-46.387,0.0,0
1582147202.676,-53.223,148.92600000000004,-972.168,-61.523,0.0,0
1582147202.68,-76.172,147.461,-972.168,-89.355,0.0,0
1582147202.6820002,-115.234,118.652,-972.168,-112.305,0.0,0
1582147202.686,-150.879,118.164,-972.168,-140.137,0.0,0
1582147202.69,-166.016,125.488,-972.168,-163.57399999999996,0.0,0
1582147202.694,-174.31599999999997,117.188,-972.168,-180.176,0.0,0
1582147202.698,-188.965,90.82,-972.168,-203.125,0.0,0
1582147202.702,-234.863,62.5,-972.168,-216.30900000000003,0.0,0
1582147202.706,-249.512,61.523,-972.168,-233.398,0.0,0
1582147202.709,-218.75,58.594,-972.168,-242.188,0.0,0
1582147202.7129998,-215.332,15.625,-972.168,-237.793,0.0,0
1582147202.717,-224.121,-6.348,-972.168,-246.582,0.0,0
1582147202.721,-217.285,0.0,-972.168,-223.145,0.0,0
1582147202.725,-197.754,-10.742,-972.168,-206.055,0.0,0
1582147202.7270002,-178.71099999999996,-16.113,-972.168,-217.773,0.0,0
1582147202.731,-164.062,-1.465,-972.168,-181.641,0.0,0
1582147202.735,-133.789,19.043,-972.168,-130.371,0.0,0
1582147202.7389998,-94.238,11.23,-972.168,-115.234,0.0,0
1582147202.7429998,-62.012,3.418,-972.168,-104.98,0.0,0
1582147202.7470002,-60.547,-2.441,-972.168,-89.844,0.0,0
1582147202.7510002,-54.199,0.488,-972.168,-59.082,0.0,0
1582147202.754,-16.113,-7.812,-972.168,-24.902,0.0,0
1582147202.758,23.438,-30.273000000000003,-972.168,-11.23,0.0,0
1582147202.762,34.668,-7.324,-972.168,-8.789,0.0,0
1582147202.766,20.996,7.324,-972.168,11.719,0.0,0
1582147202.77,40.039,7.812,-972.168,56.152,0.0,0
1582147202.772,85.93799999999997,25.391,-972.168,69.824,0.0,0
1582147202.776,95.215,23.926,-972.168,72.75399999999998,0.0,0
1582147202.78,92.773,4.395,-972.168,83.984,0.0,0
1582147202.784,98.633,-9.766,-972.168,88.867,0.0,0
1582147202.788,108.887,-8.301,-972.168,97.168,0.0,0
1582147202.792,130.371,-4.395,-972.168,112.305,0.0,0
1582147202.796,133.30100000000002,1.953,-972.168,131.34799999999998,0.0,0
1582147202.799,127.441,-22.461,-972.168,132.812,0.0,0
1582147202.803,139.648,-13.672,-972.168,130.371,0.0,0
1582147202.8070002,157.715,36.133,-972.168,153.32,0.0,0
1582147202.811,140.625,21.973000000000006,-972.168,140.625,0.0,0
1582147202.815,125.0,12.695,-972.168,142.09,0.0,0
1582147202.8170002,143.555,25.879,-972.168,159.18,0.0,0
1582147202.821,152.344,15.625,-972.168,143.555,0.0,0
1582147202.825,143.066,7.324,-972.168,121.094,0.0,0
1582147202.829,123.535,13.672,-972.168,120.605,0.0,0
1582147202.833,124.023,9.766,-972.168,131.836,0.0,0
1582147202.837,159.668,0.488,-972.168,126.953,0.0,0
1582147202.841,178.22299999999996,-2.441,-972.168,135.74200000000002,0.0,0
1582147202.844,165.03900000000004,5.859,-972.168,152.832,0.0,0
1582147202.8479998,163.57399999999996,35.645,-972.168,147.461,0.0,0
1582147202.8520002,164.551,45.41,-972.168,142.09,0.0,0
1582147202.856,158.203,33.203,-972.168,114.746,0.0,0
1582147202.86,135.254,20.996,-972.168,101.074,0.0,0
1582147202.8620002,125.488,21.484,-972.168,119.629,0.0,0
1582147202.8660002,135.74200000000002,28.32,-972.168,112.305,0.0,0
1582147202.87,141.113,19.531,-972.168,97.656,0.0,0
1582147202.8739998,140.625,24.902,-972.168,106.934,0.0,0
1582147202.8779998,124.512,32.715,-972.168,108.398,0.0,0
1582147202.8820002,111.328,30.273000000000003,-972.168,101.562,0.0,0
1582147202.8860002,120.605,10.254,-972.168,104.492,0.0,0
1582147202.889,119.629,17.09,-972.168,111.816,0.0,0
1582147202.893,100.586,51.27,-972.168,116.211,0.0,0
1582147202.897,93.262,46.875,-972.168,106.934,0.0,0
1582147202.901,87.402,33.203,-972.168,93.262,0.0,0
1582147202.905,88.867,31.25,-972.168,91.309,0.0,0
1582147202.907,80.566,34.668,-972.168,91.797,0.0,0
1582147202.911,67.87100000000001,20.996,-972.168,87.891,0.0,0
1582147202.915,78.613,20.02,-972.168,88.37899999999998,0.0,0
1582147202.919,89.844,34.668,-972.168,81.055,0.0,0
1582147202.923,87.891,35.156,-972.168,89.355,0.0,0
1582147202.927,72.266,26.855,-972.168,92.285,0.0,0
1582147202.931,63.477,26.855,-972.168,63.965,0.0,0
1582147202.934,67.87100000000001,40.039,-972.168,41.504,0.0,0
1582147202.938,70.312,48.34,-972.168,65.43,0.0,0
1582147202.9420002,69.336,35.156,-972.168,84.961,0.0,0
1582147202.946,66.406,24.414,-972.168,58.594,0.0,0
1582147202.95,54.688,39.062,-972.168,40.527,0.0,0
1582147202.967,45.41,29.785,-972.168,41.504,0.0,0
1582147202.971,31.738000000000003,17.578,-972.168,45.898,0.0,0
1582147202.975,26.367,29.785,-972.168,61.523,0.0,0
1582147202.979,41.992,37.598,-972.168,39.062,0.0,0
1582147202.9829998,45.41,39.062,-972.168,15.137,0.0,0
1582147202.9870002,32.227,27.344,-972.168,22.949,0.0,0
1582147202.9910002,26.855,30.762,-972.168,38.086,0.0,0
1582147202.994,39.551,36.621,-972.168,39.551,0.0,0
1582147202.998,59.57,38.574,-972.168,53.223,0.0,0
1582147203.002,63.477,47.363,-972.168,68.848,0.0,0
1582147203.006,17.09,46.387,-972.168,35.156,0.0,0
1582147203.01,-5.371,62.012,-972.168,14.16,0.0,0
1582147203.012,15.137,48.34,-972.168,27.832,0.0,0
1582147203.016,27.832,28.32,-972.168,36.133,0.0,0
1582147203.02,31.738000000000003,36.133,-972.168,55.176,0.0,0
1582147203.024,29.785,44.434,-972.168,45.41,0.0,0
1582147203.028,30.273000000000003,32.715,-972.168,17.09,0.0,0
1582147203.032,30.762,10.742,-972.168,24.902,0.0,0
1582147203.036,27.832,25.391,-972.168,44.434,0.0,0
1582147203.039,27.344,43.945,-972.168,33.691,0.0,0
1582147203.043,43.457,37.598,-972.168,36.133,0.0,0
1582147203.0470002,46.875,28.32,-972.168,28.32,0.0,0
1582147203.051,19.531,53.223,-972.168,2.93,0.0,0
1582147203.055,7.324,51.27,-972.168,18.555,0.0,0
1582147203.0570002,28.809,33.203,-972.168,26.855,0.0,0
1582147203.061,46.875,42.969,-972.168,16.113,0.0,0
1582147203.065,35.645,59.082,-972.168,29.785,0.0,0
1582147203.069,24.902,54.199,-972.168,44.922,0.0,0
1582147203.073,25.879,42.48,-972.168,43.945,0.0,0
1582147203.077,35.645,27.344,-972.168,28.809,0.0,0
1582147203.081,39.062,48.34,-972.168,34.668,0.0,0
1582147203.084,32.715,73.73,-972.168,66.895,0.0,0
1582147203.0879998,32.715,33.203,-972.168,52.246,0.0,0
1582147203.092,36.621,30.762,-972.168,24.414,0.0,0
1582147203.096,32.227,59.57,-972.168,17.09,0.0,0
1582147203.1,25.391,43.457,-972.168,22.461,0.0,0
1582147203.1020002,27.832,40.039,-972.168,37.109,0.0,0
1582147203.106,41.504,57.617,-972.168,20.508000000000006,0.0,0
1582147203.11,37.109,56.64100000000001,-972.168,8.789,0.0,0
1582147203.1139998,37.109,46.875,-972.168,6.836,0.0,0
1582147203.1179998,27.344,42.48,-972.168,14.16,0.0,0
1582147203.1220002,17.578,55.176,-972.168,19.531,0.0,0
1582147203.1260002,33.691,54.688,-972.168,10.254,0.0,0
1582147203.129,32.715,35.645,-972.168,21.973000000000006,0.0,0
1582147203.133,16.113,35.645,-972.168,40.527,0.0,0
1582147203.137,11.23,52.246,-972.168,23.926,0.0,0
1582147203.141,31.738000000000003,59.082,-972.168,7.812,0.0,0
1582147203.145,32.715,57.129,-972.168,24.902,0.0,0
1582147203.147,14.16,52.246,-972.168,27.832,0.0,0
1582147203.151,-0.977,55.664,-972.168,8.789,0.0,0
1582147203.155,1.953,47.852,-972.168,6.836,0.0,0
1582147203.159,21.973000000000006,35.156,-972.168,9.766,0.0,0
1582147203.163,19.531,32.715,-972.168,14.648,0.0,0
1582147203.167,12.207,34.18,-972.168,33.203,0.0,0
1582147203.171,27.832,46.387,-972.168,29.785,0.0,0
1582147203.174,31.25,24.902,-972.168,6.836,0.0,0
1582147203.178,-4.883,22.461,-972.168,0.488,0.0,0
1582147203.1820002,-5.859,44.434,-972.168,17.09,0.0,0
1582147203.186,23.926,45.898,-972.168,32.715,0.0,0
1582147203.19,20.996,52.246,-972.168,26.855,0.0,0
1582147203.1920002,16.602,49.316,-972.168,26.855,0.0,0
1582147203.196,16.113,55.664,-972.168,26.855,0.0,0
1582147203.2,12.207,37.598,-972.168,13.184,0.0,0
1582147203.204,36.133,20.996,-972.168,17.09,0.0,0
1582147203.208,42.969,33.691,-972.168,28.32,0.0,0
1582147203.212,12.695,28.809,-972.168,20.02,0.0,0
1582147203.216,12.207,12.695,-972.168,12.695,0.0,0
1582147203.219,49.316,11.23,-972.168,22.949,0.0,0
1582147203.2229998,53.71100000000001,51.27,-972.168,37.598,0.0,0
1582147203.2270002,19.043,62.012,-972.168,18.066,0.0,0
1582147203.231,-4.883,41.01600000000001,-972.168,-6.836,0.0,0
1582147203.235,7.324,47.363,-972.168,-5.859,0.0,0
1582147203.236,11.23,47.852,-972.168,-17.09,0.0,0
1582147203.24,10.254,31.25,-972.168,-11.719,0.0,0
1582147203.244,8.789,24.902,-972.168,2.93,0.0,0
1582147203.248,27.344,41.504,-972.168,18.555,0.0,0
1582147203.252,42.48,40.039,-972.168,23.438,0.0,0
1582147203.256,22.461,31.738000000000003,-972.168,11.719,0.0,0
1582147203.26,11.719,12.207,-972.168,17.578,0.0,0
1582147203.2629998,20.02,16.113,-972.168,31.738000000000003,0.0,0
1582147203.2670002,42.969,38.574,-972.168,26.367,0.0,0
1582147203.271,59.082,36.621,-972.168,22.461,0.0,0
1582147203.275,41.992,40.527,-972.168,26.855,0.0,0
1582147203.279,38.574,56.152,-972.168,41.992,0.0,0
1582147203.281,60.059,66.406,-972.168,43.945,0.0,0
1582147203.285,47.363,42.969,-972.168,11.719,0.0,0
1582147203.289,15.137,41.504,-972.168,14.16,0.0,0
1582147203.293,11.719,33.203,-972.168,13.672,0.0,0
1582147203.2970002,20.996,25.391,-972.168,11.23,0.0,0
1582147203.301,41.01600000000001,40.527,-972.168,17.578,0.0,0
1582147203.305,48.34,43.457,-972.168,21.484,0.0,0
1582147203.3079998,30.273000000000003,47.852,-972.168,29.785,0.0,0
1582147203.312,28.809,47.363,-972.168,25.391,0.0,0
1582147203.316,43.945,48.828,-972.168,19.043,0.0,0
1582147203.32,47.852,61.035,-972.168,29.785,0.0,0
1582147203.324,13.184,54.688,-972.168,18.555,0.0,0
1582147203.341,-8.301,43.945,-972.168,-6.836,0.0,0
1582147203.345,7.812,41.992,-972.168,-2.441,0.0,0
1582147203.349,25.391,42.48,-972.168,5.371,0.0,0
1582147203.353,18.066,35.156,-972.168,15.137,0.0,0
1582147203.357,12.695,21.973000000000006,-972.168,30.273000000000003,0.0,0
1582147203.361,45.898,32.227,-972.168,43.457,0.0,0
1582147203.365,52.734,61.523,-972.168,31.738000000000003,0.0,0
1582147203.3679998,29.297,65.43,-972.168,19.043,0.0,0
1582147203.3720002,19.043,46.875,-972.168,20.996,0.0,0
1582147203.3760002,31.25,33.691,-972.168,20.02,0.0,0
1582147203.38,48.34,49.316,-972.168,22.949,0.0,0
1582147203.3839998,29.297,62.012,-972.168,10.254,0.0,0
1582147203.3860002,9.766,42.969,-972.168,17.09,0.0,0
1582147203.39,15.137,35.645,-972.168,16.113,0.0,0
1582147203.394,31.25,48.34,-972.168,4.395,0.0,0
1582147203.3979998,58.105,47.852,-972.168,36.133,0.0,0
1582147203.4020002,39.551,37.109,-972.168,36.133,0.0,0
1582147203.406,9.277,28.809,-972.168,38.574,0.0,0
1582147203.41,21.484,30.762,-972.168,29.785,0.0,0
1582147203.413,12.207,45.898,-972.168,-11.23,0.0,0
1582147203.417,0.0,33.691,-972.168,-0.488,0.0,0
1582147203.421,11.23,30.762,-972.168,20.996,0.0,1
1582147203.425,25.391,61.523,-972.168,14.648,0.0,0
1582147203.429,23.438,54.688,-972.168,5.371,0.0,0
1582147203.431,12.207,39.551,-972.168,6.348,0.0,0
1582147203.435,6.348,43.457,-972.168,16.113,0.0,0
1582147203.439,15.625,49.316,-972.168,22.949,0.0,0
1582147203.4429998,31.738000000000003,41.01600000000001,-972.168,22.949,0.0,0
1582147203.447,24.414,37.598,-972.168,13.184,0.0,0
1582147203.451,2.93,37.109,-972.168,8.301,0.0,0
1582147203.455,15.625,39.551,-972.168,26.367,0.0,0
1582147203.458,33.691,46.387,-972.168,38.086,0.0,0
1582147203.462,23.438,31.738000000000003,-972.168,16.602,0.0,0
1582147203.466,8.301,31.25,-972.168,3.906,0.0,0
1582147203.47,19.043,59.082,-972.168,28.809,0.0,0
1582147203.474,29.297,54.199,-972.168,33.691,0.0,0
1582147203.476,11.719,40.527,-972.168,14.16,0.0,0
1582147203.48,-2.441,50.78100000000001,-972.168,14.16,0.0,0
1582147203.484,2.93,46.875,-972.168,14.648,0.0,0
1582147203.488,29.297,44.922,-972.168,32.227,0.0,0
1582147203.492,29.785,43.457,-972.168,27.832,0.0,0
1582147203.496,5.371,29.785,-972.168,5.371,0.0,0
1582147203.5,12.695,39.062,-972.168,17.578,0.0,0
1582147203.5029998,14.16,41.01600000000001,-972.168,29.785,0.0,0
1582147203.5070002,15.625,28.809,-972.168,13.184,0.0,0
1582147203.5110002,20.996,62.988,-972.168,6.836,0.0,0
1582147203.515,3.418,63.477,-972.168,21.484,0.0,0
1582147203.519,-0.977,40.527,-972.168,28.809,0.0,0
1582147203.521,18.555,40.527,-972.168,38.086,0.0,0
1582147203.525,25.879,35.156,-972.168,28.809,0.0,0
1582147203.529,8.301,33.203,-972.168,12.207,0.0,0
1582147203.533,14.648,38.086,-972.168,21.973000000000006,0.0,0
1582147203.5370002,29.297,40.527,-972.168,36.621,0.0,0
1582147203.541,40.527,28.32,-972.168,21.484,0.0,0
1582147203.545,38.086,39.062,-972.168,17.578,0.0,0
1582147203.548,25.879,32.715,-972.168,22.949,0.0,0
1582147203.552,29.785,19.043,-972.168,1.465,0.0,0
1582147203.556,43.945,43.945,-972.168,1.953,0.0,0
1582147203.56,47.852,37.109,-972.168,4.395,0.0,0
1582147203.564,31.25,34.668,-972.168,6.348,0.0,0
1582147203.566,42.48,39.062,-972.168,26.367,0.0,0
1582147203.57,86.426,39.551,-972.168,39.062,0.0,0
1582147203.574,83.008,41.01600000000001,-972.168,37.598,0.0,0
1582147203.5779998,54.688,7.324,-972.168,26.367,0.0,0
1582147203.582,44.434,1.465,-972.168,15.137,0.0,0
1582147203.586,47.852,34.668,-972.168,8.301,0.0,0
1582147203.59,48.828,23.926,-972.168,8.789,0.0,0
1582147203.593,50.293,8.301,-972.168,22.461,0.0,0
1582147203.597,57.129,41.992,-972.168,33.203,0.0,0
1582147203.601,52.246,49.316,-972.168,27.344,0.0,0
1582147203.605,50.293,27.832,-972.168,33.203,0.0,0
1582147203.609,42.48,38.086,-972.168,38.574,0.0,0
1582147203.611,20.996,53.71100000000001,-972.168,22.461,0.0,0
1582147203.615,36.621,37.109,-972.168,25.879,0.0,0
1582147203.619,50.293,17.09,-972.168,29.785,0.0,0
1582147203.623,38.086,30.762,-972.168,33.691,0.0,0
1582147203.627,47.363,30.762,-972.168,45.898,0.0,0
1582147203.631,52.246,29.785,-972.168,48.828,0.0,0
1582147203.635,46.387,21.973000000000006,-972.168,39.062,0.0,0
1582147203.6379998,55.176,24.414,-972.168,32.227,0.0,0
1582147203.6420002,42.48,53.71100000000001,-972.168,21.973000000000006,0.0,0
1582147203.646,31.738000000000003,44.434,-972.168,19.531,0.0,0
1582147203.65,40.527,26.855,-972.168,22.949,0.0,0
1582147203.654,39.062,35.645,-972.168,16.602,0.0,0
1582147203.656,47.363,57.617,-972.168,35.156,0.0,0
1582147203.66,49.316,44.434,-972.168,34.18,0.0,0
1582147203.664,41.992,45.41,-972.168,27.832,0.0,0
1582147203.668,39.551,46.875,-972.168,22.949,0.0,0
1582147203.6720002,42.48,39.551,-972.168,20.996,0.0,0
1582147203.676,39.551,26.855,-972.168,38.086,0.0,0
1582147203.68,34.18,28.32,-972.168,45.41,0.0,0
1582147203.6829998,46.387,56.152,-972.168,38.086,0.0,0
1582147203.687,26.855,39.551,-972.168,30.273000000000003,0.0,0
1582147203.691,-1.953,17.09,-972.168,32.715,0.0,0
1582147203.695,6.348,42.48,-972.168,38.086,0.0,0
1582147203.699,19.043,62.012,-972.168,19.531,0.0,0
1582147203.717,11.23,43.457,-972.168,16.113,0.0,0
1582147203.721,-4.395,28.809,-972.168,34.668,0.0,0
1582147203.725,-5.859,29.297,-972.168,29.297,0.0,0
1582147203.729,3.418,35.645,-972.168,24.414,0.0,0
1582147203.7329998,17.578,30.762,-972.168,27.832,0.0,0
1582147203.7370002,17.578,14.16,-972.168,26.367,0.0,0
1582147203.7410002,4.395,24.414,-972.168,25.391,0.0,0
1582147203.744,23.926,42.48,-972.168,33.203,0.0,0
1582147203.748,34.668,42.969,-972.168,30.273000000000003,0.0,0
1582147203.752,7.324,14.16,-972.168,8.789,0.0,0
1582147203.756,2.93,18.555,-972.168,19.531,0.0,0
1582147203.76,23.438,56.152,-972.168,44.434,0.0,0
1582147203.762,36.621,50.78100000000001,-972.168,28.809,0.0,0
1582147203.766,21.973000000000006,22.949,-972.168,7.324,0.0,0
1582147203.77,2.441,18.066,-972.168,10.742,0.0,0
1582147203.774,6.836,25.391,-972.168,26.855,0.0,0
1582147203.778,24.414,20.508000000000006,-972.168,22.949,0.0,0
1582147203.782,29.785,10.254,-972.168,28.809,0.0,0
1582147203.786,13.672,23.926,-972.168,33.691,0.0,0
1582147203.789,7.812,49.316,-972.168,17.578,0.0,0
1582147203.793,30.762,48.34,-972.168,41.992,0.0,0
1582147203.7970002,44.922,36.621,-972.168,37.109,0.0,0
1582147203.801,8.301,45.41,-972.168,8.789,0.0,0
1582147203.805,-2.93,39.551,-972.168,20.508000000000006,0.0,0
1582147203.8070002,20.996,25.391,-972.168,26.855,0.0,0
1582147203.811,17.578,28.32,-972.168,13.184,0.0,0
1582147203.815,11.719,33.691,-972.168,9.277,0.0,0
1582147203.819,10.742,16.602,-972.168,18.066,0.0,0
1582147203.823,19.043,18.066,-972.168,24.902,0.0,0
1582147203.827,36.133,26.855,-972.168,24.902,0.0,0
1582147203.831,42.969,25.391,-972.168,12.695,0.0,0
1582147203.834,18.066,42.969,-972.168,0.488,0.0,0
1582147203.8379998,2.93,19.043,-972.168,-8.301,0.0,0
1582147203.842,29.297,11.23,-972.168,-2.93,0.0,0
1582147203.846,42.48,47.852,-972.168,15.625,0.0,0
1582147203.85,20.02,37.598,-972.168,4.395,0.0,0
1582147203.8520002,13.672,24.902,-972.168,7.812,0.0,0
1582147203.856,37.598,38.086,-972.168,22.949,0.0,0
1582147203.86,38.574,31.738000000000003,-972.168,11.23,0.0,0
1582147203.8639998,16.602,33.691,-972.168,17.578,0.0,0
1582147203.8679998,3.418,41.01600000000001,-972.168,17.09,0.0,0
1582147203.8720002,7.812,38.574,-972.168,23.438,0.0,0
1582147203.8760002,20.508000000000006,37.109,-972.168,29.785,0.0,0
1582147203.879,25.879,21.484,-972.168,23.438,0.0,0
1582147203.883,21.973000000000006,8.789,-972.168,23.438,0.0,0
1582147203.887,31.738000000000003,42.48,-972.168,20.508000000000006,0.0,0
1582147203.891,41.504,48.34,-972.168,33.203,0.0,0
1582147203.895,38.086,18.555,-972.168,26.367,0.0,0
1582147203.897,32.227,19.531,-972.168,33.203,0.0,0
1582147203.901,23.438,27.832,-972.168,42.48,0.0,0
1582147203.905,31.738000000000003,27.344,-972.168,31.738000000000003,0.0,0
1582147203.909,43.945,39.551,-972.168,19.531,0.0,0
1582147203.913,25.879,40.527,-972.168,14.16,0.0,0
1582147203.917,13.184,28.32,-972.168,20.02,0.0,0
1582147203.921,22.949,34.18,-972.168,21.484,0.0,0
1582147203.924,42.48,20.02,-972.168,14.648,0.0,0
1582147203.928,34.18,31.25,-972.168,12.207,0.0,0
1582147203.9320002,26.855,45.898,-972.168,17.09,0.0,0
1582147203.936,41.992,30.273000000000003,-972.168,17.09,0.0,0
1582147203.94,42.969,41.504,-972.168,13.672,0.0,0
1582147203.9420002,36.133,38.574,-972.168,21.484,0.0,0
1582147203.946,28.809,37.598,-972.168,32.227,0.0,0
1582147203.95,29.785,23.926,-972.168,46.387,0.0,0
1582147203.954,35.156,21.484,-972.168,40.039,0.0,0
1582147203.958,46.875,48.34,-972.168,19.043,0.0,0
1582147203.962,38.574,45.898,-972.168,25.391,0.0,0
1582147203.966,16.602,31.738000000000003,-972.168,23.438,0.0,0
1582147203.969,25.391,29.785,-972.168,7.324,0.0,0
1582147203.9729998,49.805,42.969,-972.168,5.371,0.0,0
1582147203.9770002,36.621,41.01600000000001,-972.168,20.996,0.0,0
1582147203.981,16.113,25.391,-972.168,22.949,0.0,0
1582147203.985,37.598,36.621,-972.168,45.898,0.0,0
1582147203.9870002,47.363,38.086,-972.168,41.01600000000001,0.0,0
1582147203.9910002,35.645,36.133,-972.168,20.508000000000006,0.0,0
1582147203.995,37.598,46.875,-972.168,37.109,0.0,0
1582147203.9989998,39.551,44.434,-972.168,42.48,0.0,0
1582147204.0029998,38.574,36.621,-972.168,20.02,0.0,0
1582147204.0070002,31.25,27.344,-972.168,8.301,0.0,0
1582147204.0110002,17.09,7.812,-972.168,16.113,0.0,0
1582147204.014,23.438,13.184,-972.168,9.277,0.0,0
1582147204.018,33.203,53.223,-972.168,15.625,0.0,0
1582147204.022,24.902,41.992,-972.168,22.949,0.0,0
1582147204.026,13.672,25.391,-972.168,21.484,0.0,0
1582147204.03,16.602,29.785,-972.168,15.625,0.0,0
1582147204.032,39.062,38.086,-972.168,9.766,0.0,0
1582147204.036,44.922,40.527,-972.168,25.391,0.0,0
1582147204.04,24.902,29.297,-972.168,31.25,0.0,0
1582147204.044,-1.953,27.344,-972.168,6.836,0.0,0
1582147204.048,-5.371,32.715,-972.168,-9.277,0.0,0
1582147204.052,16.602,12.695,-972.168,-3.906,0.0,0
1582147204.056,15.625,2.93,-972.168,-2.93,0.0,0
1582147204.059,2.93,30.273000000000003,-972.168,7.812,0.0,0
1582147204.063,3.418,42.48,-972.168,12.207,0.0,0
1582147204.0670002,15.625,36.621,-972.168,12.695,0.0,0
1582147204.071,39.062,32.227,-972.168,18.555,0.0,0
1582147204.075,27.344,37.109,-972.168,14.648,0.0,0
1582147204.092,17.09,44.922,-972.168,17.578,0.0,0
1582147204.096,40.039,48.828,-972.168,24.902,0.0,0
1582147204.1,39.062,36.133,-972.168,9.277,0.0,0
1582147204.104,19.043,23.926,-972.168,-1.465,0.0,0
1582147204.1079998,17.578,21.973000000000006,-972.168,12.695,0.0,0
1582147204.1120002,39.551,11.719,-972.168,22.461,0.0,0
1582147204.1160002,47.363,23.926,-972.168,4.883,0.0,0
1582147204.119,9.766,49.805,-972.168,6.348,0.0,0
1582147204.123,-5.859,44.434,-972.168,9.277,0.0,0
1582147204.127,-1.465,25.391,-972.168,3.906,0.0,0
1582147204.131,0.0,35.645,-972.168,1.465,0.0,0
1582147204.135,15.625,40.527,-972.168,13.184,0.0,0
1582147204.137,22.949,31.25,-972.168,35.156,0.0,0
1582147204.141,22.461,36.133,-972.168,23.926,0.0,0
1582147204.145,36.621,41.01600000000001,-972.168,21.973000000000006,0.0,0
1582147204.149,40.527,38.086,-972.168,27.344,0.0,0
1582147204.153,23.438,31.738000000000003,-972.168,15.137,0.0,0
1582147204.157,6.348,33.203,-972.168,6.836,0.0,0
1582147204.161,7.812,57.129,-972.168,16.602,0.0,0
1582147204.164,14.648,62.5,-972.168,2.93,0.0,0
1582147204.168,13.672,38.086,-972.168,6.836,0.0,0
1582147204.1720002,12.207,21.973000000000006,-972.168,8.789,0.0,0
1582147204.176,23.926,50.78100000000001,-972.168,10.742,0.0,0
1582147204.18,40.039,57.129,-972.168,23.438,0.0,0
1582147204.1820002,22.949,27.344,-972.168,16.113,0.0,0
1582147204.186,0.488,29.785,-972.168,11.719,0.0,0
1582147204.19,13.672,45.898,-972.168,25.391,0.0,0
1582147204.194,31.25,34.18,-972.168,22.461,0.0,0
1582147204.198,16.113,23.438,-972.168,9.277,0.0,0
1582147204.202,5.859,30.762,-972.168,20.02,0.0,0
1582147204.206,18.555,44.434,-972.168,21.973000000000006,0.0,0
1582147204.209,20.996,54.688,-972.168,17.578,0.0,0
1582147204.2129998,13.184,24.902,-972.168,22.949,0.0,0
1582147204.217,1.953,26.855,-972.168,24.902,0.0,0
1582147204.221,6.348,67.87100000000001,-972.168,35.156,0.0,0
1582147204.225,19.531,55.664,-972.168,26.855,0.0,0
1582147204.2270002,16.602,35.645,-972.168,1.953,0.0,0
1582147204.231,-3.418,36.621,-972.168,6.836,0.0,0
1582147204.235,-6.836,32.715,-972.168,27.344,0.0,0
1582147204.2389998,6.836,26.855,-972.168,31.738000000000003,0.0,0
1582147204.2429998,10.254,24.902,-972.168,17.578,0.0,0
1582147204.2470002,22.949,23.438,-972.168,25.879,0.0,0
1582147204.2510002,33.203,38.086,-972.168,36.133,0.0,0
1582147204.254,17.09,35.156,-972.168,30.762,0.0,0
1582147204.258,34.18,25.879,-972.168,41.01600000000001,0.0,0
1582147204.262,36.133,54.688,-972.168,41.992,0.0,0
1582147204.266,29.785,58.105,-972.168,44.434,0.0,0
1582147204.27,36.621,41.504,-972.168,42.48,0.0,0
1582147204.272,44.922,23.926,-972.168,16.602,0.0,0
1582147204.276,55.664,26.855,-972.168,5.859,0.0,0
1582147204.28,47.852,34.668,-972.168,14.16,0.0,0
1582147204.284,42.48,24.414,-972.168,19.043,0.0,0
1582147204.288,45.41,31.25,-972.168,6.348,0.0,0
1582147204.292,53.223,29.785,-972.168,3.906,0.0,0
1582147204.296,58.105,39.062,-972.168,12.207,0.0,0
1582147204.299,59.57,42.48,-972.168,33.691,0.0,0
1582147204.303,68.359,38.086,-972.168,48.828,0.0,0
1582147204.3070002,67.383,58.594,-972.168,16.602,0.0,0
1582147204.311,51.758,45.41,-972.168,15.137,0.0,0
1582147204.315,24.902,12.695,-972.168,32.227,0.0,0
1582147204.316,23.926,10.742,-972.168,27.832,0.0,0
1582147204.32,48.828,36.621,-972.168,24.414,0.0,0
1582147204.324,48.828,38.574,-972.168,35.156,0.0,0
1582147204.3279998,26.367,34.18,-972.168,37.598,0.0,0
1582147204.332,29.297,34.668,-972.168,33.203,0.0,0
1582147204.336,40.039,26.855,-972.168,32.715,0.0,0
1582147204.34,30.273000000000003,32.227,-972.168,26.855,0.0,0
1582147204.343,21.484,24.414,-972.168,20.996,0.0,0
1582147204.347,23.438,40.527,-972.168,22.949,0.0,0
1582147204.351,29.785,46.875,-972.168,22.461,0.0,0
1582147204.355,31.25,28.809,-972.168,20.02,0.0,0
1582147204.359,27.344,28.809,-972.168,18.066,0.0,0
1582147204.361,20.996,31.25,-972.168,22.949,0.0,0
1582147204.365,22.949,32.227,-972.168,19.043,0.0,0
1582147204.369,36.621,33.691,-972.168,10.254,0.0,0
1582147204.373,60.059,38.086,-972.168,39.062,0.0,0
1582147204.377,47.852,39.551,-972.168,47.852,0.0,0
1582147204.381,31.738000000000003,40.039,-972.168,27.344,0.0,0
1582147204.385,49.316,21.484,-972.168,13.184,0.0,0
1582147204.3879998,35.645,20.02,-972.168,9.277,0.0,0
1582147204.3920002,-1.465,54.199,-972.168,11.719,0.0,0
1582147204.396,-7.812,35.156,-972.168,14.648,0.0,0
1582147204.4,6.348,28.809,-972.168,4.395,0.0,0
1582147204.404,22.461,41.504,-972.168,0.488,0.0,0
1582147204.406,6.836,30.273000000000003,-972.168,13.672,0.0,0
1582147204.41,-6.836,29.785,-972.168,27.344,0.0,0
1582147204.414,7.812,27.832,-972.168,20.508000000000006,0.0,0
1582147204.418,18.555,42.969,-972.168,18.555,0.0,0
1582147204.4220002,6.836,46.387,-972.168,26.367,0.0,0
1582147204.426,-4.395,16.602,-972.168,30.762,0.0,0
1582147204.43,-0.977,20.996,-972.168,25.391,0.0,0
1582147204.4329998,18.066,45.41,-972.168,13.184,0.0,0
1582147204.437,24.414,56.64100000000001,-972.168,26.367,0.0,0
1582147204.441,12.207,42.969,-972.168,44.434,0.0,0
1582147204.445,-0.488,38.574,-972.168,34.668,0.0,0
1582147204.449,14.16,38.574,-972.168,13.184,0.0,0
1582147204.466,35.156,16.113,-972.168,19.531,0.0,0
1582147204.47,4.395,27.832,-972.168,32.227,0.0,0
1582147204.474,-3.906,44.922,-972.168,34.18,0.0,0
1582147204.478,12.695,46.875,-972.168,16.602,0.0,0
1582147204.482,17.578,47.852,-972.168,5.859,0.0,0
1582147204.486,12.695,46.387,-972.168,18.066,0.0,0
1582147204.49,-9.277,39.551,-972.168,17.09,0.0,0
1582147204.4929998,-4.395,31.25,-972.168,12.695,0.0,1
1582147204.4970002,20.996,33.203,-972.168,20.996,0.0,0
1582147204.5010002,18.555,18.555,-972.168,14.16,0.0,0
1582147204.505,4.883,29.297,-972.168,7.324,0.0,0
1582147204.5089998,7.324,44.922,-972.168,13.184,0.0,0
1582147204.5110002,14.16,29.785,-972.168,10.254,0.0,0
1582147204.515,13.184,26.367,-972.168,20.02,0.0,0
1582147204.519,2.93,33.203,-972.168,15.137,0.0,0
1582147204.5229998,9.277,33.691,-972.168,9.766,0.0,0
1582147204.5270002,41.992,33.691,-972.168,25.391,0.0,0
1582147204.531,47.363,32.715,-972.168,32.227,0.0,0
1582147204.535,20.996,42.969,-972.168,22.949,0.0,0
1582147204.538,6.836,55.176,-972.168,5.371,0.0,0
1582147204.542,10.742,26.367,-972.168,-2.93,0.0,0
1582147204.546,16.602,12.695,-972.168,-6.348,0.0,0
1582147204.55,13.184,50.293,-972.168,1.953,0.0,0
1582147204.554,5.371,51.27,-972.168,5.859,0.0,0
1582147204.556,11.23,13.672,-972.168,-10.254,0.0,0
1582147204.56,35.645,7.324,-972.168,-4.395,0.0,0
1582147204.564,23.926,34.668,-972.168,13.672,0.0,0
1582147204.5679998,0.488,44.434,-972.168,-5.371,0.0,0
1582147204.572,11.23,33.203,-972.168,-7.324,0.0,0
1582147204.576,24.414,32.227,-972.168,11.719,0.0,0
1582147204.58,28.32,36.133,-972.168,9.766,0.0,0
1582147204.583,11.23,33.203,-972.168,15.625,0.0,0
1582147204.587,3.906,27.832,-972.168,19.043,0.0,0
1582147204.591,36.133,44.922,-972.168,27.832,0.0,0
1582147204.595,35.645,43.945,-972.168,13.672,0.0,0
1582147204.599,-5.371,19.531,-972.168,-2.93,0.0,0
1582147204.601,-21.484,24.414,-972.168,7.812,0.0,0
1582147204.605,-9.766,32.227,-972.168,5.371,0.0,0
1582147204.609,9.277,37.109,-972.168,16.602,0.0,0
1582147204.613,6.836,23.926,-972.168,12.207,0.0,0
1582147204.617,5.859,13.184,-972.168,19.531,0.0,0
1582147204.621,17.09,29.297,-972.168,38.086,0.0,0
1582147204.625,20.508000000000006,46.387,-972.168,16.113,0.0,0
1582147204.6279998,18.066,37.109,-972.168,19.043,0.0,0
1582147204.6320002,14.16,29.785,-972.168,33.691,0.0,0
1582147204.6360002,37.598,55.664,-972.168,34.18,0.0,0
1582147204.64,57.129,58.594,-972.168,48.34,0.0,0
1582147204.644,49.805,39.062,-972.168,52.734,0.0,0
1582147204.646,20.996,31.25,-972.168,44.434,0.0,0
1582147204.65,2.93,39.551,-972.168,21.973000000000006,0.0,0
1582147204.654,15.137,37.109,-972.168,6.348,0.0,0
1582147204.658,19.043,25.879,-972.168,8.789,0.0,0
1582147204.6620002,10.742,27.344,-972.168,9.766,0.0,0
1582147204.666,6.836,30.762,-972.168,23.438,0.0,0
1582147204.67,24.902,42.48,-972.168,25.879,0.0,0
1582147204.673,38.086,39.551,-972.168,9.766,0.0,0
1582147204.677,32.227,39.062,-972.168,24.902,0.0,0
1582147204.681,42.969,47.363,-972.168,48.828,0.0,0
1582147204.685,57.617,44.922,-972.168,43.945,0.0,0
1582147204.689,54.688,44.434,-972.168,24.414,0.0,0
1582147204.691,35.156,40.527,-972.168,9.766,0.0,0
1582147204.695,18.555,39.551,-972.168,21.484,0.0,0
1582147204.699,32.227,37.598,-972.168,38.574,0.0,0
1582147204.7029998,54.199,24.414,-972.168,25.391,0.0,0
1582147204.707,41.992,23.926,-972.168,13.672,0.0,0
1582147204.711,16.113,23.438,-972.168,5.859,0.0,0
1582147204.715,18.066,23.438,-972.168,14.16,0.0,0
1582147204.718,34.668,16.113,-972.168,19.531,0.0,0
1582147204.722,49.316,27.344,-972.168,31.25,0.0,0
1582147204.726,46.387,47.852,-972.168,31.738000000000003,0.0,0
1582147204.73,21.973000000000006,34.668,-972.168,24.414,0.0,0
1582147204.734,24.902,34.18,-972.168,26.367,0.0,0
1582147204.7370002,40.039,53.223,-972.168,12.207,0.0,0
1582147204.7410002,32.715,46.387,-972.168,27.832,0.0,0
1582147204.745,20.508000000000006,16.602,-972.168,29.297,0.0,0
1582147204.7489998,16.602,16.602,-972.168,12.695,0.0,0
1582147204.7529998,31.25,27.832,-972.168,14.648,0.0,0
1582147204.7570002,43.945,27.344,-972.168,29.297,0.0,0
1582147204.7610002,31.738000000000003,24.414,-972.168,34.18,0.0,0
1582147204.764,-3.906,19.043,-972.168,16.602,0.0,0
1582147204.768,-1.953,35.645,-972.168,13.184,0.0,0
1582147204.772,22.949,41.992,-972.168,18.066,0.0,0
1582147204.776,10.742,32.715,-972.168,10.742,0.0,0
1582147204.78,3.418,37.598,-972.168,8.301,0.0,0
1582147204.782,17.578,47.363,-972.168,13.184,0.0,0
1582147204.786,13.672,27.344,-972.168,-6.836,0.0,0
1582147204.79,16.602,19.043,-972.168,-4.395,0.0,0
1582147204.794,23.926,43.457,-972.168,21.484,0.0,0
1582147204.798,33.691,41.01600000000001,-972.168,19.531,0.0,0
1582147204.802,41.01600000000001,12.207,-972.168,2.441,0.0,0
1582147204.806,25.391,20.996,-972.168,-3.418,0.0,0
1582147204.809,5.859,48.34,-972.168,23.438,0.0,0
1582147204.813,12.207,55.664,-972.168,31.25,0.0,0
1582147204.8170002,44.434,46.875,-972.168,43.945,0.0,0
1582147204.821,41.992,32.227,-972.168,43.945,0.0,0
1582147204.825,12.207,38.086,-972.168,20.996,0.0,0
1582147204.842,15.137,36.133,-972.168,27.832,0.0,0
1582147204.846,31.738000000000003,25.391,-972.168,24.414,0.0,0
1582147204.85,28.809,41.992,-972.168,22.949,0.0,0
1582147204.854,14.16,44.922,-972.168,25.879,0.0,0
1582147204.8579998,17.578,27.832,-972.168,25.391,0.0,0
1582147204.8620002,38.574,7.812,-972.168,33.691,0.0,0
1582147204.8660002,38.574,22.949,-972.168,26.855,0.0,0
1582147204.869,23.438,55.176,-972.168,21.484,0.0,0
1582147204.873,19.531,50.293,-972.168,28.809,0.0,0
1582147204.877,27.832,54.688,-972.168,34.668,0.0,0
1582147204.881,36.133,64.453,-972.168,29.785,0.0,0
1582147204.885,23.438,60.059,-972.168,17.578,0.0,0
1582147204.887,5.859,42.48,-972.168,19.531,0.0,0
1582147204.891,8.789,37.598,-972.168,20.996,0.0,0
1582147204.895,19.043,50.78100000000001,-972.168,15.137,0.0,0
1582147204.899,33.203,48.34,-972.168,20.02,0.0,0
1582147204.903,30.762,38.574,-972.168,32.715,0.0,0
1582147204.907,23.438,24.902,-972.168,38.086,0.0,0
1582147204.911,29.297,36.133,-972.168,31.738000000000003,0.0,0
1582147204.914,33.203,56.64100000000001,-972.168,21.484,0.0,0
1582147204.918,30.762,36.621,-972.168,27.832,0.0,0
1582147204.9220002,25.879,28.32,-972.168,31.738000000000003,0.0,0
1582147204.926,12.695,60.059,-972.168,37.598,0.0,0
1582147204.93,8.789,54.688,-972.168,20.508000000000006,0.0,0
1582147204.9320002,3.418,25.879,-972.168,12.207,0.0,0
1582147204.936,-10.742,36.133,-972.168,28.809,0.0,0
1582147204.94,-4.883,52.246,-972.168,14.16,0.0,0
1582147204.944,17.09,47.363,-972.168,10.742,0.0,0
1582147204.948,19.043,43.457,-972.168,11.719,0.0,0
1582147204.952,13.672,45.898,-972.168,12.695,0.0,0
1582147204.956,23.926,54.199,-972.168,31.738000000000003,0.0,0
1582147204.959,30.273000000000003,48.828,-972.168,29.297,0.0,0
1582147204.9629998,36.133,20.996,-972.168,13.672,0.0,0
1582147204.967,29.785,35.156,-972.168,5.859,0.0,0
1582147204.971,23.926,61.523,-972.168,3.418,0.0,0
1582147204.975,37.109,46.875,-972.168,9.766,0.0,0
1582147204.9770002,56.152,42.969,-972.168,22.461,0.0,0
1582147204.981,72.266,47.363,-972.168,23.926,0.0,0
1582147204.985,49.316,39.062,-972.168,5.371,0.0,0
1582147204.9889998,39.062,24.414,-972.168,1.953,0.0,0
1582147204.9929998,62.012,31.25,-972.168,2.93,0.0,0
1582147204.9970002,56.64100000000001,41.504,-972.168,8.789,0.0,0
1582147205.0010002,39.551,37.109,-972.168,13.672,0.0,0
1582147205.004,41.504,10.254,-972.168,3.906,0.0,0
1582147205.008,70.312,9.766,-972.168,18.555,0.0,0
1582147205.012,72.75399999999998,51.27,-972.168,29.785,0.0,0
1582147205.016,43.457,62.012,-972.168,22.949,0.0,0
1582147205.02,33.203,39.062,-972.168,23.438,0.0,0
1582147205.022,41.992,33.203,-972.168,14.648,0.0,0
1582147205.026,48.828,42.48,-972.168,8.301,0.0,0
1582147205.03,46.387,37.109,-972.168,32.715,0.0,0
1582147205.034,39.062,31.25,-972.168,49.316,0.0,0
1582147205.038,43.945,25.879,-972.168,28.809,0.0,0
1582147205.042,47.852,14.16,-972.168,21.484,0.0,0
1582147205.046,33.203,26.367,-972.168,28.809,0.0,0
1582147205.049,34.18,26.367,-972.168,35.645,0.0,0
1582147205.053,43.945,28.32,-972.168,36.621,0.0,0
1582147205.0570002,60.547,36.621,-972.168,34.668,0.0,0
1582147205.061,62.012,28.809,-972.168,37.109,0.0,0
1582147205.065,24.414,25.879,-972.168,23.926,0.0,0
1582147205.0670002,20.508000000000006,36.621,-972.168,20.02,0.0,0
1582147205.071,41.992,55.664,-972.168,22.461,0.0,0
1582147205.075,41.992,36.621,-972.168,11.719,0.0,0
1582147205.079,20.508000000000006,15.625,-972.168,18.555,0.0,0
1582147205.083,15.137,23.926,-972.168,28.809,0.0,0
1582147205.087,27.832,26.367,-972.168,15.137,0.0,0
1582147205.091,25.879,23.438,-972.168,7.324,0.0,0
1582147205.094,4.395,26.855,-972.168,4.395,0.0,0
1582147205.0979998,-4.883,40.039,-972.168,6.836,0.0,0
1582147205.1020002,30.762,41.01600000000001,-972.168,20.508000000000006,0.0,0
1582147205.106,44.434,33.203,-972.168,34.18,0.0,0
1582147205.11,12.207,34.668,-972.168,19.043,0.0,0
1582147205.1120002,-17.09,40.527,-972.168,-0.977,0.0,0
1582147205.1160002,0.488,35.645,-972.168,15.137,0.0,0
1582147205.12,29.785,41.992,-972.168,18.066,0.0,0
1582147205.1239998,18.555,39.551,-972.168,14.16,0.0,0
1582147205.1279998,4.395,23.926,-972.168,21.484,0.0,0
1582147205.1320002,13.184,23.438,-972.168,36.621,0.0,0
1582147205.1360002,27.344,24.414,-972.168,17.578,0.0,0
1582147205.139,20.996,24.414,-972.168,-6.836,0.0,0
1582147205.143,5.371,39.551,-972.168,2.441,0.0,0
1582147205.147,-15.137,42.48,-972.168,-1.953,0.0,0
1582147205.151,10.742,34.668,-972.168,6.836,0.0,0
1582147205.155,31.738000000000003,34.18,-972.168,2.441,0.0,0
1582147205.157,15.625,20.02,-972.168,-5.859,0.0,0
1582147205.161,15.137,20.02,-972.168,17.09,0.0,0
1582147205.165,33.203,32.715,-972.168,30.273000000000003,0.0,0
1582147205.169,35.156,49.805,-972.168,19.043,0.0,0
1582147205.173,25.391,62.5,-972.168,12.695,0.0,0
1582147205.177,18.555,48.828,-972.168,28.32,0.0,0
1582147205.181,14.648,35.645,-972.168,24.902,0.0,0
1582147205.184,21.484,60.059,-972.168,6.836,0.0,0
1582147205.188,22.949,64.453,-972.168,21.484,0.0,0
1582147205.1920002,18.555,41.504,-972.168,33.203,0.0,0
1582147205.196,18.066,50.78100000000001,-972.168,30.762,0.0,0
1582147205.2,16.602,64.941,-972.168,43.457,0.0,0
1582147205.217,21.973000000000006,59.082,-972.168,40.039,0.0,0
1582147205.221,17.578,41.992,-972.168,36.621,0.0,0
1582147205.225,16.113,49.316,-972.168,50.293,0.0,0
1582147205.229,31.25,75.684,-972.168,33.691,0.0,0
1582147205.2329998,35.645,79.102,-972.168,23.926,0.0,0
1582147205.2370002,18.555,39.551,-972.168,20.996,0.0,0
1582147205.2410002,12.695,41.992,-972.168,10.254,0.0,0
1582147205.244,18.555,73.242,-972.168,10.742,0.0,0
1582147205.248,40.039,62.012,-972.168,18.066,0.0,0
1582147205.252,49.316,33.203,-972.168,8.789,0.0,0
1582147205.256,20.02,26.855,-972.168,7.812,0.0,0
1582147205.26,16.602,44.922,-972.168,29.785,0.0,0
1582147205.262,33.691,47.852,-972.168,9.766,0.0,0
1582147205.266,44.922,58.105,-972.168,5.859,0.0,0
1582147205.27,29.785,79.59,-972.168,29.785,0.0,0
1582147205.274,16.602,67.87100000000001,-972.168,26.367,0.0,0
1582147205.278,25.879,52.246,-972.168,21.484,0.0,0
1582147205.282,27.344,46.875,-972.168,15.625,0.0,0
1582147205.286,17.09,47.852,-972.168,10.742,0.0,0
1582147205.289,8.301,49.316,-972.168,27.832,0.0,0
1582147205.293,17.578,26.855,-972.168,33.203,0.0,0
1582147205.2970002,20.508000000000006,13.184,-972.168,20.02,0.0,0
1582147205.301,11.23,52.246,-972.168,16.602,0.0,0
1582147205.305,4.883,64.453,-972.168,21.484,0.0,0
1582147205.3070002,20.508000000000006,50.78100000000001,-972.168,36.133,0.0,0
1582147205.311,31.25,56.152,-972.168,41.504,0.0,0
1582147205.315,13.184,49.805,-972.168,24.414,0.0,0
1582147205.319,1.953,40.039,-972.168,4.395,0.0,0
1582147205.323,16.602,37.109,-972.168,10.254,0.0,0
1582147205.327,31.738000000000003,26.367,-972.168,28.32,0.0,0
1582147205.331,30.273000000000003,29.785,-972.168,28.32,0.0,0
1582147205.334,20.996,46.875,-972.168,22.949,0.0,0
1582147205.3379998,20.996,24.414,-972.168,19.043,0.0,0
1582147205.342,39.551,17.578,-972.168,15.625,0.0,0
1582147205.346,39.062,52.246,-972.168,17.578,0.0,0
1582147205.35,17.09,48.828,-972.168,28.32,0.0,0
1582147205.3520002,7.324,47.363,-972.168,27.832,0.0,0
1582147205.356,28.809,54.199,-972.168,18.066,0.0,0
1582147205.36,38.086,45.41,-972.168,15.137,0.0,0
1582147205.3639998,15.625,37.109,-972.168,8.789,0.0,0
1582147205.3679998,9.277,32.227,-972.168,18.066,0.0,0
1582147205.3720002,36.133,35.645,-972.168,32.715,0.0,0
1582147205.3760002,47.852,34.668,-972.168,33.691,0.0,0
1582147205.379,37.109,20.02,-972.168,29.297,0.0,0
1582147205.383,16.602,11.23,-972.168,18.066,0.0,0
1582147205.387,7.812,43.457,-972.168,18.066,0.0,0
1582147205.391,25.879,63.965,-972.168,29.297,0.0,0
1582147205.395,33.691,28.32,-972.168,34.18,0.0,0
1582147205.396,20.996,16.602,-972.168,37.109,0.0,0
1582147205.4,16.113,46.387,-972.168,31.738000000000003,0.0,0
1582147205.404,28.809,49.316,-972.168,20.996,0.0,0
1582147205.408,32.715,39.062,-972.168,17.578,0.0,0
1582147205.4120002,26.367,31.25,-972.168,16.602,0.0,0
1582147205.416,26.855,23.438,-972.168,26.855,0.0,0
1582147205.42,37.109,40.039,-972.168,32.227,0.0,0
1582147205.423,41.504,32.227,-972.168,15.137,0.0,0
1582147205.427,26.367,27.832,-972.168,7.324,0.0,0
1582147205.431,5.371,53.223,-972.168,16.602,0.0,0
1582147205.435,16.113,40.527,-972.168,18.555,0.0,0
1582147205.439,35.156,31.738000000000003,-972.168,17.09,0.0,0
1582147205.441,30.762,42.969,-972.168,24.902,0.0,0
1582147205.445,20.02,48.828,-972.168,17.09,0.0,0
1582147205.449,28.809,33.691,-972.168,21.484,0.0,0
1582147205.4529998,37.109,36.133,-972.168,20.02,0.0,0
1582147205.457,51.758,40.527,-972.168,11.719,0.0,0
1582147205.461,52.246,38.574,-972.168,28.809,0.0,0
1582147205.465,15.137,40.039,-972.168,23.438,0.0,0
1582147205.468,11.719,30.273000000000003,-972.168,-3.418,0.0,0
1582147205.472,24.902,50.78100000000001,-972.168,7.324,0.0,0
1582147205.476,20.02,48.828,-972.168,26.367,0.0,0
1582147205.48,17.09,32.715,-972.168,34.18,0.0,0
1582147205.484,27.832,42.969,-972.168,36.133,0.0,0
1582147205.486,38.086,44.922,-972.168,36.133,0.0,0
1582147205.49,27.832,31.25,-972.168,26.367,0.0,0
1582147205.494,18.555,19.043,-972.168,27.344,0.0,0
1582147205.498,25.391,38.574,-972.168,29.297,0.0,0
1582147205.502,32.715,53.71100000000001,-972.168,16.113,0.0,0
1582147205.506,18.555,35.645,-972.168,10.742,0.0,0
1582147205.51,14.16,27.344,-972.168,19.531,0.0,0
1582147205.5129998,30.762,41.992,-972.168,22.461,0.0,0
1582147205.5170002,29.297,48.34,-972.168,12.695,0.0,0
1582147205.521,19.531,34.18,-972.168,1.465,0.0,0
1582147205.525,11.719,35.645,-972.168,7.324,0.0,0
1582147205.529,15.625,34.668,-972.168,28.32,0.0,0
1582147205.531,37.109,47.363,-972.168,36.621,0.0,0
1582147205.535,46.387,50.293,-972.168,27.832,0.0,0
1582147205.539,22.461,34.18,-972.168,11.719,0.0,0
1582147205.543,-1.465,34.18,-972.168,9.766,0.0,0
1582147205.5470002,14.16,41.504,-972.168,17.578,0.0,0
1582147205.551,36.621,36.133,-972.168,22.949,0.0,0
1582147205.555,21.484,39.062,-972.168,19.531,0.0,0
1582147205.5579998,4.395,51.758,-972.168,11.719,0.0,0
1582147205.562,16.113,40.527,-972.168,23.438,0.0,0
1582147205.566,18.555,37.598,-972.168,21.484,0.0,0
1582147205.57,12.207,42.969,-972.168,4.883,0.0,0
1582147205.574,11.719,49.316,-972.168,6.836,0.0,0
1582147205.591,9.277,52.246,-972.168,27.344,0.0,0
1582147205.595,22.461,43.457,-972.168,29.785,0.0,0
1582147205.599,28.809,38.574,-972.168,14.16,0.0,0
1582147205.603,12.207,41.01600000000001,-972.168,21.973000000000006,0.0,2
1582147205.607,5.371,46.387,-972.168,34.668,0.0,0
1582147205.611,8.301,25.879,-972.168,32.715,0.0,0
1582147205.615,17.578,25.391,-972.168,21.484,0.0,0
1582147205.6179998,22.949,48.34,-972.168,35.156,0.0,0
1582147205.6220002,12.695,41.01600000000001,-972.168,46.387,0.0,0
1582147205.6260002,18.066,28.32,-972.168,22.461,0.0,0
1582147205.63,28.32,51.758,-972.168,10.254,0.0,0
1582147205.6339998,28.809,55.176,-972.168,10.254,0.0,0
1582147205.6360002,31.25,30.273000000000003,-972.168,8.789,0.0,0
1582147205.64,23.438,32.715,-972.168,13.672,0.0,0
1582147205.644,33.203,45.41,-972.168,26.367,0.0,0
1582147205.6479998,52.734,46.875,-972.168,25.391,0.0,0
1582147205.6520002,61.035,41.01600000000001,-972.168,18.555,0.0,0
1582147205.656,50.78100000000001,29.785,-972.168,21.484,0.0,0
1582147205.66,50.78100000000001,33.203,-972.168,4.883,0.0,0
1582147205.663,58.594,51.758,-972.168,0.977,0.0,0
1582147205.667,51.758,30.273000000000003,-972.168,12.207,0.0,0
1582147205.671,46.875,12.695,-972.168,14.16,0.0,0
1582147205.675,46.875,45.41,-972.168,21.973000000000006,0.0,0
1582147205.679,53.71100000000001,43.457,-972.168,19.531,0.0,0
1582147205.681,48.828,17.09,-972.168,17.09,0.0,0
1582147205.685,28.32,23.438,-972.168,28.809,0.0,0
1582147205.689,36.621,26.367,-972.168,31.738000000000003,0.0,0
1582147205.6929998,72.266,19.043,-972.168,45.41,0.0,0
1582147205.697,67.87100000000001,17.578,-972.168,43.457,0.0,0
1582147205.701,24.414,29.297,-972.168,21.973000000000006,0.0,0
1582147205.705,13.672,44.922,-972.168,18.555,0.0,0
1582147205.708,22.461,52.734,-972.168,16.602,0.0,0
1582147205.712,20.02,22.949,-972.168,5.371,0.0,0
1582147205.716,20.508000000000006,10.742,-972.168,21.484,0.0,0
1582147205.72,28.809,34.668,-972.168,43.945,0.0,0
1582147205.724,39.062,35.645,-972.168,42.48,0.0,0
1582147205.726,38.574,31.25,-972.168,37.598,0.0,0
1582147205.73,27.832,32.227,-972.168,25.391,0.0,0
1582147205.734,28.32,42.48,-972.168,32.715,0.0,0
1582147205.738,34.18,39.062,-972.168,33.691,0.0,0
1582147205.742,35.156,34.668,-972.168,19.043,0.0,0
1582147205.746,29.785,40.039,-972.168,19.531,0.0,0
1582147205.75,18.555,43.457,-972.168,24.902,0.0,0
1582147205.7529998,26.367,41.992,-972.168,29.297,0.0,0
1582147205.7570002,32.227,32.227,-972.168,17.09,0.0,0
1582147205.7610002,20.996,48.34,-972.168,4.883,0.0,0
1582147205.765,16.602,62.988,-972.168,15.137,0.0,0
1582147205.769,14.648,60.547,-972.168,15.625,0.0,0
1582147205.771,24.414,55.176,-972.168,12.207,0.0,0
1582147205.775,32.715,50.293,-972.168,27.344,0.0,0
1582147205.779,9.766,43.945,-972.168,24.414,0.0,0
1582147205.783,-8.789,39.551,-972.168,16.602,0.0,0
1582147205.7870002,2.93,36.133,-972.168,14.648,0.0,0
1582147205.791,25.879,22.949,-972.168,23.926,0.0,0
1582147205.795,28.32,36.621,-972.168,48.828,0.0,0
1582147205.798,24.902,52.246,-972.168,48.34,0.0,0
1582147205.802,14.648,43.945,-972.168,36.621,0.0,0
1582147205.806,10.742,49.316,-972.168,18.066,0.0,0
1582147205.81,14.648,44.434,-972.168,8.789,0.0,0
1582147205.814,-6.348,34.668,-972.168,11.23,0.0,0
1582147205.8170002,4.395,40.527,-972.168,12.695,0.0,0
1582147205.821,32.715,53.223,-972.168,14.16,0.0,0
1582147205.825,31.25,51.758,-972.168,20.02,0.0,0
1582147205.829,11.719,41.504,-972.168,18.066,0.0,0
1582147205.833,11.23,30.762,-972.168,15.625,0.0,0
1582147205.837,30.762,21.484,-972.168,20.996,0.0,0
1582147205.841,33.203,31.738000000000003,-972.168,24.414,0.0,0
1582147205.844,23.438,42.48,-972.168,27.832,0.0,0
1582147205.8479998,20.508000000000006,51.27,-972.168,20.02,0.0,0
1582147205.8520002,17.09,50.293,-972.168,25.879,0.0,0
1582147205.856,16.602,29.785,-972.168,24.414,0.0,0
1582147205.86,18.066,24.902,-972.168,19.531,0.0,0
1582147205.8620002,5.371,37.598,-972.168,23.926,0.0,0
1582147205.8660002,7.324,42.48,-972.168,28.809,0.0,0
1582147205.87,28.32,32.715,-972.168,40.039,0.0,0
1582147205.8739998,17.09,36.621,-972.168,25.879,0.0,0
1582147205.8779998,-1.953,30.273000000000003,-972.168,11.23,0.0,0
1582147205.8820002,13.184,13.184,-972.168,23.926,0.0,0
1582147205.8860002,35.645,-0.488,-972.168,29.297,0.0,0
1582147205.889,35.156,13.672,-972.168,16.113,0.0,0
1582147205.893,12.695,49.316,-972.168,11.23,0.0,0
1582147205.897,7.324,48.34,-972.168,6.348,0.0,0
1582147205.901,15.137,36.133,-972.168,10.742,0.0,0
1582147205.905,22.949,33.691,-972.168,9.766,0.0,0
1582147205.907,20.996,43.457,-972.168,0.488,0.0,0
1582147205.911,15.137,38.574,-972.168,13.184,0.0,0
1582147205.915,30.273000000000003,29.297,-972.168,10.254,0.0,0
1582147205.919,50.78100000000001,38.086,-972.168,8.789,0.0,0
1582147205.923,38.574,31.738000000000003,-972.168,18.555,0.0,0
1582147205.927,12.207,10.254,-972.168,12.207,0.0,0
1582147205.931,14.648,7.812,-972.168,4.395,0.0,0
1582147205.934,31.738000000000003,45.898,-972.168,18.066,0.0,0
1582147205.938,25.879,59.57,-972.168,18.555,0.0,0
1582147205.9420002,8.301,36.133,-972.168,24.902,0.0,0
1582147205.946,15.625,29.297,-972.168,37.598,0.0,0
1582147205.95,34.668,38.574,-972.168,18.066,0.0,0
1582147205.967,41.504,41.01600000000001,-972.168,22.949,0.0,0
1582147205.971,34.18,26.855,-972.168,39.551,0.0,0
1582147205.975,20.02,24.414,-972.168,33.203,0.0,0
1582147205.979,23.926,28.809,-972.168,16.113,0.0,0
1582147205.9829998,30.762,15.137,-972.168,10.742,0.0,0
1582147205.9870002,31.25,-0.488,-972.168,19.531,0.0,0
1582147205.9910002,32.715,13.184,-972.168,21.484,0.0,0
1582147205.994,42.48,38.086,-972.168,28.32,0.0,0
1582147205.998,61.035,47.363,-972.168,23.926,0.0,0
1582147206.002,50.293,29.297,-972.168,16.602,0.0,0
1582147206.006,39.062,30.273000000000003,-972.168,26.367,0.0,0
1582147206.01,56.64100000000001,51.27,-972.168,40.527,0.0,0
1582147206.012,73.73,19.531,-972.168,32.227,0.0,0
1582147206.016,55.664,10.254,-972.168,20.508000000000006,0.0,0
1582147206.02,22.949,21.973000000000006,-972.168,7.812,0.0,0
1582147206.024,14.648,27.344,-972.168,0.977,0.0,0
1582147206.028,41.01600000000001,28.32,-972.168,24.414,0.0,0
1582147206.032,54.688,13.672,-972.168,34.668,0.0,0
1582147206.036,38.574,35.156,-972.168,31.25,0.0,0
1582147206.039,31.738000000000003,51.758,-972.168,42.48,0.0,0
1582147206.043,35.645,21.484,-972.168,32.715,0.0,0
1582147206.0470002,45.898,9.766,-972.168,0.977,0.0,0
1582147206.051,52.246,41.992,-972.168,14.648,0.0,0
1582147206.055,43.945,55.664,-972.168,46.387,0.0,0
1582147206.0570002,36.133,35.645,-972.168,39.551,0.0,0
1582147206.061,42.969,20.996,-972.168,20.02,0.0,0
1582147206.065,40.039,29.785,-972.168,22.461,0.0,0
1582147206.069,26.367,40.527,-972.168,37.109,0.0,0
1582147206.073,34.18,31.738000000000003,-972.168,38.574,0.0,0
1582147206.077,51.27,23.438,-972.168,28.32,0.0,0
1582147206.081,54.688,37.109,-972.168,24.902,0.0,0
1582147206.084,43.945,48.34,-972.168,34.18,0.0,0
1582147206.0879998,40.527,19.531,-972.168,27.832,0.0,0
1582147206.092,62.5,23.926,-972.168,28.809,0.0,0
1582147206.096,53.223,53.71100000000001,-972.168,24.902,0.0,0
1582147206.1,27.832,25.391,-972.168,16.113,0.0,0
1582147206.1020002,30.273000000000003,31.738000000000003,-972.168,36.621,0.0,0
1582147206.106,33.203,53.71100000000001,-972.168,25.391,0.0,0
1582147206.11,39.062,42.969,-972.168,-0.488,0.0,0
1582147206.1139998,36.621,38.574,-972.168,9.766,0.0,0
1582147206.1179998,25.391,32.715,-972.168,20.996,0.0,0
1582147206.1220002,28.809,15.137,-972.168,21.973000000000006,0.0,0
1582147206.1260002,37.109,19.531,-972.168,15.137,0.0,0
1582147206.129,35.156,26.855,-972.168,9.766,0.0,0
1582147206.133,30.273000000000003,20.02,-972.168,10.742,0.0,0
1582147206.137,38.574,47.852,-972.168,12.207,0.0,0
1582147206.141,47.363,59.082,-972.168,18.066,0.0,0
1582147206.145,43.457,31.738000000000003,-972.168,20.508000000000006,0.0,0
1582147206.147,26.367,35.645,-972.168,23.926,0.0,0
1582147206.151,17.09,60.059,-972.168,35.156,0.0,0
1582147206.155,25.879,42.48,-972.168,23.438,0.0,0
1582147206.159,41.01600000000001,37.109,-972.168,21.973000000000006,0.0,0
1582147206.163,36.621,50.78100000000001,-972.168,36.621,0.0,0
1582147206.167,4.883,29.785,-972.168,7.812,0.0,0
1582147206.171,7.324,41.01600000000001,-972.168,-5.371,0.0,0
1582147206.174,42.969,34.668,-972.168,2.441,0.0,0
1582147206.178,32.227,31.25,-972.168,2.441,0.0,0
1582147206.1820002,10.254,66.406,-972.168,13.672,0.0,0
1582147206.186,22.461,49.805,-972.168,23.438,0.0,0
1582147206.19,29.785,35.156,-972.168,15.137,0.0,0
1582147206.1920002,30.273000000000003,37.109,-972.168,8.789,0.0,0
1582147206.196,16.113,28.809,-972.168,17.578,0.0,0
1582147206.2,10.254,18.555,-972.168,13.672,0.0,0
1582147206.204,17.578,34.18,-972.168,-7.812,0.0,0
1582147206.208,3.418,51.27,-972.168,-12.695,0.0,0
1582147206.212,-3.906,41.992,-972.168,-1.465,0.0,0
1582147206.216,-5.859,20.996,-972.168,10.254,0.0,0
1582147206.219,4.395,17.09,-972.168,4.395,0.0,0
1582147206.2229998,15.625,42.969,-972.168,4.883,0.0,0
1582147206.2270002,14.648,46.387,-972.168,26.855,0.0,0
1582147206.231,6.348,28.32,-972.168,30.273000000000003,0.0,0
1582147206.235,14.648,38.086,-972.168,37.109,0.0,0
1582147206.2370002,25.879,49.805,-972.168,34.668,0.0,0
1582147206.2410002,16.602,44.922,-972.168,32.715,0.0,0
1582147206.245,5.859,40.527,-972.168,47.852,0.0,0
1582147206.2489998,2.441,45.41,-972.168,31.25,0.0,0
1582147206.2529998,11.23,39.551,-972.168,20.508000000000006,0.0,0
1582147206.2570002,18.555,11.719,-972.168,27.344,0.0,0
1582147206.2610002,-1.465,0.977,-972.168,18.066,0.0,0
1582147206.264,-20.508000000000006,13.184,-972.168,6.348,0.0,0
1582147206.268,8.301,31.25,-972.168,4.395,0.0,0
1582147206.272,26.855,34.18,-972.168,1.953,0.0,0
1582147206.276,11.23,35.645,-972.168,11.719,0.0,0
1582147206.28,6.348,39.551,-972.168,9.766,0.0,0
1582147206.282,30.273000000000003,43.945,-972.168,12.695,0.0,0
1582147206.286,28.809,28.809,-972.168,-0.488,0.0,0
1582147206.29,6.836,26.367,-972.168,-8.789,0.0,0
1582147206.294,17.578,40.527,-972.168,1.465,0.0,0
1582147206.298,60.547,42.48,-972.168,24.414,0.0,0
1582147206.302,73.242,22.461,-972.168,33.691,0.0,0
1582147206.306,47.852,6.348,-972.168,0.977,0.0,0
1582147206.309,40.039,29.297,-972.168,6.836,0.0,0
1582147206.313,46.387,31.25,-972.168,21.973000000000006,0.0,0
1582147206.3170002,58.594,6.836,-972.168,6.836,0.0,0
1582147206.321,51.758,24.902,-972.168,-7.324,0.0,0
1582147206.325,24.414,40.039,-972.168,-0.977,0.0,0
1582147206.342,29.297,33.203,-972.168,18.555,0.0,0
1582147206.346,50.293,26.367,-972.168,18.555,0.0,0
1582147206.35,53.223,20.02,-972.168,16.113,0.0,0
1582147206.354,41.992,34.668,-972.168,21.484,0.0,0
1582147206.3579998,28.809,38.574,-972.168,29.785,0.0,0
1582147206.3620002,29.297,14.648,-972.168,36.133,0.0,0
1582147206.3660002,32.715,13.672,-972.168,22.461,0.0,0
1582147206.369,22.949,37.598,-972.168,23.926,0.0,0
1582147206.373,22.461,32.227,-972.168,28.32,0.0,0
1582147206.377,35.645,10.742,-972.168,23.438,0.0,0
1582147206.381,43.457,22.949,-972.168,32.227,0.0,0
1582147206.385,27.344,45.898,-972.168,25.391,0.0,0
1582147206.387,10.254,32.715,-972.168,13.672,0.0,0
1582147206.391,13.184,23.926,-972.168,10.254,0.0,0
1582147206.395,30.762,22.949,-972.168,10.742,0.0,0
1582147206.399,26.367,27.344,-972.168,18.555,0.0,0
1582147206.403,1.465,31.738000000000003,-972.168,10.254,0.0,0
1582147206.407,15.625,25.391,-972.168,6.836,0.0,0
1582147206.411,32.227,41.01600000000001,-972.168,4.883,0.0,0
1582147206.414,21.973000000000006,42.969,-972.168,12.207,0.0,0
1582147206.418,21.484,20.508000000000006,-972.168,29.785,0.0,0
1582147206.4220002,9.766,14.16,-972.168,24.902,0.0,0
1582147206.426,19.043,44.434,-972.168,19.531,0.0,0
1582147206.43,35.156,50.293,-972.168,20.996,0.0,0
1582147206.4320002,15.625,23.926,-972.168,13.672,0.0,0
1582147206.436,0.977,22.949,-972.168,28.32,0.0,0
1582147206.44,0.977,29.785,-972.168,32.227,0.0,0
1582147206.444,16.602,25.391,-972.168,30.273000000000003,0.0,0
1582147206.448,14.16,23.926,-972.168,30.273000000000003,0.0,0
1582147206.452,-1.953,25.391,-972.168,18.555,0.0,0
1582147206.456,-4.395,30.273000000000003,-972.168,28.809,0.0,0
1582147206.459,-1.953,41.504,-972.168,16.602,0.0,0
1582147206.4629998,9.766,24.902,-972.168,10.254,0.0,0
1582147206.467,9.766,22.949,-972.168,24.902,0.0,0
1582147206.471,1.953,47.852,-972.168,22.461,0.0,0
1582147206.475,18.555,46.387,-972.168,15.137,0.0,0
1582147206.4770002,12.207,37.109,-972.168,4.395,0.0,0
1582147206.481,6.836,20.02,-972.168,9.277,0.0,0
1582147206.485,15.137,24.414,-972.168,18.066,0.0,0
1582147206.4889998,25.391,33.203,-972.168,19.531,0.0,0
1582147206.4929998,26.367,29.297,-972.168,16.113,0.0,0
1582147206.4970002,14.648,25.879,-972.168,6.348,0.0,0
1582147206.5010002,14.648,28.809,-972.168,9.277,0.0,0
1582147206.504,27.832,29.297,-972.168,25.391,0.0,0
1582147206.508,36.621,18.555,-972.168,32.715,0.0,0
1582147206.512,19.043,39.551,-972.168,10.254,0.0,0
1582147206.516,-3.906,56.152,-972.168,-0.977,0.0,0
1582147206.52,-0.977,41.504,-972.168,8.789,0.0,0
1582147206.522,16.602,37.598,-972.168,13.672,0.0,0
1582147206.526,17.09,47.363,-972.168,14.648,0.0,0
1582147206.53,4.883,31.25,-972.168,22.949,0.0,0
1582147206.534,-3.906,16.113,-972.168,22.461,0.0,0
1582147206.538,2.93,29.785,-972.168,24.414,0.0,0
1582147206.542,20.996,30.762,-972.168,17.578,0.0,0
1582147206.546,9.277,30.762,-972.168,9.277,0.0,0
1582147206.549,0.488,14.16,-972.168,18.555,0.0,0
1582147206.553,24.902,18.555,-972.168,22.949,0.0,0
1582147206.5570002,28.32,54.688,-972.168,16.602,0.0,0
1582147206.561,12.695,41.504,-972.168,0.488,0.0,0
1582147206.565,-4.395,34.668,-972.168,-0.977,0.0,0
1582147206.5670002,6.836,46.387,-972.168,8.301,0.0,0
1582147206.571,29.785,49.316,-972.168,14.16,0.0,0
1582147206.575,19.531,34.18,-972.168,19.043,0.0,0
1582147206.579,10.742,33.203,-972.168,5.859,0.0,0
1582147206.583,19.043,35.645,-972.168,11.23,0.0,0
1582147206.587,20.508000000000006,16.113,-972.168,22.461,0.0,0
1582147206.591,19.043,7.324,-972.168,13.672,0.0,0
1582147206.594,18.066,14.16,-972.168,14.16,0.0,0
1582147206.5979998,7.324,40.039,-972.168,6.836,0.0,0
1582147206.6020002,21.973000000000006,58.594,-972.168,19.531,0.0,0
1582147206.606,29.785,40.039,-972.168,23.926,0.0,0
1582147206.61,5.859,22.949,-972.168,23.926,0.0,0
1582147206.611,2.441,30.762,-972.168,35.156,0.0,0
1582147206.615,19.043,39.062,-972.168,31.738000000000003,0.0,0
1582147206.619,34.18,42.48,-972.168,31.738000000000003,0.0,0
1582147206.623,32.227,43.945,-972.168,23.926,0.0,0
1582147206.627,20.996,24.902,-972.168,34.668,0.0,0
1582147206.631,18.066,14.648,-972.168,43.457,0.0,0
1582147206.635,36.133,21.973000000000006,-972.168,31.25,0.0,0
1582147206.6379998,28.809,32.715,-972.168,17.09,0.0,0
1582147206.6420002,-3.906,37.109,-972.168,10.254,0.0,0
1582147206.646,2.441,30.762,-972.168,14.16,0.0,0
1582147206.65,35.156,43.457,-972.168,22.461,0.0,0
1582147206.654,41.992,53.223,-972.168,12.207,0.0,0
1582147206.656,30.762,46.875,-972.168,10.742,0.0,0
1582147206.66,15.137,23.438,-972.168,19.531,0.0,0
1582147206.664,17.578,18.555,-972.168,18.555,0.0,0
1582147206.668,57.129,35.645,-972.168,39.062,0.0,0
1582147206.6720002,54.199,29.785,-972.168,47.852,0.0,0
1582147206.676,17.578,13.672,-972.168,15.625,0.0,0
1582147206.68,16.113,15.137,-972.168,19.531,0.0,0
1582147206.6829998,30.273000000000003,46.875,-972.168,20.02,0.0,0
1582147206.687,29.297,59.57,-972.168,8.789,0.0,0
1582147206.691,21.973000000000006,45.898,-972.168,20.996,0.0,0
1582147206.695,17.578,37.598,-972.168,20.508000000000006,0.0,0
1582147206.699,34.668,45.41,-972.168,15.625,0.0,0
1582147206.716,47.852,40.039,-972.168,20.508000000000006,0.0,0
1582147206.72,38.086,23.926,-972.168,35.156,0.0,0
1582147206.724,38.574,29.297,-972.168,36.621,0.0,0
1582147206.728,45.898,37.598,-972.168,17.578,0.0,0
1582147206.732,39.062,38.086,-972.168,17.09,0.0,0
1582147206.736,16.602,12.207,-972.168,20.508000000000006,0.0,0
1582147206.74,17.578,30.762,-972.168,27.344,0.0,0
1582147206.7429998,35.156,61.523,-972.168,23.438,0.0,0
1582147206.7470002,41.992,44.434,-972.168,17.09,0.0,0
1582147206.7510002,40.527,27.832,-972.168,22.949,0.0,0
1582147206.755,26.855,31.738000000000003,-972.168,23.438,0.0,0
1582147206.7589998,18.066,48.34,-972.168,18.555,0.0,0
1582147206.7610002,35.645,35.156,-972.168,11.23,0.0,0
1582147206.765,37.109,28.809,-972.168,12.695,0.0,0
1582147206.769,20.996,36.621,-972.168,29.297,0.0,0
1582147206.7729998,20.996,40.527,-972.168,34.668,0.0,0
1582147206.7770002,34.668,40.039,-972.168,22.949,0.0,0
