timestamps,TP9,AF7,AF8,TP10,Right AUX,Marker0
1582311044.762,71.777,18.555,46.875,76.172,0.0,0
1582311044.766,72.75399999999998,29.297,41.504,63.965,0.0,0
1582311044.77,76.172,30.762,42.48,66.895,0.0,0
1582311044.774,62.012,17.578,45.41,76.66,0.0,0
1582311044.778,60.059,18.066,41.992,63.477,0.0,0
1582311044.782,73.73,27.344,38.574,55.176,0.0,0
1582311044.786,71.289,27.832,40.527,64.453,0.0,0
1582311044.789,69.824,27.832,39.062,63.965,0.0,0
1582311044.793,73.242,26.855,39.551,49.805,0.0,0
1582311044.7970002,62.988,27.832,37.598,50.78100000000001,0.0,0
1582311044.801,60.547,32.715,35.645,61.035,0.0,0
1582311044.805,61.035,32.715,38.086,52.246,0.0,0
1582311044.8070002,58.105,27.832,38.574,56.64100000000001,0.0,0
1582311044.811,61.523,26.855,39.062,66.406,0.0,0
1582311044.815,58.594,27.832,39.551,61.523,0.0,0
1582311044.819,64.941,28.809,39.062,55.176,0.0,0
1582311044.823,70.312,29.785,36.133,61.035,0.0,0
1582311044.827,62.5,31.25,34.18,60.059,0.0,0
1582311044.831,62.988,35.156,36.133,53.223,0.0,0
1582311044.834,61.035,33.691,34.668,59.082,0.0,0
1582311044.8379998,49.805,28.32,33.203,56.64100000000001,0.0,0
1582311044.842,52.246,28.809,34.668,55.664,0.0,0
1582311044.846,51.758,29.785,33.691,45.41,0.0,0
1582311044.85,45.41,26.855,39.062,45.41,0.0,0
1582311044.8520002,49.316,27.344,41.01600000000001,50.78100000000001,0.0,0
1582311044.856,61.035,32.227,34.18,50.78100000000001,0.0,0
1582311044.86,62.012,29.785,33.203,53.223,0.0,0
1582311044.8639998,51.758,29.785,36.133,50.78100000000001,0.0,0
1582311044.8679998,46.875,34.18,36.133,53.223,0.0,0
1582311044.8720002,43.945,33.691,34.668,27.344,0.0,0
1582311044.8760002,46.875,30.762,37.109,43.945,0.0,0
1582311044.879,44.922,29.785,39.551,62.012,0.0,0
1582311044.883,41.504,30.273000000000003,36.621,33.203,0.0,0
1582311044.887,50.293,33.691,33.203,57.129,0.0,0
1582311044.891,50.78100000000001,34.18,37.109,62.988,0.0,0
1582311044.895,46.875,32.715,38.574,47.363,0.0,0
1582311044.897,50.78100000000001,33.203,35.156,25.391,0.0,0
1582311044.901,50.78100000000001,34.668,29.297,26.367,0.0,0
1582311044.905,49.316,37.109,32.715,52.246,0.0,0
1582311044.909,42.969,35.156,38.086,47.852,0.0,0
1582311044.913,44.434,37.109,34.18,44.434,0.0,0
1582311044.917,47.852,41.01600000000001,27.344,32.715,0.0,0
1582311044.921,41.992,37.109,30.273000000000003,41.01600000000001,0.0,0
1582311044.924,41.01600000000001,36.621,33.203,31.25,0.0,0
1582311044.928,37.598,36.133,27.832,20.996,0.0,0
1582311044.9320002,38.086,32.715,31.25,38.574,0.0,0
1582311044.936,44.922,35.156,30.273000000000003,27.344,0.0,0
1582311044.94,37.109,37.598,24.902,21.484,0.0,0
1582311044.9420002,25.391,35.156,31.25,18.555,0.0,0
1582311044.946,21.484,33.203,35.156,7.812,0.0,0
1582311044.95,24.414,33.203,32.715,8.301,0.0,0
1582311044.954,29.785,33.203,31.738000000000003,24.414,0.0,0
1582311044.958,23.438,32.715,34.18,10.742,0.0,0
1582311044.962,14.648,37.109,32.227,-0.977,0.0,0
1582311044.966,12.695,36.133,34.668,8.789,0.0,0
1582311044.969,15.625,37.598,37.109,20.02,0.0,0
1582311044.9729998,6.348,36.133,34.668,11.719,0.0,0
1582311044.9770002,-4.395,33.203,31.738000000000003,-3.418,0.0,0
1582311044.981,-3.906,41.504,34.18,-5.859,0.0,0
1582311044.985,-15.137,40.527,35.645,-17.578,0.0,0
1582311044.9870002,-24.414,37.598,35.156,-22.949,0.0,0
1582311044.9910002,-24.414,38.574,40.527,-20.02,0.0,0
1582311044.995,-30.273000000000003,36.621,39.062,-24.902,0.0,0
1582311044.9989998,-24.902,43.457,35.645,-28.809,0.0,0
1582311045.0029998,-29.785,51.758,31.25,-39.551,0.0,0
1582311045.0070002,-52.734,53.71100000000001,26.855,-62.988,0.0,0
1582311045.0110002,-64.941,55.664,29.785,-68.848,0.0,0
1582311045.014,-85.449,60.059,27.344,-82.031,0.0,0
1582311045.018,-87.402,66.895,24.414,-101.562,0.0,0
1582311045.022,-85.449,69.336,23.438,-106.445,0.0,0
1582311045.026,-99.609,72.75399999999998,20.996,-109.863,0.0,0
1582311045.03,-97.656,75.684,16.113,-111.816,0.0,0
1582311045.032,-95.703,75.195,13.672,-119.141,0.0,0
1582311045.036,-104.004,74.219,11.23,-128.418,0.0,0
1582311045.04,-103.027,75.195,9.277,-133.789,0.0,0
1582311045.044,-103.516,73.73,11.719,-130.859,0.0,0
1582311045.048,-113.281,67.87100000000001,7.324,-136.23,0.0,0
1582311045.052,-114.258,69.336,2.441,-135.74200000000002,0.0,0
1582311045.056,-105.957,70.312,3.418,-131.836,0.0,0
1582311045.059,-98.145,70.312,2.441,-135.254,0.0,0
1582311045.063,-96.68,71.777,1.465,-131.836,0.0,0
1582311045.0670002,-94.727,71.777,0.0,-132.32399999999998,0.0,0
1582311045.071,-86.426,73.242,-2.441,-128.418,0.0,0
1582311045.075,-79.102,74.219,-0.977,-119.629,0.0,0
1582311045.077,-83.008,67.87100000000001,0.977,-116.211,0.0,0
1582311045.081,-77.148,64.453,0.977,-109.375,0.0,0
1582311045.085,-69.336,64.941,1.953,-104.492,0.0,0
1582311045.089,-58.105,65.43,0.977,-90.332,0.0,0
1582311045.093,-42.969,66.895,-1.953,-81.055,0.0,0
1582311045.097,-37.598,62.988,-1.465,-76.66,0.0,0
1582311045.101,-31.25,59.082,1.953,-67.383,0.0,0
1582311045.104,-27.344,59.082,4.883,-63.965,0.0,0
1582311045.1079998,-15.625,55.176,6.836,-50.78100000000001,0.0,0
1582311045.1120002,3.418,54.199,9.277,-38.086,0.0,0
1582311045.1160002,3.418,54.199,11.23,-32.227,0.0,0
1582311045.12,3.418,47.852,14.648,-20.508000000000006,0.0,0
1582311045.1379998,16.113,42.48,17.578,-8.789,0.0,0
1582311045.1420002,7.324,41.992,19.043,-1.465,0.0,0
1582311045.146,3.418,41.01600000000001,20.996,8.301,0.0,0
1582311045.15,43.457,39.551,24.902,22.461,0.0,0
1582311045.154,65.918,42.48,27.344,32.715,0.0,0
1582311045.158,54.688,40.039,27.344,32.715,0.0,0
1582311045.1620002,59.57,37.598,26.367,36.621,0.0,0
1582311045.165,63.965,33.691,28.32,49.316,0.0,0
1582311045.169,63.965,29.297,31.25,52.246,0.0,0
1582311045.173,65.43,28.809,33.691,59.57,0.0,0
1582311045.177,62.012,28.809,33.203,65.43,0.0,0
1582311045.181,75.684,29.297,31.25,67.383,0.0,0
1582311045.1829998,90.82,32.715,32.227,74.707,0.0,0
1582311045.187,88.867,33.691,32.227,73.73,0.0,0
1582311045.191,87.891,32.227,32.227,71.289,0.0,0
1582311045.195,81.055,32.227,31.25,73.73,0.0,0
1582311045.199,77.637,31.25,30.762,75.684,0.0,0
1582311045.2029998,94.238,31.738000000000003,31.738000000000003,74.707,0.0,0
1582311045.207,94.238,31.25,29.297,68.848,0.0,0
1582311045.21,84.473,29.297,32.227,71.289,0.0,0
1582311045.214,76.66,28.809,35.156,70.801,0.0,0
1582311045.218,71.289,29.297,32.715,65.43,0.0,0
1582311045.222,72.266,25.879,32.227,63.477,0.0,0
1582311045.226,67.87100000000001,25.391,32.715,58.594,0.0,0
1582311045.244,65.43,27.344,31.738000000000003,58.105,0.0,0
1582311045.248,72.266,27.344,30.273000000000003,62.012,0.0,0
1582311045.252,73.242,28.32,28.32,64.453,0.0,0
1582311045.256,72.75399999999998,27.344,29.297,62.5,0.0,0
1582311045.26,78.613,25.391,30.762,69.824,0.0,0
1582311045.264,81.055,27.832,31.25,72.75399999999998,0.0,0
1582311045.268,71.777,27.832,31.738000000000003,66.895,0.0,0
1582311045.271,65.43,24.414,34.18,72.75399999999998,0.0,0
1582311045.275,62.988,27.832,35.645,69.336,0.0,0
1582311045.279,65.43,29.297,34.18,63.965,0.0,0
1582311045.283,67.87100000000001,25.879,34.668,73.242,0.0,0
1582311045.2870002,81.055,28.809,35.156,73.242,0.0,0
1582311045.2729998,87.891,30.762,33.203,67.383,0.0,0
1582311045.2770002,71.777,29.785,32.227,61.523,0.0,0
1582311045.281,73.73,30.762,32.715,59.082,0.0,0
1582311045.285,70.801,30.273000000000003,33.691,56.64100000000001,0.0,0
1582311045.289,62.5,28.809,33.691,53.223,0.0,0
1582311045.293,67.87100000000001,27.344,31.738000000000003,54.199,0.0,0
1582311045.2970002,67.87100000000001,30.273000000000003,31.25,52.734,0.0,0
1582311045.3,67.383,32.715,31.25,50.293,0.0,0
1582311045.304,61.523,33.691,30.762,47.363,0.0,0
1582311045.3079998,56.152,30.762,30.273000000000003,39.551,0.0,0
1582311045.312,48.828,29.297,28.809,36.133,0.0,0
1582311045.316,49.316,31.738000000000003,31.25,40.527,0.0,0
1582311045.3179998,53.223,28.809,32.227,34.18,0.0,0
1582311045.322,36.621,27.344,32.227,27.344,0.0,0
1582311045.326,30.273000000000003,28.32,32.227,31.25,0.0,0
1582311045.33,37.109,28.809,30.273000000000003,26.367,0.0,0
1582311045.334,33.203,30.273000000000003,28.809,24.414,0.0,0
1582311045.3379998,42.48,29.785,31.738000000000003,27.832,0.0,0
1582311045.342,47.852,29.297,29.785,26.855,0.0,0
1582311045.345,47.852,31.25,28.809,32.715,0.0,0
1582311045.349,45.41,29.297,32.715,36.621,0.0,0
1582311045.353,42.48,29.785,33.691,38.086,0.0,0
1582311045.357,42.969,34.18,33.691,34.18,0.0,0
1582311045.361,46.387,34.668,35.156,29.785,0.0,0
1582311045.363,46.875,35.645,33.203,23.438,0.0,0
1582311045.367,42.48,34.18,29.785,19.043,0.0,0
1582311045.371,42.48,33.203,29.297,24.902,0.0,0
1582311045.375,44.922,35.156,27.832,23.438,0.0,0
1582311045.379,45.898,33.691,27.344,25.391,0.0,0
1582311045.383,54.688,33.203,28.32,39.062,0.0,0
1582311045.387,53.223,39.551,29.297,33.203,0.0,0
1582311045.39,62.012,47.363,29.785,21.484,0.0,0
1582311045.394,68.848,49.316,27.832,24.414,0.0,0
1582311045.3979998,59.082,49.805,25.879,34.668,0.0,0
1582311045.4020002,61.523,51.27,23.926,42.48,0.0,0
1582311045.406,72.75399999999998,56.64100000000001,18.066,41.01600000000001,0.0,0
1582311045.408,81.543,59.57,16.602,41.992,0.0,0
1582311045.4120002,88.867,58.105,15.625,55.176,0.0,0
1582311045.416,104.004,63.477,13.672,66.406,0.0,0
1582311045.42,108.398,64.941,16.113,64.941,0.0,0
1582311045.424,103.027,61.035,16.113,62.5,0.0,0
1582311045.428,108.398,58.594,16.113,63.965,0.0,0
1582311045.4320002,106.445,58.105,20.508000000000006,65.918,0.0,0
1582311045.435,95.703,57.617,21.973000000000006,65.43,0.0,0
1582311045.439,96.68,53.71100000000001,21.973000000000006,59.082,0.0,0
1582311045.4429998,97.656,51.27,21.973000000000006,58.594,0.0,0
1582311045.447,94.238,52.246,24.902,58.105,0.0,0
1582311045.451,85.93799999999997,52.734,26.855,48.34,0.0,0
1582311045.4529998,71.289,49.805,22.949,42.48,0.0,0
1582311045.457,62.012,47.363,22.949,45.898,0.0,0
1582311045.461,63.965,47.363,26.367,46.875,0.0,0
1582311045.465,64.941,46.875,27.344,40.527,0.0,0
1582311045.469,58.105,45.898,27.344,39.062,0.0,0
1582311045.4729998,53.223,46.387,27.832,38.574,0.0,0
1582311045.4770002,56.152,44.434,25.879,34.668,0.0,0
1582311045.48,54.688,43.945,23.926,29.297,0.0,0
1582311045.484,57.129,47.852,24.902,25.391,0.0,0
1582311045.488,57.617,50.78100000000001,27.832,32.227,0.0,0
1582311045.492,49.316,51.758,30.273000000000003,31.25,0.0,0
1582311045.496,50.293,48.828,30.762,21.973000000000006,0.0,0
1582311045.5129998,53.223,48.34,31.738000000000003,24.902,0.0,0
1582311045.5170002,47.852,50.293,30.273000000000003,25.391,0.0,0
1582311045.521,43.457,47.363,28.809,23.926,0.0,0
1582311045.525,56.64100000000001,47.852,28.32,20.508000000000006,0.0,0
1582311045.529,56.152,48.828,28.809,20.996,0.0,0
1582311045.533,57.129,51.27,30.273000000000003,31.25,0.0,0
1582311045.5370002,62.988,54.688,30.273000000000003,32.227,0.0,0
1582311045.54,61.523,49.805,32.227,29.297,0.0,0
1582311045.544,60.059,46.387,34.668,32.715,0.0,0
1582311045.548,46.875,45.41,33.203,29.785,0.0,0
1582311045.552,39.062,43.945,32.715,28.32,0.0,0
1582311045.556,25.879,42.969,34.18,26.855,0.0,0
1582311045.5579998,21.484,44.434,32.715,19.531,0.0,0
1582311045.562,34.668,47.852,32.715,23.438,0.0,0
1582311045.566,47.363,46.387,33.203,28.32,0.0,0
1582311045.57,63.965,42.48,29.785,24.414,0.0,0
1582311045.574,62.5,42.48,28.32,21.484,0.0,0
1582311045.5779998,44.434,42.969,29.297,18.066,0.0,0
1582311045.582,43.457,40.527,29.785,22.461,0.0,0
1582311045.585,48.828,37.109,31.25,26.367,0.0,0
1582311045.589,41.992,38.086,32.715,23.438,0.0,0
1582311045.593,43.945,37.598,35.645,20.508000000000006,0.0,0
1582311045.597,35.645,37.598,34.18,14.16,0.0,0
1582311045.601,19.043,35.156,28.32,10.254,0.0,0
1582311045.603,20.508000000000006,37.598,30.273000000000003,10.742,0.0,0
1582311045.607,36.621,41.992,32.715,14.648,0.0,0
1582311045.611,25.391,39.551,33.203,11.23,0.0,0
1582311045.615,20.508000000000006,36.621,31.25,11.719,0.0,0
1582311045.619,38.086,38.086,31.25,20.02,0.0,0
1582311045.623,35.645,41.504,34.668,22.949,0.0,0
1582311045.627,36.621,41.01600000000001,33.203,16.113,0.0,0
1582311045.63,44.922,41.504,29.785,14.648,0.0,0
1582311045.6339998,42.48,46.387,27.832,19.531,0.0,0
1582311045.6379998,44.434,42.969,32.227,26.855,0.0,0
1582311045.6420002,32.227,35.645,37.598,27.344,0.0,0
1582311045.646,2.93,30.762,39.551,6.836,0.0,0
1582311045.6479998,3.906,23.438,41.992,0.977,0.0,0
1582311045.6520002,20.996,23.926,45.898,5.371,0.0,0
1582311045.656,12.695,24.902,46.387,-0.488,0.0,0
1582311045.66,-6.836,23.438,45.41,-8.789,0.0,0
1582311045.664,-13.672,22.949,45.898,-11.23,0.0,0
1582311045.668,-11.23,23.926,48.828,-17.578,0.0,0
1582311045.6720002,-26.367,21.973000000000006,48.34,-29.785,0.0,0
1582311045.675,-26.367,17.09,48.828,-23.438,0.0,0
1582311045.679,-6.836,19.043,48.34,-14.16,0.0,0
1582311045.6829998,5.859,17.09,48.828,-16.602,0.0,0
1582311045.687,1.953,19.043,50.293,-14.648,0.0,0
1582311045.691,-0.488,21.973000000000006,49.316,-3.906,0.0,0
1582311045.6929998,-9.766,22.461,48.34,-3.418,0.0,0
1582311045.697,-24.902,21.484,46.387,-13.184,0.0,0
1582311045.701,-0.977,22.949,43.945,-6.836,0.0,0
1582311045.705,8.301,24.902,45.41,-0.977,0.0,0
1582311045.709,6.836,21.973000000000006,46.387,0.977,0.0,0
1582311045.7129998,31.25,28.809,41.992,8.789,0.0,0
1582311045.717,31.738000000000003,30.762,40.527,3.906,0.0,0
1582311045.72,19.043,26.367,41.992,0.977,0.0,0
1582311045.724,25.391,28.809,42.48,0.0,0.0,0
1582311045.728,30.273000000000003,28.809,41.504,1.953,0.0,0
1582311045.732,34.668,29.297,42.48,8.789,0.0,0
1582311045.736,20.996,28.809,42.48,3.418,0.0,0
1582311045.7370002,7.324,27.344,42.969,-0.488,0.0,0
1582311045.7410002,11.719,26.855,40.039,-0.488,0.0,0
1582311045.745,25.879,30.762,34.18,6.348,0.0,0
1582311045.7489998,20.996,31.25,45.898,-4.395,0.0,0
1582311045.7529998,12.207,28.809,50.78100000000001,-8.301,0.0,0
1582311045.7570002,25.879,33.203,34.668,11.719,0.0,0
1582311045.7610002,21.484,33.691,32.227,14.648,0.0,0
1582311045.764,26.367,32.715,29.785,13.672,0.0,0
1582311045.768,53.71100000000001,29.297,29.785,13.672,0.0,0
1582311045.772,50.78100000000001,28.32,32.227,16.113,0.0,0
1582311045.776,38.574,30.273000000000003,33.203,13.184,0.0,0
1582311045.78,37.598,30.762,33.203,9.277,0.0,0
1582311045.782,35.156,30.273000000000003,34.668,13.672,0.0,0
1582311045.786,27.832,37.109,33.203,23.926,0.0,0
1582311045.79,37.109,37.109,40.527,25.391,0.0,0
1582311045.794,45.898,33.691,41.992,23.438,0.0,0
1582311045.798,48.34,36.621,34.18,20.02,0.0,0
1582311045.802,43.457,36.621,37.109,22.949,0.0,0
1582311045.806,42.969,38.086,38.086,25.391,0.0,0
1582311045.809,37.109,32.227,34.668,21.973000000000006,0.0,0
1582311045.813,30.273000000000003,28.809,35.645,24.414,0.0,0
1582311045.8170002,48.828,30.762,49.316,11.719,0.0,0
1582311045.821,49.316,35.156,40.527,10.254,0.0,0
1582311045.825,48.828,37.109,30.273000000000003,30.273000000000003,0.0,0
1582311045.827,55.176,36.133,35.645,41.01600000000001,0.0,0
1582311045.831,45.898,40.039,31.25,25.879,0.0,0
1582311045.835,41.01600000000001,39.062,32.227,17.09,0.0,0
1582311045.839,49.805,38.086,36.621,29.785,0.0,0
1582311045.843,43.945,41.01600000000001,36.133,33.691,0.0,0
1582311045.847,45.41,38.086,34.18,41.992,0.0,0
1582311045.851,45.898,41.992,37.598,36.133,0.0,0
1582311045.854,37.109,50.293,35.156,22.949,0.0,0
1582311045.8579998,50.78100000000001,50.293,28.809,19.531,0.0,0
1582311045.8620002,57.617,57.129,25.391,10.742,0.0,0
1582311045.8660002,45.898,58.105,23.926,5.371,0.0,0
1582311045.87,55.664,52.246,33.203,12.207,0.0,0
1582311045.887,66.406,58.594,24.414,27.832,0.0,0
1582311045.891,69.824,62.988,10.254,28.809,0.0,0
1582311045.895,73.73,61.035,12.695,32.715,0.0,0
1582311045.899,67.87100000000001,62.5,12.695,26.367,0.0,0
1582311045.903,60.059,60.059,7.812,1.953,0.0,0
1582311045.907,77.148,57.129,13.184,16.602,0.0,0
1582311045.911,85.449,59.082,16.113,35.156,0.0,0
1582311045.914,43.945,56.152,17.578,8.789,0.0,0
1582311045.918,52.734,53.223,17.578,5.859,0.0,0
1582311045.9220002,93.75,57.617,15.137,31.25,0.0,0
1582311045.926,78.613,54.199,17.578,34.18,0.0,0
1582311045.93,62.988,50.293,19.531,33.691,0.0,0
1582311045.9320002,46.387,45.898,24.414,28.32,0.0,0
1582311045.936,50.78100000000001,46.387,25.879,21.484,0.0,0
1582311045.94,49.805,44.922,21.973000000000006,34.668,0.0,0
1582311045.944,44.434,43.457,23.926,30.762,0.0,0
1582311045.948,51.758,42.969,27.344,23.926,0.0,0
1582311045.952,40.039,43.457,30.762,2.441,0.0,0
1582311045.956,40.039,44.922,28.809,-10.254,0.0,0
1582311045.959,49.805,41.504,27.344,30.762,0.0,1
1582311045.9629998,42.969,41.01600000000001,26.855,13.672,0.0,0
1582311045.967,37.109,41.992,24.902,6.348,0.0,0
1582311045.971,43.457,44.434,20.508000000000006,23.926,0.0,0
1582311045.975,52.734,45.898,20.02,25.391,0.0,0
1582311045.9770002,49.805,45.41,23.926,39.062,0.0,0
1582311045.981,46.387,45.41,24.414,10.254,0.0,0
1582311045.985,38.086,44.434,22.949,-12.207,0.0,0
1582311045.9889998,41.992,42.48,26.855,19.043,0.0,0
1582311045.9929998,49.316,46.875,34.668,29.297,0.0,0
1582311045.9970002,42.969,48.34,35.645,2.93,0.0,0
1582311046.0010002,40.039,42.969,34.668,-3.418,0.0,0
1582311046.004,40.527,44.922,35.156,34.18,0.0,0
1582311046.008,43.457,47.363,32.715,40.527,0.0,0
1582311046.012,45.898,47.852,30.273000000000003,22.461,0.0,0
1582311046.016,42.969,46.875,29.297,6.836,0.0,0
1582311046.02,49.805,42.48,27.832,10.742,0.0,0
1582311046.022,38.086,41.01600000000001,26.855,2.93,0.0,0
1582311046.026,21.973000000000006,41.504,32.227,9.277,0.0,0
1582311046.03,23.438,43.457,30.273000000000003,3.418,0.0,0
1582311046.034,25.879,44.922,31.25,-7.324,0.0,0
1582311046.038,39.062,46.387,30.762,8.301,0.0,0
1582311046.042,42.48,41.992,26.855,11.719,0.0,0
1582311046.046,36.621,42.48,25.879,15.137,0.0,0
1582311046.049,37.598,44.922,24.414,16.113,0.0,0
1582311046.053,36.133,40.039,29.297,21.973000000000006,0.0,0
1582311046.0570002,25.879,39.062,25.879,-17.09,0.0,0
1582311046.061,24.902,43.945,19.043,-27.832,0.0,0
1582311046.065,25.391,45.41,23.926,0.0,0.0,0
1582311046.0670002,24.902,40.527,28.809,14.648,0.0,0
1582311046.071,25.879,38.574,30.762,23.926,0.0,0
1582311046.075,22.949,39.062,28.32,7.812,0.0,0
1582311046.079,31.738000000000003,37.109,27.832,2.93,0.0,0
1582311046.083,36.621,36.133,25.391,0.0,0.0,0
1582311046.087,23.926,36.621,22.949,-5.371,0.0,0
1582311046.091,20.996,35.156,29.297,-0.977,0.0,0
1582311046.094,28.32,35.645,29.297,13.184,0.0,0
1582311046.0979998,28.809,34.668,22.949,17.578,0.0,0
1582311046.1020002,30.273000000000003,33.203,26.855,2.441,0.0,0
1582311046.106,32.715,36.133,29.785,11.719,0.0,0
1582311046.11,30.273000000000003,36.621,27.832,11.719,0.0,0
1582311046.1120002,32.227,36.133,27.832,11.23,0.0,0
1582311046.1160002,31.25,35.156,26.855,6.836,0.0,0
1582311046.12,35.156,38.086,25.391,3.418,0.0,0
1582311046.1239998,38.086,36.621,28.32,10.742,0.0,0
1582311046.1279998,31.25,36.133,28.32,4.883,0.0,0
1582311046.1320002,32.715,39.062,24.902,5.371,0.0,0
1582311046.1360002,42.48,38.086,28.32,9.277,0.0,0
1582311046.139,44.434,39.551,29.785,6.836,0.0,0
1582311046.143,29.297,40.039,26.855,1.953,0.0,0
1582311046.147,27.832,40.527,30.762,0.977,0.0,0
1582311046.151,46.387,45.898,31.25,7.812,0.0,0
1582311046.155,43.945,44.922,28.809,5.859,0.0,0
1582311046.158,42.969,41.504,30.273000000000003,16.602,0.0,0
1582311046.1620002,39.062,37.109,38.574,32.227,0.0,0
1582311046.166,14.16,30.762,45.41,6.348,0.0,0
1582311046.17,-4.883,30.273000000000003,42.969,-23.926,0.0,0
1582311046.174,-5.859,28.809,46.387,-23.438,0.0,0
1582311046.178,-8.301,25.879,49.316,-18.555,0.0,0
1582311046.1820002,-20.02,23.926,57.129,-30.762,0.0,0
1582311046.185,-28.809,17.578,61.035,-38.086,0.0,0
1582311046.189,-26.855,15.137,53.223,-26.367,0.0,0
1582311046.1929998,-30.273000000000003,16.113,56.64100000000001,-15.137,0.0,0
1582311046.197,-30.273000000000003,13.672,58.105,-25.879,0.0,0
1582311046.201,-23.926,12.695,52.246,-23.438,0.0,0
1582311046.2029998,-22.949,10.742,49.316,-16.113,0.0,0
1582311046.207,-23.926,9.766,54.688,-13.184,0.0,0
1582311046.211,-15.137,16.602,49.316,-12.207,0.0,0
1582311046.215,-3.418,18.555,44.434,-12.695,0.0,0
1582311046.219,2.441,19.531,45.898,-18.066,0.0,0
1582311046.2229998,8.301,23.438,42.969,-5.371,0.0,0
1582311046.2270002,7.324,26.367,43.945,7.812,0.0,0
1582311046.23,-9.277,21.484,48.34,4.395,0.0,0
1582311046.234,-2.93,20.508000000000006,45.898,-2.93,0.0,0
1582311046.238,5.371,24.902,43.457,4.883,0.0,0
1582311046.242,0.977,24.414,45.898,9.277,0.0,0
1582311046.246,0.488,24.902,44.434,6.836,0.0,0
1582311046.2629998,6.836,25.391,41.992,16.113,0.0,0
1582311046.2670002,11.719,25.391,43.945,0.488,0.0,0
1582311046.271,13.184,25.879,41.992,0.0,0.0,0
1582311046.275,18.066,24.902,43.457,14.648,0.0,0
1582311046.279,18.066,23.438,44.922,-1.465,0.0,0
1582311046.283,11.719,23.926,42.969,1.953,0.0,0
1582311046.2870002,11.719,23.438,40.039,9.766,0.0,0
1582311046.29,17.09,24.414,36.133,7.324,0.0,0
1582311046.294,19.531,27.344,34.18,10.254,0.0,0
1582311046.298,17.09,28.809,36.133,17.578,0.0,0
1582311046.302,14.648,31.738000000000003,34.668,-7.324,0.0,0
1582311046.306,19.043,31.25,31.738000000000003,-2.441,0.0,0
1582311046.309,18.555,29.297,37.109,24.414,0.0,0
1582311046.313,30.762,29.297,37.109,22.949,0.0,0
1582311046.3170002,33.691,28.32,34.668,18.066,0.0,0
1582311046.321,24.414,28.809,33.203,7.324,0.0,0
1582311046.325,26.367,30.273000000000003,30.762,2.93,0.0,0
1582311046.329,36.133,33.203,29.785,7.324,0.0,0
1582311046.333,30.762,31.738000000000003,27.344,2.93,0.0,0
1582311046.336,23.438,29.297,29.785,8.301,0.0,0
1582311046.34,30.273000000000003,32.227,34.18,16.602,0.0,0
1582311046.344,29.785,33.691,31.738000000000003,-10.742,0.0,0
1582311046.3479998,25.879,35.645,22.461,-28.809,0.0,0
1582311046.3520002,31.738000000000003,35.645,26.855,10.742,0.0,0
1582311046.353,28.32,33.691,35.645,33.691,0.0,0
1582311046.357,26.855,35.645,32.227,6.836,0.0,0
1582311046.361,23.438,36.133,30.273000000000003,1.953,0.0,0
1582311046.365,20.02,36.621,26.855,6.348,0.0,0
1582311046.369,20.508000000000006,34.668,28.809,5.371,0.0,0
1582311046.373,22.949,32.715,27.344,-4.395,0.0,0
1582311046.377,33.203,35.645,21.973000000000006,0.0,0.0,0
1582311046.38,34.18,38.086,25.391,20.996,0.0,0
1582311046.3839998,29.297,37.598,30.273000000000003,17.578,0.0,0
1582311046.3879998,25.391,35.156,30.762,-3.906,0.0,0
1582311046.3920002,18.066,31.738000000000003,30.762,-8.789,0.0,0
1582311046.396,19.043,32.227,33.203,5.859,0.0,0
1582311046.413,20.996,31.738000000000003,33.203,17.578,0.0,0
1582311046.417,19.043,28.809,31.25,6.348,0.0,0
1582311046.421,24.414,29.785,30.273000000000003,3.418,0.0,0
1582311046.425,35.156,35.156,33.203,35.156,0.0,0
1582311046.429,37.598,36.133,31.25,26.367,0.0,0
1582311046.4329998,28.32,35.156,29.297,8.789,0.0,0
1582311046.437,18.066,35.645,31.25,-2.441,0.0,0
1582311046.44,22.461,35.645,31.25,7.812,0.0,0
1582311046.444,25.391,37.109,31.25,21.973000000000006,0.0,0
1582311046.448,25.391,34.668,28.32,10.742,0.0,0
1582311046.452,27.344,34.18,25.879,-12.695,0.0,0
1582311046.456,30.273000000000003,34.668,25.879,1.953,0.0,0
1582311046.4429998,25.879,33.203,32.227,20.02,0.0,0
1582311046.447,17.09,31.25,33.203,-4.883,0.0,0
1582311046.451,20.508000000000006,31.25,31.738000000000003,1.465,0.0,0
1582311046.455,23.438,33.203,31.25,-0.977,0.0,0
1582311046.459,23.438,33.691,25.879,-24.414,0.0,0
1582311046.4629998,23.438,32.715,30.762,-1.465,0.0,0
1582311046.467,29.785,31.25,36.133,17.578,0.0,0
1582311046.47,25.879,34.18,32.227,12.695,0.0,0
1582311046.474,25.879,33.691,30.762,2.93,0.0,0
1582311046.478,31.738000000000003,29.297,31.25,2.441,0.0,0
1582311046.482,22.949,30.762,32.227,4.883,0.0,0
1582311046.486,15.137,33.203,32.227,-8.301,0.0,0
1582311046.488,23.926,32.715,31.738000000000003,10.742,0.0,0
1582311046.492,28.809,33.691,29.785,25.879,0.0,0
1582311046.496,20.996,32.715,27.832,0.0,0.0,0
1582311046.5,20.996,31.25,26.855,-3.906,0.0,0
1582311046.504,24.414,33.203,28.809,1.465,0.0,0
1582311046.508,29.297,36.133,29.785,-1.465,0.0,0
1582311046.512,32.715,34.668,29.785,6.836,0.0,0
1582311046.515,37.109,36.133,31.738000000000003,17.09,0.0,0
1582311046.519,24.414,39.551,30.762,12.207,0.0,0
1582311046.5229998,23.438,38.086,33.691,11.23,0.0,0
1582311046.5270002,31.738000000000003,37.598,35.645,12.207,0.0,0
1582311046.531,30.273000000000003,40.527,32.227,13.672,0.0,0
1582311046.533,31.25,41.504,32.227,10.742,0.0,0
1582311046.5370002,31.25,39.062,31.738000000000003,-1.465,0.0,0
1582311046.541,29.297,37.598,34.668,5.371,0.0,0
1582311046.545,26.367,39.551,34.668,14.16,0.0,0
1582311046.549,27.344,40.039,32.715,5.859,0.0,0
1582311046.553,31.738000000000003,39.551,31.25,-7.812,0.0,0
1582311046.5570002,33.203,38.574,30.273000000000003,4.883,0.0,0
1582311046.56,26.855,35.156,29.785,14.648,0.0,0
1582311046.564,25.879,34.668,31.25,11.719,0.0,0
1582311046.5679998,26.367,36.133,33.691,7.324,0.0,0
1582311046.572,26.367,36.621,27.832,-6.836,0.0,0
1582311046.576,24.902,37.109,29.785,5.371,0.0,0
1582311046.5779998,15.137,36.133,34.668,1.953,0.0,0
1582311046.582,20.02,33.691,31.738000000000003,4.883,0.0,0
1582311046.586,27.832,32.227,30.273000000000003,10.254,0.0,0
1582311046.59,27.832,34.18,32.715,6.836,0.0,0
1582311046.594,22.949,36.133,32.227,8.789,0.0,0
1582311046.5979998,20.508000000000006,36.133,26.367,1.953,0.0,0
1582311046.6020002,21.973000000000006,36.621,29.297,-5.371,0.0,0
1582311046.605,23.926,35.645,37.109,9.277,0.0,0
1582311046.609,25.391,35.645,34.18,6.348,0.0,0
1582311046.613,30.762,38.086,33.691,-2.93,0.0,0
1582311046.617,33.203,37.598,38.574,17.09,0.0,0
1582311046.621,33.691,37.109,35.645,14.16,0.0,0
1582311046.6379998,34.668,38.574,34.18,13.672,0.0,0
1582311046.6420002,34.668,38.574,33.691,11.23,0.0,0
1582311046.646,39.062,40.039,31.738000000000003,3.906,0.0,0
1582311046.65,37.109,39.551,31.738000000000003,4.883,0.0,0
1582311046.654,33.203,37.598,32.227,15.137,0.0,0
1582311046.658,36.133,40.527,33.691,19.531,0.0,0
1582311046.6620002,40.039,42.48,34.668,12.207,0.0,0
1582311046.665,33.691,41.504,31.738000000000003,5.859,0.0,0
1582311046.669,32.227,41.504,33.691,5.859,0.0,0
1582311046.673,32.227,43.457,32.715,14.648,0.0,0
1582311046.677,31.25,43.945,28.809,11.719,0.0,0
1582311046.681,33.203,42.969,28.809,1.953,0.0,0
1582311046.6829998,33.691,39.551,32.715,6.348,0.0,0
1582311046.687,35.645,38.086,31.25,9.766,0.0,0
1582311046.691,30.762,38.086,30.273000000000003,6.836,0.0,0
1582311046.695,22.949,36.621,35.156,5.859,0.0,0
1582311046.699,21.973000000000006,38.574,36.133,10.254,0.0,0
1582311046.7029998,21.973000000000006,39.062,35.156,13.672,0.0,0
1582311046.707,20.996,36.621,37.109,1.953,0.0,0
1582311046.71,18.555,38.574,35.645,0.0,0.0,0
1582311046.714,24.902,41.504,30.762,3.906,0.0,0
1582311046.718,23.926,41.01600000000001,33.203,7.324,0.0,0
1582311046.722,18.066,39.551,34.668,8.789,0.0,0
1582311046.726,23.438,37.109,36.621,3.906,0.0,0
1582311046.728,22.461,37.109,33.691,0.977,0.0,0
1582311046.732,21.484,37.109,32.227,6.348,0.0,0
1582311046.736,21.484,37.598,32.715,4.883,0.0,0
1582311046.74,22.949,36.621,29.297,-0.488,0.0,0
1582311046.744,26.367,36.621,30.762,6.348,0.0,0
1582311046.748,21.484,37.109,33.203,8.789,0.0,0
1582311046.752,21.484,37.598,30.762,-3.418,0.0,0
1582311046.755,27.344,38.086,29.297,0.488,0.0,0
1582311046.7589998,29.297,37.598,32.227,9.766,0.0,0
1582311046.7629998,27.344,37.598,32.715,3.418,0.0,0
1582311046.7670002,25.879,36.621,28.32,2.93,0.0,0
1582311046.771,30.762,36.621,29.785,4.395,0.0,0
1582311046.7729998,32.715,36.621,31.738000000000003,5.371,0.0,0
1582311046.7770002,18.066,36.133,32.227,11.719,0.0,0
1582311046.781,8.789,34.668,31.738000000000003,10.742,0.0,0
1582311046.785,13.672,32.715,30.273000000000003,7.812,0.0,0
1582311046.789,18.555,33.691,33.203,6.836,0.0,0
1582311046.793,21.484,35.156,33.203,6.348,0.0,0
1582311046.7970002,20.02,33.691,33.203,9.766,0.0,0
1582311046.8,18.066,33.691,33.691,6.348,0.0,0
1582311046.804,21.484,36.133,32.715,11.719,0.0,0
1582311046.8079998,22.949,36.133,32.715,17.09,0.0,0
1582311046.812,18.555,35.156,31.738000000000003,11.719,0.0,0
1582311046.816,18.066,35.156,31.25,10.742,0.0,0
1582311046.8170002,24.414,38.086,32.715,13.184,0.0,0
1582311046.821,18.555,36.133,32.227,5.859,0.0,0
1582311046.825,19.043,33.691,31.738000000000003,7.324,0.0,0
1582311046.829,32.227,35.645,28.809,14.16,0.0,0
1582311046.833,35.156,35.156,28.809,13.672,0.0,0
1582311046.837,30.762,34.18,30.762,12.695,0.0,0
1582311046.841,20.508000000000006,33.203,28.32,10.254,0.0,0
1582311046.844,17.578,31.738000000000003,27.344,6.836,0.0,0
1582311046.8479998,22.461,34.668,27.344,6.348,0.0,0
1582311046.8520002,17.578,34.18,30.273000000000003,1.953,0.0,0
1582311046.856,17.578,32.227,32.227,0.0,0.0,0
1582311046.86,19.043,34.668,32.227,-0.977,0.0,0
1582311046.8620002,18.066,35.156,32.227,1.465,0.0,0
1582311046.8660002,20.996,33.691,33.691,6.836,0.0,0
1582311046.87,23.926,34.668,33.691,3.418,0.0,0
1582311046.8739998,21.484,34.18,34.18,2.441,0.0,0
1582311046.8779998,13.184,31.738000000000003,32.715,-6.348,0.0,0
1582311046.8820002,21.484,33.203,33.691,-7.812,0.0,0
1582311046.8860002,17.09,35.645,34.18,2.93,0.0,0
1582311046.889,13.672,37.109,34.18,0.977,0.0,0
1582311046.893,20.508000000000006,36.133,35.156,-2.441,0.0,0
1582311046.897,19.531,35.156,34.18,2.441,0.0,0
1582311046.901,18.066,36.621,34.18,0.0,0.0,0
1582311046.905,20.508000000000006,36.133,33.203,4.395,0.0,0
1582311046.907,19.043,32.227,33.691,6.836,0.0,0
1582311046.911,15.625,32.227,35.645,-1.953,0.0,0
1582311046.915,16.602,36.621,34.18,0.977,0.0,0
1582311046.919,21.484,37.598,32.227,9.277,0.0,0
1582311046.923,23.926,37.598,29.785,7.324,0.0,0
1582311046.927,21.484,39.062,28.809,4.395,0.0,0
1582311046.931,24.902,38.574,30.273000000000003,8.789,0.0,0
1582311046.934,20.02,37.109,28.809,1.953,0.0,0
1582311046.938,13.672,37.109,26.367,4.395,0.0,0
1582311046.9420002,22.461,40.039,30.273000000000003,7.324,0.0,0
1582311046.946,29.785,40.039,33.203,1.465,0.0,0
1582311046.95,23.926,37.598,33.691,3.418,0.0,0
1582311046.952,20.02,36.133,32.227,5.859,0.0,0
1582311046.956,20.508000000000006,37.109,32.227,10.254,0.0,0
1582311046.96,24.414,38.086,31.25,11.719,0.0,0
1582311046.964,28.32,39.551,27.344,6.836,0.0,0
1582311046.968,21.973000000000006,39.062,29.785,6.836,0.0,0
1582311046.972,22.461,36.621,33.203,14.648,0.0,0
1582311046.976,33.691,37.598,34.18,15.137,0.0,0
1582311046.979,29.297,36.621,32.715,12.207,0.0,0
1582311046.9829998,11.719,35.156,31.738000000000003,10.254,0.0,0
1582311046.9870002,11.23,35.156,33.691,3.418,0.0,0
1582311046.9910002,10.254,36.133,33.203,5.859,0.0,0
1582311046.995,7.812,38.574,33.203,11.23,0.0,0
1582311047.012,13.184,37.109,36.133,10.742,0.0,0
1582311047.016,20.996,37.109,31.25,2.441,0.0,0
1582311047.02,21.484,38.574,27.832,1.953,0.0,0
1582311047.024,25.879,38.086,29.785,4.883,0.0,0
1582311047.028,40.039,39.551,28.809,-2.441,0.0,2
1582311047.032,44.434,41.01600000000001,31.738000000000003,-3.418,0.0,0
1582311047.036,39.551,40.527,34.18,0.0,0.0,0
1582311047.039,35.156,40.527,31.25,-4.883,0.0,0
1582311047.043,35.156,41.992,29.297,-3.418,0.0,0
1582311047.0470002,29.297,43.945,28.809,6.348,0.0,0
1582311047.051,19.531,41.992,30.273000000000003,7.812,0.0,0
1582311047.055,14.16,39.551,30.762,1.465,0.0,0
1582311047.0570002,13.672,37.109,30.273000000000003,9.277,0.0,0
1582311047.061,13.184,37.109,31.25,10.742,0.0,0
1582311047.065,16.113,39.551,31.738000000000003,2.93,0.0,0
1582311047.069,15.625,38.086,33.203,5.859,0.0,0
1582311047.073,19.043,36.133,30.762,9.766,0.0,0
1582311047.077,22.461,38.574,29.297,9.277,0.0,0
1582311047.081,17.09,40.039,33.203,9.766,0.0,0
1582311047.084,12.207,38.086,32.227,3.906,0.0,0
1582311047.0879998,13.184,37.598,29.297,-1.465,0.0,0
1582311047.092,11.719,40.527,30.762,5.371,0.0,0
1582311047.096,1.465,39.551,30.273000000000003,1.465,0.0,0
1582311047.1,0.977,35.645,29.297,-2.441,0.0,0
1582311047.1020002,4.395,35.156,29.297,-3.418,0.0,0
1582311047.106,5.371,32.715,31.25,-0.977,0.0,0
1582311047.11,6.348,30.273000000000003,32.227,9.766,0.0,0
1582311047.1139998,11.719,33.203,31.25,13.672,0.0,0
1582311047.1179998,15.137,35.156,32.227,10.742,0.0,0
1582311047.1220002,8.301,33.203,31.25,3.418,0.0,0
1582311047.1260002,10.254,35.156,26.367,-3.906,0.0,0
1582311047.129,11.23,35.156,26.367,-2.93,0.0,0
1582311047.133,7.324,32.227,30.273000000000003,2.441,0.0,0
1582311047.137,11.719,34.668,28.809,6.348,0.0,0
1582311047.141,13.672,35.156,30.762,6.348,0.0,0
1582311047.145,8.301,32.715,30.762,-0.488,0.0,0
1582311047.147,5.371,32.227,29.785,-1.465,0.0,0
1582311047.151,7.812,31.25,32.715,0.488,0.0,0
1582311047.155,8.789,33.203,32.227,-2.441,0.0,0
1582311047.159,16.113,34.18,32.715,-2.93,0.0,0
1582311047.163,24.902,34.18,31.25,-3.418,0.0,0
1582311047.167,24.414,36.621,27.344,3.906,0.0,0
1582311047.171,24.902,35.645,27.344,1.465,0.0,0
1582311047.174,24.414,37.598,26.855,9.766,0.0,0
1582311047.178,22.461,41.992,25.879,7.812,0.0,0
1582311047.1820002,22.461,41.504,25.391,-2.441,0.0,0
1582311047.186,19.531,37.109,25.391,-12.695,0.0,0
1582311047.19,22.461,37.598,26.367,-3.906,0.0,0
1582311047.1920002,20.996,36.133,29.297,16.113,0.0,0
1582311047.196,17.09,35.645,32.715,17.09,0.0,0
1582311047.2,19.531,41.01600000000001,30.762,11.23,0.0,0
1582311047.204,26.855,42.48,27.832,9.277,0.0,0
1582311047.208,31.738000000000003,42.48,28.32,10.254,0.0,0
1582311047.212,26.367,44.434,28.809,-4.395,0.0,0
1582311047.216,26.855,44.434,26.367,3.418,0.0,0
1582311047.219,29.297,41.504,28.809,13.672,0.0,0
1582311047.2229998,28.32,42.48,24.414,9.277,0.0,0
1582311047.2270002,29.297,41.01600000000001,19.531,18.066,0.0,0
1582311047.231,31.25,37.109,24.902,21.484,0.0,0
1582311047.235,29.785,38.574,25.391,3.906,0.0,0
1582311047.238,25.391,36.133,25.391,10.742,0.0,0
1582311047.242,25.391,31.738000000000003,26.855,17.09,0.0,0
1582311047.246,27.344,34.18,26.367,4.395,0.0,0
1582311047.25,27.832,36.621,28.809,1.953,0.0,0
1582311047.254,33.203,39.062,28.32,16.113,0.0,0
1582311047.258,33.203,38.574,25.391,1.953,0.0,0
1582311047.262,29.785,37.109,27.344,-15.137,0.0,0
1582311047.265,28.809,37.598,26.367,9.766,0.0,0
1582311047.269,28.32,39.062,27.832,19.043,0.0,0
1582311047.2729998,28.32,40.039,28.809,3.906,0.0,0
1582311047.2770002,32.715,36.621,25.391,5.371,0.0,0
1582311047.281,37.109,35.156,25.879,8.789,0.0,0
1582311047.283,30.273000000000003,33.691,25.879,3.906,0.0,0
1582311047.2870002,25.879,34.18,24.902,7.324,0.0,0
1582311047.291,24.414,38.574,27.344,10.742,0.0,0
1582311047.295,22.461,38.574,28.32,6.836,0.0,0
1582311047.299,20.996,35.645,27.344,1.465,0.0,0
1582311047.303,23.438,37.598,25.879,11.23,0.0,0
1582311047.3070002,20.996,39.062,26.855,5.371,0.0,0
1582311047.31,16.602,37.109,27.832,-0.488,0.0,0
1582311047.314,19.043,36.621,25.391,-2.93,0.0,0
1582311047.3179998,17.578,37.598,28.32,-4.883,0.0,0
1582311047.322,23.926,38.086,27.344,5.371,0.0,0
1582311047.326,26.367,38.574,27.344,5.859,0.0,0
1582311047.3279998,17.09,37.109,25.879,6.348,0.0,0
1582311047.332,16.602,36.621,23.926,3.418,0.0,0
1582311047.336,20.02,37.598,27.344,4.395,0.0,0
1582311047.34,20.02,36.133,29.297,3.906,0.0,0
1582311047.344,18.066,35.645,27.344,-4.883,0.0,0
1582311047.3479998,15.137,38.574,26.367,-2.441,0.0,0
1582311047.3520002,17.09,41.504,30.273000000000003,6.836,0.0,0
1582311047.355,14.648,38.086,31.738000000000003,4.395,0.0,0
1582311047.359,11.23,39.062,30.762,3.906,0.0,0
1582311047.363,9.277,42.969,27.344,0.977,0.0,0
1582311047.367,9.766,38.574,26.855,1.465,0.0,0
1582311047.371,13.184,35.645,28.809,3.906,0.0,0
1582311047.3879998,14.648,39.062,26.855,3.418,0.0,0
1582311047.3920002,11.23,38.574,27.832,9.277,0.0,0
1582311047.396,5.859,39.551,27.344,1.953,0.0,0
1582311047.4,6.348,37.598,25.879,-0.977,0.0,0
1582311047.404,12.695,33.203,27.344,10.254,0.0,0
1582311047.408,23.926,36.133,30.762,10.254,0.0,0
1582311047.4120002,31.738000000000003,38.574,31.25,13.184,0.0,0
1582311047.415,31.25,36.621,28.32,1.953,0.0,0
1582311047.419,23.926,37.598,28.809,0.488,0.0,0
1582311047.423,15.137,40.039,27.832,7.812,0.0,0
1582311047.427,12.695,38.574,25.391,-5.859,0.0,0
1582311047.431,15.137,37.109,26.367,-6.836,0.0,0
1582311047.4329998,16.602,38.086,30.762,-2.93,0.0,0
1582311047.437,19.043,38.086,29.785,5.371,0.0,0
1582311047.441,20.508000000000006,36.621,27.344,10.742,0.0,0
1582311047.445,19.531,36.133,29.785,-8.789,0.0,0
1582311047.449,20.508000000000006,35.156,32.715,-3.418,0.0,0
1582311047.4529998,19.043,35.645,30.762,15.137,0.0,0
1582311047.457,15.625,35.156,27.832,6.348,0.0,0
1582311047.46,12.207,33.691,28.809,1.953,0.0,0
1582311047.464,16.113,35.645,29.297,2.441,0.0,0
1582311047.468,18.066,38.574,26.855,2.441,0.0,0
1582311047.472,13.184,36.621,25.391,-4.395,0.0,0
1582311047.476,9.766,32.715,26.855,-10.742,0.0,0
1582311047.478,11.23,34.18,30.762,-0.488,0.0,0
1582311047.482,12.695,36.133,32.227,-3.418,0.0,0
1582311047.486,17.09,36.133,29.785,-7.812,0.0,0
1582311047.49,20.02,35.645,30.762,0.0,0.0,0
1582311047.494,19.531,36.133,31.738000000000003,1.465,0.0,0
1582311047.498,20.02,36.621,32.715,2.93,0.0,0
1582311047.502,17.09,33.691,31.738000000000003,15.137,0.0,0
1582311047.505,16.113,32.227,30.273000000000003,11.719,0.0,0
1582311047.5089998,26.855,34.668,30.762,8.301,0.0,0
1582311047.5129998,32.227,36.621,30.762,8.789,0.0,0
1582311047.5170002,26.855,36.133,29.785,6.836,0.0,0
1582311047.521,25.391,35.645,30.762,8.789,0.0,0
1582311047.5229998,24.902,34.668,32.227,2.93,0.0,0
1582311047.5270002,18.066,33.691,32.227,4.395,0.0,0
1582311047.531,16.602,32.715,32.715,5.859,0.0,0
1582311047.535,22.949,33.691,30.762,7.324,0.0,0
1582311047.539,28.32,36.133,26.855,12.207,0.0,0
1582311047.543,29.785,35.645,26.367,8.789,0.0,0
1582311047.5470002,25.391,35.645,28.809,10.254,0.0,0
1582311047.55,24.414,35.156,29.785,15.137,0.0,0
1582311047.554,24.414,35.156,31.25,8.789,0.0,0
1582311047.5579998,19.531,34.18,33.691,2.441,0.0,0
1582311047.562,14.16,34.668,32.715,5.371,0.0,0
1582311047.566,11.23,36.621,33.691,-1.465,0.0,0
1582311047.5679998,14.16,35.645,35.156,3.418,0.0,0
1582311047.572,19.043,33.691,33.203,14.16,0.0,0
1582311047.576,16.113,33.203,30.273000000000003,8.789,0.0,0
1582311047.58,10.742,31.738000000000003,26.367,1.953,0.0,0
1582311047.584,15.625,33.203,24.414,8.301,0.0,0
1582311047.5879998,18.066,36.621,26.367,10.254,0.0,0
1582311047.592,17.578,35.645,28.809,8.789,0.0,0
1582311047.595,19.531,36.621,27.832,12.695,0.0,0
1582311047.599,25.391,37.598,29.297,8.301,0.0,0
1582311047.603,23.438,36.133,33.691,9.766,0.0,0
1582311047.607,15.137,38.086,33.203,16.113,0.0,0
1582311047.611,16.602,38.574,31.25,15.137,0.0,0
1582311047.613,17.09,41.01600000000001,30.762,5.859,0.0,0
1582311047.617,18.555,43.457,27.344,9.766,0.0,0
1582311047.621,23.438,41.504,27.344,11.23,0.0,0
1582311047.625,26.855,40.527,28.809,8.789,0.0,0
1582311047.629,18.066,39.551,29.297,12.207,0.0,0
1582311047.633,16.602,41.01600000000001,33.691,7.324,0.0,0
1582311047.637,15.137,40.039,33.691,4.883,0.0,0
1582311047.64,12.695,41.01600000000001,32.715,2.441,0.0,0
1582311047.644,19.043,42.48,33.203,8.789,0.0,0
1582311047.6479998,16.602,42.48,32.227,10.254,0.0,0
1582311047.6520002,18.555,46.387,33.203,6.836,0.0,0
1582311047.656,23.926,48.34,32.715,2.441,0.0,0
1582311047.658,19.043,45.898,32.715,5.371,0.0,0
1582311047.6620002,13.672,42.969,37.109,13.672,0.0,0
1582311047.666,16.113,41.01600000000001,38.086,13.672,0.0,0
1582311047.67,19.531,40.039,37.109,6.348,0.0,0
1582311047.674,13.184,39.551,37.598,-3.418,0.0,0
1582311047.678,13.184,39.062,37.109,4.883,0.0,0
1582311047.6820002,24.902,38.574,35.645,13.184,0.0,0
1582311047.685,18.555,37.109,33.691,10.254,0.0,0
1582311047.689,0.977,35.156,33.691,1.465,0.0,0
1582311047.6929998,11.719,36.133,34.668,1.465,0.0,0
1582311047.697,14.16,37.598,35.645,12.207,0.0,0
1582311047.701,8.789,38.086,35.645,15.137,0.0,0
1582311047.7029998,8.789,39.062,34.18,3.418,0.0,0
1582311047.707,13.184,36.621,36.133,-1.465,0.0,0
1582311047.711,10.742,33.691,34.668,6.836,0.0,0
1582311047.715,9.766,35.645,32.227,2.93,0.0,0
1582311047.719,21.484,38.574,28.32,0.0,0.0,0
1582311047.7229998,12.695,39.062,32.227,4.883,0.0,0
1582311047.7270002,8.789,37.598,35.645,6.836,0.0,0
1582311047.73,22.461,39.551,31.738000000000003,4.395,0.0,0
1582311047.734,16.113,39.062,32.715,0.0,0.0,0
1582311047.738,6.348,38.574,32.715,1.953,0.0,0
1582311047.742,8.789,38.086,32.227,4.883,0.0,0
1582311047.746,13.672,37.598,35.645,6.836,0.0,0
1582311047.7629998,9.277,37.109,35.645,0.977,0.0,0
1582311047.7670002,5.859,37.598,34.18,-1.465,0.0,0
1582311047.771,8.301,39.062,33.691,-4.883,0.0,0
1582311047.775,5.859,34.668,34.668,-7.324,0.0,0
1582311047.779,11.719,35.645,35.645,-0.977,0.0,0
1582311047.783,13.184,38.574,32.227,10.254,0.0,0
1582311047.7870002,18.555,37.598,30.762,6.836,0.0,0
1582311047.79,23.438,36.133,31.738000000000003,8.789,0.0,0
1582311047.794,17.09,36.133,32.715,14.16,0.0,0
1582311047.798,19.043,36.133,32.715,9.277,0.0,0
1582311047.802,22.949,35.156,34.18,8.789,0.0,0
1582311047.806,17.578,34.668,32.227,3.418,0.0,0
1582311047.8079998,17.578,36.133,30.762,2.93,0.0,0
1582311047.812,29.297,36.133,31.25,6.836,0.0,0
1582311047.816,31.25,37.598,30.273000000000003,6.836,0.0,0
1582311047.82,25.391,38.086,31.25,10.742,0.0,0
1582311047.824,20.02,36.621,29.785,11.23,0.0,0
1582311047.8279998,14.648,36.133,30.762,12.207,0.0,0
1582311047.832,13.184,37.109,30.273000000000003,7.324,0.0,0
1582311047.835,15.137,39.062,29.785,7.812,0.0,0
1582311047.839,19.531,41.01600000000001,32.715,10.742,0.0,0
1582311047.843,18.066,38.574,32.227,1.465,0.0,0
1582311047.847,16.113,35.156,32.227,7.812,0.0,0
1582311047.851,19.531,38.086,28.32,1.953,0.0,0
1582311047.853,22.949,39.551,28.809,3.906,0.0,0
1582311047.857,20.508000000000006,38.574,32.227,14.648,0.0,0
1582311047.861,20.508000000000006,39.062,33.691,13.184,0.0,0
1582311047.865,25.391,39.062,33.203,14.16,0.0,0
1582311047.869,23.438,39.551,35.156,11.719,0.0,0
1582311047.873,22.461,40.527,36.621,15.137,0.0,0
1582311047.877,23.926,41.504,36.133,10.742,0.0,0
1582311047.88,24.414,41.504,36.133,12.695,0.0,0
1582311047.8839998,24.902,41.01600000000001,36.621,18.066,0.0,0
1582311047.8879998,26.855,41.992,33.203,16.113,0.0,0
1582311047.8920002,24.902,40.039,31.25,13.672,0.0,0
1582311047.896,28.32,40.039,32.227,14.16,0.0,0
1582311047.897,26.367,43.457,29.297,8.789,0.0,0
1582311047.901,18.066,40.527,29.297,3.906,0.0,0
1582311047.905,20.996,41.01600000000001,32.227,4.883,0.0,0
1582311047.909,19.531,42.969,34.18,1.465,0.0,0
1582311047.913,22.461,41.504,33.691,10.742,0.0,0
1582311047.917,30.273000000000003,41.504,31.738000000000003,9.277,0.0,0
1582311047.921,22.949,41.504,32.715,4.395,0.0,0
1582311047.924,22.949,41.992,33.691,5.371,0.0,0
1582311047.928,25.879,41.992,32.715,9.277,0.0,0
1582311047.9320002,22.949,42.969,33.203,14.648,0.0,0
1582311047.936,25.879,42.48,31.25,7.324,0.0,0
1582311047.94,24.414,41.992,31.25,-1.465,0.0,0
1582311047.9420002,22.461,41.504,33.691,6.836,0.0,0
1582311047.946,20.02,41.01600000000001,32.227,9.766,0.0,0
1582311047.95,18.066,40.527,32.715,9.277,0.0,0
1582311047.954,16.602,42.969,33.203,10.742,0.0,0
1582311047.958,13.672,43.457,30.762,6.348,0.0,0
1582311047.962,20.02,44.434,30.762,2.93,0.0,0
1582311047.966,19.531,42.48,27.832,1.953,0.0,0
1582311047.969,16.602,40.527,29.297,6.836,0.0,0
1582311047.9729998,20.02,42.48,31.25,4.395,0.0,0
1582311047.9770002,23.438,44.434,28.809,3.418,0.0,0
1582311047.981,25.391,44.434,28.32,5.859,0.0,0
1582311047.985,23.926,44.434,27.344,-7.812,0.0,0
1582311047.9870002,21.484,45.41,27.832,-1.953,0.0,0
1582311047.9910002,26.367,44.434,32.227,16.602,0.0,0
1582311047.995,35.645,41.992,35.156,18.066,0.0,0
1582311047.9989998,35.156,41.01600000000001,34.18,13.184,0.0,0
1582311048.0029998,30.273000000000003,42.48,33.203,7.812,0.0,0
1582311048.0070002,30.762,44.922,32.715,12.207,0.0,0
1582311048.0110002,31.25,45.41,32.227,10.254,0.0,0
1582311048.014,30.273000000000003,43.457,33.691,12.695,0.0,0
1582311048.018,26.855,41.504,35.156,12.695,0.0,0
1582311048.022,28.809,41.992,35.156,10.254,0.0,0
1582311048.026,27.344,40.527,33.691,8.301,0.0,0
1582311048.03,20.508000000000006,36.621,31.25,3.906,0.0,0
1582311048.032,22.461,37.598,32.227,8.301,0.0,0
1582311048.036,23.926,38.086,32.227,9.766,0.0,0
1582311048.04,25.879,37.598,34.18,13.184,0.0,0
1582311048.044,24.902,37.109,33.203,6.348,0.0,0
1582311048.048,24.414,34.18,28.809,-0.977,0.0,0
1582311048.052,29.297,34.18,30.762,8.301,0.0,0
1582311048.056,32.227,37.598,35.156,15.137,0.0,0
1582311048.059,31.738000000000003,38.574,35.645,19.043,0.0,0
1582311048.063,26.855,37.598,34.668,13.672,0.0,0
1582311048.0670002,26.855,36.133,33.691,5.859,0.0,0
1582311048.071,28.32,36.133,31.25,11.719,0.0,0
1582311048.075,28.809,39.551,30.273000000000003,10.742,0.0,0
1582311048.077,28.32,38.086,29.297,2.93,0.0,0
1582311048.081,22.461,39.551,30.273000000000003,4.395,0.0,1
1582311048.085,18.066,41.504,32.715,9.766,0.0,0
1582311048.089,16.113,38.574,31.738000000000003,9.277,0.0,0
1582311048.093,20.02,38.086,26.367,4.395,0.0,0
1582311048.097,25.391,40.039,24.414,4.883,0.0,0
1582311048.101,24.902,41.504,26.367,12.207,0.0,0
1582311048.104,24.414,41.01600000000001,25.879,10.254,0.0,0
1582311048.1079998,20.996,39.062,25.879,7.812,0.0,0
1582311048.1120002,22.949,38.574,29.297,10.742,0.0,0
1582311048.1160002,22.949,38.574,30.762,10.742,0.0,0
1582311048.12,12.695,38.574,30.762,3.418,0.0,0
1582311048.137,9.766,37.598,29.785,5.371,0.0,0
1582311048.141,14.648,34.668,32.227,8.301,0.0,0
1582311048.145,12.695,35.645,34.668,3.418,0.0,0
1582311048.149,10.742,36.133,30.762,2.93,0.0,0
1582311048.153,18.066,35.645,31.25,6.348,0.0,0
1582311048.157,21.484,37.598,32.227,9.277,0.0,0
1582311048.161,14.648,38.086,31.25,8.301,0.0,0
1582311048.164,13.184,38.574,32.715,1.465,0.0,0
1582311048.168,14.648,38.574,32.715,4.395,0.0,0
1582311048.1720002,18.555,39.551,31.738000000000003,10.742,0.0,0
1582311048.176,23.438,42.48,32.227,10.254,0.0,0
1582311048.18,19.043,41.01600000000001,34.668,14.648,0.0,0
1582311048.1820002,20.508000000000006,41.504,33.691,8.301,0.0,0
1582311048.186,29.785,43.457,31.738000000000003,8.301,0.0,0
1582311048.19,32.715,41.992,32.227,12.207,0.0,0
1582311048.194,35.156,41.01600000000001,30.273000000000003,4.395,0.0,0
1582311048.198,35.645,42.969,27.344,-7.324,0.0,0
1582311048.202,33.691,42.48,28.32,-2.93,0.0,0
1582311048.206,33.203,40.527,30.273000000000003,6.348,0.0,0
1582311048.209,36.133,42.48,28.809,9.277,0.0,0
1582311048.2129998,28.32,41.992,29.785,12.695,0.0,0
1582311048.217,14.16,37.109,33.691,16.602,0.0,0
1582311048.221,14.16,36.621,33.691,14.16,0.0,0
1582311048.225,20.02,40.039,32.715,17.09,0.0,0
1582311048.2270002,16.113,37.109,32.715,20.02,0.0,0
1582311048.231,14.16,37.109,33.691,15.137,0.0,0
1582311048.235,18.555,39.551,33.691,13.672,0.0,0
1582311048.2389998,15.137,37.598,32.227,14.648,0.0,0
1582311048.2429998,18.066,37.598,31.25,15.137,0.0,0
1582311048.2470002,19.531,37.598,30.762,15.137,0.0,0
1582311048.2510002,17.09,35.645,30.273000000000003,14.648,0.0,0
1582311048.254,16.602,34.18,30.273000000000003,7.812,0.0,0
1582311048.258,13.672,36.621,30.273000000000003,11.719,0.0,0
1582311048.262,14.16,36.621,31.25,12.207,0.0,0
1582311048.266,13.184,31.738000000000003,33.691,9.766,0.0,0
1582311048.27,11.23,32.715,34.18,12.207,0.0,0
1582311048.272,7.812,35.645,32.227,7.812,0.0,0
1582311048.276,6.348,34.668,31.738000000000003,8.789,0.0,0
1582311048.28,12.695,35.645,33.203,12.207,0.0,0
1582311048.284,13.672,37.109,34.18,17.09,0.0,0
1582311048.288,12.695,35.645,33.203,12.207,0.0,0
1582311048.292,17.09,35.156,31.738000000000003,15.137,0.0,0
1582311048.296,18.555,37.109,32.715,23.438,0.0,0
1582311048.299,21.484,35.156,33.691,19.043,0.0,0
1582311048.303,28.32,36.621,31.738000000000003,17.578,0.0,0
1582311048.3070002,28.32,40.527,31.25,12.207,0.0,0
1582311048.311,21.484,37.598,35.156,13.672,0.0,0
1582311048.315,7.324,35.156,36.621,14.16,0.0,0
1582311048.3179998,7.812,33.691,35.645,7.324,0.0,0
1582311048.322,8.301,32.227,35.645,7.324,0.0,0
1582311048.326,6.348,32.715,36.133,11.719,0.0,0
1582311048.33,10.254,32.715,36.621,18.555,0.0,0
1582311048.334,11.719,34.668,34.668,15.137,0.0,0
1582311048.3379998,18.066,36.621,34.668,14.648,0.0,0
1582311048.342,21.484,35.645,36.621,20.02,0.0,0
1582311048.345,18.555,37.598,34.668,21.484,0.0,0
1582311048.349,20.508000000000006,39.062,33.691,17.09,0.0,0
1582311048.353,20.508000000000006,34.18,34.668,11.719,0.0,0
1582311048.357,17.09,30.762,34.18,10.254,0.0,0
1582311048.361,18.555,33.203,32.227,9.766,0.0,0
1582311048.363,17.09,33.691,32.227,5.859,0.0,0
1582311048.367,19.531,32.715,35.645,9.277,0.0,0
1582311048.371,24.414,34.18,37.109,17.09,0.0,0
1582311048.375,27.344,35.156,38.086,20.996,0.0,0
1582311048.379,27.832,36.133,38.574,23.438,0.0,0
1582311048.383,28.32,37.109,35.645,19.043,0.0,0
1582311048.387,30.762,38.086,35.156,15.625,0.0,0
1582311048.39,26.367,40.039,34.668,12.695,0.0,0
1582311048.394,24.902,39.551,32.227,10.254,0.0,0
1582311048.3979998,27.344,37.598,29.297,8.301,0.0,0
1582311048.4020002,25.391,36.621,27.832,3.906,0.0,0
1582311048.406,24.902,39.551,29.785,12.207,0.0,0
1582311048.408,26.367,41.992,30.762,16.113,0.0,0
1582311048.4120002,28.809,42.48,32.715,8.301,0.0,0
1582311048.416,29.785,41.992,36.621,10.742,0.0,0
1582311048.42,26.855,41.01600000000001,34.668,14.648,0.0,0
1582311048.424,22.461,39.062,31.738000000000003,15.137,0.0,0
1582311048.428,21.973000000000006,36.133,32.715,13.184,0.0,0
1582311048.4320002,25.879,36.133,32.227,7.812,0.0,0
1582311048.435,30.762,36.133,31.738000000000003,9.766,0.0,0
1582311048.439,32.227,37.109,31.25,11.719,0.0,0
1582311048.4429998,24.902,37.598,29.785,10.742,0.0,0
1582311048.447,23.926,37.598,27.344,7.324,0.0,0
1582311048.451,27.832,37.598,26.367,5.859,0.0,0
1582311048.4529998,23.438,37.109,29.297,6.836,0.0,0
1582311048.457,18.066,38.086,29.785,6.836,0.0,0
1582311048.461,17.578,37.598,27.832,2.93,0.0,0
1582311048.465,18.555,38.086,28.809,0.0,0.0,0
1582311048.469,19.531,40.527,28.32,-0.977,0.0,0
1582311048.4729998,17.578,42.48,26.855,3.418,0.0,0
1582311048.4770002,19.043,40.527,27.832,7.812,0.0,0
1582311048.48,17.578,40.527,29.297,6.836,0.0,0
1582311048.484,19.043,41.01600000000001,28.809,4.883,0.0,0
1582311048.488,17.09,41.01600000000001,31.25,4.395,0.0,0
1582311048.492,9.277,41.01600000000001,32.227,0.0,0.0,0
1582311048.496,13.672,43.457,31.25,-1.953,0.0,0
1582311048.5129998,8.301,45.41,31.25,-2.93,0.0,0
1582311048.5170002,0.0,45.41,30.762,-11.719,0.0,0
1582311048.521,0.488,45.41,29.297,-11.23,0.0,0
1582311048.525,4.395,49.805,28.32,-14.648,0.0,0
1582311048.529,-1.465,48.34,33.203,-21.484,0.0,0
1582311048.533,-19.531,47.363,34.18,-21.973000000000006,0.0,0
1582311048.5370002,-23.438,52.246,34.18,-26.367,0.0,0
1582311048.54,-28.32,51.758,34.18,-36.133,0.0,0
1582311048.544,-32.227,51.758,33.691,-45.41,0.0,0
1582311048.548,-37.598,51.27,30.273000000000003,-55.176,0.0,0
1582311048.552,-53.223,49.316,28.32,-64.941,0.0,0
1582311048.556,-59.57,51.27,35.156,-65.43,0.0,0
1582311048.5579998,-58.594,55.664,33.691,-70.801,0.0,0
1582311048.562,-65.43,56.64100000000001,31.25,-83.49600000000002,0.0,0
1582311048.566,-68.848,55.664,35.156,-87.891,0.0,0
1582311048.57,-78.125,55.176,34.18,-98.145,0.0,0
1582311048.574,-89.844,56.152,32.227,-106.934,0.0,0
1582311048.5779998,-87.402,61.035,35.645,-106.445,0.0,0
1582311048.582,-94.727,63.477,37.109,-113.77,0.0,0
1582311048.585,-100.098,64.453,34.18,-124.512,0.0,0
1582311048.589,-102.051,63.477,34.668,-129.395,0.0,0
1582311048.593,-108.398,60.547,37.109,-135.254,0.0,0
1582311048.597,-114.258,58.105,36.133,-141.602,0.0,0
1582311048.601,-119.629,59.082,34.18,-138.184,0.0,0
1582311048.603,-122.559,57.129,34.18,-135.254,0.0,0
1582311048.607,-114.746,57.617,32.715,-134.27700000000002,0.0,0
1582311048.611,-104.492,59.57,30.762,-129.88299999999998,0.0,0
1582311048.615,-99.609,56.152,32.227,-123.047,0.0,0
1582311048.619,-96.191,53.71100000000001,30.273000000000003,-121.094,0.0,0
1582311048.623,-88.37899999999998,57.617,29.785,-113.77,0.0,0
1582311048.627,-83.984,57.129,34.18,-104.492,0.0,0
1582311048.63,-83.008,52.246,34.668,-97.168,0.0,0
1582311048.6339998,-73.73,56.64100000000001,34.18,-83.984,0.0,0
1582311048.6379998,-66.895,55.176,34.18,-77.637,0.0,0
1582311048.6420002,-63.965,48.828,31.738000000000003,-81.055,0.0,0
1582311048.646,-47.363,50.78100000000001,32.227,-71.289,0.0,0
1582311048.6479998,-41.01600000000001,48.34,29.785,-60.059,0.0,0
1582311048.6520002,-39.062,44.434,25.879,-55.176,0.0,0
1582311048.656,-27.344,43.945,27.344,-47.363,0.0,0
1582311048.66,-18.555,42.969,28.809,-34.668,0.0,0
1582311048.664,-10.742,41.992,25.879,-23.438,0.0,0
1582311048.668,-3.418,41.992,23.438,-16.602,0.0,0
1582311048.6720002,8.301,41.504,26.855,-4.883,0.0,0
1582311048.675,19.043,37.598,29.297,9.277,0.0,0
1582311048.679,20.996,36.133,28.32,12.695,0.0,0
1582311048.6829998,25.879,37.598,25.879,13.184,0.0,0
1582311048.687,35.645,38.086,26.855,21.973000000000006,0.0,0
1582311048.691,46.875,38.574,27.832,27.832,0.0,0
1582311048.6929998,53.223,37.109,28.809,37.109,0.0,0
1582311048.697,44.434,34.18,29.785,43.945,0.0,0
1582311048.701,43.945,33.691,29.297,46.387,0.0,0
1582311048.705,49.805,31.738000000000003,28.32,49.316,0.0,0
1582311048.709,52.734,30.273000000000003,27.832,52.734,0.0,0
1582311048.7129998,61.035,31.738000000000003,28.32,54.688,0.0,0
1582311048.717,61.035,30.762,28.809,55.176,0.0,0
1582311048.72,57.129,28.809,28.32,55.664,0.0,0
1582311048.724,60.059,28.809,28.809,55.664,0.0,0
1582311048.728,60.547,30.273000000000003,29.785,54.199,0.0,0
1582311048.732,59.082,31.738000000000003,29.785,57.617,0.0,0
1582311048.736,62.5,31.738000000000003,27.344,57.129,0.0,0
1582311048.738,63.965,31.25,28.32,58.105,0.0,0
1582311048.742,63.477,31.738000000000003,30.273000000000003,58.105,0.0,0
1582311048.746,67.383,33.691,31.738000000000003,59.082,0.0,0
1582311048.75,71.777,33.203,33.691,63.965,0.0,0
1582311048.754,71.777,31.25,29.785,60.059,0.0,0
1582311048.758,65.918,29.785,27.344,58.105,0.0,0
1582311048.762,62.5,30.273000000000003,27.344,61.523,0.0,0
1582311048.765,63.965,31.25,27.832,59.57,0.0,0
1582311048.769,58.105,28.32,28.809,47.852,0.0,0
1582311048.7729998,56.152,28.32,27.344,46.387,0.0,0
1582311048.7770002,53.71100000000001,30.762,30.273000000000003,47.363,0.0,0
1582311048.781,50.293,30.273000000000003,29.785,44.434,0.0,0
1582311048.783,49.316,28.809,26.855,45.898,0.0,0
1582311048.7870002,47.363,28.32,26.855,44.922,0.0,0
1582311048.791,51.27,30.273000000000003,27.344,44.434,0.0,0
1582311048.795,57.617,31.738000000000003,28.32,52.246,0.0,0
1582311048.799,58.105,30.273000000000003,28.809,51.27,0.0,0
1582311048.803,58.594,31.25,31.25,49.316,0.0,0
1582311048.8070002,53.71100000000001,31.738000000000003,28.809,51.758,0.0,0
1582311048.81,49.805,30.762,26.855,47.852,0.0,0
1582311048.814,49.316,29.785,27.344,48.34,0.0,0
1582311048.8179998,54.199,29.297,27.832,50.78100000000001,0.0,0
1582311048.822,53.71100000000001,30.762,29.297,48.34,0.0,0
1582311048.826,48.828,31.738000000000003,28.809,47.852,0.0,0
1582311048.8279998,48.34,29.785,28.809,41.504,0.0,0
1582311048.832,50.78100000000001,29.297,28.32,35.645,0.0,0
1582311048.836,54.688,30.762,26.855,41.01600000000001,0.0,0
1582311048.84,52.246,28.809,27.344,47.363,0.0,0
1582311048.844,51.758,27.832,28.32,47.852,0.0,0
1582311048.8479998,53.71100000000001,29.297,30.273000000000003,48.34,0.0,0
1582311048.8520002,49.805,30.762,29.785,45.41,0.0,0
1582311048.855,47.363,29.785,28.32,41.01600000000001,0.0,0
1582311048.859,41.992,29.297,28.809,37.109,0.0,0
1582311048.863,36.133,32.227,29.297,33.691,0.0,0
1582311048.867,36.621,34.668,30.762,35.645,0.0,0
1582311048.871,37.109,34.668,29.785,35.645,0.0,0
1582311048.8879998,41.01600000000001,33.691,29.785,36.621,0.0,0
1582311048.8920002,47.363,36.133,32.227,40.039,0.0,0
1582311048.896,44.922,36.133,31.738000000000003,41.01600000000001,0.0,0
1582311048.9,41.504,32.715,31.738000000000003,40.039,0.0,0
1582311048.904,45.898,33.203,33.203,41.504,0.0,0
1582311048.908,45.898,37.598,33.691,39.551,0.0,0
1582311048.9120002,41.504,39.062,31.738000000000003,35.156,0.0,0
1582311048.915,38.574,37.598,31.738000000000003,34.668,0.0,0
1582311048.919,33.691,36.621,30.273000000000003,32.715,0.0,0
1582311048.923,35.156,37.109,32.715,36.133,0.0,0
1582311048.927,39.551,37.598,34.668,34.18,0.0,0
1582311048.931,36.621,35.645,32.227,28.809,0.0,0
1582311048.9329998,33.691,34.18,34.18,34.668,0.0,0
1582311048.937,35.645,35.156,34.18,31.25,0.0,0
1582311048.941,36.621,37.109,35.156,26.367,0.0,0
1582311048.945,31.25,37.598,37.598,26.855,0.0,0
1582311048.949,33.203,36.133,36.621,30.273000000000003,0.0,0
1582311048.9529998,38.086,34.18,35.645,32.227,0.0,0
1582311048.957,34.18,35.156,35.156,26.855,0.0,0
1582311048.96,30.762,36.133,34.668,26.367,0.0,0
1582311048.964,28.809,36.133,32.227,25.391,0.0,0
1582311048.968,29.785,38.086,32.227,20.996,0.0,0
1582311048.972,27.832,37.598,34.668,22.461,0.0,0
1582311048.976,24.414,36.133,33.691,19.531,0.0,0
1582311048.9770002,27.832,37.109,33.691,18.066,0.0,0
1582311048.981,26.367,37.109,34.668,19.531,0.0,0
1582311048.985,20.508000000000006,35.156,35.645,17.09,0.0,0
1582311048.9889998,23.438,34.18,35.156,19.043,0.0,0
1582311048.9929998,21.484,36.133,35.645,18.555,0.0,0
1582311048.9970002,22.461,38.086,34.668,19.043,0.0,0
1582311049.0010002,25.879,35.645,32.227,20.508000000000006,0.0,0
1582311049.004,24.902,33.691,33.203,16.602,0.0,0
1582311049.008,28.32,36.621,33.691,17.578,0.0,0
1582311049.012,25.879,35.645,32.227,24.902,0.0,0
1582311049.016,26.855,32.715,33.203,25.879,0.0,0
1582311049.02,34.18,34.18,33.691,28.809,0.0,0
1582311049.022,30.762,35.645,33.691,29.297,0.0,0
1582311049.026,22.949,34.668,32.715,24.902,0.0,0
1582311049.03,24.414,33.203,29.785,23.926,0.0,0
1582311049.034,24.902,33.203,28.32,23.438,0.0,0
1582311049.038,21.484,34.18,29.785,20.02,0.0,0
1582311049.042,18.555,31.738000000000003,31.25,19.531,0.0,0
1582311049.046,18.066,31.25,30.273000000000003,20.02,0.0,0
1582311049.049,25.391,30.273000000000003,29.297,19.043,0.0,0
1582311049.053,26.855,32.227,31.738000000000003,18.066,0.0,0
1582311049.0570002,23.926,36.621,33.203,16.602,0.0,0
1582311049.061,24.902,36.621,33.203,19.043,0.0,0
1582311049.065,27.832,39.062,32.715,23.926,0.0,0
1582311049.0670002,29.785,40.527,30.273000000000003,18.555,0.0,0
1582311049.071,26.855,38.086,29.785,11.719,0.0,0
1582311049.075,22.949,39.062,31.738000000000003,14.16,0.0,0
1582311049.079,26.855,40.527,29.785,16.602,0.0,0
1582311049.083,36.133,40.527,27.832,19.043,0.0,0
1582311049.087,38.574,41.504,30.273000000000003,22.949,0.0,0
1582311049.091,29.785,40.527,32.227,24.902,0.0,0
1582311049.094,31.25,41.01600000000001,31.738000000000003,23.926,0.0,0
1582311049.0979998,36.621,40.039,32.227,21.484,0.0,0
1582311049.1020002,32.227,38.574,32.715,20.02,0.0,0
1582311049.106,35.156,40.039,31.738000000000003,18.555,0.0,0
1582311049.11,36.621,41.504,32.715,25.391,0.0,0
1582311049.1120002,37.598,41.01600000000001,32.715,27.344,0.0,0
1582311049.1160002,38.086,40.039,31.738000000000003,23.438,0.0,0
1582311049.12,37.598,40.039,32.227,24.414,0.0,0
1582311049.1239998,31.738000000000003,40.039,32.227,22.461,0.0,0
1582311049.1279998,24.414,37.598,33.203,18.555,0.0,0
1582311049.1320002,25.391,36.133,33.203,15.137,0.0,0
1582311049.1360002,25.879,37.598,32.227,13.184,0.0,0
1582311049.139,28.32,39.062,32.715,14.16,0.0,0
1582311049.143,20.996,36.133,33.691,12.207,0.0,0
1582311049.147,19.531,34.668,33.203,5.859,0.0,0
1582311049.151,21.484,36.621,30.273000000000003,10.254,0.0,0
1582311049.155,15.625,37.109,29.785,15.625,0.0,0
1582311049.157,16.113,37.598,30.273000000000003,11.23,0.0,0
1582311049.161,21.484,38.574,26.855,4.883,0.0,0
1582311049.165,26.367,38.574,28.32,4.883,0.0,0
1582311049.169,26.855,40.039,30.762,7.324,0.0,0
1582311049.173,25.391,40.527,29.785,11.23,0.0,1
1582311049.177,23.926,37.598,28.809,14.648,0.0,0
1582311049.181,20.508000000000006,35.645,28.32,12.207,0.0,0
1582311049.184,22.949,38.086,28.809,11.23,0.0,0
1582311049.188,20.996,36.621,29.785,13.672,0.0,0
1582311049.1920002,15.625,33.203,30.762,12.695,0.0,0
1582311049.196,23.926,34.668,32.227,12.695,0.0,0
1582311049.2,27.344,36.133,33.203,14.16,0.0,0
1582311049.217,26.367,36.133,31.738000000000003,15.625,0.0,0
1582311049.221,23.926,35.156,30.273000000000003,12.695,0.0,0
1582311049.225,22.461,33.691,32.227,13.672,0.0,0
1582311049.229,22.949,31.738000000000003,32.227,16.602,0.0,0
1582311049.2329998,17.578,31.738000000000003,31.738000000000003,10.742,0.0,0
1582311049.2370002,18.555,32.715,31.738000000000003,9.277,0.0,0
1582311049.2410002,22.949,33.203,33.203,10.254,0.0,0
1582311049.244,19.531,32.227,30.273000000000003,5.859,0.0,0
1582311049.248,14.648,30.762,27.832,5.371,0.0,0
1582311049.252,13.672,32.227,31.25,7.324,0.0,0
1582311049.256,17.578,32.227,32.715,8.301,0.0,0
1582311049.26,20.02,30.762,30.273000000000003,7.812,0.0,0
1582311049.262,12.695,30.273000000000003,29.297,4.883,0.0,0
1582311049.266,14.16,32.227,27.832,7.812,0.0,0
1582311049.27,16.602,32.227,28.32,10.742,0.0,0
1582311049.274,16.113,30.273000000000003,27.344,9.277,0.0,0
1582311049.278,20.02,32.227,27.832,13.672,0.0,0
1582311049.282,22.949,34.18,29.785,16.113,0.0,0
1582311049.286,21.973000000000006,34.668,29.785,20.508000000000006,0.0,0
1582311049.289,23.438,36.621,29.785,23.926,0.0,0
1582311049.293,30.762,36.133,30.273000000000003,20.996,0.0,0
1582311049.2970002,30.273000000000003,34.18,29.297,18.555,0.0,0
1582311049.301,25.879,34.668,28.809,20.508000000000006,0.0,0
1582311049.305,26.855,32.715,28.809,22.461,0.0,0
1582311049.3070002,29.297,32.227,28.32,20.508000000000006,0.0,0
1582311049.311,30.762,33.203,30.762,17.09,0.0,0
1582311049.315,30.762,33.691,31.738000000000003,18.066,0.0,0
1582311049.319,25.879,33.203,31.738000000000003,20.996,0.0,0
1582311049.323,25.879,33.203,31.25,20.508000000000006,0.0,0
1582311049.327,26.367,33.691,31.738000000000003,18.555,0.0,0
1582311049.331,17.578,32.715,32.227,16.113,0.0,0
1582311049.334,15.137,32.715,30.762,15.137,0.0,0
1582311049.3379998,20.508000000000006,33.203,31.25,19.043,0.0,0
1582311049.342,24.414,33.691,31.738000000000003,18.066,0.0,0
1582311049.346,16.602,32.715,30.762,11.719,0.0,0
1582311049.35,15.625,35.156,30.762,13.184,0.0,0
1582311049.3520002,21.973000000000006,36.133,30.273000000000003,10.254,0.0,0
1582311049.356,19.043,34.18,30.273000000000003,9.277,0.0,0
1582311049.36,24.414,37.109,28.32,8.301,0.0,0
1582311049.3639998,33.203,38.574,26.855,3.906,0.0,0
1582311049.3679998,32.715,37.598,27.832,1.953,0.0,0
1582311049.3720002,36.621,37.598,26.367,-1.465,0.0,0
1582311049.3760002,39.062,39.062,24.414,4.883,0.0,0
1582311049.379,36.133,39.062,24.414,7.812,0.0,0
1582311049.383,32.227,36.133,26.855,8.301,0.0,0
1582311049.387,23.926,36.133,27.344,11.719,0.0,0
1582311049.391,18.066,36.621,30.273000000000003,13.672,0.0,0
1582311049.395,11.23,35.645,29.785,12.695,0.0,0
1582311049.3979998,9.277,34.668,26.367,10.742,0.0,0
1582311049.4020002,17.578,35.645,28.32,8.789,0.0,0
1582311049.406,21.973000000000006,36.133,28.32,5.859,0.0,0
1582311049.41,18.555,37.109,27.832,4.883,0.0,0
1582311049.414,14.16,37.109,28.809,3.906,0.0,0
1582311049.418,15.137,37.109,27.344,4.395,0.0,0
1582311049.4220002,14.648,37.598,26.855,2.93,0.0,0
1582311049.425,13.672,41.992,28.809,6.348,0.0,0
1582311049.429,13.672,43.457,30.273000000000003,8.301,0.0,0
1582311049.4329998,16.602,41.992,30.273000000000003,7.324,0.0,0
1582311049.437,12.207,38.574,31.738000000000003,6.348,0.0,0
1582311049.441,14.648,39.062,32.227,6.348,0.0,0
1582311049.4429998,16.602,40.527,31.738000000000003,10.742,0.0,0
1582311049.447,13.672,41.01600000000001,31.738000000000003,13.672,0.0,0
1582311049.451,16.602,40.039,31.25,10.254,0.0,0
1582311049.455,15.625,40.039,31.738000000000003,10.254,0.0,0
1582311049.459,12.695,40.527,32.715,11.719,0.0,0
1582311049.4629998,16.602,38.086,31.25,10.742,0.0,0
1582311049.467,19.531,37.598,31.738000000000003,10.742,0.0,0
1582311049.47,10.742,38.574,34.18,10.254,0.0,0
1582311049.474,13.672,38.574,35.156,12.695,0.0,0
1582311049.478,21.484,39.062,36.621,18.066,0.0,0
1582311049.482,20.02,41.992,34.668,14.648,0.0,0
1582311049.486,16.602,41.504,32.227,7.324,0.0,0
1582311049.488,15.625,38.574,30.273000000000003,10.742,0.0,0
1582311049.492,19.043,36.133,28.32,10.742,0.0,0
1582311049.496,21.484,35.645,27.344,9.766,0.0,0
1582311049.5,20.996,35.156,27.344,10.254,0.0,0
1582311049.504,17.578,33.691,26.367,5.371,0.0,0
1582311049.508,17.09,35.156,25.391,4.883,0.0,0
1582311049.512,16.602,36.133,25.391,6.836,0.0,0
1582311049.515,18.066,34.668,24.902,0.977,0.0,0
1582311049.519,18.555,33.691,24.414,4.883,0.0,0
1582311049.5229998,20.508000000000006,33.691,25.879,8.301,0.0,0
1582311049.5270002,19.043,33.691,28.809,3.906,0.0,0
1582311049.531,20.996,34.668,26.855,5.859,0.0,0
1582311049.533,20.508000000000006,35.645,26.367,3.906,0.0,0
1582311049.5370002,9.277,37.109,29.785,5.371,0.0,0
1582311049.541,12.207,38.574,31.738000000000003,8.789,0.0,0
1582311049.545,24.902,37.598,33.691,11.719,0.0,0
1582311049.549,30.762,35.645,34.18,10.742,0.0,0
1582311049.553,31.738000000000003,36.133,35.156,15.625,0.0,0
1582311049.5570002,29.785,35.645,35.645,20.996,0.0,0
1582311049.56,31.738000000000003,35.645,33.203,19.531,0.0,0
1582311049.564,35.645,37.598,33.203,20.996,0.0,0
1582311049.5679998,37.109,39.551,36.133,23.926,0.0,0
1582311049.572,28.32,38.086,37.109,22.461,0.0,0
1582311049.576,23.926,41.992,35.156,23.926,0.0,0
1582311049.5779998,28.32,43.457,36.133,20.508000000000006,0.0,0
1582311049.582,25.879,40.527,38.574,18.555,0.0,0
1582311049.586,23.926,41.01600000000001,37.598,17.09,0.0,0
1582311049.59,21.484,38.086,37.109,8.789,0.0,0
1582311049.594,19.531,40.039,37.598,10.742,0.0,0
1582311049.5979998,22.461,41.504,36.133,10.254,0.0,0
1582311049.6020002,20.996,40.039,35.156,5.371,0.0,0
1582311049.605,18.555,40.039,33.691,2.93,0.0,0
1582311049.609,22.949,39.551,33.691,-1.953,0.0,0
1582311049.613,23.926,38.574,36.621,-2.93,0.0,0
1582311049.617,18.555,39.551,38.086,-1.465,0.0,0
1582311049.621,18.066,41.992,36.133,0.0,0.0,0
1582311049.6379998,12.695,40.039,34.18,-0.977,0.0,0
1582311049.6420002,12.207,37.598,32.227,-7.324,0.0,0
1582311049.646,17.09,37.109,30.762,-3.906,0.0,0
1582311049.65,18.066,37.598,29.785,2.93,0.0,0
1582311049.654,19.043,35.645,26.855,1.953,0.0,0
1582311049.658,19.531,38.086,25.391,3.418,0.0,0
1582311049.6620002,20.508000000000006,39.551,25.879,2.441,0.0,0
1582311049.665,17.578,35.156,26.367,1.953,0.0,0
1582311049.669,14.16,36.621,26.367,4.395,0.0,0
1582311049.673,17.578,39.551,26.367,2.93,0.0,0
1582311049.677,18.555,38.574,27.344,1.953,0.0,0
1582311049.681,13.672,37.598,25.879,3.418,0.0,0
1582311049.6829998,12.695,40.039,24.414,3.418,0.0,0
1582311049.687,15.137,41.01600000000001,25.391,3.906,0.0,0
1582311049.691,9.277,38.086,23.926,3.906,0.0,0
1582311049.695,3.418,37.109,24.902,2.93,0.0,0
1582311049.699,6.836,39.551,25.879,3.906,0.0,0
1582311049.7029998,9.277,39.551,26.367,3.418,0.0,0
1582311049.707,4.883,40.039,25.879,-2.93,0.0,0
1582311049.71,-0.977,41.01600000000001,26.367,-3.906,0.0,0
1582311049.714,0.0,40.527,28.809,-4.395,0.0,0
1582311049.718,-1.465,44.434,31.738000000000003,-6.348,0.0,0
1582311049.722,-13.672,42.48,34.668,-11.719,0.0,0
1582311049.726,-25.879,42.48,32.227,-24.414,0.0,0
1582311049.728,-24.414,46.387,34.668,-25.879,0.0,0
1582311049.732,-36.133,39.551,35.156,-39.062,0.0,0
1582311049.736,-46.875,43.457,29.785,-55.664,0.0,0
1582311049.74,-48.828,55.176,33.691,-62.988,0.0,0
1582311049.744,-60.059,58.594,39.551,-66.895,0.0,0
1582311049.748,-81.543,58.594,36.621,-81.055,0.0,0
1582311049.752,-93.75,59.57,34.18,-103.027,0.0,0
1582311049.755,-89.355,62.5,37.109,-107.91,0.0,0
1582311049.7589998,-98.145,63.965,37.598,-114.746,0.0,0
1582311049.7629998,-122.07,63.965,33.203,-131.34799999999998,0.0,0
1582311049.7670002,-131.836,63.477,33.203,-142.578,0.0,0
1582311049.771,-126.953,62.988,36.133,-145.50799999999995,0.0,0
1582311049.7729998,-130.371,63.965,36.133,-148.438,0.0,0
1582311049.7770002,-143.066,64.941,35.156,-157.227,0.0,0
1582311049.781,-145.02,62.012,34.668,-161.621,0.0,0
1582311049.785,-142.09,60.059,35.645,-159.668,0.0,0
1582311049.789,-141.113,59.57,36.133,-159.18,0.0,0
1582311049.793,-142.578,57.617,32.227,-161.621,0.0,0
1582311049.7970002,-140.625,53.71100000000001,32.715,-153.809,0.0,0
1582311049.8,-136.23,48.828,38.086,-148.438,0.0,0
1582311049.804,-128.906,51.27,37.109,-149.414,0.0,0
1582311049.8079998,-120.117,51.27,34.668,-141.113,0.0,0
1582311049.812,-118.164,45.41,36.621,-131.836,0.0,0
1582311049.816,-110.352,45.41,38.086,-122.559,0.0,0
1582311049.8179998,-96.191,43.457,36.621,-113.77,0.0,0
1582311049.822,-85.93799999999997,41.504,36.133,-103.516,0.0,0
1582311049.826,-73.242,46.387,35.156,-89.355,0.0,0
1582311049.83,-69.336,45.898,33.691,-85.93799999999997,0.0,0
1582311049.834,-60.547,43.945,30.273000000000003,-82.52,0.0,0
1582311049.8379998,-39.551,45.898,28.809,-66.406,0.0,0
1582311049.842,-25.879,49.316,30.762,-52.734,0.0,0
1582311049.845,-11.719,49.805,28.32,-37.109,0.0,0
1582311049.849,-2.441,44.434,26.855,-22.461,0.0,0
1582311049.853,0.488,40.527,29.297,-11.719,0.0,0
1582311049.857,11.23,42.48,28.32,2.441,0.0,0
1582311049.861,30.273000000000003,43.457,28.809,16.113,0.0,0
1582311049.863,37.109,38.086,33.691,30.273000000000003,0.0,0
1582311049.867,43.945,34.668,35.156,33.691,0.0,0
1582311049.871,58.105,36.621,31.738000000000003,37.598,0.0,0
1582311049.875,61.035,35.156,30.273000000000003,44.922,0.0,0
1582311049.879,62.988,34.668,30.762,48.34,0.0,0
1582311049.883,69.336,38.574,31.25,53.223,0.0,0
1582311049.887,71.289,36.133,31.25,55.664,0.0,0
1582311049.89,70.801,34.668,28.32,61.523,0.0,0
1582311049.894,71.777,36.621,27.344,65.43,0.0,0
1582311049.8979998,76.66,35.645,28.809,68.359,0.0,0
1582311049.9020002,81.543,34.18,27.344,69.336,0.0,0
1582311049.906,86.426,33.203,28.32,75.195,0.0,0
1582311049.908,90.332,32.715,28.809,78.613,0.0,0
1582311049.9120002,89.844,33.203,28.32,80.078,0.0,0
1582311049.916,88.867,34.668,28.32,78.125,0.0,0
1582311049.92,84.473,32.715,28.32,75.195,0.0,0
1582311049.924,83.49600000000002,32.227,27.344,73.242,0.0,0
1582311049.928,86.426,35.645,27.344,72.266,0.0,0
1582311049.9320002,87.891,36.621,28.809,73.73,0.0,0
1582311049.935,90.82,36.133,27.344,73.242,0.0,0
1582311049.939,83.008,32.715,27.344,70.801,0.0,0
1582311049.9429998,78.613,31.738000000000003,28.809,66.895,0.0,0
1582311049.947,81.543,33.691,29.297,71.289,0.0,0
1582311049.951,87.891,31.25,29.785,76.66,0.0,0
1582311049.9529998,86.426,29.785,31.25,75.195,0.0,0
1582311049.957,77.637,30.273000000000003,30.273000000000003,76.172,0.0,0
1582311049.961,73.242,29.785,28.809,75.684,0.0,0
1582311049.965,69.824,29.785,28.32,66.895,0.0,0
1582311049.969,67.383,27.832,27.832,61.035,0.0,0
1582311049.9729998,61.035,25.879,28.32,61.035,0.0,0
1582311049.9770002,55.664,26.367,26.367,59.082,0.0,0
1582311049.98,58.105,26.855,25.391,57.129,0.0,0
1582311049.984,62.012,24.902,26.855,54.688,0.0,0
1582311049.988,60.547,25.391,26.855,53.71100000000001,0.0,0
1582311049.992,60.547,28.809,26.855,53.223,0.0,0
1582311049.996,58.105,28.809,27.832,53.223,0.0,0
1582311050.0129998,58.594,28.809,28.32,52.734,0.0,0
1582311050.0170002,62.012,29.785,31.25,54.688,0.0,0
1582311050.021,61.035,28.32,34.18,56.64100000000001,0.0,0
1582311050.025,63.477,30.273000000000003,30.762,52.734,0.0,0
1582311050.029,66.406,31.25,30.273000000000003,53.71100000000001,0.0,0
1582311050.033,62.012,32.227,29.785,55.176,0.0,0
1582311050.0370002,61.035,32.715,27.832,51.758,0.0,0
1582311050.04,57.617,31.25,27.344,46.387,0.0,0
1582311050.044,49.805,32.227,27.832,42.969,0.0,0
1582311050.048,53.223,33.203,29.297,45.898,0.0,0
1582311050.052,55.664,32.715,29.785,48.828,0.0,0
1582311050.056,52.734,34.18,29.785,49.316,0.0,0
1582311050.0570002,55.176,33.691,32.715,47.852,0.0,0
1582311050.061,57.617,32.227,36.133,52.246,0.0,0
1582311050.065,52.246,33.691,37.109,54.688,0.0,0
1582311050.069,50.78100000000001,33.691,37.109,51.27,0.0,0
1582311050.073,51.758,33.691,38.574,46.387,0.0,0
1582311050.077,51.758,34.668,35.156,42.48,0.0,0
1582311050.081,53.71100000000001,36.133,30.762,42.48,0.0,0
1582311050.084,49.805,36.621,31.738000000000003,41.01600000000001,0.0,0
1582311050.0879998,42.48,34.668,32.227,35.645,0.0,0
1582311050.092,41.992,36.133,28.32,33.691,0.0,0
1582311050.096,40.039,35.645,27.344,28.809,0.0,0
1582311050.1,34.18,32.715,29.297,24.902,0.0,0
1582311050.1020002,39.062,32.715,29.785,30.273000000000003,0.0,0
1582311050.106,44.434,35.156,31.25,29.785,0.0,0
1582311050.11,39.551,33.691,34.18,27.832,0.0,0
1582311050.1139998,37.598,32.227,32.715,30.273000000000003,0.0,0
1582311050.1179998,41.504,34.18,31.738000000000003,28.32,0.0,0
1582311050.1220002,43.945,36.621,32.715,27.832,0.0,0
1582311050.1260002,41.504,36.133,30.762,25.879,0.0,0
1582311050.129,36.133,34.668,31.25,25.879,0.0,0
1582311050.133,32.227,34.18,31.738000000000003,32.227,0.0,0
1582311050.137,31.738000000000003,35.645,29.785,27.832,0.0,0
1582311050.141,29.297,35.156,29.785,23.438,0.0,0
1582311050.145,24.902,32.715,31.738000000000003,27.832,0.0,0
1582311050.147,27.832,32.715,32.227,29.785,0.0,0
1582311050.151,30.762,32.227,32.227,24.414,0.0,0
1582311050.155,27.832,32.227,32.227,22.949,0.0,0
1582311050.159,28.809,34.18,35.156,26.367,0.0,0
1582311050.163,31.25,35.645,34.668,24.902,0.0,0
1582311050.167,31.738000000000003,34.18,29.785,20.02,0.0,0
1582311050.171,34.668,32.715,28.32,15.625,0.0,0
1582311050.174,35.156,32.227,27.344,16.602,0.0,0
1582311050.178,32.227,34.668,27.832,16.602,0.0,0
1582311050.1820002,26.855,33.691,29.785,15.137,0.0,0
1582311050.186,22.461,30.762,29.785,13.184,0.0,0
1582311050.19,22.949,29.785,30.273000000000003,14.16,0.0,0
1582311050.1920002,27.344,32.715,31.25,20.508000000000006,0.0,0
1582311050.196,27.344,32.715,30.762,19.043,0.0,0
1582311050.2,26.855,31.25,32.715,17.578,0.0,0
1582311050.204,32.227,33.691,33.691,20.508000000000006,0.0,0
1582311050.208,36.133,33.691,32.227,20.508000000000006,0.0,0
1582311050.212,28.32,31.738000000000003,30.273000000000003,20.996,0.0,0
1582311050.216,23.926,29.297,29.297,20.02,0.0,0
1582311050.219,28.809,30.762,32.715,22.461,0.0,0
1582311050.2229998,30.273000000000003,33.691,33.691,24.414,0.0,0
1582311050.2270002,24.902,33.691,31.25,20.996,0.0,0
1582311050.231,22.949,32.227,29.785,21.973000000000006,0.0,0
1582311050.235,24.902,33.203,29.785,20.508000000000006,0.0,0
1582311050.2370002,26.367,32.715,31.25,22.949,0.0,0
1582311050.2410002,26.367,32.227,34.668,28.32,0.0,0
1582311050.245,35.645,36.133,37.109,29.785,0.0,0
1582311050.2489998,34.668,36.621,36.621,26.367,0.0,0
1582311050.2529998,25.391,35.156,39.062,26.367,0.0,2
1582311050.2570002,28.809,35.156,38.086,27.832,0.0,0
1582311050.2610002,25.879,35.645,36.133,19.531,0.0,0
1582311050.264,20.996,37.598,35.156,14.16,0.0,0
1582311050.268,19.043,35.645,34.18,11.719,0.0,0
1582311050.272,20.02,33.203,34.668,12.207,0.0,0
1582311050.276,23.926,35.645,34.18,10.742,0.0,0
1582311050.28,22.949,35.645,34.18,10.742,0.0,0
1582311050.282,19.531,35.156,34.18,10.742,0.0,0
1582311050.286,18.066,35.645,32.715,8.301,0.0,0
1582311050.29,18.066,33.203,30.762,10.742,0.0,0
1582311050.294,18.066,33.203,31.738000000000003,10.742,0.0,0
1582311050.298,23.926,34.18,33.691,11.23,0.0,0
1582311050.302,27.832,34.18,30.762,15.625,0.0,0
1582311050.306,24.414,32.715,28.809,18.066,0.0,0
1582311050.309,25.391,33.203,30.762,18.555,0.0,0
1582311050.313,24.902,32.227,30.762,15.137,0.0,0
1582311050.3170002,27.832,30.762,33.203,14.648,0.0,0
1582311050.321,29.297,31.738000000000003,34.668,18.066,0.0,0
1582311050.325,25.391,33.203,37.109,21.484,0.0,0
1582311050.327,28.32,34.668,35.645,24.414,0.0,0
1582311050.331,30.762,34.18,33.691,23.926,0.0,0
1582311050.335,34.18,33.203,33.203,24.414,0.0,0
1582311050.339,30.273000000000003,34.18,33.691,25.391,0.0,0
1582311050.343,25.391,33.691,33.691,22.461,0.0,0
1582311050.347,30.273000000000003,36.133,36.133,20.996,0.0,0
1582311050.351,26.855,39.062,33.691,15.137,0.0,0
1582311050.354,24.414,38.086,30.762,10.254,0.0,0
1582311050.3579998,23.926,36.133,34.18,6.836,0.0,0
1582311050.3620002,19.531,36.621,34.668,4.395,0.0,0
1582311050.3660002,14.648,36.621,34.668,3.906,0.0,0
1582311050.37,8.789,34.668,37.109,-0.488,0.0,0
1582311050.387,15.137,35.156,38.086,1.953,0.0,0
1582311050.391,21.973000000000006,35.156,37.109,8.301,0.0,0
1582311050.395,24.902,36.133,36.133,10.254,0.0,0
1582311050.399,22.461,38.086,34.18,11.719,0.0,0
1582311050.403,18.066,37.109,33.203,14.16,0.0,0
1582311050.407,22.461,35.645,33.691,14.648,0.0,0
1582311050.411,26.367,35.645,33.691,15.137,0.0,0
1582311050.414,24.902,36.621,32.715,17.578,0.0,0
1582311050.418,29.297,38.086,31.738000000000003,21.484,0.0,0
1582311050.4220002,26.367,40.039,29.785,19.043,0.0,0
1582311050.426,21.973000000000006,40.039,31.25,16.602,0.0,0
1582311050.43,27.344,39.062,33.203,18.555,0.0,0
1582311050.4320002,27.344,39.062,33.203,22.949,0.0,0
1582311050.436,28.809,39.551,33.203,23.438,0.0,0
1582311050.44,34.18,40.527,31.25,23.438,0.0,0
1582311050.444,31.25,40.039,32.715,24.902,0.0,0
1582311050.448,33.203,41.504,33.691,21.973000000000006,0.0,0
1582311050.452,32.715,39.551,32.227,19.531,0.0,0
1582311050.456,25.391,37.109,32.227,20.02,0.0,0
1582311050.459,25.879,40.527,33.691,20.508000000000006,0.0,0
1582311050.4629998,30.762,42.48,31.738000000000003,15.625,0.0,0
1582311050.467,40.039,42.969,30.762,13.672,0.0,0
1582311050.471,45.898,41.992,32.227,11.23,0.0,0
1582311050.475,45.898,43.945,31.25,8.301,0.0,0
1582311050.478,47.363,46.387,28.809,3.418,0.0,0
1582311050.482,47.363,44.922,28.809,6.348,0.0,0
1582311050.486,41.992,44.434,31.25,9.277,0.0,0
1582311050.49,40.527,43.945,33.691,5.859,0.0,0
1582311050.494,35.645,41.504,38.574,12.207,0.0,0
1582311050.498,25.391,40.039,38.086,20.508000000000006,0.0,0
1582311050.502,17.578,40.039,35.156,20.996,0.0,0
1582311050.505,17.578,38.086,33.691,11.719,0.0,0
1582311050.5089998,21.484,37.109,33.691,5.859,0.0,0
1582311050.5129998,21.973000000000006,39.062,34.668,9.277,0.0,0
1582311050.5170002,19.531,40.039,35.156,12.207,0.0,0
1582311050.521,21.973000000000006,39.062,35.645,10.254,0.0,0
1582311050.5229998,27.344,41.992,35.645,13.184,0.0,0
1582311050.5270002,26.367,44.434,35.645,18.066,0.0,0
1582311050.531,26.855,43.457,35.645,18.066,0.0,0
1582311050.535,23.926,43.457,35.645,15.625,0.0,0
1582311050.539,19.043,41.992,33.203,11.719,0.0,0
1582311050.543,20.996,40.527,33.691,13.184,0.0,0
1582311050.5470002,24.414,41.992,34.18,14.648,0.0,0
1582311050.55,24.902,41.504,31.738000000000003,11.719,0.0,0
1582311050.554,17.578,41.01600000000001,32.715,11.23,0.0,0
1582311050.5579998,14.16,42.969,36.133,12.207,0.0,0
1582311050.562,17.578,41.992,35.156,13.672,0.0,0
1582311050.566,20.996,41.01600000000001,33.691,15.137,0.0,0
1582311050.5679998,25.879,41.504,34.18,18.555,0.0,0
1582311050.572,25.879,41.01600000000001,33.691,17.09,0.0,0
1582311050.576,23.926,42.48,34.18,16.113,0.0,0
1582311050.58,31.738000000000003,42.48,32.227,21.973000000000006,0.0,0
1582311050.584,30.762,42.48,29.785,22.461,0.0,0
1582311050.5879998,21.973000000000006,42.969,29.785,22.461,0.0,0
1582311050.592,20.996,42.48,31.25,20.996,0.0,0
1582311050.595,20.996,44.922,31.738000000000003,19.531,0.0,0
1582311050.599,20.996,43.457,31.738000000000003,18.066,0.0,0
1582311050.603,24.902,40.527,35.156,15.625,0.0,0
1582311050.607,24.902,42.969,35.645,13.184,0.0,0
1582311050.611,18.555,41.504,34.18,12.695,0.0,0
1582311050.613,20.02,39.062,36.621,16.113,0.0,0
1582311050.617,21.973000000000006,41.01600000000001,38.086,13.184,0.0,0
1582311050.621,22.461,42.969,36.621,11.23,0.0,0
1582311050.625,22.461,41.504,36.621,14.16,0.0,0
1582311050.629,15.137,39.062,35.645,11.719,0.0,0
1582311050.633,14.16,39.551,34.18,11.23,0.0,0
1582311050.637,17.09,40.527,34.18,14.648,0.0,0
1582311050.64,22.461,41.01600000000001,33.691,11.23,0.0,0
1582311050.644,36.133,43.945,31.25,13.672,0.0,0
1582311050.6479998,33.203,43.457,31.25,14.648,0.0,0
1582311050.6520002,16.602,39.551,37.109,8.301,0.0,0
1582311050.656,13.672,35.645,40.527,9.766,0.0,0
1582311050.658,22.461,37.598,39.062,17.09,0.0,0
1582311050.6620002,28.809,38.574,38.574,25.391,0.0,0
1582311050.666,38.574,36.621,41.504,32.227,0.0,0
1582311050.67,50.78100000000001,36.621,44.922,39.062,0.0,0
1582311050.674,51.758,34.668,47.363,46.387,0.0,0
1582311050.678,54.199,33.203,51.27,56.152,0.0,0
1582311050.6820002,53.71100000000001,31.738000000000003,51.758,56.64100000000001,0.0,0
1582311050.685,54.199,32.227,53.71100000000001,57.617,0.0,0
1582311050.689,50.293,32.715,53.223,54.688,0.0,0
1582311050.6929998,50.78100000000001,35.156,51.758,54.199,0.0,0
1582311050.697,56.64100000000001,32.715,51.758,58.594,0.0,0
1582311050.701,55.664,29.785,50.78100000000001,52.734,0.0,0
1582311050.7029998,52.734,33.691,48.828,51.27,0.0,0
1582311050.707,48.828,36.133,46.387,50.78100000000001,0.0,0
1582311050.711,47.852,34.668,44.922,44.434,0.0,0
1582311050.715,47.363,33.203,42.48,42.48,0.0,0
1582311050.719,43.945,33.203,42.969,40.039,0.0,0
1582311050.7229998,42.48,32.715,43.457,40.039,0.0,0
1582311050.7270002,41.504,33.203,41.504,37.109,0.0,0
1582311050.73,40.527,32.715,41.01600000000001,29.297,0.0,0
1582311050.734,38.574,31.738000000000003,41.01600000000001,28.809,0.0,0
1582311050.738,40.039,34.18,41.01600000000001,33.691,0.0,0
1582311050.742,45.41,36.621,39.551,31.738000000000003,0.0,0
1582311050.746,47.363,37.598,40.527,29.297,0.0,0
1582311050.7629998,34.668,38.574,41.01600000000001,27.832,0.0,0
1582311050.7670002,29.297,38.086,37.598,27.344,0.0,0
1582311050.771,32.227,39.551,38.574,29.297,0.0,0
1582311050.775,33.203,39.062,39.062,25.879,0.0,0
1582311050.779,34.18,36.621,37.598,18.066,0.0,0
1582311050.783,34.18,38.086,37.109,17.578,0.0,0
1582311050.7870002,23.926,39.551,37.598,19.531,0.0,0
1582311050.79,13.672,38.574,39.062,17.578,0.0,0
1582311050.794,18.555,36.133,36.621,16.602,0.0,0
1582311050.798,22.461,38.086,36.621,17.578,0.0,0
1582311050.802,19.531,41.504,39.062,15.625,0.0,0
1582311050.806,20.508000000000006,41.01600000000001,40.039,16.602,0.0,0
1582311050.8079998,22.461,41.01600000000001,39.551,17.09,0.0,0
1582311050.812,20.996,41.504,36.621,12.695,0.0,0
1582311050.816,21.484,40.039,36.133,12.207,0.0,0
1582311050.82,17.578,37.109,35.156,18.066,0.0,0
1582311050.824,16.113,38.574,36.621,19.043,0.0,0
1582311050.8279998,22.461,41.992,38.086,19.531,0.0,0
1582311050.832,23.438,40.527,37.598,20.02,0.0,0
1582311050.835,18.066,37.109,36.133,17.09,0.0,0
1582311050.839,21.973000000000006,39.062,37.598,16.602,0.0,0
1582311050.843,28.32,40.527,39.551,17.578,0.0,0
1582311050.847,23.438,39.062,40.039,17.09,0.0,0
1582311050.851,15.137,36.133,38.574,16.113,0.0,0
1582311050.853,20.508000000000006,36.133,39.062,18.066,0.0,0
1582311050.857,21.973000000000006,37.109,38.574,15.625,0.0,0
1582311050.861,19.531,39.062,36.133,17.09,0.0,0
1582311050.865,26.855,41.504,36.133,23.926,0.0,0
1582311050.869,24.902,39.062,37.598,20.996,0.0,0
1582311050.873,22.949,39.062,40.527,18.066,0.0,0
1582311050.877,23.438,40.039,41.992,19.043,0.0,0
1582311050.88,19.043,36.133,42.48,22.461,0.0,0
1582311050.8839998,16.602,35.645,41.992,21.973000000000006,0.0,0
1582311050.8879998,18.066,36.621,41.01600000000001,20.02,0.0,0
1582311050.8920002,18.066,33.691,42.969,20.508000000000006,0.0,0
1582311050.896,21.484,32.715,43.945,24.414,0.0,0
1582311050.8979998,21.973000000000006,36.133,41.992,22.461,0.0,0
1582311050.9020002,21.973000000000006,38.086,40.039,19.043,0.0,0
1582311050.906,27.344,38.574,39.551,22.461,0.0,0
1582311050.91,26.367,41.504,40.039,25.391,0.0,0
1582311050.914,30.762,42.48,39.551,25.391,0.0,0
1582311050.918,31.25,41.992,40.039,25.879,0.0,0
1582311050.9220002,28.32,42.48,40.527,24.414,0.0,0
1582311050.925,32.715,41.992,40.039,24.414,0.0,0
1582311050.929,32.227,41.504,39.062,23.438,0.0,0
1582311050.9329998,28.809,40.039,38.086,22.949,0.0,0
1582311050.937,26.855,39.062,38.574,23.438,0.0,0
1582311050.941,25.879,38.574,38.086,20.508000000000006,0.0,0
1582311050.9429998,21.484,40.039,36.133,16.602,0.0,0
1582311050.947,21.973000000000006,40.039,34.668,19.043,0.0,0
1582311050.951,27.832,41.504,35.156,20.996,0.0,0
1582311050.955,28.32,43.457,35.156,20.508000000000006,0.0,0
1582311050.959,21.484,42.48,34.668,22.949,0.0,0
1582311050.9629998,21.484,43.945,36.133,20.996,0.0,0
1582311050.967,25.391,43.945,35.156,14.648,0.0,0
1582311050.97,27.832,41.01600000000001,31.25,16.113,0.0,0
1582311050.974,26.367,41.992,31.738000000000003,17.09,0.0,0
1582311050.978,23.926,44.434,31.738000000000003,16.602,0.0,0
1582311050.982,29.785,43.945,30.762,17.09,0.0,0
1582311050.986,32.715,45.41,33.691,17.09,0.0,0
1582311050.988,25.879,45.41,32.715,17.09,0.0,0
1582311050.992,21.484,43.945,32.715,15.137,0.0,0
1582311050.996,24.414,44.922,32.227,12.207,0.0,0
1582311051.0,20.02,42.969,29.785,9.766,0.0,0
1582311051.004,13.184,41.01600000000001,28.809,9.277,0.0,0
1582311051.008,15.625,40.039,29.297,10.254,0.0,0
1582311051.012,17.09,39.062,30.273000000000003,15.625,0.0,0
1582311051.015,17.09,38.574,32.227,15.625,0.0,0
1582311051.019,13.672,38.574,33.203,13.672,0.0,0
1582311051.0229998,9.766,39.551,34.668,13.672,0.0,0
1582311051.0270002,15.625,41.504,36.133,14.648,0.0,0
1582311051.031,20.02,41.992,37.109,16.602,0.0,0
1582311051.033,17.578,41.504,35.156,9.277,0.0,0
1582311051.0370002,20.02,43.457,33.691,9.277,0.0,0
1582311051.041,21.484,43.945,36.133,14.16,0.0,0
1582311051.045,13.672,41.992,33.203,8.789,0.0,0
1582311051.049,7.812,41.01600000000001,29.297,4.883,0.0,0
1582311051.053,4.883,41.992,31.25,6.836,0.0,0
1582311051.0570002,1.465,41.504,32.715,8.301,0.0,0
1582311051.06,5.859,41.01600000000001,31.25,8.789,0.0,0
1582311051.064,10.742,41.01600000000001,31.25,8.301,0.0,0
1582311051.0679998,14.648,41.01600000000001,31.25,13.672,0.0,0
1582311051.072,19.531,41.01600000000001,31.738000000000003,18.555,0.0,0
1582311051.076,24.902,39.551,32.227,19.531,0.0,0
1582311051.0779998,28.32,40.039,32.227,18.555,0.0,0
1582311051.082,23.438,43.457,32.227,15.625,0.0,0
1582311051.086,18.066,43.457,32.227,14.16,0.0,0
1582311051.09,20.508000000000006,41.01600000000001,32.715,12.207,0.0,0
1582311051.094,20.02,39.551,34.18,10.742,0.0,0
1582311051.0979998,14.648,39.062,36.133,9.277,0.0,0
1582311051.1020002,15.137,40.039,37.109,12.695,0.0,0
1582311051.105,18.555,40.527,37.598,16.602,0.0,0
1582311051.109,22.461,40.039,36.621,17.578,0.0,0
1582311051.113,26.855,42.48,34.668,15.625,0.0,0
1582311051.117,24.902,44.434,35.156,16.602,0.0,0
1582311051.121,22.461,44.434,36.133,15.137,0.0,0
1582311051.1379998,24.902,44.434,36.621,14.648,0.0,0
1582311051.1420002,29.785,44.434,35.156,18.066,0.0,0
1582311051.146,31.738000000000003,45.898,35.156,18.066,0.0,0
1582311051.15,26.855,45.898,33.691,16.113,0.0,0
1582311051.154,26.855,44.434,30.273000000000003,11.719,0.0,0
1582311051.158,28.809,44.434,33.691,13.184,0.0,0
1582311051.1620002,20.508000000000006,45.898,36.133,15.625,0.0,0
1582311051.165,16.602,45.41,34.668,12.207,0.0,0
1582311051.169,20.508000000000006,44.434,35.645,10.742,0.0,0
1582311051.173,30.762,48.34,36.621,12.207,0.0,0
1582311051.177,34.18,52.734,36.133,13.672,0.0,0
1582311051.181,27.344,52.734,37.109,16.602,0.0,0
1582311051.1829998,25.879,51.27,35.156,14.648,0.0,0
1582311051.187,26.855,51.27,33.691,14.648,0.0,0
1582311051.191,31.25,51.758,35.156,20.508000000000006,0.0,0
1582311051.195,25.391,46.875,36.621,12.695,0.0,0
1582311051.199,6.348,41.01600000000001,38.086,-3.906,0.0,0
1582311051.2029998,0.977,40.039,36.621,-5.859,0.0,0
1582311051.207,2.93,39.551,36.133,-2.93,0.0,0
1582311051.21,-2.93,35.645,37.598,-11.719,0.0,0
1582311051.214,-0.977,36.133,35.645,-14.648,0.0,0
1582311051.218,-0.977,38.086,36.133,-9.766,0.0,0
1582311051.222,-7.812,34.668,38.086,-11.719,0.0,0
1582311051.226,-8.789,32.227,39.062,-11.719,0.0,0
1582311051.2270002,-2.93,33.691,37.598,-9.766,0.0,0
1582311051.231,2.441,37.598,37.109,-5.371,0.0,0
1582311051.235,3.418,38.574,37.598,-3.906,0.0,0
1582311051.2389998,4.395,37.109,35.645,-6.348,0.0,0
1582311051.2429998,8.301,39.062,35.156,-2.93,0.0,0
1582311051.2470002,3.418,41.504,33.691,-0.977,0.0,0
1582311051.2510002,0.0,40.527,32.227,0.488,0.0,0
1582311051.254,10.742,39.551,33.691,4.395,0.0,0
1582311051.258,14.648,41.01600000000001,37.109,7.812,0.0,0
1582311051.262,11.23,40.039,37.109,3.906,0.0,0
1582311051.266,8.301,37.109,37.109,5.371,0.0,0
1582311051.27,9.277,39.062,38.574,8.789,0.0,0
1582311051.272,14.16,41.992,37.598,10.742,0.0,0
1582311051.276,14.16,40.527,36.621,9.766,0.0,0
1582311051.28,14.16,40.039,37.109,3.906,0.0,0
1582311051.284,21.484,39.062,36.133,5.371,0.0,0
1582311051.288,20.508000000000006,38.574,35.645,6.836,0.0,0
1582311051.292,11.719,38.574,35.156,9.277,0.0,0
1582311051.296,18.555,40.039,35.645,14.16,0.0,0
1582311051.299,27.344,43.945,38.574,16.113,0.0,0
1582311051.303,26.855,44.922,39.551,15.137,0.0,0
1582311051.3070002,27.344,43.457,39.062,15.625,0.0,0
1582311051.311,28.809,42.48,39.062,15.137,0.0,0
1582311051.315,18.066,42.48,36.621,11.719,0.0,0
1582311051.3170002,12.207,44.434,36.133,10.742,0.0,0
1582311051.321,16.602,46.387,38.574,10.254,0.0,0
1582311051.325,14.16,43.457,39.551,6.836,0.0,0
1582311051.329,11.23,41.504,37.598,2.93,0.0,0
1582311051.333,15.625,43.457,36.621,3.418,0.0,0
1582311051.337,16.602,43.457,37.109,-1.465,0.0,0
1582311051.341,11.23,41.992,34.668,-4.395,0.0,0
1582311051.344,11.23,41.01600000000001,34.668,1.465,0.0,0
1582311051.3479998,9.766,40.527,35.645,1.465,0.0,0
1582311051.3520002,3.418,41.01600000000001,35.156,-4.395,0.0,0
1582311051.356,5.371,43.945,36.621,-1.953,0.0,0
1582311051.36,8.301,43.945,40.527,1.953,0.0,0
1582311051.3620002,8.301,44.922,45.41,0.0,0.0,0
1582311051.3660002,7.324,45.41,45.41,-10.254,0.0,0
1582311051.37,1.953,49.805,47.363,-13.672,0.0,0
1582311051.3739998,-12.207,51.758,45.898,-14.648,0.0,0
1582311051.3779998,-20.508000000000006,45.41,42.48,-22.461,0.0,0
1582311051.3820002,-18.555,42.48,46.875,-26.367,0.0,0
1582311051.3860002,-26.855,46.875,51.758,-33.691,0.0,0
1582311051.389,-38.086,48.34,56.64100000000001,-36.133,0.0,0
1582311051.393,-46.387,45.41,57.617,-40.527,0.0,0
1582311051.397,-61.523,44.434,57.617,-62.988,0.0,0
1582311051.401,-67.383,50.293,55.176,-74.707,0.0,0
1582311051.405,-80.566,55.664,59.57,-88.867,0.0,0
1582311051.407,-100.586,49.805,63.477,-109.375,0.0,0
1582311051.411,-107.91,48.34,59.57,-118.164,0.0,0
1582311051.415,-108.887,58.594,61.523,-124.512,0.0,0
1582311051.419,-120.605,62.988,59.57,-138.672,0.0,2
1582311051.423,-137.207,58.594,53.71100000000001,-159.18,0.0,0
1582311051.427,-144.531,60.547,53.71100000000001,-165.52700000000004,0.0,0
1582311051.431,-149.90200000000004,61.035,53.71100000000001,-166.99200000000005,0.0,0
1582311051.434,-150.391,55.664,50.78100000000001,-166.50400000000005,0.0,0
1582311051.438,-147.461,53.223,48.828,-165.52700000000004,0.0,0
1582311051.4420002,-140.137,56.152,47.363,-160.645,0.0,0
1582311051.446,-145.50799999999995,55.176,44.434,-159.668,0.0,0
1582311051.45,-153.32,56.152,40.527,-164.062,0.0,0
1582311051.452,-147.94899999999996,59.57,37.598,-164.062,0.0,0
1582311051.456,-137.695,58.105,36.133,-156.738,0.0,0
1582311051.46,-123.535,56.152,35.645,-147.94899999999996,0.0,0
1582311051.464,-115.234,54.199,33.691,-144.043,0.0,0
1582311051.468,-112.305,53.223,30.273000000000003,-134.27700000000002,0.0,0
1582311051.472,-105.469,56.152,27.832,-123.535,0.0,0
1582311051.476,-95.703,60.059,25.391,-120.605,0.0,0
1582311051.479,-83.984,60.547,23.926,-112.793,0.0,0
1582311051.4829998,-70.801,59.082,24.414,-98.145,0.0,0
1582311051.4870002,-57.617,57.617,22.949,-81.543,0.0,0
1582311051.4910002,-44.434,55.176,21.484,-69.824,0.0,0
1582311051.495,-26.855,54.199,20.508000000000006,-55.176,0.0,0
1582311051.512,-9.766,54.199,19.531,-34.18,0.0,0
1582311051.516,0.488,54.688,17.09,-23.438,0.0,0
1582311051.52,15.625,55.176,14.648,-16.602,0.0,0
1582311051.524,28.809,53.223,15.137,-1.465,0.0,0
1582311051.528,35.156,51.27,15.137,13.184,0.0,0
1582311051.532,42.969,49.805,12.695,21.484,0.0,0
1582311051.536,50.78100000000001,49.316,13.672,25.879,0.0,0
1582311051.539,60.059,47.363,14.648,32.715,0.0,0
1582311051.543,66.895,47.852,14.16,41.01600000000001,0.0,0
1582311051.5470002,67.383,47.363,17.09,45.898,0.0,0
1582311051.551,69.824,44.434,18.555,51.758,0.0,0
1582311051.555,75.684,42.48,16.602,60.547,0.0,0
1582311051.5570002,81.055,41.01600000000001,15.625,62.988,0.0,0
1582311051.561,81.543,39.551,16.602,61.523,0.0,0
1582311051.565,77.148,37.598,16.602,59.57,0.0,0
1582311051.569,73.73,36.133,16.113,57.129,0.0,0
1582311051.573,75.684,37.109,16.602,57.617,0.0,0
1582311051.577,79.102,38.086,17.09,62.012,0.0,0
1582311051.581,79.102,37.109,20.02,61.523,0.0,0
1582311051.584,69.824,32.715,20.02,60.059,0.0,0
1582311051.5879998,71.777,32.715,19.531,64.941,0.0,0
1582311051.592,85.449,38.574,23.438,71.777,0.0,0
1582311051.596,87.891,37.109,22.461,65.43,0.0,0
1582311051.6,79.102,34.18,22.461,61.035,0.0,0
1582311051.6020002,75.195,37.598,24.902,68.359,0.0,0
1582311051.606,79.59,40.039,25.879,69.824,0.0,0
1582311051.61,79.102,38.574,27.832,68.848,0.0,0
1582311051.6139998,79.102,39.551,28.32,68.848,0.0,0
1582311051.6179998,82.031,39.551,25.391,66.406,0.0,0
1582311051.6220002,78.125,38.574,26.367,63.965,0.0,0
1582311051.6260002,72.266,38.086,29.785,60.059,0.0,0
1582311051.629,64.453,38.086,27.832,60.059,0.0,0
1582311051.633,64.941,36.621,28.809,61.523,0.0,0
1582311051.637,74.219,36.133,32.227,56.64100000000001,0.0,0
1582311051.641,66.406,35.156,31.25,55.176,0.0,0
1582311051.645,58.594,33.691,29.297,52.246,0.0,0
1582311051.6479998,60.547,35.156,28.809,54.199,0.0,0
1582311051.6520002,61.523,37.598,28.32,52.246,0.0,0
1582311051.656,58.594,36.621,26.855,40.039,0.0,0
1582311051.66,60.059,34.668,28.809,44.434,0.0,0
1582311051.664,61.035,37.598,30.273000000000003,48.34,0.0,0
1582311051.668,60.547,38.086,31.25,46.875,0.0,0
1582311051.6720002,62.5,36.621,33.203,47.363,0.0,0
1582311051.675,63.477,37.109,32.227,47.852,0.0,0
1582311051.679,58.594,36.133,30.273000000000003,46.387,0.0,0
1582311051.6829998,54.199,34.668,30.273000000000003,40.527,0.0,0
1582311051.687,60.059,37.109,27.344,37.109,0.0,0
1582311051.691,57.129,39.062,25.391,39.551,0.0,0
1582311051.6929998,54.199,38.086,27.832,44.434,0.0,0
1582311051.697,57.617,37.109,27.832,45.41,0.0,0
1582311051.701,52.734,37.109,26.855,41.992,0.0,0
1582311051.705,49.316,37.109,27.344,37.109,0.0,0
1582311051.709,50.293,32.715,27.344,41.504,0.0,0
1582311051.7129998,59.082,29.297,30.273000000000003,55.176,0.0,0
1582311051.717,58.105,38.086,31.25,52.734,0.0,0
1582311051.72,45.898,45.41,24.902,28.32,0.0,0
1582311051.724,39.551,47.363,19.531,21.484,0.0,0
1582311051.728,30.762,49.316,12.695,19.043,0.0,0
1582311051.732,39.062,52.246,9.277,20.996,0.0,0
1582311051.736,48.34,52.734,10.742,24.414,0.0,0
1582311051.738,43.457,52.246,8.789,20.996,0.0,0
1582311051.742,38.574,49.805,8.789,22.949,0.0,0
1582311051.746,44.434,47.852,11.23,25.879,0.0,0
1582311051.75,46.875,47.852,14.648,25.391,0.0,0
1582311051.754,30.273000000000003,43.945,17.578,21.484,0.0,0
1582311051.758,24.414,42.969,17.09,20.996,0.0,0
1582311051.762,28.809,43.945,18.066,20.508000000000006,0.0,0
1582311051.765,35.645,42.969,19.531,18.066,0.0,0
1582311051.769,46.387,43.457,19.043,17.578,0.0,0
1582311051.7729998,52.246,45.41,18.555,19.043,0.0,0
1582311051.7770002,56.64100000000001,46.875,20.508000000000006,19.043,0.0,0
1582311051.781,60.059,46.387,19.531,13.672,0.0,0
1582311051.783,59.082,45.898,17.09,9.277,0.0,0
1582311051.7870002,50.78100000000001,43.457,17.578,10.254,0.0,0
1582311051.791,39.551,44.434,20.02,18.066,0.0,0
1582311051.795,30.273000000000003,44.434,20.996,22.461,0.0,0
1582311051.799,28.809,42.48,21.484,22.949,0.0,0
1582311051.803,31.738000000000003,45.898,22.461,22.949,0.0,0
1582311051.8070002,32.227,48.34,22.461,22.461,0.0,0
1582311051.81,35.645,46.875,22.949,22.461,0.0,0
1582311051.814,35.156,46.387,21.973000000000006,20.02,0.0,0
1582311051.8179998,27.832,44.922,22.461,21.484,0.0,0
1582311051.822,25.879,44.434,24.414,20.996,0.0,0
1582311051.826,31.25,44.922,25.391,20.02,0.0,0
1582311051.8279998,29.297,43.945,24.414,19.531,0.0,0
1582311051.832,26.367,42.969,25.879,15.625,0.0,0
1582311051.836,22.949,41.01600000000001,27.832,17.09,0.0,0
1582311051.84,24.414,44.434,27.832,19.531,0.0,0
1582311051.844,27.832,44.434,25.879,17.09,0.0,0
1582311051.8479998,23.438,41.504,25.391,17.09,0.0,0
1582311051.8520002,27.344,44.434,25.391,18.066,0.0,0
1582311051.855,30.762,43.457,26.367,17.09,0.0,0
1582311051.859,34.18,42.48,26.367,16.113,0.0,0
1582311051.863,35.156,41.504,25.879,19.531,0.0,0
1582311051.867,34.18,40.527,29.297,23.438,0.0,0
1582311051.871,31.738000000000003,39.062,30.762,19.531,0.0,0
1582311051.8879998,31.738000000000003,39.062,30.273000000000003,18.555,0.0,0
1582311051.8920002,36.133,40.039,32.715,22.461,0.0,0
1582311051.896,33.691,39.551,32.715,22.461,0.0,0
1582311051.9,32.715,39.551,30.762,25.391,0.0,0
1582311051.904,34.18,38.574,30.762,27.344,0.0,0
1582311051.908,40.527,40.527,31.25,19.531,0.0,0
1582311051.9120002,42.969,41.992,30.762,17.578,0.0,0
1582311051.915,38.086,39.062,29.785,18.066,0.0,0
1582311051.919,27.344,36.621,31.738000000000003,18.555,0.0,0
1582311051.923,23.926,37.109,31.738000000000003,18.066,0.0,0
1582311051.927,30.273000000000003,38.086,28.809,15.137,0.0,0
1582311051.931,27.832,37.109,27.832,14.648,0.0,0
1582311051.9329998,28.809,37.598,29.297,16.602,0.0,0
1582311051.937,37.109,38.086,30.273000000000003,18.555,0.0,0
1582311051.941,38.574,36.133,30.762,20.508000000000006,0.0,0
1582311051.945,37.109,36.621,32.227,20.996,0.0,0
1582311051.949,28.32,37.109,28.809,18.066,0.0,0
1582311051.9529998,22.461,39.062,26.855,20.02,0.0,0
1582311051.957,25.879,39.551,28.809,20.02,0.0,0
1582311051.96,27.832,37.598,28.809,20.02,0.0,0
1582311051.964,29.297,38.086,30.273000000000003,23.438,0.0,0
1582311051.968,32.715,39.062,30.762,23.926,0.0,0
1582311051.972,35.156,37.109,29.297,18.555,0.0,0
1582311051.976,37.598,37.109,30.762,20.02,0.0,0
1582311051.978,37.598,41.01600000000001,34.18,28.32,0.0,0
1582311051.982,31.25,41.992,35.156,27.832,0.0,0
1582311051.986,32.715,40.527,32.227,25.391,0.0,0
1582311051.99,37.109,41.01600000000001,30.762,26.855,0.0,0
1582311051.994,37.109,42.48,31.25,26.367,0.0,0
1582311051.998,33.203,40.039,30.273000000000003,23.926,0.0,0
1582311052.002,25.391,38.086,29.785,20.996,0.0,0
1582311052.005,23.926,38.574,29.785,20.02,0.0,0
1582311052.0089998,31.25,39.062,31.25,21.973000000000006,0.0,0
1582311052.0129998,32.715,38.574,32.227,21.484,0.0,0
1582311052.0170002,28.809,37.109,33.203,21.484,0.0,0
1582311052.021,30.273000000000003,40.039,32.715,17.09,0.0,0
1582311052.0229998,36.621,40.527,31.738000000000003,9.766,0.0,0
1582311052.0270002,31.25,36.621,32.227,9.277,0.0,0
1582311052.031,19.531,36.133,31.738000000000003,9.277,0.0,0
1582311052.035,21.484,39.551,29.297,10.742,0.0,0
1582311052.039,25.879,41.01600000000001,29.297,12.207,0.0,0
1582311052.043,27.344,39.551,31.25,13.184,0.0,0
1582311052.0470002,29.297,35.156,31.738000000000003,14.16,0.0,0
1582311052.05,32.715,34.668,27.832,11.23,0.0,0
1582311052.054,32.715,39.062,28.32,11.23,0.0,0
1582311052.0579998,28.32,41.01600000000001,30.273000000000003,10.254,0.0,0
1582311052.062,22.949,39.551,27.344,6.836,0.0,0
1582311052.066,26.367,41.992,25.879,9.277,0.0,0
1582311052.0679998,31.738000000000003,44.434,26.367,11.23,0.0,0
1582311052.072,31.738000000000003,41.992,27.344,10.742,0.0,0
1582311052.076,30.762,41.992,26.367,8.789,0.0,0
1582311052.08,29.297,41.504,28.809,11.23,0.0,0
1582311052.084,27.344,38.574,30.762,13.672,0.0,0
1582311052.0879998,22.461,38.086,29.785,10.254,0.0,0
1582311052.092,19.043,39.062,27.832,8.301,0.0,0
1582311052.095,18.066,40.039,27.832,10.254,0.0,0
1582311052.099,16.602,38.574,27.344,6.836,0.0,0
1582311052.103,18.555,36.621,28.32,7.324,0.0,0
1582311052.107,19.043,39.062,30.273000000000003,13.184,0.0,0
1582311052.111,16.113,39.551,31.25,14.648,0.0,0
1582311052.113,15.625,36.133,32.227,11.23,0.0,0
1582311052.117,14.648,33.691,30.273000000000003,9.766,0.0,0
1582311052.121,12.207,34.18,28.809,6.836,0.0,0
1582311052.125,13.672,36.621,28.809,7.324,0.0,0
1582311052.129,11.719,35.156,31.25,11.23,0.0,0
1582311052.133,16.113,35.156,31.25,9.277,0.0,0
1582311052.137,20.996,36.133,29.785,5.859,0.0,0
1582311052.14,17.578,35.156,29.785,8.789,0.0,0
1582311052.144,21.973000000000006,35.645,31.25,15.625,0.0,0
1582311052.1479998,27.344,36.133,32.227,19.531,0.0,0
1582311052.1520002,29.785,35.645,34.18,22.461,0.0,0
1582311052.156,36.621,37.109,34.668,21.973000000000006,0.0,0
1582311052.158,37.598,37.598,33.203,23.438,0.0,0
1582311052.1620002,29.297,35.645,31.738000000000003,22.461,0.0,0
1582311052.166,25.391,35.645,32.227,17.09,0.0,0
1582311052.17,23.926,36.621,32.227,12.207,0.0,0
1582311052.174,21.484,36.133,31.25,8.301,0.0,0
1582311052.178,20.996,36.133,32.715,11.23,0.0,0
1582311052.1820002,25.391,36.621,32.715,12.207,0.0,0
1582311052.185,22.461,35.156,32.227,9.277,0.0,0
1582311052.189,15.137,35.645,31.25,9.277,0.0,0
1582311052.1929998,17.578,39.062,31.25,11.23,0.0,0
1582311052.197,17.578,38.574,32.715,9.766,0.0,0
1582311052.201,17.09,39.551,33.203,8.301,0.0,0
1582311052.2029998,23.926,39.062,31.738000000000003,10.742,0.0,0
1582311052.207,24.414,39.551,29.297,7.324,0.0,0
1582311052.211,15.625,41.01600000000001,29.785,1.465,0.0,0
1582311052.215,15.137,40.527,31.25,2.441,0.0,0
1582311052.219,17.09,38.574,30.273000000000003,4.883,0.0,0
1582311052.2229998,18.066,39.551,30.762,9.277,0.0,0
1582311052.2270002,22.461,41.01600000000001,33.203,12.695,0.0,0
1582311052.23,21.973000000000006,38.086,33.203,11.719,0.0,0
1582311052.234,14.16,38.574,32.715,11.719,0.0,0
1582311052.238,16.602,39.062,34.668,12.695,0.0,0
1582311052.242,20.508000000000006,38.574,34.18,11.719,0.0,0
1582311052.246,19.531,37.598,31.738000000000003,9.277,0.0,0
1582311052.2629998,16.602,38.086,30.762,4.395,0.0,0
1582311052.2670002,15.625,39.062,31.25,6.348,0.0,0
1582311052.271,18.555,37.109,31.25,7.324,0.0,0
1582311052.275,16.113,36.621,30.273000000000003,2.93,0.0,0
1582311052.279,17.578,38.574,29.297,5.371,0.0,0
1582311052.283,20.996,39.062,29.297,9.277,0.0,0
1582311052.2870002,21.484,37.598,29.785,12.207,0.0,0
1582311052.29,23.926,36.621,28.809,7.812,0.0,0
1582311052.294,27.344,39.062,29.785,3.906,0.0,0
1582311052.298,22.949,40.527,31.738000000000003,1.465,0.0,0
1582311052.302,16.602,39.551,34.18,1.953,0.0,0
1582311052.306,13.672,38.574,33.691,1.953,0.0,0
1582311052.3079998,10.254,39.551,33.203,2.441,0.0,0
1582311052.312,10.742,39.551,34.18,3.906,0.0,0
1582311052.316,15.625,39.062,35.645,3.906,0.0,0
1582311052.32,21.484,40.527,37.598,5.371,0.0,0
1582311052.324,15.625,38.574,36.621,8.789,0.0,0
1582311052.3279998,12.207,36.133,34.668,10.742,0.0,0
1582311052.332,18.066,37.598,35.156,14.648,0.0,0
1582311052.335,18.066,36.621,35.645,13.672,0.0,0
1582311052.339,22.949,36.621,35.156,15.625,0.0,0
1582311052.343,28.32,38.574,36.133,13.672,0.0,0
1582311052.347,24.902,38.086,34.668,7.812,0.0,0
1582311052.351,20.02,37.598,32.227,8.789,0.0,0
1582311052.353,21.484,38.574,31.25,8.789,0.0,0
1582311052.357,24.414,38.086,30.273000000000003,6.836,0.0,0
1582311052.361,22.949,38.086,30.273000000000003,6.348,0.0,0
1582311052.365,20.02,38.574,30.273000000000003,6.348,0.0,0
1582311052.369,20.996,40.039,31.25,9.277,0.0,0
1582311052.373,22.949,40.039,33.203,8.789,0.0,0
1582311052.377,24.902,39.551,30.273000000000003,3.906,0.0,0
1582311052.38,17.578,37.598,27.832,0.0,0.0,0
1582311052.3839998,14.648,36.133,31.738000000000003,-2.441,0.0,0
1582311052.3879998,17.578,38.574,31.738000000000003,-3.418,0.0,0
1582311052.3920002,16.602,38.086,30.273000000000003,-1.465,0.0,0
1582311052.396,20.02,37.109,31.25,0.488,0.0,0
1582311052.397,18.555,37.598,30.273000000000003,1.465,0.0,0
1582311052.401,19.043,37.598,28.32,7.324,0.0,0
1582311052.405,26.367,39.062,30.273000000000003,19.043,0.0,0
1582311052.409,14.648,40.039,30.273000000000003,9.766,0.0,0
1582311052.413,-1.953,43.945,27.832,-9.277,0.0,0
1582311052.417,-5.371,42.969,25.391,-11.23,0.0,0
1582311052.421,0.977,42.969,25.391,-13.672,0.0,0
1582311052.424,0.0,41.992,27.344,-18.555,0.0,0
1582311052.428,-8.789,40.527,27.832,-19.043,0.0,0
1582311052.4320002,-6.348,44.434,27.344,-17.578,0.0,0
1582311052.436,-7.812,43.457,25.391,-22.461,0.0,0
1582311052.44,-4.395,43.457,24.414,-21.484,0.0,0
1582311052.4420002,3.418,42.969,26.855,-16.602,0.0,0
1582311052.446,6.348,42.48,27.832,-13.184,0.0,0
1582311052.45,10.742,42.969,27.344,-6.836,0.0,0
1582311052.454,11.719,39.062,29.297,0.0,0.0,0
1582311052.458,13.672,37.109,30.762,0.977,0.0,0
1582311052.462,14.648,38.574,28.809,-1.953,0.0,0
1582311052.466,16.113,35.645,27.344,-0.488,0.0,0
1582311052.469,24.414,34.18,27.344,1.465,0.0,0
1582311052.4729998,20.508000000000006,34.18,26.855,-1.465,0.0,0
1582311052.4770002,12.207,33.203,27.832,-1.465,0.0,0
1582311052.481,18.066,33.203,27.832,0.977,0.0,0
1582311052.485,16.602,34.668,24.902,-0.977,0.0,0
1582311052.4870002,8.301,34.668,23.438,-1.953,0.0,0
1582311052.4910002,15.137,34.18,24.902,2.441,0.0,0
1582311052.495,19.043,34.668,26.855,0.977,0.0,0
1582311052.4989998,18.066,36.621,29.297,1.465,0.0,0
1582311052.5029998,16.113,36.621,30.762,6.348,0.0,0
1582311052.5070002,13.672,34.668,31.25,3.418,0.0,0
1582311052.5110002,17.09,36.621,30.273000000000003,3.906,0.0,0
1582311052.514,20.996,38.086,30.273000000000003,4.395,0.0,0
1582311052.518,26.855,38.574,30.762,4.395,0.0,0
1582311052.522,26.367,38.086,30.762,4.395,0.0,0
1582311052.526,21.973000000000006,38.574,31.25,6.348,0.0,0
1582311052.53,23.438,38.086,30.273000000000003,6.836,0.0,0
1582311052.532,22.461,35.645,29.297,3.906,0.0,0
1582311052.536,17.09,33.691,30.762,3.906,0.0,0
1582311052.54,18.066,34.668,30.762,5.371,0.0,0
1582311052.544,22.461,36.133,31.25,7.324,0.0,0
1582311052.548,19.043,34.18,30.273000000000003,8.789,0.0,0
1582311052.552,21.973000000000006,34.18,29.785,9.766,0.0,0
1582311052.556,28.809,37.109,32.227,10.254,0.0,0
1582311052.559,30.273000000000003,39.062,32.715,11.719,0.0,0
1582311052.563,18.555,37.109,33.203,5.859,0.0,0
1582311052.5670002,10.742,36.133,33.203,4.883,0.0,0
1582311052.571,15.137,37.109,31.25,10.742,0.0,0
1582311052.575,21.484,36.133,30.762,6.348,0.0,0
1582311052.577,27.832,32.715,28.809,-0.488,0.0,2
1582311052.581,26.367,33.203,28.809,-0.977,0.0,0
1582311052.585,7.324,35.645,29.297,-7.324,0.0,0
1582311052.589,-4.395,33.203,28.809,-14.16,0.0,0
1582311052.593,0.488,33.691,26.855,-15.137,0.0,0
1582311052.597,1.953,36.133,24.902,-17.578,0.0,0
1582311052.601,5.371,35.645,26.367,-15.137,0.0,0
1582311052.604,0.0,34.668,27.344,-13.672,0.0,0
1582311052.6079998,-3.906,37.598,28.809,-12.695,0.0,0
1582311052.6120002,5.859,39.551,30.273000000000003,-6.836,0.0,0
1582311052.6160002,8.301,35.156,30.762,-4.395,0.0,0
1582311052.62,5.371,34.668,30.762,-5.859,0.0,0
1582311052.637,9.277,33.691,31.25,-0.977,0.0,0
1582311052.641,19.043,31.738000000000003,34.668,5.371,0.0,0
1582311052.645,22.949,35.156,33.691,6.836,0.0,0
1582311052.649,20.508000000000006,38.086,31.25,7.324,0.0,0
1582311052.653,21.484,37.109,30.273000000000003,10.742,0.0,0
1582311052.657,22.949,37.598,31.738000000000003,10.254,0.0,0
1582311052.661,19.043,35.645,30.273000000000003,6.348,0.0,0
1582311052.664,20.508000000000006,33.691,28.809,5.859,0.0,0
1582311052.668,23.438,35.156,30.762,7.812,0.0,0
1582311052.6720002,21.973000000000006,35.645,31.25,8.301,0.0,0
1582311052.676,24.902,37.109,34.18,10.254,0.0,0
1582311052.68,21.484,36.621,36.621,12.207,0.0,0
1582311052.6820002,18.066,36.621,35.645,16.113,0.0,0
1582311052.686,21.484,39.551,32.715,6.348,0.0,0
1582311052.69,21.973000000000006,39.062,32.227,-4.395,0.0,0
1582311052.694,18.066,35.645,32.227,-1.953,0.0,0
1582311052.698,15.625,37.109,32.715,-0.488,0.0,0
1582311052.702,15.625,37.109,31.738000000000003,1.465,0.0,0
1582311052.706,17.09,35.156,32.227,1.953,0.0,0
1582311052.709,21.973000000000006,36.133,34.668,4.395,0.0,0
1582311052.7129998,20.996,37.109,34.668,9.277,0.0,0
1582311052.717,16.113,37.598,32.715,11.23,0.0,0
1582311052.721,21.484,37.109,33.203,9.277,0.0,0
1582311052.725,26.367,38.086,38.086,13.184,0.0,0
1582311052.7270002,24.902,40.039,40.039,18.555,0.0,0
1582311052.731,25.879,39.551,37.598,21.484,0.0,0
1582311052.735,29.297,40.039,37.109,22.461,0.0,0
1582311052.7389998,28.809,39.062,37.598,21.973000000000006,0.0,0
1582311052.7429998,20.996,37.109,35.645,17.578,0.0,0
1582311052.7470002,16.113,36.621,35.156,14.648,0.0,0
1582311052.7510002,20.02,35.645,37.109,17.09,0.0,0
1582311052.754,20.996,33.691,38.086,17.09,0.0,0
1582311052.758,22.461,33.691,37.109,15.625,0.0,0
1582311052.762,20.996,36.621,35.645,13.672,0.0,0
1582311052.766,23.926,36.621,35.645,14.648,0.0,0
1582311052.77,26.367,37.109,35.156,17.578,0.0,0
1582311052.7729998,20.996,38.574,33.203,14.648,0.0,0
1582311052.7770002,19.043,37.598,32.227,10.742,0.0,0
1582311052.781,17.578,34.18,31.738000000000003,9.277,0.0,0
1582311052.785,23.438,33.691,32.227,17.578,0.0,0
1582311052.789,30.762,34.18,33.203,14.16,0.0,0
1582311052.793,32.715,32.227,35.645,9.277,0.0,0
1582311052.7970002,28.32,32.715,36.133,20.508000000000006,0.0,0
1582311052.8,19.531,34.668,35.645,15.625,0.0,0
1582311052.804,22.461,37.109,34.668,8.301,0.0,0
1582311052.8079998,27.344,38.574,33.691,11.23,0.0,0
1582311052.812,30.273000000000003,39.062,34.18,14.16,0.0,0
1582311052.816,34.18,40.039,35.156,19.043,0.0,0
1582311052.8179998,41.01600000000001,39.551,37.109,24.902,0.0,0
1582311052.822,42.969,38.574,38.086,29.785,0.0,0
1582311052.826,38.086,36.133,36.621,32.715,0.0,0
1582311052.83,39.062,36.621,38.086,33.691,0.0,0
1582311052.834,45.898,37.598,38.086,34.668,0.0,0
1582311052.8379998,54.199,35.156,36.621,40.039,0.0,0
1582311052.842,62.5,34.668,37.109,47.363,0.0,0
1582311052.845,62.988,35.645,39.551,57.617,0.0,0
1582311052.849,61.523,36.133,40.527,61.523,0.0,0
1582311052.853,70.312,35.156,39.062,60.059,0.0,0
1582311052.857,70.312,36.621,39.551,57.129,0.0,0
1582311052.861,62.5,38.574,39.062,54.199,0.0,0
1582311052.863,59.082,38.086,37.109,49.805,0.0,0
1582311052.867,54.199,38.574,36.133,43.945,0.0,0
1582311052.871,53.223,41.01600000000001,35.156,43.457,0.0,0
1582311052.875,52.734,42.48,36.621,42.969,0.0,0
1582311052.879,55.176,44.434,39.062,43.457,0.0,0
1582311052.883,60.547,45.41,37.109,44.434,0.0,0
1582311052.887,64.941,44.922,34.668,41.01600000000001,0.0,0
1582311052.89,54.688,44.434,36.133,40.039,0.0,0
1582311052.894,41.992,41.01600000000001,36.133,39.551,0.0,0
1582311052.8979998,42.969,38.086,35.645,35.156,0.0,0
1582311052.9020002,42.48,40.039,36.133,29.297,0.0,0
1582311052.906,42.48,40.527,36.621,32.715,0.0,0
1582311052.908,39.062,39.551,37.109,31.25,0.0,0
1582311052.9120002,36.621,39.551,34.18,24.902,0.0,0
1582311052.916,37.109,41.504,34.18,24.414,0.0,0
1582311052.92,32.715,41.01600000000001,33.691,26.855,0.0,0
1582311052.924,28.32,39.551,32.227,22.949,0.0,0
1582311052.928,30.273000000000003,37.598,32.715,18.066,0.0,0
1582311052.9320002,36.621,39.062,32.227,18.555,0.0,0
1582311052.935,33.691,40.039,33.203,17.09,0.0,0
1582311052.939,26.855,37.598,35.645,19.043,0.0,0
1582311052.9429998,26.367,35.645,37.109,21.973000000000006,0.0,0
1582311052.947,31.25,35.645,38.086,23.926,0.0,0
1582311052.951,31.738000000000003,38.574,39.062,20.508000000000006,0.0,0
1582311052.9529998,26.855,36.621,38.086,20.508000000000006,0.0,0
1582311052.957,25.391,33.691,37.109,20.996,0.0,0
1582311052.961,25.391,34.18,36.621,13.672,0.0,0
1582311052.965,22.949,33.691,36.133,11.719,0.0,0
1582311052.969,20.996,34.18,36.621,13.672,0.0,0
1582311052.9729998,22.461,35.645,37.598,12.207,0.0,0
1582311052.9770002,25.391,38.086,36.621,13.184,0.0,0
1582311052.98,31.25,39.551,35.156,10.254,0.0,0
1582311052.984,29.785,38.086,34.18,8.301,0.0,0
1582311052.988,24.902,37.109,33.691,18.555,0.0,0
1582311052.992,23.926,38.086,34.668,21.484,0.0,0
1582311052.996,23.438,39.062,34.668,18.066,0.0,0
1582311053.0129998,24.414,38.086,33.203,16.113,0.0,0
1582311053.0170002,25.879,37.109,33.203,15.625,0.0,0
1582311053.021,30.273000000000003,40.527,35.156,18.066,0.0,0
1582311053.025,26.367,41.504,33.691,17.578,0.0,0
1582311053.029,22.461,40.527,31.25,19.043,0.0,0
1582311053.033,26.855,39.062,33.691,24.414,0.0,0
1582311053.0370002,24.902,39.062,37.598,23.438,0.0,0
1582311053.04,28.809,38.574,37.109,21.484,0.0,0
1582311053.044,32.715,35.156,36.133,24.902,0.0,0
1582311053.048,23.438,38.086,36.133,22.461,0.0,0
1582311053.052,22.461,39.551,33.691,20.02,0.0,0
1582311053.056,28.809,40.039,32.715,19.043,0.0,0
1582311053.0579998,34.18,44.434,33.203,13.672,0.0,0
1582311053.062,44.434,45.41,32.227,9.766,0.0,0
1582311053.066,44.434,44.434,29.297,6.348,0.0,0
1582311053.07,35.156,42.969,29.297,6.348,0.0,0
1582311053.074,33.691,41.992,31.25,5.859,0.0,0
1582311053.0779998,35.156,43.457,30.762,2.441,0.0,0
1582311053.082,26.367,41.504,29.785,10.254,0.0,0
1582311053.085,15.625,38.086,29.785,22.461,0.0,0
1582311053.089,13.184,40.039,30.762,17.578,0.0,0
1582311053.093,17.09,42.48,32.227,13.184,0.0,0
1582311053.097,16.602,40.039,28.809,14.16,0.0,0
1582311053.101,10.742,41.992,27.832,8.301,0.0,0
1582311053.103,10.254,44.922,28.32,6.836,0.0,0
1582311053.107,12.695,46.387,26.367,5.859,0.0,0
1582311053.111,15.137,44.922,26.855,1.465,0.0,0
1582311053.115,9.766,42.969,26.855,-1.953,0.0,0
1582311053.119,3.418,44.434,29.785,-4.395,0.0,0
1582311053.123,0.488,46.875,31.738000000000003,-8.789,0.0,0
1582311053.127,-5.371,47.363,31.25,-17.578,0.0,0
1582311053.13,-11.719,47.852,30.762,-23.926,0.0,0
1582311053.1339998,-10.742,52.246,32.227,-20.02,0.0,0
1582311053.1379998,-15.625,54.688,35.156,-30.762,0.0,0
1582311053.1420002,-32.227,52.246,32.715,-48.34,0.0,0
1582311053.146,-32.227,51.758,31.738000000000003,-46.387,0.0,0
1582311053.1479998,-29.297,55.664,34.18,-43.457,0.0,0
1582311053.1520002,-42.969,58.105,36.621,-53.71100000000001,0.0,0
1582311053.156,-54.199,57.129,37.109,-66.895,0.0,0
1582311053.16,-67.383,58.594,34.18,-83.49600000000002,0.0,0
1582311053.164,-83.49600000000002,62.988,31.738000000000003,-96.191,0.0,0
1582311053.168,-84.961,63.965,31.25,-102.539,0.0,0
1582311053.1720002,-83.008,63.477,28.809,-105.469,0.0,0
1582311053.175,-90.332,62.988,30.762,-109.375,0.0,0
1582311053.179,-97.168,62.5,33.203,-116.699,0.0,0
1582311053.1829998,-95.215,62.012,34.668,-119.629,0.0,0
1582311053.187,-99.121,59.082,33.691,-122.559,0.0,0
1582311053.191,-101.074,62.988,28.809,-127.441,0.0,0
1582311053.1929998,-96.68,66.406,28.32,-121.582,0.0,0
1582311053.197,-96.191,63.965,32.227,-118.164,0.0,0
1582311053.201,-101.074,62.012,32.715,-125.0,0.0,0
1582311053.205,-99.121,62.012,32.227,-122.07,0.0,0
1582311053.209,-91.797,62.012,35.156,-117.188,0.0,0
1582311053.2129998,-84.961,61.523,35.645,-116.211,0.0,0
1582311053.217,-84.473,62.5,33.691,-111.816,0.0,0
1582311053.22,-81.055,64.941,32.227,-104.492,0.0,0
1582311053.224,-73.73,62.988,32.715,-98.633,0.0,0
1582311053.228,-74.219,57.617,32.227,-96.68,0.0,0
1582311053.232,-66.895,56.152,33.203,-85.93799999999997,0.0,0
1582311053.236,-56.152,55.176,35.156,-78.125,0.0,0
1582311053.238,-44.434,53.71100000000001,33.203,-76.66,0.0,0
1582311053.242,-39.062,53.223,31.25,-68.848,0.0,0
1582311053.246,-43.945,52.734,33.203,-62.5,0.0,0
1582311053.25,-36.133,48.828,34.668,-54.688,0.0,0
1582311053.254,-22.461,45.41,34.668,-44.434,0.0,0
1582311053.258,-12.207,45.41,34.18,-36.621,0.0,0
1582311053.262,-3.906,44.434,36.133,-29.297,0.0,0
1582311053.265,3.418,44.922,34.668,-18.555,0.0,0
1582311053.269,15.137,43.457,34.18,-8.301,0.0,0
1582311053.2729998,23.926,39.062,36.133,1.953,0.0,0
1582311053.2770002,28.32,39.062,35.156,14.648,0.0,0
1582311053.281,38.086,38.086,34.18,26.855,0.0,0
1582311053.283,53.71100000000001,37.598,32.715,33.203,0.0,0
1582311053.2870002,54.199,39.062,31.25,36.621,0.0,0
1582311053.291,49.805,38.574,36.133,43.457,0.0,0
1582311053.295,58.594,36.133,38.086,48.34,0.0,0
1582311053.299,75.684,37.109,35.156,49.316,0.0,0
1582311053.303,77.148,39.062,35.645,50.78100000000001,0.0,0
1582311053.3070002,74.219,38.574,37.598,54.688,0.0,0
1582311053.31,78.613,37.598,38.086,58.105,0.0,0
1582311053.314,71.289,33.203,37.109,61.523,0.0,0
1582311053.3179998,66.406,30.762,37.598,64.453,0.0,0
1582311053.322,64.453,30.762,36.133,66.895,0.0,0
1582311053.326,70.801,31.25,33.203,67.87100000000001,0.0,0
1582311053.3279998,78.125,30.762,33.691,63.477,0.0,0
1582311053.332,72.266,27.832,34.18,59.57,0.0,0
1582311053.336,70.801,27.344,35.156,59.082,0.0,0
1582311053.34,68.359,29.297,35.156,58.594,0.0,0
1582311053.344,66.406,28.809,34.668,60.059,0.0,0
1582311053.3479998,73.73,28.32,36.133,63.965,0.0,0
1582311053.3520002,78.125,31.25,35.156,64.941,0.0,0
1582311053.355,76.172,29.785,33.691,62.5,0.0,0
1582311053.359,75.195,27.344,34.668,62.012,0.0,0
1582311053.363,72.75399999999998,27.344,34.18,66.406,0.0,0
1582311053.367,69.336,26.855,31.738000000000003,64.453,0.0,0
1582311053.371,67.383,27.832,31.25,62.988,0.0,0
1582311053.3879998,67.87100000000001,26.855,31.25,66.406,0.0,0
1582311053.3920002,71.777,26.855,32.227,67.87100000000001,0.0,0
1582311053.396,74.707,29.297,32.715,65.43,0.0,0
1582311053.4,71.777,28.809,31.738000000000003,63.477,0.0,0
1582311053.404,69.336,26.855,33.203,63.477,0.0,0
1582311053.408,72.266,26.367,34.668,62.988,0.0,0
1582311053.4120002,71.777,26.367,34.668,61.035,0.0,0
1582311053.415,62.988,27.344,34.18,59.57,0.0,0
1582311053.419,54.688,24.902,33.691,54.199,0.0,0
1582311053.423,59.082,25.879,34.18,53.223,0.0,0
1582311053.427,62.5,28.32,33.203,54.199,0.0,0
1582311053.431,58.594,29.297,31.738000000000003,56.64100000000001,0.0,0
1582311053.4329998,54.199,31.25,29.297,58.105,0.0,0
1582311053.437,53.223,29.297,28.32,49.805,0.0,0
1582311053.441,52.734,26.367,28.809,47.852,0.0,0
1582311053.445,51.758,26.367,29.785,47.363,0.0,0
1582311053.449,51.27,29.297,31.25,44.922,0.0,0
1582311053.4529998,52.734,31.738000000000003,31.25,48.828,0.0,0
1582311053.457,55.176,31.738000000000003,32.227,46.875,0.0,0
1582311053.46,46.387,32.227,31.738000000000003,41.504,0.0,0
1582311053.464,49.805,32.715,30.273000000000003,41.504,0.0,0
1582311053.468,61.035,35.645,30.762,44.434,0.0,0
1582311053.472,52.246,34.18,30.762,44.922,0.0,0
1582311053.476,45.41,30.762,31.25,41.504,0.0,0
1582311053.4770002,44.922,31.738000000000003,33.203,42.48,0.0,0
1582311053.481,44.922,35.156,32.227,42.969,0.0,0
1582311053.485,44.922,36.133,29.785,40.527,0.0,0
1582311053.4889998,44.922,34.668,28.809,40.039,0.0,0
1582311053.4929998,40.527,34.668,29.297,40.527,0.0,0
1582311053.4970002,40.039,33.691,30.762,42.969,0.0,0
1582311053.5010002,45.898,33.203,33.203,41.992,0.0,0
1582311053.504,44.922,34.668,32.715,35.645,0.0,0
1582311053.508,43.457,35.156,32.227,39.062,0.0,0
1582311053.512,42.969,36.133,33.691,41.992,0.0,0
1582311053.516,40.527,32.227,33.203,38.574,0.0,0
1582311053.52,45.898,33.203,33.203,29.785,0.0,0
1582311053.5370002,46.387,35.645,30.273000000000003,21.973000000000006,0.0,0
1582311053.541,38.086,34.668,31.738000000000003,25.879,0.0,0
1582311053.545,33.691,36.133,35.156,33.203,0.0,0
1582311053.549,30.273000000000003,36.133,33.691,27.832,0.0,0
1582311053.553,31.738000000000003,36.133,33.691,29.297,0.0,0
1582311053.5570002,36.621,35.645,36.133,30.762,0.0,0
1582311053.561,32.715,33.203,35.156,23.926,0.0,0
1582311053.564,28.32,33.203,35.645,28.809,0.0,0
1582311053.5679998,29.785,35.156,35.156,26.367,0.0,0
1582311053.572,32.715,34.668,30.762,20.508000000000006,0.0,0
1582311053.576,35.156,37.109,32.227,22.461,0.0,0
1582311053.58,34.668,38.086,34.18,24.414,0.0,0
1582311053.5670002,33.203,35.645,34.18,22.461,0.0,0
1582311053.571,36.621,34.668,34.18,20.508000000000006,0.0,0
1582311053.575,40.039,34.668,33.203,19.531,0.0,0
1582311053.579,29.297,36.621,32.715,21.484,0.0,0
1582311053.583,23.926,37.598,30.273000000000003,24.902,0.0,0
1582311053.587,27.344,36.621,26.855,21.484,0.0,0
1582311053.591,34.668,35.156,28.32,16.113,0.0,0
1582311053.594,31.25,36.621,30.762,19.531,0.0,0
1582311053.5979998,25.391,38.086,28.32,20.996,0.0,0
1582311053.6020002,34.18,37.109,28.809,18.066,0.0,0
1582311053.606,35.156,37.109,31.25,16.113,0.0,0
1582311053.61,30.762,40.039,31.738000000000003,18.066,0.0,0
1582311053.6120002,27.832,40.039,31.738000000000003,19.531,0.0,0
1582311053.6160002,27.832,38.086,32.227,17.578,0.0,0
1582311053.62,29.785,36.621,34.18,18.066,0.0,0
1582311053.6239998,31.25,36.133,37.109,20.02,0.0,0
1582311053.6279998,35.645,36.621,34.18,17.578,0.0,0
1582311053.6320002,26.855,34.18,32.227,17.09,0.0,0
1582311053.6360002,22.461,34.18,32.715,16.602,0.0,0
1582311053.639,21.484,35.156,32.227,9.766,0.0,0
1582311053.643,22.949,35.156,32.227,13.672,0.0,0
1582311053.647,26.367,36.621,30.762,18.066,0.0,0
1582311053.651,29.785,37.598,29.297,17.09,0.0,0
1582311053.655,31.25,36.621,30.273000000000003,16.113,0.0,2
1582311053.657,26.367,36.621,33.203,17.578,0.0,0
1582311053.661,23.926,37.598,35.156,17.578,0.0,0
1582311053.665,24.414,36.133,32.715,17.09,0.0,0
1582311053.669,20.996,35.156,31.738000000000003,15.625,0.0,0
1582311053.673,23.438,36.133,30.762,14.648,0.0,0
1582311053.677,21.973000000000006,37.598,31.25,17.09,0.0,0
