timestamps,TP9,AF7,AF8,TP10,Right AUX,Marker0
1581631895.403,115.234,33.691,18.555,104.004,0.0,0
1581631895.407,112.793,30.762,21.484,100.586,0.0,0
1581631895.411,100.586,34.668,18.555,94.238,0.0,0
1581631895.415,89.844,30.762,19.043,95.215,0.0,0
1581631895.419,103.027,31.25,10.742,101.562,0.0,0
1581631895.423,111.816,34.18,11.719,102.539,0.0,0
1581631895.427,100.586,30.273000000000003,27.344,91.309,0.0,0
1581631895.43,90.82,30.762,29.297,83.984,0.0,0
1581631895.434,92.773,31.25,22.949,79.59,0.0,0
1581631895.438,93.262,29.297,22.949,71.289,0.0,0
1581631895.4420002,90.82,30.273000000000003,21.484,72.75399999999998,0.0,0
1581631895.446,83.49600000000002,30.273000000000003,24.414,81.055,0.0,0
1581631895.448,71.289,28.32,26.367,81.543,0.0,0
1581631895.452,70.801,27.832,24.414,74.707,0.0,0
1581631895.456,86.914,25.879,24.902,74.707,0.0,0
1581631895.46,87.891,20.996,23.926,75.684,0.0,0
1581631895.464,67.87100000000001,19.043,20.996,72.266,0.0,0
1581631895.468,69.824,25.391,19.531,67.383,0.0,0
1581631895.472,77.148,27.832,22.461,64.453,0.0,0
1581631895.475,68.848,25.391,22.949,67.383,0.0,0
1581631895.479,63.965,26.855,20.02,64.941,0.0,0
1581631895.4829998,66.895,25.391,18.066,55.176,0.0,0
1581631895.4870002,67.383,24.902,18.555,54.199,0.0,0
1581631895.4910002,61.523,25.879,17.578,60.059,0.0,0
1581631895.4929998,57.129,23.926,15.625,61.035,0.0,0
1581631895.4970002,54.688,23.926,11.719,51.758,0.0,0
1581631895.5010002,52.246,25.391,6.836,41.504,0.0,0
1581631895.505,54.199,22.461,8.789,42.969,0.0,0
1581631895.5089998,58.105,20.02,16.113,57.617,0.0,0
1581631895.5129998,55.176,22.949,20.02,57.617,0.0,0
1581631895.5170002,41.992,26.367,11.23,42.969,0.0,0
1581631895.52,48.828,33.691,10.742,49.805,0.0,0
1581631895.524,44.922,32.227,15.625,35.156,0.0,0
1581631895.528,37.109,25.879,15.137,20.02,0.0,0
1581631895.532,48.34,23.926,18.066,23.926,0.0,0
1581631895.536,37.109,21.484,16.113,32.715,0.0,0
1581631895.538,26.855,20.996,10.742,31.25,0.0,0
1581631895.542,32.227,22.461,12.207,27.344,0.0,0
1581631895.546,32.715,28.809,13.672,35.645,0.0,0
1581631895.55,33.203,30.273000000000003,12.695,40.527,0.0,0
1581631895.554,37.598,24.414,15.137,32.227,0.0,0
1581631895.5579998,33.691,23.926,15.625,21.97300000000001,0.0,0
1581631895.562,41.504,25.391,13.184,31.738000000000003,0.0,0
1581631895.565,41.992,23.926,11.23,30.762,0.0,0
1581631895.569,40.039,23.438,13.184,27.344,0.0,0
1581631895.573,34.668,21.97300000000001,15.137,26.855,0.0,0
1581631895.577,31.738000000000003,22.949,7.812,17.578,0.0,0
1581631895.581,40.527,23.926,3.418,19.043,0.0,0
1581631895.583,38.086,25.879,4.395,22.949,0.0,0
1581631895.587,32.227,25.879,12.207,22.949,0.0,0
1581631895.591,27.832,23.926,14.648,18.066,0.0,0
1581631895.595,27.832,25.391,8.301,19.531,0.0,0
1581631895.599,33.691,25.391,9.277,19.043,0.0,0
1581631895.603,35.645,26.367,17.09,19.043,0.0,0
1581631895.607,28.32,24.414,14.648,25.391,0.0,0
1581631895.61,18.066,21.97300000000001,9.766,20.508000000000006,0.0,0
1581631895.6139998,17.09,20.996,9.277,18.555,0.0,0
1581631895.6179998,27.832,21.484,5.371,28.32,0.0,0
1581631895.6220002,34.668,24.902,6.348,36.621,0.0,0
1581631895.6260002,39.551,26.855,15.625,35.156,0.0,0
1581631895.643,30.762,18.555,20.02,19.043,0.0,0
1581631895.647,28.32,11.719,22.461,24.902,0.0,0
1581631895.651,27.344,20.508000000000006,17.578,26.367,0.0,0
1581631895.655,18.555,25.391,14.648,16.113,0.0,0
1581631895.659,20.508000000000006,23.438,15.137,15.625,0.0,0
1581631895.663,31.25,23.926,12.695,13.672,0.0,0
1581631895.667,31.738000000000003,24.414,13.184,15.137,0.0,0
1581631895.67,20.02,22.949,13.672,14.16,0.0,0
1581631895.674,20.508000000000006,24.902,11.23,11.719,0.0,0
1581631895.678,26.367,22.461,11.23,22.949,0.0,0
1581631895.6820002,27.832,20.996,10.254,24.414,0.0,0
1581631895.686,30.762,24.902,7.324,27.344,0.0,0
1581631895.688,32.227,25.391,10.254,34.668,0.0,0
1581631895.6920002,22.949,21.97300000000001,15.137,19.043,0.0,0
1581631895.696,21.484,19.531,16.602,13.672,0.0,0
1581631895.7,31.738000000000003,20.508000000000006,16.113,22.949,0.0,0
1581631895.704,41.504,15.625,19.043,28.809,0.0,0
1581631895.708,43.945,8.301,19.043,33.203,0.0,0
1581631895.712,39.062,9.766,16.602,30.273000000000003,0.0,0
1581631895.715,31.25,9.277,16.113,22.461,0.0,0
1581631895.719,28.32,11.23,18.066,25.879,0.0,0
1581631895.7229998,41.992,16.113,17.09,39.062,0.0,0
1581631895.7270002,43.457,15.137,15.137,34.18,0.0,0
1581631895.731,29.785,9.766,14.16,30.273000000000003,0.0,0
1581631895.7329998,37.109,11.719,11.719,40.527,0.0,0
1581631895.7370002,43.945,15.137,10.742,34.668,0.0,0
1581631895.7410002,45.41,17.578,13.184,25.879,0.0,0
1581631895.745,36.621,14.16,1.465,23.438,0.0,0
1581631895.7489998,37.598,11.719,-8.789,30.273000000000003,0.0,0
1581631895.7529998,43.457,15.625,1.953,39.551,0.0,0
1581631895.7570002,30.762,13.672,14.648,28.32,0.0,0
1581631895.76,23.438,14.648,17.578,16.113,0.0,0
1581631895.764,29.297,17.578,19.531,24.414,0.0,0
1581631895.768,32.715,19.043,20.508000000000006,35.645,0.0,0
1581631895.772,29.785,17.578,16.113,23.438,0.0,0
1581631895.776,38.086,16.113,18.066,8.301,0.0,0
1581631895.778,35.156,18.555,20.02,14.16,0.0,0
1581631895.782,19.531,16.602,17.578,17.578,0.0,0
1581631895.786,25.879,12.695,17.09,12.695,0.0,0
1581631895.79,33.691,18.066,15.625,18.066,0.0,0
1581631895.794,29.297,18.066,13.672,20.508000000000006,0.0,0
1581631895.798,28.809,14.648,13.184,19.531,0.0,0
1581631895.802,34.18,13.184,14.648,28.809,0.0,0
1581631895.805,40.527,16.113,14.16,30.273000000000003,0.0,0
1581631895.809,39.062,19.043,15.625,22.461,0.0,0
1581631895.813,24.414,17.09,17.09,26.367,0.0,0
1581631895.8170002,20.508000000000006,18.066,14.648,34.18,0.0,0
1581631895.821,41.992,22.461,12.695,33.203,0.0,0
1581631895.823,42.48,22.461,13.184,34.668,0.0,0
1581631895.827,29.297,20.508000000000006,15.625,32.227,0.0,0
1581631895.831,42.48,24.414,8.301,25.391,0.0,0
1581631895.835,42.48,21.484,4.883,27.344,0.0,0
1581631895.839,26.855,17.09,15.137,25.879,0.0,0
1581631895.843,21.484,20.02,16.113,30.273000000000003,0.0,0
1581631895.847,25.879,18.555,15.625,31.738000000000003,0.0,0
1581631895.85,29.785,13.184,20.02,30.762,0.0,0
1581631895.854,29.785,19.531,20.508000000000006,32.227,0.0,0
1581631895.8579998,29.297,24.414,16.113,27.344,0.0,0
1581631895.8620002,30.762,23.438,16.602,26.855,0.0,0
1581631895.8660002,42.48,22.461,17.09,33.691,0.0,0
1581631895.8679998,35.645,21.484,15.137,39.062,0.0,0
1581631895.8720002,27.344,20.02,11.23,34.18,0.0,0
1581631895.8760002,42.48,15.625,11.23,37.598,0.0,0
1581631895.88,36.133,18.066,12.695,38.574,0.0,0
1581631895.8839998,15.625,20.02,11.719,11.23,0.0,0
1581631895.8879998,19.531,21.97300000000001,9.277,3.906,0.0,0
1581631895.8920002,16.602,25.879,8.789,11.23,0.0,0
1581631895.895,14.16,24.902,11.23,3.418,0.0,0
1581631895.899,15.137,24.902,0.0,0.0,0.0,0
1581631895.903,13.184,26.367,-5.859,0.977,0.0,0
1581631895.907,8.789,20.02,7.324,0.0,0.0,0
1581631895.911,7.812,15.137,12.207,7.324,0.0,0
1581631895.913,9.277,18.555,9.277,13.672,0.0,0
1581631895.917,20.02,23.926,6.836,9.766,0.0,0
1581631895.921,24.902,26.367,7.812,16.113,0.0,0
1581631895.925,15.137,22.461,7.812,13.184,0.0,0
1581631895.929,11.23,18.066,5.371,6.348,0.0,0
1581631895.9329998,16.113,21.484,5.859,15.137,0.0,0
1581631895.937,20.996,23.438,8.789,15.625,0.0,0
1581631895.94,15.137,22.461,6.836,11.23,0.0,0
1581631895.944,15.137,21.484,3.906,10.254,0.0,0
1581631895.948,22.949,22.949,6.348,10.254,0.0,0
1581631895.952,24.902,24.414,9.766,8.301,0.0,0
1581631895.956,20.02,20.996,8.789,14.16,0.0,0
1581631895.958,24.414,28.32,9.766,16.602,0.0,0
1581631895.962,34.18,35.156,6.836,16.113,0.0,0
1581631895.966,32.227,29.785,-6.348,25.391,0.0,0
1581631895.97,29.297,27.832,0.977,31.738000000000003,0.0,0
1581631895.974,25.391,26.855,13.672,40.039,0.0,0
1581631895.978,20.996,25.391,18.555,35.645,0.0,0
1581631895.982,24.902,27.832,22.949,14.16,0.0,0
1581631895.985,21.97300000000001,28.32,22.461,10.254,0.0,0
1581631895.9889998,28.809,32.227,20.996,20.996,0.0,0
1581631895.9929998,39.551,33.203,17.578,21.97300000000001,0.0,0
1581631895.9970002,36.621,33.691,14.648,14.16,0.0,0
1581631896.0010002,28.32,35.645,19.531,17.578,0.0,0
1581631896.0029998,20.996,36.133,23.926,19.531,0.0,0
1581631896.0070002,28.32,37.598,23.926,20.508000000000006,0.0,0
1581631896.0110002,34.668,36.133,24.414,24.414,0.0,0
1581631896.015,29.785,35.156,19.531,18.066,0.0,0
1581631896.019,31.738000000000003,38.086,21.97300000000001,22.461,0.0,0
1581631896.0229998,34.18,38.574,31.25,30.762,0.0,0
1581631896.0270002,27.344,32.227,27.344,26.855,0.0,0
1581631896.03,19.531,29.785,24.414,23.926,0.0,0
1581631896.034,20.02,31.25,26.367,31.738000000000003,0.0,0
1581631896.038,21.484,34.668,22.949,28.809,0.0,0
1581631896.042,20.508000000000006,33.691,20.508000000000006,14.16,0.0,0
1581631896.046,12.695,26.855,12.207,7.324,0.0,0
1581631896.064,8.789,28.32,0.0,12.695,0.0,0
1581631896.0679998,14.16,30.762,14.16,19.531,0.0,0
1581631896.072,15.137,27.344,28.809,20.02,0.0,0
1581631896.076,20.508000000000006,26.855,28.809,17.09,0.0,0
1581631896.08,20.996,26.367,26.367,13.184,0.0,0
1581631896.084,20.508000000000006,27.344,25.391,10.742,0.0,0
1581631896.0879998,16.113,31.25,26.855,10.742,0.0,0
1581631896.091,14.648,27.832,25.879,19.043,0.0,0
1581631896.095,25.391,30.762,25.391,26.855,0.0,0
1581631896.099,24.414,32.227,24.414,19.531,0.0,0
1581631896.103,26.367,32.227,20.508000000000006,21.97300000000001,0.0,0
1581631896.107,33.691,29.785,19.531,26.367,0.0,0
1581631896.109,30.762,27.344,19.043,13.672,0.0,0
1581631896.113,31.738000000000003,32.227,18.555,15.137,0.0,0
1581631896.117,35.156,35.645,18.555,18.066,0.0,0
1581631896.121,40.527,35.156,19.043,13.672,0.0,0
1581631896.125,32.715,28.809,18.066,7.812,0.0,0
1581631896.129,20.996,27.344,12.695,6.836,0.0,0
1581631896.133,18.066,30.273000000000003,12.695,13.184,0.0,0
1581631896.1360002,20.508000000000006,27.832,15.625,18.066,0.0,0
1581631896.14,24.414,23.926,20.508000000000006,20.508000000000006,0.0,0
1581631896.144,21.97300000000001,24.902,20.02,18.555,0.0,0
1581631896.1479998,18.066,26.855,14.16,22.949,0.0,0
1581631896.1520002,28.32,24.414,12.695,30.273000000000003,0.0,0
1581631896.154,35.156,23.926,8.789,24.414,0.0,0
1581631896.158,33.203,26.367,3.906,22.461,0.0,0
1581631896.1620002,29.297,28.809,7.812,27.344,0.0,0
1581631896.166,25.879,29.785,13.184,26.855,0.0,0
1581631896.17,30.273000000000003,27.344,16.602,24.902,0.0,0
1581631896.174,30.762,24.902,20.996,24.902,0.0,0
1581631896.178,23.926,23.926,20.996,17.09,0.0,0
1581631896.181,28.809,29.297,16.602,13.672,0.0,0
1581631896.185,34.668,30.273000000000003,15.137,19.531,0.0,0
1581631896.189,31.738000000000003,25.879,15.137,17.578,0.0,0
1581631896.1929998,40.039,24.902,12.207,14.16,0.0,0
1581631896.197,38.086,27.344,12.695,26.367,0.0,0
1581631896.199,34.18,28.32,17.09,31.25,0.0,0
1581631896.2029998,42.969,27.832,12.207,18.066,0.0,0
1581631896.207,35.645,32.227,5.371,11.719,0.0,0
1581631896.211,24.414,34.18,9.277,11.23,0.0,0
1581631896.215,27.344,31.25,12.695,14.16,0.0,0
1581631896.219,36.133,26.855,14.16,12.207,0.0,0
1581631896.2229998,41.504,29.297,14.648,11.23,0.0,0
1581631896.226,40.527,31.25,13.184,14.648,0.0,0
1581631896.23,31.738000000000003,29.785,16.113,17.578,0.0,0
1581631896.234,34.18,24.902,19.043,22.461,0.0,0
1581631896.238,36.621,25.879,19.043,23.438,0.0,0
1581631896.242,35.156,28.809,19.531,26.855,0.0,0
1581631896.244,35.156,31.738000000000003,14.16,26.367,0.0,0
1581631896.248,39.062,32.715,2.441,17.09,0.0,0
1581631896.252,39.551,24.414,3.906,12.207,0.0,0
1581631896.256,22.461,22.461,18.066,12.207,0.0,0
1581631896.26,21.97300000000001,21.484,20.508000000000006,13.672,0.0,0
1581631896.264,28.32,19.531,19.043,20.996,0.0,0
1581631896.268,36.133,19.043,17.578,25.879,0.0,0
1581631896.271,40.527,22.461,18.066,22.461,0.0,0
1581631896.275,39.062,23.438,16.602,18.555,0.0,0
1581631896.279,46.387,21.484,14.16,21.97300000000001,0.0,0
1581631896.283,52.246,22.461,13.184,23.926,0.0,0
1581631896.2870002,49.805,25.391,8.301,20.02,0.0,0
1581631896.288,37.598,23.926,9.766,21.484,0.0,0
1581631896.292,30.762,22.949,14.648,29.785,0.0,0
1581631896.296,44.922,22.461,13.672,30.273000000000003,0.0,0
1581631896.3,50.78100000000001,20.996,13.672,15.625,0.0,0
1581631896.304,43.945,21.97300000000001,17.09,23.926,0.0,0
1581631896.3079998,34.18,22.461,20.02,36.621,0.0,0
1581631896.312,37.109,22.949,19.531,26.367,0.0,0
1581631896.315,44.434,25.391,18.066,19.043,0.0,0
1581631896.319,43.457,22.461,17.09,14.648,0.0,0
1581631896.323,44.922,18.066,20.02,23.926,0.0,0
1581631896.327,34.668,20.996,16.602,23.438,0.0,0
1581631896.331,38.574,23.926,15.137,17.09,0.0,0
1581631896.333,44.434,24.902,18.066,19.531,0.0,0
1581631896.337,40.527,24.902,21.97300000000001,25.879,0.0,0
1581631896.341,42.969,21.97300000000001,17.578,31.25,0.0,0
1581631896.345,41.01600000000001,22.461,3.906,23.926,0.0,0
1581631896.349,51.758,27.832,8.301,22.461,0.0,0
1581631896.353,58.594,26.855,15.625,25.879,0.0,0
1581631896.357,42.969,24.902,23.438,30.762,0.0,0
1581631896.36,33.691,28.809,30.273000000000003,31.25,0.0,0
1581631896.3639998,38.086,29.785,28.809,21.97300000000001,0.0,0
1581631896.3679998,41.992,27.344,28.809,26.855,0.0,0
1581631896.3720002,39.551,26.855,26.367,36.133,0.0,0
1581631896.3760002,33.691,25.391,21.484,31.738000000000003,0.0,0
1581631896.394,32.227,27.344,18.066,26.367,0.0,0
1581631896.3979998,33.691,28.32,20.508000000000006,30.273000000000003,0.0,0
1581631896.4020002,27.344,20.996,21.484,27.832,0.0,0
1581631896.406,25.391,17.578,17.578,22.461,0.0,0
1581631896.41,31.25,17.09,18.066,22.461,0.0,0
1581631896.414,28.32,17.09,15.625,23.438,0.0,0
1581631896.418,27.344,19.043,11.23,24.902,0.0,0
1581631896.421,33.691,20.996,11.719,31.25,0.0,0
1581631896.425,39.062,23.926,10.254,31.738000000000003,0.0,0
1581631896.429,44.434,24.414,9.277,30.762,0.0,0
1581631896.4329998,39.062,21.484,12.207,33.691,0.0,0
1581631896.437,26.367,19.043,10.742,21.97300000000001,0.0,0
1581631896.438,31.25,16.602,12.695,19.043,0.0,0
1581631896.4420002,29.785,18.066,18.555,18.066,0.0,0
1581631896.446,17.09,20.02,20.508000000000006,18.555,0.0,0
1581631896.45,11.23,20.508000000000006,18.555,20.996,0.0,0
1581631896.454,20.508000000000006,22.461,13.184,23.438,0.0,0
1581631896.458,31.738000000000003,21.97300000000001,9.277,28.809,0.0,0
1581631896.462,29.785,18.066,16.602,26.367,0.0,0
1581631896.465,23.926,20.996,22.461,23.438,0.0,0
1581631896.469,19.531,28.32,17.09,16.602,0.0,0
1581631896.4729998,18.066,25.391,12.207,8.301,0.0,0
1581631896.4770002,20.508000000000006,18.555,8.301,16.113,0.0,0
1581631896.481,23.438,23.438,9.277,18.066,0.0,0
1581631896.484,20.02,22.949,14.648,19.531,0.0,0
1581631896.488,18.555,20.508000000000006,17.09,19.043,0.0,0
1581631896.492,25.391,21.484,15.625,10.742,0.0,0
1581631896.496,18.555,19.531,15.137,15.137,0.0,0
1581631896.5,13.672,20.02,19.531,19.043,0.0,0
1581631896.504,25.879,23.926,20.02,12.695,0.0,0
1581631896.508,28.32,24.414,11.719,9.766,0.0,0
1581631896.5110002,26.367,23.438,3.906,5.371,0.0,0
1581631896.515,27.344,23.926,12.695,8.301,0.0,0
1581631896.519,20.996,22.461,19.531,9.277,0.0,0
1581631896.5229998,25.879,21.97300000000001,16.113,4.883,0.0,0
1581631896.5270002,28.32,22.949,17.09,14.648,0.0,0
1581631896.528,20.02,22.461,20.996,20.508000000000006,0.0,0
1581631896.532,19.043,18.066,18.066,20.02,0.0,0
1581631896.536,21.97300000000001,17.09,10.254,23.438,0.0,0
1581631896.54,26.855,18.555,11.23,22.949,0.0,0
1581631896.544,23.438,19.043,13.184,25.391,0.0,0
1581631896.548,28.32,22.461,15.137,23.926,0.0,0
1581631896.552,33.691,20.02,15.625,9.277,0.0,0
1581631896.555,28.809,18.555,14.16,17.09,0.0,0
1581631896.559,28.32,20.996,16.113,28.32,0.0,0
1581631896.563,26.367,19.043,13.672,19.531,0.0,0
1581631896.5670002,25.879,16.602,12.207,18.555,0.0,0
1581631896.571,31.25,17.09,19.531,26.855,0.0,0
1581631896.573,38.574,18.555,17.578,23.926,0.0,0
1581631896.577,34.668,17.09,12.695,15.625,0.0,0
1581631896.581,15.625,17.578,15.137,15.137,0.0,0
1581631896.585,22.949,17.578,18.555,11.719,0.0,0
1581631896.589,36.133,16.113,18.066,10.254,0.0,0
1581631896.593,35.645,19.043,14.16,28.809,0.0,0
1581631896.597,22.949,21.484,10.742,25.879,0.0,0
1581631896.6,20.508000000000006,24.414,10.254,8.789,0.0,0
1581631896.604,22.949,22.461,12.207,1.465,0.0,0
1581631896.6079998,15.625,17.578,12.207,2.93,0.0,0
1581631896.6120002,23.438,14.648,10.742,11.23,0.0,0
1581631896.6160002,13.672,18.066,11.23,7.812,0.0,0
1581631896.6179998,6.348,21.484,12.695,6.836,0.0,0
1581631896.6220002,16.602,17.09,17.09,13.672,0.0,0
1581631896.6260002,14.648,14.648,17.09,14.648,0.0,0
1581631896.63,20.996,18.555,16.113,21.484,0.0,0
1581631896.6339998,34.18,21.97300000000001,15.625,22.461,0.0,0
1581631896.6379998,40.527,19.531,15.137,17.578,0.0,0
1581631896.6420002,32.715,17.09,13.672,29.297,0.0,0
1581631896.645,27.832,18.066,17.09,34.18,0.0,0
1581631896.649,32.715,18.555,19.531,23.926,0.0,0
1581631896.653,34.668,17.578,13.672,15.137,0.0,0
1581631896.657,25.879,15.625,14.16,17.578,0.0,0
1581631896.661,17.578,13.672,17.09,20.02,0.0,0
1581631896.663,20.508000000000006,14.16,15.625,16.113,0.0,0
1581631896.667,21.97300000000001,15.137,14.16,15.137,0.0,0
1581631896.671,30.762,16.113,15.625,20.02,0.0,0
1581631896.675,29.297,16.113,18.555,21.484,0.0,0
1581631896.679,20.02,14.648,17.09,16.113,0.0,0
1581631896.6829998,23.438,15.137,6.836,15.137,0.0,0
1581631896.687,30.273000000000003,18.066,8.789,14.648,0.0,0
1581631896.69,25.879,17.578,17.578,18.066,0.0,0
1581631896.694,23.438,16.113,14.648,16.113,0.0,0
1581631896.698,36.133,20.02,15.625,10.742,0.0,0
1581631896.702,35.156,22.949,16.113,9.766,0.0,0
1581631896.706,25.391,20.02,17.09,10.742,0.0,0
1581631896.708,24.414,18.555,14.648,19.531,0.0,0
1581631896.712,18.555,20.02,5.371,21.484,0.0,0
1581631896.716,20.508000000000006,21.484,8.789,13.672,0.0,0
1581631896.72,24.414,19.043,17.09,16.113,0.0,0
1581631896.724,24.902,20.996,16.602,22.461,0.0,0
1581631896.728,30.273000000000003,23.438,12.695,11.719,0.0,0
1581631896.732,33.203,20.02,15.137,10.254,0.0,0
1581631896.735,27.832,16.113,18.066,21.484,0.0,0
1581631896.7389998,27.344,12.207,19.043,25.879,0.0,0
1581631896.7429998,34.668,14.648,20.02,24.414,0.0,0
1581631896.7470002,36.133,18.555,18.066,20.508000000000006,0.0,2
1581631896.7510002,29.297,17.578,12.695,16.113,0.0,0
1581631896.768,27.832,18.555,15.137,18.066,0.0,0
1581631896.772,32.227,18.555,17.09,25.391,0.0,0
1581631896.776,35.645,20.508000000000006,16.113,25.391,0.0,0
1581631896.78,29.297,21.484,19.043,20.996,0.0,0
1581631896.784,25.391,20.508000000000006,22.949,21.484,0.0,0
1581631896.788,26.855,22.949,26.855,22.461,0.0,0
1581631896.792,15.625,21.484,21.97300000000001,9.277,0.0,0
1581631896.795,9.277,19.531,17.09,1.465,0.0,0
1581631896.799,5.371,22.949,18.555,2.93,0.0,0
1581631896.803,-2.93,23.438,19.043,-1.465,0.0,0
1581631896.8070002,1.465,22.461,20.996,-1.465,0.0,0
1581631896.811,2.441,25.391,20.996,-13.184,0.0,0
1581631896.813,-10.254,27.832,27.344,-14.648,0.0,0
1581631896.8170002,-23.438,29.785,30.273000000000003,-13.672,0.0,0
1581631896.821,-25.879,33.203,24.902,-24.902,0.0,0
1581631896.825,-33.691,35.645,23.926,-44.434,0.0,0
1581631896.829,-55.664,33.203,23.438,-70.312,0.0,0
1581631896.833,-65.918,30.762,21.484,-73.73,0.0,0
1581631896.837,-81.543,30.762,20.508000000000006,-86.426,0.0,0
1581631896.84,-99.121,28.32,20.508000000000006,-112.793,0.0,0
1581631896.844,-114.746,27.832,22.461,-122.07,0.0,0
1581631896.8479998,-122.559,26.855,23.926,-126.465,0.0,0
1581631896.8520002,-120.117,23.926,23.438,-127.93,0.0,0
1581631896.856,-116.211,25.879,20.996,-127.93,0.0,0
1581631896.8579998,-103.027,27.344,20.996,-127.441,0.0,0
1581631896.8620002,-106.934,27.832,20.996,-117.188,0.0,0
1581631896.8660002,-99.609,27.832,16.113,-101.562,0.0,0
1581631896.87,-73.242,26.855,11.23,-85.93799999999996,0.0,0
1581631896.8739998,-51.27,29.785,7.324,-65.43,0.0,0
1581631896.8779998,-30.762,30.762,7.324,-46.875,0.0,0
1581631896.8820002,-18.066,30.762,9.277,-25.391,0.0,0
1581631896.885,-7.812,32.227,8.301,-9.766,0.0,0
1581631896.889,5.859,31.738000000000003,5.371,-2.441,0.0,0
1581631896.893,20.996,32.715,2.93,15.137,0.0,0
1581631896.897,32.227,35.645,0.0,34.668,0.0,0
1581631896.901,36.621,35.156,-2.93,47.852,0.0,0
1581631896.903,57.129,35.645,-0.977,50.293,0.0,0
1581631896.907,73.73,35.645,-0.488,59.082,0.0,0
1581631896.911,71.289,31.738000000000003,-3.418,64.453,0.0,0
1581631896.915,76.66,31.25,-1.465,62.5,0.0,0
1581631896.919,89.844,33.691,0.977,68.848,0.0,0
1581631896.923,98.145,33.691,-1.465,71.289,0.0,0
1581631896.927,87.891,32.227,-4.395,74.219,0.0,0
1581631896.93,86.914,31.25,-1.465,87.402,0.0,0
1581631896.934,94.727,29.785,0.488,90.332,0.0,0
1581631896.938,95.703,27.344,1.953,76.66,0.0,0
1581631896.9420002,97.168,23.438,7.324,75.195,0.0,0
1581631896.946,98.145,21.484,8.301,81.055,0.0,0
1581631896.948,92.285,17.578,4.395,86.426,0.0,0
1581631896.952,83.49600000000002,11.719,5.859,92.773,0.0,0
1581631896.956,90.82,18.066,8.301,86.914,0.0,0
1581631896.96,99.121,23.926,5.371,80.566,0.0,0
1581631896.964,94.238,24.414,5.859,80.078,0.0,0
1581631896.968,84.961,22.461,14.16,79.102,0.0,0
1581631896.972,83.49600000000002,17.09,16.602,75.684,0.0,0
1581631896.975,83.49600000000002,17.578,14.16,74.219,0.0,0
1581631896.979,80.566,17.09,13.184,76.172,0.0,0
1581631896.9829998,83.984,13.672,12.207,69.824,0.0,0
1581631896.9870002,88.37899999999998,15.625,10.742,64.941,0.0,0
1581631896.9910002,97.656,20.508000000000006,7.812,67.87100000000001,0.0,0
1581631896.994,99.121,20.996,5.371,62.012,0.0,0
1581631896.998,85.449,18.555,3.906,60.547,0.0,0
1581631897.002,82.031,18.555,2.441,60.547,0.0,0
1581631897.006,82.52,18.555,7.812,60.547,0.0,0
1581631897.01,80.078,15.137,11.23,57.129,0.0,0
1581631897.014,72.75399999999998,14.16,8.789,49.805,0.0,0
1581631897.018,70.801,11.23,7.812,51.758,0.0,0
1581631897.021,66.406,7.812,8.789,50.78100000000001,0.0,0
1581631897.025,54.688,6.348,7.812,51.758,0.0,0
1581631897.029,56.152,6.348,4.883,53.223,0.0,0
1581631897.033,62.5,10.742,7.812,56.64100000000001,0.0,0
1581631897.0370002,62.5,14.16,7.812,54.688,0.0,0
1581631897.039,51.758,11.719,9.766,41.504,0.0,0
1581631897.043,50.78100000000001,10.254,16.113,42.969,0.0,0
1581631897.0470002,52.734,9.277,5.859,46.875,0.0,0
1581631897.051,57.129,8.789,3.906,44.434,0.0,0
1581631897.055,50.78100000000001,9.766,20.508000000000006,48.828,0.0,0
1581631897.059,39.062,10.742,22.461,42.969,0.0,0
1581631897.063,43.945,11.23,19.531,38.574,0.0,0
1581631897.066,47.363,12.207,21.97300000000001,36.133,0.0,0
1581631897.07,47.852,12.207,20.996,41.992,0.0,0
1581631897.074,46.875,12.207,19.531,49.316,0.0,0
1581631897.0779998,57.129,11.719,13.184,41.504,0.0,0
1581631897.082,72.266,12.695,7.324,42.48,0.0,0
1581631897.084,57.617,12.695,14.16,38.574,0.0,0
1581631897.0879998,31.738000000000003,7.812,23.438,28.809,0.0,0
1581631897.092,14.648,4.395,22.949,28.32,0.0,0
1581631897.096,18.555,6.348,20.996,27.344,0.0,0
1581631897.1,22.461,5.859,22.461,30.273000000000003,0.0,0
1581631897.104,27.832,5.371,21.484,35.156,0.0,0
1581631897.1079998,31.738000000000003,7.324,21.484,30.273000000000003,0.0,0
1581631897.111,30.762,10.742,21.484,29.785,0.0,0
1581631897.115,36.133,9.766,19.043,24.902,0.0,0
1581631897.119,40.039,8.301,21.484,19.531,0.0,0
1581631897.123,33.203,9.277,22.949,18.555,0.0,0
1581631897.127,40.039,10.742,20.02,19.531,0.0,0
1581631897.129,54.688,14.16,22.949,21.484,0.0,0
1581631897.133,38.574,16.113,23.926,20.996,0.0,0
1581631897.137,33.203,16.113,19.043,37.598,0.0,0
1581631897.141,38.086,13.672,20.02,37.109,0.0,0
1581631897.145,34.668,12.695,20.02,23.438,0.0,0
1581631897.149,32.715,13.672,19.043,24.414,0.0,0
1581631897.153,27.344,16.113,20.02,23.926,0.0,0
1581631897.156,22.949,17.09,17.09,28.809,0.0,0
1581631897.16,29.297,18.066,16.113,40.527,0.0,0
1581631897.164,31.25,19.531,17.578,24.902,0.0,0
1581631897.168,32.227,23.438,17.09,9.277,0.0,0
1581631897.1720002,37.598,26.367,18.555,19.043,0.0,0
1581631897.189,34.668,26.367,18.066,21.484,0.0,0
1581631897.1929998,35.156,26.855,16.113,17.09,0.0,0
1581631897.197,43.945,27.344,16.602,18.555,0.0,0
1581631897.201,36.133,30.762,20.02,24.414,0.0,0
1581631897.205,41.01600000000001,32.227,20.508000000000006,38.574,0.0,0
1581631897.209,50.293,31.25,20.02,33.691,0.0,0
1581631897.2129998,42.969,32.227,20.02,23.438,0.0,0
1581631897.216,36.133,33.203,19.043,34.18,0.0,0
1581631897.22,26.855,32.715,17.578,31.25,0.0,0
1581631897.224,24.902,35.156,15.137,19.043,0.0,0
1581631897.228,38.574,32.715,17.09,22.461,0.0,0
1581631897.232,41.504,27.344,17.09,17.578,0.0,0
1581631897.234,20.996,29.297,19.043,8.301,0.0,0
1581631897.238,18.066,32.715,20.996,13.672,0.0,0
1581631897.242,26.367,29.297,15.625,12.207,0.0,0
1581631897.246,27.344,25.879,13.672,10.742,0.0,0
1581631897.25,23.438,26.855,15.625,18.555,0.0,0
1581631897.254,27.344,25.879,15.137,25.391,0.0,0
1581631897.258,41.01600000000001,26.367,14.16,21.97300000000001,0.0,0
1581631897.2610002,30.762,27.832,14.16,15.625,0.0,0
1581631897.265,21.97300000000001,27.344,15.137,12.695,0.0,0
1581631897.269,30.762,27.832,14.648,14.16,0.0,0
1581631897.2729998,22.461,25.879,12.207,17.09,0.0,0
1581631897.2770002,22.949,23.438,15.625,25.879,0.0,0
1581631897.279,37.598,25.879,16.602,23.438,0.0,0
1581631897.283,42.48,28.809,14.16,23.926,0.0,0
1581631897.2870002,36.621,27.832,17.578,25.879,0.0,0
1581631897.291,31.25,28.32,20.02,24.902,0.0,0
1581631897.295,30.762,27.832,19.043,24.414,0.0,0
1581631897.299,26.855,25.879,21.97300000000001,16.113,0.0,0
1581631897.303,24.414,29.297,23.438,21.97300000000001,0.0,0
1581631897.306,29.785,32.715,22.461,26.855,0.0,0
1581631897.31,23.438,31.738000000000003,23.926,22.949,0.0,0
1581631897.314,16.602,27.832,23.438,26.855,0.0,0
1581631897.3179998,30.762,23.926,20.996,37.109,0.0,0
1581631897.322,34.668,25.391,20.996,34.18,0.0,0
1581631897.324,22.949,28.809,15.625,15.625,0.0,0
1581631897.3279998,18.555,24.902,11.23,12.695,0.0,0
1581631897.332,24.414,23.926,9.766,15.137,0.0,0
1581631897.336,30.762,28.32,6.836,14.648,0.0,0
1581631897.34,24.902,28.809,5.859,15.625,0.0,0
1581631897.344,16.602,25.879,4.883,12.207,0.0,0
1581631897.3479998,20.508000000000006,25.879,5.371,15.137,0.0,0
1581631897.351,21.484,25.879,10.254,30.273000000000003,0.0,0
1581631897.355,21.484,24.902,12.207,33.203,0.0,0
1581631897.359,30.273000000000003,21.484,10.742,20.508000000000006,0.0,0
1581631897.363,26.855,20.508000000000006,11.719,23.438,0.0,0
1581631897.367,20.996,22.461,13.672,29.785,0.0,0
1581631897.3679998,33.203,23.926,13.184,22.461,0.0,0
1581631897.3720002,36.133,24.414,13.672,11.719,0.0,0
1581631897.3760002,31.738000000000003,22.461,14.16,12.695,0.0,0
1581631897.38,33.203,19.531,13.184,18.555,0.0,0
1581631897.3839998,35.645,18.555,16.113,25.391,0.0,0
1581631897.3879998,26.855,19.531,16.602,24.902,0.0,0
1581631897.3920002,22.949,20.02,12.207,22.949,0.0,0
1581631897.395,33.691,22.949,12.207,30.273000000000003,0.0,0
1581631897.399,34.18,24.414,12.695,32.715,0.0,0
1581631897.403,34.18,22.949,11.23,28.32,0.0,0
1581631897.407,31.25,19.043,8.789,24.902,0.0,0
1581631897.411,28.809,14.648,8.301,30.273000000000003,0.0,0
1581631897.414,30.762,15.625,10.254,23.438,0.0,0
1581631897.418,30.762,19.043,11.719,19.043,0.0,0
1581631897.4220002,30.762,20.508000000000006,15.137,26.367,0.0,0
1581631897.426,17.578,20.02,15.625,23.926,0.0,0
1581631897.43,17.578,19.043,14.648,13.184,0.0,0
1581631897.434,23.926,20.508000000000006,11.719,17.09,0.0,0
1581631897.438,24.414,21.97300000000001,7.812,19.043,0.0,0
1581631897.441,22.949,22.461,9.277,4.395,0.0,0
1581631897.445,24.902,20.996,8.789,7.812,0.0,0
1581631897.449,37.109,19.531,5.859,18.555,0.0,0
1581631897.4529998,35.156,19.531,12.695,15.137,0.0,0
1581631897.457,18.066,20.508000000000006,16.113,13.184,0.0,0
1581631897.458,14.16,18.066,17.578,13.672,0.0,0
1581631897.462,16.602,21.484,20.02,15.137,0.0,0
1581631897.466,25.391,22.461,19.531,12.207,0.0,0
1581631897.47,33.691,19.043,20.996,16.113,0.0,0
1581631897.474,29.297,21.484,17.09,18.555,0.0,0
1581631897.478,29.785,21.484,12.207,14.648,0.0,0
1581631897.482,31.738000000000003,20.02,16.602,17.578,0.0,0
1581631897.485,23.438,20.508000000000006,15.137,15.625,0.0,0
1581631897.4889998,22.461,19.043,13.184,19.531,0.0,0
1581631897.4929998,26.855,17.09,15.625,18.555,0.0,0
1581631897.4970002,24.414,16.113,17.09,14.648,0.0,0
1581631897.5010002,27.832,19.531,20.02,18.066,0.0,0
1581631897.519,35.156,20.508000000000006,17.09,18.555,0.0,0
1581631897.5229998,32.227,21.484,17.09,28.809,0.0,0
1581631897.5270002,33.203,23.438,19.043,27.832,0.0,0
1581631897.531,36.133,23.926,17.09,18.555,0.0,0
1581631897.535,28.809,27.344,17.09,26.855,0.0,0
1581631897.539,23.438,29.297,18.555,22.461,0.0,0
1581631897.543,25.391,26.367,19.043,10.742,0.0,0
1581631897.546,26.367,26.855,16.602,7.812,0.0,0
1581631897.55,23.926,27.344,16.602,14.16,0.0,0
1581631897.554,27.344,22.949,17.578,20.996,0.0,0
1581631897.5579998,32.227,17.578,19.531,26.367,0.0,0
1581631897.562,38.574,19.043,18.555,24.902,0.0,0
1581631897.579,33.691,24.414,14.648,17.578,0.0,0
1581631897.583,23.438,24.414,14.16,22.461,0.0,0
1581631897.587,28.32,26.367,16.113,28.809,0.0,0
1581631897.591,35.156,26.855,12.207,25.391,0.0,0
1581631897.595,33.203,25.391,8.301,22.461,0.0,0
1581631897.599,36.133,25.391,5.371,24.902,0.0,0
1581631897.603,36.133,23.926,4.883,23.926,0.0,0
1581631897.606,36.621,20.996,12.695,20.996,0.0,0
1581631897.61,44.434,16.602,15.625,18.555,0.0,0
1581631897.6139998,32.227,20.508000000000006,13.184,18.066,0.0,0
1581631897.6179998,31.738000000000003,20.508000000000006,15.137,20.02,0.0,0
1581631897.6220002,29.297,18.555,16.113,16.602,0.0,0
1581631897.609,19.043,24.902,13.672,13.672,0.0,0
1581631897.613,24.902,25.879,12.695,22.461,0.0,0
1581631897.617,29.297,22.461,11.23,24.414,0.0,0
1581631897.621,30.762,21.97300000000001,10.742,19.043,0.0,0
1581631897.625,35.645,22.461,13.672,20.02,0.0,0
1581631897.629,39.551,23.926,16.113,22.949,0.0,0
1581631897.633,33.203,25.391,16.113,22.949,0.0,0
1581631897.6360002,24.414,24.414,12.695,18.066,0.0,0
1581631897.64,36.133,25.879,12.207,20.02,0.0,0
1581631897.644,36.621,27.344,16.602,15.625,0.0,0
1581631897.6479998,18.555,22.949,16.602,14.16,0.0,0
1581631897.6520002,19.043,22.949,17.578,17.09,0.0,0
1581631897.654,23.926,26.855,19.531,9.766,0.0,0
1581631897.658,24.902,25.391,18.066,9.277,0.0,0
1581631897.6620002,22.461,22.949,14.648,15.137,0.0,0
1581631897.666,19.043,21.484,11.719,19.531,0.0,0
1581631897.67,21.97300000000001,20.508000000000006,12.695,17.578,0.0,0
1581631897.674,24.902,19.531,11.23,8.789,0.0,0
1581631897.678,18.066,18.066,10.254,8.301,0.0,0
1581631897.681,17.09,17.578,11.719,14.16,0.0,0
1581631897.685,26.855,21.97300000000001,11.719,9.277,0.0,0
1581631897.689,33.691,22.949,11.23,6.836,0.0,0
1581631897.6929998,35.645,19.043,10.254,13.184,0.0,0
1581631897.697,28.809,19.043,14.16,12.207,0.0,0
1581631897.698,25.391,22.949,15.625,12.207,0.0,0
1581631897.702,24.414,27.832,17.09,14.16,0.0,0
1581631897.706,11.719,24.414,16.602,8.301,0.0,0
1581631897.71,-1.953,20.02,16.113,-5.859,0.0,0
1581631897.714,-5.371,20.508000000000006,21.484,-4.883,0.0,0
1581631897.718,-6.836,25.391,19.043,-14.16,0.0,0
1581631897.722,-15.137,27.832,19.531,-29.297,0.0,0
1581631897.725,-28.32,25.879,25.391,-28.809,0.0,0
1581631897.729,-37.598,24.902,25.879,-40.039,0.0,0
1581631897.7329998,-48.34,21.484,21.97300000000001,-56.152,0.0,0
1581631897.7370002,-61.035,18.555,24.902,-61.035,0.0,0
1581631897.7410002,-86.426,14.16,30.273000000000003,-83.49600000000002,0.0,0
1581631897.7429998,-109.375,8.789,31.738000000000003,-105.469,0.0,0
1581631897.7470002,-125.0,6.836,34.668,-127.93,0.0,0
1581631897.7510002,-133.30100000000002,5.859,37.598,-148.92600000000004,0.0,0
1581631897.755,-145.02,3.418,38.574,-151.855,0.0,0
1581631897.7589998,-150.879,-0.488,38.574,-158.691,0.0,0
1581631897.7629998,-138.184,1.953,37.598,-157.715,0.0,0
1581631897.7670002,-134.27700000000002,2.93,36.621,-142.578,0.0,0
1581631897.77,-119.141,3.418,35.156,-126.465,0.0,0
1581631897.774,-98.145,6.348,27.832,-113.281,0.0,0
1581631897.778,-87.891,9.277,20.508000000000006,-88.867,0.0,0
1581631897.782,-62.5,14.648,16.113,-65.918,0.0,0
1581631897.786,-26.367,21.484,14.16,-49.805,0.0,0
1581631897.788,-15.137,22.461,14.648,-28.32,0.0,0
1581631897.792,-2.441,24.414,14.16,5.859,0.0,0
1581631897.796,22.461,24.414,7.324,16.602,0.0,0
1581631897.8,41.01600000000001,24.902,-1.465,21.97300000000001,0.0,0
1581631897.804,60.547,25.391,0.488,40.527,0.0,0
1581631897.8079998,75.195,25.879,2.93,55.176,0.0,0
1581631897.812,85.449,29.297,0.488,64.941,0.0,0
1581631897.815,87.891,31.25,0.0,66.895,0.0,0
1581631897.819,90.332,31.25,-1.465,72.266,0.0,0
1581631897.823,101.074,32.227,0.0,83.984,0.0,0
1581631897.827,101.074,34.18,1.465,90.332,0.0,0
1581631897.831,104.98,34.668,1.953,90.82,0.0,0
1581631897.833,111.816,33.203,0.0,83.984,0.0,0
1581631897.837,106.445,30.762,1.465,87.402,0.0,0
1581631897.841,105.957,28.32,0.977,90.82,0.0,0
1581631897.845,108.887,26.855,-1.465,92.285,0.0,0
1581631897.849,107.91,27.832,-2.93,93.262,0.0,0
1581631897.853,95.215,27.832,-2.441,97.656,0.0,0
1581631897.857,87.402,24.902,6.348,96.68,0.0,0
1581631897.86,94.727,24.902,10.742,87.402,0.0,0
1581631897.8639998,98.633,25.879,11.23,82.52,0.0,0
1581631897.8679998,91.797,24.902,13.184,83.008,0.0,0
1581631897.8720002,82.031,23.438,16.602,84.473,0.0,0
1581631897.8760002,81.543,22.461,17.09,70.312,0.0,0
1581631897.8779998,79.102,23.438,11.23,58.594,0.0,0
1581631897.8820002,79.102,22.461,7.324,63.965,0.0,0
1581631897.8860002,70.801,21.97300000000001,9.766,67.87100000000001,0.0,0
1581631897.89,62.988,23.926,11.23,56.64100000000001,0.0,0
1581631897.894,70.801,22.461,5.859,45.41,0.0,0
1581631897.8979998,72.266,22.949,4.395,57.617,0.0,0
1581631897.9020002,69.336,25.391,10.742,59.082,0.0,0
1581631897.905,76.172,21.97300000000001,15.625,50.78100000000001,0.0,0
1581631897.909,75.195,19.531,15.137,50.78100000000001,0.0,0
1581631897.913,62.5,21.484,13.672,48.828,0.0,0
1581631897.917,59.082,21.484,13.672,48.828,0.0,0
1581631897.921,60.059,21.97300000000001,13.184,51.758,0.0,2
1581631897.938,60.547,23.926,10.742,51.758,0.0,0
1581631897.9420002,57.617,22.949,7.812,50.78100000000001,0.0,0
1581631897.946,50.78100000000001,23.926,6.348,51.27,0.0,0
1581631897.95,45.898,22.461,5.371,48.34,0.0,0
1581631897.954,42.48,19.043,11.719,45.41,0.0,0
1581631897.958,50.293,21.484,15.137,51.758,0.0,0
1581631897.962,49.316,20.996,9.766,43.945,0.0,0
1581631897.965,40.527,19.531,8.301,33.203,0.0,0
1581631897.969,45.898,21.97300000000001,19.043,30.762,0.0,0
1581631897.9729998,43.945,21.97300000000001,22.461,22.949,0.0,0
1581631897.9770002,46.875,20.508000000000006,17.578,27.344,0.0,0
1581631897.981,52.246,23.926,18.555,31.25,0.0,0
1581631897.9829998,63.965,26.367,19.531,36.133,0.0,0
1581631897.9870002,62.012,24.414,15.137,30.762,0.0,0
1581631897.9910002,47.363,22.461,13.672,20.02,0.0,0
1581631897.995,41.504,20.508000000000006,9.277,33.203,0.0,0
1581631897.9989998,42.48,21.97300000000001,7.812,30.762,0.0,0
1581631898.0029998,43.945,21.97300000000001,18.066,14.16,0.0,0
1581631898.0070002,35.645,18.066,21.97300000000001,16.602,0.0,0
1581631898.01,27.832,16.602,17.09,25.879,0.0,0
1581631898.014,23.438,18.555,13.184,29.297,0.0,0
1581631898.018,29.785,19.531,14.16,20.508000000000006,0.0,0
1581631898.022,35.156,20.02,11.719,10.254,0.0,0
1581631898.026,30.273000000000003,21.97300000000001,9.766,13.184,0.0,0
1581631898.028,25.879,21.97300000000001,14.16,20.02,0.0,0
1581631898.032,28.809,21.484,15.137,23.438,0.0,0
1581631898.036,41.01600000000001,22.461,11.719,26.367,0.0,0
1581631898.04,54.199,25.879,9.766,29.297,0.0,0
1581631898.044,41.992,22.949,14.648,20.996,0.0,0
1581631898.048,30.762,18.066,19.043,16.602,0.0,0
1581631898.052,34.668,16.602,15.137,22.461,0.0,0
1581631898.055,30.273000000000003,15.625,14.16,21.97300000000001,0.0,0
1581631898.059,28.809,19.043,18.066,19.043,0.0,0
1581631898.063,18.555,19.531,16.602,16.113,0.0,0
1581631898.0670002,17.09,12.207,14.648,16.113,0.0,0
1581631898.071,27.832,11.719,16.113,25.879,0.0,0
1581631898.073,35.645,14.648,15.137,27.832,0.0,0
1581631898.077,37.109,14.16,12.695,19.043,0.0,0
1581631898.081,30.273000000000003,15.137,5.859,21.484,0.0,0
1581631898.085,29.297,18.066,7.324,31.738000000000003,0.0,0
1581631898.089,28.809,17.578,18.066,32.715,0.0,0
1581631898.093,25.391,17.09,23.926,23.438,0.0,0
1581631898.097,25.391,16.113,21.484,24.902,0.0,0
1581631898.1,32.227,15.137,22.461,31.25,0.0,0
1581631898.104,46.387,15.625,24.414,27.832,0.0,0
1581631898.1079998,46.387,14.648,20.02,28.809,0.0,0
1581631898.1120002,36.621,15.137,18.066,32.227,0.0,0
1581631898.1160002,38.086,13.672,20.02,19.043,0.0,0
1581631898.119,36.621,9.766,20.996,18.555,0.0,0
1581631898.123,30.273000000000003,8.789,19.043,28.32,0.0,0
1581631898.127,28.809,9.766,19.531,26.367,0.0,0
1581631898.131,24.902,6.348,20.996,23.438,0.0,0
1581631898.135,24.902,5.371,19.043,23.926,0.0,0
1581631898.139,23.926,10.254,18.066,21.484,0.0,0
1581631898.143,25.391,10.742,17.09,32.227,0.0,0
1581631898.146,35.156,10.254,16.602,29.297,0.0,0
1581631898.15,33.691,13.184,18.066,16.602,0.0,0
1581631898.154,27.344,14.16,18.066,15.625,0.0,0
1581631898.158,26.855,15.137,14.648,13.672,0.0,0
1581631898.1620002,25.879,15.625,13.184,18.555,0.0,0
1581631898.164,30.273000000000003,13.672,17.09,22.949,0.0,0
1581631898.168,26.855,14.648,18.066,20.508000000000006,0.0,0
1581631898.1720002,28.32,16.113,18.555,18.066,0.0,0
1581631898.176,31.25,18.555,13.184,26.367,0.0,0
1581631898.18,29.785,20.02,1.465,31.738000000000003,0.0,0
1581631898.184,38.574,18.066,8.789,29.785,0.0,0
1581631898.188,45.898,16.602,21.97300000000001,26.367,0.0,0
1581631898.191,41.504,16.113,20.02,24.414,0.0,0
1581631898.195,36.133,12.695,14.648,21.97300000000001,0.0,0
1581631898.199,41.992,12.207,16.113,15.625,0.0,0
1581631898.2029998,38.086,10.742,17.578,20.508000000000006,0.0,0
1581631898.207,32.715,8.301,15.137,29.785,0.0,0
1581631898.208,33.691,7.812,11.719,39.062,0.0,0
1581631898.212,33.203,10.254,10.742,36.133,0.0,0
1581631898.216,27.344,13.672,7.812,21.484,0.0,0
1581631898.22,24.902,14.648,4.883,20.02,0.0,0
1581631898.224,25.391,14.16,7.324,25.391,0.0,0
1581631898.228,32.715,13.184,9.277,23.926,0.0,0
1581631898.232,36.621,11.23,9.277,14.16,0.0,0
1581631898.235,31.738000000000003,11.719,8.789,12.207,0.0,0
1581631898.2389998,39.062,13.184,9.277,21.97300000000001,0.0,0
1581631898.2429998,40.527,12.207,11.23,20.996,0.0,0
1581631898.2470002,40.039,11.23,13.184,16.113,0.0,0
1581631898.2510002,30.762,10.254,17.09,11.23,0.0,0
1581631898.254,14.648,8.789,19.043,20.02,0.0,0
1581631898.258,17.578,10.254,18.066,23.438,0.0,0
1581631898.262,20.508000000000006,11.23,18.066,9.277,0.0,0
1581631898.266,24.902,12.695,17.09,4.883,0.0,0
1581631898.27,20.996,12.695,17.09,7.324,0.0,0
1581631898.274,20.02,14.648,20.996,15.625,0.0,0
1581631898.278,31.25,15.137,22.461,17.578,0.0,0
1581631898.281,35.156,12.207,21.97300000000001,20.508000000000006,0.0,0
1581631898.285,34.18,13.184,20.996,25.879,0.0,0
1581631898.289,27.344,14.16,22.461,33.691,0.0,0
1581631898.293,32.715,14.648,20.996,39.062,0.0,0
1581631898.2970002,39.551,17.578,19.043,33.203,0.0,0
1581631898.314,29.785,18.066,20.996,36.133,0.0,0
1581631898.3179998,23.438,19.531,11.23,41.504,0.0,0
1581631898.322,28.809,20.02,6.348,26.855,0.0,0
1581631898.326,30.273000000000003,18.555,18.066,18.066,0.0,0
1581631898.33,29.297,18.066,23.926,26.855,0.0,0
1581631898.334,25.391,15.137,22.949,27.832,0.0,0
1581631898.3379998,28.32,15.625,16.113,22.461,0.0,0
1581631898.341,35.645,18.555,7.324,25.391,0.0,0
1581631898.345,39.062,16.602,4.883,24.902,0.0,0
1581631898.349,33.203,16.113,10.742,17.09,0.0,0
1581631898.353,26.367,15.625,16.113,12.695,0.0,0
1581631898.357,27.344,17.09,17.578,16.602,0.0,0
1581631898.359,19.043,22.949,15.137,25.879,0.0,0
1581631898.363,15.625,21.97300000000001,14.16,21.484,0.0,0
1581631898.367,23.438,20.02,14.16,14.648,0.0,0
1581631898.371,30.762,20.996,9.277,20.996,0.0,0
1581631898.375,34.18,20.508000000000006,10.254,20.996,0.0,0
1581631898.379,35.156,18.066,14.648,22.949,0.0,0
1581631898.383,31.738000000000003,17.578,16.113,25.391,0.0,0
1581631898.3860002,35.156,18.555,16.113,30.273000000000003,0.0,0
1581631898.39,41.992,20.508000000000006,15.625,28.32,0.0,0
1581631898.394,35.645,20.996,14.648,23.926,0.0,0
1581631898.3979998,36.133,20.996,17.09,30.762,0.0,0
1581631898.4020002,31.25,23.926,17.09,26.855,0.0,0
1581631898.404,28.32,26.367,13.672,25.879,0.0,0
1581631898.408,40.039,23.926,12.695,22.949,0.0,0
1581631898.4120002,36.621,20.508000000000006,12.695,14.648,0.0,0
1581631898.416,29.785,19.531,16.602,19.043,0.0,0
1581631898.42,42.969,18.555,19.531,29.297,0.0,0
1581631898.424,53.223,20.996,12.207,38.086,0.0,0
1581631898.428,41.504,19.531,10.742,34.668,0.0,0
1581631898.431,29.297,19.043,17.09,26.855,0.0,0
1581631898.435,31.25,19.531,18.555,23.438,0.0,0
1581631898.439,41.01600000000001,19.531,14.16,18.555,0.0,0
1581631898.4429998,40.527,21.484,12.695,20.996,0.0,0
1581631898.447,44.922,20.02,15.625,26.367,0.0,0
1581631898.449,41.992,20.508000000000006,14.648,27.344,0.0,0
1581631898.4529998,34.18,20.508000000000006,13.184,25.391,0.0,0
1581631898.457,33.691,18.555,15.137,26.367,0.0,0
1581631898.461,35.156,20.996,16.113,36.621,0.0,0
1581631898.465,33.691,23.926,14.648,25.391,0.0,0
1581631898.469,30.762,21.97300000000001,14.16,14.648,0.0,0
1581631898.4729998,28.32,18.555,13.672,21.97300000000001,0.0,0
1581631898.476,34.668,23.438,14.648,23.438,0.0,0
1581631898.48,30.762,28.32,13.184,29.297,0.0,0
1581631898.484,30.762,25.391,13.184,26.367,0.0,0
1581631898.488,31.738000000000003,21.97300000000001,18.066,19.043,0.0,0
1581631898.492,31.738000000000003,24.902,15.137,19.531,0.0,0
1581631898.494,32.715,23.926,15.137,24.414,0.0,0
1581631898.498,19.043,21.97300000000001,17.09,22.461,0.0,0
1581631898.502,21.97300000000001,25.391,16.113,24.414,0.0,0
1581631898.506,28.809,27.344,18.066,22.949,0.0,0
1581631898.51,21.97300000000001,26.367,13.672,17.578,0.0,0
1581631898.514,23.438,24.902,10.742,20.508000000000006,0.0,0
1581631898.518,36.621,27.832,14.16,18.066,0.0,0
1581631898.521,45.898,30.273000000000003,15.625,19.043,0.0,0
1581631898.525,29.785,27.832,13.184,16.113,0.0,0
1581631898.529,17.09,23.926,11.23,16.602,0.0,0
1581631898.533,22.461,24.414,15.137,15.625,0.0,0
1581631898.5370002,23.438,25.391,19.043,22.461,0.0,0
1581631898.539,18.066,24.414,19.531,19.043,0.0,0
1581631898.543,18.555,26.855,17.578,12.695,0.0,0
1581631898.5470002,24.414,27.832,20.02,19.043,0.0,0
1581631898.551,35.156,29.785,20.02,16.113,0.0,0
1581631898.555,33.203,27.344,17.09,17.09,0.0,0
1581631898.559,20.508000000000006,24.414,18.066,21.97300000000001,0.0,0
1581631898.563,24.414,26.367,18.066,22.949,0.0,0
1581631898.566,19.043,26.855,15.137,14.648,0.0,0
1581631898.57,20.508000000000006,25.391,14.648,16.113,0.0,0
1581631898.574,23.926,27.832,10.742,18.555,0.0,0
1581631898.5779998,21.484,28.809,2.93,14.648,0.0,0
1581631898.582,31.25,26.855,8.301,9.277,0.0,0
1581631898.584,18.555,29.297,13.672,11.23,0.0,0
1581631898.5879998,9.766,31.25,12.695,20.508000000000006,0.0,0
1581631898.592,11.719,28.809,9.277,8.301,0.0,0
1581631898.596,11.719,23.438,10.742,4.883,0.0,0
1581631898.6,19.531,23.438,11.23,9.277,0.0,0
1581631898.604,21.97300000000001,35.156,7.324,6.348,0.0,0
1581631898.6079998,23.438,37.598,8.301,5.859,0.0,0
1581631898.611,25.391,32.715,10.254,7.812,0.0,0
1581631898.615,14.648,32.715,8.301,16.602,0.0,0
1581631898.619,14.16,34.668,5.859,11.719,0.0,0
1581631898.623,23.926,35.156,8.301,6.348,0.0,0
1581631898.627,21.97300000000001,34.18,7.812,9.766,0.0,0
1581631898.6279998,27.832,32.227,8.301,20.508000000000006,0.0,0
1581631898.6320002,24.902,33.203,10.254,21.484,0.0,0
1581631898.6360002,21.484,35.645,9.766,12.695,0.0,0
1581631898.64,24.902,33.691,12.207,8.301,0.0,0
1581631898.644,24.902,31.25,12.207,6.348,0.0,0
1581631898.6479998,32.227,32.227,11.719,12.207,0.0,0
1581631898.6520002,42.48,29.785,15.625,21.97300000000001,0.0,0
1581631898.655,54.199,27.344,17.09,30.762,0.0,0
1581631898.659,45.898,34.18,13.184,22.949,0.0,0
1581631898.663,24.902,35.645,9.277,8.301,0.0,0
1581631898.667,17.578,31.738000000000003,9.277,5.371,0.0,0
1581631898.671,15.625,31.738000000000003,9.277,5.371,0.0,0
1581631898.689,15.137,31.738000000000003,10.742,3.906,0.0,0
1581631898.6929998,9.766,31.738000000000003,9.277,-3.418,0.0,0
1581631898.697,13.184,33.203,6.348,-7.324,0.0,0
1581631898.701,19.531,32.227,6.836,-4.395,0.0,0
1581631898.705,16.602,29.785,8.301,-0.488,0.0,0
1581631898.709,18.555,30.273000000000003,11.23,-0.488,0.0,0
1581631898.7129998,19.531,30.273000000000003,9.277,2.441,0.0,0
1581631898.716,19.043,26.855,6.348,7.812,0.0,0
1581631898.72,24.902,31.738000000000003,9.277,9.277,0.0,0
1581631898.724,26.367,35.156,14.648,12.207,0.0,0
1581631898.728,38.086,31.738000000000003,15.137,10.742,0.0,0
1581631898.732,42.969,30.273000000000003,12.695,16.602,0.0,0
1581631898.734,32.715,28.32,9.766,18.555,0.0,0
1581631898.738,35.156,29.297,2.441,18.066,0.0,0
1581631898.742,39.062,30.273000000000003,4.883,19.531,0.0,0
1581631898.746,27.344,28.32,11.719,24.414,0.0,0
1581631898.75,25.391,22.949,20.02,25.391,0.0,0
1581631898.754,25.391,23.926,22.949,22.949,0.0,0
1581631898.758,27.832,27.832,14.16,17.09,0.0,0
1581631898.7610002,23.926,25.879,11.23,7.812,0.0,0
1581631898.765,20.02,25.391,11.719,9.277,0.0,0
1581631898.769,33.203,29.297,12.207,11.23,0.0,0
1581631898.7729998,29.785,29.297,16.113,14.648,0.0,0
1581631898.7770002,28.809,28.32,18.066,11.719,0.0,0
1581631898.778,25.879,27.832,17.09,12.207,0.0,0
1581631898.782,22.461,26.855,15.625,17.09,0.0,0
1581631898.786,28.32,25.391,15.137,16.602,0.0,0
1581631898.79,41.504,25.391,13.672,22.949,0.0,0
1581631898.794,37.598,23.438,11.23,23.438,0.0,0
1581631898.798,26.367,23.926,16.602,26.367,0.0,0
1581631898.802,31.25,21.97300000000001,21.97300000000001,30.273000000000003,0.0,0
1581631898.805,24.902,19.043,18.066,25.391,0.0,0
1581631898.809,22.949,21.484,14.648,21.484,0.0,0
1581631898.813,34.668,21.484,13.184,16.113,0.0,0
1581631898.8170002,39.551,25.879,13.672,20.508000000000006,0.0,0
1581631898.821,34.668,28.32,12.695,21.97300000000001,0.0,0
1581631898.8379998,34.668,23.926,8.301,21.97300000000001,0.0,0
1581631898.842,29.297,22.949,13.672,28.32,0.0,0
1581631898.846,28.32,24.902,18.066,33.691,0.0,0
1581631898.85,30.762,31.738000000000003,16.113,33.691,0.0,0
1581631898.854,34.18,32.227,14.648,28.32,0.0,0
1581631898.8579998,31.25,27.344,14.16,22.461,0.0,0
1581631898.8620002,24.414,26.855,11.719,22.949,0.0,0
1581631898.865,25.391,25.391,9.277,24.902,0.0,0
1581631898.869,32.227,27.832,9.277,15.137,0.0,0
1581631898.873,25.391,24.414,10.254,15.625,0.0,0
1581631898.877,29.785,25.879,9.277,17.09,0.0,0
1581631898.881,38.574,25.879,12.207,8.301,0.0,0
1581631898.8679998,30.762,21.484,15.137,12.695,0.0,0
1581631898.8720002,30.273000000000003,25.391,15.137,18.066,0.0,0
1581631898.8760002,37.598,27.832,17.09,17.578,0.0,0
1581631898.88,37.598,30.273000000000003,15.625,20.508000000000006,0.0,0
1581631898.8839998,32.715,30.273000000000003,8.301,20.996,0.0,0
1581631898.8879998,38.574,26.367,4.883,20.996,0.0,0
1581631898.8920002,34.668,28.809,14.648,21.97300000000001,0.0,0
1581631898.895,35.645,30.762,20.508000000000006,21.484,0.0,0
1581631898.899,44.922,27.832,20.508000000000006,22.949,0.0,0
1581631898.903,41.992,28.32,20.02,27.344,0.0,0
1581631898.907,39.062,28.32,19.043,35.645,0.0,0
1581631898.911,32.227,27.832,18.066,40.039,0.0,0
1581631898.913,36.621,26.855,19.531,27.344,0.0,0
1581631898.917,42.48,24.902,17.578,20.996,0.0,0
1581631898.921,37.109,28.32,8.789,27.832,0.0,0
1581631898.925,30.762,30.762,10.742,34.668,0.0,0
1581631898.929,21.97300000000001,26.367,17.578,24.414,0.0,0
1581631898.9329998,24.414,24.902,16.602,8.789,0.0,0
1581631898.937,22.949,26.855,13.672,9.766,0.0,0
1581631898.94,12.207,28.32,14.16,8.789,0.0,0
1581631898.944,17.578,22.949,16.602,6.348,0.0,0
1581631898.948,25.391,19.043,15.625,10.254,0.0,0
1581631898.952,31.25,19.043,16.113,6.348,0.0,0
1581631898.956,38.086,19.531,18.555,13.672,0.0,0
1581631898.958,34.18,20.02,18.066,17.09,0.0,0
1581631898.962,32.715,17.09,16.113,17.09,0.0,0
1581631898.966,38.574,21.484,12.695,24.902,0.0,0
1581631898.97,28.809,28.809,8.301,15.625,0.0,0
1581631898.974,19.531,25.879,9.277,14.16,0.0,0
1581631898.978,19.531,24.902,11.23,19.531,0.0,0
1581631898.982,26.367,30.273000000000003,11.23,9.277,0.0,0
1581631898.985,25.391,29.297,11.23,5.859,0.0,0
1581631898.9889998,13.672,25.879,8.789,11.23,0.0,0
1581631898.9929998,15.625,24.414,10.742,25.391,0.0,0
1581631898.9970002,26.367,25.391,10.254,23.926,0.0,0
1581631899.0010002,35.645,25.391,8.301,18.555,0.0,0
1581631899.0029998,34.18,25.879,11.23,32.227,0.0,0
1581631899.0070002,34.668,27.344,11.23,27.344,0.0,1
1581631899.0110002,36.621,27.344,10.254,13.184,0.0,0
1581631899.015,34.668,27.344,7.324,5.371,0.0,0
1581631899.019,20.508000000000006,27.344,5.371,13.184,0.0,0
1581631899.0229998,12.695,25.391,4.883,20.02,0.0,0
1581631899.0270002,31.25,23.926,2.441,13.184,0.0,0
1581631899.03,27.832,23.926,1.465,6.348,0.0,0
1581631899.034,12.695,23.438,6.348,6.836,0.0,0
1581631899.038,24.414,22.949,6.348,16.602,0.0,0
1581631899.042,40.039,23.438,5.371,23.926,0.0,0
1581631899.046,44.434,21.484,5.859,22.949,0.0,0
1581631899.063,48.828,19.531,7.324,21.97300000000001,0.0,0
1581631899.0670002,45.41,23.438,11.23,25.879,0.0,0
1581631899.071,43.945,27.832,12.695,29.297,0.0,0
1581631899.075,40.527,26.367,13.672,26.855,0.0,0
1581631899.079,26.855,23.438,16.602,23.438,0.0,0
1581631899.083,26.855,24.414,17.578,24.902,0.0,0
1581631899.087,28.809,26.855,12.207,33.691,0.0,0
1581631899.09,36.133,21.97300000000001,14.648,33.203,0.0,0
1581631899.094,41.504,20.996,16.113,20.996,0.0,0
1581631899.0979998,35.645,24.414,11.23,14.648,0.0,0
1581631899.1020002,22.949,25.391,11.719,14.648,0.0,0
1581631899.106,31.25,17.578,9.277,19.531,0.0,0
1581631899.1079998,33.203,11.23,6.836,16.602,0.0,0
1581631899.1120002,24.414,12.207,13.184,12.695,0.0,0
1581631899.1160002,26.855,16.602,15.137,18.555,0.0,0
1581631899.12,29.785,19.531,16.602,20.02,0.0,0
1581631899.1239998,26.367,17.09,14.648,17.578,0.0,0
1581631899.1279998,25.879,16.113,12.695,21.484,0.0,0
1581631899.1320002,29.785,16.113,18.066,18.555,0.0,0
1581631899.135,22.949,15.137,17.09,17.578,0.0,0
1581631899.139,32.715,17.578,15.137,19.531,0.0,0
1581631899.143,42.969,16.113,10.742,18.066,0.0,0
1581631899.147,37.598,14.16,3.418,23.926,0.0,0
1581631899.151,43.457,13.672,7.324,31.25,0.0,0
1581631899.153,35.645,9.277,13.184,22.949,0.0,0
1581631899.157,26.855,11.719,12.695,14.16,0.0,0
1581631899.161,38.086,13.184,13.184,15.137,0.0,0
1581631899.165,29.785,12.207,13.672,12.695,0.0,0
1581631899.169,21.484,12.695,15.137,10.254,0.0,0
1581631899.173,37.109,10.742,18.555,16.602,0.0,0
1581631899.177,32.715,9.766,17.09,20.996,0.0,0
1581631899.18,25.391,11.23,18.066,24.902,0.0,0
1581631899.184,37.109,14.648,15.137,22.461,0.0,0
1581631899.188,43.945,16.113,12.207,20.508000000000006,0.0,0
1581631899.1920002,44.434,14.648,16.113,22.461,0.0,0
1581631899.196,25.879,12.695,14.16,18.066,0.0,0
1581631899.198,22.461,10.254,13.184,17.578,0.0,0
1581631899.202,25.879,10.254,18.066,9.766,0.0,0
1581631899.206,20.508000000000006,12.207,18.066,4.395,0.0,0
1581631899.21,30.762,15.137,19.043,14.16,0.0,0
1581631899.214,41.504,19.531,17.578,19.531,0.0,0
1581631899.218,38.574,21.484,15.625,25.391,0.0,0
1581631899.222,31.25,17.09,16.602,20.508000000000006,0.0,0
1581631899.225,32.715,16.602,14.648,10.254,0.0,0
1581631899.229,35.156,18.066,14.16,18.066,0.0,0
1581631899.2329998,34.668,14.648,11.719,18.555,0.0,0
1581631899.2370002,38.086,14.16,7.324,18.555,0.0,0
1581631899.2410002,35.645,19.531,12.207,28.809,0.0,0
1581631899.244,33.203,21.484,11.719,24.414,0.0,0
1581631899.248,31.738000000000003,21.484,8.301,16.113,0.0,0
1581631899.252,32.715,21.97300000000001,15.625,19.043,0.0,0
1581631899.256,28.32,22.461,16.602,25.879,0.0,0
1581631899.26,35.156,23.926,17.578,27.832,0.0,0
1581631899.264,35.156,26.367,17.09,23.926,0.0,0
1581631899.268,31.738000000000003,23.438,13.672,18.066,0.0,0
1581631899.271,35.645,14.648,17.09,16.602,0.0,0
1581631899.275,34.18,23.926,16.113,19.531,0.0,0
1581631899.279,25.391,28.809,12.695,14.16,0.0,0
1581631899.283,25.391,26.367,13.184,10.254,0.0,0
1581631899.2870002,38.086,26.855,10.254,9.766,0.0,0
1581631899.289,37.109,25.879,6.348,13.184,0.0,0
1581631899.293,28.809,25.391,6.836,25.391,0.0,0
1581631899.2970002,25.879,28.32,7.812,26.367,0.0,0
1581631899.301,34.668,28.32,5.371,15.137,0.0,0
1581631899.305,31.25,26.367,4.883,12.207,0.0,0
1581631899.309,28.809,26.367,6.348,21.484,0.0,0
1581631899.313,30.273000000000003,29.297,4.883,21.484,0.0,0
1581631899.316,32.715,30.762,9.277,14.16,0.0,0
1581631899.32,44.434,30.762,8.789,14.16,0.0,0
1581631899.324,51.27,30.762,8.301,24.414,0.0,0
1581631899.3279998,44.434,27.832,14.16,33.691,0.0,0
1581631899.332,41.01600000000001,30.273000000000003,16.113,30.762,0.0,0
1581631899.334,35.645,28.32,15.625,24.414,0.0,0
1581631899.3379998,30.273000000000003,27.344,15.625,20.996,0.0,0
1581631899.342,40.039,31.25,13.672,23.438,0.0,0
1581631899.346,46.875,30.273000000000003,12.695,23.438,0.0,0
1581631899.35,35.645,28.32,15.625,16.113,0.0,0
1581631899.354,31.25,28.32,16.113,19.531,0.0,0
1581631899.3579998,24.414,27.344,16.113,24.902,0.0,0
1581631899.361,14.16,24.414,12.207,12.695,0.0,0
1581631899.365,28.32,22.949,12.695,7.812,0.0,0
1581631899.369,36.621,25.879,15.137,15.137,0.0,0
1581631899.373,28.32,29.297,12.207,23.438,0.0,0
1581631899.377,30.762,25.391,17.09,28.809,0.0,0
1581631899.3779998,40.527,22.949,19.043,24.902,0.0,0
1581631899.3820002,43.457,23.438,16.602,20.508000000000006,0.0,0
1581631899.3860002,31.738000000000003,19.043,17.578,18.555,0.0,0
1581631899.39,23.926,20.996,16.602,25.391,0.0,0
1581631899.394,29.785,24.414,7.812,29.297,0.0,0
1581631899.3979998,42.48,22.461,0.0,25.391,0.0,0
1581631899.4020002,49.316,21.97300000000001,8.301,23.926,0.0,0
1581631899.405,30.762,24.902,19.531,22.461,0.0,0
1581631899.409,21.97300000000001,24.414,19.531,25.391,0.0,0
1581631899.413,32.227,21.484,14.648,18.066,0.0,0
1581631899.417,27.832,20.508000000000006,16.113,11.23,0.0,0
1581631899.421,19.531,20.996,21.484,14.648,0.0,0
1581631899.439,21.484,21.97300000000001,21.484,20.02,0.0,0
1581631899.4429998,23.438,21.97300000000001,19.043,15.625,0.0,0
1581631899.447,20.996,23.438,20.508000000000006,13.184,0.0,0
1581631899.451,24.414,20.508000000000006,20.02,16.602,0.0,0
1581631899.455,31.738000000000003,19.043,17.578,25.879,0.0,0
1581631899.459,40.527,24.902,16.602,28.32,0.0,0
1581631899.4629998,37.109,28.809,14.16,14.16,0.0,0
1581631899.466,38.086,28.809,11.719,15.625,0.0,0
1581631899.47,45.41,26.367,10.254,21.97300000000001,0.0,0
1581631899.474,50.78100000000001,24.902,10.254,18.066,0.0,0
1581631899.478,49.316,26.855,11.23,15.137,0.0,0
1581631899.482,30.762,26.367,13.184,13.672,0.0,0
1581631899.484,27.344,26.367,15.137,23.926,0.0,0
1581631899.488,32.715,23.438,15.137,30.273000000000003,0.0,0
1581631899.492,31.738000000000003,18.555,15.625,32.227,0.0,0
1581631899.496,33.203,19.043,15.137,24.902,0.0,0
1581631899.5,32.715,22.461,14.648,12.207,0.0,0
1581631899.504,28.32,25.879,16.113,16.113,0.0,0
1581631899.508,26.367,24.902,15.137,15.137,0.0,0
1581631899.5110002,24.414,20.508000000000006,13.184,12.695,0.0,0
1581631899.515,32.715,22.461,14.16,14.648,0.0,0
1581631899.519,27.832,24.414,12.207,8.789,0.0,0
1581631899.5229998,13.672,21.484,8.789,5.371,0.0,0
1581631899.5270002,13.672,19.043,8.301,1.953,0.0,0
1581631899.529,12.695,20.508000000000006,11.719,5.859,0.0,0
1581631899.533,18.066,21.484,18.066,16.113,0.0,0
1581631899.5370002,25.391,21.484,20.02,20.02,0.0,0
1581631899.541,23.438,20.996,17.578,14.16,0.0,0
1581631899.545,24.902,22.949,17.578,13.672,0.0,0
1581631899.549,19.043,26.367,17.09,11.23,0.0,0
1581631899.553,15.625,24.414,14.16,7.812,0.0,0
1581631899.556,13.672,20.996,10.742,-1.465,0.0,0
1581631899.56,1.465,25.391,10.254,-13.184,0.0,0
1581631899.564,-18.066,26.367,15.625,-10.742,0.0,0
1581631899.5679998,-21.484,21.484,20.02,-13.184,0.0,0
1581631899.572,-12.207,24.414,22.949,-18.066,0.0,0
1581631899.574,-34.18,24.902,19.531,-33.691,0.0,0
1581631899.5779998,-48.34,20.996,24.414,-47.852,0.0,0
1581631899.582,-59.082,20.996,26.855,-51.27,0.0,0
1581631899.586,-71.289,21.97300000000001,26.367,-57.129,0.0,0
1581631899.59,-70.312,17.578,28.809,-60.547,0.0,0
1581631899.594,-72.266,15.625,29.785,-66.895,0.0,0
1581631899.5979998,-90.82,19.531,26.367,-86.426,0.0,0
1581631899.601,-100.586,14.648,24.902,-105.469,0.0,0
1581631899.605,-103.027,14.16,26.855,-111.328,0.0,0
1581631899.609,-114.746,13.672,26.367,-118.652,0.0,0
1581631899.613,-111.816,7.324,27.832,-105.957,0.0,0
1581631899.617,-97.656,12.207,23.438,-95.703,0.0,0
1581631899.619,-77.148,14.16,17.578,-96.191,0.0,0
1581631899.623,-68.848,11.719,14.648,-88.867,0.0,0
1581631899.627,-64.453,14.16,15.137,-71.777,0.0,0
1581631899.631,-39.551,17.09,16.602,-45.898,0.0,0
1581631899.635,-25.391,23.438,12.207,-31.25,0.0,0
1581631899.639,-9.766,28.809,6.836,-17.09,0.0,0
1581631899.643,8.789,28.809,4.883,-4.883,0.0,0
1581631899.646,28.809,29.785,6.836,5.371,0.0,0
1581631899.65,40.039,31.738000000000003,6.836,24.902,0.0,0
1581631899.654,41.992,30.762,5.859,39.062,0.0,0
1581631899.658,52.734,28.32,6.348,50.293,0.0,0
1581631899.6620002,71.777,28.809,3.906,69.824,0.0,0
1581631899.663,83.008,28.32,4.395,78.125,0.0,0
1581631899.667,84.961,29.785,-0.488,77.148,0.0,0
1581631899.671,89.355,29.785,-2.93,83.008,0.0,0
1581631899.675,92.285,29.297,1.465,88.37899999999998,0.0,0
1581631899.679,93.262,31.738000000000003,5.859,84.473,0.0,0
1581631899.6829998,95.215,33.203,9.766,87.402,0.0,0
1581631899.687,101.074,30.762,9.766,87.891,0.0,0
1581631899.69,103.516,30.273000000000003,9.766,86.914,0.0,0
1581631899.694,92.285,31.738000000000003,4.395,82.031,0.0,0
1581631899.698,91.309,30.762,3.418,77.637,0.0,0
1581631899.702,97.656,32.227,6.348,81.543,0.0,0
1581631899.706,92.773,33.691,8.789,76.66,0.0,0
1581631899.709,87.891,31.25,10.742,62.012,0.0,0
1581631899.7129998,88.37899999999998,29.297,9.766,63.477,0.0,0
1581631899.717,94.727,29.785,12.207,73.242,0.0,0
1581631899.721,92.285,28.809,9.277,64.941,0.0,0
1581631899.725,76.66,28.32,7.812,62.5,0.0,0
1581631899.729,70.801,27.832,8.789,66.406,0.0,0
1581631899.7329998,78.125,26.367,9.766,59.57,0.0,0
1581631899.736,82.52,25.879,10.254,56.64100000000001,0.0,0
1581631899.74,71.289,27.344,9.277,62.988,0.0,0
1581631899.744,63.477,23.926,10.742,57.129,0.0,0
1581631899.748,60.547,20.02,11.719,41.01600000000001,0.0,0
1581631899.752,60.059,22.461,11.719,41.992,0.0,0
1581631899.754,55.664,20.02,11.719,46.387,0.0,0
1581631899.758,53.223,19.043,10.742,39.062,0.0,0
1581631899.762,53.71100000000001,19.043,10.742,33.203,0.0,0
1581631899.766,49.805,12.207,11.23,32.715,0.0,0
1581631899.77,42.969,13.672,10.254,37.109,0.0,0
1581631899.774,45.898,20.508000000000006,9.766,38.086,0.0,0
1581631899.778,46.387,15.137,9.277,32.715,0.0,0
1581631899.781,47.363,14.16,5.371,26.367,0.0,0
1581631899.785,50.293,24.414,2.441,30.762,0.0,0
1581631899.789,53.71100000000001,25.391,2.441,35.156,0.0,0
1581631899.793,52.734,20.508000000000006,-1.465,32.715,0.0,0
1581631899.7970002,44.922,24.902,3.906,33.203,0.0,0
1581631899.813,28.32,26.855,15.625,29.785,0.0,0
1581631899.8170002,25.391,21.97300000000001,15.625,27.344,0.0,0
1581631899.821,30.273000000000003,24.414,16.113,28.32,0.0,0
1581631899.825,33.691,26.367,15.137,24.902,0.0,0
1581631899.829,31.738000000000003,25.391,13.672,20.02,0.0,0
1581631899.833,26.367,25.391,14.16,24.902,0.0,0
1581631899.837,24.414,26.367,14.16,19.043,0.0,0
1581631899.84,26.367,22.949,11.23,11.23,0.0,0
1581631899.844,28.809,23.438,11.23,14.648,0.0,0
1581631899.8479998,28.809,23.926,12.207,20.996,0.0,0
1581631899.8520002,34.18,22.461,13.184,31.25,0.0,0
1581631899.856,33.203,22.949,11.719,20.996,0.0,0
1581631899.859,36.133,22.461,14.16,14.648,0.0,0
1581631899.863,39.551,21.484,16.113,23.438,0.0,0
1581631899.867,37.109,20.02,12.695,25.391,0.0,0
1581631899.871,32.715,18.555,11.719,18.066,0.0,0
1581631899.875,38.574,16.602,11.719,10.254,0.0,0
1581631899.879,40.527,18.555,13.672,11.719,0.0,0
1581631899.883,33.691,20.508000000000006,14.16,14.648,0.0,0
1581631899.8860002,30.273000000000003,20.996,13.672,16.113,0.0,0
1581631899.89,28.32,21.97300000000001,13.184,10.742,0.0,0
1581631899.894,29.785,24.902,12.207,4.883,0.0,0
1581631899.8979998,26.855,21.484,14.16,13.184,0.0,0
1581631899.9020002,22.949,18.555,15.625,23.438,0.0,0
1581631899.903,33.691,19.043,15.137,22.461,0.0,0
1581631899.907,35.156,19.043,17.09,26.367,0.0,0
1581631899.911,27.344,17.09,17.578,25.879,0.0,0
1581631899.915,30.273000000000003,18.555,14.648,25.879,0.0,0
1581631899.919,28.809,19.043,13.184,28.32,0.0,0
1581631899.923,29.297,18.555,10.742,31.25,0.0,0
1581631899.927,37.109,20.996,8.789,29.297,0.0,0
1581631899.93,33.691,21.484,8.789,14.16,0.0,0
1581631899.934,31.25,23.438,9.277,14.16,0.0,0
1581631899.938,32.715,21.97300000000001,10.254,17.578,0.0,0
1581631899.9420002,34.668,19.043,11.23,11.719,0.0,0
1581631899.946,30.762,20.508000000000006,11.719,18.555,0.0,0
1581631899.948,27.344,20.02,14.16,17.578,0.0,0
1581631899.952,39.551,20.508000000000006,15.625,10.742,0.0,0
1581631899.956,33.691,24.902,16.113,16.602,0.0,0
1581631899.96,13.184,26.367,17.09,17.09,0.0,0
1581631899.964,11.719,22.949,16.602,12.207,0.0,0
1581631899.968,22.949,22.949,15.137,14.648,0.0,0
1581631899.972,27.832,24.414,11.23,14.648,0.0,0
1581631899.975,31.25,24.414,11.719,18.066,0.0,0
1581631899.979,23.926,24.414,17.578,20.508000000000006,0.0,0
1581631899.9829998,25.879,25.879,17.578,16.602,0.0,0
1581631899.9870002,44.922,29.297,16.113,16.602,0.0,0
1581631899.9910002,29.785,25.391,16.602,26.367,0.0,0
1581631899.9929998,16.602,25.879,12.207,31.25,0.0,0
1581631899.9970002,27.832,28.32,11.719,24.902,0.0,0
1581631900.0010002,31.25,23.438,11.23,17.578,0.0,0
1581631900.005,26.855,20.996,8.789,20.508000000000006,0.0,0
1581631900.0089998,25.391,24.414,10.254,12.207,0.0,0
1581631900.0129998,32.227,24.902,11.719,10.742,0.0,0
1581631900.0170002,30.273000000000003,23.438,11.719,20.02,0.0,0
1581631900.02,28.809,23.438,13.184,15.625,0.0,0
1581631900.024,28.809,21.97300000000001,13.672,10.254,0.0,0
1581631900.028,20.02,21.484,10.742,5.859,0.0,0
1581631900.032,24.414,22.461,10.254,8.789,0.0,0
1581631900.036,26.367,20.508000000000006,10.742,8.789,0.0,0
1581631900.038,25.879,20.02,11.719,12.207,0.0,0
1581631900.042,25.879,21.97300000000001,12.207,18.066,0.0,0
1581631900.046,30.273000000000003,20.996,12.695,16.113,0.0,0
1581631900.05,28.32,14.648,14.648,15.137,0.0,0
1581631900.054,22.461,15.137,15.625,14.648,0.0,0
1581631900.0579998,23.926,15.137,18.555,19.043,0.0,0
1581631900.062,24.902,15.625,18.555,24.902,0.0,0
1581631900.065,27.344,20.996,15.137,16.113,0.0,0
1581631900.069,25.391,20.996,13.672,10.742,0.0,0
1581631900.073,29.785,18.555,17.578,24.414,0.0,0
1581631900.077,42.48,19.531,18.555,31.25,0.0,0
1581631900.081,40.527,23.438,16.113,22.461,0.0,0
1581631900.083,23.438,23.438,18.066,20.996,0.0,0
1581631900.087,20.02,19.043,16.113,26.367,0.0,0
1581631900.091,22.461,18.555,17.09,28.32,0.0,0
1581631900.095,27.832,20.996,19.531,29.297,0.0,0
1581631900.099,28.809,25.879,16.602,14.648,0.0,0
1581631900.103,19.043,25.879,14.648,5.371,0.0,0
1581631900.107,17.578,23.926,16.602,12.207,0.0,0
1581631900.11,21.97300000000001,21.97300000000001,16.602,11.719,0.0,0
1581631900.1139998,25.879,20.02,13.672,14.16,0.0,0
1581631900.1179998,28.32,23.438,14.648,12.207,0.0,1
1581631900.1220002,26.855,22.949,18.066,14.16,0.0,0
1581631900.1260002,34.668,23.926,14.648,23.438,0.0,0
1581631900.1279998,41.504,25.391,12.695,16.602,0.0,0
1581631900.1320002,40.527,22.949,12.695,12.695,0.0,0
1581631900.1360002,40.527,23.926,13.184,18.555,0.0,0
1581631900.14,42.48,26.855,8.789,18.066,0.0,0
1581631900.144,33.691,22.949,5.371,23.438,0.0,0
1581631900.1479998,20.508000000000006,20.508000000000006,15.625,31.738000000000003,0.0,0
1581631900.1520002,18.555,25.391,15.625,24.902,0.0,0
1581631900.155,18.555,25.391,10.254,16.113,0.0,0
1581631900.159,32.715,22.949,14.16,22.949,0.0,0
1581631900.163,40.039,20.02,16.602,30.762,0.0,0
1581631900.167,31.25,22.461,12.695,34.18,0.0,0
1581631900.171,33.203,22.949,9.277,32.715,0.0,0
1581631900.188,36.621,20.508000000000006,9.277,30.273000000000003,0.0,0
1581631900.1920002,31.738000000000003,21.97300000000001,8.789,28.809,0.0,0
1581631900.196,36.621,20.02,9.277,30.273000000000003,0.0,0
1581631900.2,26.855,18.555,9.277,20.996,0.0,0
1581631900.204,20.996,20.02,11.719,26.367,0.0,0
1581631900.208,32.227,22.461,15.137,22.461,0.0,0
1581631900.212,36.621,23.438,12.207,6.836,0.0,0
1581631900.215,30.273000000000003,20.508000000000006,9.277,11.719,0.0,0
1581631900.219,26.367,15.625,10.254,13.184,0.0,0
1581631900.2229998,33.203,18.555,9.277,10.254,0.0,0
1581631900.2270002,40.039,16.113,10.254,7.324,0.0,0
1581631900.231,35.156,9.766,11.719,16.113,0.0,0
1581631900.2329998,23.926,14.648,10.742,23.438,0.0,0
1581631900.2370002,18.066,15.625,9.766,17.578,0.0,0
1581631900.2410002,20.996,15.625,12.695,18.066,0.0,0
1581631900.245,26.855,20.996,10.742,12.695,0.0,0
1581631900.2489998,19.531,22.461,10.742,14.16,0.0,0
1581631900.2529998,15.137,18.555,12.207,26.367,0.0,0
1581631900.2570002,27.832,13.672,13.184,23.438,0.0,0
1581631900.26,31.25,16.602,20.02,22.949,0.0,0
1581631900.264,28.32,18.066,20.02,25.391,0.0,0
1581631900.268,28.32,14.16,19.043,19.043,0.0,0
1581631900.272,25.879,14.16,16.602,15.137,0.0,0
1581631900.276,31.738000000000003,16.113,13.184,23.438,0.0,0
1581631900.278,37.598,18.066,10.742,26.367,0.0,0
1581631900.282,41.504,20.02,11.23,32.227,0.0,0
1581631900.286,38.086,17.578,15.625,39.551,0.0,0
1581631900.29,35.156,16.113,13.672,27.832,0.0,0
1581631900.294,35.645,21.97300000000001,6.348,22.461,0.0,0
1581631900.298,29.297,21.97300000000001,10.254,28.32,0.0,0
1581631900.302,26.855,19.043,18.555,25.879,0.0,0
1581631900.305,31.25,22.461,18.066,28.32,0.0,0
1581631900.309,37.109,24.902,15.137,39.062,0.0,0
1581631900.313,31.738000000000003,20.508000000000006,13.672,29.297,0.0,0
1581631900.3170002,26.855,17.09,13.184,18.066,0.0,0
1581631900.321,34.668,19.043,13.672,21.97300000000001,0.0,0
1581631900.323,42.969,24.414,13.184,24.902,0.0,0
1581631900.327,41.01600000000001,24.414,17.09,37.109,0.0,0
1581631900.331,48.34,21.97300000000001,19.531,43.457,0.0,0
1581631900.335,59.57,24.902,18.555,43.457,0.0,0
1581631900.339,52.734,21.484,17.578,40.039,0.0,0
1581631900.343,40.527,15.625,16.602,38.574,0.0,0
1581631900.347,30.762,16.602,20.02,36.133,0.0,0
1581631900.35,32.227,22.461,20.02,26.855,0.0,0
1581631900.354,42.48,24.902,16.602,23.438,0.0,0
1581631900.3579998,38.086,20.996,19.531,20.02,0.0,0
1581631900.3620002,24.902,19.531,20.996,17.09,0.0,0
1581631900.3660002,24.414,19.043,18.066,22.461,0.0,0
1581631900.369,31.25,17.578,18.555,23.926,0.0,0
1581631900.373,31.25,19.043,14.16,20.508000000000006,0.0,0
1581631900.377,33.203,15.137,11.719,29.785,0.0,0
1581631900.381,37.598,14.648,15.625,21.97300000000001,0.0,0
1581631900.385,34.668,23.438,12.207,13.672,0.0,0
1581631900.389,30.273000000000003,23.926,10.254,10.254,0.0,0
1581631900.393,33.691,23.438,11.23,8.301,0.0,0
1581631900.396,25.879,21.97300000000001,13.672,16.602,0.0,0
1581631900.4,27.344,21.484,12.695,16.113,0.0,0
1581631900.404,37.598,24.414,8.789,15.137,0.0,0
1581631900.408,35.156,23.438,10.742,23.926,0.0,0
1581631900.4120002,37.109,20.996,10.254,25.391,0.0,0
1581631900.413,38.086,22.461,9.277,21.97300000000001,0.0,0
1581631900.417,40.039,20.996,11.23,24.414,0.0,0
1581631900.421,32.227,21.97300000000001,10.742,27.344,0.0,0
1581631900.425,22.461,24.902,10.742,23.926,0.0,0
1581631900.429,23.438,22.949,10.254,11.719,0.0,0
1581631900.4329998,23.438,22.949,9.277,7.324,0.0,0
1581631900.437,21.97300000000001,22.949,10.254,10.254,0.0,0
1581631900.44,22.949,23.926,13.672,16.113,0.0,0
1581631900.444,29.297,21.484,14.16,20.02,0.0,0
1581631900.448,27.832,18.555,13.672,26.367,0.0,0
1581631900.452,22.461,19.043,14.16,18.555,0.0,0
1581631900.456,24.902,20.996,17.09,12.207,0.0,0
1581631900.459,25.391,22.461,17.578,24.902,0.0,0
1581631900.4629998,25.879,20.02,16.602,16.113,0.0,0
1581631900.467,20.02,20.02,14.648,1.953,0.0,0
1581631900.471,12.207,20.996,11.23,8.789,0.0,0
1581631900.475,19.043,20.508000000000006,10.742,21.97300000000001,0.0,0
1581631900.479,27.344,19.531,13.184,20.508000000000006,0.0,0
1581631900.4829998,38.574,24.414,17.578,21.97300000000001,0.0,0
1581631900.486,40.527,25.879,18.066,26.855,0.0,0
1581631900.49,34.18,20.996,14.648,24.414,0.0,0
1581631900.494,46.387,25.879,14.648,26.367,0.0,0
1581631900.498,49.805,31.738000000000003,15.625,25.391,0.0,0
1581631900.502,33.203,25.879,16.113,17.578,0.0,0
1581631900.504,25.391,20.996,15.137,22.461,0.0,0
1581631900.508,20.508000000000006,23.438,8.301,37.109,0.0,0
1581631900.512,33.691,22.949,10.742,30.762,0.0,0
1581631900.516,47.363,23.438,20.02,19.043,0.0,0
1581631900.52,36.621,25.391,21.484,20.996,0.0,0
1581631900.524,31.738000000000003,23.438,20.508000000000006,21.484,0.0,0
1581631900.528,39.062,25.391,17.578,21.97300000000001,0.0,0
1581631900.531,41.992,23.438,16.113,25.391,0.0,0
1581631900.535,32.227,21.97300000000001,18.066,27.832,0.0,0
1581631900.539,32.715,25.391,18.066,32.715,0.0,0
1581631900.543,32.227,26.367,13.672,25.391,0.0,0
1581631900.5470002,36.621,25.879,12.695,12.207,0.0,0
1581631900.564,35.156,24.902,13.672,11.719,0.0,0
1581631900.5679998,30.273000000000003,24.414,14.16,14.16,0.0,0
1581631900.572,40.039,27.832,12.207,20.996,0.0,0
1581631900.576,37.598,25.391,11.23,15.137,0.0,0
1581631900.58,30.762,22.461,12.695,7.812,0.0,0
1581631900.584,35.156,23.926,13.672,14.648,0.0,0
1581631900.5879998,35.645,25.391,11.23,16.602,0.0,0
1581631900.591,33.691,23.926,10.742,21.97300000000001,0.0,0
1581631900.595,34.668,20.02,12.207,26.367,0.0,0
1581631900.599,35.645,21.97300000000001,11.23,25.879,0.0,0
1581631900.603,36.621,24.414,11.23,31.738000000000003,0.0,0
1581631900.607,31.738000000000003,22.949,12.695,32.227,0.0,0
1581631900.609,33.203,23.926,13.184,24.902,0.0,0
1581631900.613,35.156,27.832,12.207,26.367,0.0,0
1581631900.617,27.832,27.832,10.254,29.785,0.0,0
1581631900.621,27.344,22.461,10.742,26.367,0.0,0
1581631900.625,26.367,20.996,13.184,22.461,0.0,0
1581631900.629,19.531,22.461,13.672,19.043,0.0,0
1581631900.633,19.531,22.461,12.695,20.508000000000006,0.0,0
1581631900.6360002,24.902,23.926,12.695,23.926,0.0,0
1581631900.64,23.926,22.949,12.695,18.555,0.0,0
1581631900.644,21.484,22.461,14.16,18.555,0.0,0
1581631900.6479998,31.738000000000003,23.438,14.16,17.578,0.0,0
1581631900.6520002,35.645,25.391,13.184,9.766,0.0,0
1581631900.654,24.414,27.832,10.742,11.719,0.0,0
1581631900.658,21.97300000000001,29.297,6.836,17.09,0.0,0
1581631900.6620002,26.855,27.832,6.836,12.695,0.0,0
1581631900.666,28.32,24.902,9.277,16.113,0.0,0
1581631900.67,32.715,22.461,12.207,31.25,0.0,0
1581631900.674,38.574,20.996,16.113,29.297,0.0,0
1581631900.678,29.297,20.996,15.625,21.97300000000001,0.0,0
1581631900.681,18.066,19.531,13.672,18.555,0.0,0
1581631900.685,22.949,19.531,14.16,16.602,0.0,0
1581631900.689,33.203,17.578,11.719,18.066,0.0,0
1581631900.6929998,29.785,16.602,8.301,19.043,0.0,0
1581631900.697,23.438,18.066,10.254,18.066,0.0,0
1581631900.699,23.926,18.555,12.695,25.391,0.0,0
1581631900.7029998,27.344,19.043,13.184,25.879,0.0,0
1581631900.707,33.203,19.043,13.184,20.508000000000006,0.0,0
1581631900.711,29.785,19.043,13.184,28.32,0.0,0
1581631900.715,25.391,20.508000000000006,14.16,32.715,0.0,0
1581631900.719,25.391,19.043,12.695,23.926,0.0,0
1581631900.7229998,25.879,16.602,14.16,16.113,0.0,0
1581631900.726,31.25,18.066,16.113,16.113,0.0,0
1581631900.73,30.762,20.996,13.672,13.184,0.0,0
1581631900.734,24.902,19.043,9.766,5.859,0.0,0
1581631900.738,23.438,19.531,11.23,3.906,0.0,0
1581631900.742,25.879,26.367,13.184,8.301,0.0,0
1581631900.744,27.344,29.297,10.254,17.09,0.0,0
1581631900.748,31.25,26.855,10.742,16.602,0.0,0
1581631900.752,36.621,24.414,12.695,11.23,0.0,0
1581631900.756,35.156,18.066,16.113,14.648,0.0,0
1581631900.76,26.855,18.555,14.16,14.16,0.0,0
1581631900.764,27.832,22.461,11.23,18.555,0.0,0
1581631900.768,30.273000000000003,18.555,18.555,20.02,0.0,0
1581631900.771,35.156,22.461,20.508000000000006,18.066,0.0,0
1581631900.775,41.504,28.809,19.531,25.391,0.0,0
1581631900.779,41.504,20.996,23.438,25.879,0.0,0
1581631900.783,36.621,19.043,24.414,26.855,0.0,0
1581631900.7870002,25.391,27.344,21.97300000000001,30.762,0.0,0
1581631900.789,20.996,25.879,21.484,26.367,0.0,0
1581631900.793,20.02,27.832,17.09,26.855,0.0,0
1581631900.7970002,21.484,25.879,12.207,22.461,0.0,0
1581631900.801,21.484,23.926,12.207,9.277,0.0,0
1581631900.805,28.809,25.391,10.742,10.742,0.0,0
1581631900.809,27.832,24.902,11.719,13.184,0.0,0
1581631900.813,28.809,23.926,18.555,15.137,0.0,0
1581631900.816,29.297,22.949,20.508000000000006,16.113,0.0,0
1581631900.82,20.996,19.531,16.113,12.207,0.0,0
1581631900.824,24.414,17.09,17.578,13.672,0.0,0
1581631900.8279998,28.32,20.508000000000006,18.555,10.742,0.0,0
1581631900.832,24.414,23.926,18.555,13.184,0.0,0
1581631900.833,20.996,26.367,15.625,12.207,0.0,0
1581631900.837,17.578,23.926,14.648,13.672,0.0,0
1581631900.841,21.484,23.438,13.672,28.809,0.0,0
1581631900.845,27.832,23.926,10.254,27.832,0.0,0
1581631900.849,31.738000000000003,25.879,10.254,20.996,0.0,0
1581631900.853,31.25,27.344,11.23,21.484,0.0,0
1581631900.857,37.109,27.344,13.672,26.367,0.0,0
1581631900.86,26.855,26.367,6.836,21.484,0.0,0
1581631900.8639998,22.461,24.902,-1.953,13.184,0.0,0
1581631900.8679998,42.969,24.414,7.324,14.16,0.0,0
1581631900.8720002,26.855,24.902,17.09,18.555,0.0,0
1581631900.8760002,9.277,23.438,17.578,15.137,0.0,0
1581631900.879,16.113,24.414,15.625,11.719,0.0,0
1581631900.883,22.949,24.414,17.09,17.578,0.0,0
1581631900.887,32.715,22.949,18.555,19.043,0.0,0
1581631900.891,29.297,24.414,16.113,15.625,0.0,0
1581631900.895,13.672,24.414,12.695,11.23,0.0,0
1581631900.899,16.113,24.414,11.23,12.207,0.0,0
1581631900.903,21.97300000000001,24.902,8.789,7.324,0.0,0
1581631900.906,20.996,21.484,5.859,9.277,0.0,0
1581631900.91,25.879,19.531,10.742,20.996,0.0,0
1581631900.914,31.25,21.484,18.066,16.602,0.0,0
1581631900.918,25.879,20.508000000000006,19.043,20.508000000000006,0.0,0
1581631900.9220002,16.602,12.695,17.09,26.855,0.0,1
1581631902.299,15.137,10.742,17.09,15.625,0.0,2
1581631902.303,21.97300000000001,19.531,16.602,11.23,0.0,0
1581631902.3070002,36.621,28.809,14.16,15.137,0.0,0
1581631902.311,38.086,29.297,11.719,19.531,0.0,0
1581631902.315,32.715,26.367,12.207,23.438,0.0,0
1581631902.319,29.297,27.344,14.16,21.97300000000001,0.0,0
1581631902.323,22.461,26.367,15.137,23.926,0.0,0
1581631902.326,17.578,24.414,15.625,26.367,0.0,0
1581631902.33,18.555,23.926,15.137,25.879,0.0,0
1581631902.334,29.785,22.949,6.348,27.832,0.0,0
1581631902.3379998,35.156,25.879,4.883,26.855,0.0,0
1581631902.342,29.297,26.855,16.113,16.113,0.0,0
1581631902.299,24.902,26.855,15.625,6.836,0.0,0
1581631902.303,20.02,28.32,12.695,4.395,0.0,0
1581631902.3070002,17.578,27.832,13.672,4.395,0.0,0
1581631902.311,19.531,26.367,11.23,4.883,0.0,0
1581631902.315,20.02,26.367,7.324,-1.465,0.0,0
1581631902.319,23.438,26.855,6.348,1.465,0.0,0
1581631902.323,26.855,24.902,9.277,12.207,0.0,0
1581631902.326,26.855,24.902,9.766,17.578,0.0,0
1581631902.33,35.645,27.832,8.789,12.695,0.0,0
1581631902.334,39.551,27.832,9.277,13.672,0.0,0
1581631902.3379998,37.598,22.461,6.348,18.555,0.0,0
1581631902.342,43.945,23.926,8.789,26.367,0.0,0
1581631902.299,41.01600000000001,26.855,11.719,30.762,0.0,0
1581631902.303,24.902,24.902,9.766,20.508000000000006,0.0,0
1581631902.3070002,30.762,20.996,10.254,17.09,0.0,0
1581631902.311,27.344,19.531,12.207,18.066,0.0,0
1581631902.315,15.625,20.02,7.812,23.926,0.0,0
1581631902.319,11.719,21.484,9.277,25.391,0.0,0
1581631902.323,11.719,22.949,12.695,12.695,0.0,0
1581631902.326,15.137,19.043,12.207,10.742,0.0,0
1581631902.33,21.97300000000001,20.508000000000006,14.648,16.602,0.0,0
1581631902.334,24.414,22.949,15.137,12.695,0.0,0
1581631902.3379998,25.879,18.066,14.16,17.09,0.0,0
1581631902.342,36.621,19.043,16.113,21.484,0.0,0
1581631902.3079998,38.574,24.414,18.066,13.672,0.0,0
1581631902.312,30.273000000000003,24.902,16.602,16.113,0.0,0
1581631902.316,19.531,24.414,12.695,19.531,0.0,0
1581631902.32,29.297,23.926,12.695,19.531,0.0,0
1581631902.324,33.691,20.996,15.625,20.996,0.0,0
1581631902.3279998,27.344,20.996,12.695,19.531,0.0,0
1581631902.332,25.391,19.531,7.324,23.926,0.0,0
1581631902.335,27.832,21.484,11.23,28.32,0.0,0
1581631902.339,35.645,22.949,18.555,28.809,0.0,0
1581631902.343,22.461,17.578,20.02,27.832,0.0,0
1581631902.347,24.902,20.508000000000006,17.578,30.273000000000003,0.0,0
1581631902.351,41.01600000000001,25.391,16.602,28.809,0.0,0
1581631902.31,31.25,24.902,17.578,21.97300000000001,0.0,0
1581631902.314,24.414,25.879,16.602,19.531,0.0,0
1581631902.3179998,26.367,27.344,13.184,18.066,0.0,0
1581631902.322,27.832,25.879,10.742,18.066,0.0,0
1581631902.326,26.855,23.926,11.23,24.414,0.0,0
1581631902.33,29.785,23.926,13.184,21.97300000000001,0.0,0
1581631902.334,26.855,24.902,10.742,12.695,0.0,0
1581631902.337,17.578,26.367,8.789,10.254,0.0,0
1581631902.341,24.902,24.902,10.254,10.254,0.0,0
1581631902.345,34.18,21.484,7.324,7.324,0.0,0
1581631902.349,31.25,20.996,4.395,5.371,0.0,0
1581631902.353,29.785,20.996,9.766,7.324,0.0,0
1581631902.311,31.738000000000003,22.949,11.23,7.324,0.0,0
1581631902.315,33.691,22.949,8.789,11.23,0.0,0
1581631902.319,40.039,22.949,8.301,20.996,0.0,0
1581631902.323,36.133,24.902,12.695,30.273000000000003,0.0,0
1581631902.327,35.156,19.531,17.09,26.367,0.0,0
1581631902.331,34.668,16.602,16.113,20.02,0.0,0
1581631902.335,21.484,20.996,14.16,19.531,0.0,0
1581631902.3379998,20.508000000000006,22.461,16.602,23.926,0.0,0
1581631902.342,19.531,20.508000000000006,16.602,30.762,0.0,0
1581631902.346,20.508000000000006,14.648,14.648,23.438,0.0,0
1581631902.35,22.949,19.531,13.184,11.719,0.0,0
1581631902.354,20.02,25.391,10.742,11.23,0.0,0
1581631902.313,22.461,22.949,10.254,14.16,0.0,0
1581631902.3170002,29.785,23.926,12.695,14.648,0.0,0
1581631902.321,27.344,23.926,14.16,18.066,0.0,0
1581631902.325,28.809,18.066,12.207,17.09,0.0,0
1581631902.329,30.762,19.043,10.742,14.648,0.0,0
1581631902.333,36.133,23.438,11.719,16.113,0.0,0
1581631902.337,45.41,24.902,12.207,15.625,0.0,0
1581631902.34,45.41,25.879,10.742,19.531,0.0,0
1581631902.344,36.621,23.438,11.23,18.066,0.0,0
1581631902.3479998,23.438,20.02,13.672,17.578,0.0,0
1581631902.3520002,22.461,21.97300000000001,10.742,19.531,0.0,0
1581631902.356,24.902,25.391,7.812,10.742,0.0,0
1581631902.314,32.227,23.926,10.254,14.648,0.0,0
1581631902.3179998,37.109,21.97300000000001,12.695,23.926,0.0,0
1581631902.322,40.527,20.996,13.184,24.414,0.0,0
1581631902.326,44.434,20.996,11.719,27.832,0.0,0
1581631902.33,37.109,20.996,11.719,35.156,0.0,0
1581631902.334,35.156,19.531,15.137,31.25,0.0,0
1581631902.3379998,46.387,19.043,14.648,26.367,0.0,0
1581631902.341,52.246,19.043,10.742,28.32,0.0,0
1581631902.345,40.039,18.555,12.207,28.32,0.0,0
1581631902.349,40.527,19.531,15.625,27.344,0.0,0
1581631902.353,37.598,18.066,15.137,32.715,0.0,0
1581631902.357,23.438,19.043,13.672,28.809,0.0,0
1581631902.316,27.832,20.02,13.184,16.602,0.0,0
1581631902.32,28.32,20.508000000000006,14.16,15.625,0.0,0
1581631902.324,26.855,23.438,14.16,14.16,0.0,0
1581631902.3279998,34.18,21.484,15.625,16.602,0.0,0
1581631902.332,37.109,17.09,16.113,17.578,0.0,0
1581631902.336,33.691,20.508000000000006,17.09,19.531,0.0,0
1581631902.34,38.086,23.438,18.066,29.785,0.0,0
1581631902.343,40.039,24.414,15.137,20.02,0.0,0
1581631902.347,35.645,26.367,13.184,12.695,0.0,0
1581631902.351,41.992,28.32,12.695,21.97300000000001,0.0,0
1581631902.355,58.105,27.344,14.16,24.902,0.0,0
1581631902.359,44.434,23.926,13.184,24.414,0.0,0
1581631902.3170002,37.109,22.949,13.672,30.273000000000003,0.0,0
1581631902.321,43.457,22.461,13.184,33.691,0.0,0
1581631902.325,38.574,21.484,13.672,32.227,0.0,0
1581631902.329,44.922,22.949,15.137,40.039,0.0,0
1581631902.333,35.156,21.484,13.672,36.133,0.0,0
1581631902.337,26.855,22.949,13.672,22.949,0.0,0
1581631902.341,35.645,20.02,9.766,28.32,0.0,0
1581631902.344,38.574,20.02,3.418,27.832,0.0,0
1581631902.3479998,38.086,27.344,5.371,21.484,0.0,0
1581631902.3520002,51.27,27.344,8.789,28.809,0.0,0
1581631902.356,49.805,27.832,9.766,30.762,0.0,0
1581631902.36,38.086,28.32,15.625,29.297,0.0,0
1581631902.3179998,44.922,28.32,16.602,24.414,0.0,0
1581631902.322,41.504,26.855,15.137,19.531,0.0,0
1581631902.326,23.926,24.414,13.672,19.531,0.0,0
1581631902.33,20.508000000000006,23.926,8.789,26.855,0.0,0
1581631902.334,33.691,21.484,10.254,28.32,0.0,0
1581631902.3379998,35.645,20.508000000000006,13.672,12.207,0.0,0
1581631902.342,36.621,26.855,13.184,9.766,0.0,0
1581631902.345,47.852,30.273000000000003,14.16,16.602,0.0,0
1581631902.349,45.898,24.902,16.602,17.09,0.0,0
1581631902.353,42.48,22.461,15.137,25.879,0.0,0
1581631902.357,42.969,21.97300000000001,11.23,27.832,0.0,0
1581631902.361,31.25,21.97300000000001,11.23,24.902,0.0,0
1581631902.319,32.227,24.414,11.23,25.879,0.0,0
1581631902.323,40.039,21.97300000000001,10.742,30.762,0.0,0
1581631902.327,38.086,20.508000000000006,11.23,29.297,0.0,0
1581631902.331,36.133,20.02,12.207,28.809,0.0,0
1581631902.335,43.945,20.508000000000006,14.16,31.25,0.0,0
1581631902.339,43.457,21.484,12.695,25.879,0.0,0
1581631902.343,38.574,22.461,11.23,23.438,0.0,0
1581631902.346,36.621,23.926,14.648,24.414,0.0,0
1581631902.35,40.039,23.438,10.742,20.02,0.0,0
1581631902.354,36.133,20.508000000000006,-1.465,23.926,0.0,0
1581631902.3579998,25.879,20.02,3.418,25.391,0.0,0
1581631902.3620002,32.227,20.508000000000006,15.137,25.391,0.0,0
1581631902.321,31.25,20.02,21.484,20.996,0.0,0
1581631902.325,22.949,20.996,25.391,18.066,0.0,0
1581631902.329,34.18,23.438,22.461,20.996,0.0,0
1581631902.333,45.41,20.02,17.578,20.996,0.0,0
1581631902.337,35.156,18.066,13.184,19.531,0.0,0
1581631902.341,21.97300000000001,20.996,11.719,21.97300000000001,0.0,0
1581631902.345,19.531,22.949,15.137,20.508000000000006,0.0,0
1581631902.3479998,22.461,25.391,15.625,15.137,0.0,0
1581631902.3520002,21.484,24.414,14.16,21.484,0.0,0
1581631902.356,24.902,21.484,14.648,24.902,0.0,0
1581631902.36,35.645,20.996,16.113,21.97300000000001,0.0,0
1581631902.3639998,38.574,17.09,15.625,17.09,0.0,0
1581631902.322,24.414,13.672,13.672,11.719,0.0,0
1581631902.326,12.207,22.461,14.648,11.719,0.0,0
1581631902.33,14.16,27.344,13.672,16.113,0.0,0
1581631902.334,21.484,27.832,13.184,15.625,0.0,0
1581631902.3379998,25.391,29.297,15.137,21.484,0.0,0
1581631902.342,24.902,28.32,16.113,26.367,0.0,0
1581631902.346,33.691,26.367,18.066,20.02,0.0,0
1581631902.349,42.48,23.926,18.066,17.578,0.0,0
1581631902.353,34.668,22.461,17.578,12.207,0.0,0
1581631902.357,34.18,21.484,16.602,13.184,0.0,0
1581631902.361,37.598,21.484,18.555,23.438,0.0,0
1581631902.365,24.902,20.02,19.043,22.949,0.0,0
1581631902.324,18.555,17.578,15.625,19.043,0.0,0
1581631902.3279998,21.97300000000001,19.043,14.648,17.578,0.0,0
1581631902.332,22.949,22.461,17.09,13.184,0.0,0
1581631902.336,26.855,21.97300000000001,19.531,20.508000000000006,0.0,0
1581631902.34,24.414,19.531,19.043,21.484,0.0,0
1581631902.344,22.949,19.043,20.996,18.555,0.0,0
1581631902.3479998,27.832,20.02,20.02,22.949,0.0,0
1581631902.351,31.738000000000003,20.996,14.648,19.043,0.0,0
1581631902.355,30.273000000000003,20.02,15.137,18.066,0.0,0
1581631902.359,23.438,21.97300000000001,17.578,20.02,0.0,0
1581631902.363,26.855,24.902,17.09,30.762,0.0,0
1581631902.367,25.879,24.414,17.09,28.809,0.0,0
1581631902.325,28.32,20.508000000000006,17.09,17.09,0.0,0
1581631902.329,30.762,19.531,18.066,17.09,0.0,0
1581631902.333,26.855,21.484,17.09,19.043,0.0,0
1581631902.337,29.785,20.02,15.137,19.531,0.0,0
1581631902.341,36.133,23.926,21.484,25.391,0.0,0
1581631902.345,34.18,25.391,19.043,22.461,0.0,0
1581631902.349,19.531,26.855,15.137,5.371,0.0,0
1581631902.3520002,12.207,27.832,16.602,-2.441,0.0,0
1581631902.356,10.742,22.949,17.09,-0.488,0.0,0
1581631902.36,10.254,27.832,21.484,-1.953,0.0,0
1581631902.3639998,4.883,30.273000000000003,25.391,-13.184,0.0,0
1581631902.3679998,-3.906,30.762,23.926,-19.531,0.0,0
1581631902.326,-14.16,26.855,21.484,-29.785,0.0,0
1581631902.33,-16.602,22.461,24.414,-36.133,0.0,0
1581631902.334,-25.879,22.461,27.344,-35.645,0.0,0
1581631902.3379998,-41.01600000000001,21.484,27.832,-39.551,0.0,0
1581631902.342,-47.852,21.484,26.855,-53.223,0.0,0
1581631902.346,-55.664,20.996,29.785,-72.266,0.0,0
1581631902.35,-77.637,19.043,27.832,-85.93799999999996,0.0,0
1581631902.353,-90.332,14.16,23.438,-92.773,0.0,0
1581631902.357,-92.773,12.207,21.97300000000001,-96.68,0.0,0
1581631902.361,-90.82,16.602,21.484,-102.539,0.0,0
1581631902.365,-74.219,16.113,22.461,-94.727,0.0,0
1581631902.369,-62.012,13.672,17.09,-78.613,0.0,0
1581631902.3279998,-62.5,16.602,14.16,-72.75399999999998,0.0,0
1581631902.332,-53.71100000000001,18.066,16.113,-61.035,0.0,0
1581631902.336,-38.574,13.672,18.555,-54.199,0.0,0
1581631902.34,-40.527,13.672,16.113,-50.78100000000001,0.0,0
1581631902.344,-27.344,15.137,11.23,-37.109,0.0,0
1581631902.3479998,0.0,17.578,12.207,-17.09,0.0,0
1581631902.3520002,9.766,21.97300000000001,11.23,-1.953,0.0,0
1581631902.355,21.97300000000001,20.996,8.301,16.602,0.0,0
1581631902.359,39.551,18.555,8.789,32.715,0.0,0
1581631902.363,51.758,18.066,7.812,29.297,0.0,0
1581631902.367,60.059,16.602,3.906,29.785,0.0,0
1581631902.371,66.895,18.555,4.395,37.109,0.0,0
1581631902.329,68.848,24.902,3.418,44.922,0.0,0
1581631902.333,72.266,24.902,3.418,56.152,0.0,0
1581631902.337,83.49600000000002,21.97300000000001,5.371,63.477,0.0,0
1581631902.341,87.891,23.926,3.418,68.848,0.0,0
1581631902.345,93.262,24.902,4.395,79.102,0.0,0
1581631902.349,95.703,26.367,4.883,83.984,0.0,0
1581631902.353,92.285,27.344,2.93,80.566,0.0,0
1581631902.356,99.121,21.97300000000001,4.883,76.66,0.0,0
1581631902.36,103.516,22.461,7.812,82.031,0.0,0
1581631902.3639998,99.609,26.367,8.301,89.844,0.0,0
1581631902.3679998,89.844,26.367,8.301,87.402,0.0,0
1581631902.3720002,86.426,26.367,11.23,79.102,0.0,0
1581631902.33,88.37899999999998,25.391,11.719,78.613,0.0,0
1581631902.334,85.93799999999996,25.391,10.742,83.49600000000002,0.0,0
1581631902.3379998,94.727,23.926,10.254,89.355,0.0,0
1581631902.342,91.797,24.414,11.719,81.055,0.0,0
1581631902.346,75.684,29.297,12.695,63.477,0.0,0
1581631902.35,69.336,29.297,11.23,62.988,0.0,0
1581631902.354,71.289,26.367,13.672,65.43,0.0,0
1581631902.357,76.66,25.391,15.625,62.988,0.0,0
1581631902.361,79.59,23.438,14.16,58.105,0.0,0
1581631902.365,67.383,23.438,10.742,51.27,0.0,0
1581631902.369,65.918,24.414,12.207,55.176,0.0,0
1581631902.373,70.801,24.902,12.207,52.734,0.0,0
1581631902.332,68.848,21.97300000000001,9.277,55.176,0.0,0
1581631902.336,64.941,21.97300000000001,13.184,60.059,0.0,0
1581631902.34,62.5,23.926,14.648,51.758,0.0,0
1581631902.344,58.105,23.926,8.301,44.434,0.0,0
1581631902.3479998,53.71100000000001,22.949,5.859,48.828,0.0,0
1581631902.3520002,51.27,24.414,9.766,48.34,0.0,0
1581631902.356,45.41,22.949,7.812,34.668,0.0,0
1581631902.359,43.945,20.996,8.301,31.738000000000003,0.0,0
1581631902.363,44.922,20.996,12.695,29.785,0.0,0
1581631902.367,48.828,17.09,12.207,27.344,0.0,0
1581631902.371,52.246,17.09,12.207,33.203,0.0,0
1581631902.375,46.387,19.531,12.695,37.109,0.0,0
1581631902.333,41.01600000000001,17.578,11.719,33.691,0.0,0
1581631902.337,49.805,15.625,10.254,28.809,0.0,0
1581631902.341,44.922,17.578,10.254,23.438,0.0,0
1581631902.345,39.551,17.578,10.254,22.949,0.0,0
1581631902.349,47.363,17.09,9.766,19.043,0.0,0
1581631902.353,43.945,18.066,10.254,17.09,0.0,0
1581631902.357,38.086,20.02,11.23,25.391,0.0,0
1581631902.36,39.551,19.531,11.719,28.32,0.0,0
1581631902.3639998,39.062,16.602,12.207,22.949,0.0,0
1581631902.3679998,33.203,16.602,12.695,22.461,0.0,0
1581631902.3720002,35.156,18.066,12.207,16.602,0.0,0
1581631902.3760002,22.949,20.996,10.742,17.578,0.0,0
1581631902.335,20.996,17.578,10.742,24.902,0.0,0
1581631902.339,39.062,13.672,11.23,19.043,0.0,0
1581631902.343,37.109,18.066,12.207,19.043,0.0,0
1581631902.347,28.809,18.066,10.742,25.879,0.0,0
1581631902.351,29.785,16.113,10.254,24.414,0.0,0
1581631902.355,38.574,19.043,13.672,25.879,0.0,0
1581631902.359,42.48,21.97300000000001,15.625,32.227,0.0,0
1581631902.3620002,52.246,20.508000000000006,14.648,33.203,0.0,0
1581631902.3660002,51.27,18.066,11.719,26.855,0.0,0
1581631902.37,45.898,19.043,13.184,19.531,0.0,0
1581631902.3739998,43.457,18.555,15.625,12.695,0.0,0
1581631902.3779998,26.367,17.578,19.043,16.602,0.0,0
1581631902.336,22.949,15.137,18.066,22.461,0.0,0
1581631902.34,20.996,16.113,13.672,15.625,0.0,0
1581631902.344,15.137,13.672,14.648,16.602,0.0,0
1581631902.3479998,15.625,3.906,17.09,14.16,0.0,0
1581631902.3520002,17.578,7.812,17.09,8.789,0.0,0
1581631902.356,16.113,19.531,18.066,15.137,0.0,0
1581631902.36,11.23,15.625,16.113,15.625,0.0,0
1581631902.363,16.602,12.695,14.16,10.742,0.0,0
1581631902.367,23.438,15.137,16.113,17.578,0.0,0
1581631902.371,29.785,17.578,17.578,35.156,0.0,0
1581631902.375,39.551,19.043,16.602,32.227,0.0,0
1581631902.379,34.668,17.578,15.625,21.484,0.0,0
1581631902.337,30.273000000000003,18.555,14.648,26.367,0.0,0
1581631902.341,32.227,19.043,17.578,32.227,0.0,0
1581631902.345,27.344,15.137,21.97300000000001,30.273000000000003,0.0,0
1581631902.349,31.25,12.695,19.043,30.273000000000003,0.0,0
1581631902.353,25.391,13.184,18.066,21.97300000000001,0.0,0
1581631902.357,17.09,16.113,17.578,21.484,0.0,0
1581631902.361,20.996,18.555,16.113,16.113,0.0,0
1581631902.3639998,25.879,16.602,13.672,8.301,0.0,0
1581631902.3679998,23.438,17.09,13.672,13.672,0.0,0
1581631902.3720002,20.02,17.09,17.578,12.695,0.0,0
1581631902.3760002,16.602,17.09,17.578,9.277,0.0,0
1581631902.38,14.16,16.113,15.137,11.719,0.0,0
1581631902.339,15.625,13.672,14.16,5.859,0.0,0
1581631902.343,16.602,14.648,14.648,6.348,0.0,0
1581631902.347,19.043,12.207,15.625,14.648,0.0,0
1581631902.351,20.508000000000006,14.16,13.184,19.531,0.0,0
1581631902.355,21.97300000000001,18.066,12.207,26.855,0.0,0
1581631902.359,24.414,18.066,10.742,32.227,0.0,0
1581631902.363,30.762,21.97300000000001,10.254,32.715,0.0,0
1581631902.3660002,38.086,19.043,11.719,33.203,0.0,0
1581631902.37,43.945,14.16,11.719,32.715,0.0,0
1581631902.3739998,41.504,17.578,11.719,33.203,0.0,0
1581631902.3779998,27.832,18.066,10.254,30.762,0.0,0
1581631902.3820002,22.949,17.09,9.766,27.344,0.0,0
1581631902.34,26.367,19.043,9.766,20.02,0.0,0
1581631902.344,33.203,20.02,11.719,21.484,0.0,0
1581631902.3479998,32.227,20.996,12.207,25.391,0.0,0
1581631902.3520002,22.461,23.926,13.184,23.438,0.0,0
1581631902.356,17.578,20.996,13.184,16.113,0.0,0
1581631902.36,29.785,23.438,9.766,20.508000000000006,0.0,0
1581631902.3639998,37.109,28.809,9.277,30.762,0.0,0
1581631902.367,25.879,24.414,9.766,35.156,0.0,0
1581631902.371,31.738000000000003,25.391,10.254,35.645,0.0,0
1581631902.375,33.203,30.762,9.766,15.137,0.0,0
1581631902.379,20.996,31.25,5.371,1.465,0.0,0
1581631902.383,21.484,31.738000000000003,2.93,11.23,0.0,0
1581631902.342,28.32,35.156,5.859,12.207,0.0,0
1581631902.346,25.391,34.18,6.348,2.93,0.0,0
1581631902.35,27.832,33.203,5.371,11.719,0.0,0
1581631902.354,34.18,32.715,9.277,22.461,0.0,0
1581631902.3579998,37.109,33.691,11.719,25.391,0.0,0
1581631902.3620002,37.598,31.25,7.324,27.344,0.0,0
1581631902.3660002,34.668,29.297,5.859,17.578,0.0,0
1581631902.369,31.738000000000003,26.855,7.812,18.555,0.0,0
1581631902.373,36.621,25.879,7.812,25.879,0.0,0
1581631902.377,42.969,26.367,9.277,26.367,0.0,0
1581631902.381,40.527,28.32,9.766,19.043,0.0,0
1581631902.385,41.01600000000001,28.32,11.719,20.508000000000006,0.0,0
1581631902.343,43.945,27.344,11.719,25.879,0.0,0
1581631902.347,39.062,27.344,8.789,21.484,0.0,0
1581631902.351,44.922,29.297,9.277,20.996,0.0,0
1581631902.355,62.988,31.738000000000003,10.254,23.438,0.0,0
1581631902.359,55.176,30.273000000000003,8.301,23.926,0.0,0
1581631902.363,42.48,29.297,9.277,23.438,0.0,0
1581631902.367,44.922,29.297,3.418,19.043,0.0,0
1581631902.37,34.668,26.855,3.418,15.137,0.0,0
1581631902.3739998,33.203,24.902,8.301,20.508000000000006,0.0,0
1581631902.3779998,39.062,23.438,7.812,25.879,0.0,0
1581631902.3820002,36.621,23.438,9.277,27.832,0.0,0
1581631902.3860002,29.785,24.902,7.812,25.391,0.0,0
1581631902.345,24.414,22.461,7.812,21.484,0.0,0
1581631902.349,25.391,20.02,12.695,22.949,0.0,0
1581631902.353,24.902,22.461,13.184,29.297,0.0,0
1581631902.357,26.367,23.926,13.184,22.949,0.0,0
1581631902.361,30.273000000000003,23.926,13.184,10.254,0.0,0
1581631902.365,28.32,22.461,10.742,20.996,0.0,0
1581631902.369,24.414,20.996,8.301,23.438,0.0,0
1581631902.3720002,29.297,21.484,6.836,13.184,0.0,0
1581631902.3760002,42.48,21.97300000000001,7.324,16.113,0.0,0
1581631902.38,42.48,20.02,8.789,24.414,0.0,0
1581631902.3839998,34.668,21.484,9.277,22.461,0.0,0
1581631902.3879998,32.715,24.902,4.883,17.578,0.0,0
1581631902.346,32.227,23.926,7.324,18.066,0.0,0
1581631902.35,30.273000000000003,22.949,10.254,16.113,0.0,0
1581631902.354,34.668,23.438,9.766,25.879,0.0,0
1581631902.3579998,41.01600000000001,24.414,10.742,25.391,0.0,0
1581631902.3620002,32.715,21.484,9.766,12.695,0.0,0
1581631902.3660002,27.832,21.484,10.742,20.508000000000006,0.0,0
1581631902.37,31.25,23.438,13.184,27.832,0.0,0
1581631902.373,41.504,21.97300000000001,10.742,20.508000000000006,0.0,0
1581631902.377,37.598,19.043,6.348,10.742,0.0,0
1581631902.381,18.555,17.578,6.836,8.789,0.0,0
1581631902.385,18.066,19.043,9.277,10.254,0.0,0
1581631902.389,30.762,19.531,10.742,16.602,0.0,0
1581631902.3779998,25.879,23.438,10.254,19.043,0.0,0
1581631902.3820002,21.484,24.414,12.695,17.578,0.0,0
1581631902.3860002,25.391,20.02,15.625,28.809,0.0,0
1581631902.39,26.855,20.508000000000006,16.113,33.691,0.0,0
1581631902.394,35.156,21.484,13.184,24.414,0.0,0
1581631902.3979998,42.969,23.926,14.16,23.926,0.0,0
1581631902.4020002,33.691,24.902,16.602,21.97300000000001,0.0,0
1581631902.405,36.133,25.391,11.719,19.531,0.0,0
1581631902.409,43.457,23.438,5.859,18.066,0.0,0
1581631902.413,37.109,23.438,9.277,21.484,0.0,0
1581631902.417,37.109,23.926,13.184,24.414,0.0,0
1581631902.421,35.645,15.625,12.695,23.438,0.0,0
1581631902.438,35.645,17.578,13.184,22.461,0.0,0
1581631902.4420002,40.527,25.391,13.672,20.996,0.0,0
1581631902.446,38.086,24.414,11.719,14.16,0.0,0
1581631902.45,26.855,22.949,9.277,17.09,0.0,0
1581631902.454,21.484,22.461,13.672,22.461,0.0,0
1581631902.458,24.902,20.508000000000006,15.625,22.949,0.0,0
1581631902.462,24.902,20.508000000000006,8.789,25.391,0.0,0
1581631902.465,26.855,18.555,7.324,26.367,0.0,0
1581631902.469,22.461,19.043,11.23,21.484,0.0,0
1581631902.4729998,25.391,21.484,13.184,22.461,0.0,0
1581631902.4770002,37.109,19.043,17.09,27.344,0.0,0
1581631902.481,37.598,19.043,14.648,21.484,0.0,0
1581631902.484,38.086,21.484,13.672,20.996,0.0,0
1581631902.488,36.133,21.484,16.602,33.691,0.0,0
1581631902.492,28.32,19.043,15.625,25.391,0.0,0
1581631902.496,30.762,17.578,16.602,17.578,0.0,0
1581631902.5,43.457,19.043,15.137,32.715,0.0,0
1581631902.504,48.828,23.438,15.625,40.527,0.0,0
1581631902.508,35.645,21.484,18.555,29.785,0.0,0
1581631902.5110002,26.855,15.137,18.066,13.672,0.0,0
1581631902.515,35.156,14.16,17.578,21.97300000000001,0.0,0
1581631902.519,29.297,15.137,14.648,23.438,0.0,0
1581631902.5229998,15.625,16.602,13.184,9.277,0.0,0
1581631902.5270002,22.461,17.578,12.207,9.277,0.0,0
1581631902.529,32.715,19.043,13.672,10.742,0.0,0
1581631902.533,31.25,21.97300000000001,13.672,7.324,0.0,0
1581631902.5370002,27.344,20.996,9.277,8.789,0.0,0
1581631902.541,28.809,19.043,10.742,19.043,0.0,0
1581631902.545,29.785,20.508000000000006,12.695,20.996,0.0,0
1581631902.549,22.949,21.97300000000001,11.23,15.625,0.0,0
1581631902.553,28.809,18.555,11.23,20.508000000000006,0.0,0
1581631902.556,30.762,19.043,9.766,21.484,0.0,0
1581631902.56,12.695,20.02,10.254,13.184,0.0,0
1581631902.564,13.672,18.066,11.719,13.672,0.0,0
1581631902.5679998,23.926,20.02,13.672,18.066,0.0,0
1581631902.572,32.715,20.996,17.578,18.555,0.0,0
1581631902.574,33.203,22.949,13.672,23.438,0.0,0
1581631902.5779998,31.25,22.949,11.23,32.227,0.0,0
1581631902.582,36.133,20.996,11.719,23.926,0.0,0
1581631902.586,35.645,20.02,10.742,14.648,0.0,0
1581631902.59,33.691,20.02,11.719,20.996,0.0,0
1581631902.594,29.297,21.97300000000001,13.184,24.902,0.0,0
1581631902.5979998,30.762,20.508000000000006,15.137,26.367,0.0,0
1581631902.601,37.598,19.531,12.695,23.438,0.0,0
1581631902.605,34.18,22.949,10.254,18.066,0.0,0
1581631902.609,28.809,21.97300000000001,11.23,21.97300000000001,0.0,0
1581631902.613,28.809,20.996,11.719,24.902,0.0,0
1581631902.617,24.902,20.996,11.719,26.855,0.0,0
1581631902.6339998,20.996,19.531,12.695,26.855,0.0,0
1581631902.6379998,32.227,20.508000000000006,14.648,17.578,0.0,0
1581631902.6420002,34.668,22.949,13.184,14.648,0.0,0
1581631902.646,25.391,20.996,9.277,18.555,0.0,0
1581631902.65,26.855,21.97300000000001,7.812,15.625,0.0,0
1581631902.654,26.367,24.902,9.277,18.066,0.0,0
1581631902.658,21.97300000000001,20.508000000000006,12.207,23.926,0.0,0
1581631902.661,20.996,21.484,16.113,20.996,0.0,0
1581631902.665,28.32,23.926,15.625,17.578,0.0,0
1581631902.669,34.18,23.438,11.719,23.438,0.0,0
1581631902.673,36.621,22.949,12.207,30.273000000000003,0.0,0
1581631902.677,34.668,22.949,12.207,28.809,0.0,0
1581631902.664,34.668,20.02,11.719,23.926,0.0,0
1581631902.668,41.01600000000001,21.484,9.766,21.97300000000001,0.0,0
1581631902.6720002,34.18,23.926,8.301,19.043,0.0,0
1581631902.676,26.855,23.438,12.695,18.066,0.0,0
1581631902.68,30.762,24.414,14.16,20.02,0.0,0
1581631902.684,23.438,26.855,10.742,18.066,0.0,0
1581631902.688,20.02,25.391,9.766,19.531,0.0,0
1581631902.691,20.508000000000006,21.97300000000001,9.277,21.484,0.0,0
1581631902.695,21.484,21.484,8.301,23.926,0.0,0
1581631902.699,31.738000000000003,23.438,9.277,23.438,0.0,0
1581631902.7029998,40.039,27.344,9.766,20.02,0.0,0
1581631902.707,31.25,29.297,11.719,18.066,0.0,0
1581631902.709,25.391,23.438,14.16,14.16,0.0,0
1581631902.7129998,34.18,24.414,14.648,15.137,0.0,0
1581631902.717,29.297,27.344,14.648,14.16,0.0,0
1581631902.721,25.391,24.902,13.672,14.16,0.0,0
1581631902.725,29.297,24.902,13.672,23.438,0.0,0
1581631902.729,33.691,26.367,13.672,22.461,0.0,0
1581631902.7329998,33.203,27.344,14.648,18.066,0.0,0
1581631902.736,38.086,25.879,14.648,15.625,0.0,0
1581631902.74,39.062,24.414,11.719,19.043,0.0,0
1581631902.744,36.133,24.414,11.23,23.438,0.0,0
1581631902.748,30.273000000000003,21.97300000000001,12.695,25.879,0.0,0
1581631902.752,29.785,24.414,12.207,22.461,0.0,0
1581631902.754,36.133,25.391,14.16,16.113,0.0,0
1581631902.758,30.273000000000003,23.926,12.695,14.16,0.0,0
1581631902.762,24.414,20.996,11.23,11.719,0.0,0
1581631902.766,25.391,17.578,12.695,22.461,0.0,0
1581631902.77,30.762,19.043,10.742,28.32,0.0,0
1581631902.774,32.227,20.508000000000006,10.254,25.391,0.0,0
1581631902.778,31.738000000000003,21.484,12.207,22.461,0.0,0
1581631902.781,27.832,21.97300000000001,12.207,24.902,0.0,0
1581631902.785,22.949,21.484,11.719,27.344,0.0,0
1581631902.789,20.02,20.996,11.23,30.762,0.0,0
1581631902.793,26.855,19.531,9.277,27.344,0.0,0
1581631902.7970002,31.738000000000003,20.02,6.836,16.113,0.0,0
1581631902.814,27.344,20.02,6.348,11.719,0.0,0
1581631902.8179998,25.391,20.02,8.301,14.648,0.0,0
1581631902.822,19.531,19.531,10.254,16.602,0.0,0
1581631902.826,18.066,17.09,8.789,18.066,0.0,0
1581631902.83,15.137,17.578,11.23,21.484,0.0,0
1581631902.834,17.578,18.066,13.184,18.555,0.0,0
1581631902.8379998,22.949,21.484,10.254,16.602,0.0,0
1581631902.841,28.32,21.484,11.23,18.555,0.0,0
1581631902.845,30.762,21.484,9.766,15.625,0.0,0
1581631902.849,29.297,23.438,10.254,11.719,0.0,0
1581631902.853,20.508000000000006,27.832,8.301,5.859,0.0,0
1581631902.857,12.695,28.32,5.859,2.93,0.0,0
1581631902.859,9.277,21.97300000000001,5.371,-0.977,0.0,0
1581631902.863,3.906,21.484,12.207,-9.766,0.0,0
1581631902.867,6.348,26.855,20.996,-11.23,0.0,0
1581631902.871,-1.465,27.344,20.508000000000006,-13.672,0.0,0
1581631902.875,-12.695,28.32,16.113,-22.949,0.0,0
1581631902.879,-18.066,27.344,19.531,-29.297,0.0,0
1581631902.883,-28.809,23.438,24.414,-26.855,0.0,0
1581631902.8860002,-31.25,21.97300000000001,20.508000000000006,-39.062,0.0,0
1581631902.89,-37.109,23.926,20.508000000000006,-51.27,0.0,0
1581631902.894,-49.805,26.367,21.97300000000001,-60.059,0.0,0
1581631902.8979998,-69.824,24.902,18.555,-76.66,0.0,0
1581631902.9020002,-92.285,20.508000000000006,21.97300000000001,-95.215,0.0,0
1581631902.904,-100.586,22.949,25.391,-105.469,0.0,0
1581631902.908,-94.727,20.996,20.508000000000006,-103.516,0.0,0
1581631902.9120002,-88.37899999999998,18.555,18.555,-100.586,0.0,0
1581631902.916,-93.262,22.461,16.602,-99.609,0.0,0
1581631902.92,-83.984,20.996,12.207,-94.727,0.0,0
1581631902.924,-64.453,16.113,12.695,-79.102,0.0,0
1581631902.928,-57.129,17.578,11.23,-68.848,0.0,0
1581631902.931,-33.691,20.508000000000006,7.812,-49.316,0.0,0
1581631902.935,-5.859,20.508000000000006,5.371,-19.043,0.0,0
1581631902.939,2.441,21.97300000000001,1.953,-2.441,0.0,0
1581631902.9429998,14.648,21.97300000000001,0.977,3.418,0.0,0
1581631902.947,35.645,22.461,1.953,11.719,0.0,0
1581631902.949,49.805,23.926,3.418,31.738000000000003,0.0,0
1581631902.9529998,62.988,23.438,1.953,46.387,0.0,0
1581631902.957,72.266,23.926,-0.488,53.71100000000001,0.0,0
1581631902.961,75.684,23.926,3.418,68.359,0.0,0
1581631902.965,75.684,24.902,4.395,72.266,0.0,0
1581631902.969,84.961,27.344,4.395,76.66,0.0,0
1581631902.9729998,91.797,24.902,3.906,80.078,0.0,0
1581631902.976,94.238,23.926,2.441,85.449,0.0,0
1581631902.98,97.168,24.902,2.441,88.867,0.0,0
1581631902.984,95.703,25.391,3.418,91.309,0.0,0
1581631902.988,101.562,26.855,4.395,95.215,0.0,0
1581631902.992,97.656,29.297,4.883,84.961,0.0,0
1581631902.994,93.262,28.32,5.859,83.49600000000002,0.0,0
1581631902.998,94.238,26.855,6.836,89.844,0.0,0
1581631903.002,98.633,26.855,6.836,86.426,0.0,0
1581631903.006,102.539,25.391,6.836,80.078,0.0,0
1581631903.01,84.961,25.879,8.789,72.75399999999998,0.0,0
1581631903.014,79.102,27.832,9.766,71.777,0.0,0
1581631903.018,86.914,27.832,8.301,72.75399999999998,0.0,0
1581631903.021,85.449,27.832,10.742,70.801,0.0,0
1581631903.025,80.566,28.809,12.695,69.336,0.0,0
1581631903.029,73.242,28.809,7.324,63.477,0.0,0
1581631903.033,77.637,24.414,9.766,64.941,0.0,0
1581631903.0370002,84.473,23.438,15.137,70.801,0.0,0
1581631903.039,75.684,25.879,12.695,66.895,0.0,0
1581631903.043,64.941,24.902,13.184,68.359,0.0,0
1581631903.0470002,71.289,22.461,14.648,63.965,0.0,0
1581631903.051,76.172,21.484,10.742,56.152,0.0,0
1581631903.055,66.895,23.926,11.23,56.64100000000001,0.0,0
1581631903.059,58.105,24.414,12.695,51.27,0.0,0
1581631903.063,50.293,20.996,12.695,44.922,0.0,0
1581631903.066,54.199,19.531,12.695,33.691,0.0,0
1581631903.07,59.082,17.09,10.254,32.227,0.0,0
1581631903.074,48.34,16.113,12.695,36.133,0.0,0
1581631903.0779998,44.434,20.02,14.16,36.133,0.0,0
1581631903.082,46.387,21.484,10.254,36.621,0.0,0
1581631903.084,47.363,20.996,10.254,34.668,0.0,0
1581631903.0879998,53.223,23.438,13.184,40.039,0.0,0
1581631903.092,53.71100000000001,25.391,12.207,44.434,0.0,0
1581631903.096,53.71100000000001,19.531,8.789,32.227,0.0,0
1581631903.1,41.992,15.625,9.277,23.438,0.0,0
1581631903.104,46.387,17.578,10.742,26.367,0.0,0
1581631903.1079998,43.945,20.02,12.207,29.297,0.0,0
1581631903.111,31.25,15.625,17.578,30.273000000000003,0.0,0
1581631903.115,42.969,15.137,18.555,29.297,0.0,0
1581631903.119,41.504,23.438,18.066,26.855,0.0,0
1581631903.123,40.039,20.996,18.555,25.879,0.0,0
1581631903.127,36.621,13.672,13.672,30.273000000000003,0.0,0
1581631903.129,29.785,19.043,12.207,24.902,0.0,0
1581631903.133,35.645,20.508000000000006,14.16,15.137,0.0,0
1581631903.137,31.25,20.996,11.23,17.09,0.0,0
1581631903.141,27.344,21.484,7.812,17.09,0.0,0
1581631903.145,28.809,17.578,8.301,17.09,0.0,0
1581631903.149,23.926,18.066,9.766,22.949,0.0,0
1581631903.153,21.484,15.137,11.719,27.832,0.0,0
1581631903.156,21.484,10.742,11.719,26.855,0.0,0
1581631903.16,24.902,14.16,13.184,25.391,0.0,0
1581631903.164,36.621,19.531,17.578,23.926,0.0,0
1581631903.168,43.945,22.949,16.113,23.438,0.0,0
1581631903.1720002,40.527,24.902,15.625,25.391,0.0,0
1581631903.189,42.969,24.902,18.066,31.738000000000003,0.0,0
1581631903.1929998,41.504,24.414,18.066,26.855,0.0,0
1581631903.197,41.01600000000001,22.949,18.066,18.066,0.0,0
1581631903.201,37.109,22.461,16.113,22.949,0.0,0
1581631903.205,23.926,23.438,16.113,23.438,0.0,0
1581631903.209,28.809,21.97300000000001,14.648,19.531,0.0,0
1581631903.2129998,24.414,20.02,13.184,16.113,0.0,0
1581631903.216,20.996,20.02,12.695,15.625,0.0,0
1581631903.22,23.438,23.926,12.207,19.531,0.0,0
1581631903.224,24.414,24.902,13.184,16.113,0.0,0
1581631903.228,21.97300000000001,20.996,12.207,7.812,0.0,0
1581631903.232,10.742,21.97300000000001,9.766,7.812,0.0,0
1581631903.234,14.16,23.438,12.207,14.16,0.0,0
1581631903.238,17.09,21.484,16.113,9.277,0.0,0
1581631903.242,28.32,20.02,16.113,10.742,0.0,0
1581631903.246,31.25,20.02,13.672,17.578,0.0,0
1581631903.25,24.414,23.438,12.695,13.672,0.0,0
1581631903.254,28.809,21.484,14.16,20.508000000000006,0.0,0
1581631903.258,29.297,21.484,15.625,21.97300000000001,0.0,0
1581631903.2610002,19.531,22.461,14.16,8.789,0.0,0
1581631903.265,19.531,22.461,14.16,19.531,0.0,0
1581631903.269,26.367,24.902,13.184,19.043,0.0,0
1581631903.2729998,29.297,24.902,11.23,14.648,0.0,0
1581631903.2770002,35.156,21.97300000000001,11.719,20.996,0.0,0
1581631903.278,33.203,24.414,13.184,17.578,0.0,0
1581631903.282,24.902,24.414,12.695,17.09,0.0,0
1581631903.286,27.832,21.484,13.672,20.02,0.0,0
1581631903.29,30.762,20.508000000000006,15.625,11.23,0.0,0
1581631903.294,27.832,21.484,13.184,11.719,0.0,0
1581631903.298,39.062,24.902,10.742,25.879,0.0,0
1581631903.302,41.01600000000001,24.414,9.277,13.184,0.0,0
1581631903.305,34.668,21.97300000000001,9.277,8.301,0.0,0
1581631903.309,38.086,21.484,16.113,18.555,0.0,0
1581631903.313,32.715,22.461,19.043,18.066,0.0,0
1581631903.3170002,25.391,21.484,16.602,17.09,0.0,0
1581631903.321,25.879,18.555,16.602,16.602,0.0,0
1581631903.323,22.949,15.137,17.09,12.207,0.0,0
1581631903.327,22.461,17.09,16.113,14.16,0.0,0
1581631903.331,28.809,18.555,15.137,19.043,0.0,0
1581631903.335,22.949,18.066,15.625,15.137,0.0,0
1581631903.339,19.531,20.508000000000006,15.137,6.836,0.0,0
1581631903.343,24.414,21.97300000000001,14.16,13.184,0.0,0
1581631903.347,27.344,23.438,11.719,23.926,0.0,0
1581631903.35,41.01600000000001,26.855,10.742,20.508000000000006,0.0,0
1581631903.354,54.199,28.809,14.16,15.625,0.0,0
1581631903.3579998,46.387,25.879,15.137,18.555,0.0,0
1581631903.3620002,40.039,21.97300000000001,15.625,22.949,0.0,0
1581631903.3660002,41.992,23.926,17.09,23.926,0.0,0
1581631903.3679998,41.504,23.926,13.672,22.949,0.0,0
1581631903.3720002,37.109,21.484,12.207,23.926,0.0,0
1581631903.3760002,32.227,19.043,17.09,27.832,0.0,0
1581631903.38,35.156,17.09,17.09,32.715,0.0,0
1581631903.3839998,39.062,18.555,14.16,32.715,0.0,0
1581631903.3879998,43.945,19.531,14.16,29.297,0.0,0
1581631903.3920002,37.109,18.066,14.648,30.273000000000003,0.0,0
1581631903.395,34.18,18.066,16.602,25.391,0.0,0
1581631903.399,42.48,21.97300000000001,16.113,21.97300000000001,0.0,0
1581631903.403,35.645,21.484,10.742,21.484,0.0,0
1581631903.407,24.414,18.555,8.789,17.578,0.0,0
1581631903.411,23.926,19.531,8.789,15.625,0.0,0
1581631903.413,28.32,19.043,11.23,18.066,0.0,0
1581631903.417,28.809,16.113,15.137,18.066,0.0,0
1581631903.421,20.996,15.137,17.578,18.555,0.0,0
1581631903.425,19.531,12.207,16.602,30.273000000000003,0.0,0
1581631903.429,28.32,11.719,15.137,28.32,0.0,0
1581631903.4329998,34.668,17.578,15.625,18.066,0.0,0
1581631903.437,40.039,15.625,16.602,21.484,0.0,0
1581631903.44,33.691,12.207,20.02,26.855,0.0,0
1581631903.444,29.297,14.648,16.113,19.531,0.0,0
1581631903.448,25.391,18.066,12.207,13.184,0.0,1
1581631903.452,25.879,17.09,13.672,18.555,0.0,0
1581631903.456,29.785,18.066,16.113,24.414,0.0,0
1581631903.458,17.09,16.602,16.113,18.066,0.0,0
1581631903.462,27.344,16.602,15.137,17.09,0.0,0
1581631903.466,36.621,19.531,17.09,17.09,0.0,0
1581631903.47,25.879,18.555,19.043,20.508000000000006,0.0,0
1581631903.474,26.855,17.09,17.578,28.32,0.0,0
1581631903.478,34.18,20.996,14.648,29.785,0.0,0
1581631903.482,41.992,20.996,14.16,26.367,0.0,0
1581631903.485,37.598,20.02,14.16,25.391,0.0,0
1581631903.4889998,26.367,20.996,13.184,29.785,0.0,0
1581631903.4929998,31.738000000000003,20.508000000000006,14.648,25.879,0.0,0
1581631903.4970002,31.738000000000003,19.043,16.602,16.602,0.0,0
1581631903.5010002,28.32,16.602,15.137,19.043,0.0,0
1581631903.5029998,30.762,18.555,13.184,22.461,0.0,0
1581631903.5070002,28.32,18.555,17.578,21.97300000000001,0.0,0
1581631903.5110002,30.762,20.02,18.555,24.902,0.0,0
1581631903.515,35.156,20.996,15.137,24.902,0.0,0
1581631903.519,22.949,14.16,13.184,27.344,0.0,0
1581631903.5229998,18.555,15.625,15.625,35.156,0.0,0
1581631903.5270002,35.156,20.02,17.578,30.273000000000003,0.0,0
1581631903.53,42.969,15.137,18.555,22.949,0.0,0
1581631903.534,39.062,13.672,18.555,29.297,0.0,0
1581631903.538,37.598,18.066,16.113,26.367,0.0,0
1581631903.542,29.785,18.066,13.672,19.043,0.0,0
1581631903.546,33.691,14.16,13.184,19.043,0.0,0
1581631903.563,31.738000000000003,12.695,12.695,16.602,0.0,0
1581631903.5670002,19.531,12.207,12.695,14.648,0.0,0
1581631903.571,29.297,10.742,13.184,16.602,0.0,0
1581631903.575,33.203,8.789,12.207,15.137,0.0,0
1581631903.579,29.297,9.766,10.254,15.625,0.0,0
1581631903.583,35.156,11.719,10.742,21.97300000000001,0.0,0
1581631903.587,41.992,12.207,12.207,25.879,0.0,0
1581631903.59,49.316,14.16,9.766,26.855,0.0,0
1581631903.594,48.34,10.742,9.277,23.438,0.0,0
1581631903.5979998,35.156,12.695,11.23,27.832,0.0,0
1581631903.6020002,29.297,17.578,10.742,26.855,0.0,0
1581631903.606,32.227,17.09,7.812,18.555,0.0,0
1581631903.6079998,36.621,16.602,7.812,19.043,0.0,0
1581631903.6120002,35.645,16.113,10.254,21.97300000000001,0.0,0
1581631903.6160002,32.715,14.648,12.207,29.297,0.0,0
1581631903.62,31.738000000000003,12.207,15.137,27.832,0.0,0
1581631903.6239998,47.852,10.742,14.648,28.32,0.0,0
1581631903.6279998,48.828,12.207,14.16,36.133,0.0,0
1581631903.6320002,36.621,20.508000000000006,16.602,26.367,0.0,0
1581631903.635,43.457,19.043,16.113,26.367,0.0,0
1581631903.639,46.875,14.16,14.16,29.297,0.0,0
1581631903.643,46.387,18.555,13.672,28.809,0.0,0
1581631903.647,30.762,14.648,16.113,28.809,0.0,0
1581631903.651,26.855,12.695,18.066,31.25,0.0,0
1581631903.654,30.273000000000003,18.066,15.137,27.832,0.0,0
1581631903.658,34.18,17.578,14.648,18.555,0.0,0
1581631903.6620002,38.574,15.137,17.09,22.949,0.0,0
1581631903.666,26.855,13.672,17.09,23.438,0.0,0
1581631903.67,28.32,14.648,18.066,20.996,0.0,0
1581631903.674,41.504,22.949,19.043,18.066,0.0,0
1581631903.678,36.133,26.367,14.648,16.113,0.0,0
1581631903.681,25.879,27.344,11.719,26.855,0.0,0
1581631903.685,29.297,28.32,13.184,24.414,0.0,0
1581631903.689,31.25,25.879,14.16,14.648,0.0,0
1581631903.6929998,26.855,22.949,14.16,14.648,0.0,0
1581631903.697,23.438,19.531,15.625,14.16,0.0,0
1581631903.699,25.391,17.578,16.113,17.578,0.0,0
1581631903.7029998,28.32,18.555,12.207,17.09,0.0,0
1581631903.707,34.668,17.578,11.23,17.578,0.0,0
1581631903.711,31.25,16.113,15.625,21.484,0.0,0
1581631903.715,22.949,20.508000000000006,20.02,28.32,0.0,0
1581631903.719,33.203,23.926,20.508000000000006,28.809,0.0,0
1581631903.7229998,30.273000000000003,25.391,16.602,24.414,0.0,0
1581631903.726,23.926,26.367,14.648,26.855,0.0,0
1581631903.73,31.738000000000003,25.391,14.648,19.043,0.0,0
1581631903.734,30.273000000000003,24.902,12.695,17.09,0.0,0
1581631903.738,35.645,22.949,12.207,24.902,0.0,0
1581631903.742,37.598,24.414,15.137,31.25,0.0,0
1581631903.744,36.133,25.391,17.09,34.668,0.0,0
1581631903.748,34.18,25.391,16.602,25.391,0.0,0
1581631903.752,41.01600000000001,28.809,15.625,22.461,0.0,0
1581631903.756,41.504,28.32,16.602,28.32,0.0,0
1581631903.76,28.32,27.832,16.113,30.762,0.0,0
1581631903.764,27.832,29.297,15.137,40.527,0.0,0
1581631903.768,28.32,30.273000000000003,14.648,31.25,0.0,0
1581631903.771,26.855,32.227,11.719,18.066,0.0,0
1581631903.775,23.926,31.25,9.277,25.391,0.0,0
1581631903.779,20.02,28.32,11.719,26.855,0.0,0
1581631903.783,27.832,26.855,13.184,23.926,0.0,0
1581631903.7870002,32.227,25.879,12.207,25.879,0.0,0
1581631903.789,27.344,25.391,14.648,29.785,0.0,0
1581631903.793,28.32,25.879,15.137,27.832,0.0,0
1581631903.7970002,41.992,25.391,14.648,23.926,0.0,0
1581631903.801,41.01600000000001,29.785,12.207,20.996,0.0,0
1581631903.805,38.574,32.715,12.207,26.367,0.0,0
1581631903.809,36.621,31.738000000000003,11.719,32.715,0.0,0
1581631903.813,37.109,29.785,12.207,30.762,0.0,0
1581631903.816,33.691,28.809,14.648,31.25,0.0,0
1581631903.82,24.902,28.32,13.672,23.438,0.0,0
1581631903.824,28.809,28.32,10.742,17.578,0.0,0
1581631903.8279998,34.18,29.297,10.742,27.344,0.0,0
1581631903.832,36.621,27.832,11.719,21.97300000000001,0.0,0
1581631903.834,29.785,25.391,12.207,18.066,0.0,0
1581631903.8379998,21.97300000000001,24.902,13.184,20.02,0.0,0
1581631903.842,25.879,23.926,14.648,14.648,0.0,0
1581631903.846,19.531,19.531,14.16,12.207,0.0,0
1581631903.85,15.625,22.949,12.207,19.531,0.0,0
1581631903.854,27.344,28.32,11.23,16.602,0.0,0
1581631903.8579998,26.367,28.809,8.789,4.883,0.0,0
1581631903.861,22.461,26.855,9.277,2.93,0.0,0
1581631903.865,23.926,23.438,8.789,6.836,0.0,0
1581631903.869,23.438,22.461,7.812,12.207,0.0,0
1581631903.873,21.484,22.461,11.23,19.043,0.0,0
1581631903.877,23.926,23.438,14.16,22.949,0.0,0
1581631903.879,29.297,26.855,12.695,19.043,0.0,0
1581631903.883,36.621,23.438,12.207,18.555,0.0,0
1581631903.887,33.691,20.508000000000006,10.742,18.066,0.0,0
1581631903.891,24.414,23.438,9.277,14.648,0.0,0
1581631903.895,37.598,21.484,11.719,20.508000000000006,0.0,0
1581631903.899,46.875,22.949,12.207,20.508000000000006,0.0,0
1581631903.903,42.969,29.297,10.254,19.531,0.0,0
1581631903.906,34.18,28.809,10.742,22.949,0.0,0
1581631903.91,29.297,25.879,10.742,22.949,0.0,0
1581631903.914,30.762,25.879,8.301,18.555,0.0,0
1581631903.918,26.367,30.273000000000003,7.812,18.555,0.0,0
1581631903.9220002,27.344,28.32,11.23,18.555,0.0,0
1581631903.939,39.551,27.344,10.254,12.695,0.0,0
1581631903.9429998,43.457,27.832,8.789,7.324,0.0,0
1581631903.947,26.855,19.531,9.277,15.137,0.0,0
1581631903.951,20.996,19.531,9.766,23.438,0.0,0
1581631903.955,28.809,24.902,12.207,22.461,0.0,0
1581631903.959,31.738000000000003,26.855,14.648,22.461,0.0,0
1581631903.9629998,32.227,27.832,12.207,15.625,0.0,0
1581631903.966,26.855,29.785,10.254,15.625,0.0,0
1581631903.97,31.738000000000003,30.273000000000003,13.184,20.508000000000006,0.0,0
1581631903.974,39.062,28.32,13.672,20.996,0.0,0
1581631903.978,33.203,25.391,14.16,25.879,0.0,0
1581631903.982,36.621,23.438,14.648,28.809,0.0,0
1581631903.984,36.621,24.902,15.625,29.785,0.0,0
1581631903.988,35.645,23.926,15.137,22.949,0.0,0
1581631903.992,34.18,24.414,16.113,23.438,0.0,0
1581631903.996,25.391,25.391,17.578,31.738000000000003,0.0,0
1581631904.0,28.809,24.902,16.113,27.832,0.0,0
1581631904.004,34.18,24.414,16.113,21.484,0.0,0
1581631904.008,36.133,24.902,14.648,12.695,0.0,0
1581631904.0110002,35.156,22.949,12.695,12.695,0.0,0
1581631904.015,26.367,22.461,17.09,21.484,0.0,0
1581631904.019,32.715,23.438,17.09,17.578,0.0,0
1581631904.0229998,34.18,18.066,13.184,10.254,0.0,0
1581631904.0270002,21.97300000000001,18.555,15.625,13.672,0.0,0
1581631904.029,12.207,20.996,14.16,13.672,0.0,0
1581631904.033,16.113,19.531,13.672,11.23,0.0,0
1581631904.0370002,24.414,24.414,16.602,20.508000000000006,0.0,0
1581631904.041,29.297,25.391,18.066,19.043,0.0,0
1581631904.045,26.855,23.438,16.113,11.719,0.0,0
1581631904.049,27.832,26.855,16.602,15.625,0.0,0
1581631904.053,26.855,27.344,18.066,13.184,0.0,0
1581631904.056,26.855,22.949,17.578,17.09,0.0,0
1581631904.06,37.109,22.949,18.555,22.461,0.0,0
1581631904.064,32.227,24.902,16.602,18.066,0.0,0
1581631904.0679998,30.273000000000003,22.461,15.137,20.02,0.0,0
1581631904.072,39.062,22.949,17.09,23.438,0.0,0
1581631904.074,34.18,21.97300000000001,16.602,17.578,0.0,0
1581631904.0779998,30.273000000000003,20.996,16.113,18.555,0.0,0
1581631904.082,32.715,20.02,16.602,26.367,0.0,0
1581631904.086,39.062,19.043,16.602,20.996,0.0,0
1581631904.09,30.762,21.97300000000001,15.137,15.137,0.0,0
1581631904.094,20.02,20.508000000000006,12.207,18.066,0.0,0
1581631904.0979998,17.09,20.996,8.789,13.672,0.0,0
1581631904.101,19.531,22.949,6.348,6.348,0.0,0
1581631904.105,31.25,18.555,9.277,9.277,0.0,0
1581631904.109,24.902,14.648,12.207,6.836,0.0,0
1581631904.113,21.97300000000001,18.555,8.789,6.348,0.0,0
1581631904.117,28.809,25.879,10.254,8.301,0.0,0
1581631904.119,20.508000000000006,23.926,13.672,1.953,0.0,0
1581631904.123,17.578,21.97300000000001,12.695,9.277,0.0,0
1581631904.127,28.809,21.97300000000001,14.648,14.648,0.0,0
1581631904.131,35.645,20.996,17.09,13.184,0.0,0
1581631904.135,30.273000000000003,23.926,17.09,17.578,0.0,0
1581631904.139,35.156,23.438,19.043,12.207,0.0,0
1581631904.143,32.227,20.02,21.484,16.602,0.0,0
1581631904.146,35.156,19.531,21.484,24.902,0.0,0
1581631904.15,38.574,21.97300000000001,20.02,24.414,0.0,0
1581631904.154,32.715,19.531,16.602,19.531,0.0,0
1581631904.158,31.738000000000003,21.484,17.09,17.578,0.0,0
1581631904.1620002,27.832,20.996,20.508000000000006,26.855,0.0,0
1581631904.164,33.691,16.602,20.02,27.832,0.0,0
1581631904.168,31.738000000000003,17.578,20.02,21.97300000000001,0.0,0
1581631904.1720002,16.113,19.043,20.508000000000006,22.949,0.0,0
1581631904.176,12.695,21.97300000000001,20.02,20.996,0.0,0
1581631904.18,18.066,23.926,21.484,18.066,0.0,0
1581631904.184,19.043,18.555,21.97300000000001,19.531,0.0,0
1581631904.188,26.855,18.555,19.043,20.508000000000006,0.0,0
1581631904.191,31.25,20.996,18.555,15.137,0.0,0
1581631904.195,20.02,19.531,13.672,11.23,0.0,0
1581631904.199,11.23,22.461,10.742,8.301,0.0,0
1581631904.2029998,21.484,24.414,15.137,9.766,0.0,0
1581631904.207,29.297,24.902,13.672,13.672,0.0,0
1581631904.209,20.996,23.438,15.137,18.066,0.0,0
1581631904.2129998,17.09,22.461,17.09,18.555,0.0,0
1581631904.217,31.25,23.926,15.625,11.719,0.0,0
1581631904.221,34.668,26.855,17.578,12.207,0.0,0
1581631904.225,30.273000000000003,25.879,16.113,20.508000000000006,0.0,0
1581631904.229,33.691,25.391,11.719,22.949,0.0,0
1581631904.2329998,40.039,25.879,13.672,23.438,0.0,0
1581631904.236,34.668,23.438,14.648,20.996,0.0,0
1581631904.24,29.785,20.508000000000006,11.719,22.461,0.0,0
1581631904.244,40.039,21.97300000000001,14.16,25.391,0.0,0
1581631904.248,38.086,22.949,15.137,16.113,0.0,0
1581631904.252,30.273000000000003,21.97300000000001,13.672,15.625,0.0,0
1581631904.254,26.367,20.508000000000006,15.137,18.066,0.0,0
1581631904.258,32.715,21.484,18.066,18.066,0.0,0
1581631904.262,47.852,21.484,15.137,15.137,0.0,0
1581631904.266,42.48,20.02,13.184,9.277,0.0,0
1581631904.27,30.273000000000003,21.97300000000001,17.578,20.02,0.0,0
1581631904.274,32.715,26.855,17.578,21.97300000000001,0.0,0
1581631904.278,35.645,24.414,17.578,21.484,0.0,0
1581631904.281,27.344,20.508000000000006,15.625,22.461,0.0,0
1581631904.285,28.32,21.97300000000001,12.207,10.254,0.0,0
1581631904.289,35.156,25.391,11.719,11.719,0.0,0
1581631904.293,38.574,24.414,12.207,14.16,0.0,0
1581631904.2970002,30.762,20.996,16.602,9.766,0.0,0
1581631904.313,25.391,23.438,20.996,17.578,0.0,0
1581631904.3170002,21.97300000000001,22.949,20.996,23.926,0.0,0
1581631904.321,23.926,20.996,20.508000000000006,26.855,0.0,0
1581631904.325,32.715,23.438,18.555,24.414,0.0,0
1581631904.329,41.01600000000001,23.438,19.043,27.832,0.0,0
1581631904.333,44.434,21.97300000000001,20.996,31.25,0.0,0
1581631904.337,41.01600000000001,22.949,20.508000000000006,32.715,0.0,0
1581631904.34,37.598,24.414,20.508000000000006,33.691,0.0,0
1581631904.344,46.387,24.902,19.043,29.297,0.0,0
1581631904.3479998,45.898,25.391,14.16,30.762,0.0,0
1581631904.3520002,33.203,22.949,16.602,38.574,0.0,0
1581631904.356,29.785,21.484,19.531,28.32,0.0,0
1581631904.3579998,38.574,23.926,16.602,17.09,0.0,0
1581631904.3620002,35.156,29.785,15.625,14.16,0.0,0
1581631904.3660002,26.367,27.832,15.137,13.184,0.0,0
1581631904.37,17.578,22.949,16.113,15.625,0.0,0
1581631904.3739998,12.695,23.438,16.602,18.066,0.0,0
1581631904.3779998,23.438,24.902,18.555,13.672,0.0,0
