timestamps,TP9,AF7,AF8,TP10,Right AUX,Marker0
1555964234.268,9.766,31.738,-38.574,7.812,10.254,0
1555964234.272,-4.395,35.645,-59.082,26.855,5.371,0
1555964234.276,-4.883,32.227,-37.109,22.461,46.387,0
1555964234.280,11.719,29.297,-6.836,5.371,69.336,0
1555964234.284,15.625,33.691,-25.879,17.090,48.828,0
1555964234.288,6.348,38.086,-69.824,33.691,-2.930,0
1555964234.292,2.930,26.855,-35.156,-4.883,12.207,0
1555964234.295,25.391,13.184,21.484,-7.324,26.367,0
1555964234.299,34.180,16.113,-1.465,22.461,-1.953,0
1555964234.303,12.207,24.414,-63.477,21.973,42.969,0
1555964234.307,1.465,29.297,-28.320,25.391,68.848,0
1555964234.311,9.277,30.762,30.762,17.578,52.246,0
1555964234.313,25.391,32.227,3.418,21.484,40.039,0
1555964234.317,-0.488,26.855,-17.090,26.855,81.055,0
1555964234.321,-25.879,18.555,-25.879,13.672,27.832,0
1555964234.325,-6.836,12.695,-9.277,-0.488,-33.691,0
1555964234.329,6.348,11.230,11.230,5.859,37.109,0
1555964234.333,-3.418,16.113,-8.789,2.441,96.191,0
1555964234.337,-13.184,22.461,-31.250,-4.883,43.945,0
1555964234.340,2.930,26.367,8.301,-4.395,28.320,0
1555964234.344,27.832,26.367,5.371,2.930,63.477,0
1555964234.348,12.695,20.996,-34.668,8.789,8.789,0
1555964234.352,-16.113,17.578,0.977,-0.488,-12.695,0
1555964234.356,-10.742,16.113,-6.348,-3.906,4.395,0
1555964234.358,13.672,16.602,19.531,1.465,40.527,0
1555964234.362,25.879,20.508,42.969,1.953,45.898,0
1555964234.366,8.789,19.531,8.789,3.906,13.672,0
1555964234.370,-5.371,22.949,-2.441,9.766,28.320,0
1555964234.374,11.719,27.344,11.230,20.996,35.156,0
1555964234.378,22.949,22.949,9.277,28.320,5.859,0
1555964234.382,4.395,17.578,-11.719,32.227,-36.133,0
1555964234.385,-2.441,11.719,-6.836,28.809,-31.250,0
1555964234.389,12.695,11.719,-6.348,35.156,27.832,0
1555964234.393,22.949,14.648,32.227,30.762,15.625,0
1555964234.397,12.695,15.625,43.457,11.719,-2.441,0
1555964234.401,-1.953,17.090,-18.066,10.742,19.531,0
1555964234.403,2.930,16.602,-26.367,7.812,-0.977,0
1555964234.407,15.625,11.719,21.973,11.719,8.301,0
1555964234.411,12.207,10.742,9.766,26.855,-0.977,0
1555964234.415,-9.766,11.230,-29.297,33.691,13.672,0
1555964234.419,-1.465,12.207,-11.719,16.113,13.184,0
1555964234.423,24.902,12.207,17.578,19.531,1.465,0
1555964234.427,23.926,15.625,41.504,15.137,62.012,0
1555964234.430,9.277,18.066,-18.066,-9.766,22.461,0
1555964234.434,-3.906,18.066,-35.156,13.184,-8.301,0
1555964234.438,8.789,17.578,56.641,29.785,31.250,0
1555964234.442,21.973,18.555,61.035,18.555,40.527,0
1555964234.446,14.648,17.090,24.414,24.414,24.414,0
1555964234.448,4.883,18.555,8.301,24.414,1.465,0
1555964234.452,6.348,16.602,29.297,18.066,-15.137,0
1555964234.456,30.273,21.484,47.363,33.691,14.160,0
1555964234.460,35.156,31.250,31.250,17.578,50.781,0
1555964234.464,7.324,30.762,1.953,21.484,15.137,0
1555964234.468,23.926,27.344,2.441,57.617,-29.297,0
1555964234.472,44.434,23.926,52.734,48.340,42.969,0
1555964234.475,23.438,25.391,23.438,23.926,58.105,0
1555964234.479,6.348,23.438,19.531,32.227,48.340,0
1555964234.483,13.184,19.531,64.453,39.062,33.691,0
1555964234.487,30.273,15.625,65.918,37.109,11.230,0
1555964234.491,24.902,16.113,72.754,38.574,49.805,0
1555964234.493,-7.324,20.020,65.918,30.762,61.523,0
1555964234.497,-3.418,24.902,43.457,39.062,17.090,0
1555964234.501,28.320,23.926,43.945,43.945,-25.391,0
1555964234.505,39.062,18.066,76.172,44.434,22.949,0
1555964234.509,25.879,20.996,63.477,44.434,31.250,0
1555964234.513,8.301,31.738,31.250,43.457,2.930,0
1555964234.517,21.973,31.250,41.992,49.805,25.879,0
1555964234.520,38.574,18.555,43.945,45.898,9.277,0
1555964234.524,21.973,24.414,64.453,8.789,-5.859,0
1555964234.528,3.418,27.344,58.594,0.488,20.020,0
1555964234.532,20.508,13.184,56.641,29.297,-23.926,0
1555964234.536,47.363,10.742,95.703,28.320,-18.066,0
1555964234.538,45.898,21.484,109.375,22.949,53.711,0
1555964234.542,18.066,26.855,64.941,14.648,55.664,0
1555964234.546,15.625,26.367,38.086,25.391,17.090,0
1555964234.550,33.691,17.578,58.105,28.320,10.742,0
1555964234.554,36.621,11.230,63.965,32.715,23.438,0
1555964234.558,22.949,22.949,26.367,37.109,41.504,0
1555964234.562,15.625,29.785,-15.625,38.086,-9.277,0
1555964234.565,32.227,21.484,60.059,29.297,13.184,0
1555964234.569,41.992,22.949,123.535,16.602,63.965,0
1555964234.573,29.785,36.621,64.941,48.340,9.766,0
1555964234.577,19.531,35.645,37.109,68.848,-6.836,0
1555964234.581,27.344,23.438,68.848,44.922,73.242,0
1555964234.598,41.992,17.578,96.191,30.762,94.238,0
1555964234.602,50.781,23.926,56.641,44.922,16.602,0
1555964234.606,27.832,27.832,31.738,57.617,23.926,0
1555964234.610,20.020,24.902,63.477,26.367,92.773,0
1555964234.614,29.297,21.484,76.660,17.090,48.340,0
1555964234.618,29.785,17.090,40.039,30.273,20.508,0
1555964234.622,20.996,27.344,15.625,30.762,23.438,0
1555964234.625,5.859,38.574,70.801,27.832,36.621,0
1555964234.629,34.668,27.832,106.445,20.508,63.965,0
1555964234.633,49.805,14.160,75.195,32.227,38.086,0
1555964234.637,28.320,16.113,38.574,47.363,-8.301,0
1555964234.641,17.578,19.043,49.805,43.457,-12.695,0
1555964234.642,20.996,20.508,76.172,33.691,39.551,0
1555964234.646,35.156,23.926,61.523,28.809,-12.207,0
1555964234.650,33.203,25.391,43.457,33.691,-22.949,0
1555964234.654,6.348,27.344,41.992,37.598,1.465,0
1555964234.658,14.648,28.320,60.547,31.250,-36.621,0
1555964234.662,41.992,37.109,57.129,23.438,-73.730,0
1555964234.666,32.227,31.738,47.852,21.484,-41.504,0
1555964234.669,9.277,18.066,47.852,20.996,-23.926,0
1555964234.673,12.207,17.578,51.270,27.344,-24.902,0
1555964234.677,29.297,18.066,43.945,24.414,36.621,0
1555964234.681,27.832,16.602,65.918,18.555,4.395,0
1555964234.685,7.812,23.926,81.543,14.160,20.020,0
1555964234.687,1.465,30.273,38.574,3.418,54.199,0
1555964234.691,16.602,20.996,49.316,-4.395,7.812,0
1555964234.695,23.926,15.137,79.102,-36.133,0.977,0
1555964234.699,11.230,19.531,59.570,-15.625,55.176,0
1555964234.703,-8.301,23.926,19.043,-20.508,33.691,0
1555964234.707,0.977,26.367,29.785,-64.453,-2.930,0
1555964234.711,19.531,22.949,68.848,-5.859,30.762,0
1555964234.714,14.160,18.555,52.734,49.805,30.273,0
1555964234.718,0.488,21.484,2.441,64.941,-43.945,0
1555964234.722,2.930,23.926,24.414,26.367,-32.715,0
1555964234.726,19.531,27.344,103.516,11.719,21.973,0
1555964234.730,27.344,22.461,90.332,40.527,92.773,0
1555964234.732,12.695,9.277,35.645,40.527,75.684,0
1555964234.736,9.766,8.789,47.852,39.062,78.613,0
1555964234.740,28.320,17.578,78.613,30.762,100.098,0
1555964234.744,26.855,24.902,62.500,27.832,27.832,0
1555964234.748,-4.395,23.438,30.762,29.785,18.555,0
1555964234.752,-10.254,25.391,20.508,42.480,3.906,0
1555964234.756,23.926,28.809,66.406,36.621,18.555,0
1555964234.759,46.387,27.344,91.797,31.738,62.988,0
1555964234.763,34.180,27.344,16.113,33.203,40.527,0
1555964234.767,27.344,24.414,27.344,13.672,34.180,0
1555964234.771,41.992,23.438,87.402,37.109,-4.395,0
1555964234.775,49.316,28.320,79.590,71.777,-11.719,0
1555964234.777,31.738,30.273,62.988,55.176,47.363,0
1555964234.781,16.602,33.691,47.852,27.832,42.480,0
1555964234.785,26.855,32.715,56.152,22.461,81.543,0
1555964234.789,45.410,30.273,56.152,39.551,71.777,0
1555964234.793,53.223,37.598,51.270,53.223,24.902,0
1555964234.797,31.738,42.480,28.809,69.336,17.578,0
1555964234.801,17.578,32.715,38.574,68.848,16.113,0
1555964234.804,50.781,27.832,47.363,66.406,-16.602,0
1555964234.808,55.176,29.785,47.852,38.086,-1.953,0
1555964234.812,28.320,38.574,83.008,51.270,11.230,0
1555964234.816,20.508,46.387,73.242,51.270,8.789,0
1555964234.820,37.109,35.645,74.707,34.180,21.973,0
1555964234.822,49.316,34.668,82.031,48.340,9.277,0
1555964234.826,30.762,40.527,63.965,39.062,-13.184,0
1555964234.830,1.953,35.645,53.711,22.949,30.273,0
1555964234.834,16.602,35.645,56.152,36.133,36.133,0
1555964234.838,57.617,41.504,81.055,55.176,5.859,0
1555964234.842,45.898,46.875,63.965,51.758,-10.254,0
1555964234.846,2.930,46.875,29.785,27.832,-46.875,0
1555964234.849,-0.977,38.574,18.066,16.113,-12.207,0
1555964234.853,20.996,26.367,74.707,12.207,65.430,0
1555964234.857,20.996,33.691,112.793,10.742,77.148,0
1555964234.861,3.906,48.828,47.363,30.762,33.203,0
1555964234.865,1.465,46.875,35.156,21.484,29.297,0
1555964234.867,19.531,33.691,85.938,23.926,47.363,0
1555964234.871,33.691,30.273,94.238,34.180,47.852,0
1555964234.875,19.531,41.992,40.527,24.414,26.855,0
1555964234.879,-6.348,46.875,38.574,28.320,27.344,0
1555964234.883,10.254,37.109,70.312,20.996,12.207,0
1555964234.887,37.598,35.156,73.730,20.020,7.324,0
1555964234.891,13.184,43.457,32.715,20.508,-18.066,0
1555964234.894,-7.812,38.086,14.648,8.301,-13.672,0
1555964234.898,2.441,28.320,81.055,0.977,15.137,0
1555964234.902,22.461,29.785,105.469,5.371,48.828,0
1555964234.906,24.902,35.156,74.707,30.762,62.500,0
1555964234.910,13.672,43.945,53.223,32.715,68.359,0
1555964234.912,14.648,39.551,57.129,22.949,54.199,0
1555964234.916,32.715,24.414,60.059,18.555,-16.113,0
1555964234.920,44.922,26.855,59.570,27.832,-5.371,0
1555964234.924,13.184,29.785,39.551,3.418,5.859,0
1555964234.928,-4.883,25.391,45.410,-5.859,51.270,0
1555964234.932,21.484,33.203,43.945,28.809,77.148,0
1555964234.936,31.250,33.691,27.832,28.809,-19.043,0
1555964234.939,8.301,32.227,66.406,5.859,10.742,0
1555964234.943,-11.719,34.668,76.660,-14.160,71.289,0
1555964234.947,0.488,36.133,54.688,-9.766,37.109,0
1555964234.951,25.391,43.457,49.805,19.043,28.320,0
1555964234.955,20.020,42.480,72.266,30.762,59.082,0
1555964234.972,-9.766,32.715,70.801,26.367,93.262,0
1555964234.976,-12.207,37.109,45.410,20.020,98.633,0
1555964234.980,12.207,41.504,60.547,0.977,46.387,0
1555964234.984,8.789,41.016,91.797,-5.859,75.195,0
1555964234.988,-21.973,44.434,60.547,-1.465,73.242,0
1555964234.992,-42.480,45.410,20.508,-29.297,46.387,0
1555964234.996,-41.992,49.316,63.477,-42.480,53.711,0
1555964234.999,-62.012,59.082,139.160,-62.012,59.082,0
1555964235.003,-109.863,71.777,103.516,-122.070,13.184,0
1555964235.007,-151.855,81.055,91.309,-145.996,13.672,0
1555964235.011,-172.852,87.891,137.695,-190.918,37.109,0
1555964235.015,-194.336,91.309,168.457,-219.238,12.207,0
1555964235.017,-243.652,98.145,169.434,-224.609,49.805,0
1555964235.021,-300.293,113.770,153.320,-273.926,55.664,0
1555964235.025,-298.828,120.605,183.594,-311.523,19.531,0
1555964235.029,-301.758,110.840,225.586,-323.242,59.570,0
1555964235.033,-334.961,111.816,199.707,-330.566,76.172,0
1555964235.037,-349.121,125.977,168.945,-336.426,64.453,0
1555964235.041,-349.609,124.023,196.289,-349.609,58.594,0
1555964235.044,-335.449,112.305,236.816,-357.910,20.996,0
1555964235.048,-320.801,115.234,231.445,-349.609,10.254,0
1555964235.052,-327.148,118.164,174.316,-345.215,71.777,0
1555964235.056,-317.383,110.840,189.453,-342.773,33.203,0
1555964235.060,-280.273,101.074,237.305,-312.988,-0.488,0
1555964235.062,-248.047,95.215,217.773,-274.414,26.367,0
1555964235.066,-238.770,83.008,177.734,-237.305,-56.641,0
1555964235.070,-228.027,71.289,177.734,-218.262,-60.059,0
1555964235.074,-182.129,56.641,201.172,-191.406,-2.930,0
1555964235.078,-134.277,41.016,191.895,-157.715,15.625,0
1555964235.082,-116.211,36.621,139.160,-121.094,-30.762,0
1555964235.086,-106.934,26.367,135.254,-98.145,10.742,0
1555964235.089,-77.637,14.160,165.527,-90.820,47.363,0
1555964235.093,-30.762,15.625,118.164,-62.012,8.301,0
1555964235.097,-10.742,13.672,73.242,-29.297,6.836,0
1555964235.101,-22.461,5.859,101.562,-3.906,-15.625,0
1555964235.105,5.371,6.836,102.051,20.508,-11.719,0
1555964235.107,57.617,0.977,99.121,41.016,-22.461,0
1555964235.111,79.102,-0.488,93.750,45.898,-13.672,0
1555964235.115,59.082,11.719,57.129,54.199,44.922,0
1555964235.119,66.406,6.836,38.574,85.449,36.133,0
1555964235.123,95.703,-3.906,49.316,78.125,20.508,0
1555964235.127,113.770,-6.348,24.902,66.406,35.156,0
1555964235.131,113.281,-9.766,1.465,105.957,44.434,0
1555964235.134,108.398,-12.207,6.836,147.461,36.133,0
1555964235.138,133.789,-8.789,-21.484,162.109,0.977,0
1555964235.142,146.973,-7.812,9.277,144.043,-2.930,0
1555964235.146,128.418,-5.371,28.320,135.742,-0.488,0
1555964235.150,121.094,0.977,-22.949,155.273,38.574,0
1555964235.152,130.859,3.418,-27.344,158.203,32.715,0
1555964235.156,141.113,1.465,7.324,129.883,-9.766,0
1555964235.160,138.184,6.836,0.977,135.254,-4.395,0
1555964235.164,119.141,10.254,-46.875,154.297,-7.324,0
1555964235.168,129.883,4.883,-33.203,152.832,25.391,0
1555964235.172,148.438,2.441,-5.371,144.043,54.199,0
1555964235.176,143.555,3.906,-24.414,96.191,9.766,0
1555964235.179,130.371,7.324,-72.754,124.512,-14.648,0
1555964235.183,121.582,8.301,-66.406,160.645,23.438,0
1555964235.187,126.953,6.836,18.066,150.879,11.719,0
1555964235.191,136.719,12.695,28.320,154.785,16.113,0
1555964235.195,120.117,20.508,-22.461,143.066,12.207,0
1555964235.198,107.422,22.949,-35.156,106.445,26.367,0
1555964235.202,111.328,20.996,-7.812,100.586,45.898,0
1555964235.206,126.953,14.648,7.324,134.766,36.133,0
1555964235.210,127.930,17.578,-8.789,141.602,51.270,0
1555964235.214,102.051,14.648,-38.086,127.441,35.645,0
1555964235.218,101.562,8.789,-29.785,126.953,92.285,0
1555964235.222,123.047,14.648,-3.418,125.488,58.105,0
1555964235.225,117.188,20.020,-35.156,125.000,21.484,0
1555964235.229,96.680,22.949,-42.969,108.398,4.883,0
1555964235.233,86.914,23.926,22.461,98.145,0.977,0
1555964235.237,104.492,21.484,20.996,119.141,31.738,0
1555964235.241,115.234,17.090,-12.695,104.980,-27.344,0
1555964235.243,98.145,19.043,-16.113,99.609,5.371,0
1555964235.247,88.379,26.855,-23.926,131.348,36.621,0
1555964235.251,104.980,25.879,-20.508,121.094,24.902,0
1555964235.255,110.352,14.648,-19.043,101.562,0.000,0
1555964235.259,100.098,13.672,-25.879,112.305,-8.789,0
1555964235.263,76.660,17.578,-46.387,104.004,25.879,0
1555964235.267,78.613,21.973,-50.781,96.191,32.227,0
1555964235.270,103.516,21.973,-25.391,100.586,32.227,0
1555964235.274,89.355,20.020,7.812,90.332,38.574,0
1555964235.278,78.613,27.344,-6.348,90.332,64.941,0
1555964235.282,83.984,26.855,-16.113,72.266,75.195,0
1555964235.286,92.285,16.602,6.836,80.078,65.430,0
1555964235.288,90.332,10.742,14.160,102.051,22.949,0
1555964235.292,76.172,18.066,-10.254,99.121,-33.203,0
1555964235.296,65.918,22.949,-20.508,92.773,-53.711,0
1555964235.300,75.195,13.672,18.555,83.008,-42.480,0
1555964235.304,78.613,13.184,35.156,80.566,-16.113,0
1555964235.308,70.312,26.855,-3.418,88.379,9.766,0
1555964235.312,53.711,32.227,-40.039,96.680,46.875,0
1555964235.315,50.781,24.414,3.906,71.777,3.906,0
1555964235.319,82.520,23.926,76.660,62.500,46.875,0
1555964235.323,76.172,22.461,28.809,81.543,70.801,0
1555964235.327,28.809,11.230,-11.719,83.008,63.965,0
1555964235.331,47.363,12.207,22.949,83.496,72.266,0
1555964235.348,78.613,19.531,41.992,93.750,-12.207,0
1555964235.352,68.848,29.297,17.578,83.008,10.254,0
1555964235.356,39.551,35.645,-14.160,74.707,65.918,0
1555964235.360,33.203,30.762,4.883,68.359,44.434,0
1555964235.364,58.594,32.227,28.809,59.082,40.039,0
1555964235.368,62.012,33.203,-10.254,51.270,29.297,0
1555964235.372,39.551,30.762,-30.762,48.340,45.410,0
1555964235.375,33.203,26.855,29.785,50.293,63.965,0
1555964235.379,48.828,24.902,55.664,58.594,37.109,0
1555964235.383,64.453,26.367,39.551,56.152,1.465,0
1555964235.387,47.363,30.762,20.020,60.059,11.719,0
1555964235.391,21.484,34.180,9.766,67.871,31.250,0
1555964235.393,29.785,28.809,23.438,59.570,23.438,0
1555964235.397,37.598,22.949,28.809,53.711,26.367,0
1555964235.401,23.438,31.250,8.301,39.062,3.906,0
1555964235.405,1.465,40.039,-6.836,33.691,-17.578,0
1555964235.409,15.625,32.715,6.836,41.992,23.926,0
1555964235.413,41.992,20.508,18.066,47.363,12.207,0
1555964235.417,30.762,19.043,12.207,22.461,49.316,0
1555964235.420,11.230,30.273,-3.906,5.371,13.672,0
1555964235.424,14.160,33.203,2.441,26.367,-56.641,0
1555964235.428,45.410,26.367,-8.789,41.992,-5.859,0
1555964235.432,54.199,25.879,26.855,39.062,49.316,0
1555964235.436,32.227,36.133,52.246,47.852,58.594,0
1555964235.439,28.320,37.598,12.695,56.641,48.340,0
1555964235.443,41.992,25.879,19.531,53.223,74.219,0
1555964235.447,38.574,20.020,31.738,45.898,49.805,0
1555964235.451,30.273,29.785,8.301,52.246,10.254,0
1555964235.455,26.855,40.039,-9.277,40.039,72.266,0
1555964235.459,34.668,40.039,4.395,42.480,52.734,0
1555964235.463,64.453,39.551,46.387,55.664,53.711,0
1555964235.466,49.316,32.227,25.391,33.203,9.766,0
1555964235.470,18.066,28.809,-30.762,35.156,2.441,0
1555964235.474,23.926,28.809,-18.555,28.809,40.527,0
1555964235.478,37.598,21.973,50.293,39.551,-29.785,0
1555964235.482,38.574,28.809,48.340,48.828,-35.156,0
1555964235.483,19.043,34.668,-3.418,40.527,-48.828,0
1555964235.487,16.113,32.715,12.695,38.086,-17.578,0
1555964235.491,34.180,33.691,59.082,43.945,60.059,0
1555964235.495,38.086,34.180,45.898,42.969,47.363,0
1555964235.499,26.855,35.156,6.348,40.039,38.574,0
1555964235.503,20.996,30.762,-13.184,52.246,51.270,0
1555964235.507,43.457,25.879,21.973,61.523,34.668,0
1555964235.510,59.082,24.902,54.199,63.965,39.062,0
1555964235.514,30.273,29.785,-20.020,63.965,3.906,0
1555964235.518,16.602,38.574,-12.207,48.340,-19.531,0
1555964235.522,29.297,33.691,52.246,35.645,21.973,0
1555964235.526,43.945,27.832,33.203,34.180,36.621,0
1555964235.528,36.133,30.273,35.645,59.570,22.461,0
1555964235.532,7.812,27.344,39.551,62.012,11.230,0
1555964235.536,9.766,21.973,39.551,45.410,28.809,0
1555964235.540,39.062,20.996,40.527,34.180,50.293,0
1555964235.544,38.086,27.832,26.367,24.902,-4.395,0
1555964235.548,13.672,28.320,7.812,47.363,10.742,0
1555964235.552,18.555,28.809,25.391,46.387,74.219,0
1555964235.555,52.246,37.109,22.949,39.062,43.945,0
1555964235.559,68.359,35.645,12.695,47.852,72.266,0
1555964235.563,39.551,33.691,47.363,43.457,90.332,0
1555964235.567,31.250,40.039,42.969,55.176,112.793,0
1555964235.571,56.641,36.133,38.086,57.617,42.969,0
1555964235.573,48.340,23.926,55.176,46.875,-21.484,0
1555964235.577,26.855,23.438,27.344,30.273,1.465,0
1555964235.581,20.996,34.668,-7.324,28.809,-79.102,0
1555964235.585,31.738,40.039,48.828,17.578,-15.625,0
1555964235.589,40.527,25.391,69.336,-2.441,71.777,0
1555964235.593,46.387,22.949,25.391,21.973,37.598,0
1555964235.597,40.039,35.156,14.160,34.668,30.762,0
1555964235.600,32.715,41.992,-1.953,49.805,1.953,0
1555964235.604,37.598,41.016,55.176,60.059,50.781,0
1555964235.608,30.762,40.527,101.562,63.965,78.613,0
1555964235.612,10.254,40.039,22.949,41.016,12.695,0
1555964235.616,1.953,32.715,-0.488,21.973,12.695,0
1555964235.618,22.949,25.391,39.551,40.039,8.789,0
1555964235.622,36.133,27.344,54.199,49.316,-2.441,0
1555964235.626,19.531,40.039,17.090,41.504,25.879,0
1555964235.630,1.953,45.898,1.953,30.273,44.922,0
1555964235.634,28.809,34.668,25.879,42.480,4.883,0
1555964235.638,56.152,32.227,32.227,47.852,-32.715,0
1555964235.642,45.898,42.969,8.789,45.410,29.297,0
1555964235.645,12.207,38.574,-24.414,31.250,21.484,0
1555964235.649,2.441,31.738,36.133,18.066,21.973,0
1555964235.653,29.785,32.715,68.848,5.371,61.035,0
1555964235.657,27.344,30.273,33.203,-20.508,-2.930,0
1555964235.661,0.977,28.809,19.531,6.836,-23.438,0
1555964235.663,6.836,33.691,29.785,28.809,-10.742,0
1555964235.667,33.203,35.156,46.387,5.371,5.371,0
1555964235.671,33.203,20.508,50.293,10.254,24.414,0
1555964235.675,10.742,22.949,43.945,42.969,23.926,0
1555964235.679,3.906,47.363,46.875,36.133,30.762,0
1555964235.683,25.879,46.387,45.410,29.785,17.578,0
1555964235.687,37.109,34.668,20.020,46.875,13.184,0
1555964235.690,21.973,44.434,8.301,41.992,6.348,0
1555964235.694,3.906,48.340,38.574,25.879,0.977,0
1555964235.698,11.230,42.969,55.176,10.254,18.066,0
1555964235.702,12.695,49.805,59.570,2.930,23.926,0
1555964235.706,-8.789,52.734,61.035,-13.672,43.945,0
1555964235.723,-29.785,58.594,47.363,-23.926,-15.137,0
1555964235.727,-49.805,61.035,59.570,-33.691,-27.344,0
1555964235.731,-62.500,59.082,95.215,-61.523,32.227,0
1555964235.735,-94.727,67.383,104.980,-98.145,-3.906,0
1555964235.739,-142.578,79.590,100.586,-145.508,-5.371,0
1555964235.743,-169.922,92.285,79.102,-177.246,41.016,0
1555964235.747,-182.617,102.539,93.262,-203.613,-1.953,0
1555964235.750,-215.820,103.027,171.387,-228.516,7.324,0
1555964235.754,-250.977,100.098,161.621,-246.094,35.645,0
1555964235.758,-275.391,109.375,134.277,-288.574,-28.320,0
1555964235.762,-281.738,114.746,158.691,-305.176,-3.418,0
1555964235.766,-275.391,112.793,175.293,-308.594,45.898,0
1555964235.768,-290.527,112.305,164.062,-327.637,40.039,0
1555964235.772,-302.734,112.793,142.578,-304.688,68.848,0
1555964235.776,-271.484,113.281,156.738,-280.273,52.246,0
1555964235.780,-248.535,111.816,173.828,-283.203,14.160,0
1555964235.784,-251.953,107.422,144.531,-256.348,3.418,0
1555964235.788,-241.211,107.910,94.238,-220.215,-19.043,0
1555964235.792,-213.379,107.910,106.445,-207.031,24.414,0
1555964235.795,-193.848,99.121,153.809,-208.496,42.480,0
1555964235.799,-175.781,78.125,136.719,-210.938,31.250,0
1555964235.803,-164.551,70.312,61.035,-178.223,72.754,0
1555964235.807,-160.156,83.984,70.312,-147.461,56.641,0
1555964235.811,-125.977,87.891,116.211,-136.230,30.762,0
1555964235.813,-77.148,80.078,74.707,-97.168,8.301,0
1555964235.817,-67.383,71.289,16.113,-59.082,-28.320,0
1555964235.821,-62.988,42.480,9.766,-35.156,21.484,0
1555964235.825,-14.648,14.648,38.086,-18.555,48.340,0
1555964235.829,22.949,29.297,15.625,-12.207,-30.273,0
1555964235.833,36.621,36.621,-18.555,2.441,-6.348,0
1555964235.837,41.504,33.691,-27.832,56.152,26.367,0
1555964235.840,51.758,38.086,5.371,81.055,9.766,0
1555964235.844,81.543,31.250,-5.859,69.336,52.734,0
1555964235.848,96.680,23.926,-39.062,99.609,64.453,0
1555964235.852,77.148,17.090,-13.672,102.539,58.594,0
1555964235.856,77.637,-1.953,-21.484,116.699,33.691,0
1555964235.858,111.816,-16.113,-9.277,141.113,10.254,0
1555964235.862,121.582,6.348,1.953,130.859,51.270,0
1555964235.866,110.352,20.996,-26.855,110.840,54.688,0
1555964235.870,104.004,14.648,-32.227,127.930,73.242,0
1555964235.874,118.164,3.418,-30.762,139.648,60.547,0
1555964235.878,134.277,-3.418,-37.598,140.137,14.648,0
1555964235.882,134.766,1.465,-54.688,144.531,-6.836,0
1555964235.885,102.539,3.906,-51.270,122.070,6.836,0
1555964235.889,104.492,5.371,-57.617,130.371,4.883,0
1555964235.893,133.789,0.977,-24.902,131.836,-5.371,0
1555964235.897,110.352,-9.766,3.418,122.559,12.695,0
1555964235.901,93.262,-2.930,-54.199,144.531,19.043,0
1555964235.903,118.652,7.324,-43.945,140.625,37.598,0
1555964235.907,133.301,8.301,4.395,125.977,64.941,0
1555964235.911,111.816,2.441,-22.949,116.699,69.824,0
1555964235.915,85.449,4.883,-84.473,109.863,14.648,0
1555964235.919,88.867,6.348,-67.383,108.887,29.785,0
1555964235.923,109.375,-2.441,-31.738,113.281,53.223,0
1555964235.927,106.445,0.000,-37.109,101.562,-16.113,0
1555964235.930,86.426,9.766,-72.266,82.031,-23.926,0
1555964235.934,74.707,15.137,-79.590,82.520,2.441,0
1555964235.938,85.449,9.766,-1.953,88.867,44.434,0
1555964235.942,97.168,8.301,-6.836,115.723,4.883,0
1555964235.946,83.008,13.184,-47.363,117.188,-3.906,0
1555964235.948,78.613,18.066,-50.781,114.258,56.152,0
1555964235.952,89.844,20.020,-30.762,119.141,15.137,0
1555964235.956,89.355,11.719,-17.578,99.121,8.789,0
1555964235.960,90.820,11.719,-35.645,92.773,20.508,0
1555964235.964,74.219,18.066,-54.688,105.469,-4.883,0
1555964235.968,76.660,20.020,-60.547,93.262,-43.457,0
1555964235.972,99.121,22.461,-25.879,87.891,-26.367,0
1555964235.975,101.562,26.855,-25.391,101.074,90.332,0
1555964235.979,81.543,32.715,-28.320,99.121,146.973,0
1555964235.983,68.848,32.227,-2.930,94.727,84.961,0
1555964235.987,80.566,28.809,-27.344,65.430,-34.180,0
1555964235.991,82.520,30.762,-16.113,65.918,7.812,0
1555964235.993,58.594,27.344,-7.324,84.473,58.105,0
1555964235.997,40.527,24.902,-10.254,81.055,60.547,0
1555964236.001,54.199,32.227,-3.418,57.129,67.383,0
1555964236.005,58.594,34.668,-6.836,30.273,-3.418,0
1555964236.009,30.273,38.574,-11.719,41.016,-40.527,0
1555964236.013,-12.695,36.621,-37.109,21.484,-16.602,0
1555964236.017,-20.508,26.855,-38.086,-9.766,25.391,0
1555964236.020,-0.977,34.668,3.906,2.930,32.715,0
1555964236.024,-23.926,49.805,51.758,-36.133,-19.531,0
1555964236.028,-90.820,53.223,39.062,-74.219,-11.230,0
1555964236.032,-123.535,57.617,39.551,-91.309,19.043,0
1555964236.036,-124.023,67.871,78.613,-137.695,42.480,0
1555964236.038,-145.020,77.148,98.633,-146.973,53.711,0
1555964236.042,-183.594,89.844,52.734,-176.270,9.277,0
1555964236.046,-212.402,94.238,58.594,-219.238,37.598,0
1555964236.050,-219.238,95.215,115.234,-248.535,31.250,0
1555964236.054,-226.562,101.562,121.094,-257.324,16.113,0
1555964236.058,-254.883,108.398,87.402,-239.746,18.555,0
1555964236.062,-260.254,114.746,55.176,-250.488,37.109,0
1555964236.065,-235.840,112.305,104.980,-258.301,77.637,0
1555964236.069,-216.797,105.957,149.902,-224.609,51.270,0
1555964236.073,-201.172,103.027,98.145,-210.938,52.734,0
1555964236.077,-179.199,95.703,64.941,-184.082,72.754,0
1555964236.081,-152.344,83.008,96.191,-144.531,72.266,0
1555964236.098,-123.535,69.336,93.262,-117.676,55.664,0
1555964236.102,-98.633,70.801,34.668,-121.094,12.695,0
1555964236.106,-86.914,70.801,22.461,-98.633,-15.625,0
1555964236.110,-81.055,52.246,48.340,-59.082,16.113,0
1555964236.114,-42.969,38.086,41.016,-37.109,20.508,0
1555964236.118,0.488,46.387,-2.930,-10.254,-4.883,0
1555964236.122,-4.883,53.223,-31.250,-1.953,-3.418,0
1555964236.125,4.883,38.574,0.488,18.066,-52.246,0
1555964236.129,53.223,31.738,43.945,46.387,-2.441,0
1555964236.133,70.801,27.832,11.230,70.312,46.387,0
1555964236.137,47.852,22.461,-21.484,80.566,8.301,0
1555964236.141,41.504,20.020,-15.137,76.172,7.324,1
1555964236.143,75.684,10.742,-20.508,75.684,-35.156,0
1555964236.147,96.680,5.859,-3.418,83.008,18.066,0
1555964236.151,88.379,9.766,-19.043,87.891,62.988,0
1555964236.155,81.543,11.719,-47.852,90.332,8.789,0
1555964236.159,100.586,9.277,-36.621,100.586,26.855,0
1555964236.163,128.906,6.836,-36.133,107.910,24.414,0
1555964236.167,124.512,11.719,-26.367,121.582,30.762,0
1555964236.170,101.074,19.043,-37.598,130.859,39.551,0
1555964236.174,98.633,9.766,-61.523,118.164,-42.480,0
1555964236.178,124.512,6.348,-57.129,117.188,-47.852,0
1555964236.182,133.789,9.766,-16.602,122.559,-12.207,0
1555964236.186,99.121,0.000,-9.277,98.633,-3.906,0
1555964236.188,70.801,-6.348,-57.617,71.777,15.625,0
1555964236.192,75.684,-8.789,-41.992,69.824,34.180,0
1555964236.196,97.168,-9.277,-12.207,92.773,43.945,0
1555964236.200,90.332,0.977,-31.738,115.723,24.902,0
1555964236.204,74.219,6.348,-77.148,115.234,-42.969,0
1555964236.208,104.980,5.859,-62.012,123.047,-11.230,0
1555964236.212,116.699,0.488,-5.371,119.141,62.500,0
1555964236.215,83.496,-2.930,6.348,103.027,59.570,0
1555964236.219,72.266,5.859,-54.199,107.422,58.594,0
1555964236.223,84.961,6.836,-61.035,122.070,64.941,0
1555964236.227,101.074,2.930,10.742,109.375,39.062,0
1555964236.231,88.379,8.301,5.371,90.820,-2.441,0
1555964236.233,54.199,8.789,-17.578,66.895,40.039,0
1555964236.237,55.664,4.395,-13.184,47.363,80.566,0
1555964236.241,71.289,-4.395,-1.465,58.105,37.598,0
1555964236.245,64.453,-9.766,-0.977,74.219,73.242,0
1555964236.249,44.922,-0.977,-40.527,70.312,57.617,0
1555964236.253,41.016,2.441,-61.035,77.148,7.812,0
1555964236.257,67.383,-3.418,-10.254,78.125,49.805,0
1555964236.260,75.684,1.465,18.066,74.707,28.320,0
1555964236.264,56.641,21.484,-42.969,73.242,9.766,0
1555964236.268,42.480,27.832,-24.902,76.172,38.086,0
1555964236.272,52.246,9.277,36.621,87.891,52.734,0
1555964236.276,67.383,-0.977,18.555,89.355,68.848,0
1555964236.278,54.688,4.395,-8.301,84.961,20.020,0
1555964236.282,38.574,18.066,-22.461,86.914,-4.395,0
1555964236.286,42.969,20.508,-8.301,85.449,-12.695,0
1555964236.290,55.176,12.207,16.113,73.242,-6.836,0
1555964236.294,67.871,15.625,2.441,65.430,21.973,0
1555964236.298,63.477,18.066,-32.227,78.125,-9.277,0
1555964236.302,57.617,21.484,-21.973,83.984,-6.348,0
1555964236.305,81.055,34.180,-7.812,73.242,22.461,0
1555964236.309,76.172,27.344,-18.066,67.871,-13.184,0
1555964236.313,45.898,13.672,6.348,70.801,-1.953,0
1555964236.317,35.645,16.602,-11.719,76.660,43.457,0
1555964236.321,59.082,23.926,-13.184,85.449,14.648,0
1555964236.323,74.707,27.344,20.020,97.168,0.488,0
1555964236.327,56.152,22.461,5.859,95.215,-28.809,0
1555964236.331,46.387,21.484,-22.949,87.891,-45.410,0
1555964236.335,63.477,23.438,-2.441,81.543,-1.465,0
1555964236.339,89.844,25.391,15.625,69.824,14.160,0
1555964236.343,81.543,28.320,-11.230,67.871,33.691,0
1555964236.347,42.969,27.344,-31.250,51.270,18.066,0
1555964236.350,45.410,28.809,-41.504,59.570,-19.531,0
1555964236.354,69.336,23.438,17.090,70.312,10.254,0
1555964236.358,67.383,15.137,53.711,58.594,21.484,0
1555964236.362,60.547,22.949,-5.859,82.031,46.387,0
1555964236.366,41.504,29.785,-18.066,78.125,125.977,0
1555964236.368,59.570,20.996,12.207,58.105,105.957,0
1555964236.372,83.984,7.812,29.785,89.844,86.914,0
1555964236.376,73.242,11.230,-5.859,101.562,59.082,0
1555964236.380,60.547,22.949,-15.137,81.055,42.480,0
1555964236.384,61.035,26.367,18.555,80.566,56.641,0
1555964236.388,91.309,18.066,13.672,96.191,31.738,0
1555964236.392,80.566,16.113,-20.508,107.422,24.902,0
1555964236.395,38.574,20.020,-35.156,88.867,36.133,0
1555964236.399,45.898,17.578,31.250,68.359,55.176,0
1555964236.403,86.914,25.391,54.688,50.293,15.625,0
1555964236.407,78.125,26.367,27.344,62.988,42.969,0
1555964236.411,43.945,18.066,-5.371,91.309,29.297,0
1555964236.413,51.758,21.484,-3.418,84.473,-32.227,0
1555964236.417,76.172,25.879,32.715,80.078,9.766,0
1555964236.421,93.262,23.926,36.621,80.078,42.480,0
1555964236.425,83.984,21.484,6.836,66.406,26.855,0
1555964236.429,62.988,29.785,-7.812,58.594,11.230,0
1555964236.433,71.777,34.180,7.324,93.262,52.246,0
1555964236.437,79.102,34.668,-6.348,104.980,65.918,0
1555964236.440,71.289,35.156,-2.930,90.332,15.625,0
1555964236.444,61.035,33.691,14.160,73.242,5.371,0
1555964236.448,62.500,34.180,7.324,48.828,17.578,0
1555964236.452,70.312,35.645,0.000,60.059,-23.438,0
1555964236.456,56.152,32.715,11.719,69.336,-33.691,0
1555964236.473,21.973,27.832,13.184,70.312,-7.324,0
1555964236.477,35.645,20.020,-7.812,87.891,-22.461,0
1555964236.481,80.566,17.090,11.230,89.355,-5.859,0
1555964236.485,73.242,20.996,25.391,59.570,-14.160,0
1555964236.489,55.176,25.391,17.578,65.918,-1.953,0
1555964236.493,67.383,34.180,-19.043,70.801,20.508,0
1555964236.497,68.848,31.250,-22.949,38.086,39.551,0
1555964236.500,74.707,23.926,35.645,29.297,23.926,0
1555964236.504,73.242,32.715,12.695,61.523,6.836,0
1555964236.508,56.152,34.668,-7.324,86.914,20.020,0
1555964236.512,49.316,25.391,24.414,72.266,33.691,0
1555964236.516,40.039,23.926,36.621,45.898,76.660,0
1555964236.518,36.621,35.645,9.277,48.340,110.352,0
1555964236.522,31.250,36.621,-17.090,63.965,59.570,0
1555964236.526,45.410,28.320,20.996,55.664,59.082,0
1555964236.530,70.312,32.227,44.922,53.223,50.781,0
1555964236.534,53.223,40.039,24.902,42.969,35.645,0
1555964236.538,33.691,32.715,-14.648,47.852,78.613,0
1555964236.542,41.016,14.160,-8.301,65.430,81.055,0
1555964236.545,82.031,13.184,40.039,53.223,90.820,0
1555964236.549,72.266,19.531,34.180,52.734,60.547,0
1555964236.553,37.109,21.484,-32.715,63.477,18.066,0
1555964236.557,48.828,26.367,-18.555,52.734,-2.930,0
1555964236.561,73.730,27.344,43.457,40.039,-27.344,0
1555964236.563,86.426,33.691,19.531,50.781,9.766,0
1555964236.567,87.402,41.016,-29.785,65.918,-2.441,0
1555964236.571,80.078,36.621,-14.160,55.176,-17.578,0
1555964236.575,83.496,32.715,19.531,50.293,13.184,0
1555964236.579,77.637,35.156,14.160,78.613,5.859,0
1555964236.583,62.988,38.574,-8.789,83.008,31.250,0
1555964236.587,55.664,35.645,-18.066,41.016,41.016,0
1555964236.590,55.176,30.273,17.578,39.062,31.738,0
1555964236.594,84.961,29.785,4.395,69.824,41.504,0
1555964236.598,94.238,36.133,-19.043,71.289,36.133,0
1555964236.602,47.363,31.738,23.438,41.504,35.156,0
1555964236.606,47.363,24.414,32.227,44.434,29.297,0
1555964236.608,64.453,30.273,42.969,60.547,73.242,0
1555964236.612,60.547,35.645,38.086,65.430,77.637,0
1555964236.616,51.270,35.156,16.113,50.293,55.176,0
1555964236.620,47.852,33.691,14.648,53.223,107.422,0
1555964236.624,83.008,30.273,20.508,98.145,85.938,0
1555964236.628,87.891,32.227,17.578,93.262,32.715,0
1555964236.632,65.918,32.715,17.578,79.102,38.574,0
1555964236.635,53.223,27.344,6.836,76.660,22.461,0
1555964236.639,73.242,29.785,-13.184,72.754,21.973,0
1555964236.643,73.730,36.133,31.250,65.430,61.035,0
1555964236.647,63.477,38.086,52.734,63.477,57.617,0
1555964236.651,83.008,28.320,-2.441,73.730,19.531,0
1555964236.653,71.777,25.391,-0.977,67.871,-27.344,0
1555964236.657,82.031,27.344,42.480,68.359,4.395,0
1555964236.661,95.703,26.855,36.621,72.754,11.230,0
1555964236.665,67.871,30.273,1.465,79.590,12.695,0
1555964236.669,57.129,30.762,6.836,63.965,56.152,0
1555964236.673,69.336,32.227,17.090,45.898,32.715,0
1555964236.677,87.891,33.203,26.855,70.312,16.113,0
1555964236.680,66.895,43.457,-3.906,72.754,73.730,0
1555964236.684,52.246,42.969,-29.785,62.012,88.867,0
1555964236.688,65.430,30.762,48.828,72.266,79.102,0
1555964236.692,74.707,27.832,45.410,71.289,22.461,0
1555964236.696,62.012,24.902,-0.488,81.055,-75.684,0
1555964236.698,37.109,26.855,0.977,60.059,-75.684,0
1555964236.702,52.734,26.367,34.180,42.969,-25.879,0
1555964236.706,60.547,23.438,48.340,58.105,30.273,0
1555964236.710,37.598,30.273,19.043,39.551,23.438,0
1555964236.714,31.738,41.016,-0.977,40.039,-2.441,0
1555964236.718,34.180,33.691,5.371,50.781,18.066,0
1555964236.722,58.594,26.367,10.742,61.523,-18.555,0
1555964236.725,58.594,39.062,-13.184,76.660,2.441,0
1555964236.729,44.434,42.480,-8.789,80.078,32.715,0
1555964236.733,39.062,32.715,27.832,55.176,-8.301,0
1555964236.737,62.500,26.367,36.133,51.270,60.059,0
1555964236.741,71.777,23.926,21.973,57.617,51.758,0
1555964236.744,49.316,23.438,14.648,46.387,18.555,0
1555964236.748,39.551,29.785,3.906,43.945,15.137,0
1555964236.752,40.527,21.973,30.273,48.828,-0.488,0
1555964236.756,60.059,29.785,64.453,48.340,54.199,0
1555964236.760,61.523,47.363,36.621,45.410,36.133,0
1555964236.764,38.086,43.457,-4.395,62.988,-5.859,0
1555964236.768,37.109,23.926,-8.301,35.645,14.648,0
1555964236.771,50.781,23.438,3.906,19.043,24.902,0
1555964236.775,38.574,22.949,44.922,54.688,40.527,0
1555964236.779,22.949,19.043,34.180,56.641,52.246,0
1555964236.783,47.363,30.762,16.602,60.547,10.742,0
1555964236.787,62.500,25.879,40.039,48.828,1.953,0
1555964236.788,34.180,27.344,34.668,39.062,5.371,0
1555964236.792,37.598,31.738,-2.930,54.199,-54.199,0
1555964236.796,26.855,21.484,6.836,26.367,-20.020,0
1555964236.800,20.508,10.742,41.504,15.137,-7.812,0
1555964236.804,61.035,16.113,39.551,52.246,3.418,0
1555964236.808,34.180,27.344,16.113,40.039,67.871,0
1555964236.812,8.789,29.297,-20.996,31.250,45.898,0
1555964236.815,40.039,29.297,14.160,36.621,-10.742,0
1555964236.819,38.086,25.391,79.102,20.508,23.926,0
1555964236.823,36.133,25.879,31.738,29.297,4.883,0
1555964236.827,43.457,30.273,-7.812,45.410,-34.668,0
1555964236.831,32.227,33.691,22.461,34.668,-9.277,0
1555964236.848,34.668,38.086,45.898,17.090,-16.602,0
1555964236.852,23.438,35.156,25.879,29.297,32.227,0
1555964236.856,12.695,28.809,-1.953,46.387,28.320,0
1555964236.860,19.043,30.273,36.621,40.527,30.762,0
1555964236.864,27.832,28.809,60.547,18.555,69.336,0
1555964236.868,41.992,45.410,-2.441,19.043,35.156,0
1555964236.872,31.738,43.945,-37.109,26.855,28.809,0
1555964236.875,16.113,29.297,7.812,16.113,-4.395,0
1555964236.879,16.113,28.320,51.758,13.184,-19.043,0
1555964236.883,34.180,28.809,39.062,16.113,0.000,0
1555964236.887,18.066,30.762,13.672,8.301,-26.855,0
1555964236.891,-7.324,32.227,21.973,10.742,-5.859,0
1555964236.893,0.000,31.738,40.527,17.578,19.043,0
1555964236.897,29.297,32.715,55.664,16.602,29.785,0
1555964236.901,42.480,44.922,38.086,10.742,25.391,0
1555964236.905,22.461,45.898,13.184,9.277,32.227,0
1555964236.909,31.738,46.875,20.020,5.859,46.387,0
1555964236.913,49.805,47.852,20.508,14.648,21.484,0
1555964236.917,35.645,40.527,21.484,-1.465,-12.695,0
1555964236.920,5.371,37.109,28.320,-0.488,19.531,0
1555964236.924,11.719,30.762,29.785,18.555,51.270,0
1555964236.928,41.016,32.715,4.883,-1.953,51.758,0
1555964236.932,26.367,34.180,11.230,2.441,29.785,0
1555964236.936,0.977,32.715,39.062,8.789,36.621,0
1555964236.938,0.977,34.180,10.254,18.066,17.090,0
1555964236.942,23.926,33.691,26.367,41.016,55.664,0
1555964236.946,32.227,33.691,59.082,11.230,88.379,0
1555964236.950,12.207,34.668,28.809,-3.418,53.223,0
1555964236.954,0.488,43.945,-24.414,7.324,12.207,0
1555964236.958,37.598,39.551,-6.836,25.879,1.953,0
1555964236.962,58.105,28.809,48.828,40.527,65.918,0
1555964236.965,23.438,26.855,38.086,24.902,22.949,0
1555964236.969,20.508,28.320,-17.090,58.105,19.531,0
1555964236.973,20.020,22.949,-9.766,37.109,77.637,0
1555964236.977,21.484,20.996,47.852,3.418,-5.859,0
1555964236.981,45.898,33.203,49.805,39.551,13.672,0
1555964236.983,62.988,46.875,12.695,65.430,53.711,0
1555964236.987,45.410,48.828,11.719,40.527,44.434,0
1555964236.991,37.109,35.156,54.688,17.090,27.832,0
1555964236.995,20.508,27.344,62.500,25.391,21.484,0
1555964236.999,16.602,26.855,22.949,24.414,78.125,0
1555964237.003,34.180,20.020,-9.766,35.156,71.777,0
1555964237.007,33.203,18.066,20.508,42.969,5.859,0
1555964237.010,48.828,21.484,50.781,26.855,-17.578,0
1555964237.014,22.461,31.250,-7.812,27.832,16.602,0
1555964237.018,-3.418,32.715,-7.812,12.695,24.902,0
1555964237.022,11.230,19.043,64.941,5.859,53.223,0
1555964237.026,32.715,14.160,58.105,27.832,31.250,0
1555964237.028,40.527,32.715,31.738,27.832,23.926,0
1555964237.032,31.250,45.410,13.184,30.273,46.387,0
1555964237.036,8.301,31.738,12.695,20.508,15.625,0
1555964237.040,12.207,15.137,17.090,-16.602,29.785,0
1555964237.044,40.527,13.672,-11.719,17.578,-10.254,0
1555964237.048,29.297,23.926,-19.043,46.875,-20.996,0
1555964237.052,11.719,23.926,14.648,23.438,26.367,0
1555964237.055,17.090,12.207,15.137,29.785,-4.883,0
1555964237.059,19.043,12.695,10.742,6.836,-13.184,0
1555964237.063,0.977,28.809,39.551,-13.184,1.465,0
1555964237.067,15.625,31.738,18.555,29.785,25.391,0
1555964237.071,43.945,21.484,19.043,41.992,30.273,0
1555964237.073,42.480,25.879,32.227,21.973,-16.602,0
1555964237.077,33.691,31.250,21.973,13.672,31.250,0
1555964237.081,16.602,34.180,0.000,34.668,28.809,0
1555964237.085,15.137,32.715,13.672,17.090,-6.836,0
1555964237.089,41.016,26.367,26.855,15.137,13.672,0
1555964237.093,37.109,31.250,1.465,2.930,12.695,0
1555964237.097,10.742,39.062,-4.395,3.418,32.227,0
1555964237.100,11.719,39.062,-17.578,34.668,60.059,0
1555964237.104,21.973,32.715,15.625,24.414,46.875,0
1555964237.108,21.973,22.461,62.500,9.766,33.203,0
1555964237.112,28.320,34.180,14.648,27.344,78.125,0
1555964237.116,34.180,40.527,-1.953,34.180,84.473,0
1555964237.118,33.203,27.832,34.668,23.438,49.316,0
1555964237.122,33.691,29.785,28.809,35.645,13.184,0
1555964237.126,38.574,36.133,-11.719,55.664,15.137,0
1555964237.130,40.039,33.203,-19.043,59.082,38.086,0
1555964237.134,36.621,32.715,21.973,31.250,38.574,0
1555964237.138,51.270,38.086,29.785,14.160,14.160,0
1555964237.142,50.293,35.645,-5.371,19.531,20.508,0
1555964237.145,17.578,27.832,-15.137,12.207,39.551,0
1555964237.149,10.742,25.391,30.762,28.320,-15.137,0
1555964237.153,28.809,21.484,44.434,23.926,0.977,0
1555964237.157,29.785,24.902,19.531,16.602,25.391,0
1555964237.161,20.508,31.738,-3.906,50.293,-7.324,0
1555964237.163,20.996,27.344,5.371,40.039,-37.109,0
1555964237.167,45.898,24.414,32.227,22.949,27.832,0
1555964237.171,44.434,25.391,26.367,20.508,21.484,0
1555964237.175,38.574,37.109,8.789,50.293,21.484,0
1555964237.179,14.160,41.016,9.766,72.754,90.332,0
1555964237.183,27.344,31.738,12.207,61.035,89.355,0
1555964237.187,49.316,31.250,-7.812,32.227,94.238,0
1555964237.190,3.906,30.762,-7.324,8.301,87.402,0
1555964237.194,0.488,18.066,20.996,20.020,56.152,0
1555964237.198,16.113,12.695,23.926,11.719,52.246,0
1555964237.202,27.344,15.137,24.902,16.113,42.480,0
1555964237.206,25.391,26.855,15.137,27.344,33.203,0
1555964237.208,13.672,36.133,0.488,21.484,38.086,0
1555964237.212,25.879,39.062,-12.207,23.926,-11.719,0
1555964237.216,49.316,36.133,7.812,33.203,-15.137,0
1555964237.220,39.551,34.668,21.973,32.227,25.391,0
1555964237.224,14.160,37.109,-5.371,33.203,29.785,0
1555964237.228,3.906,33.691,-35.156,26.367,49.316,0
1555964237.232,18.555,27.832,-9.277,12.695,71.289,0
1555964237.235,45.898,22.949,19.531,38.086,-9.277,0
1555964237.239,18.555,27.344,5.859,37.598,-46.387,0
1555964237.243,-16.113,25.879,-18.555,6.836,-20.020,0
1555964237.247,7.812,20.508,1.953,17.578,29.785,0
1555964237.251,30.273,18.555,53.223,32.715,42.969,0
1555964237.268,17.578,26.367,31.738,4.395,24.414,0
1555964237.272,-22.461,32.227,4.395,-14.648,32.227,0
1555964237.276,-3.906,29.785,18.555,8.789,57.617,2
1555964237.280,44.922,23.926,27.344,24.902,55.176,0
1555964237.284,32.715,30.762,2.930,23.438,-16.602,0
1555964237.288,-7.324,36.133,-10.742,16.602,11.230,0
1555964237.292,-18.555,28.320,9.766,10.742,54.688,0
1555964237.295,24.414,24.902,47.852,16.113,22.949,0
1555964237.299,37.598,28.809,22.949,18.555,5.859,0
1555964237.303,8.789,33.203,-36.621,5.859,11.719,0
1555964237.307,18.066,33.203,-7.324,20.996,25.879,0
1555964237.311,42.969,28.320,47.363,33.203,32.227,0
1555964237.313,39.551,29.785,21.973,32.227,20.020,0
1555964237.317,4.883,34.668,-8.301,1.953,-10.742,0
1555964237.321,-4.395,34.668,5.371,-0.977,5.859,0
1555964237.325,37.598,36.133,28.320,35.645,52.734,0
1555964237.329,50.293,37.598,13.184,24.902,41.016,0
1555964237.333,12.695,34.668,-8.789,9.277,49.805,0
1555964237.337,-1.465,33.691,-14.648,16.113,39.062,0
1555964237.340,23.926,35.645,1.465,39.551,14.160,0
1555964237.344,41.992,32.715,14.648,43.945,48.340,0
1555964237.348,38.086,36.621,-11.719,16.602,71.777,0
1555964237.352,24.414,38.086,10.742,26.855,50.781,0
1555964237.356,33.691,36.621,28.320,46.875,17.578,0
1555964237.358,41.992,42.480,24.902,36.133,33.203,0
1555964237.362,41.504,38.086,18.555,33.691,22.949,0
1555964237.366,23.926,36.133,17.090,40.527,17.578,0
1555964237.370,14.648,38.086,8.301,40.527,29.785,0
1555964237.374,40.039,33.203,21.973,42.480,41.992,0
1555964237.378,55.664,33.691,23.926,20.508,60.547,0
1555964237.382,30.762,35.156,5.371,-0.488,-19.531,0
1555964237.385,3.906,34.668,16.602,24.414,-25.879,0
1555964237.389,23.926,35.156,1.465,40.527,35.156,0
1555964237.393,38.086,35.156,10.254,23.926,20.020,0
1555964237.397,27.344,31.738,36.621,20.508,-17.578,0
1555964237.401,8.789,31.250,4.395,36.621,-9.277,0
1555964237.403,15.625,31.250,8.789,35.156,41.504,0
1555964237.407,43.945,29.297,53.223,25.391,70.801,0
1555964237.411,20.020,32.227,40.527,32.715,43.945,0
1555964237.415,11.230,35.645,-3.906,21.973,-4.395,0
1555964237.419,27.344,33.203,-6.348,19.043,-23.926,0
1555964237.423,23.438,26.367,18.066,42.969,-6.836,0
1555964237.427,15.137,25.879,30.762,24.902,0.977,0
1555964237.430,9.277,26.855,-2.441,21.484,-10.254,0
1555964237.434,-9.766,23.926,-18.066,19.531,9.277,0
1555964237.438,-19.531,27.832,45.898,-29.297,26.855,0
1555964237.442,-2.441,27.344,56.152,-23.926,23.926,0
1555964237.446,21.484,17.578,20.020,9.766,34.180,0
1555964237.448,9.277,22.949,8.301,22.949,119.629,0
1555964237.452,-27.832,33.203,9.766,0.977,100.098,0
1555964237.456,-20.020,27.832,28.320,-20.508,-12.695,0
1555964237.460,9.766,29.297,20.996,25.879,-3.418,0
1555964237.464,2.930,27.832,1.465,37.598,-15.137,0
1555964237.468,25.879,25.879,5.859,42.480,-31.738,0
1555964237.472,67.383,21.973,47.852,48.828,-9.766,0
1555964237.475,36.133,23.438,24.414,33.691,23.438,0
1555964237.479,5.371,35.645,-8.789,54.688,44.434,0
1555964237.483,32.715,29.297,39.062,71.289,45.898,0
1555964237.487,60.059,26.855,28.320,36.133,-5.859,0
1555964237.491,66.406,27.832,13.672,23.926,-19.531,0
1555964237.493,62.012,27.832,17.578,49.805,43.945,0
1555964237.497,41.504,28.320,8.789,66.406,13.184,0
1555964237.501,31.738,25.391,15.625,65.430,6.348,0
1555964237.505,40.527,25.879,19.043,67.383,47.852,0
1555964237.509,31.738,29.297,20.508,89.355,35.645,0
1555964237.513,0.000,28.320,18.066,60.547,42.969,0
1555964237.517,2.930,26.855,0.000,20.020,37.598,0
1555964237.520,18.555,31.250,11.230,30.273,72.266,0
1555964237.524,7.324,26.855,46.387,36.621,96.680,0
1555964237.528,8.301,26.855,17.578,40.527,31.250,0
1555964237.532,20.996,28.809,5.371,43.945,-22.461,0
1555964237.536,50.781,27.832,42.480,38.086,-19.531,0
1555964237.538,62.500,32.715,43.457,54.199,21.973,0
1555964237.542,32.715,39.062,5.859,60.547,3.418,0
1555964237.546,-5.859,36.621,4.395,32.227,-10.742,0
1555964237.550,13.184,24.414,38.574,42.480,21.973,0
1555964237.554,25.391,18.555,53.711,58.105,85.449,0
1555964237.558,7.324,22.461,8.301,57.129,36.133,0
1555964237.562,15.137,30.762,-22.461,46.875,-26.855,0
1555964237.565,31.738,36.621,27.344,25.391,38.574,0
1555964237.569,16.602,30.273,69.824,30.273,53.711,0
1555964237.573,-1.465,17.578,43.457,48.828,20.996,0
1555964237.577,11.230,24.902,20.508,62.012,96.191,0
1555964237.581,23.438,28.809,32.715,47.363,100.586,0
1555964237.583,20.020,23.926,47.852,6.348,51.270,0
1555964237.587,25.879,28.809,20.508,18.066,45.898,0
1555964237.591,14.648,31.738,-2.441,38.574,13.672,0
1555964237.595,0.977,30.273,32.715,23.438,12.695,0
1555964237.599,22.949,33.203,58.594,19.043,68.359,0
1555964237.603,21.484,34.668,18.066,41.992,90.332,0
1555964237.607,0.000,33.203,-15.625,58.594,50.293,0
1555964237.610,-21.973,32.227,36.133,38.086,31.250,0
1555964237.614,0.488,30.762,67.871,17.578,48.340,0
1555964237.618,37.598,33.691,39.551,32.715,36.133,0
1555964237.622,21.973,33.203,22.949,20.020,-0.977,0
1555964237.626,10.254,33.203,42.480,28.320,9.766,0
1555964237.643,25.391,39.551,51.758,39.551,41.016,0
1555964237.647,30.762,34.668,49.805,20.508,38.086,0
1555964237.651,24.902,29.785,38.574,33.691,72.266,0
1555964237.655,4.883,30.273,26.855,46.875,81.055,0
1555964237.659,15.137,30.762,21.484,17.090,-13.672,0
1555964237.663,25.879,27.832,27.344,10.742,-27.344,0
1555964237.667,7.812,20.996,39.551,30.762,9.277,0
1555964237.670,-0.488,23.926,37.109,38.574,4.883,0
1555964237.674,11.230,24.902,37.109,48.828,18.066,0
1555964237.678,27.832,23.926,32.715,35.156,28.320,0
1555964237.682,33.203,24.902,48.340,22.461,-2.441,0
1555964237.686,15.137,27.344,50.781,-5.859,2.441,0
1555964237.688,-9.277,28.320,26.855,4.883,35.156,0
1555964237.692,15.625,29.785,32.715,38.086,20.020,0
1555964237.696,39.551,28.320,44.922,22.949,-14.648,0
1555964237.700,16.113,31.738,25.391,18.555,-12.695,0
1555964237.704,-6.348,33.691,-1.465,35.645,-1.465,0
1555964237.708,2.930,31.250,5.859,15.137,21.973,0
1555964237.712,23.926,33.203,23.438,2.930,-16.602,0
1555964237.715,19.043,31.738,41.016,-6.836,-22.461,0
1555964237.719,-11.719,32.715,10.742,0.488,25.879,0
1555964237.723,-11.230,37.109,2.930,32.227,36.621,0
1555964237.727,26.855,34.668,63.477,26.855,43.457,0
1555964237.731,27.344,36.133,41.992,8.789,-7.324,0
1555964237.733,2.441,36.133,8.301,13.184,-29.785,0
1555964237.737,3.906,24.414,39.551,15.137,49.316,0
1555964237.741,40.039,22.949,59.082,-1.953,46.387,0
1555964237.745,38.574,25.391,34.180,25.879,4.395,0
1555964237.749,-10.742,31.738,5.371,41.992,-20.996,0
1555964237.753,2.441,41.504,-2.441,22.461,-20.996,0
1555964237.757,10.742,28.809,35.645,27.344,-3.418,0
1555964237.760,11.230,25.391,62.988,26.367,40.039,0
1555964237.764,39.551,44.434,-13.672,10.742,27.344,0
1555964237.768,19.531,40.527,-21.484,20.020,-47.363,0
1555964237.772,0.977,26.367,59.570,20.996,23.438,0
1555964237.776,15.625,28.809,50.293,27.832,64.941,0
1555964237.778,18.555,32.715,11.230,30.273,1.465,0
1555964237.782,6.348,28.809,4.883,37.598,-5.371,0
1555964237.786,3.906,24.414,35.645,41.504,23.438,0
1555964237.790,44.922,27.832,44.922,6.836,44.922,0
1555964237.794,16.113,22.461,34.668,-3.418,59.082,0
1555964237.798,-14.160,25.879,15.137,22.949,59.082,0
1555964237.802,-1.953,36.133,9.277,16.113,49.805,0
1555964237.805,25.391,33.203,14.648,9.766,2.441,0
1555964237.809,46.387,29.785,33.203,21.484,-0.977,0
1555964237.813,-10.254,26.367,64.453,43.945,-22.949,0
1555964237.817,-29.297,32.227,41.992,48.340,-21.973,0
1555964237.821,4.883,28.809,49.316,20.508,12.695,0
1555964237.823,36.133,25.391,62.012,6.836,-11.230,0
1555964237.827,18.555,39.551,26.367,20.996,-5.371,0
1555964237.831,0.977,38.574,-1.465,42.969,-7.324,0
1555964237.835,34.180,26.855,31.250,26.367,35.645,0
1555964237.839,45.898,26.367,52.246,-19.043,68.848,0
1555964237.843,19.043,25.391,28.320,2.441,15.625,0
1555964237.847,-13.672,26.855,21.973,21.973,31.738,0
1555964237.850,25.879,27.344,-0.488,39.062,35.156,0
1555964237.854,22.949,23.438,32.227,33.691,-11.719,0
1555964237.858,0.977,28.320,59.082,2.930,14.160,0
1555964237.862,28.320,37.598,3.906,30.762,-2.930,0
1555964237.866,15.625,31.738,28.809,53.711,20.508,0
1555964237.868,-18.555,13.184,89.355,11.230,62.500,0
1555964237.872,8.301,26.367,59.082,-14.160,43.457,0
1555964237.876,45.410,36.621,-2.930,37.598,24.902,0
1555964237.880,8.301,33.203,-9.766,59.082,39.551,0
1555964237.884,5.859,32.715,31.250,33.691,42.969,0
1555964237.888,15.625,27.832,47.852,18.066,13.672,0
1555964237.892,20.996,36.133,5.371,-1.465,17.090,0
1555964237.895,27.832,37.109,-1.953,25.391,79.590,0
1555964237.899,11.719,34.668,68.848,34.668,114.258,0
1555964237.903,50.293,39.062,58.594,43.457,79.102,0
1555964237.907,42.480,37.109,16.602,53.711,52.246,0
1555964237.911,23.926,38.574,7.812,62.012,38.086,0
1555964237.913,14.160,38.574,13.184,55.176,45.898,0
1555964237.917,13.184,29.785,31.250,38.086,-7.324,0
1555964237.921,57.129,28.320,39.551,78.125,-59.570,0
1555964237.925,61.035,34.668,29.297,84.961,7.812,0
1555964237.929,20.996,36.133,16.602,30.762,18.555,0
1555964237.933,26.855,41.992,6.836,13.672,-20.996,0
1555964237.937,54.199,38.574,8.789,17.578,-20.020,0
1555964237.940,-5.859,29.297,30.762,17.578,-14.160,0
1555964237.944,3.418,34.180,45.898,30.273,-19.531,0
1555964237.948,23.438,36.133,51.270,19.531,66.895,0
1555964237.952,22.949,31.738,48.340,14.648,79.102,0
1555964237.956,66.406,31.250,47.852,29.297,26.367,0
1555964237.958,-6.836,36.133,38.086,45.410,30.762,0
1555964237.962,-13.672,40.527,6.836,46.875,4.883,0
1555964237.966,53.711,37.109,36.133,60.059,52.734,0
1555964237.970,57.129,35.645,36.133,66.406,70.312,0
1555964237.974,34.180,35.645,-5.371,54.199,45.410,0
1555964237.978,13.184,29.297,0.488,36.621,46.387,0
1555964237.982,35.156,36.621,-4.883,20.508,66.895,0
1555964237.985,32.227,31.738,35.645,15.137,70.312,0
1555964237.989,24.902,28.809,31.738,46.875,4.883,0
1555964237.993,19.043,38.574,-19.043,71.289,-9.277,0
1555964237.997,-35.156,34.180,6.836,30.273,-6.348,0
1555964238.001,6.836,35.156,22.949,17.090,35.156,0
1555964238.018,54.688,37.598,-22.949,72.266,59.082,0
1555964238.022,43.945,40.527,-51.758,61.035,39.062,0
1555964238.026,43.457,33.691,-27.344,10.742,60.547,0
1555964238.030,52.246,24.902,-2.441,27.832,64.453,0
1555964238.034,44.922,26.367,-33.203,76.660,24.902,0
1555964238.038,17.578,29.297,-61.035,91.309,48.340,0
1555964238.042,40.527,32.227,-54.199,83.984,71.777,0
1555964238.045,72.754,23.438,-18.555,41.016,26.855,0
1555964238.049,55.176,24.902,-7.812,10.254,26.367,0
1555964238.053,40.527,33.691,-53.223,52.734,55.176,0
1555964238.057,47.363,35.645,-35.645,83.008,54.688,0
1555964238.061,52.246,26.855,26.367,38.086,68.359,0
1555964238.063,60.059,22.949,1.465,26.367,39.551,0
1555964238.067,45.410,31.250,-66.895,69.336,-14.648,0
1555964238.071,9.277,27.344,-54.688,53.711,15.625,0
1555964238.075,31.738,20.508,-23.438,46.875,46.387,0
1555964238.079,56.152,19.043,-28.320,41.016,31.738,0
1555964238.083,44.434,22.949,-56.641,35.645,26.855,0
1555964238.087,14.160,24.414,-55.664,35.156,0.488,0
1555964238.090,26.367,25.879,-16.602,37.109,-14.160,0
1555964238.094,42.480,24.902,-18.555,40.527,20.996,0
1555964238.098,32.715,21.973,-50.781,41.504,11.719,0
1555964238.102,57.129,26.855,-30.762,55.664,1.465,0
1555964238.106,49.316,30.762,-17.090,72.266,9.277,0
1555964238.108,43.457,29.785,-19.043,63.965,-1.465,0
1555964238.112,50.781,22.949,-18.066,48.340,9.766,0
1555964238.116,20.508,24.414,-35.645,33.691,36.133,0
1555964238.120,11.230,25.391,-55.664,24.414,-0.488,0
1555964238.124,20.020,18.066,-40.527,13.672,-29.297,0
1555964238.128,31.738,19.531,-33.203,8.301,13.184,0
1555964238.132,31.738,20.996,-37.598,28.809,35.156,0
1555964238.135,8.301,19.043,-31.738,41.992,34.668,0
1555964238.139,16.113,26.855,-64.941,30.762,19.531,0
1555964238.143,34.668,24.902,-27.832,15.625,26.367,0
1555964238.147,20.020,24.902,10.254,14.160,62.988,0
1555964238.151,0.977,32.227,-42.480,21.484,45.898,0
1555964238.153,7.812,29.297,-32.227,37.109,75.684,0
1555964238.157,25.879,27.832,8.789,56.152,50.781,0
1555964238.161,26.367,28.320,-0.488,51.270,-12.695,0
1555964238.165,19.531,29.785,-26.855,48.340,5.371,0
1555964238.169,13.672,32.227,-20.996,60.059,45.410,0
1555964238.173,25.879,31.250,-3.906,46.875,24.902,0
1555964238.177,41.992,31.738,-6.348,48.828,-11.719,0
1555964238.180,27.832,36.621,-36.133,31.738,-1.953,0
1555964238.184,1.953,41.504,-38.574,24.902,28.320,0
1555964238.188,9.766,35.645,27.832,46.387,39.062,0
1555964238.192,23.438,31.738,34.180,9.277,16.113,0
1555964238.196,-3.418,36.621,6.348,6.348,36.133,0
1555964238.197,-23.438,34.668,-10.254,35.156,7.812,0
1555964238.201,-11.719,29.785,11.230,12.695,-28.809,0
1555964238.205,4.395,27.832,46.387,16.602,36.133,0
1555964238.209,8.301,29.785,20.508,36.133,79.102,0
1555964238.213,-19.043,29.785,-3.418,36.621,6.836,0
1555964238.217,-21.484,26.855,14.160,22.461,34.180,0
1555964238.221,20.996,27.832,28.809,19.043,76.660,0
1555964238.224,25.391,28.320,-6.836,34.180,35.645,0
1555964238.228,-15.625,29.785,-15.625,18.555,19.531,0
1555964238.232,-20.996,31.250,28.809,2.930,25.879,0
1555964238.236,13.672,30.273,32.715,24.902,50.781,0
1555964238.240,23.438,27.344,24.902,25.879,70.801,0
1555964238.243,-6.348,29.297,10.254,0.488,66.895,0
1555964238.247,-19.043,32.227,5.371,-3.418,52.246,0
1555964238.251,6.836,32.227,7.812,16.113,18.066,0
1555964238.255,22.461,30.762,16.113,31.738,7.324,0
1555964238.259,-0.488,26.855,30.762,21.484,62.012,0
1555964238.263,-14.648,26.855,7.324,10.254,94.727,0
1555964238.267,3.418,28.320,-9.766,2.930,53.711,0
1555964238.270,22.949,29.297,3.418,12.207,30.273,0
1555964238.274,6.836,31.250,37.109,12.695,25.391,0
1555964238.278,-15.625,32.715,29.297,19.043,31.250,0
1555964238.282,5.371,33.691,8.301,34.180,15.625,0
1555964238.286,36.133,28.809,25.879,25.879,21.484,0
1555964238.288,20.508,24.414,33.203,24.414,27.832,0
1555964238.292,-8.789,28.320,11.230,29.297,71.289,0
1555964238.296,-14.648,31.250,-3.906,22.949,56.641,0
1555964238.300,11.719,28.320,21.973,24.902,-10.254,0
1555964238.304,25.391,26.855,36.133,7.812,7.812,0
1555964238.308,4.395,32.715,1.953,-5.859,30.762,0
1555964238.312,-1.953,36.133,-31.738,25.879,23.438,0
1555964238.315,8.301,29.297,11.230,-10.254,7.812,1
1555964238.319,20.508,25.391,67.871,-38.086,29.785,0
1555964238.323,-5.371,30.273,20.508,-17.578,3.906,0
1555964238.327,-15.137,37.109,8.789,-4.883,27.344,0
1555964238.331,6.348,40.527,31.250,24.414,24.902,0
1555964238.333,0.000,32.227,39.551,20.020,-19.043,0
1555964238.337,3.906,24.902,23.926,13.672,39.551,0
1555964238.341,-15.137,28.809,-8.789,18.555,-7.812,0
1555964238.345,-15.625,23.926,18.066,1.465,-43.457,0
1555964238.349,2.930,22.461,48.340,-9.766,6.348,0
1555964238.353,7.324,27.832,8.301,18.555,11.719,0
1555964238.357,-0.488,26.855,-11.230,15.625,57.617,0
1555964238.360,-16.113,27.832,41.992,0.000,79.590,0
1555964238.364,8.789,27.832,64.941,8.301,61.523,0
1555964238.368,23.926,27.344,45.898,7.812,63.965,0
1555964238.372,10.742,30.762,23.438,13.184,16.113,0
1555964238.376,3.418,34.180,17.578,20.020,-20.020,0
1555964238.392,17.578,34.180,26.855,11.230,-7.812,0
1555964238.396,37.109,31.738,40.527,-9.766,24.902,0
1555964238.400,17.578,27.344,27.344,-3.906,42.969,0
1555964238.404,6.836,30.762,9.277,28.809,42.480,0
1555964238.408,14.160,27.832,23.438,36.133,82.520,0
1555964238.412,8.789,21.484,24.414,34.668,76.172,0
1555964238.416,8.789,27.344,11.230,-0.488,50.293,0
1555964238.419,-0.977,31.738,24.414,-15.625,78.613,0
1555964238.423,-6.836,28.809,35.645,-14.648,63.477,0
1555964238.427,26.367,28.809,9.766,2.930,-15.625,0
1555964238.431,23.926,24.902,38.574,27.344,-22.461,0
1555964238.435,-0.977,28.809,44.922,20.996,0.488,0
1555964238.438,0.000,34.180,7.324,11.719,-33.203,0
1555964238.442,14.648,27.344,33.203,-4.883,10.742,0
1555964238.446,31.738,22.461,54.199,9.766,6.836,0
1555964238.450,17.578,20.996,28.320,32.227,-5.859,0
1555964238.454,-3.418,22.949,5.859,35.156,31.738,0
1555964238.458,7.324,24.902,17.578,26.367,17.090,0
1555964238.462,25.879,24.414,47.363,14.648,-11.230,0
1555964238.465,18.066,22.949,65.430,8.301,22.949,0
1555964238.469,0.488,32.715,12.207,17.090,22.949,0
1555964238.473,-0.977,38.086,-2.930,22.949,-10.254,0
1555964238.477,13.672,30.273,75.195,14.648,24.414,0
1555964238.481,27.344,32.715,65.918,13.672,21.484,0
1555964238.483,10.742,36.621,24.902,16.113,28.320,0
1555964238.487,-3.418,30.762,32.227,26.855,14.648,0
1555964238.491,17.090,23.926,58.105,20.020,22.461,0
1555964238.495,24.414,26.855,51.758,12.695,61.523,0
1555964238.499,12.695,33.691,8.789,14.648,18.555,0
1555964238.503,-4.395,29.297,-5.371,20.020,34.180,0
1555964238.507,17.578,24.902,18.555,23.926,26.367,0
1555964238.510,34.668,27.344,44.922,14.648,25.391,0
1555964238.514,11.230,35.156,-5.859,27.344,-9.766,0
1555964238.518,6.836,40.527,-8.301,13.184,0.000,0
1555964238.522,19.043,39.062,50.781,-7.324,40.527,0
1555964238.526,42.480,35.156,35.645,10.742,-10.742,0
1555964238.528,33.203,30.273,23.438,36.621,2.930,0
1555964238.532,0.000,31.250,27.344,44.922,83.008,0
1555964238.536,11.719,33.691,26.367,36.133,86.426,0
1555964238.540,30.762,31.250,20.996,18.555,35.645,0
1555964238.544,26.855,30.762,14.160,14.160,51.758,0
1555964238.548,14.160,31.738,-5.859,20.020,61.523,0
1555964238.552,-0.977,35.156,2.441,5.859,8.789,0
1555964238.555,9.766,39.062,13.672,12.695,-30.762,0
1555964238.559,28.320,40.527,9.277,17.578,16.602,0
1555964238.563,18.555,38.086,30.273,20.996,46.387,0
1555964238.567,0.977,36.133,30.762,32.715,41.016,0
1555964238.571,20.020,40.039,23.926,29.297,-27.832,0
1555964238.574,44.434,38.086,36.621,28.809,-44.922,0
1555964238.578,22.949,30.762,45.410,40.039,39.062,0
1555964238.582,13.184,31.738,25.879,36.133,39.062,0
1555964238.586,24.902,31.250,31.738,36.621,23.926,0
1555964238.590,19.531,29.785,51.270,22.949,45.410,0
1555964238.594,21.484,34.668,16.602,10.742,9.277,0
1555964238.598,-6.836,33.203,-0.488,11.230,-23.438,0
1555964238.601,-4.883,30.762,-6.348,27.344,-6.348,0
1555964238.605,34.668,33.203,28.809,26.855,-10.254,0
1555964238.609,29.297,32.227,73.242,12.207,-25.391,0
1555964238.613,10.254,34.180,27.832,30.762,-20.508,0
1555964238.617,-9.277,31.250,16.602,38.574,35.645,0
1555964238.619,8.301,28.320,36.621,23.926,20.996,0
1555964238.623,30.273,31.250,41.016,3.906,-23.926,0
1555964238.627,15.625,35.156,18.066,17.090,-7.324,0
1555964238.631,-6.836,30.762,9.277,24.414,27.344,0
1555964238.635,4.883,25.879,35.156,0.488,30.273,0
1555964238.639,30.273,30.273,32.715,-6.348,-7.812,0
1555964238.643,17.578,30.273,6.348,8.789,-14.160,0
1555964238.646,-3.906,24.414,-3.418,24.414,-6.348,0
1555964238.650,4.395,25.391,62.988,11.719,44.434,0
1555964238.654,29.785,28.809,92.773,11.719,88.867,0
1555964238.658,29.297,29.297,50.781,25.879,48.828,0
1555964238.662,8.301,29.785,20.996,15.137,24.414,0
1555964238.663,7.812,31.250,28.320,26.367,22.461,0
1555964238.667,27.832,34.668,44.434,33.203,-8.789,0
1555964238.671,21.484,37.109,42.969,10.254,27.832,0
1555964238.675,-1.465,39.062,14.648,16.113,22.461,0
1555964238.679,-4.883,34.180,20.020,26.855,-33.691,0
1555964238.683,15.625,30.273,42.969,10.742,-24.414,0
1555964238.687,28.809,32.715,27.832,18.066,-7.324,0
1555964238.690,19.043,32.715,41.504,39.062,20.020,0
1555964238.694,8.301,36.621,79.102,46.875,55.664,0
1555964238.698,19.043,36.133,65.430,38.086,48.340,0
1555964238.702,32.715,37.109,60.547,32.227,33.203,0
1555964238.706,24.902,38.086,53.223,24.414,35.156,0
1555964238.708,4.395,34.180,33.203,27.832,56.641,0
1555964238.712,1.953,29.297,22.949,22.461,60.059,0
1555964238.716,31.738,28.809,27.832,20.508,2.930,0
1555964238.720,38.086,29.785,46.387,30.762,-31.250,0
1555964238.724,9.766,29.297,40.039,17.578,14.648,0
1555964238.728,8.789,28.320,12.695,19.531,28.320,0
1555964238.732,24.414,29.785,30.273,22.949,-23.926,0
1555964238.735,18.066,28.809,86.914,16.113,13.672,0
1555964238.739,1.465,29.785,69.336,28.320,45.410,0
1555964238.743,-4.395,33.691,8.301,19.043,13.184,0
1555964238.747,12.207,26.855,33.691,20.996,33.203,0
1555964238.751,30.273,29.297,87.402,44.922,109.863,0
1555964238.768,18.066,41.504,49.316,34.180,82.520,0
1555964238.772,-5.371,39.551,21.973,24.902,19.531,0
1555964238.776,-3.418,33.203,52.734,30.273,24.902,0
1555964238.780,18.555,32.715,70.801,26.855,14.160,0
1555964238.784,15.137,34.180,62.012,13.184,52.246,0
1555964238.788,-1.953,32.227,22.949,19.531,34.668,0
1555964238.792,4.395,33.203,35.645,23.926,0.488,0
1555964238.795,20.020,32.715,77.637,-1.465,34.180,0
1555964238.799,21.973,33.203,57.129,3.906,22.949,0
1555964238.803,5.859,37.109,6.836,20.996,7.812,0
1555964238.807,-0.488,28.809,36.621,14.648,7.324,0
1555964238.811,9.277,21.484,95.703,6.348,39.551,0
1555964238.813,29.297,25.879,77.637,9.766,64.941,0
1555964238.817,26.367,31.738,53.711,30.273,38.574,0
1555964238.821,-8.301,34.180,54.199,32.715,22.949,0
1555964238.825,3.906,33.691,66.406,13.184,11.719,0
1555964238.829,36.133,40.039,75.684,10.742,83.496,0
1555964238.833,18.066,41.992,39.551,34.180,79.102,0
1555964238.837,-0.488,32.715,28.320,7.812,38.574,0
1555964238.840,16.602,32.227,66.895,9.766,2.441,0
1555964238.844,42.969,40.527,74.219,32.715,19.043,0
1555964238.848,37.598,36.621,37.109,9.277,26.367,0
1555964238.852,7.324,28.320,59.082,12.207,37.109,0
1555964238.856,15.137,31.738,67.383,22.949,25.391,0
1555964238.858,39.062,32.715,68.848,8.301,-19.043,0
1555964238.862,38.086,33.691,77.148,-0.977,-0.977,0
1555964238.866,8.789,32.227,66.406,9.766,-14.160,0
1555964238.870,-7.812,27.344,72.266,18.555,58.594,0
1555964238.874,12.207,26.855,71.777,8.789,58.594,0
1555964238.878,20.020,29.785,62.012,0.977,-32.227,0
1555964238.882,4.883,40.527,54.199,6.348,-36.621,0
1555964238.885,-18.066,36.621,64.453,6.836,-4.395,0
1555964238.889,0.977,29.297,56.152,6.836,49.805,0
1555964238.893,23.926,34.180,78.125,14.648,60.547,0
1555964238.897,12.207,34.180,105.957,-10.742,39.062,0
1555964238.901,-4.883,34.668,67.871,-31.738,37.109,0
1555964238.903,3.906,30.762,78.613,-17.578,80.566,0
1555964238.907,25.879,23.438,106.934,6.348,66.895,0
1555964238.911,19.043,34.180,90.332,30.273,39.062,0
1555964238.915,-4.883,41.504,53.223,22.949,64.453,0
1555964238.919,1.953,43.457,56.152,19.531,48.340,0
1555964238.923,18.066,46.387,65.918,0.000,10.254,0
1555964238.927,8.789,39.551,76.172,7.324,48.828,0
1555964238.930,3.418,33.691,40.527,29.297,42.969,0
1555964238.934,0.000,28.320,20.020,25.879,-9.277,0
1555964238.938,6.836,24.902,104.980,15.137,16.113,0
1555964238.942,24.902,28.320,116.211,11.230,56.152,0
1555964238.946,18.555,29.297,67.383,13.184,57.129,0
1555964238.949,1.953,31.250,49.805,5.859,32.715,0
1555964238.953,13.184,32.715,75.195,2.930,55.664,0
1555964238.957,31.738,37.109,89.355,-2.441,83.008,0
1555964238.961,29.785,35.156,70.312,-5.859,41.992,0
1555964238.965,2.441,29.785,60.059,5.371,2.441,0
1555964238.969,5.371,34.180,65.918,7.812,40.527,0
1555964238.973,31.738,33.203,73.242,7.324,41.016,0
1555964238.976,31.738,34.180,46.875,24.414,-0.977,0
1555964238.980,5.859,33.203,54.199,39.062,20.996,0
1555964238.984,-5.371,28.809,92.773,30.273,12.695,0
1555964238.988,10.254,35.645,85.449,25.879,17.090,0
1555964238.992,14.648,38.086,81.055,18.066,35.156,0
1555964238.993,0.488,33.203,74.219,-5.371,37.598,0
1555964238.997,-0.977,37.598,54.688,-19.043,22.461,0
1555964239.001,19.043,31.250,60.059,4.395,21.973,0
1555964239.005,26.855,27.832,75.195,15.625,51.758,0
1555964239.009,12.695,39.062,74.219,-3.906,73.242,0
1555964239.013,3.906,41.992,50.781,14.160,54.688,0
1555964239.017,19.043,39.551,41.992,33.203,29.297,0
1555964239.020,41.992,37.109,59.570,31.250,55.664,0
1555964239.024,31.738,29.297,92.773,15.137,63.965,0
1555964239.028,-0.488,33.203,69.824,7.324,62.988,0
1555964239.032,5.371,40.527,61.035,17.090,96.680,0
1555964239.036,21.973,36.621,84.961,17.578,68.848,0
1555964239.038,13.184,32.715,81.543,10.742,52.246,0
1555964239.042,-1.953,38.086,45.410,19.531,24.902,0
1555964239.046,-0.488,39.551,48.828,14.648,-14.648,0
1555964239.050,23.926,32.227,87.402,13.184,14.648,0
1555964239.054,28.809,30.273,93.750,7.324,45.410,0
1555964239.058,8.789,31.738,53.223,2.930,49.316,0
1555964239.062,0.977,36.621,15.137,18.555,70.801,0
1555964239.065,11.719,34.180,59.082,11.719,83.984,0
1555964239.069,18.555,28.320,116.211,-0.977,70.801,0
1555964239.073,12.207,33.691,81.055,12.695,62.500,0
1555964239.077,-0.977,37.109,44.922,32.227,29.297,0
1555964239.081,5.859,35.156,62.988,23.438,16.602,0
1555964239.083,28.320,36.133,70.312,15.137,2.441,0
1555964239.087,29.297,37.109,56.641,5.859,28.809,0
1555964239.091,14.648,38.574,41.504,12.207,47.363,0
1555964239.095,8.301,40.039,65.918,27.832,46.875,0
1555964239.099,27.344,32.227,89.355,22.949,87.891,0
1555964239.103,31.738,27.344,41.504,34.668,75.684,0
1555964239.107,6.836,30.762,3.418,26.855,35.645,0
1555964239.110,-3.418,29.785,57.129,13.184,18.555,0
1555964239.114,15.137,26.367,91.309,10.254,27.344,0
1555964239.118,14.160,26.367,67.871,-2.930,19.531,0
1555964239.122,2.441,30.273,44.922,12.695,-16.602,0
1555964239.126,-9.277,33.691,49.316,20.508,-6.348,0
1555964239.143,0.000,29.785,56.641,13.672,3.418,0
1555964239.147,25.391,20.508,61.523,10.254,18.555,0
1555964239.151,17.090,20.996,38.574,7.812,-5.371,0
1555964239.155,-1.465,26.855,25.879,19.043,-6.348,0
1555964239.159,4.883,21.973,51.758,9.277,7.324,0
1555964239.163,24.902,18.066,49.316,6.836,-16.602,0
1555964239.167,24.414,24.414,45.410,18.555,3.906,0
1555964239.170,-2.441,27.344,49.316,39.062,2.441,0
1555964239.174,-4.883,27.344,50.293,30.273,-1.465,0
1555964239.178,21.973,26.855,39.062,15.625,41.016,0
1555964239.182,26.367,27.344,51.758,17.578,23.438,0
1555964239.186,3.906,28.320,57.129,0.977,-5.371,0
1555964239.188,-14.160,38.574,33.203,7.812,43.945,0
1555964239.192,-9.766,35.156,41.992,15.137,48.340,0
1555964239.196,10.742,25.391,59.082,0.488,25.879,0
1555964239.200,20.996,29.297,37.109,13.184,21.973,0
1555964239.204,11.230,28.320,0.488,35.156,-10.742,0
1555964239.208,20.996,24.902,12.695,37.109,-14.648,0
1555964239.212,34.668,16.113,45.898,37.109,28.320,0
1555964239.215,13.672,16.113,46.875,28.809,32.227,0
1555964239.219,-10.742,24.902,-5.859,7.324,9.277,0
1555964239.223,-0.488,23.926,-11.719,11.719,34.668,0
1555964239.227,22.949,19.531,61.035,24.414,43.457,0
1555964239.231,29.785,25.391,61.523,19.043,55.176,0
1555964239.233,14.648,28.809,23.926,37.109,62.500,0
1555964239.237,8.301,28.809,32.227,43.945,37.109,0
1555964239.241,25.391,29.785,65.918,25.391,1.465,0
1555964239.245,31.250,26.367,69.336,34.668,35.156,0
1555964239.249,9.766,28.809,19.043,33.691,-12.207,0
1555964239.253,-9.766,28.809,0.488,19.531,-38.086,0
1555964239.257,8.789,29.297,31.738,23.438,0.000,0
1555964239.260,31.738,35.645,47.852,29.297,-48.828,0
1555964239.264,18.066,34.180,11.719,34.668,-21.484,0
1555964239.268,0.488,35.156,17.578,25.879,13.184,0
1555964239.272,7.812,27.344,72.754,15.625,-27.344,0
1555964239.276,26.367,21.973,63.965,22.461,0.000,0
1555964239.278,17.578,26.855,37.598,20.996,51.270,0
1555964239.282,1.953,31.250,30.273,23.438,64.453,0
1555964239.286,17.090,38.574,34.180,20.508,25.879,0
1555964239.290,36.133,41.992,45.410,22.461,22.461,0
1555964239.294,39.551,36.133,45.410,45.898,34.180,0
1555964239.298,24.902,30.762,29.785,41.504,40.039,0
1555964239.302,13.672,26.855,37.598,22.461,46.875,0
1555964239.305,29.297,21.973,45.410,35.645,-1.953,0
1555964239.309,35.156,25.879,60.547,55.664,90.820,0
1555964239.313,5.859,31.250,74.219,52.246,88.379,0
1555964239.317,0.000,30.762,50.781,40.039,-34.668,0
1555964239.321,22.461,24.414,62.012,40.527,5.859,0
1555964239.323,38.086,23.438,80.078,35.156,73.730,0
1555964239.327,26.367,30.273,68.359,26.855,36.621,0
1555964239.331,11.719,29.785,46.387,29.785,34.668,0
1555964239.335,21.973,25.879,53.711,39.551,42.480,0
1555964239.339,41.016,29.785,69.336,33.203,19.043,0
1555964239.343,32.227,31.738,55.176,25.879,19.043,0
1555964239.347,10.742,37.598,32.227,36.133,16.113,0
1555964239.350,14.160,35.156,13.672,36.621,-3.906,0
1555964239.354,22.461,22.949,56.152,26.855,-16.602,0
1555964239.358,13.184,21.484,93.750,9.277,-26.367,0
1555964239.362,-3.906,23.926,46.387,18.066,-17.578,0
1555964239.366,-6.348,24.902,36.621,28.320,16.113,0
1555964239.367,23.438,30.273,66.895,21.484,-30.273,0
1555964239.371,39.551,31.250,79.590,11.230,-71.289,0
1555964239.375,18.555,34.668,56.152,2.930,34.668,0
1555964239.379,-1.465,37.109,30.273,17.090,63.965,0
1555964239.383,19.043,29.785,53.711,30.273,37.109,0
1555964239.387,40.527,26.855,54.199,31.250,19.043,0
1555964239.391,21.973,29.785,22.461,22.461,23.926,0
1555964239.394,4.395,39.551,7.812,25.879,23.438,1
1555964239.398,6.836,37.109,64.453,31.250,-26.367,0
1555964239.402,21.484,24.414,101.562,27.832,25.879,0
1555964239.406,28.320,24.902,66.895,30.273,51.270,0
1555964239.410,15.625,29.297,33.691,28.809,-5.859,0
1555964239.413,11.230,27.832,46.875,18.555,-5.859,0
1555964239.417,30.273,25.391,68.359,13.184,14.160,0
1555964239.421,31.250,27.832,74.707,23.926,57.617,0
1555964239.425,14.648,36.133,57.129,32.715,68.359,0
1555964239.429,7.324,34.668,37.598,31.250,8.301,0
1555964239.433,25.391,31.738,50.293,25.879,1.465,0
1555964239.437,43.945,36.133,39.062,21.973,20.996,0
1555964239.440,18.555,37.109,42.969,14.648,30.762,0
1555964239.444,-8.301,37.598,72.266,13.184,52.246,0
1555964239.448,15.137,36.133,64.941,26.855,33.691,0
1555964239.452,33.203,30.273,60.547,29.297,0.488,0
1555964239.456,13.184,30.273,60.547,24.902,-3.906,0
1555964239.458,-3.418,34.668,48.828,20.996,60.059,0
1555964239.462,8.789,36.133,32.227,24.902,19.531,0
1555964239.466,23.438,33.203,71.777,35.645,21.484,0
1555964239.470,27.344,32.715,97.656,35.156,58.105,0
1555964239.474,11.719,33.691,61.523,39.062,45.898,0
1555964239.478,3.906,31.250,17.578,29.785,33.691,0
1555964239.482,29.297,34.668,23.438,14.648,-3.418,0
1555964239.485,36.621,37.109,78.613,23.926,-16.113,0
1555964239.489,11.719,43.457,49.805,39.062,-16.602,0
1555964239.493,8.301,48.828,23.926,35.645,-16.113,0
1555964239.497,24.902,38.086,79.102,29.785,21.484,0
1555964239.501,28.809,26.367,87.891,27.832,5.859,0
1555964239.518,17.578,31.250,55.664,18.555,-38.574,0
1555964239.522,0.000,32.227,42.480,26.367,10.254,0
1555964239.526,3.906,27.344,66.895,17.090,42.969,0
1555964239.530,33.203,27.832,90.332,17.578,44.922,0
1555964239.534,19.043,30.762,65.430,34.668,42.480,0
1555964239.538,-13.672,37.109,38.086,9.766,68.359,0
1555964239.542,2.441,35.645,45.410,8.301,43.457,0
1555964239.545,29.297,30.762,86.426,26.855,-29.297,0
1555964239.549,25.879,29.297,94.727,27.344,20.996,0
1555964239.553,15.137,29.785,23.926,29.785,59.082,0
1555964239.557,3.906,37.109,38.574,29.785,62.012,0
1555964239.561,16.113,37.109,80.566,19.531,79.590,0
1555964239.563,35.156,31.250,59.570,20.508,84.961,0
1555964239.567,14.160,33.203,51.270,24.414,91.797,0
1555964239.571,-3.906,31.738,43.457,23.926,51.758,0
1555964239.575,15.625,26.367,59.082,28.320,20.508,0
1555964239.579,28.809,25.879,59.082,10.742,-5.371,0
1555964239.583,16.113,29.297,32.227,3.418,8.301,0
1555964239.587,-4.395,30.762,33.203,25.391,64.453,0
1555964239.590,3.906,26.855,67.383,38.574,31.250,0
1555964239.594,27.832,27.832,59.082,35.156,0.000,0
1555964239.598,24.414,28.320,32.227,27.344,20.020,0
1555964239.602,-2.930,26.855,62.012,16.602,13.184,0
1555964239.606,1.953,28.320,66.895,16.113,20.996,0
1555964239.608,29.297,26.367,60.059,13.672,-18.066,0
1555964239.612,30.273,24.414,63.965,11.230,-24.414,0
1555964239.616,21.484,29.785,40.527,21.973,23.438,0
1555964239.620,6.836,34.180,31.738,2.930,42.480,0
1555964239.624,15.137,30.762,63.965,24.414,42.969,0
1555964239.628,35.156,26.367,66.406,44.922,26.855,0
1555964239.632,21.973,26.855,48.340,40.039,20.996,0
1555964239.635,15.137,25.879,59.082,23.438,49.805,0
1555964239.639,25.391,27.344,49.805,28.320,95.703,0
1555964239.643,27.344,24.414,57.129,35.645,56.641,0
1555964239.647,15.625,20.996,86.426,29.297,13.184,0
1555964239.651,-2.441,28.809,62.500,39.062,88.379,0
1555964239.653,2.930,30.273,54.688,15.137,83.008,0
1555964239.657,18.555,29.297,76.660,4.395,4.395,0
1555964239.661,30.762,34.668,66.895,27.832,-42.969,0
1555964239.665,16.113,32.715,33.691,19.043,-8.301,0
1555964239.669,6.348,28.809,34.180,30.273,40.039,0
1555964239.673,28.809,24.902,50.781,39.551,22.949,0
1555964239.677,28.809,24.414,57.617,23.926,24.414,0
1555964239.680,10.742,33.203,18.066,38.574,-12.695,0
1555964239.684,9.277,35.645,18.555,37.598,-34.180,0
1555964239.688,23.438,28.809,95.215,32.227,-10.254,0
1555964239.692,36.133,27.832,88.379,44.922,-35.156,0
1555964239.696,23.926,26.367,49.805,31.738,6.836,0
1555964239.698,-4.395,26.367,44.434,3.906,69.336,0
1555964239.702,3.906,29.785,62.012,2.441,12.207,0
1555964239.706,27.832,33.203,88.379,21.484,57.617,0
1555964239.710,22.461,32.227,64.941,19.043,88.867,0
1555964239.714,6.348,30.273,40.039,18.066,33.691,0
1555964239.718,12.695,31.738,47.363,33.691,35.156,0
1555964239.722,30.762,24.414,68.848,26.367,42.969,0
1555964239.725,33.691,23.438,39.062,22.949,26.367,0
1555964239.729,9.277,24.902,25.391,20.508,43.945,0
1555964239.733,-0.488,26.855,78.613,23.438,76.172,0
1555964239.737,25.879,26.367,82.031,32.227,49.805,0
1555964239.741,22.949,22.949,62.012,20.996,13.672,0
1555964239.744,8.301,30.273,63.965,32.227,41.016,0
1555964239.748,10.254,35.645,57.129,46.875,68.848,0
1555964239.752,27.832,37.109,41.016,33.203,-16.602,0
1555964239.756,42.969,29.785,62.500,20.508,-18.066,0
1555964239.760,25.879,22.461,63.965,28.320,2.930,0
1555964239.764,-2.441,24.414,29.297,36.621,-20.508,0
1555964239.768,10.742,26.855,32.715,38.574,32.715,0
1555964239.771,35.645,30.762,45.410,24.414,13.184,0
1555964239.775,30.762,34.180,75.195,22.949,0.000,0
1555964239.779,5.859,38.086,54.199,27.344,13.184,0
1555964239.783,-2.441,30.762,32.227,11.230,15.625,0
1555964239.787,30.762,24.902,52.246,17.578,65.430,0
1555964239.788,49.316,28.809,54.688,41.016,28.809,0
1555964239.792,37.109,32.227,41.992,51.270,6.348,0
1555964239.796,27.344,36.133,41.016,43.457,58.594,0
1555964239.800,39.062,36.133,75.684,21.484,89.844,0
1555964239.804,47.363,31.738,79.102,22.461,80.078,0
1555964239.808,25.391,34.668,38.574,32.715,44.922,0
1555964239.812,6.836,33.203,9.277,34.668,25.879,0
1555964239.815,11.230,24.414,52.246,22.461,21.973,0
1555964239.819,18.066,22.461,102.539,6.348,41.016,0
1555964239.823,11.719,29.785,57.617,13.672,21.973,0
1555964239.827,-11.719,28.809,28.809,2.441,-21.973,0
1555964239.831,1.465,21.484,73.730,1.465,4.883,0
1555964239.833,29.297,20.020,110.840,27.344,58.105,0
1555964239.837,21.484,23.438,75.684,34.180,62.012,0
1555964239.841,3.906,27.344,30.762,31.738,67.871,0
1555964239.845,13.184,24.902,59.082,34.180,82.031,0
1555964239.849,25.391,20.508,96.191,24.414,82.031,0
1555964239.853,25.879,24.414,56.641,20.508,49.805,0
1555964239.857,7.812,28.809,19.043,16.602,30.273,0
1555964239.860,0.488,30.762,64.453,13.672,31.738,0
1555964239.864,29.785,35.156,97.656,15.625,27.832,0
1555964239.868,33.203,34.668,85.449,6.836,34.668,0
1555964239.872,13.672,32.227,60.547,29.785,41.504,0
1555964239.876,2.930,31.250,44.922,31.250,26.855,0
1555964239.893,23.438,26.855,53.711,22.949,-1.953,0
1555964239.897,41.504,25.879,76.172,21.484,36.133,0
1555964239.901,29.297,32.227,73.242,28.320,32.227,0
1555964239.905,10.254,34.180,57.617,36.621,4.883,0
1555964239.909,13.184,31.250,55.664,8.789,2.441,0
1555964239.913,33.691,28.320,52.734,-14.648,-22.949,0
1555964239.917,39.062,31.738,57.129,22.461,44.922,0
1555964239.920,17.090,37.598,43.945,38.086,30.273,0
1555964239.924,12.695,28.809,55.664,25.879,32.715,0
1555964239.928,33.203,27.344,46.875,26.367,65.918,0
1555964239.932,34.668,32.227,53.711,34.180,22.949,0
1555964239.936,14.160,29.785,65.430,21.973,7.812,0
1555964239.938,-1.953,26.367,36.621,8.789,6.836,0
1555964239.942,14.648,19.531,51.758,16.602,14.648,0
1555964239.946,31.250,17.578,79.590,8.789,16.113,0
1555964239.950,17.090,32.715,55.176,13.672,-28.809,0
1555964239.954,10.742,41.504,20.508,41.016,-43.945,0
1555964239.958,26.855,30.762,33.203,43.945,7.324,0
1555964239.962,46.875,26.367,71.777,39.062,45.898,0
1555964239.965,33.691,39.062,74.707,39.062,31.250,0
1555964239.969,9.277,45.898,28.809,38.574,25.879,0
1555964239.973,20.508,41.504,21.973,31.250,51.758,0
1555964239.977,37.598,31.738,84.473,2.441,45.898,0
1555964239.981,31.738,20.508,76.172,6.836,59.082,0
1555964239.983,8.789,21.484,33.691,43.457,43.457,0
1555964239.987,9.277,30.273,39.551,32.227,27.344,0
1555964239.991,34.180,35.156,68.848,10.742,27.832,0
1555964239.995,48.340,39.551,70.801,19.531,24.902,0
1555964239.999,33.691,39.551,40.039,27.832,3.906,0
1555964240.003,13.184,31.250,31.250,29.297,44.922,0
1555964240.007,15.137,27.832,59.082,27.832,69.336,0
1555964240.010,28.320,28.320,80.078,29.297,0.977,0
1555964240.014,25.879,33.203,33.203,25.879,2.441,0
1555964240.018,10.742,36.133,19.043,20.020,15.625,0
1555964240.022,18.555,28.320,66.406,13.672,-2.441,0
1555964240.026,39.551,31.738,57.617,28.320,12.695,0
1555964240.028,34.668,39.062,51.270,46.387,61.523,0
1555964240.032,11.230,40.527,42.480,36.621,60.059,0
1555964240.036,17.090,38.086,39.551,26.855,42.969,0
1555964240.040,36.621,30.273,43.945,31.738,86.426,0
1555964240.044,38.574,24.902,24.902,24.414,27.832,0
1555964240.048,13.672,27.832,6.836,35.645,10.742,0
1555964240.052,3.418,32.715,20.996,28.809,14.160,0
1555964240.055,30.273,28.809,43.457,-4.395,-18.066,0
1555964240.059,47.852,27.344,37.109,19.043,69.336,0
1555964240.063,29.785,26.367,58.105,41.992,73.242,0
1555964240.067,5.859,31.738,60.547,36.621,16.113,0
1555964240.071,23.926,40.039,58.594,29.297,40.527,0
1555964240.073,42.969,31.738,69.824,11.719,102.051,0
1555964240.077,28.320,30.762,54.199,1.465,96.680,0
1555964240.081,9.766,35.156,4.395,7.324,41.016,0
1555964240.085,9.277,33.691,9.277,9.766,-27.832,0
1555964240.089,23.438,33.691,53.711,9.766,-45.410,0
1555964240.093,17.090,36.621,40.039,12.695,-8.301,0
1555964240.097,7.812,36.133,22.949,24.414,23.438,0
1555964240.100,11.719,33.203,7.324,33.203,20.020,0
1555964240.104,20.020,27.344,40.527,23.438,-9.277,0
1555964240.108,22.461,27.344,77.637,6.348,-9.766,0
1555964240.112,18.555,33.203,22.949,19.043,-19.531,0
1555964240.116,16.602,22.461,14.160,23.926,36.133,0
1555964240.118,29.785,30.273,49.805,6.836,38.574,0
1555964240.122,36.621,38.574,45.898,9.277,-59.570,0
1555964240.126,18.555,37.109,19.043,20.020,-29.297,0
1555964240.130,-6.348,39.551,8.301,27.832,-4.883,0
1555964240.134,4.883,34.668,43.457,23.926,15.625,0
1555964240.138,32.227,38.574,54.688,1.465,72.754,0
1555964240.142,26.855,33.203,14.160,7.324,58.105,0
1555964240.145,5.371,23.926,-16.113,14.160,-4.395,0
1555964240.149,17.578,33.691,45.410,2.930,-32.715,0
1555964240.153,37.109,32.227,91.797,20.508,65.430,0
1555964240.157,30.762,29.785,50.293,33.203,64.941,0
1555964240.161,10.254,34.668,15.137,22.461,22.949,0
1555964240.163,-0.488,31.250,27.344,14.648,50.293,0
1555964240.167,19.043,27.832,48.828,9.277,46.875,0
1555964240.171,30.273,31.250,36.621,0.977,13.184,0
1555964240.175,5.371,23.438,22.949,-2.930,26.855,0
1555964240.179,0.977,19.043,20.996,20.020,-5.859,0
1555964240.183,25.879,29.297,39.062,34.180,-9.277,0
1555964240.187,37.109,31.250,35.156,37.598,48.340,0
1555964240.190,27.344,35.156,35.645,42.480,24.902,0
1555964240.194,8.301,36.621,50.293,29.785,13.672,0
1555964240.198,15.137,35.156,41.504,21.973,28.320,0
1555964240.202,36.621,32.715,50.781,14.648,-28.320,0
1555964240.206,28.809,35.156,53.223,-0.977,-49.805,0
1555964240.208,4.395,38.574,48.340,-1.953,59.570,0
1555964240.212,17.090,39.551,28.320,13.672,50.781,0
1555964240.216,38.574,38.574,41.992,19.043,-16.602,0
1555964240.220,29.785,32.715,68.359,13.672,7.324,0
1555964240.224,13.184,36.621,37.109,9.277,-4.883,0
1555964240.228,9.766,35.645,2.930,24.414,-4.883,0
1555964240.232,30.273,26.367,28.809,37.598,18.066,0
1555964240.235,34.668,22.949,85.938,24.414,38.086,0
1555964240.239,18.555,22.461,66.895,17.090,41.016,0
1555964240.243,13.184,27.832,32.227,30.273,52.734,0
1555964240.247,30.762,32.715,44.922,31.250,59.082,0
1555964240.251,42.969,38.574,51.270,33.203,52.246,0
1555964240.268,27.344,37.598,37.109,32.715,39.062,0
1555964240.272,1.953,27.344,17.090,30.762,33.691,0
1555964240.276,12.207,21.973,28.809,22.461,62.988,0
1555964240.280,46.387,26.855,63.477,12.207,120.117,0
1555964240.284,35.156,33.203,39.062,21.973,78.613,0
1555964240.288,0.000,33.691,-11.230,21.973,-18.555,0
1555964240.292,9.277,37.598,17.578,19.531,-19.531,0
1555964240.295,36.133,40.039,62.500,20.508,-29.297,0
1555964240.299,35.645,44.922,46.875,4.395,-11.719,0
1555964240.303,14.648,45.410,-3.418,20.020,26.367,0
1555964240.307,6.348,35.645,17.578,30.762,3.906,0
1555964240.311,30.762,30.762,70.801,25.391,0.977,0
1555964240.313,43.945,29.297,48.340,27.344,-8.301,0
1555964240.317,23.926,32.227,27.344,32.227,24.902,0
1555964240.321,6.836,42.480,21.973,40.527,21.484,0
1555964240.325,25.391,36.621,41.016,41.992,12.207,0
1555964240.329,51.758,27.832,52.246,40.527,31.250,0
1555964240.333,36.621,39.062,28.809,27.344,26.855,0
1555964240.337,4.883,41.016,27.344,20.996,49.316,0
1555964240.340,16.113,33.691,50.781,21.973,15.625,0
1555964240.344,36.621,26.855,37.598,23.926,8.301,0
1555964240.348,23.926,22.461,6.348,28.320,3.418,0
1555964240.352,5.371,27.344,41.992,21.484,20.996,0
1555964240.356,8.789,32.715,62.988,16.113,88.379,0
1555964240.358,28.320,29.785,65.918,15.137,76.660,0
1555964240.362,29.785,33.203,62.500,19.043,36.621,0
1555964240.366,8.789,37.598,35.645,16.602,-1.465,0
1555964240.370,10.742,36.621,25.879,23.926,-13.672,0
1555964240.374,40.527,38.086,45.898,37.109,26.367,0
1555964240.378,55.176,41.992,35.156,34.668,5.371,0
1555964240.382,26.855,40.527,16.602,17.090,-6.836,0
1555964240.385,2.441,37.598,25.391,13.184,0.000,0
1555964240.389,14.648,38.086,14.648,23.438,-8.789,0
1555964240.393,20.508,33.691,50.781,19.043,54.688,0
1555964240.397,15.137,28.809,84.961,9.766,76.172,0
1555964240.401,3.906,31.738,27.344,1.465,28.320,0
1555964240.403,11.230,28.809,22.461,9.766,39.062,0
1555964240.407,36.133,18.555,48.340,20.020,7.812,0
1555964240.411,31.250,22.461,41.992,17.578,-6.836,0
1555964240.415,14.648,33.691,10.254,29.785,11.230,0
1555964240.419,15.137,39.062,9.766,42.969,-44.922,0
1555964240.423,34.668,35.645,46.875,36.133,-48.340,0
1555964240.427,41.992,34.180,75.195,8.789,31.738,0
1555964240.430,22.949,41.016,27.832,2.441,39.062,0
1555964240.434,6.836,39.551,-20.996,15.137,15.625,0
1555964240.438,9.277,22.461,53.711,6.348,45.410,0
1555964240.442,19.043,16.602,72.266,23.926,54.688,0
1555964240.446,16.113,20.508,13.672,34.668,6.348,0
1555964240.448,-1.953,23.438,13.184,26.367,32.227,0
1555964240.452,8.789,37.598,41.504,27.832,27.832,0
1555964240.456,32.715,36.621,43.457,25.391,-16.113,0
1555964240.460,17.090,36.133,34.180,19.043,20.020,1
1555964240.464,-4.395,44.922,20.996,24.902,56.641,0
1555964240.468,5.371,37.598,10.742,22.949,32.715,0
1555964240.472,30.762,27.344,35.156,1.465,11.719,0
1555964240.475,35.156,29.785,3.906,4.395,8.301,0
1555964240.479,5.859,30.762,-11.230,31.738,-4.883,0
1555964240.483,-6.348,30.273,45.410,29.297,-29.785,0
1555964240.487,27.832,34.668,47.852,17.090,-48.340,0
1555964240.491,40.527,36.133,40.527,25.879,3.418,0
1555964240.492,21.973,38.574,39.062,34.180,41.504,0
1555964240.496,17.578,32.715,32.715,19.043,17.090,0
1555964240.500,38.086,29.297,31.738,16.602,19.531,0
1555964240.504,36.621,24.902,42.480,23.926,49.805,0
1555964240.508,17.578,25.391,50.293,1.465,41.992,0
1555964240.512,7.812,32.715,27.832,21.973,41.992,0
1555964240.516,18.555,29.297,19.531,41.016,42.969,0
1555964240.519,30.762,28.320,28.809,8.789,53.223,0
1555964240.523,17.578,23.438,52.246,13.672,5.371,0
1555964240.527,-0.488,21.973,45.410,26.855,15.625,0
1555964240.531,5.859,26.367,28.809,33.691,47.852,0
1555964240.535,33.691,29.785,42.480,33.691,-8.301,0
1555964240.538,28.809,35.645,59.570,21.973,-2.441,0
1555964240.542,7.324,35.645,39.551,19.043,59.082,0
1555964240.546,14.648,27.832,10.254,27.344,38.086,0
1555964240.550,31.250,19.531,28.809,21.973,-3.418,0
1555964240.554,31.738,18.555,50.781,-0.977,30.273,0
1555964240.558,13.672,28.320,16.602,11.230,25.391,0
1555964240.562,9.277,36.133,-26.855,26.855,-17.578,0
1555964240.565,24.414,34.180,19.043,15.625,-11.230,0
1555964240.569,20.996,30.762,87.891,22.461,46.875,0
1555964240.573,11.719,36.621,58.594,30.273,90.332,0
1555964240.577,1.465,40.527,20.020,13.672,96.191,0
1555964240.581,9.277,34.668,32.715,25.391,61.035,0
1555964240.582,31.250,29.297,60.547,23.926,10.742,0
1555964240.586,32.715,28.320,48.340,20.020,62.012,0
1555964240.590,13.184,31.250,8.789,35.645,79.590,0
1555964240.594,9.277,33.203,34.668,32.715,40.527,0
1555964240.598,30.762,32.227,71.289,26.367,50.293,0
1555964240.602,38.086,35.156,25.879,33.691,33.691,0
1555964240.606,19.043,39.551,-13.672,39.062,17.090,0
1555964240.609,6.348,32.227,33.203,23.438,6.836,0
1555964240.613,25.879,20.020,74.707,24.902,7.812,0
1555964240.617,43.457,27.832,67.383,32.227,81.055,0
1555964240.621,29.785,42.480,39.062,29.785,95.215,0
1555964240.625,9.277,40.039,21.484,27.344,54.199,0
1555964240.643,11.719,30.273,26.855,31.250,29.297,0
1555964240.647,30.273,25.391,30.762,26.367,-4.883,0
1555964240.651,30.273,24.414,23.438,11.230,-11.719,0
1555964240.655,1.953,31.738,18.555,1.953,0.977,0
1555964240.659,11.719,32.227,29.785,17.090,12.695,0
1555964240.663,34.180,28.320,41.992,21.973,4.883,0
1555964240.667,25.879,30.762,46.875,23.926,35.645,0
1555964240.670,18.066,32.227,37.109,35.645,49.316,0
1555964240.674,21.973,37.598,25.879,28.320,46.875,0
1555964240.678,41.504,39.062,26.367,40.039,52.734,0
1555964240.682,57.129,37.598,53.223,53.711,20.996,0
1555964240.686,37.598,40.039,57.617,41.992,-10.742,0
1555964240.688,14.648,38.086,25.391,51.758,-21.484,0
1555964240.692,38.574,30.762,54.688,42.969,44.922,0
1555964240.696,45.898,21.973,85.938,29.297,56.641,0
1555964240.700,15.137,18.066,67.383,22.461,23.438,0
1555964240.704,7.812,28.320,29.297,27.344,41.504,0
1555964240.708,22.461,37.598,35.645,35.156,56.641,0
1555964240.712,42.969,36.621,78.125,31.250,82.520,0
1555964240.715,41.016,30.273,77.148,21.973,65.430,0
1555964240.719,18.555,39.062,14.648,34.668,44.922,0
1555964240.723,29.297,41.016,-6.348,56.641,-13.672,0
1555964240.727,47.363,19.043,73.730,46.875,-36.133,0
1555964240.731,45.898,17.090,69.336,31.250,-20.996,0
1555964240.733,15.625,28.320,24.902,24.902,-49.805,0
1555964240.737,12.695,28.320,43.945,23.438,-9.766,0
1555964240.741,40.039,29.785,81.543,27.344,44.434,0
1555964240.745,38.574,30.762,70.801,37.598,119.629,0
1555964240.749,20.996,29.785,18.555,30.762,84.473,0
1555964240.753,19.531,34.180,-18.555,20.508,-53.223,0
1555964240.757,25.879,31.250,25.879,29.297,-46.875,0
1555964240.760,41.504,24.414,60.059,39.551,1.465,0
1555964240.764,41.504,35.645,-0.488,34.668,-18.066,0
1555964240.768,20.996,41.016,0.977,26.855,7.812,0
1555964240.772,19.531,21.973,52.734,32.715,-23.926,0
1555964240.776,47.852,21.484,44.922,18.555,-12.207,0
1555964240.778,41.504,31.250,22.461,33.203,65.430,0
1555964240.782,5.859,26.855,14.160,33.203,54.688,0
1555964240.786,16.602,22.949,22.949,22.461,44.922,0
1555964240.790,51.270,28.809,22.461,43.457,1.465,0
1555964240.794,48.340,30.273,13.672,43.945,-40.039,0
1555964240.798,14.648,31.738,-2.441,30.273,8.789,0
1555964240.802,3.906,27.344,7.812,23.438,60.059,0
1555964240.805,27.832,24.902,10.254,18.555,46.387,0
1555964240.809,43.945,35.156,-2.930,38.086,28.320,0
1555964240.813,18.555,36.133,32.715,47.363,58.594,0
1555964240.817,5.859,30.273,30.273,44.434,13.184,0
1555964240.821,23.438,24.902,35.645,39.062,6.348,0
1555964240.824,28.320,25.391,47.852,13.672,37.109,0
1555964240.828,18.066,30.273,33.203,16.113,24.414,0
1555964240.832,-6.348,33.691,11.719,16.602,50.293,0
1555964240.836,3.418,32.715,19.043,13.672,75.195,0
1555964240.840,45.898,32.227,46.875,27.832,94.727,0
1555964240.844,48.340,39.062,19.043,33.203,61.523,0
1555964240.848,23.926,41.992,-10.254,38.086,32.715,0
1555964240.851,20.508,39.062,-20.020,26.367,33.691,0
1555964240.855,38.086,33.691,20.508,7.812,17.578,0
1555964240.859,37.109,32.227,57.617,33.691,-9.766,0
1555964240.863,25.879,33.203,9.766,57.129,-1.465,0
1555964240.867,16.602,31.250,-5.371,29.297,-12.695,0
1555964240.868,24.414,31.250,39.551,38.574,-28.320,0
1555964240.872,45.410,36.133,61.523,38.086,-21.484,0
1555964240.876,21.484,39.551,31.738,18.555,25.391,0
1555964240.880,-3.906,34.180,7.324,27.344,38.574,0
1555964240.884,18.555,27.344,33.203,30.762,18.555,0
1555964240.888,38.574,27.344,34.668,18.555,14.648,0
1555964240.892,29.297,30.273,11.230,25.391,51.270,0
1555964240.895,11.230,31.738,-17.578,30.273,71.289,0
1555964240.899,14.648,32.227,22.949,10.742,9.766,0
1555964240.903,25.391,30.762,71.289,9.766,27.344,0
1555964240.907,30.273,28.809,44.434,31.250,82.520,0
1555964240.911,17.090,32.715,11.719,34.180,54.199,0
1555964240.913,12.695,38.086,25.879,31.250,21.484,0
1555964240.917,26.367,30.762,48.340,42.969,11.719,0
1555964240.921,36.133,25.391,32.715,29.785,13.184,0
1555964240.925,22.949,36.133,9.277,22.461,17.090,0
1555964240.929,2.930,34.668,3.418,25.391,-19.043,0
1555964240.933,23.438,30.762,23.926,7.324,-9.766,0
1555964240.937,46.875,29.297,13.184,8.301,22.461,0
1555964240.940,12.695,24.414,6.836,20.508,43.457,0
1555964240.944,-17.578,24.902,44.434,17.090,47.852,0
1555964240.948,10.254,29.297,63.477,10.742,111.328,0
1555964240.952,31.738,30.762,45.898,-1.953,77.148,0
1555964240.956,18.555,27.832,27.832,8.301,9.277,0
1555964240.958,-1.953,33.691,30.273,1.953,-3.906,0
1555964240.962,11.230,41.992,24.414,9.766,-34.668,0
1555964240.966,38.086,35.156,36.133,42.969,-7.324,0
1555964240.970,35.156,29.785,44.434,-12.695,32.227,0
1555964240.974,18.066,33.203,11.230,-23.926,5.371,0
1555964240.978,10.742,37.109,-10.254,33.203,8.789,0
1555964240.982,30.762,41.016,3.418,37.598,17.578,0
1555964240.985,37.109,36.621,42.969,54.199,-44.922,0
1555964240.989,15.625,39.062,35.645,62.012,-48.828,0
1555964240.993,5.859,43.945,2.441,41.016,-15.625,0
1555964240.997,27.344,41.504,17.578,21.973,-41.992,0
1555964241.001,55.664,39.551,47.852,30.762,-22.949,0
1555964241.018,33.203,35.645,34.180,25.391,24.902,0
1555964241.022,0.488,31.250,4.395,35.645,42.969,0
1555964241.026,9.277,25.879,13.184,30.762,44.922,0
1555964241.030,27.344,25.391,53.223,11.230,41.992,0
1555964241.034,30.762,35.645,38.574,26.367,27.832,0
1555964241.038,12.695,38.086,-9.766,27.344,19.043,0
1555964241.042,16.113,35.156,1.465,21.484,10.742,0
1555964241.045,29.785,35.645,57.617,23.926,48.340,0
1555964241.049,20.020,36.133,52.734,23.438,58.105,0
1555964241.053,12.207,37.109,-25.391,13.672,-29.297,0
1555964241.057,0.000,33.691,-0.977,20.508,-18.555,0
1555964241.061,-4.395,27.344,65.430,25.879,8.789,0
1555964241.063,17.090,26.855,48.340,25.879,32.227,0
1555964241.067,13.672,25.391,15.625,31.738,74.707,0
1555964241.071,7.324,24.414,5.859,24.414,59.570,0
1555964241.075,25.391,28.320,22.461,18.555,34.668,0
1555964241.079,37.598,28.320,26.367,21.484,33.691,0
1555964241.083,21.973,30.273,6.348,21.973,51.758,0
1555964241.087,-2.930,36.133,-2.930,27.344,102.539,0
1555964241.090,7.812,32.715,5.371,8.301,35.156,0
1555964241.094,36.133,19.531,-0.488,-6.836,-27.344,0
1555964241.098,31.738,14.160,-17.090,7.324,10.742,0
1555964241.102,-0.977,18.555,16.113,12.695,6.348,0
1555964241.106,5.859,23.438,27.832,8.301,28.809,0
1555964241.108,30.273,28.809,34.180,15.625,64.453,0
1555964241.112,28.320,28.809,40.039,14.648,92.285,0
1555964241.116,16.602,34.668,17.578,19.043,106.445,0
1555964241.120,13.672,41.992,4.395,24.414,86.426,0
1555964241.124,24.414,36.621,14.160,22.949,56.152,0
1555964241.128,27.344,29.297,13.672,12.695,29.297,0
1555964241.132,16.113,22.461,5.859,10.742,-7.324,0
1555964241.135,5.859,25.391,31.738,25.879,54.688,0
1555964241.139,23.926,38.086,19.531,24.902,103.516,0
1555964241.143,44.922,36.621,25.879,28.320,45.898,0
1555964241.147,25.879,32.227,59.570,25.391,45.410,0
1555964241.151,6.348,38.574,23.926,24.414,89.844,0
1555964241.153,21.484,34.180,5.371,16.113,39.062,0
1555964241.157,41.504,28.809,50.293,13.184,74.219,0
1555964241.161,45.898,33.203,57.617,34.180,53.223,0
1555964241.165,25.391,42.480,14.648,21.973,-2.441,0
1555964241.169,9.766,36.621,12.207,25.879,-5.859,0
1555964241.173,24.414,29.297,35.645,37.109,34.668,0
1555964241.177,39.062,32.715,43.945,31.738,22.949,0
1555964241.180,22.461,32.715,17.578,29.785,36.133,0
1555964241.184,0.977,36.133,-18.555,17.578,72.754,0
1555964241.188,14.160,36.621,38.086,2.930,-23.926,0
1555964241.192,32.227,35.645,56.641,15.625,-27.344,0
1555964241.196,21.484,37.598,20.020,36.621,26.855,0
1555964241.198,8.789,35.645,18.555,39.062,0.000,0
1555964241.202,22.949,30.762,45.410,31.738,42.969,0
1555964241.206,37.109,32.715,46.875,21.484,40.039,0
1555964241.210,31.738,39.062,22.461,13.672,2.441,0
1555964241.214,10.254,42.480,20.020,32.715,10.254,0
1555964241.218,9.766,41.016,34.180,28.809,24.414,0
1555964241.222,33.203,41.504,50.293,17.090,64.941,0
1555964241.225,43.457,41.992,10.742,40.527,21.484,0
1555964241.229,23.438,45.410,-4.883,21.973,1.953,0
1555964241.233,5.859,46.387,33.203,5.859,-20.020,0
1555964241.237,41.016,41.016,42.969,36.133,-31.738,0
1555964241.241,58.594,38.086,40.039,47.363,-31.250,0
1555964241.243,26.367,43.457,35.156,35.156,13.184,0
1555964241.247,14.160,45.410,20.508,27.344,31.738,0
1555964241.251,38.086,41.016,17.090,36.133,6.348,0
1555964241.255,56.641,43.457,46.387,49.805,35.645,0
1555964241.259,39.062,50.781,41.504,46.875,62.500,0
1555964241.263,22.461,52.246,0.977,35.645,50.293,0
1555964241.267,33.203,48.340,-6.836,42.480,31.250,0
1555964241.270,51.758,43.945,13.672,42.480,53.711,0
1555964241.274,43.457,43.945,38.574,35.156,25.879,0
1555964241.278,19.043,45.898,27.832,23.926,-20.508,0
1555964241.282,22.949,44.434,31.250,27.344,40.039,0
1555964241.286,45.410,42.969,52.246,36.133,65.918,0
1555964241.288,38.086,37.109,51.758,27.344,26.855,0
1555964241.292,27.832,37.109,14.648,39.062,-43.457,0
1555964241.296,15.137,40.527,4.395,41.016,-53.711,0
1555964241.300,19.531,36.621,41.016,26.855,6.836,0
1555964241.304,42.480,38.086,35.645,26.855,8.789,0
1555964241.308,26.855,42.969,-0.977,27.832,13.184,0
1555964241.312,12.207,43.457,-26.855,31.250,32.715,0
1555964241.315,26.367,35.645,7.812,22.461,30.762,0
1555964241.319,35.645,30.273,66.895,18.066,16.113,0
1555964241.323,27.344,40.039,37.109,26.855,14.160,0
1555964241.327,7.324,42.480,6.348,16.602,-1.465,0
1555964241.331,13.672,37.109,34.668,4.395,-6.348,0
1555964241.333,38.086,36.133,54.688,-0.488,-28.809,0
1555964241.337,18.555,31.738,33.691,-1.953,-24.902,0
1555964241.341,-13.672,31.250,12.695,1.953,54.199,0
1555964241.345,1.465,35.156,41.016,1.953,96.680,0
1555964241.349,26.367,40.039,60.547,10.742,92.773,0
1555964241.353,25.391,37.109,8.789,20.020,28.809,0
1555964241.357,6.348,31.738,-21.484,34.180,15.137,0
1555964241.360,-1.465,32.715,23.438,30.762,34.180,0
1555964241.364,14.648,34.180,45.898,16.113,-12.207,0
1555964241.368,23.438,35.156,47.852,-18.555,-6.836,0
1555964241.372,12.207,31.738,41.504,-9.277,17.578,0
1555964241.376,-4.395,22.949,36.133,-3.418,45.410,0
1555964241.393,1.465,28.320,43.945,-8.301,65.918,0
1555964241.397,21.973,39.062,52.734,28.320,70.801,0
1555964241.401,13.184,36.133,37.109,23.926,50.293,0
1555964241.405,-22.949,28.320,19.043,7.812,65.430,0
1555964241.409,-13.672,24.902,26.855,10.254,89.844,0
1555964241.413,5.371,30.273,22.949,6.836,37.598,0
1555964241.417,0.000,30.273,26.367,-2.441,1.953,0
1555964241.420,-20.508,29.297,38.574,-2.930,34.668,0
1555964241.424,-26.367,37.598,25.391,-7.812,2.441,0
1555964241.428,1.465,36.133,12.207,-0.977,-37.109,0
1555964241.432,10.254,32.227,21.484,-0.488,-32.715,0
1555964241.436,-5.859,27.344,42.480,0.000,-12.695,0
1555964241.438,-16.113,24.414,48.340,10.742,37.109,0
1555964241.442,5.859,23.926,49.805,6.348,55.176,0
1555964241.446,21.484,16.602,62.012,-15.137,4.883,0
1555964241.450,-4.883,18.555,51.758,-3.418,-20.020,0
1555964241.454,-10.742,24.902,26.367,16.602,1.465,0
1555964241.458,7.812,24.414,30.273,5.859,13.184,0
1555964241.462,22.949,18.066,57.617,6.348,8.789,0
1555964241.465,4.883,23.926,71.289,4.883,28.320,0
1555964241.469,-19.531,31.738,18.555,-14.160,42.480,0
1555964241.473,-7.324,23.438,-4.395,-23.438,14.648,0
1555964241.477,3.418,21.973,81.055,-15.625,20.020,0
1555964241.481,2.930,28.809,82.031,-7.812,38.086,0
1555964241.482,-6.836,31.250,36.133,11.719,73.242,0
1555964241.486,-0.977,30.762,27.344,-3.906,60.547,0
1555964241.490,15.137,28.809,53.711,-8.301,47.363,0
1555964241.494,10.742,25.879,62.988,22.949,33.203,0
1555964241.498,7.324,31.250,33.691,34.668,45.898,0
1555964241.502,5.371,33.203,16.602,28.809,87.402,0
1555964241.506,16.113,31.250,49.316,14.160,73.730,0
1555964241.509,31.738,36.621,82.031,6.836,41.992,0
1555964241.513,19.531,35.645,9.277,8.301,-6.836,0
1555964241.517,-1.953,34.180,2.930,14.648,9.277,0
1555964241.521,13.672,43.457,79.590,20.020,32.715,0
1555964241.525,31.738,47.852,74.707,16.602,50.781,0
1555964241.527,21.973,36.621,46.875,6.348,64.941,0
1555964241.531,-0.488,28.809,25.391,15.137,20.020,0
1555964241.535,-5.371,32.227,29.297,26.367,-8.789,0
1555964241.539,17.090,26.855,36.133,22.949,10.254,0
1555964241.543,12.695,27.344,25.391,13.672,7.812,0
1555964241.547,0.488,38.086,16.113,16.602,13.672,0
1555964241.551,-3.906,28.320,24.414,21.973,-14.648,0
1555964241.554,13.184,19.531,39.062,20.020,-45.898,0
1555964241.558,30.273,28.809,43.457,-0.488,-23.926,0
1555964241.562,12.695,34.180,76.660,3.418,51.270,0
1555964241.566,4.395,33.691,63.965,19.531,84.961,0
1555964241.570,26.367,31.738,53.223,34.180,62.012,0
1555964241.572,40.039,31.250,57.129,47.852,-7.324,0
1555964241.576,22.461,26.855,52.734,42.480,34.668,0
1555964241.580,3.418,20.020,41.016,30.273,69.336,0
1555964241.584,16.113,24.902,44.922,30.273,30.273,2
1555964241.588,39.551,31.738,66.406,23.926,42.480,0
1555964241.592,35.156,32.715,45.898,17.090,43.945,0
1555964241.596,15.137,33.203,30.273,30.273,22.949,0
1555964241.599,7.812,25.879,17.090,40.527,63.477,0
1555964241.603,26.367,21.973,50.781,48.340,105.957,0
1555964241.607,32.715,25.879,85.938,33.203,25.879,0
1555964241.611,7.812,28.320,40.039,23.438,3.906,0
1555964241.615,-3.418,30.762,25.879,10.742,44.434,0
1555964241.617,20.996,30.273,62.988,13.672,46.875,0
1555964241.621,30.762,22.461,75.684,24.902,41.016,0
1555964241.625,7.324,24.414,36.621,15.625,58.105,0
1555964241.629,-10.254,32.715,19.043,5.371,20.020,0
1555964241.633,3.906,35.156,60.059,7.324,15.625,0
1555964241.637,24.902,39.062,60.547,15.137,37.109,0
1555964241.641,4.883,34.668,22.461,-2.441,42.480,0
1555964241.644,-14.648,28.320,2.441,-2.930,50.781,0
1555964241.648,1.953,25.879,57.617,4.883,42.969,0
1555964241.652,22.461,25.391,75.684,5.859,-13.184,0
1555964241.656,25.391,28.320,41.016,8.789,-24.902,0
1555964241.660,1.953,29.785,40.039,3.906,77.637,0
1555964241.663,-5.859,29.297,49.316,10.254,68.848,0
1555964241.667,25.391,33.203,52.734,7.812,11.230,0
1555964241.671,42.969,29.297,57.617,9.766,30.273,0
1555964241.675,18.066,20.996,54.199,21.973,80.078,0
1555964241.679,-5.859,20.996,37.598,18.555,49.316,0
1555964241.683,20.020,20.508,41.504,24.414,47.852,0
1555964241.687,42.969,19.531,24.902,19.043,38.574,0
1555964241.690,21.484,20.508,35.156,2.930,56.641,0
1555964241.694,3.906,21.973,67.383,8.789,46.875,0
1555964241.698,15.137,30.273,73.242,25.391,3.906,0
1555964241.702,32.227,37.598,83.008,34.668,2.441,0
1555964241.706,39.551,40.039,74.707,31.738,19.043,0
1555964241.708,22.949,37.109,50.781,45.410,34.668,0
1555964241.712,25.879,28.809,29.785,54.199,17.578,0
1555964241.716,49.316,29.785,44.922,69.824,-13.184,0
1555964241.720,48.340,35.156,74.219,62.988,-17.578,0
1555964241.724,22.949,30.762,62.988,44.434,59.570,0
1555964241.728,11.230,26.367,29.785,32.715,58.594,0
1555964241.732,27.344,22.949,34.668,27.344,-32.227,0
1555964241.735,30.762,27.344,92.773,19.531,-53.711,0
1555964241.739,16.602,34.180,100.098,29.297,-3.906,0
1555964241.743,4.883,32.227,68.848,49.316,16.602,0
1555964241.747,21.484,32.227,89.844,44.922,15.137,0
1555964241.751,39.551,36.621,119.629,46.387,11.719,0
1555964241.768,32.227,45.410,103.027,36.621,37.109,0
1555964241.772,14.648,46.387,58.105,27.832,-17.090,0
1555964241.776,18.066,41.016,67.383,17.578,-44.922,0
1555964241.780,35.156,32.227,105.957,22.949,16.113,0
1555964241.784,37.598,25.391,75.195,40.039,12.695,0
1555964241.788,17.578,32.715,50.781,27.832,32.715,0
1555964241.792,20.996,36.133,72.754,23.926,9.277,0
1555964241.795,41.992,33.203,105.957,25.391,-44.922,0
1555964241.799,42.969,31.738,121.094,35.645,37.109,0
1555964241.803,28.320,39.551,53.223,42.969,101.562,0
1555964241.807,11.230,41.016,50.293,35.645,35.156,0
1555964241.811,33.203,34.180,119.141,41.992,14.160,0
1555964241.813,51.758,42.480,108.398,50.781,22.949,0
1555964241.817,35.156,52.246,76.660,55.664,-30.762,0
1555964241.821,13.672,41.016,89.844,43.457,2.441,0
1555964241.825,17.578,31.738,103.027,11.719,45.410,0
1555964241.829,38.574,35.156,86.426,17.090,35.645,0
1555964241.833,31.250,40.527,47.363,28.320,1.953,0
1555964241.837,2.441,41.016,59.570,10.254,47.363,0
1555964241.840,-1.465,41.016,98.145,13.672,109.375,0
1555964241.844,23.438,41.504,91.797,21.973,102.539,0
1555964241.848,29.785,41.504,82.031,25.391,81.055,0
1555964241.852,0.000,38.086,105.469,32.227,37.109,0
1555964241.856,0.488,28.809,116.211,40.039,16.602,0
1555964241.858,30.762,27.344,125.488,37.109,41.992,0
1555964241.862,30.273,32.227,121.094,17.090,53.223,0
1555964241.866,13.184,36.133,98.633,4.395,34.668,0
1555964241.870,6.836,37.598,90.820,25.391,56.641,0
1555964241.874,24.902,38.086,96.680,38.086,62.500,0
1555964241.878,44.434,36.133,96.680,31.738,27.344,0
1555964241.882,24.902,36.133,81.543,36.133,18.555,0
1555964241.885,6.836,34.180,75.684,41.504,1.953,0
1555964241.889,23.438,35.156,53.223,41.504,12.207,0
1555964241.893,38.086,38.086,73.242,34.668,28.320,0
1555964241.897,24.414,32.715,91.309,32.227,7.812,0
1555964241.901,7.324,33.691,38.086,31.738,-26.855,0
1555964241.903,20.508,32.715,48.340,17.578,-12.695,0
1555964241.907,44.922,26.855,82.520,16.602,10.742,0
1555964241.911,40.527,28.320,74.707,29.297,41.504,0
1555964241.915,22.461,36.133,26.367,31.250,36.133,0
1555964241.919,25.391,36.133,18.555,41.504,6.836,0
1555964241.923,42.480,31.738,49.316,43.945,3.906,0
1555964241.927,40.527,28.320,85.938,32.715,43.457,0
1555964241.930,22.461,35.156,47.852,38.086,38.574,0
1555964241.934,10.742,36.133,10.742,51.270,4.395,0
1555964241.938,22.949,33.691,95.215,52.734,66.406,0
1555964241.942,42.480,33.203,99.609,42.480,65.430,0
1555964241.946,31.738,30.762,45.410,35.645,18.066,0
1555964241.948,23.926,36.133,45.410,40.039,6.836,0
1555964241.952,31.738,33.691,56.152,31.738,6.836,0
1555964241.956,37.109,31.738,57.617,15.625,23.926,0
1555964241.960,31.250,37.598,59.570,13.184,59.082,0
1555964241.964,9.766,37.598,24.902,24.414,18.555,0
1555964241.968,8.789,38.574,14.160,35.156,-10.254,0
1555964241.972,40.527,36.621,64.453,47.852,41.016,0
1555964241.975,47.363,34.668,37.598,48.340,39.062,0
1555964241.979,25.879,38.086,16.602,37.598,20.996,0
1555964241.983,13.184,36.133,83.984,29.297,60.547,0
1555964241.987,27.832,26.855,73.242,28.809,22.461,0
1555964241.991,35.156,30.762,57.617,25.879,1.465,0
1555964241.993,15.137,34.180,48.828,21.484,74.707,0
1555964241.997,5.371,28.320,20.020,29.785,35.156,0
1555964242.001,24.902,29.297,36.621,34.668,16.113,0
1555964242.005,47.363,31.738,43.457,42.969,44.922,0
1555964242.009,35.156,32.227,13.672,51.270,22.949,0
1555964242.013,16.113,32.227,2.441,50.293,10.742,0
1555964242.017,21.484,24.902,2.441,32.227,12.207,0
1555964242.020,35.645,27.344,4.395,22.949,44.922,0
1555964242.024,23.926,26.367,36.621,8.789,33.691,0
1555964242.028,1.465,21.484,19.043,14.648,-26.855,0
1555964242.032,10.742,28.809,12.207,36.133,11.230,0
1555964242.036,40.039,35.645,41.504,29.785,57.617,0
1555964242.038,42.480,37.598,38.574,19.043,16.602,0
1555964242.042,12.207,44.434,-0.977,30.762,11.719,0
1555964242.046,20.996,49.805,-19.531,34.180,20.996,0
1555964242.050,34.668,34.180,19.043,33.203,35.645,0
1555964242.054,31.738,20.508,28.809,40.039,41.016,0
1555964242.058,29.785,21.973,-10.742,51.270,21.484,0
1555964242.062,22.461,27.344,-41.992,60.547,17.578,0
1555964242.065,37.109,29.297,0.000,42.969,-4.395,0
1555964242.069,50.293,29.785,65.430,12.207,0.000,0
1555964242.073,28.809,27.344,31.250,13.184,45.410,0
1555964242.077,0.488,26.367,-19.531,35.156,78.613,0
1555964242.081,12.207,33.203,-0.488,22.949,78.125,0
1555964242.083,34.180,31.250,16.113,9.277,13.672,0
1555964242.087,37.109,19.531,-5.859,37.598,-29.785,0
1555964242.091,25.391,20.508,-20.020,56.641,7.812,0
1555964242.095,23.438,26.855,0.488,43.945,46.387,0
1555964242.099,31.250,24.414,17.578,33.203,26.855,0
1555964242.103,30.762,20.020,-6.348,41.992,-10.254,0
1555964242.107,25.879,26.855,-33.691,36.133,-11.719,0
1555964242.110,13.672,31.250,13.672,33.203,-20.020,0
1555964242.114,27.832,28.320,57.129,33.691,12.695,0
1555964242.118,42.480,29.785,46.387,22.949,13.672,0
1555964242.122,23.438,30.273,24.414,4.395,32.227,0
1555964242.126,9.277,33.203,26.367,8.789,51.758,0
1555964242.143,25.391,35.645,45.898,30.762,37.598,0
1555964242.147,38.086,24.414,40.039,33.691,-1.465,0
1555964242.151,32.715,16.113,40.527,32.715,43.945,0
1555964242.155,17.090,32.715,32.715,39.551,69.336,0
1555964242.159,8.789,34.180,29.785,36.133,17.090,0
1555964242.163,18.555,26.855,37.109,29.785,49.316,0
1555964242.167,17.578,27.832,28.809,30.273,21.484,0
1555964242.170,9.277,25.879,31.738,32.715,25.391,0
1555964242.174,6.348,30.762,28.320,24.414,24.902,0
1555964242.178,24.902,36.621,7.812,18.555,-14.648,0
1555964242.182,29.297,35.156,39.062,7.324,20.996,0
1555964242.186,9.766,36.133,62.500,6.836,57.617,0
1555964242.188,0.977,41.992,29.297,20.996,49.805,0
1555964242.192,11.719,45.410,28.320,7.324,48.340,0
1555964242.196,21.484,41.504,48.828,-5.859,24.902,0
1555964242.200,10.254,31.250,29.785,5.371,-29.297,0
1555964242.204,-6.836,32.227,-9.277,22.949,30.273,0
1555964242.208,12.695,36.621,-20.996,26.367,35.645,0
1555964242.212,36.133,27.832,5.859,18.555,-13.672,0
1555964242.215,26.367,23.926,17.578,13.184,-4.883,0
1555964242.219,0.977,30.273,-27.344,-6.836,-16.602,0
1555964242.223,5.371,36.133,-37.598,-12.207,-3.906,0
1555964242.227,22.949,27.832,39.062,2.930,22.461,0
1555964242.231,20.996,23.438,43.945,11.719,52.734,0
1555964242.233,-0.488,31.738,-20.020,19.043,27.344,0
1555964242.237,-7.324,29.297,-20.996,2.930,7.324,0
1555964242.241,17.090,28.809,25.879,11.230,4.395,0
1555964242.245,31.250,30.762,32.715,29.785,-8.789,0
1555964242.249,21.484,27.832,16.113,35.645,44.434,0
1555964242.253,6.836,30.762,5.859,31.738,64.453,0
1555964242.257,22.949,31.738,32.715,5.371,69.824,0
1555964242.260,41.016,37.109,65.430,3.418,86.914,0
1555964242.264,27.832,41.016,-4.883,13.672,31.250,0
1555964242.268,4.883,27.344,-23.926,16.602,-12.207,0
1555964242.272,10.254,22.949,47.852,24.414,-19.043,0
1555964242.276,25.391,27.832,41.992,29.785,10.254,0
1555964242.278,21.973,36.621,-1.465,22.949,32.715,0
1555964242.282,5.859,47.852,-27.832,8.789,-1.465,0
1555964242.286,0.488,41.504,-4.395,7.324,63.965,0
1555964242.290,27.832,31.250,-0.977,7.324,88.379,0
1555964242.294,35.156,32.715,-21.484,20.020,7.324,0
1555964242.298,6.348,37.598,-28.809,29.785,25.879,0
1555964242.302,0.977,41.504,-20.508,18.555,43.945,0
1555964242.305,24.902,35.156,-7.324,12.695,16.602,0
1555964242.309,42.969,38.086,-4.883,27.344,16.113,0
1555964242.313,35.645,49.316,21.973,42.480,16.602,0
1555964242.317,14.160,41.992,11.719,47.363,6.348,0
1555964242.321,20.508,39.062,6.348,35.645,-8.301,0
1555964242.338,37.109,36.133,21.484,24.902,1.465,0
1555964242.342,20.508,28.809,15.137,31.738,44.922,0
1555964242.346,1.465,34.668,-19.043,18.066,17.090,0
1555964242.350,22.461,36.621,0.488,10.742,41.992,0
1555964242.354,51.270,31.738,41.504,28.809,67.383,0
1555964242.358,30.273,31.250,19.043,24.902,5.371,0
1555964242.362,-5.371,35.645,3.906,24.414,7.812,0
1555964242.365,14.160,38.574,3.906,29.785,2.441,0
1555964242.369,37.598,31.738,69.824,15.137,26.367,0
1555964242.373,16.113,30.273,132.812,3.906,79.590,0
1555964242.377,0.000,42.480,80.078,20.996,63.965,0
1555964242.381,-5.859,38.086,80.078,29.297,41.992,0
1555964242.368,11.719,30.273,122.070,20.996,25.391,0
1555964242.372,29.785,38.086,124.512,24.414,-7.324,0
1555964242.376,15.625,41.992,81.055,24.414,10.742,0
1555964242.380,-1.465,39.551,47.363,20.020,34.180,0
1555964242.384,6.836,39.551,73.242,2.930,37.598,0
1555964242.388,31.250,43.457,74.219,-5.859,31.250,0
1555964242.392,26.367,47.363,55.176,27.344,29.785,0
1555964242.395,5.859,49.805,55.176,40.527,48.828,0
1555964242.399,7.812,41.504,80.566,23.438,37.109,0
1555964242.403,34.180,34.668,109.375,12.695,27.832,0
1555964242.407,30.273,40.039,72.266,10.742,55.664,0
1555964242.411,-0.977,45.410,19.531,14.648,22.949,0
1555964242.413,-2.930,33.691,70.312,19.043,28.320,0
1555964242.417,23.438,30.762,86.426,15.137,31.250,0
1555964242.421,28.320,41.016,74.219,11.719,-19.043,0
1555964242.425,8.789,43.457,75.195,22.461,0.977,0
1555964242.429,3.418,42.969,73.730,29.297,26.855,0
1555964242.433,20.996,42.480,78.613,29.785,69.336,0
1555964242.437,30.273,38.574,54.199,34.668,91.309,0
1555964242.440,13.184,35.645,41.016,33.203,47.852,0
1555964242.444,-8.789,43.457,69.824,8.789,58.105,0
1555964242.448,7.812,48.828,64.941,4.395,15.625,0
1555964242.452,34.668,47.852,70.801,18.555,-2.441,0
1555964242.456,25.391,53.223,76.660,12.695,19.531,0
1555964242.458,4.395,56.152,53.711,17.090,9.766,0
1555964242.462,12.207,45.410,44.922,12.207,29.297,0
1555964242.466,34.180,32.715,60.547,1.465,59.570,0
1555964242.470,29.785,29.785,47.852,22.461,1.465,0
1555964242.474,13.184,38.086,27.832,23.926,-27.344,0
1555964242.478,13.672,48.828,26.367,26.367,7.812,0
1555964242.482,34.668,50.293,27.344,25.879,23.926,0
1555964242.485,33.203,43.945,63.477,10.254,22.949,0
1555964242.489,6.348,42.969,54.688,7.812,42.480,0
1555964242.493,4.883,47.852,11.230,25.879,31.738,0
1555964242.497,22.461,52.246,31.250,27.344,6.348,0
1555964242.501,36.133,47.363,51.270,12.695,-30.762,0
1555964242.518,27.344,41.992,17.578,19.531,-29.297,0
1555964242.522,7.812,47.852,-1.465,14.648,33.691,0
1555964242.526,6.836,48.828,29.297,14.160,64.941,0
1555964242.530,24.414,41.016,51.758,27.344,33.691,0
1555964242.534,29.785,44.434,30.273,21.973,-14.160,0
1555964242.538,8.301,43.457,-3.418,19.531,-24.902,0
1555964242.542,-2.930,32.227,14.160,22.461,36.621,0
1555964242.545,19.043,30.273,63.965,22.949,59.082,0
1555964242.549,28.320,33.691,76.172,24.902,42.480,0
1555964242.553,9.277,39.062,6.836,26.855,43.945,0
1555964242.557,7.324,40.039,11.230,13.672,-11.230,0
1555964242.561,24.414,49.316,86.914,20.508,-9.277,0
1555964242.563,29.785,49.805,58.594,36.621,-14.648,0
1555964242.567,19.531,37.109,26.367,30.762,-13.184,0
1555964242.571,7.324,37.109,30.273,35.645,-1.465,0
1555964242.575,13.672,36.133,58.105,34.668,4.395,0
1555964242.579,29.297,31.738,68.359,25.879,63.477,0
1555964242.583,22.461,37.598,17.090,22.461,-33.691,0
1555964242.587,1.953,41.016,29.297,29.785,-69.824,0
1555964242.590,16.113,30.273,85.938,17.090,29.785,0
1555964242.594,32.715,26.855,69.824,14.648,57.129,0
1555964242.598,21.973,37.109,19.043,25.391,4.395,0
1555964242.602,2.441,42.480,36.133,21.973,24.414,0
1555964242.606,0.000,37.109,52.246,12.695,83.008,0
1555964242.608,19.531,34.180,41.504,24.902,16.113,0
1555964242.612,29.297,27.832,41.504,25.391,13.672,0
1555964242.616,12.207,25.391,24.902,14.160,63.965,0
1555964242.620,6.348,31.250,18.066,17.090,40.527,0
1555964242.624,23.926,36.621,40.039,8.301,17.578,0
1555964242.628,38.574,41.992,32.227,18.555,-12.695,0
1555964242.632,29.785,34.668,20.020,20.020,-12.695,0
1555964242.635,9.277,26.855,39.062,30.273,72.754,0
1555964242.639,26.367,28.320,6.836,29.297,9.277,0
1555964242.643,36.621,29.785,36.133,23.438,-25.879,0
1555964242.647,11.230,35.645,87.891,20.020,56.152,0
1555964242.651,0.000,41.016,29.297,28.320,45.898,0
1555964242.653,6.836,36.621,20.020,20.508,58.105,0
1555964242.657,26.367,36.133,59.082,18.066,51.270,0
1555964242.661,22.949,36.621,73.242,41.016,29.785,0
1555964242.665,1.465,34.668,28.809,37.598,50.293,0
1555964242.669,4.883,32.715,11.719,21.973,35.645,0
1555964242.673,26.855,31.738,38.086,16.113,62.988,0
1555964242.677,32.227,34.180,51.758,20.996,90.820,0
1555964242.680,14.648,41.016,13.672,14.160,51.758,0
1555964242.684,3.418,49.316,-14.160,16.602,23.926,0
1555964242.688,10.742,42.480,74.707,15.137,25.879,0
1555964242.692,24.902,36.133,100.586,0.977,48.828,0
1555964242.696,16.602,33.203,47.852,13.672,58.594,0
1555964242.698,0.488,22.949,31.738,15.137,36.133,0
1555964242.702,11.719,23.438,61.523,-5.371,30.762,0
1555964242.706,33.203,28.809,79.102,-3.906,27.832,0
1555964242.710,23.438,35.156,60.547,20.996,38.574,0
1555964242.714,1.953,38.086,44.434,38.086,58.594,0
1555964242.718,17.578,34.668,56.152,39.062,34.668,0
1555964242.722,29.297,38.086,100.098,27.832,18.066,0
1555964242.725,27.344,46.875,71.777,24.902,24.902,0
1555964242.729,20.020,49.805,37.109,27.344,34.180,0
1555964242.733,9.766,38.574,73.242,20.508,-8.789,0
1555964242.737,25.879,34.668,82.031,19.043,-6.348,1
1555964242.741,31.250,34.668,71.289,19.531,11.719,0
1555964242.743,19.043,32.227,52.246,9.766,20.996,0
1555964242.747,0.000,30.762,47.852,11.230,62.988,0
1555964242.751,9.766,28.320,45.898,22.949,71.777,0
1555964242.755,37.109,26.855,44.434,41.992,-13.672,0
1555964242.759,21.973,24.414,53.711,28.320,-37.109,0
1555964242.763,0.977,36.621,27.832,-0.488,18.066,0
1555964242.767,8.301,41.504,26.855,17.578,38.086,0
1555964242.770,37.109,30.273,34.668,29.785,45.410,0
1555964242.774,34.668,28.809,63.965,26.367,-2.930,0
1555964242.778,1.953,33.691,69.824,23.438,-14.648,0
1555964242.782,6.836,34.668,54.688,19.043,-9.277,0
1555964242.786,30.762,31.738,88.379,12.695,41.504,0
1555964242.788,33.203,35.156,78.613,19.043,70.312,0
1555964242.792,14.648,39.062,27.344,28.320,7.812,0
1555964242.796,12.207,33.203,19.531,27.832,-17.578,0
1555964242.800,27.832,25.879,68.848,19.043,35.156,0
1555964242.804,25.879,23.926,71.289,10.254,48.340,0
1555964242.808,10.742,26.855,24.414,15.137,36.621,0
1555964242.812,0.000,33.691,-11.230,17.578,58.594,0
1555964242.815,17.578,29.785,28.809,10.742,10.742,0
1555964242.819,40.039,30.273,101.562,27.832,-8.789,0
1555964242.823,26.855,32.715,70.312,39.062,39.551,0
1555964242.827,8.789,26.855,28.320,40.039,53.711,0
1555964242.831,19.531,26.855,48.828,47.852,61.523,0
1555964242.833,39.062,32.227,61.523,37.598,57.129,0
1555964242.837,37.109,40.039,20.996,25.391,29.297,0
1555964242.841,12.207,42.969,1.953,25.879,15.137,0
1555964242.845,9.766,37.109,40.527,27.344,46.387,0
1555964242.849,27.344,36.133,74.219,13.184,58.594,0
1555964242.853,34.668,40.039,45.410,8.301,41.016,0
1555964242.857,21.973,40.527,11.230,12.695,65.918,0
1555964242.860,6.348,35.156,66.895,16.113,37.598,0
1555964242.864,20.020,32.715,106.934,18.066,-23.438,0
1555964242.868,36.133,33.203,79.102,24.902,-19.043,0
1555964242.872,18.555,34.668,63.477,35.156,20.996,0
1555964242.876,-2.441,41.504,68.359,25.391,46.387,0
1555964242.893,16.602,35.156,71.777,30.762,65.430,0
1555964242.897,41.016,32.715,61.035,37.598,31.738,0
1555964242.901,25.879,40.527,58.594,21.484,-29.785,0
1555964242.905,8.301,36.133,61.035,15.137,-44.434,0
1555964242.909,18.555,37.598,62.012,27.832,-24.414,0
1555964242.913,44.922,40.527,44.922,40.527,-31.250,0
1555964242.917,44.434,35.645,47.852,35.156,-33.691,0
1555964242.920,10.742,30.762,54.688,19.531,39.551,0
1555964242.924,10.742,36.621,40.527,14.160,34.668,0
1555964242.928,30.273,42.969,29.297,32.715,16.113,0
1555964242.932,34.668,37.109,56.152,43.457,15.625,0
1555964242.936,10.742,31.738,81.055,18.555,51.270,0
1555964242.938,-2.930,38.086,37.598,7.812,64.453,0
1555964242.942,24.414,35.156,41.016,19.043,28.320,0
1555964242.946,41.992,24.902,71.289,6.348,8.301,0
1555964242.950,16.602,30.273,41.992,-0.488,37.109,0
1555964242.954,0.488,35.645,-6.836,14.160,36.133,0
1555964242.958,10.742,28.320,6.836,13.184,-14.160,0
1555964242.962,19.043,26.367,52.734,13.672,-1.465,0
1555964242.965,17.090,34.668,72.266,31.250,28.320,0
1555964242.969,5.859,33.691,16.602,31.738,73.242,0
1555964242.973,12.695,31.250,-19.043,28.809,74.219,0
1555964242.977,28.809,31.250,51.270,27.344,25.391,0
1555964242.981,28.809,32.715,59.082,15.625,32.715,0
1555964242.983,9.766,37.109,2.930,9.766,52.246,0
1555964242.987,7.324,33.691,4.883,15.625,18.066,0
1555964242.991,22.461,26.855,47.852,20.996,32.715,0
1555964242.995,37.598,29.785,56.152,26.367,80.566,0
1555964242.999,23.926,37.109,14.160,31.250,39.551,0
1555964243.003,3.418,37.598,4.395,50.293,42.480,0
1555964243.007,16.602,33.203,29.297,57.129,18.066,0
1555964243.010,38.574,28.809,35.645,36.621,0.000,0
1555964243.014,27.344,26.367,-9.277,27.344,28.809,0
1555964243.018,4.395,36.621,-9.277,25.391,12.207,0
1555964243.022,18.066,40.527,82.031,21.973,51.758,0
1555964243.026,29.297,28.320,83.008,15.625,66.895,0
1555964243.028,18.066,25.391,25.879,20.020,-19.531,0
1555964243.032,1.465,27.832,13.184,1.953,2.930,0
1555964243.036,11.230,32.715,22.461,-3.906,33.203,0
1555964243.040,40.527,31.250,29.297,42.480,-10.254,0
1555964243.044,33.691,27.832,21.484,41.992,-34.668,0
1555964243.048,3.418,35.156,7.324,22.461,-37.109,0
1555964243.052,-2.441,37.598,27.832,14.648,-41.992,0
1555964243.055,24.902,35.645,51.758,18.066,-9.277,0
1555964243.059,39.551,36.621,49.805,12.207,70.801,0
1555964243.063,18.555,35.645,47.363,17.090,60.059,0
1555964243.067,10.742,41.992,35.645,30.762,33.203,0
1555964243.071,25.879,31.738,48.828,32.227,29.297,0
1555964243.073,34.180,21.484,70.801,24.902,51.270,0
1555964243.077,19.043,37.598,71.289,13.672,67.871,0
1555964243.081,-5.371,46.875,29.297,5.859,-2.930,0
1555964243.085,0.488,31.738,29.297,-4.395,-12.695,0
1555964243.089,16.113,25.879,52.246,-6.348,41.992,0
1555964243.093,18.555,35.156,19.531,14.648,11.230,0
1555964243.097,0.488,34.668,11.719,9.766,30.762,0
1555964243.100,1.953,36.621,-7.324,11.230,40.039,0
1555964243.104,25.879,35.645,19.531,19.043,8.301,0
1555964243.108,23.438,25.391,84.961,9.277,0.488,0
1555964243.112,12.207,30.762,46.387,22.461,-4.883,0
1555964243.116,-1.465,34.668,23.438,25.391,46.387,0
1555964243.118,11.719,28.320,41.016,17.090,24.902,0
1555964243.122,21.973,30.762,50.781,20.996,4.883,0
1555964243.126,17.090,35.645,36.621,24.902,67.383,0
1555964243.130,-3.906,34.180,13.184,2.930,49.805,0
1555964243.134,-0.488,28.320,39.062,-1.953,-8.789,0
1555964243.138,26.855,26.367,56.641,-1.465,51.758,0
1555964243.142,15.137,30.762,24.414,4.395,85.938,0
1555964243.145,3.418,35.645,-13.672,24.902,19.531,0
1555964243.149,15.137,33.203,41.016,27.344,-9.766,0
1555964243.153,32.715,25.391,93.750,31.250,67.383,0
1555964243.157,39.551,28.320,55.664,40.527,78.613,0
1555964243.161,23.926,34.668,21.973,36.621,37.598,0
1555964243.163,15.625,31.250,26.367,20.508,56.641,0
1555964243.167,36.133,30.762,43.945,21.484,50.781,0
1555964243.171,35.156,31.738,42.969,15.137,33.691,0
1555964243.175,6.348,31.738,5.371,3.906,-4.883,0
1555964243.179,-0.977,29.785,12.207,18.555,8.789,0
1555964243.183,19.043,25.391,44.434,20.996,35.156,0
1555964243.187,37.109,30.762,19.531,27.832,14.160,0
1555964243.190,11.230,33.203,19.043,41.016,29.297,0
1555964243.194,-11.230,30.762,42.969,25.391,17.090,0
1555964243.198,7.812,35.645,29.297,21.973,-51.270,0
1555964243.202,30.273,28.809,46.387,27.344,-5.859,0
1555964243.206,24.414,21.973,49.316,22.949,59.570,0
1555964243.208,7.324,30.762,21.973,20.020,61.523,0
1555964243.212,18.555,32.715,8.301,29.785,20.020,0
1555964243.216,34.668,27.832,27.344,29.785,-48.828,0
1555964243.220,24.414,28.809,61.035,20.020,7.324,0
1555964243.224,14.160,32.715,30.762,13.672,12.695,0
1555964243.228,16.113,41.016,-5.371,20.996,-23.438,0
1555964243.232,43.945,40.527,4.395,28.809,-0.488,0
1555964243.235,51.270,30.762,45.898,16.113,-23.438,0
1555964243.239,28.320,34.180,61.035,23.438,7.812,0
1555964243.243,15.137,42.480,41.992,41.016,58.105,0
1555964243.247,27.344,30.273,55.664,30.762,36.133,0
