timestamps,TP9,AF7,AF8,TP10,Right AUX,Marker0
1582146392.053,38.086,-25.391,222.656,36.621,0.0,0
1582146392.0570002,68.848,-0.488,296.875,42.969,0.0,0
1582146392.061,54.688,-13.184,327.148,34.18,0.0,0
1582146392.065,29.785,-19.043,321.777,29.785,0.0,0
1582146392.069,39.062,-31.25,262.207,27.832,0.0,0
1582146392.073,62.5,-50.293,114.746,31.738000000000003,0.0,0
1582146392.077,66.895,-16.602,183.105,33.203,0.0,0
1582146392.08,56.64100000000001,-20.02,259.277,34.668,0.0,0
1582146392.084,43.945,-87.891,41.504,40.527,0.0,0
1582146392.0879998,54.199,-38.574,79.59,31.25,0.0,0
1582146392.092,55.176,20.02,308.594,24.902,0.0,0
1582146392.096,28.32,-38.574,250.0,23.438,0.0,0
1582146392.0979998,37.109,-33.691,180.664,22.949,0.0,0
1582146392.1020002,58.105,13.184,279.785,23.438,0.0,0
1582146392.106,53.223,-10.254,361.328,19.043,0.0,0
1582146392.11,42.48,-47.363,250.488,31.738000000000003,0.0,0
1582146392.1139998,66.895,-29.297,156.738,50.293,0.0,0
1582146392.1179998,79.59,-25.391,53.71100000000001,46.387,0.0,0
1582146392.1220002,63.477,-3.906,88.37899999999998,23.926,0.0,0
1582146392.125,26.367,-20.508000000000006,94.238,2.93,0.0,0
1582146392.129,4.395,-15.625,-22.461,-0.488,0.0,0
1582146392.133,12.207,72.266,201.172,2.441,0.0,0
1582146392.137,20.508000000000006,54.688,298.828,3.418,0.0,0
1582146392.141,38.086,23.438,208.008,-13.184,0.0,0
1582146392.143,22.949,-10.254,64.453,-19.043,0.0,0
1582146392.147,4.883,13.184,97.168,8.789,0.0,0
1582146392.151,35.156,34.18,196.289,22.461,0.0,0
1582146392.155,34.18,8.789,170.41,9.277,0.0,0
1582146392.159,32.715,7.324,223.145,3.418,0.0,0
1582146392.163,30.762,-50.78100000000001,125.977,16.113,0.0,0
1582146392.167,25.879,-82.52,-1.953,20.508000000000006,0.0,0
1582146392.17,41.992,-56.152,-60.547,16.602,0.0,0
1582146392.174,70.312,11.23,52.246,38.086,0.0,0
1582146392.178,54.199,52.734,290.527,41.01600000000001,0.0,0
1582146392.1820002,48.34,0.977,171.387,20.508000000000006,0.0,0
1582146392.186,80.078,-0.977,84.961,28.809,0.0,0
1582146392.188,45.898,57.617,266.113,32.227,0.0,0
1582146392.1920002,20.996,36.621,248.535,16.113,0.0,0
1582146392.196,13.672,-17.09,107.91,20.02,0.0,0
1582146392.2,15.137,-36.133,-6.836,13.672,0.0,0
1582146392.204,14.648,-13.184,33.203,8.789,0.0,0
1582146392.208,25.391,-36.621,24.414,22.949,0.0,0
1582146392.212,23.926,-106.445,-219.238,29.297,0.0,0
1582146392.215,4.883,-72.266,-250.977,16.113,0.0,0
1582146392.219,39.551,28.32,60.547,6.348,0.0,0
1582146392.2229998,38.574,14.16,223.145,37.598,0.0,0
1582146392.2270002,31.738000000000003,-35.156,154.297,48.828,0.0,0
1582146392.231,22.949,-22.461,165.03900000000004,4.395,0.0,0
1582146392.2329998,26.855,1.465,206.543,-13.672,0.0,0
1582146392.2370002,33.691,-6.348,129.88299999999998,-0.488,0.0,0
1582146392.2410002,19.531,-35.645,-3.418,17.578,0.0,0
1582146392.245,34.668,-25.391,-36.133,15.625,0.0,0
1582146392.2489998,53.223,1.465,38.574,20.02,0.0,0
1582146392.2529998,64.941,-37.109,-41.504,17.09,0.0,0
1582146392.2570002,48.34,-80.078,-280.273,14.648,0.0,0
1582146392.26,67.383,-29.297,-202.637,41.01600000000001,0.0,0
1582146392.264,86.914,18.555,26.855,36.133,0.0,0
1582146392.268,60.059,5.859,48.34,18.555,0.0,0
1582146392.272,50.78100000000001,-12.695,-9.277,12.695,0.0,0
1582146392.276,38.086,-7.812,-3.418,-7.324,0.0,0
1582146392.293,36.621,9.277,56.152,-15.625,0.0,0
1582146392.2970002,52.734,-0.488,41.01600000000001,-9.766,0.0,0
1582146392.301,27.344,-18.066,-25.391,-11.719,0.0,0
1582146392.305,-6.836,-6.348,-29.297,-38.574,0.0,0
1582146392.309,-0.977,-26.855,-60.547,-51.758,0.0,0
1582146392.313,28.32,-94.238,-194.824,-41.992,0.0,0
1582146392.3170002,33.691,-48.34,-197.754,-46.387,0.0,0
1582146392.32,28.32,25.879,-41.504,-22.461,0.0,0
1582146392.324,41.504,-7.324,46.875,-14.648,0.0,0
1582146392.3279998,62.988,-40.039,-47.852,-25.879,0.0,0
1582146392.332,52.734,-13.672,-80.078,-11.23,0.0,0
1582146392.336,23.926,40.527,83.008,-31.738000000000003,0.0,0
1582146392.3379998,-5.371,18.555,141.602,-45.898,0.0,0
1582146392.342,5.371,-8.789,90.82,-32.227,0.0,0
1582146392.346,38.574,1.953,37.598,-18.066,0.0,0
1582146392.35,47.363,3.906,57.617,-12.207,0.0,0
1582146392.354,28.32,-25.879,-13.672,-24.414,0.0,0
1582146392.3579998,43.945,-60.059,-130.371,-8.301,0.0,0
1582146392.3620002,65.43,-55.176,-170.898,-7.324,0.0,0
1582146392.365,42.48,-18.066,-14.648,-23.926,0.0,0
1582146392.369,45.41,-66.406,11.23,-26.367,0.0,0
1582146392.373,63.965,-116.699,-270.996,-37.598,0.0,0
1582146392.377,59.082,-29.785,-191.406,-48.828,0.0,0
1582146392.381,39.062,-3.418,59.57,-58.594,0.0,0
1582146392.3839998,36.621,-70.801,-100.098,-57.129,0.0,0
1582146392.3879998,28.32,-67.383,-136.23,-38.574,0.0,0
1582146392.3920002,44.434,-4.883,81.055,-41.992,0.0,0
1582146392.396,65.918,22.949,216.30900000000003,-48.828,0.0,0
1582146392.4,36.621,-39.551,93.262,-51.758,0.0,0
1582146392.404,26.367,-69.336,-81.055,-52.734,0.0,0
1582146392.408,31.738000000000003,-31.738000000000003,-44.434,-51.27,0.0,0
1582146392.411,38.086,-18.066,81.543,-65.918,0.0,0
1582146392.415,49.316,-102.051,-54.688,-58.105,0.0,0
1582146392.419,43.945,-110.84,-208.496,-56.64100000000001,0.0,0
1582146392.423,46.875,10.254,53.71100000000001,-57.617,0.0,0
1582146392.427,61.523,29.297,133.789,-53.71100000000001,0.0,0
1582146392.429,37.109,25.391,69.824,-52.246,0.0,0
1582146392.4329998,5.859,61.035,94.727,-40.527,0.0,0
1582146392.437,24.414,64.453,166.50400000000005,-50.78100000000001,0.0,0
1582146392.441,41.992,15.625,43.457,-50.78100000000001,0.0,0
1582146392.445,30.762,13.672,-24.902,-37.598,0.0,0
1582146392.449,2.441,-5.371,-54.688,-48.34,0.0,0
1582146392.4529998,9.766,0.0,-73.242,-30.762,0.0,0
1582146392.456,50.78100000000001,-2.441,57.617,-28.32,0.0,0
1582146392.46,61.523,-73.73,-141.113,-41.01600000000001,0.0,0
1582146392.464,36.133,-4.883,-131.34799999999998,-20.508000000000006,0.0,0
1582146392.468,17.578,59.082,158.691,-7.812,0.0,0
1582146392.472,43.457,-1.953,84.961,3.906,0.0,0
1582146392.474,39.062,-16.113,21.973000000000006,-18.555,0.0,0
1582146392.478,21.484,-2.93,92.773,-28.809,0.0,0
1582146392.482,-9.766,-46.875,16.602,-4.395,0.0,0
1582146392.486,-21.973000000000006,-49.316,-53.223,8.301,0.0,0
1582146392.49,18.066,-17.578,-23.926,-5.371,0.0,0
1582146392.494,5.371,-37.598,-58.594,-22.461,0.0,0
1582146392.498,-22.461,-33.691,-102.539,-12.207,0.0,0
1582146392.5010002,-23.438,-59.57,-236.328,0.0,0.0,0
1582146392.505,-17.09,-37.598,-249.512,-15.625,0.0,0
1582146392.5089998,-2.441,76.66,60.547,-1.465,0.0,0
1582146392.5129998,-15.625,43.457,57.617,-1.465,0.0,0
1582146392.5170002,-64.941,-13.672,-131.836,-43.945,0.0,0
1582146392.519,-86.426,22.949,-117.676,-48.34,0.0,0
1582146392.5229998,-70.312,30.273000000000003,-62.012,-45.898,0.0,0
1582146392.5270002,-83.984,2.441,-184.082,-63.477,0.0,0
1582146392.531,-101.074,23.438,-263.672,-75.195,0.0,0
1582146392.535,-101.562,70.312,-183.105,-90.332,0.0,0
1582146392.539,-134.766,41.01600000000001,-201.66,-110.352,0.0,0
1582146392.543,-159.668,12.695,-268.555,-102.539,0.0,0
1582146392.546,-157.227,0.977,-424.805,-102.539,0.0,0
1582146392.55,-155.762,67.383,-362.793,-132.32399999999998,0.0,0
1582146392.554,-152.344,116.211,-134.766,-137.207,0.0,0
1582146392.5579998,-151.855,41.504,-153.32,-135.254,0.0,0
1582146392.562,-174.805,-21.484,-242.188,-135.254,0.0,0
1582146392.564,-212.891,23.926,-187.5,-144.531,0.0,0
1582146392.5679998,-194.824,78.613,-38.086,-153.32,0.0,0
1582146392.572,-176.75799999999995,14.648,-124.512,-141.602,0.0,0
1582146392.576,-183.105,-13.184,-216.30900000000003,-136.23,0.0,0
1582146392.58,-177.734,31.25,-152.832,-142.09,0.0,0
1582146392.584,-170.41,44.434,-178.71099999999996,-136.23,0.0,0
1582146392.5879998,-150.391,-23.438,-284.668,-121.094,0.0,0
1582146392.591,-142.09,-87.402,-397.949,-114.258,0.0,0
1582146392.595,-125.977,13.184,-189.453,-88.867,0.0,0
1582146392.599,-77.637,62.012,10.254,-54.199,0.0,0
1582146392.603,-61.035,45.41,-52.246,-42.969,0.0,0
1582146392.607,-46.875,59.082,-10.742,-15.625,0.0,0
1582146392.609,-23.926,48.34,30.273000000000003,22.949,0.0,0
1582146392.613,-8.789,21.484,-10.254,55.176,0.0,0
1582146392.617,39.062,19.043,-17.578,80.078,0.0,0
1582146392.621,58.105,49.316,41.992,91.797,0.0,0
1582146392.625,42.48,53.71100000000001,146.484,97.656,0.0,0
1582146392.629,60.547,-16.113,14.648,103.516,0.0,0
1582146392.633,92.773,-66.406,-242.188,121.582,0.0,0
1582146392.6360002,129.88299999999998,-1.465,-83.984,140.137,0.0,0
1582146392.64,101.074,49.805,132.32399999999998,150.391,0.0,0
1582146392.644,94.238,-13.672,32.227,156.25,0.0,0
1582146392.6479998,146.484,-14.648,-24.414,164.551,0.0,0
1582146392.6520002,148.438,31.25,24.902,163.57399999999996,0.0,0
1582146392.669,136.719,43.457,112.305,153.809,0.0,0
1582146392.673,132.32399999999998,39.551,132.32399999999998,162.109,0.0,0
1582146392.677,135.74200000000002,28.32,99.609,158.691,0.0,0
1582146392.681,142.09,18.555,30.273000000000003,161.621,0.0,0
1582146392.685,127.441,13.184,3.906,179.199,0.0,0
1582146392.689,128.418,-31.25,-132.812,167.96900000000005,0.0,0
1582146392.6929998,145.02,-26.367,-192.871,160.156,0.0,0
1582146392.696,148.438,43.945,34.18,153.809,0.0,0
1582146392.7,131.34799999999998,6.836,12.695,155.762,0.0,0
1582146392.704,120.117,-25.879,-104.492,169.922,0.0,0
1582146392.708,117.676,16.113,-97.168,162.59799999999996,0.0,0
1582146392.712,135.254,58.594,50.78100000000001,169.922,0.0,0
1582146392.714,158.203,52.734,113.77,173.828,0.0,0
1582146392.718,133.789,27.832,24.902,169.922,0.0,0
1582146392.722,130.371,24.902,-6.348,176.27,0.0,0
1582146392.726,134.27700000000002,37.109,67.383,153.32,0.0,0
1582146392.73,145.02,12.207,62.5,145.996,0.0,0
1582146392.734,111.816,-12.695,-57.129,142.578,0.0,0
1582146392.738,101.074,-12.207,-172.852,140.625,0.0,0
1582146392.7410002,130.371,-13.184,-184.57,145.02,0.0,0
1582146392.745,130.859,-24.414,-87.891,138.672,0.0,0
1582146392.7489998,150.391,-66.406,-255.371,143.555,0.0,0
1582146392.7529998,143.066,-6.348,-241.699,138.672,0.0,0
1582146392.7570002,103.027,61.035,17.578,116.211,0.0,0
1582146392.7589998,84.473,36.133,-51.758,97.168,0.0,0
1582146392.7629998,72.75399999999998,24.902,-93.262,90.82,0.0,0
1582146392.7670002,75.195,44.434,73.242,101.562,0.0,0
1582146392.771,93.262,32.227,103.516,98.145,0.0,0
1582146392.775,89.844,10.742,25.391,89.844,0.0,0
1582146392.779,95.703,-2.93,-18.066,104.492,0.0,0
1582146392.783,86.426,-2.93,-37.598,104.98,0.0,0
1582146392.786,48.828,37.598,71.289,96.68,0.0,0
1582146392.79,63.477,0.0,41.504,88.867,0.0,0
1582146392.794,79.59,-38.086,-103.516,82.52,0.0,0
1582146392.798,69.336,36.621,91.309,86.914,0.0,0
1582146392.802,54.688,48.828,242.188,96.191,0.0,0
1582146392.804,36.621,19.043,187.012,96.191,0.0,0
1582146392.8079998,51.758,39.062,156.25,79.59,0.0,0
1582146392.812,56.152,58.594,183.594,67.383,0.0,0
1582146392.816,27.832,5.859,104.004,81.543,0.0,0
1582146392.82,27.344,-22.461,13.672,90.332,0.0,0
1582146392.824,36.133,-5.371,-41.992,83.49600000000002,0.0,0
1582146392.8279998,46.875,24.414,-70.312,72.266,0.0,0
1582146392.831,43.457,16.113,-118.164,72.75399999999998,0.0,0
1582146392.835,44.434,-43.945,-351.5619999999999,88.37899999999998,0.0,0
1582146392.839,41.01600000000001,20.02,-269.043,66.895,0.0,0
1582146392.843,37.109,85.449,31.738000000000003,50.78100000000001,0.0,0
1582146392.847,17.578,25.879,-37.598,41.01600000000001,0.0,0
1582146392.849,-7.324,-8.789,-196.777,31.738000000000003,0.0,0
1582146392.853,4.395,45.898,-108.887,53.71100000000001,0.0,0
1582146392.857,45.41,87.891,19.531,61.035,0.0,0
1582146392.861,25.879,51.758,-44.922,49.805,0.0,0
1582146392.865,-38.086,5.371,-121.582,20.02,0.0,0
1582146392.869,-26.367,0.977,-181.152,-5.371,0.0,0
1582146392.873,10.254,33.203,-206.055,0.488,0.0,0
1582146392.8760002,-1.465,3.418,-240.234,-0.488,0.0,0
1582146392.88,-53.71100000000001,-35.645,-366.211,-1.953,0.0,0
1582146392.8839998,-54.199,49.316,-182.129,1.953,0.0,0
1582146392.8879998,0.0,64.941,-1.953,8.789,0.0,0
1582146392.8920002,5.859,39.551,-56.64100000000001,0.977,0.0,0
1582146392.893,8.301,48.34,-111.328,2.441,0.0,0
1582146392.897,-18.066,46.387,-78.613,-3.418,0.0,0
1582146392.901,-33.691,30.762,-99.609,-34.18,0.0,0
1582146392.905,-1.953,31.25,-85.93799999999997,-23.438,0.0,0
1582146392.909,-25.391,3.418,-81.543,-9.766,0.0,0
1582146392.913,-38.574,11.23,-129.88299999999998,-33.203,0.0,0
1582146392.917,-25.391,33.691,-187.988,-24.414,0.0,0
1582146392.92,-20.508000000000006,36.133,-298.828,-20.02,0.0,0
1582146392.924,-18.066,94.727,-158.203,-37.109,0.0,0
1582146392.928,-52.734,98.633,11.23,-31.738000000000003,0.0,0
1582146392.9320002,-43.457,55.664,-102.051,-26.367,0.0,0
1582146392.936,-14.648,80.566,-73.73,-25.391,0.0,0
1582146392.938,-8.789,108.887,42.48,-22.949,0.0,0
1582146392.9420002,-15.137,94.727,72.75399999999998,-12.695,0.0,0
1582146392.946,20.02,57.617,-44.434,13.672,0.0,0
1582146392.95,26.855,67.87100000000001,-55.664,27.344,0.0,0
1582146392.954,11.23,85.93799999999997,82.52,9.277,0.0,0
1582146392.958,5.859,51.758,21.973000000000006,-2.93,0.0,0
1582146392.962,-3.906,19.043,-167.48,4.883,0.0,0
1582146392.965,26.367,19.043,-261.23,11.719,0.0,0
1582146392.969,32.227,87.891,-25.391,4.883,0.0,0
1582146392.9729998,26.367,92.773,123.047,20.996,0.0,0
1582146392.9770002,23.926,56.64100000000001,44.434,41.01600000000001,0.0,0
1582146392.981,22.949,35.156,-33.691,30.762,0.0,0
1582146392.9829998,46.387,70.801,27.344,31.738000000000003,0.0,0
1582146392.9870002,56.64100000000001,95.215,96.191,41.504,0.0,0
1582146392.9910002,8.301,75.195,22.949,28.32,0.0,0
1582146392.995,-10.254,79.102,9.766,8.301,0.0,0
1582146392.9989998,26.855,82.031,51.758,10.254,0.0,0
1582146393.0029998,22.461,54.199,-10.742,19.531,0.0,0
1582146393.0070002,9.766,0.977,-277.832,11.719,0.0,0
1582146393.01,33.691,54.688,-227.051,21.484,0.0,0
1582146393.014,58.594,114.258,96.191,20.508000000000006,0.0,0
1582146393.018,45.898,40.527,-49.805,20.02,0.0,0
1582146393.022,34.668,35.156,-152.832,24.902,0.0,0
1582146393.026,27.832,75.684,-20.02,19.531,0.0,0
1582146393.043,28.809,84.961,16.602,4.883,0.0,0
1582146393.0470002,46.875,96.68,12.695,-11.23,0.0,0
1582146393.051,20.508000000000006,85.93799999999997,7.812,0.0,0.0,0
1582146393.055,-1.953,81.055,76.66,12.207,0.0,0
1582146393.059,15.625,62.5,91.309,4.883,0.0,0
1582146393.063,28.32,11.719,-99.121,2.441,0.0,0
1582146393.0670002,28.809,17.578,-152.344,1.465,0.0,0
1582146393.07,20.508000000000006,89.355,42.969,14.648,0.0,0
1582146393.074,25.879,109.863,151.855,29.297,0.0,0
1582146393.0779998,47.363,60.059,102.539,36.133,0.0,0
1582146393.082,47.852,53.71100000000001,96.68,27.832,0.0,0
1582146393.086,14.16,60.059,117.676,13.184,0.0,0
1582146393.0879998,18.555,47.363,24.414,23.926,0.0,0
1582146393.092,43.945,86.426,36.621,25.391,0.0,0
1582146393.096,13.672,93.262,64.453,-1.465,0.0,2
1582146393.1,-12.695,91.797,91.309,-10.742,0.0,0
1582146393.104,-14.648,76.66,38.086,-19.531,0.0,0
1582146393.1079998,-24.414,47.852,-71.289,-22.949,0.0,0
1582146393.1120002,-18.555,35.645,-125.0,-29.297,0.0,0
1582146393.115,-20.996,51.758,-72.266,-38.086,0.0,0
1582146393.119,-16.113,25.391,-96.191,-24.902,0.0,0
1582146393.123,-9.766,-6.836,-290.527,-31.25,0.0,0
1582146393.127,-24.414,79.59,-201.66,-49.316,0.0,0
1582146393.131,-30.273000000000003,118.164,11.23,-45.898,0.0,0
1582146393.133,-55.664,66.895,-72.75399999999998,-42.969,0.0,0
1582146393.137,-89.355,76.66,-152.832,-49.805,0.0,0
1582146393.141,-60.059,97.168,-78.613,-65.918,0.0,0
1582146393.145,-71.777,88.867,-128.906,-77.637,0.0,0
1582146393.149,-116.699,88.37899999999998,-208.496,-82.52,0.0,0
1582146393.153,-97.168,63.477,-307.129,-87.402,0.0,0
1582146393.157,-73.242,67.383,-340.82,-86.426,0.0,0
1582146393.16,-87.402,99.609,-203.613,-100.586,0.0,0
1582146393.164,-113.281,32.227,-312.5,-122.559,0.0,0
1582146393.168,-144.043,-23.926,-521.484,-131.34799999999998,0.0,0
1582146393.1720002,-150.879,44.922,-304.688,-138.672,0.0,0
1582146393.176,-140.137,36.621,-125.977,-141.602,0.0,0
1582146393.178,-162.109,19.043,-166.99200000000005,-151.855,0.0,0
1582146393.1820002,-166.50400000000005,45.898,-211.426,-155.762,0.0,0
1582146393.186,-159.18,25.879,-156.25,-135.254,0.0,0
1582146393.19,-148.92600000000004,-2.93,-127.441,-132.812,0.0,0
1582146393.194,-165.52700000000004,-13.672,-185.547,-169.43400000000003,0.0,0
1582146393.198,-214.355,-45.41,-270.02,-195.801,0.0,0
1582146393.202,-233.398,-10.742,-280.762,-217.773,0.0,0
1582146393.205,-235.84,28.809,-187.012,-229.004,0.0,0
1582146393.209,-210.938,21.484,-190.918,-208.496,0.0,0
1582146393.2129998,-227.539,85.93799999999997,-17.578,-202.148,0.0,0
1582146393.217,-261.23,130.371,297.363,-231.93400000000003,0.0,0
1582146393.221,-238.77,139.648,416.016,-243.164,0.0,0
1582146393.2229998,-207.031,205.566,545.41,-207.031,0.0,0
1582146393.2270002,-185.547,273.926,737.305,-177.24599999999995,0.0,0
1582146393.231,-182.129,330.0780000000001,923.34,-168.945,0.0,0
1582146393.235,-164.062,358.88699999999994,964.844,-164.551,0.0,0
1582146393.2389998,-130.371,371.094,962.891,-143.066,0.0,0
1582146393.2429998,-95.215,401.367,-995.117,-110.84,0.0,0
1582146393.2470002,-80.078,456.543,998.047,-90.82,0.0,0
1582146393.25,-65.918,466.309,999.023,-63.965,0.0,0
1582146393.254,-10.254,478.027,999.512,-36.621,0.0,0
1582146393.258,9.277,562.012,999.512,-21.973000000000006,0.0,0
1582146393.262,-17.09,584.961,999.512,0.0,0.0,0
1582146393.266,12.207,542.969,999.512,31.738000000000003,0.0,0
1582146393.268,63.965,518.555,999.512,48.828,0.0,0
1582146393.272,79.59,540.039,999.512,55.176,0.0,0
1582146393.276,89.355,485.84,999.512,82.52,0.0,0
1582146393.28,90.82,402.344,999.512,110.84,0.0,0
1582146393.284,113.281,389.16,997.559,114.746,0.0,0
1582146393.288,140.625,380.371,996.582,120.605,0.0,0
1582146393.292,150.391,352.051,-985.84,129.88299999999998,0.0,0
1582146393.295,138.672,312.012,895.9960000000002,142.578,0.0,0
1582146393.299,166.50400000000005,362.793,887.207,162.59799999999996,0.0,0
1582146393.303,187.5,386.23,-980.469,164.062,0.0,0
1582146393.3070002,164.551,280.273,956.543,152.344,0.0,0
1582146393.311,167.96900000000005,252.93,885.742,156.738,0.0,0
1582146393.314,172.363,222.168,742.676,159.668,0.0,0
1582146393.3179998,179.199,187.988,658.691,151.36700000000005,0.0,0
1582146393.322,175.78099999999995,145.50799999999995,574.707,154.297,0.0,0
1582146393.326,168.945,135.74200000000002,525.879,169.43400000000003,0.0,0
1582146393.33,161.13299999999995,154.297,595.215,168.945,0.0,0
1582146393.334,152.832,102.539,448.73,158.203,0.0,0
1582146393.3379998,165.03900000000004,40.527,237.793,157.715,0.0,0
1582146393.341,184.082,50.78100000000001,127.93,162.109,0.0,0
1582146393.345,149.414,127.441,293.945,167.96900000000005,0.0,0
1582146393.349,145.02,112.793,390.625,157.715,0.0,0
1582146393.353,166.50400000000005,21.973000000000006,282.2270000000001,148.92600000000004,0.0,0
1582146393.357,138.184,-62.5,198.73,145.02,0.0,0
1582146393.359,136.719,-98.633,195.801,142.578,0.0,0
1582146393.363,150.391,-131.34799999999998,210.449,149.90200000000004,0.0,0
1582146393.367,144.531,-196.777,52.246,145.02,0.0,0
1582146393.371,140.625,-199.219,-35.156,142.09,0.0,0
1582146393.375,131.836,-172.852,53.71100000000001,144.531,0.0,0
1582146393.379,151.36700000000005,-210.449,-5.371,163.086,0.0,0
1582146393.383,202.148,-242.188,-217.773,182.129,0.0,0
1582146393.3860002,149.414,-180.176,-157.715,150.879,0.0,0
1582146393.39,88.867,-119.141,66.406,123.047,0.0,0
1582146393.394,95.215,-178.22299999999996,-43.457,116.699,0.0,0
1582146393.3979998,120.117,-196.777,-144.043,111.816,0.0,0
1582146393.4020002,118.164,-129.395,-1.465,112.305,0.0,0
1582146393.419,89.844,-132.812,72.75399999999998,119.629,0.0,0
1582146393.423,92.285,-212.402,-98.145,135.254,0.0,0
1582146393.427,117.676,-207.52,-130.371,145.996,0.0,0
1582146393.431,141.602,-194.824,-12.207,157.715,0.0,0
1582146393.435,138.184,-205.078,-23.438,150.391,0.0,0
1582146393.439,113.77,-234.375,-260.254,129.395,0.0,0
1582146393.4429998,95.703,-228.027,-466.309,121.094,0.0,0
1582146393.446,99.609,-116.211,-217.773,123.535,0.0,0
1582146393.45,108.398,-96.191,-41.504,110.84,0.0,0
1582146393.454,83.008,-150.879,-173.34,110.352,0.0,0
1582146393.458,77.637,-155.273,-235.84,115.723,0.0,0
1582146393.462,92.773,-118.652,-92.773,113.77,0.0,0
1582146393.464,107.422,-120.605,-58.594,119.629,0.0,0
1582146393.468,94.727,-137.695,-187.012,116.211,0.0,0
1582146393.472,77.637,-137.207,-203.125,122.07,0.0,0
1582146393.476,93.262,-110.84,-197.266,126.465,0.0,0
1582146393.48,83.008,-106.445,-199.707,118.164,0.0,0
1582146393.484,77.148,-167.48,-347.656,116.699,0.0,0
1582146393.488,86.914,-141.113,-396.973,124.512,0.0,0
1582146393.4910002,94.238,-59.082,-163.086,120.117,0.0,0
1582146393.495,101.562,-85.93799999999997,-179.199,101.074,0.0,0
1582146393.4989998,80.078,-143.555,-431.641,98.145,0.0,0
1582146393.5029998,81.543,-81.543,-372.07,105.469,0.0,0
1582146393.5070002,85.449,-22.461,-189.453,115.723,0.0,0
1582146393.5089998,78.613,-26.855,-197.266,113.281,0.0,0
1582146393.5129998,94.238,-37.109,-215.82,95.703,0.0,0
1582146393.5170002,67.87100000000001,-36.621,-271.973,98.145,0.0,0
1582146393.521,48.828,-16.602,-278.32,117.188,0.0,0
1582146393.525,92.285,-23.926,-281.25,98.145,0.0,0
1582146393.529,92.773,-39.062,-406.73800000000006,73.73,0.0,0
1582146393.533,55.176,-39.062,-462.402,71.289,0.0,0
1582146393.536,43.457,-57.129,-438.477,70.312,0.0,0
1582146393.54,69.336,-110.84,-517.09,61.523,0.0,0
1582146393.544,76.172,-111.816,-563.477,56.152,0.0,0
1582146393.548,41.992,-10.742,-307.617,40.039,0.0,0
1582146393.552,19.043,-43.945,-333.9840000000001,27.344,0.0,0
1582146393.554,37.109,-40.527,-416.992,41.504,0.0,0
1582146393.5579998,63.477,15.137,-264.648,37.109,0.0,0
1582146393.562,41.01600000000001,15.137,-190.43,30.762,0.0,0
1582146393.566,33.203,-30.273000000000003,-238.281,44.434,0.0,0
1582146393.57,43.945,-74.219,-353.027,49.805,0.0,0
1582146393.574,59.082,-56.152,-348.145,46.875,0.0,0
1582146393.5779998,57.617,-30.273000000000003,-258.789,41.992,0.0,0
1582146393.581,41.01600000000001,-21.973000000000006,-126.465,45.898,0.0,0
1582146393.585,20.996,-61.523,-257.324,48.828,0.0,0
1582146393.589,15.625,-14.16,-201.172,34.668,0.0,0
1582146393.593,61.523,31.738000000000003,70.801,27.344,0.0,0
1582146393.597,77.637,-27.832,19.043,43.945,0.0,0
1582146393.599,43.457,-54.688,-75.684,62.5,0.0,0
1582146393.603,57.617,-10.254,1.465,63.477,0.0,0
1582146393.607,63.965,-17.578,23.438,39.551,0.0,0
1582146393.611,36.133,-48.34,-116.211,25.391,0.0,0
1582146393.615,18.555,-14.648,-107.91,27.832,0.0,0
1582146393.619,31.738000000000003,-11.719,-114.746,30.273000000000003,0.0,0
1582146393.623,63.965,5.859,-109.863,29.785,0.0,0
1582146393.6260002,59.57,-18.555,-167.48,32.715,0.0,0
1582146393.63,19.043,-37.598,-292.969,36.621,0.0,0
1582146393.6339998,21.973000000000006,67.383,-41.992,27.344,0.0,0
1582146393.6379998,50.78100000000001,88.37899999999998,102.539,18.066,0.0,0
1582146393.6420002,59.57,68.848,41.504,26.367,0.0,0
1582146393.644,44.434,85.93799999999997,-14.16,30.762,0.0,0
1582146393.6479998,11.719,120.117,10.254,21.973000000000006,0.0,0
1582146393.6520002,32.715,122.07,17.578,23.438,0.0,0
1582146393.656,64.941,122.559,-30.762,39.062,0.0,0
1582146393.66,51.758,120.117,-55.664,38.574,0.0,0
1582146393.664,45.898,114.746,-147.94899999999996,34.18,0.0,0
1582146393.668,49.805,146.97299999999996,-180.176,35.156,0.0,0
1582146393.671,56.152,121.582,-334.961,24.902,0.0,0
1582146393.675,55.176,136.23,-287.598,25.391,0.0,0
1582146393.679,31.25,180.664,12.695,40.039,0.0,0
1582146393.6829998,56.152,127.93,-35.645,46.387,0.0,0
1582146393.687,62.988,117.188,-87.402,31.738000000000003,0.0,0
1582146393.689,41.992,144.531,-4.883,25.391,0.0,0
1582146393.6929998,28.32,120.117,-7.812,27.832,0.0,0
1582146393.697,29.785,68.848,-91.797,38.574,0.0,0
1582146393.701,54.199,69.336,-83.49600000000002,44.922,0.0,0
1582146393.705,59.082,85.93799999999997,20.02,38.086,0.0,0
1582146393.709,38.086,33.203,-50.78100000000001,42.48,0.0,0
1582146393.7129998,10.742,-48.34,-259.277,37.598,0.0,0
1582146393.716,20.508000000000006,-39.551,-312.5,19.531,0.0,0
1582146393.72,37.598,79.102,-86.426,26.367,0.0,0
1582146393.724,30.762,115.234,11.719,47.363,0.0,0
1582146393.728,28.809,122.559,17.09,54.688,0.0,0
1582146393.732,33.203,144.043,40.527,37.109,0.0,0
1582146393.734,35.645,166.99200000000005,117.676,20.02,0.0,0
1582146393.738,20.02,161.13299999999995,147.94899999999996,19.531,0.0,0
1582146393.742,8.301,124.023,17.578,26.855,0.0,0
1582146393.746,23.438,122.07,-75.684,33.203,0.0,0
1582146393.75,45.898,173.828,60.059,32.715,0.0,0
1582146393.754,45.41,161.621,48.34,39.062,0.0,0
1582146393.758,21.973000000000006,95.215,-221.191,55.664,0.0,0
1582146393.7610002,31.25,116.211,-198.73,57.129,0.0,0
1582146393.765,58.594,171.875,39.551,57.129,0.0,0
1582146393.769,50.293,138.672,7.324,48.34,0.0,0
1582146393.7729998,2.441,126.953,-71.777,36.621,0.0,0
1582146393.7770002,3.418,145.02,-36.621,42.969,0.0,0
1582146393.794,33.203,107.422,-50.293,38.574,0.0,0
1582146393.798,20.02,107.91,-30.762,27.832,0.0,0
1582146393.802,33.203,119.629,-28.809,39.551,0.0,0
1582146393.806,51.758,151.36700000000005,-19.043,54.688,0.0,0
1582146393.81,35.645,171.387,13.184,38.574,0.0,0
1582146393.814,21.973000000000006,95.215,-184.57,19.531,0.0,0
1582146393.8179998,16.113,108.887,-298.34,13.184,0.0,0
1582146393.821,1.953,217.773,-45.41,19.531,0.0,0
1582146393.825,2.93,207.031,17.578,27.344,0.0,0
1582146393.829,30.762,189.941,-61.035,24.902,0.0,0
1582146393.833,40.527,225.586,-40.527,25.391,0.0,0
1582146393.837,43.945,249.512,15.137,46.387,0.0,0
1582146393.839,40.527,218.262,-52.246,49.805,0.0,0
1582146393.843,28.809,207.031,-89.844,31.738000000000003,0.0,0
1582146393.847,8.301,188.965,-144.531,18.555,0.0,0
1582146393.851,17.578,208.984,-96.68,20.02,0.0,0
1582146393.855,13.184,255.371,-2.441,32.715,0.0,0
1582146393.859,10.254,207.52,-124.023,25.879,0.0,0
1582146393.863,43.945,190.918,-233.887,14.16,0.0,0
1582146393.8660002,37.109,250.977,-108.887,12.207,0.0,0
1582146393.87,18.555,219.727,-53.71100000000001,34.668,0.0,0
1582146393.8739998,18.066,127.93,-325.195,32.715,0.0,0
1582146393.8779998,21.973000000000006,169.922,-305.176,7.324,0.0,0
1582146393.8820002,16.602,216.797,-55.664,10.742,0.0,0
1582146393.8839998,12.695,156.738,-141.113,17.09,0.0,0
1582146393.8879998,17.578,145.996,-159.668,27.832,0.0,0
1582146393.8920002,14.648,199.707,-7.324,15.137,0.0,0
1582146393.896,6.836,188.477,-31.738000000000003,-0.488,0.0,0
1582146393.9,4.395,178.22299999999996,-108.398,0.977,0.0,0
1582146393.904,18.066,171.875,-209.961,14.648,0.0,0
1582146393.908,34.668,158.203,-251.465,25.391,0.0,0
1582146393.911,41.992,181.641,-105.469,11.719,0.0,0
1582146393.915,17.578,51.27,-221.68,13.184,0.0,0
1582146393.919,1.465,-31.25,-401.367,6.836,0.0,0
1582146393.923,33.203,62.5,-167.48,5.371,0.0,0
1582146393.927,45.898,55.664,-36.133,16.113,0.0,0
1582146393.929,28.32,12.207,-105.957,1.953,0.0,0
1582146393.9329998,0.977,-10.254,-175.78099999999995,-2.441,0.0,0
1582146393.937,5.859,-27.344,-122.07,9.277,0.0,0
1582146393.941,23.438,-45.41,-60.547,12.695,0.0,0
1582146393.945,17.09,-86.426,-148.438,16.113,0.0,0
1582146393.949,16.602,-104.004,-261.719,22.461,0.0,0
1582146393.9529998,27.832,-73.73,-255.371,29.785,0.0,0
1582146393.956,58.594,-33.203,-134.766,39.551,0.0,0
1582146393.96,45.41,-53.71100000000001,-255.859,28.809,0.0,0
1582146393.964,15.625,-18.555,-290.527,26.855,0.0,0
1582146393.968,3.418,50.78100000000001,-73.73,24.414,0.0,0
1582146393.972,5.859,73.242,-63.965,19.531,0.0,0
1582146393.974,27.344,104.004,-106.445,15.137,0.0,0
1582146393.978,13.672,134.27700000000002,-46.875,12.207,0.0,0
1582146393.982,9.766,94.727,-50.78100000000001,29.297,0.0,0
1582146393.986,7.812,31.738000000000003,-84.473,28.32,0.0,0
1582146393.99,15.625,13.184,-57.617,24.902,0.0,0
1582146393.994,39.551,-35.156,-178.22299999999996,22.949,0.0,0
1582146393.998,17.578,-35.645,-185.547,21.973000000000006,0.0,0
1582146394.0010002,4.395,-77.637,-220.215,32.227,0.0,0
1582146394.005,3.906,-114.258,-345.215,15.625,0.0,0
1582146394.0089998,4.395,-44.434,-112.793,12.695,0.0,0
1582146394.0129998,-2.93,-95.215,-23.438,19.043,0.0,0
1582146394.0170002,-0.488,-156.738,-118.164,22.949,0.0,0
1582146394.018,31.25,-147.94899999999996,-111.328,33.203,0.0,0
1582146394.022,42.48,-130.859,-4.395,34.18,0.0,0
1582146394.026,18.555,-164.551,-41.01600000000001,30.762,0.0,0
1582146394.03,19.531,-191.406,-193.848,42.48,0.0,0
1582146394.034,46.387,-157.227,-169.922,48.828,0.0,0
1582146394.038,44.922,-122.07,-156.738,28.809,0.0,0
1582146394.042,25.391,-58.105,-199.707,15.625,0.0,0
1582146394.045,15.137,-12.695,-276.367,36.133,0.0,0
1582146394.049,25.391,78.125,-212.402,35.156,0.0,0
1582146394.053,26.367,196.289,4.883,7.324,0.0,0
1582146394.0570002,27.344,187.012,-33.691,11.23,0.0,0
1582146394.061,0.977,175.78099999999995,-93.75,20.02,0.0,0
1582146394.063,-0.488,190.43,-42.48,21.973000000000006,0.0,0
1582146394.0670002,25.391,171.387,9.766,13.672,0.0,0
1582146394.071,16.113,158.203,-41.01600000000001,0.488,0.0,0
1582146394.075,5.859,184.082,-88.37899999999998,4.395,0.0,0
1582146394.079,6.348,232.91,1.953,9.277,0.0,0
1582146394.083,29.785,179.688,-47.363,14.648,0.0,0
1582146394.087,46.387,103.516,-270.996,12.207,0.0,0
1582146394.09,29.785,141.602,-327.148,17.578,0.0,0
1582146394.094,32.227,224.121,-73.73,49.316,0.0,0
1582146394.0979998,22.461,184.57,-15.137,38.574,0.0,0
1582146394.1020002,15.137,127.93,-83.49600000000002,8.301,0.0,0
1582146394.106,20.508000000000006,115.723,-51.758,0.977,0.0,0
1582146394.1079998,10.254,101.074,14.648,6.348,0.0,0
1582146394.1120002,11.719,46.875,-19.531,11.719,0.0,0
1582146394.1160002,21.484,30.762,-66.406,0.0,0.0,0
1582146394.12,19.531,56.64100000000001,-58.594,0.977,0.0,0
1582146394.1239998,2.441,54.199,-43.945,4.395,0.0,0
1582146394.1279998,9.766,6.348,-165.52700000000004,-0.488,0.0,0
1582146394.1320002,23.438,-23.438,-387.695,5.859,0.0,0
1582146394.135,26.367,45.41,-242.188,10.742,0.0,0
1582146394.139,16.113,72.266,7.812,9.766,0.0,0
1582146394.143,11.719,-7.324,-27.832,16.602,0.0,0
1582146394.147,18.555,-33.691,-38.574,22.949,0.0,0
1582146394.151,30.762,-38.086,16.113,16.602,0.0,0
1582146394.168,30.273000000000003,-63.965,28.32,11.719,0.0,0
1582146394.1720002,14.648,-82.031,-21.973000000000006,14.648,0.0,0
1582146394.176,22.461,-91.309,-79.102,9.766,0.0,0
1582146394.18,44.922,-71.289,-24.414,-1.953,0.0,2
1582146394.184,8.301,-61.035,46.875,-9.766,0.0,0
1582146394.188,-19.043,-126.953,-115.723,-7.324,0.0,0
1582146394.1920002,3.906,-134.27700000000002,-248.047,4.395,0.0,0
1582146394.195,19.531,-52.734,-30.273000000000003,5.371,0.0,0
1582146394.199,25.391,-80.566,-27.344,11.719,0.0,0
1582146394.2029998,12.207,-113.77,-206.055,37.598,0.0,0
1582146394.207,25.879,-68.359,-189.453,39.062,0.0,0
1582146394.211,41.01600000000001,4.883,-26.367,4.883,0.0,0
1582146394.2129998,32.715,31.25,108.398,-11.23,0.0,0
1582146394.217,21.484,11.719,52.734,-8.789,0.0,0
1582146394.221,16.602,-9.277,-51.758,1.953,0.0,0
1582146394.225,39.062,8.789,-12.207,25.879,0.0,0
1582146394.229,36.133,24.902,42.48,27.832,0.0,0
1582146394.2329998,24.902,-34.18,-45.41,14.648,0.0,0
1582146394.2370002,16.113,-52.734,-165.03900000000004,14.648,0.0,0
1582146394.24,8.789,11.719,-35.156,19.043,0.0,0
1582146394.244,20.508000000000006,-15.137,-1.465,15.625,0.0,0
1582146394.248,22.949,-75.684,-218.75,22.949,0.0,0
1582146394.252,2.441,-29.785,-209.961,20.02,0.0,0
1582146394.256,0.977,12.695,-115.723,15.137,0.0,0
1582146394.258,42.969,33.691,-106.934,30.762,0.0,0
1582146394.262,41.01600000000001,71.777,-18.066,42.48,0.0,0
1582146394.266,2.93,93.262,0.977,42.969,0.0,0
1582146394.27,31.25,114.258,-55.664,35.156,0.0,0
1582146394.274,47.363,163.086,-41.01600000000001,26.855,0.0,0
1582146394.278,36.621,186.035,-51.758,19.043,0.0,0
1582146394.282,3.906,157.715,-172.852,12.207,0.0,0
1582146394.285,1.953,170.898,-98.633,30.273000000000003,0.0,0
1582146394.289,33.203,142.578,-145.996,30.273000000000003,0.0,0
1582146394.293,31.25,150.391,-327.637,16.113,0.0,0
1582146394.2970002,36.133,298.34,-84.473,28.32,0.0,0
1582146394.301,19.531,308.594,-11.719,29.785,0.0,0
1582146394.303,6.348,250.0,-123.535,14.16,0.0,0
1582146394.3070002,33.203,239.746,-78.613,13.184,0.0,0
1582146394.311,39.551,238.281,-84.473,34.18,0.0,0
1582146394.315,20.02,223.633,-142.578,41.504,0.0,0
1582146394.319,7.324,198.242,-167.48,23.926,0.0,0
1582146394.323,20.02,147.94899999999996,-204.59,15.137,0.0,0
1582146394.327,29.297,123.535,-176.75799999999995,16.113,0.0,0
1582146394.33,25.879,100.586,-158.691,16.602,0.0,0
1582146394.334,21.484,25.879,-370.605,19.043,0.0,0
1582146394.3379998,24.902,76.66,-303.711,11.23,0.0,0
1582146394.342,17.578,153.809,-7.812,9.766,0.0,0
1582146394.346,25.391,120.117,-37.109,19.043,0.0,0
1582146394.349,13.184,118.652,-95.703,18.066,0.0,0
1582146394.353,19.531,166.50400000000005,20.02,18.066,0.0,0
1582146394.357,60.547,166.50400000000005,68.359,36.133,0.0,0
1582146394.361,51.27,168.457,-45.41,44.434,0.0,0
1582146394.365,22.949,226.562,-99.609,27.344,0.0,0
1582146394.369,30.762,263.184,-105.469,15.625,0.0,0
1582146394.373,34.18,260.742,-125.0,10.742,0.0,0
1582146394.3760002,15.137,189.941,-209.961,1.465,0.0,0
1582146394.38,5.859,147.94899999999996,-296.387,8.789,0.0,0
1582146394.3839998,0.977,229.492,-26.367,10.254,0.0,0
1582146394.3879998,21.484,224.121,149.90200000000004,8.789,0.0,0
1582146394.3920002,23.926,180.664,75.195,19.531,0.0,0
1582146394.393,14.648,170.898,25.391,26.855,0.0,0
1582146394.397,38.574,194.336,77.148,31.738000000000003,0.0,0
1582146394.401,39.062,210.938,146.97299999999996,14.16,0.0,0
1582146394.405,21.484,216.30900000000003,142.578,0.977,0.0,0
1582146394.409,6.836,251.465,188.965,13.672,0.0,0
1582146394.413,16.113,237.305,118.164,21.973000000000006,0.0,0
1582146394.417,16.113,193.848,29.297,24.902,0.0,0
1582146394.42,28.32,161.621,-69.336,10.742,0.0,0
1582146394.424,21.973000000000006,226.074,-26.855,9.277,0.0,0
1582146394.428,9.277,299.316,153.32,21.484,0.0,0
1582146394.4320002,13.184,296.387,114.746,15.137,0.0,0
1582146394.436,37.109,290.527,109.375,13.672,0.0,0
1582146394.439,54.199,298.828,211.426,8.301,0.0,0
1582146394.4429998,47.363,306.152,217.285,15.625,0.0,0
1582146394.447,44.434,257.812,44.434,36.621,0.0,0
1582146394.451,39.551,268.066,27.832,36.133,0.0,0
1582146394.455,32.715,304.688,136.23,23.926,0.0,0
1582146394.459,24.902,270.508,48.828,19.531,0.0,0
1582146394.4629998,19.531,211.426,-137.207,29.297,0.0,0
1582146394.466,33.203,224.609,-149.414,30.273000000000003,0.0,0
1582146394.47,36.133,314.941,86.426,21.973000000000006,0.0,0
1582146394.474,21.973000000000006,273.926,132.32399999999998,15.625,0.0,0
1582146394.478,9.277,209.961,17.09,7.324,0.0,0
1582146394.482,10.254,211.914,-15.625,8.301,0.0,0
1582146394.484,31.25,247.07,120.117,20.996,0.0,0
1582146394.488,41.992,244.629,205.566,28.32,0.0,0
1582146394.492,21.973000000000006,211.426,85.449,24.902,0.0,0
1582146394.496,22.461,226.074,81.055,20.02,0.0,0
1582146394.5,49.805,258.301,199.219,28.32,0.0,0
1582146394.504,41.504,219.727,138.672,37.109,0.0,0
1582146394.508,23.926,156.738,-94.238,35.645,0.0,0
1582146394.5110002,20.02,214.844,-68.359,31.738000000000003,0.0,0
1582146394.515,2.93,279.785,164.062,17.578,0.0,0
1582146394.519,13.184,240.234,154.785,10.742,0.0,0
1582146394.5229998,11.719,196.777,69.824,14.648,0.0,0
1582146394.5270002,-7.324,226.074,152.832,14.648,0.0,0
1582146394.544,14.648,242.188,323.73,23.926,0.0,0
1582146394.548,38.086,152.832,249.512,24.414,0.0,0
1582146394.552,27.344,93.75,17.09,25.391,0.0,0
1582146394.556,15.625,144.531,39.062,39.551,0.0,0
1582146394.56,21.484,177.734,189.453,31.738000000000003,0.0,0
1582146394.564,30.273000000000003,90.332,23.926,20.996,0.0,0
1582146394.5679998,38.574,78.125,-96.68,19.043,0.0,0
1582146394.571,17.578,176.75799999999995,83.49600000000002,16.602,0.0,0
1582146394.575,5.859,197.754,145.996,21.973000000000006,0.0,0
1582146394.579,24.902,152.344,-25.391,8.789,0.0,0
1582146394.583,14.16,167.48,-7.812,5.859,0.0,0
1582146394.587,2.93,176.27,160.156,5.859,0.0,0
1582146394.589,23.926,114.746,104.492,7.812,0.0,0
1582146394.593,29.785,65.918,-8.789,7.324,0.0,0
1582146394.597,25.391,79.59,-52.734,-1.465,0.0,0
1582146394.601,9.766,130.859,60.059,10.254,0.0,0
1582146394.605,3.418,127.93,25.391,18.066,0.0,0
1582146394.609,15.137,145.50799999999995,-92.773,8.301,0.0,0
1582146394.613,27.344,187.5,-133.789,5.859,0.0,0
1582146394.6160002,20.996,244.141,-28.809,5.859,0.0,0
1582146394.62,10.254,209.473,-21.484,17.09,0.0,0
1582146394.6239998,16.113,125.0,-253.906,13.184,0.0,0
1582146394.6279998,35.156,189.941,-170.41,3.906,0.0,0
1582146394.6320002,46.875,274.414,117.676,17.09,0.0,0
1582146394.6339998,30.273000000000003,207.031,15.625,20.996,0.0,0
1582146394.6379998,23.438,171.875,-96.191,25.391,0.0,0
1582146394.6420002,39.062,244.629,29.297,17.09,0.0,0
1582146394.646,34.18,259.766,67.383,1.465,0.0,0
1582146394.65,15.137,170.898,-94.238,3.418,0.0,0
1582146394.654,11.23,165.52700000000004,-224.121,7.812,0.0,0
1582146394.658,31.25,201.172,-145.50799999999995,8.301,0.0,0
1582146394.661,37.598,187.988,3.418,5.859,0.0,0
1582146394.665,24.902,131.836,-154.297,19.531,0.0,0
1582146394.669,19.531,52.734,-271.973,21.973000000000006,0.0,0
1582146394.673,8.301,29.785,-56.152,8.301,0.0,0
1582146394.677,30.273000000000003,3.906,41.504,27.344,0.0,0
1582146394.679,49.316,-140.137,-149.414,31.25,0.0,0
1582146394.6829998,2.93,-210.449,-268.555,13.672,0.0,0
1582146394.687,-1.465,-114.746,-68.359,13.184,0.0,0
1582146394.691,36.621,-75.195,48.34,12.695,0.0,0
1582146394.695,41.01600000000001,-70.801,18.555,13.672,0.0,0
1582146394.699,6.348,-78.125,-105.469,13.672,0.0,0
1582146394.7029998,14.16,-38.574,-145.02,17.09,0.0,0
1582146394.706,35.645,-13.672,-0.488,27.344,0.0,0
1582146394.71,23.926,-71.777,-78.125,16.602,0.0,0
1582146394.714,20.02,-8.301,-114.258,3.418,0.0,0
1582146394.718,17.09,88.37899999999998,89.844,24.414,0.0,0
1582146394.722,16.113,53.71100000000001,6.836,17.09,0.0,0
1582146394.724,44.922,54.199,-36.621,1.465,0.0,0
1582146394.728,35.645,93.262,41.504,-2.93,0.0,0
1582146394.732,11.23,83.49600000000002,59.57,4.395,0.0,0
1582146394.736,31.25,55.176,-0.488,11.23,0.0,0
1582146394.74,39.062,44.922,-33.691,3.418,0.0,0
1582146394.744,26.855,54.688,-52.734,10.254,0.0,0
1582146394.748,-1.953,97.656,-57.129,13.184,0.0,0
1582146394.7510002,-13.672,77.637,-106.445,12.207,0.0,0
1582146394.755,3.418,59.57,-168.457,-4.395,0.0,0
1582146394.7589998,2.93,133.789,69.824,-6.348,0.0,0
1582146394.7629998,-6.348,94.238,124.023,11.719,0.0,0
1582146394.7670002,12.695,34.18,2.441,16.602,0.0,0
1582146394.769,27.832,3.906,-21.973000000000006,22.949,0.0,0
1582146394.7729998,33.203,11.719,86.426,16.602,0.0,0
1582146394.7770002,22.461,1.465,55.176,8.301,0.0,0
1582146394.781,8.789,-1.465,-39.062,16.602,0.0,0
1582146394.785,3.906,-2.93,12.695,16.113,0.0,0
1582146394.789,16.602,-51.27,4.883,9.277,0.0,0
1582146394.793,21.973000000000006,-56.152,-66.895,7.324,0.0,0
1582146394.796,21.973000000000006,-66.895,-215.332,20.02,0.0,0
1582146394.8,49.316,-38.574,-214.355,40.039,0.0,0
1582146394.804,52.734,34.18,39.551,40.039,0.0,0
1582146394.8079998,28.809,7.324,71.289,34.18,0.0,0
1582146394.812,0.977,-16.602,-18.066,12.695,0.0,0
1582146394.814,-5.859,7.812,19.043,5.859,0.0,0
1582146394.8179998,11.23,2.441,30.762,16.602,0.0,0
1582146394.822,19.043,6.836,12.695,9.277,0.0,0
1582146394.826,11.23,-5.859,-32.715,21.973000000000006,0.0,0
1582146394.83,-0.977,-20.996,-10.742,17.578,0.0,0
1582146394.834,11.23,-45.898,-45.41,9.277,0.0,0
1582146394.8379998,46.875,-82.52,-221.68,32.715,0.0,0
1582146394.841,48.34,-52.734,-297.8520000000001,38.574,0.0,0
1582146394.845,19.043,7.324,-157.227,30.273000000000003,0.0,0
1582146394.849,31.738000000000003,26.855,11.23,29.785,0.0,0
1582146394.853,27.832,14.16,-3.906,22.949,0.0,0
1582146394.857,15.137,3.418,-51.27,30.762,0.0,0
1582146394.859,10.742,4.883,-26.855,28.809,0.0,0
1582146394.863,19.043,1.953,-18.066,19.531,0.0,0
1582146394.867,38.086,-4.883,-40.039,11.23,0.0,0
1582146394.871,17.09,-1.465,-33.691,9.766,0.0,0
1582146394.875,10.742,-13.672,-28.32,17.578,0.0,0
1582146394.879,11.23,-76.66,-222.656,18.066,0.0,0
1582146394.883,33.203,-89.355,-346.68,17.09,0.0,0
1582146394.8860002,54.199,-56.64100000000001,-269.043,17.09,0.0,0
1582146394.89,23.926,-18.555,-171.875,29.297,0.0,0
1582146394.894,19.531,2.441,-162.59799999999996,34.18,0.0,0
1582146394.8979998,36.133,22.949,-141.113,19.043,0.0,0
1582146394.9020002,4.883,72.75399999999998,-10.254,6.836,0.0,0
1582146394.919,-14.16,79.102,81.543,0.977,0.0,0
1582146394.923,15.137,56.152,-15.625,15.625,0.0,0
1582146394.927,38.574,61.523,-71.777,26.367,0.0,0
1582146394.931,41.01600000000001,79.59,44.434,14.16,0.0,0
1582146394.935,41.01600000000001,75.195,121.094,21.973000000000006,0.0,0
1582146394.939,29.785,-11.719,-113.77,16.113,0.0,0
1582146394.9429998,20.996,-15.137,-274.902,13.184,0.0,0
1582146394.946,26.367,99.121,-12.207,18.066,0.0,0
1582146394.95,19.531,87.891,97.656,2.441,0.0,0
1582146394.954,5.859,36.621,-17.578,3.906,0.0,0
1582146394.958,-6.348,45.898,-92.773,-0.488,0.0,0
1582146394.962,6.348,87.402,-75.195,-4.395,0.0,0
1582146394.964,40.527,111.816,71.289,12.695,0.0,0
1582146394.968,21.484,70.312,20.02,13.672,0.0,0
1582146394.972,12.207,83.008,-70.801,9.766,0.0,0
1582146394.976,23.438,153.32,88.867,3.418,0.0,0
1582146394.98,15.137,155.273,116.211,-2.441,0.0,0
1582146394.984,14.16,114.746,-13.672,7.324,0.0,0
1582146394.988,-6.348,115.234,-85.449,13.184,0.0,0
1582146394.9910002,4.395,157.715,23.438,19.531,0.0,0
1582146394.995,42.48,128.906,50.78100000000001,14.16,0.0,0
1582146394.9989998,32.715,49.805,-220.703,4.883,0.0,0
1582146395.0029998,18.555,113.77,-240.234,17.09,0.0,0
1582146395.0070002,38.086,200.195,18.066,34.18,0.0,0
1582146395.008,46.875,165.52700000000004,32.715,32.227,0.0,0
1582146395.012,49.805,141.113,-13.672,20.02,0.0,0
1582146395.016,43.457,144.531,-71.777,25.391,0.0,0
1582146395.02,16.113,158.691,-26.855,39.551,0.0,0
1582146395.024,1.953,122.07,-36.621,28.809,0.0,0
1582146395.028,40.039,92.285,-141.602,14.16,0.0,0
1582146395.032,38.574,37.109,-165.03900000000004,0.977,0.0,0
1582146395.035,2.93,-15.137,-134.27700000000002,8.789,0.0,0
1582146395.039,25.879,-107.91,-227.539,20.02,0.0,0
1582146395.043,49.805,-208.496,-304.688,19.531,0.0,0
1582146395.0470002,25.879,-205.566,-104.492,20.02,0.0,0
1582146395.051,0.977,-301.27,-116.699,12.207,0.0,0
1582146395.053,17.09,-382.324,-218.75,21.973000000000006,0.0,0
1582146395.0570002,24.902,-374.512,-142.578,29.297,0.0,0
1582146395.061,25.391,-348.145,-14.16,27.832,0.0,0
1582146395.065,13.672,-364.746,-32.227,22.949,0.0,0
1582146395.069,17.578,-370.117,-118.164,13.184,0.0,0
1582146395.073,28.809,-372.07,-147.461,23.926,0.0,0
1582146395.077,19.043,-371.094,-165.03900000000004,17.09,0.0,0
1582146395.08,15.137,-342.285,-198.242,4.395,0.0,0
1582146395.084,-0.488,-343.26199999999994,-388.184,8.789,0.0,0
1582146395.0879998,14.16,-271.48400000000004,-280.273,4.883,0.0,0
1582146395.092,36.621,-227.539,-2.93,9.277,0.0,0
1582146395.096,40.039,-296.875,-30.273000000000003,28.32,0.0,0
1582146395.0979998,36.621,-351.5619999999999,-140.625,42.969,0.0,0
1582146395.1020002,25.879,-326.66,-99.609,41.01600000000001,0.0,0
1582146395.106,26.367,-317.383,-12.695,23.438,0.0,0
1582146395.11,19.043,-330.0780000000001,-63.477,18.555,0.0,0
1582146395.1139998,15.625,-312.988,-119.141,24.902,0.0,0
1582146395.1179998,23.438,-313.4770000000001,-168.945,25.391,0.0,0
1582146395.1220002,29.785,-282.715,-126.465,16.602,0.0,0
1582146395.125,31.25,-308.105,-151.36700000000005,15.625,0.0,0
1582146395.129,17.578,-346.191,-289.551,18.066,0.0,0
1582146395.133,12.207,-263.672,-103.027,14.648,0.0,0
1582146395.137,19.043,-252.441,68.848,11.23,0.0,0
1582146395.141,16.602,-285.156,79.102,12.207,0.0,0
1582146395.143,24.414,-293.945,51.27,14.16,0.0,0
1582146395.147,10.742,-282.715,75.684,6.836,0.0,0
1582146395.151,12.207,-309.082,92.285,4.883,0.0,0
1582146395.155,36.133,-333.496,82.031,10.254,0.0,0
1582146395.159,32.715,-321.289,77.148,19.531,0.0,0
1582146395.163,32.227,-340.82,-57.617,29.297,0.0,0
1582146395.167,41.992,-324.219,-56.152,29.785,0.0,0
1582146395.17,47.852,-328.61300000000006,-137.207,31.738000000000003,0.0,0
1582146395.174,53.223,-297.8520000000001,-177.24599999999995,33.203,0.0,0
1582146395.178,32.227,-225.098,29.297,34.668,0.0,0
1582146395.1820002,44.434,-268.066,-37.109,33.691,0.0,0
1582146395.186,53.223,-278.32,-44.434,19.043,0.0,0
1582146395.188,30.273000000000003,-215.332,104.492,14.16,0.0,0
1582146395.1920002,13.672,-201.66,150.391,15.625,0.0,0
1582146395.196,23.438,-208.496,107.91,14.648,0.0,0
1582146395.2,26.367,-182.129,109.375,6.836,0.0,0
1582146395.204,15.625,-144.043,221.68,-4.395,0.0,0
1582146395.208,-3.906,-171.875,175.78099999999995,-8.789,0.0,0
1582146395.212,-17.578,-247.07,-9.277,7.812,0.0,0
1582146395.215,18.555,-224.121,-69.824,11.23,0.0,0
1582146395.219,44.434,-102.539,164.551,3.418,0.0,0
1582146395.2229998,29.297,-97.656,319.824,20.02,0.0,2
1582146395.2270002,20.996,-139.648,221.68,43.945,0.0,0
1582146395.231,27.344,-95.703,200.68400000000003,58.594,0.0,0
1582146395.2329998,49.805,-42.969,314.453,37.109,0.0,0
1582146395.2370002,47.852,-97.168,217.773,18.555,0.0,0
1582146395.2410002,14.648,-124.512,75.684,22.461,0.0,0
1582146395.245,14.648,-86.426,155.762,16.602,0.0,0
1582146395.2489998,34.18,-88.37899999999998,269.043,11.23,0.0,0
1582146395.2529998,31.25,-143.555,208.496,15.137,0.0,0
1582146395.2570002,26.367,-220.703,-93.75,19.043,0.0,0
1582146395.26,27.344,-166.50400000000005,-73.73,26.855,0.0,0
1582146395.264,47.852,-107.422,225.098,38.086,0.0,0
1582146395.268,55.176,-182.129,185.547,38.086,0.0,0
1582146395.272,20.508000000000006,-187.012,131.836,28.809,0.0,0
1582146395.276,-2.441,-141.113,153.32,17.578,0.0,0
1582146395.293,6.348,-129.395,143.066,25.879,0.0,0
1582146395.2970002,27.344,-126.465,137.695,28.32,0.0,0
1582146395.301,34.18,-116.211,102.051,19.531,0.0,0
1582146395.305,12.207,-65.43,158.203,22.461,0.0,0
1582146395.309,7.324,-81.055,107.91,20.996,0.0,0
1582146395.313,42.48,-126.465,-46.387,26.855,0.0,0
1582146395.3170002,32.227,-79.102,-100.098,22.461,0.0,0
1582146395.32,6.348,-3.906,-62.012,10.742,0.0,0
1582146395.324,18.555,49.316,108.887,15.625,0.0,0
1582146395.3279998,41.504,-15.625,-23.438,18.066,0.0,0
1582146395.332,47.363,-29.297,-163.086,20.996,0.0,0
1582146395.336,23.926,38.574,56.152,36.621,0.0,0
1582146395.3379998,10.742,43.945,139.648,40.527,0.0,0
1582146395.342,19.531,78.613,166.50400000000005,32.227,0.0,0
1582146395.346,21.484,91.797,167.96900000000005,18.555,0.0,0
1582146395.35,32.227,91.309,173.828,21.973000000000006,0.0,0
1582146395.354,16.113,55.176,138.672,28.809,0.0,0
1582146395.3579998,14.16,-17.578,-9.766,27.344,0.0,0
1582146395.3620002,48.34,-28.809,5.859,35.645,0.0,0
1582146395.365,27.344,-48.34,69.336,29.297,0.0,0
1582146395.369,-0.977,-90.82,10.742,19.043,0.0,0
1582146395.373,2.93,-127.441,-201.66,21.484,0.0,0
1582146395.377,23.438,-36.621,-100.098,19.043,0.0,0
1582146395.381,25.391,86.426,174.805,18.066,0.0,0
1582146395.383,-1.953,62.5,83.008,23.438,0.0,0
1582146395.387,15.137,108.887,17.578,26.367,0.0,0
1582146395.391,30.762,229.98,119.629,27.832,0.0,0
1582146395.395,34.668,279.297,172.363,37.598,0.0,0
1582146395.399,44.922,281.738,125.0,45.41,0.0,0
1582146395.403,41.992,224.121,-72.266,38.574,0.0,0
1582146395.407,34.18,236.328,-76.172,22.461,0.0,0
1582146395.41,26.367,228.516,145.996,14.16,0.0,0
1582146395.414,6.836,42.48,17.578,9.766,0.0,0
1582146395.418,0.488,-57.617,-150.391,23.438,0.0,0
1582146395.4220002,19.043,-18.555,15.625,19.531,0.0,0
1582146395.426,38.574,-13.184,112.793,18.066,0.0,0
1582146395.429,39.551,4.395,127.93,39.551,0.0,0
1582146395.4329998,9.766,-6.836,42.48,27.832,0.0,0
1582146395.437,14.16,-4.395,70.801,20.508000000000006,0.0,0
1582146395.441,38.086,-24.902,131.34799999999998,22.461,0.0,0
1582146395.445,29.297,-100.098,67.383,18.066,0.0,0
1582146395.449,3.906,-170.41,-93.75,19.043,0.0,0
1582146395.4529998,11.719,-160.156,-133.30100000000002,21.484,0.0,0
1582146395.456,44.922,-132.812,25.879,30.273000000000003,0.0,0
1582146395.46,35.645,-217.773,-100.098,18.066,0.0,0
1582146395.464,10.254,-231.445,-134.766,4.883,0.0,0
1582146395.468,7.812,-186.035,76.172,18.066,0.0,0
1582146395.472,35.645,-207.031,78.125,25.879,0.0,0
1582146395.474,44.922,-215.82,71.289,34.668,0.0,0
1582146395.478,20.508000000000006,-195.801,56.64100000000001,29.297,0.0,0
1582146395.482,15.137,-201.66,-20.996,24.414,0.0,0
1582146395.486,24.414,-208.496,0.488,18.066,0.0,0
1582146395.49,28.809,-214.844,51.758,8.789,0.0,0
1582146395.494,19.531,-215.332,62.988,15.625,0.0,0
1582146395.498,13.184,-215.82,-0.977,27.344,0.0,0
1582146395.5010002,19.531,-266.60200000000003,-199.219,28.809,0.0,0
1582146395.505,40.527,-220.215,-205.078,25.391,0.0,0
1582146395.5089998,36.133,-67.87100000000001,132.812,14.16,0.0,0
1582146395.5129998,9.277,-93.262,207.031,13.184,0.0,0
1582146395.5170002,20.02,-166.50400000000005,79.102,11.23,0.0,0
1582146395.519,32.715,-137.695,80.566,10.254,0.0,0
1582146395.5229998,21.973000000000006,-102.539,191.406,15.625,0.0,0
1582146395.5270002,28.32,-129.88299999999998,160.645,18.555,0.0,0
1582146395.531,21.484,-134.766,83.008,16.602,0.0,0
1582146395.535,9.766,-156.738,-10.254,4.883,0.0,0
1582146395.539,20.508000000000006,-161.621,-86.914,10.742,0.0,0
1582146395.543,10.254,-128.906,-60.059,23.926,0.0,0
1582146395.546,8.301,-176.27,-197.754,18.555,0.0,0
1582146395.55,2.93,-150.879,-161.621,8.789,0.0,0
1582146395.554,12.207,-81.543,126.465,20.508000000000006,0.0,0
1582146395.5579998,20.508000000000006,-140.625,103.027,22.949,0.0,0
1582146395.562,5.859,-179.199,-27.832,14.16,0.0,0
1582146395.564,-0.488,-138.184,38.574,15.625,0.0,0
1582146395.5679998,32.227,-141.113,125.488,16.113,0.0,0
1582146395.572,50.293,-192.871,10.742,20.508000000000006,0.0,0
1582146395.576,30.762,-174.805,-29.785,30.762,0.0,0
1582146395.58,14.16,-168.945,27.344,30.762,0.0,0
1582146395.584,30.273000000000003,-189.453,-77.148,39.551,0.0,0
1582146395.5879998,50.293,-187.988,-157.227,41.992,0.0,0
1582146395.591,34.668,-200.68400000000003,-302.246,31.25,0.0,0
1582146395.595,14.16,-127.441,-230.469,33.691,0.0,0
1582146395.599,24.414,-84.961,6.348,39.551,0.0,0
1582146395.603,30.762,-95.215,58.594,44.922,0.0,0
1582146395.607,25.391,-78.125,59.082,45.41,0.0,0
1582146395.609,10.254,-39.062,79.59,33.203,0.0,0
1582146395.613,23.926,-22.461,-1.953,21.484,0.0,0
1582146395.617,29.785,-13.672,-61.523,20.508000000000006,0.0,0
1582146395.621,19.043,20.02,-17.578,21.973000000000006,0.0,0
1582146395.625,16.602,64.453,52.734,23.438,0.0,0
1582146395.629,14.16,51.758,-6.836,25.879,0.0,0
1582146395.633,19.043,-2.441,-261.23,20.02,0.0,0
1582146395.6360002,20.996,74.707,-189.941,19.531,0.0,0
1582146395.64,1.465,147.461,10.254,13.184,0.0,0
1582146395.644,-19.043,181.641,0.977,1.465,0.0,0
1582146395.6479998,-17.578,187.012,-103.516,-6.836,0.0,0
1582146395.6520002,-12.207,178.71099999999996,-157.715,-24.902,0.0,0
1582146395.669,-38.574,278.32,-33.691,-36.621,0.0,0
1582146395.673,-62.988,315.918,-31.738000000000003,-34.18,0.0,0
1582146395.677,-27.344,317.871,-173.34,-36.621,0.0,0
1582146395.681,-28.809,479.492,-65.918,-51.758,0.0,0
1582146395.685,-76.66,507.812,51.758,-62.988,0.0,0
1582146395.689,-84.473,358.88699999999994,-204.102,-68.848,0.0,0
1582146395.6929998,-71.777,390.137,-358.398,-88.37899999999998,0.0,0
1582146395.696,-79.59,553.711,-173.34,-109.375,0.0,0
1582146395.7,-104.004,664.551,-68.359,-120.117,0.0,0
1582146395.704,-129.88299999999998,628.418,-245.117,-117.676,0.0,0
1582146395.708,-167.48,634.2769999999998,-316.406,-139.16,0.0,0
1582146395.712,-164.062,691.4060000000002,-125.977,-166.016,0.0,0
1582146395.714,-158.203,657.227,-59.082,-175.293,0.0,0
1582146395.718,-196.777,607.91,-133.30100000000002,-186.035,0.0,0
1582146395.722,-187.988,528.809,-204.59,-186.035,0.0,0
1582146395.726,-174.805,501.953,-133.789,-194.824,0.0,0
1582146395.73,-202.637,494.629,-98.633,-204.102,0.0,0
1582146395.734,-208.496,412.598,-217.773,-198.73,0.0,0
1582146395.738,-186.035,370.605,-336.914,-196.289,0.0,0
1582146395.7410002,-174.31599999999997,431.152,-211.426,-186.523,0.0,0
1582146395.745,-155.273,406.73800000000006,-153.32,-179.688,0.0,0
1582146395.7489998,-157.227,269.531,-453.61300000000006,-182.129,0.0,0
1582146395.7529998,-179.688,305.176,-403.809,-186.523,0.0,0
1582146395.7570002,-183.594,359.375,-129.88299999999998,-197.754,0.0,0
1582146395.7589998,-171.387,288.086,-187.5,-193.359,0.0,0
1582146395.7629998,-142.578,277.832,-172.363,-167.96900000000005,0.0,0
1582146395.7670002,-133.789,277.344,-43.457,-156.25,0.0,0
1582146395.771,-139.16,236.816,8.301,-145.50799999999995,0.0,0
1582146395.775,-111.328,203.125,-85.93799999999997,-142.09,0.0,0
1582146395.779,-101.562,172.363,-205.078,-132.32399999999998,0.0,0
1582146395.783,-103.516,136.23,-249.023,-106.445,0.0,0
1582146395.786,-81.055,131.836,-104.492,-83.49600000000002,0.0,0
1582146395.79,-35.156,8.301,-85.449,-64.453,0.0,0
1582146395.794,-21.484,-84.961,-225.586,-55.664,0.0,0
1582146395.798,-20.02,3.418,-20.996,-35.645,0.0,0
1582146395.802,6.836,6.348,102.539,-5.859,0.0,0
1582146395.804,12.695,-20.996,53.71100000000001,7.324,0.0,0
1582146395.8079998,26.855,-22.949,27.832,7.324,0.0,0
1582146395.812,36.133,-2.93,151.855,15.625,0.0,0
1582146395.816,40.527,-29.785,193.848,45.898,0.0,0
1582146395.82,49.805,-79.102,115.234,65.43,0.0,0
1582146395.824,71.289,-106.445,6.348,71.777,0.0,0
1582146395.8279998,94.238,-122.07,-64.941,73.242,0.0,0
1582146395.831,92.285,-142.578,-71.289,76.172,0.0,0
1582146395.835,84.961,-183.105,-132.32399999999998,95.215,0.0,0
1582146395.839,91.797,-160.156,-45.898,88.37899999999998,0.0,0
1582146395.843,108.398,-108.887,195.801,82.031,0.0,0
1582146395.847,118.164,-169.922,155.273,90.332,0.0,0
1582146395.849,112.793,-208.496,13.184,94.727,0.0,0
1582146395.853,122.07,-187.988,106.445,104.004,0.0,0
1582146395.857,128.418,-217.773,154.785,102.539,0.0,0
1582146395.861,111.328,-264.16,106.934,112.305,0.0,0
1582146395.865,104.004,-313.965,51.758,132.32399999999998,0.0,0
1582146395.869,123.047,-346.191,19.531,124.512,0.0,0
1582146395.873,140.625,-402.832,-9.277,112.793,0.0,0
1582146395.8760002,123.535,-484.375,-84.961,101.074,0.0,0
1582146395.88,85.449,-503.418,-198.73,101.562,0.0,0
1582146395.8839998,97.656,-399.902,-13.184,104.004,0.0,0
1582146395.8879998,137.207,-399.414,59.57,100.098,0.0,0
1582146395.8920002,136.23,-402.344,-2.93,108.398,0.0,0
1582146395.894,100.586,-370.117,54.688,109.863,0.0,0
1582146395.8979998,99.121,-344.23800000000006,135.74200000000002,113.281,0.0,0
1582146395.9020002,126.953,-333.9840000000001,165.52700000000004,121.094,0.0,0
1582146395.906,126.953,-362.793,37.598,107.422,0.0,0
1582146395.91,116.699,-345.7030000000001,33.691,98.145,0.0,0
1582146395.914,101.562,-358.88699999999994,-25.391,104.492,0.0,0
1582146395.918,98.145,-368.164,-130.371,106.934,0.0,0
1582146395.921,119.141,-374.512,-173.34,97.168,0.0,0
1582146395.925,108.887,-333.9840000000001,-102.051,95.215,0.0,0
1582146395.929,86.914,-303.711,85.93799999999997,106.445,0.0,0
1582146395.9329998,101.074,-363.281,2.441,112.305,0.0,0
1582146395.937,119.141,-336.426,-25.879,118.652,0.0,0
1582146395.939,97.168,-291.016,68.359,107.91,0.0,0
1582146395.9429998,93.262,-313.965,41.992,104.492,0.0,0
1582146395.947,105.469,-347.656,-101.562,114.258,0.0,0
1582146395.951,95.215,-297.8520000000001,-85.93799999999997,103.027,0.0,0
1582146395.955,93.262,-231.445,91.309,96.191,0.0,0
1582146395.959,71.289,-263.184,-2.441,91.309,0.0,0
1582146395.9629998,71.289,-298.34,-218.262,91.309,0.0,0
1582146395.966,82.52,-272.949,-241.211,93.75,0.0,0
1582146395.97,78.125,-191.895,6.836,85.93799999999997,0.0,0
1582146395.974,89.844,-190.43,120.605,92.285,0.0,0
1582146395.978,78.613,-234.375,8.301,97.168,0.0,0
1582146395.982,71.777,-208.984,22.461,84.473,0.0,0
1582146395.984,96.68,-158.691,173.34,84.961,0.0,0
1582146395.988,69.824,-176.75799999999995,175.293,68.848,0.0,0
1582146395.992,45.41,-216.797,14.16,59.082,0.0,0
1582146395.996,51.27,-194.824,36.621,67.87100000000001,0.0,0
1582146396.0,61.523,-190.918,22.949,56.64100000000001,0.0,0
1582146396.004,82.031,-198.73,-77.637,64.941,0.0,0
1582146396.008,52.246,-229.98,-282.715,62.5,0.0,0
1582146396.0110002,51.27,-157.227,-227.539,52.734,0.0,0
1582146396.015,77.637,-50.78100000000001,152.832,57.129,0.0,0
1582146396.019,72.266,-105.469,167.96900000000005,56.64100000000001,0.0,0
1582146396.0229998,76.66,-146.97299999999996,56.64100000000001,66.895,0.0,0
1582146396.0270002,57.129,-109.863,100.098,64.941,0.0,0
1582146396.044,49.316,-106.445,129.88299999999998,53.71100000000001,0.0,0
1582146396.048,73.242,-116.211,72.75399999999998,49.805,0.0,0
1582146396.052,55.664,-102.539,-8.301,46.387,0.0,0
1582146396.056,52.734,-59.082,51.27,55.176,0.0,0
1582146396.06,67.383,-46.875,145.02,59.57,0.0,0
1582146396.064,81.543,-119.141,-11.719,61.035,0.0,0
1582146396.0679998,78.613,-101.074,-86.426,53.223,0.0,0
1582146396.071,31.25,-41.01600000000001,20.996,54.688,0.0,0
1582146396.075,32.715,-50.293,79.102,67.383,0.0,0
1582146396.079,58.105,-58.105,125.488,58.105,0.0,0
1582146396.083,53.223,-41.992,194.336,52.734,0.0,0
1582146396.087,49.805,-25.391,261.719,50.78100000000001,0.0,0
1582146396.089,58.594,-58.105,182.617,55.664,0.0,0
1582146396.093,75.195,-45.898,160.156,63.965,0.0,0
1582146396.097,78.125,-8.789,234.375,59.082,0.0,0
1582146396.101,40.527,-8.301,228.027,55.176,0.0,0
1582146396.105,26.367,-0.488,220.703,41.01600000000001,0.0,0
1582146396.109,42.48,-43.945,87.891,30.762,0.0,0
1582146396.113,42.969,-35.156,15.137,29.297,0.0,0
1582146396.1160002,35.645,44.434,170.898,31.25,0.0,0
1582146396.12,35.156,31.738000000000003,200.195,47.363,0.0,0
1582146396.1239998,50.78100000000001,-41.504,-5.371,45.898,0.0,0
1582146396.1279998,63.477,-14.648,-40.527,32.227,0.0,0
1582146396.1320002,52.734,40.039,119.629,41.504,0.0,0
1582146396.1339998,35.645,33.203,104.492,43.457,0.0,0
1582146396.1379998,44.922,41.01600000000001,121.094,49.316,0.0,0
1582146396.1420002,61.035,54.688,197.266,43.457,0.0,0
1582146396.146,51.758,73.242,197.266,21.484,0.0,0
1582146396.15,29.297,60.547,79.102,27.344,0.0,0
1582146396.154,23.926,55.176,0.0,32.715,0.0,0
1582146396.158,54.688,87.402,58.105,43.457,0.0,0
1582146396.161,78.125,125.0,185.547,41.504,0.0,0
1582146396.165,54.688,61.523,34.18,26.367,0.0,0
1582146396.169,46.875,19.531,-174.805,44.922,0.0,0
1582146396.173,51.758,110.352,41.504,48.34,0.0,0
1582146396.177,44.434,137.695,176.75799999999995,31.25,0.0,0
1582146396.178,34.18,111.816,146.97299999999996,29.785,0.0,0
1582146396.1820002,24.414,90.332,60.547,32.227,0.0,0
1582146396.186,10.254,126.953,78.613,39.062,0.0,0
1582146396.19,38.574,153.32,162.109,39.551,0.0,0
1582146396.194,56.152,151.855,142.09,35.645,0.0,0
1582146396.198,33.691,145.02,29.297,46.875,0.0,0
1582146396.202,28.809,167.48,26.855,40.527,0.0,0
1582146396.205,50.78100000000001,180.664,90.332,39.551,0.0,0
1582146396.209,52.734,156.738,-48.34,41.992,0.0,0
1582146396.2129998,39.551,205.078,-12.207,41.992,0.0,0
1582146396.217,33.691,246.582,205.566,37.598,0.0,0
1582146396.221,36.621,207.031,177.734,33.203,0.0,0
1582146396.2229998,48.828,174.31599999999997,112.793,48.34,0.0,0
1582146396.2270002,34.18,167.48,135.74200000000002,31.738000000000003,0.0,0
1582146396.231,18.555,153.32,169.922,22.949,0.0,0
1582146396.235,26.855,125.0,106.934,16.602,0.0,0
1582146396.2389998,34.18,109.375,10.742,11.719,0.0,0
1582146396.2429998,25.391,111.816,-47.363,28.809,0.0,0
1582146396.2470002,20.508000000000006,139.648,-20.996,40.039,0.0,0
1582146396.25,30.762,114.746,-55.664,37.109,0.0,0
1582146396.254,36.621,88.867,-145.996,26.367,0.0,0
1582146396.258,34.668,169.922,79.102,19.043,0.0,0
1582146396.262,20.996,159.668,198.242,26.855,0.0,0
1582146396.266,9.766,107.91,145.996,25.391,0.0,0
1582146396.268,20.508000000000006,55.176,153.809,25.391,0.0,0
1582146396.272,48.828,14.648,234.863,28.809,0.0,0
1582146396.276,41.504,-33.203,144.043,27.832,0.0,0
1582146396.28,11.23,-73.242,-4.395,35.645,0.0,0
1582146396.284,30.273000000000003,-80.566,33.203,43.945,0.0,0
1582146396.288,56.64100000000001,-99.121,43.457,46.387,0.0,0
1582146396.292,41.01600000000001,-145.50799999999995,-41.992,37.598,0.0,0
1582146396.295,30.273000000000003,-204.59,-237.305,24.902,0.0,0
1582146396.299,22.949,-165.03900000000004,-183.105,29.785,0.0,0
1582146396.303,42.48,-106.445,91.797,30.762,0.0,0
1582146396.3070002,54.688,-139.648,105.469,20.508000000000006,0.0,0
1582146396.311,14.16,-176.75799999999995,-38.574,1.465,0.0,0
1582146396.313,10.742,-144.531,-36.133,8.789,0.0,0
1582146396.3170002,23.926,-112.305,86.426,32.715,0.0,0
1582146396.321,16.113,-154.297,48.34,20.02,0.0,0
1582146396.325,29.297,-175.293,-52.246,19.043,0.0,0
1582146396.329,34.18,-141.602,28.32,27.832,0.0,0
1582146396.333,40.039,-140.625,36.133,26.367,0.0,0
1582146396.337,42.969,-177.24599999999995,-133.30100000000002,29.785,0.0,0
1582146396.34,20.02,-183.594,-242.676,29.785,0.0,0
1582146396.344,19.043,-64.453,2.441,41.992,0.0,0
1582146396.3479998,47.852,-24.414,188.477,47.852,0.0,0
1582146396.3520002,54.688,-67.87100000000001,120.605,42.969,0.0,0
1582146396.356,44.434,-67.87100000000001,90.332,41.01600000000001,0.0,0
1582146396.3579998,4.883,-55.176,74.219,38.086,0.0,0
1582146396.3620002,7.812,-43.457,78.613,44.434,0.0,0
1582146396.3660002,51.758,-43.945,37.109,31.738000000000003,0.0,0
1582146396.37,31.738000000000003,-26.367,26.367,13.672,0.0,0
1582146396.3739998,16.113,-18.066,37.109,23.438,0.0,0
1582146396.3779998,22.949,-29.785,-8.301,29.785,0.0,1
1582146396.3820002,36.621,-59.57,-136.719,26.367,0.0,0
1582146396.385,41.504,-35.645,-107.422,12.207,0.0,0
1582146396.389,37.598,7.324,115.723,17.578,0.0,0
1582146396.393,32.227,-28.809,75.195,38.086,0.0,0
1582146396.397,40.527,-20.996,70.312,39.062,0.0,0
1582146396.401,36.621,5.371,145.50799999999995,27.832,0.0,0
1582146396.403,13.672,8.789,112.305,16.113,0.0,0
1582146396.407,12.207,-8.789,-54.199,21.973000000000006,0.0,0
1582146396.411,35.645,32.227,-34.18,32.715,0.0,0
1582146396.415,44.434,103.516,146.97299999999996,19.531,0.0,0
1582146396.419,10.742,81.543,149.414,12.207,0.0,0
1582146396.423,1.953,-30.273000000000003,-84.961,18.555,0.0,0
1582146396.427,25.391,-21.484,-228.516,14.648,0.0,0
1582146396.43,38.574,98.633,54.688,19.531,0.0,0
1582146396.434,48.828,82.031,196.777,22.949,0.0,0
1582146396.438,35.645,8.789,25.391,32.227,0.0,0
1582146396.4420002,21.484,28.32,30.762,35.645,0.0,0
1582146396.446,26.855,68.359,156.25,19.531,0.0,0
1582146396.4629998,33.203,62.988,130.859,18.066,0.0,0
1582146396.467,24.414,46.875,24.902,17.09,0.0,0
1582146396.471,14.16,54.199,-12.207,19.043,0.0,0
1582146396.475,19.531,87.402,59.57,10.742,0.0,0
1582146396.479,5.859,63.477,14.648,1.953,0.0,0
1582146396.4829998,11.719,15.625,-180.664,17.578,0.0,0
1582146396.4870002,14.16,53.223,-208.008,25.391,0.0,0
1582146396.49,7.324,91.797,-22.949,28.809,0.0,0
1582146396.494,48.828,96.68,41.01600000000001,41.01600000000001,0.0,0
1582146396.498,59.082,119.629,-99.121,50.78100000000001,0.0,0
1582146396.502,43.457,152.344,-113.77,55.664,0.0,0
1582146396.506,30.762,180.176,-21.973000000000006,34.18,0.0,0
1582146396.508,22.461,186.523,-34.18,19.531,0.0,0
1582146396.512,20.02,186.035,21.484,19.043,0.0,0
1582146396.516,9.277,169.922,45.41,16.113,0.0,0
1582146396.52,1.953,181.641,-26.367,18.066,0.0,0
1582146396.524,10.742,205.566,-68.848,4.883,0.0,0
1582146396.528,6.348,186.523,-92.773,6.836,0.0,0
1582146396.532,-15.137,130.371,-134.27700000000002,16.602,0.0,0
1582146396.535,0.0,93.262,-131.836,6.836,0.0,0
1582146396.539,18.555,23.926,-186.035,12.695,0.0,0
1582146396.543,24.902,-13.672,-261.23,14.648,0.0,0
1582146396.5470002,28.32,76.66,-72.75399999999998,24.414,0.0,0
1582146396.551,27.832,101.074,2.93,43.457,0.0,0
1582146396.553,34.668,108.887,-72.75399999999998,33.691,0.0,0
1582146396.5570002,49.805,196.289,-57.617,31.25,0.0,0
1582146396.561,46.875,315.918,98.145,36.133,0.0,0
1582146396.565,17.09,364.258,110.84,41.992,0.0,0
1582146396.569,24.902,331.543,29.785,41.992,0.0,0
1582146396.573,54.688,235.352,-31.25,30.762,0.0,0
1582146396.577,38.086,194.824,-95.215,29.297,0.0,0
1582146396.58,1.953,240.234,-55.664,16.602,0.0,0
1582146396.584,3.906,224.609,-178.71099999999996,24.414,0.0,0
1582146396.5879998,31.738000000000003,279.297,-166.016,22.461,0.0,0
1582146396.592,41.504,329.59,36.621,13.184,0.0,0
1582146396.596,18.066,246.582,20.508000000000006,31.25,0.0,0
1582146396.599,0.0,199.219,-23.926,33.203,0.0,0
1582146396.603,17.578,224.609,23.438,24.902,0.0,0
1582146396.607,55.176,225.098,96.68,22.461,0.0,0
1582146396.611,49.805,196.777,63.477,32.715,0.0,0
1582146396.615,27.344,196.777,1.465,45.898,0.0,0
1582146396.619,25.391,241.211,2.441,40.527,0.0,0
1582146396.623,42.48,302.7340000000001,7.324,39.062,0.0,0
1582146396.6260002,46.387,282.715,-104.492,26.855,0.0,0
1582146396.63,14.648,267.09,-264.648,19.043,0.0,0
1582146396.6339998,11.719,383.789,-13.184,36.621,0.0,0
1582146396.6379998,34.18,395.02,168.945,31.25,0.0,0
1582146396.6420002,29.785,373.535,115.723,21.973000000000006,0.0,0
1582146396.644,10.742,365.234,85.93799999999997,20.02,0.0,0
1582146396.6479998,15.625,300.781,-10.254,18.066,0.0,0
1582146396.6520002,12.207,285.156,-10.742,22.949,0.0,0
1582146396.656,24.902,275.391,26.855,23.926,0.0,0
1582146396.66,24.902,254.395,8.301,29.297,0.0,0
1582146396.664,4.883,240.234,-36.133,25.879,0.0,0
1582146396.668,2.441,273.926,-23.926,15.137,0.0,0
1582146396.671,30.273000000000003,264.648,-99.121,24.414,0.0,0
1582146396.675,34.668,247.07,-115.234,30.762,0.0,0
1582146396.679,18.555,240.234,66.895,36.621,0.0,0
1582146396.6829998,17.09,69.824,10.742,19.531,0.0,0
1582146396.687,34.18,-94.238,-69.824,5.859,0.0,0
1582146396.689,42.969,-143.555,0.488,20.02,0.0,0
1582146396.6929998,19.531,-211.426,-16.602,22.461,0.0,0
1582146396.697,19.043,-289.551,-216.797,15.625,0.0,0
1582146396.701,36.621,-270.996,-184.082,13.672,0.0,0
1582146396.705,32.227,-248.047,-35.645,10.254,0.0,0
1582146396.709,1.953,-259.277,-55.664,6.348,0.0,0
1582146396.7129998,1.953,-335.9380000000001,-230.957,20.02,0.0,0
1582146396.716,22.461,-356.934,-360.352,14.648,0.0,0
1582146396.72,35.645,-227.539,-94.727,10.742,0.0,0
1582146396.724,19.043,-208.008,59.57,35.645,0.0,0
1582146396.728,1.953,-261.719,-65.43,40.039,0.0,0
1582146396.732,20.508000000000006,-251.465,-62.5,28.809,0.0,0
1582146396.734,37.109,-196.777,133.789,26.855,0.0,0
1582146396.738,27.832,-216.797,175.293,14.648,0.0,0
1582146396.742,10.742,-261.23,5.859,18.066,0.0,0
1582146396.746,15.137,-243.164,-56.64100000000001,25.391,0.0,0
1582146396.75,52.734,-219.238,20.996,19.531,0.0,0
1582146396.754,38.086,-249.023,-49.316,24.902,0.0,0
1582146396.758,18.066,-310.059,-309.57,28.32,0.0,0
1582146396.7610002,50.293,-267.09,-306.641,34.668,0.0,0
1582146396.765,58.594,-178.71099999999996,13.672,42.969,0.0,0
1582146396.769,37.598,-221.191,20.996,34.18,0.0,0
1582146396.7729998,25.391,-246.582,-96.191,34.18,0.0,0
1582146396.7770002,32.227,-201.172,-53.223,44.434,0.0,0
1582146396.794,26.855,-187.012,22.949,46.387,0.0,0
1582146396.798,41.992,-203.613,-13.672,41.01600000000001,0.0,0
1582146396.802,18.555,-184.082,-55.176,29.785,0.0,0
1582146396.806,-4.395,-144.531,-32.227,19.531,0.0,0
1582146396.81,3.418,-109.863,2.441,11.719,0.0,0
1582146396.814,34.668,-122.07,-120.605,6.836,0.0,0
1582146396.8179998,45.41,-59.082,-161.13299999999995,18.066,0.0,0
1582146396.821,20.508000000000006,61.035,40.039,32.715,0.0,0
1582146396.825,19.043,89.355,95.215,26.367,0.0,0
1582146396.829,34.668,61.523,-27.832,13.672,0.0,0
1582146396.833,41.01600000000001,79.102,-94.727,17.09,0.0,0
1582146396.837,29.785,166.016,99.609,27.832,0.0,0
1582146396.839,20.508000000000006,166.016,122.559,34.18,0.0,0
1582146396.843,27.832,159.668,58.594,33.203,0.0,0
1582146396.847,37.109,129.395,20.02,14.16,0.0,0
1582146396.851,18.555,104.004,83.984,9.766,0.0,0
1582146396.855,5.371,57.617,129.395,24.902,0.0,0
1582146396.859,20.508000000000006,-42.969,-64.941,21.484,0.0,0
1582146396.863,41.504,-44.922,-64.453,22.949,0.0,0
1582146396.8660002,49.805,-16.602,118.164,29.785,0.0,0
1582146396.87,9.766,-75.195,28.32,32.227,0.0,0
1582146396.8739998,-1.465,-121.582,-204.59,32.715,0.0,0
1582146396.8779998,46.387,-48.34,-93.75,29.785,0.0,0
1582146396.8820002,50.293,-1.465,145.50799999999995,35.156,0.0,0
1582146396.8839998,39.062,-47.363,84.473,34.18,0.0,0
1582146396.8879998,34.668,-63.965,12.695,32.715,0.0,0
1582146396.8920002,37.109,-34.18,122.07,38.086,0.0,0
1582146396.896,38.574,-3.906,227.051,28.32,0.0,0
1582146396.9,34.18,-39.062,99.609,22.461,0.0,0
1582146396.904,31.738000000000003,-71.777,-114.258,24.902,0.0,0
1582146396.908,42.48,-18.555,-83.984,36.621,0.0,0
1582146396.911,40.527,28.32,64.453,34.18,0.0,0
1582146396.915,42.48,-58.105,-131.34799999999998,20.02,0.0,0
1582146396.919,17.09,-68.359,-271.48400000000004,16.602,0.0,0
1582146396.923,22.461,42.48,-25.879,14.648,0.0,0
1582146396.927,62.012,51.758,123.047,29.785,0.0,0
1582146396.929,43.457,21.484,76.172,37.109,0.0,0
1582146396.9329998,22.949,40.039,39.551,37.598,0.0,0
1582146396.937,26.855,57.617,147.94899999999996,39.062,0.0,0
1582146396.941,43.457,12.207,100.586,25.879,0.0,0
1582146396.945,42.48,-1.465,-20.508000000000006,29.297,0.0,0
1582146396.949,16.113,14.648,-34.18,34.668,0.0,0
1582146396.9529998,33.203,3.906,-65.918,34.18,0.0,0
1582146396.956,62.988,39.062,81.543,34.18,0.0,0
1582146396.96,35.156,-5.371,42.48,19.043,0.0,0
1582146396.964,11.719,-2.93,-2.93,25.879,0.0,0
1582146396.968,14.648,69.336,153.32,39.062,0.0,0
1582146396.972,20.02,82.031,160.156,20.996,0.0,0
1582146396.974,40.527,115.234,214.844,14.16,0.0,0
1582146396.978,24.902,123.047,227.539,6.348,0.0,0
1582146396.982,15.625,127.93,226.562,22.461,0.0,0
1582146396.986,28.32,121.094,176.75799999999995,35.156,0.0,0
1582146396.99,37.109,114.746,122.07,33.203,0.0,0
1582146396.994,40.039,128.906,75.684,30.273000000000003,0.0,0
1582146396.998,8.301,162.59799999999996,20.508000000000006,13.672,0.0,0
1582146397.0010002,9.766,216.30900000000003,-40.527,18.066,0.0,0
1582146397.005,41.01600000000001,303.711,-56.64100000000001,15.137,0.0,0
1582146397.0089998,32.227,420.898,178.71099999999996,10.742,0.0,0
1582146397.0129998,10.254,435.059,312.988,27.344,0.0,0
1582146397.0170002,3.418,392.09,229.98,30.762,0.0,0
1582146397.019,28.32,374.512,224.609,19.531,0.0,0
1582146397.0229998,52.734,378.906,298.34,16.113,0.0,0
1582146397.0270002,32.227,353.516,242.188,26.855,0.0,0
1582146397.031,22.949,366.211,167.96900000000005,21.973000000000006,0.0,0
1582146397.035,26.367,398.926,207.031,5.859,0.0,0
1582146397.039,27.344,359.86300000000006,161.13299999999995,7.812,0.0,0
1582146397.043,22.949,314.453,66.895,16.113,0.0,0
1582146397.046,7.324,236.328,-166.016,23.438,0.0,0
1582146397.05,17.578,274.414,-116.211,20.508000000000006,0.0,0
1582146397.054,28.809,320.801,182.617,11.23,0.0,0
1582146397.0579998,22.461,241.699,131.34799999999998,8.789,0.0,0
1582146397.062,0.488,217.285,129.395,15.137,0.0,0
1582146397.064,9.766,193.359,159.18,24.414,0.0,0
1582146397.0679998,42.48,166.016,216.30900000000003,26.855,0.0,0
1582146397.072,49.316,94.238,154.785,31.738000000000003,0.0,0
1582146397.076,46.387,51.27,15.625,47.363,0.0,0
1582146397.08,22.949,89.844,113.281,48.828,0.0,0
1582146397.084,33.203,54.688,141.113,37.109,0.0,0
1582146397.0879998,35.156,-9.277,10.742,22.949,0.0,0
1582146397.091,16.602,-20.508000000000006,-103.516,8.789,0.0,0
1582146397.095,23.438,60.547,82.031,27.832,0.0,0
1582146397.099,30.273000000000003,86.914,252.93,28.32,0.0,0
1582146397.103,13.184,23.926,102.539,11.719,0.0,0
1582146397.107,0.0,17.09,44.922,13.184,0.0,0
1582146397.109,13.672,11.719,75.684,16.113,0.0,0
1582146397.113,8.789,0.977,55.664,33.691,0.0,0
1582146397.117,36.133,22.949,70.801,31.25,0.0,0
1582146397.121,55.176,17.578,87.891,17.09,0.0,0
1582146397.125,31.738000000000003,22.461,175.78099999999995,37.109,0.0,0
1582146397.129,33.203,-17.578,72.266,47.852,0.0,0
1582146397.133,33.203,-60.059,-170.41,29.785,0.0,0
1582146397.1360002,25.391,4.883,-85.93799999999997,16.602,0.0,0
1582146397.14,12.695,41.992,104.004,8.301,0.0,0
1582146397.144,-15.625,0.488,90.332,10.742,0.0,0
1582146397.1479998,0.488,0.0,89.355,12.695,0.0,0
1582146397.1520002,18.066,36.621,186.523,13.672,0.0,0
1582146397.169,7.812,30.273000000000003,250.0,23.926,0.0,0
1582146397.173,4.395,-14.648,113.281,31.25,0.0,0
1582146397.177,21.484,-3.418,52.246,24.414,0.0,0
1582146397.181,43.457,30.762,96.191,17.09,0.0,0
1582146397.185,36.621,19.531,63.477,19.531,0.0,0
1582146397.189,21.973000000000006,-24.902,-86.426,16.113,0.0,0
1582146397.1929998,37.598,-1.465,-132.812,18.066,0.0,0
1582146397.196,46.387,86.914,104.98,16.113,0.0,0
1582146397.2,28.809,70.801,182.617,2.93,0.0,0
1582146397.204,26.855,-21.484,-19.531,20.508000000000006,0.0,0
1582146397.208,25.879,-12.695,-89.844,31.25,0.0,0
1582146397.212,14.16,49.316,105.469,16.602,0.0,0
1582146397.214,23.926,-4.395,135.74200000000002,18.066,0.0,0
1582146397.218,36.133,-43.457,67.87100000000001,27.344,0.0,0
1582146397.222,19.531,-39.551,94.727,26.855,0.0,0
1582146397.226,27.832,-41.01600000000001,138.672,17.578,0.0,0
1582146397.23,62.012,-48.828,121.582,28.809,0.0,0
1582146397.234,42.969,-71.289,32.715,35.645,0.0,0
1582146397.238,11.23,-91.797,-77.148,25.879,0.0,0
1582146397.2410002,13.672,-61.035,-21.484,29.297,0.0,0
1582146397.245,24.414,-25.879,162.59799999999996,28.809,0.0,0
1582146397.2489998,16.113,-97.168,-41.504,20.02,0.0,0
1582146397.2529998,-9.766,-63.477,-112.305,17.09,0.0,0
1582146397.2570002,15.625,17.09,128.906,17.578,0.0,0
1582146397.258,43.945,-14.16,140.137,23.438,0.0,0
1582146397.262,16.602,-21.484,147.461,14.16,0.0,0
1582146397.266,13.672,-16.602,198.242,18.066,0.0,0
1582146397.27,22.461,-24.414,174.805,25.391,0.0,0
1582146397.274,39.062,-35.156,78.125,21.484,0.0,0
1582146397.278,38.086,-56.152,3.906,20.02,0.0,0
1582146397.282,17.09,-58.594,-39.551,15.625,0.0,0
1582146397.285,2.441,2.441,58.594,27.344,0.0,0
1582146397.289,20.508000000000006,-8.789,40.039,28.32,0.0,0
1582146397.293,45.898,-52.246,-173.34,11.23,0.0,0
1582146397.2970002,34.18,30.762,-55.176,16.113,0.0,0
1582146397.301,17.578,55.176,114.258,30.273000000000003,0.0,0
1582146397.303,19.531,16.113,56.64100000000001,28.32,0.0,0
1582146397.3070002,27.832,41.992,71.289,15.625,0.0,0
1582146397.311,22.949,69.336,159.668,1.465,0.0,0
1582146397.315,16.602,39.551,155.762,16.113,0.0,0
1582146397.319,41.01600000000001,-12.695,55.176,38.574,0.0,0
1582146397.323,45.898,-36.621,-42.969,27.832,0.0,0
1582146397.327,10.254,-12.207,-21.973000000000006,10.254,0.0,0
1582146397.33,0.0,-8.301,25.391,17.09,0.0,0
1582146397.334,9.277,-79.59,-208.984,28.32,0.0,0
1582146397.3379998,2.93,-41.504,-229.98,16.113,0.0,0
1582146397.342,24.902,28.809,47.852,27.344,0.0,0
1582146397.346,28.32,-4.883,36.133,28.809,0.0,0
1582146397.3479998,6.348,-29.785,-61.523,13.184,0.0,0
1582146397.3520002,2.93,-5.371,-26.855,9.277,0.0,0
1582146397.356,41.992,30.273000000000003,124.023,14.16,0.0,0
1582146397.36,11.719,-25.879,21.484,20.996,0.0,0
1582146397.3639998,3.906,-41.992,-90.82,28.809,0.0,0
1582146397.3679998,42.48,-22.461,-40.527,31.25,0.0,0
1582146397.3720002,53.223,-16.113,-41.992,30.762,0.0,0
1582146397.375,47.363,-19.043,-154.297,28.809,0.0,0
1582146397.379,28.809,-33.203,-251.953,26.855,0.0,0
1582146397.383,32.227,21.973000000000006,-54.688,37.109,0.0,0
1582146397.387,48.828,46.875,104.98,36.133,0.0,0
1582146397.391,51.758,32.715,62.5,31.25,0.0,0
1582146397.393,19.531,27.344,-8.301,32.715,0.0,0
1582146397.397,15.137,47.363,82.031,25.879,0.0,0
1582146397.401,37.598,29.297,108.887,13.672,0.0,0
1582146397.405,17.578,-16.602,-61.523,10.254,0.0,0
1582146397.409,7.324,4.883,-61.523,10.742,0.0,0
1582146397.413,25.391,10.254,-34.18,16.602,0.0,0
1582146397.417,14.648,-4.883,-42.969,15.625,0.0,0
1582146397.42,35.156,-53.223,-141.602,18.555,0.0,0
1582146397.424,34.18,-29.297,-224.121,13.672,0.0,0
1582146397.428,3.906,52.734,-15.625,9.277,0.0,0
1582146397.4320002,31.738000000000003,32.227,77.637,30.762,0.0,0
1582146397.436,48.34,-0.977,46.387,36.133,0.0,1
1582146397.438,30.273000000000003,20.508000000000006,114.746,26.367,0.0,0
1582146397.4420002,19.531,26.367,131.836,25.391,0.0,0
1582146397.446,5.371,-1.465,37.109,37.109,0.0,0
1582146397.45,29.297,12.207,23.438,30.273000000000003,0.0,0
1582146397.454,49.316,42.969,105.957,26.855,0.0,0
1582146397.458,26.367,17.578,49.805,44.922,0.0,0
1582146397.462,8.789,-25.391,-135.74200000000002,30.762,0.0,0
1582146397.465,24.902,-22.461,-238.281,21.484,0.0,0
1582146397.469,50.78100000000001,62.5,11.23,33.203,0.0,0
1582146397.4729998,42.969,60.059,151.36700000000005,39.551,0.0,0
1582146397.4770002,16.602,22.461,7.812,44.434,0.0,0
1582146397.481,21.973000000000006,62.988,25.879,28.32,0.0,0
1582146397.4829998,33.203,119.141,177.24599999999995,26.367,0.0,0
1582146397.4870002,26.855,105.469,183.594,43.945,0.0,0
1582146397.4910002,15.625,47.363,84.961,48.34,0.0,0
1582146397.495,20.996,43.945,44.922,30.273000000000003,0.0,0
1582146397.4989998,28.809,77.637,79.102,5.371,0.0,0
1582146397.5029998,20.02,73.73,10.742,2.93,0.0,0
1582146397.5070002,2.441,40.039,-254.395,4.883,0.0,0
1582146397.51,5.859,118.164,-213.379,6.836,0.0,0
1582146397.514,29.785,216.30900000000003,159.668,20.02,0.0,0
1582146397.518,23.438,154.297,135.74200000000002,20.02,0.0,0
1582146397.522,17.578,97.656,27.344,20.02,0.0,0
1582146397.526,14.648,118.164,68.359,24.902,0.0,0
1582146397.543,20.996,127.93,82.031,24.414,0.0,0
1582146397.5470002,39.062,107.91,52.734,25.879,0.0,0
1582146397.551,49.805,105.957,-7.812,28.32,0.0,0
1582146397.555,26.855,134.766,1.465,37.109,0.0,0
1582146397.559,16.113,155.762,82.52,38.574,0.0,0
1582146397.563,41.992,74.219,-103.516,23.926,0.0,0
1582146397.5670002,43.457,66.406,-221.191,19.531,0.0,0
1582146397.57,14.648,154.785,28.32,26.855,0.0,0
1582146397.574,12.207,131.34799999999998,100.098,30.273000000000003,0.0,0
1582146397.5779998,45.41,93.75,-6.836,21.973000000000006,0.0,0
1582146397.582,34.18,94.727,-34.668,31.738000000000003,0.0,0
1582146397.586,6.348,129.88299999999998,58.594,34.18,0.0,0
1582146397.5879998,10.742,93.262,-26.367,23.926,0.0,0
1582146397.592,26.855,49.805,-178.22299999999996,25.879,0.0,0
1582146397.596,52.734,104.004,-62.012,26.855,0.0,0
1582146397.6,31.738000000000003,118.164,45.41,29.297,0.0,0
1582146397.604,19.531,66.895,12.695,40.039,0.0,0
1582146397.6079998,36.621,19.043,-137.207,36.621,0.0,0
1582146397.6120002,24.902,27.344,-231.445,25.879,0.0,0
1582146397.615,12.695,81.543,-97.656,21.973000000000006,0.0,0
1582146397.619,10.742,68.848,3.418,30.273000000000003,0.0,0
1582146397.623,6.836,-31.25,-237.793,26.855,0.0,0
1582146397.627,18.555,-8.301,-251.953,14.648,0.0,0
1582146397.631,35.645,26.855,8.789,30.273000000000003,0.0,0
1582146397.633,31.25,-17.09,-26.367,51.758,0.0,0
1582146397.637,24.902,-15.137,-85.93799999999997,42.48,0.0,0
1582146397.641,42.48,20.996,5.859,24.414,0.0,0
1582146397.645,27.832,11.719,-11.719,18.066,0.0,0
1582146397.649,9.766,-16.113,-119.141,20.996,0.0,0
1582146397.653,8.301,-42.969,-188.477,17.578,0.0,0
1582146397.657,28.32,-24.902,-148.438,28.809,0.0,0
1582146397.66,44.434,26.367,45.41,40.039,0.0,0
1582146397.664,14.648,-43.945,-59.57,22.461,0.0,0
1582146397.668,18.555,-68.848,-317.871,18.066,0.0,0
1582146397.6720002,37.109,25.879,-123.535,15.625,0.0,0
1582146397.676,41.01600000000001,23.438,63.965,18.066,0.0,0
1582146397.679,31.25,-21.973000000000006,-23.438,20.508000000000006,0.0,0
1582146397.6829998,35.156,-20.996,-82.031,30.273000000000003,0.0,0
1582146397.687,34.18,-1.953,-12.207,46.387,0.0,0
1582146397.691,44.434,-28.32,2.441,41.504,0.0,0
1582146397.695,63.965,-47.852,-59.082,49.316,0.0,0
1582146397.699,53.223,-51.758,-154.785,57.617,0.0,0
1582146397.7029998,19.043,-35.156,-210.449,39.062,0.0,0
1582146397.706,26.367,-28.32,-185.05900000000003,36.133,0.0,0
1582146397.71,36.621,-64.941,-278.32,25.391,0.0,0
1582146397.714,13.184,-29.785,-236.816,22.461,0.0,0
1582146397.718,17.09,23.438,-35.156,34.668,0.0,0
1582146397.722,21.484,-7.812,-55.664,20.996,0.0,0
1582146397.724,32.227,-12.695,-20.508000000000006,12.695,0.0,0
1582146397.728,26.367,4.395,51.27,18.066,0.0,0
1582146397.732,23.926,1.465,34.18,30.273000000000003,0.0,0
1582146397.736,32.715,-20.02,-36.621,25.391,0.0,0
1582146397.74,37.109,-20.508000000000006,-12.695,11.23,0.0,0
1582146397.744,22.949,-27.832,-74.707,5.371,0.0,0
1582146397.748,7.324,-24.414,-164.062,12.695,0.0,0
1582146397.7510002,25.879,-34.668,-187.012,19.043,0.0,0
1582146397.755,28.32,-23.438,-244.141,11.719,0.0,0
1582146397.7589998,32.227,55.176,-50.78100000000001,16.113,0.0,0
1582146397.7629998,16.113,20.508000000000006,-12.207,25.879,0.0,0
1582146397.7670002,-9.766,-20.02,-100.098,28.32,0.0,0
1582146397.769,4.883,-3.906,-43.945,26.367,0.0,0
1582146397.7729998,32.715,37.598,72.75399999999998,7.324,0.0,0
1582146397.7770002,39.062,44.922,116.699,12.695,0.0,0
1582146397.781,23.926,22.461,56.152,30.273000000000003,0.0,0
1582146397.785,34.18,13.184,20.508000000000006,16.602,0.0,0
1582146397.789,46.387,8.301,-9.277,13.672,0.0,0
1582146397.793,27.344,18.066,-44.434,16.113,0.0,0
1582146397.796,13.184,-20.996,-202.148,13.672,0.0,0
1582146397.8,22.949,11.23,-171.875,20.02,0.0,0
1582146397.804,48.828,113.281,197.266,30.273000000000003,0.0,0
1582146397.8079998,43.457,66.406,203.125,24.902,0.0,0
1582146397.812,16.602,-1.953,45.898,12.695,0.0,0
1582146397.814,9.277,-1.465,36.133,3.418,0.0,0
1582146397.8179998,3.418,2.93,9.277,-1.953,0.0,0
1582146397.822,11.719,-1.465,-9.277,-5.371,0.0,0
1582146397.826,30.762,5.859,20.02,10.254,0.0,0
1582146397.83,23.438,31.738000000000003,47.852,17.09,0.0,0
1582146397.834,42.969,16.602,6.348,11.23,0.0,0
1582146397.8379998,52.246,-33.203,-96.68,22.461,0.0,0
1582146397.841,26.855,-35.645,-163.57399999999996,23.926,0.0,0
1582146397.845,21.484,43.457,12.695,25.391,0.0,0
1582146397.849,35.156,67.383,182.129,25.391,0.0,0
1582146397.853,24.414,35.645,137.695,17.09,0.0,0
1582146397.857,-1.465,38.574,119.141,12.695,0.0,0
1582146397.859,-0.977,56.64100000000001,198.242,22.461,0.0,0
1582146397.863,19.043,28.809,203.125,33.691,0.0,0
1582146397.867,22.949,28.32,189.941,20.02,0.0,0
1582146397.871,28.32,37.598,164.062,11.719,0.0,0
1582146397.875,30.273000000000003,30.762,185.547,23.926,0.0,0
1582146397.879,5.859,12.207,143.555,18.066,0.0,0
1582146397.883,25.879,-35.156,-88.37899999999998,14.648,0.0,0
1582146397.8860002,38.574,20.996,10.742,18.555,0.0,0
1582146397.89,25.391,95.215,282.2270000000001,25.391,0.0,0
1582146397.894,37.109,53.71100000000001,234.375,42.969,0.0,0
1582146397.8979998,27.344,32.715,176.27,31.738000000000003,0.0,0
1582146397.9020002,30.762,44.922,216.30900000000003,17.09,0.0,0
1582146397.919,44.434,41.01600000000001,259.766,17.09,0.0,0
1582146397.923,10.742,15.625,203.125,12.207,0.0,0
1582146397.927,8.301,22.949,132.812,18.066,0.0,0
1582146397.931,34.668,53.223,205.566,23.438,0.0,0
1582146397.935,20.996,48.828,279.297,22.949,0.0,0
1582146397.939,10.254,-35.645,49.316,30.273000000000003,0.0,0
1582146397.9429998,19.043,-64.941,-208.984,19.531,0.0,0
1582146397.946,40.039,58.594,-17.578,13.184,0.0,0
1582146397.95,38.086,101.562,246.094,24.414,0.0,0
1582146397.954,31.25,32.715,148.92600000000004,31.738000000000003,0.0,0
1582146397.958,54.688,26.855,52.246,39.551,0.0,0
1582146397.962,80.566,57.617,200.195,41.01600000000001,0.0,0
1582146397.964,67.383,22.461,207.52,46.387,0.0,0
1582146397.968,30.762,-5.371,58.594,44.434,0.0,0
1582146397.972,31.738000000000003,11.719,30.762,53.71100000000001,0.0,0
1582146397.976,35.645,41.01600000000001,152.344,36.621,0.0,0
1582146397.98,24.414,46.875,223.633,18.555,0.0,0
1582146397.984,22.949,-25.879,53.71100000000001,37.109,0.0,0
1582146397.988,20.996,-60.547,-102.539,29.297,0.0,0
1582146397.9910002,33.203,12.207,66.406,16.602,0.0,0
1582146397.995,34.668,45.41,223.633,6.348,0.0,0
1582146397.9989998,25.391,-44.922,-55.176,5.371,0.0,0
1582146398.0029998,8.789,-37.109,-128.418,19.043,0.0,0
1582146398.0070002,17.578,45.41,112.793,23.438,0.0,0
1582146398.0089998,36.133,53.71100000000001,182.129,22.949,0.0,0
1582146398.0129998,27.832,46.387,177.734,17.578,0.0,0
1582146398.0170002,6.348,56.64100000000001,186.035,17.578,0.0,0
1582146398.021,3.906,41.504,194.336,29.785,0.0,0
1582146398.025,37.598,-0.488,105.957,31.738000000000003,0.0,0
1582146398.029,65.918,-9.277,1.465,34.18,0.0,0
1582146398.033,30.273000000000003,16.602,-16.602,22.949,0.0,0
1582146398.036,14.648,66.406,102.051,16.602,0.0,0
1582146398.04,39.062,26.367,62.988,23.438,0.0,0
1582146398.044,54.199,-7.812,-71.289,20.02,0.0,0
1582146398.048,39.062,63.477,120.605,25.879,0.0,0
1582146398.052,21.484,50.78100000000001,188.965,29.785,0.0,0
1582146398.054,41.01600000000001,9.766,67.383,37.598,0.0,0
1582146398.0579998,55.176,14.648,53.223,48.828,0.0,0
1582146398.062,32.715,48.828,144.531,25.879,0.0,0
1582146398.066,1.465,36.133,76.172,15.137,0.0,0
1582146398.07,22.949,19.043,-46.875,19.531,0.0,0
1582146398.074,46.875,27.832,-65.43,15.625,0.0,0
1582146398.0779998,33.203,50.78100000000001,21.484,22.461,0.0,0
1582146398.081,23.438,48.828,147.461,29.297,0.0,0
1582146398.085,14.16,-29.785,-95.215,28.809,0.0,0
1582146398.089,29.785,3.906,-143.066,26.855,0.0,0
1582146398.093,44.922,65.918,132.812,22.461,0.0,0
1582146398.097,21.973000000000006,23.926,141.602,25.391,0.0,0
1582146398.099,-0.488,6.836,54.688,24.414,0.0,0
1582146398.103,18.555,42.48,147.461,20.508000000000006,0.0,0
1582146398.107,41.01600000000001,15.137,205.078,21.484,0.0,0
1582146398.111,37.598,-60.547,-11.23,17.09,0.0,0
1582146398.115,36.621,-54.688,-115.234,25.879,0.0,0
1582146398.119,42.969,-16.602,-44.922,30.762,0.0,0
1582146398.123,54.199,-7.812,-10.254,25.879,0.0,0
1582146398.1260002,54.688,-42.969,-65.43,31.738000000000003,0.0,0
1582146398.13,36.621,-52.734,-177.734,33.691,0.0,0
1582146398.1339998,37.109,38.086,-20.02,45.41,0.0,0
1582146398.1379998,38.574,58.594,136.23,39.062,0.0,0
1582146398.1420002,10.254,54.199,129.395,12.695,0.0,0
1582146398.144,0.488,57.129,97.168,6.348,0.0,0
1582146398.1479998,-5.859,55.176,166.99200000000005,13.184,0.0,0
1582146398.1520002,0.488,38.574,211.426,15.625,0.0,0
1582146398.156,25.879,15.625,114.258,7.324,0.0,0
1582146398.16,0.0,20.508000000000006,36.621,1.953,0.0,0
1582146398.164,-14.648,28.32,10.254,1.953,0.0,0
1582146398.168,8.301,21.484,-18.555,9.277,0.0,0
1582146398.171,35.156,-30.762,-208.496,20.996,0.0,0
1582146398.175,31.25,15.137,-189.453,23.926,0.0,0
1582146398.179,14.648,114.746,76.172,21.484,0.0,0
1582146398.1829998,32.227,76.66,98.145,20.508000000000006,0.0,0
1582146398.187,33.203,43.457,69.336,18.066,0.0,0
1582146398.189,30.762,98.633,161.13299999999995,23.438,0.0,0
1582146398.1929998,22.949,126.953,216.30900000000003,30.273000000000003,0.0,0
1582146398.197,11.23,88.37899999999998,75.195,30.273000000000003,0.0,0
1582146398.201,32.227,90.332,-22.461,15.625,0.0,0
1582146398.205,44.434,130.859,34.18,14.16,0.0,0
1582146398.209,13.184,112.305,-39.062,18.066,0.0,0
1582146398.2129998,16.602,86.426,-196.289,13.184,0.0,0
1582146398.216,34.668,111.328,-254.883,17.578,0.0,0
1582146398.22,35.156,190.43,-51.27,18.555,0.0,0
1582146398.224,23.438,179.199,49.316,20.02,0.0,0
1582146398.228,20.508000000000006,141.113,-57.617,31.738000000000003,0.0,0
1582146398.232,29.785,160.645,-37.109,32.227,0.0,0
1582146398.234,31.738000000000003,189.453,85.93799999999997,36.133,0.0,0
1582146398.238,38.574,182.129,102.051,31.738000000000003,0.0,0
1582146398.242,35.645,141.602,24.902,31.25,0.0,0
1582146398.246,41.01600000000001,127.93,-1.953,41.992,0.0,0
1582146398.25,42.969,163.086,46.875,35.645,0.0,0
1582146398.254,35.645,153.32,-11.719,41.504,0.0,0
1582146398.258,-1.465,106.934,-298.828,38.574,0.0,0
1582146398.2610002,12.207,184.57,-267.578,26.367,0.0,0
1582146398.265,52.734,273.926,55.176,41.504,0.0,0
1582146398.269,59.57,220.215,16.113,46.387,0.0,0
1582146398.2729998,26.855,203.613,-59.57,30.273000000000003,0.0,0
1582146398.2770002,10.254,206.055,-14.16,26.855,0.0,0
1582146398.294,32.227,149.90200000000004,-73.73,27.344,0.0,0
1582146398.298,49.316,144.531,-94.727,29.785,0.0,0
1582146398.302,21.484,150.879,-40.039,40.039,0.0,0
1582146398.306,2.93,128.418,-74.219,45.898,0.0,0
1582146398.31,32.715,121.094,-43.457,27.344,0.0,0
1582146398.314,41.504,72.266,-102.539,19.531,0.0,0
1582146398.3179998,19.043,50.78100000000001,-218.75,24.414,0.0,0
1582146398.321,3.418,97.656,-93.262,32.227,0.0,0
1582146398.325,35.645,100.586,1.953,52.734,0.0,0
1582146398.329,62.012,66.406,-116.699,50.78100000000001,0.0,0
1582146398.333,41.01600000000001,90.82,-175.78099999999995,27.344,0.0,0
1582146398.337,13.184,164.551,-8.789,25.391,0.0,0
1582146398.339,0.0,166.016,41.992,20.996,0.0,0
1582146398.343,8.301,135.254,-16.602,15.625,0.0,0
1582146398.347,22.461,134.27700000000002,17.09,2.441,0.0,0
1582146398.351,37.598,138.184,53.223,16.113,0.0,0
1582146398.355,62.012,135.254,1.953,52.246,0.0,0
1582146398.359,50.293,108.887,-117.188,48.828,0.0,0
1582146398.363,39.551,99.121,-158.203,38.574,0.0,0
1582146398.3660002,38.574,139.16,18.066,39.062,0.0,0
1582146398.37,24.414,103.027,98.145,39.062,0.0,0
1582146398.3739998,17.578,44.434,-108.887,36.133,0.0,0
1582146398.3779998,21.484,138.184,20.996,22.949,0.0,0
1582146398.3820002,13.672,190.918,304.199,21.973000000000006,0.0,0
1582146398.3839998,4.883,133.30100000000002,279.297,30.762,0.0,0
1582146398.3879998,14.16,83.49600000000002,189.453,36.133,0.0,0
1582146398.3920002,36.133,105.957,244.141,41.504,0.0,0
1582146398.396,32.227,146.97299999999996,423.828,43.457,0.0,0
1582146398.4,25.391,83.49600000000002,355.957,46.875,0.0,0
1582146398.404,0.488,45.41,264.16,34.18,0.0,0
1582146398.408,-4.883,64.453,317.383,27.832,0.0,0
1582146398.411,24.414,86.914,444.824,40.527,0.0,0
1582146398.415,6.836,64.941,433.594,26.855,0.0,0
1582146398.419,1.465,15.137,246.094,30.273000000000003,0.0,0
1582146398.423,40.527,80.078,424.805,32.227,0.0,0
1582146398.427,31.738000000000003,90.332,562.988,14.16,0.0,0
1582146398.428,17.09,68.359,518.066,16.602,0.0,0
1582146398.4320002,11.23,65.918,552.246,21.973000000000006,0.0,0
1582146398.436,6.836,41.504,509.277,20.508000000000006,0.0,0
1582146398.44,32.715,48.34,517.09,16.602,0.0,0
1582146398.444,23.926,46.387,504.883,13.184,0.0,0
1582146398.448,7.324,24.414,333.0080000000001,25.879,0.0,0
1582146398.452,23.926,45.41,314.453,33.691,0.0,0
1582146398.455,33.691,62.012,424.805,32.715,0.0,0
1582146398.459,39.062,1.465,287.598,21.484,0.0,0
1582146398.4629998,3.906,28.32,229.98,7.324,0.0,0
1582146398.467,5.371,113.281,488.77,12.207,0.0,0
1582146398.471,45.898,90.82,581.055,20.996,0.0,0
1582146398.4729998,41.01600000000001,67.87100000000001,528.809,19.531,0.0,0
1582146398.4770002,41.992,73.73,493.164,15.137,0.0,0
1582146398.481,25.879,66.895,479.98,10.742,0.0,0
1582146398.485,15.137,31.25,374.023,12.207,0.0,0
1582146398.4889998,19.531,22.949,327.637,15.137,0.0,0
1582146398.4929998,17.578,20.02,273.926,19.043,0.0,0
1582146398.4970002,23.926,31.25,224.609,15.137,0.0,0
1582146398.5,20.508000000000006,19.531,197.754,18.066,0.0,0
1582146398.504,22.461,0.977,98.633,17.578,0.0,0
1582146398.508,36.621,68.359,284.18,11.23,0.0,0
1582146398.512,13.672,76.66,413.574,13.184,0.0,0
1582146398.516,14.16,3.418,191.406,-2.441,0.0,0
1582146398.518,36.133,-11.719,24.902,-9.277,0.0,0
1582146398.522,36.133,51.758,169.922,-3.418,0.0,0
1582146398.526,41.504,46.387,205.566,4.883,0.0,0
1582146398.53,31.738000000000003,14.648,76.66,14.16,0.0,0
1582146398.534,41.504,20.996,82.031,13.672,0.0,0
1582146398.538,42.969,28.809,52.734,18.555,0.0,0
1582146398.542,33.203,21.484,-81.055,23.926,0.0,0
1582146398.545,23.438,1.465,-235.84,17.578,0.0,0
1582146398.549,20.508000000000006,34.18,-184.082,12.695,0.0,0
1582146398.553,42.48,83.984,78.613,6.836,0.0,0
1582146398.5570002,46.875,48.828,76.172,20.508000000000006,0.0,0
1582146398.561,26.855,13.184,-78.125,42.48,0.0,0
1582146398.563,41.504,35.156,-59.57,41.01600000000001,0.0,0
1582146398.5670002,74.219,54.688,34.668,31.738000000000003,0.0,0
1582146398.571,68.848,9.766,-88.37899999999998,27.832,0.0,0
1582146398.575,49.316,-5.371,-186.523,45.898,0.0,0
1582146398.579,44.434,36.621,-115.234,46.387,0.0,0
1582146398.583,30.273000000000003,25.879,-135.254,26.855,0.0,0
1582146398.587,37.109,-48.828,-302.246,20.02,0.0,0
1582146398.59,31.25,-33.203,-387.695,11.23,0.0,0
1582146398.594,1.465,61.523,-204.59,18.555,0.0,0
1582146398.5979998,30.762,64.453,-84.961,29.297,0.0,0
1582146398.6020002,66.406,42.969,-105.957,36.621,0.0,0
1582146398.606,51.27,33.691,-106.445,36.133,0.0,0
1582146398.6079998,-1.465,29.297,-99.121,15.625,0.0,0
1582146398.6120002,10.742,29.297,-117.676,14.648,0.0,0
1582146398.6160002,49.316,36.133,-104.492,27.832,0.0,0
1582146398.62,43.945,36.621,-97.168,22.461,0.0,0
1582146398.6239998,33.203,31.738000000000003,-81.543,23.926,0.0,2
1582146398.6279998,25.879,1.953,-163.086,21.973000000000006,0.0,0
1582146398.6320002,22.949,-52.734,-426.758,13.672,0.0,0
1582146398.635,35.645,6.348,-353.516,19.043,0.0,0
1582146398.639,18.066,83.008,-88.867,21.973000000000006,0.0,0
1582146398.643,9.766,55.664,-92.773,33.691,0.0,0
1582146398.647,31.25,30.273000000000003,-97.168,34.18,0.0,0
1582146398.651,41.504,39.551,-9.277,31.25,0.0,0
1582146398.668,38.574,28.32,15.625,31.25,0.0,0
1582146398.6720002,21.484,-15.625,-104.492,29.785,0.0,0
1582146398.676,23.438,-3.418,-135.74200000000002,27.344,0.0,0
1582146398.68,28.809,41.01600000000001,-36.133,15.625,0.0,0
1582146398.684,20.02,48.34,14.648,15.625,0.0,0
1582146398.688,22.949,-12.207,-181.152,25.391,0.0,0
1582146398.6920002,38.086,-11.23,-296.875,29.297,0.0,0
1582146398.695,38.574,74.219,-49.805,26.855,0.0,0
1582146398.699,40.527,59.082,58.594,18.555,0.0,0
1582146398.7029998,15.625,-33.203,-163.086,7.812,0.0,0
1582146398.707,10.254,-30.273000000000003,-273.926,9.277,0.0,0
1582146398.711,39.062,56.64100000000001,-23.438,27.344,0.0,0
1582146398.7129998,40.527,80.566,156.738,23.926,0.0,0
1582146398.717,10.254,21.484,3.906,4.395,0.0,0
1582146398.721,-13.672,15.625,-92.773,0.977,0.0,0
1582146398.725,23.926,52.734,38.086,3.906,0.0,0
1582146398.729,40.527,52.246,88.37899999999998,6.348,0.0,0
1582146398.7329998,17.09,6.348,-45.898,12.695,0.0,0
1582146398.7370002,5.859,-16.602,-182.617,10.254,0.0,0
1582146398.74,33.203,41.992,-96.191,7.812,0.0,0
1582146398.744,56.152,68.359,10.742,13.184,0.0,0
1582146398.748,46.875,-27.832,-250.977,16.113,0.0,0
1582146398.752,45.41,-8.301,-305.176,20.02,0.0,0
1582146398.756,24.414,63.477,-83.984,9.277,0.0,0
1582146398.758,12.695,30.273000000000003,-123.047,4.883,0.0,0
1582146398.762,22.949,61.035,-76.172,2.441,0.0,0
1582146398.766,-7.324,89.844,26.367,4.395,0.0,0
1582146398.77,-27.832,81.055,115.234,1.953,0.0,0
1582146398.774,12.207,41.504,83.49600000000002,-11.23,0.0,0
1582146398.778,21.484,-12.207,-75.195,7.324,0.0,0
1582146398.782,9.766,9.766,-104.98,22.949,0.0,0
1582146398.785,15.137,60.059,71.777,20.02,0.0,0
1582146398.789,28.32,0.488,-21.484,22.461,0.0,0
1582146398.793,44.434,-16.113,-192.871,14.648,0.0,0
1582146398.7970002,26.855,67.383,29.297,16.113,0.0,0
1582146398.801,10.742,47.363,66.895,23.438,0.0,0
1582146398.803,25.879,34.18,-3.418,20.02,0.0,0
1582146398.8070002,39.551,53.223,36.621,15.137,0.0,0
1582146398.811,42.969,60.059,62.012,18.066,0.0,0
1582146398.815,29.785,26.855,-73.242,21.484,0.0,0
1582146398.819,30.762,40.039,-113.281,10.742,0.0,0
1582146398.823,43.457,73.242,-32.715,4.883,0.0,0
1582146398.827,37.598,46.387,-70.801,6.348,0.0,0
1582146398.83,11.23,54.199,-25.879,11.23,0.0,0
1582146398.834,24.902,25.391,-187.012,23.438,0.0,0
1582146398.8379998,48.828,58.594,-183.594,18.066,0.0,0
1582146398.842,34.18,124.023,133.30100000000002,8.789,0.0,0
1582146398.846,19.531,86.914,109.863,9.766,0.0,0
1582146398.849,-6.836,52.734,-44.922,1.465,0.0,0
1582146398.853,20.508000000000006,81.543,16.602,7.812,0.0,0
1582146398.857,62.012,101.074,133.30100000000002,25.879,0.0,0
1582146398.861,38.086,57.617,48.828,24.414,0.0,0
1582146398.865,12.207,46.387,-28.32,22.461,0.0,0
1582146398.869,16.602,24.414,-105.469,18.555,0.0,0
1582146398.873,27.344,11.23,-183.105,16.113,0.0,0
1582146398.8760002,24.414,13.184,-221.68,16.602,0.0,0
1582146398.88,20.02,28.809,-288.574,21.484,0.0,0
1582146398.8839998,22.949,117.188,-63.477,34.18,0.0,0
1582146398.8879998,34.668,135.254,101.562,32.715,0.0,0
1582146398.8920002,30.273000000000003,100.586,77.148,38.574,0.0,0
1582146398.894,14.16,76.172,65.918,44.922,0.0,0
1582146398.8979998,20.02,69.824,50.78100000000001,45.41,0.0,0
1582146398.9020002,45.41,73.242,80.078,55.664,0.0,0
1582146398.906,48.828,79.102,75.195,33.691,0.0,0
1582146398.91,32.227,88.867,52.734,23.438,0.0,0
1582146398.914,2.93,69.336,-6.836,25.391,0.0,0
1582146398.918,16.602,51.758,-120.605,20.508000000000006,0.0,0
1582146398.921,38.574,34.668,-242.676,21.973000000000006,0.0,0
1582146398.925,30.273000000000003,48.828,-268.555,20.996,0.0,0
1582146398.929,0.488,101.562,-124.512,29.297,0.0,0
1582146398.9329998,1.465,111.816,27.832,30.273000000000003,0.0,0
1582146398.937,29.297,89.844,49.805,17.09,0.0,0
1582146398.939,0.0,100.098,21.484,12.207,0.0,0
1582146398.9429998,-1.465,135.74200000000002,98.145,20.996,0.0,0
1582146398.947,17.578,107.91,63.477,17.578,0.0,0
1582146398.951,27.832,75.195,-26.855,17.09,0.0,0
1582146398.955,22.461,115.723,65.918,9.766,0.0,0
1582146398.959,-11.23,99.121,15.137,0.0,0.0,0
1582146398.9629998,-8.789,35.645,-174.805,5.859,0.0,0
1582146398.966,18.555,66.406,-139.16,12.695,0.0,0
1582146398.97,20.996,154.785,109.863,8.789,0.0,0
1582146398.974,-8.789,140.137,174.805,-10.254,0.0,0
1582146398.978,-57.617,100.098,67.383,-30.762,0.0,0
1582146398.982,-36.621,103.516,-5.371,-41.504,0.0,0
1582146398.984,-20.996,106.934,-9.277,-57.129,0.0,0
1582146398.988,-47.363,101.074,27.344,-66.406,0.0,0
1582146398.992,-57.129,80.078,-50.293,-67.383,0.0,0
1582146398.996,-73.242,100.098,-84.961,-77.148,0.0,0
1582146399.0,-68.359,125.977,-34.668,-92.285,0.0,0
1582146399.004,-81.055,104.492,-129.395,-98.633,0.0,0
1582146399.008,-111.816,68.848,-358.88699999999994,-115.723,0.0,0
1582146399.0110002,-104.98,93.75,-329.59,-116.211,0.0,0
1582146399.015,-85.93799999999997,140.137,-85.449,-112.793,0.0,0
1582146399.019,-96.191,119.141,-38.086,-128.906,0.0,0
1582146399.0229998,-113.281,104.98,-92.773,-126.953,0.0,0
1582146399.0270002,-132.32399999999998,113.281,-63.477,-126.465,0.0,0
1582146399.044,-125.977,104.004,-6.348,-136.23,0.0,0
1582146399.048,-125.488,74.707,-54.199,-141.113,0.0,0
1582146399.052,-152.344,53.223,-187.5,-147.94899999999996,0.0,0
1582146399.056,-145.996,72.266,-213.867,-150.879,0.0,0
1582146399.06,-130.371,103.516,-90.332,-150.879,0.0,0
1582146399.064,-113.77,82.52,-172.363,-154.297,0.0,0
1582146399.0679998,-124.512,128.418,-279.785,-153.809,0.0,0
1582146399.071,-133.30100000000002,279.785,-72.75399999999998,-145.02,0.0,0
1582146399.075,-133.30100000000002,349.6090000000001,71.777,-148.92600000000004,0.0,0
1582146399.079,-123.047,305.664,-62.5,-150.879,0.0,0
1582146399.083,-114.258,300.781,-130.859,-146.484,0.0,0
1582146399.087,-128.418,371.582,11.719,-143.066,0.0,0
1582146399.089,-137.207,361.816,44.922,-141.113,0.0,0
1582146399.093,-110.352,319.824,-0.488,-133.789,0.0,0
1582146399.097,-97.168,357.91,12.695,-136.23,0.0,0
1582146399.101,-127.441,417.969,26.367,-139.16,0.0,0
1582146399.105,-125.0,433.105,42.48,-118.652,0.0,0
1582146399.109,-83.984,386.719,-76.172,-106.934,0.0,0
1582146399.113,-52.734,382.812,-194.336,-92.285,0.0,0
1582146399.1160002,-48.828,437.012,6.348,-67.383,0.0,0
1582146399.12,-34.18,424.316,108.398,-44.434,0.0,0
1582146399.1239998,-2.93,349.6090000000001,-72.75399999999998,-14.648,0.0,0
1582146399.1279998,14.16,367.676,-59.57,-4.883,0.0,0
1582146399.1320002,31.25,443.848,172.363,-6.836,0.0,0
1582146399.1339998,37.598,376.465,80.078,19.043,0.0,0
1582146399.1379998,43.457,328.61300000000006,-11.719,42.48,0.0,0
1582146399.1420002,73.242,368.164,123.535,50.78100000000001,0.0,0
1582146399.146,74.219,356.445,176.27,49.316,0.0,0
1582146399.15,67.87100000000001,289.551,74.219,68.359,0.0,0
1582146399.154,71.777,235.84,-92.285,80.078,0.0,0
1582146399.158,66.406,233.887,-114.258,67.87100000000001,0.0,0
1582146399.161,92.773,245.605,12.207,72.75399999999998,0.0,0
1582146399.165,97.656,162.109,-82.52,85.449,0.0,0
1582146399.169,85.449,85.93799999999997,-226.562,96.191,0.0,0
1582146399.173,104.004,139.648,-41.01600000000001,91.309,0.0,0
1582146399.177,124.023,146.484,97.168,93.75,0.0,0
1582146399.179,104.98,118.164,62.5,98.633,0.0,0
1582146399.1829998,78.125,89.355,2.441,100.586,0.0,0
1582146399.187,105.957,92.773,52.246,108.398,0.0,0
1582146399.191,131.34799999999998,100.098,106.934,104.004,0.0,0
1582146399.195,108.887,52.734,51.758,97.656,0.0,0
1582146399.199,81.543,-2.93,-100.098,113.77,0.0,0
1582146399.2029998,104.98,-26.367,-181.641,123.535,0.0,0
1582146399.206,124.512,-45.41,-113.77,101.562,0.0,0
1582146399.21,113.281,-101.562,-212.891,94.727,0.0,0
1582146399.214,105.957,-76.66,-259.277,100.098,0.0,0
1582146399.218,107.422,-2.93,23.438,103.516,0.0,0
1582146399.222,100.098,-60.547,12.207,91.309,0.0,0
1582146399.224,102.539,-79.59,-54.199,89.844,0.0,0
1582146399.228,95.215,-47.363,40.039,105.469,0.0,0
1582146399.232,69.336,-102.539,-26.855,108.398,0.0,0
1582146399.236,82.031,-147.461,-81.055,93.75,0.0,0
1582146399.24,92.285,-147.94899999999996,-12.695,91.309,0.0,0
1582146399.244,72.266,-191.895,-52.246,93.262,0.0,0
1582146399.248,69.336,-210.938,-92.773,91.309,0.0,0
1582146399.2510002,96.191,-233.398,-134.27700000000002,97.168,0.0,0
1582146399.255,109.375,-251.465,-231.93400000000003,96.68,0.0,0
1582146399.2589998,98.633,-141.602,23.438,88.867,0.0,0
1582146399.2629998,83.49600000000002,-130.371,152.832,97.168,0.0,0
1582146399.2670002,80.566,-177.24599999999995,41.504,95.215,0.0,0
1582146399.268,83.984,-169.43400000000003,24.414,86.426,0.0,0
1582146399.272,70.312,-141.113,104.492,83.984,0.0,0
1582146399.276,57.129,-145.02,43.457,92.285,0.0,0
1582146399.28,58.594,-116.699,-20.508000000000006,96.68,0.0,0
1582146399.284,51.27,-89.844,36.621,80.078,0.0,0
1582146399.288,66.406,-103.516,-6.348,67.87100000000001,0.0,0
1582146399.292,67.383,-115.723,-104.492,68.848,0.0,0
1582146399.295,51.27,-145.996,-286.133,62.5,0.0,0
1582146399.299,62.012,-82.52,-193.359,58.594,0.0,0
1582146399.303,64.941,13.672,176.75799999999995,65.43,0.0,0
1582146399.3070002,56.64100000000001,-18.555,228.027,60.059,0.0,0
1582146399.311,51.27,-69.824,90.82,64.453,0.0,0
1582146399.313,61.523,-37.598,112.305,66.895,0.0,0
1582146399.3170002,61.035,-2.93,169.43400000000003,52.734,0.0,0
1582146399.321,65.43,-21.973000000000006,86.426,60.059,0.0,0
1582146399.325,55.176,-15.625,15.137,67.383,0.0,0
1582146399.329,44.922,11.23,38.086,66.406,0.0,0
1582146399.333,72.266,16.113,5.371,57.129,0.0,0
1582146399.337,81.055,-6.348,-142.578,61.523,0.0,0
1582146399.34,53.223,-1.953,-219.727,62.012,0.0,0
1582146399.344,27.344,104.492,20.02,42.48,0.0,0
1582146399.3479998,31.25,106.445,141.602,48.828,0.0,0
1582146399.3520002,61.035,58.594,81.055,51.27,0.0,0
1582146399.356,66.406,58.105,56.64100000000001,49.316,0.0,0
1582146399.3579998,38.086,68.848,113.77,48.34,0.0,0
1582146399.3620002,26.367,71.289,105.957,35.645,0.0,0
1582146399.3660002,57.129,56.152,15.137,42.969,0.0,0
1582146399.37,49.805,63.477,-31.25,46.387,0.0,0
1582146399.3739998,34.668,83.008,4.883,48.34,0.0,0
1582146399.3779998,31.738000000000003,47.852,-69.336,51.758,0.0,0
1582146399.3820002,31.25,18.066,-284.18,42.48,0.0,0
1582146399.385,50.78100000000001,89.844,-204.102,37.109,0.0,0
1582146399.389,49.805,131.34799999999998,2.441,41.992,0.0,0
1582146399.393,56.152,71.777,-110.352,55.176,0.0,0
1582146399.397,57.617,85.449,-81.055,50.78100000000001,0.0,0
1582146399.401,45.898,122.559,96.191,35.645,0.0,0
1582146399.418,27.832,88.867,74.219,29.785,0.0,0
1582146399.4220002,8.789,56.64100000000001,-25.879,35.156,0.0,0
1582146399.426,33.203,62.5,18.066,40.039,0.0,0
1582146399.43,65.43,70.312,77.637,39.062,0.0,0
1582146399.434,53.71100000000001,59.57,89.355,44.922,0.0,0
1582146399.438,32.715,-16.113,-106.445,44.434,0.0,0
1582146399.4420002,41.01600000000001,-10.254,-227.051,36.621,0.0,0
1582146399.445,55.176,90.82,0.977,34.18,0.0,0
1582146399.449,41.504,86.914,52.246,26.367,0.0,0
1582146399.4529998,24.414,14.16,-136.719,26.855,0.0,0
1582146399.457,30.273000000000003,22.949,-157.227,28.809,0.0,0
1582146399.461,43.457,69.824,-35.156,29.297,0.0,0
1582146399.4629998,53.71100000000001,59.082,-35.156,32.227,0.0,0
1582146399.467,36.621,48.34,-88.867,36.621,0.0,0
1582146399.471,16.113,71.777,-108.887,38.086,0.0,0
1582146399.475,29.297,117.676,47.852,38.574,0.0,0
1582146399.479,53.71100000000001,84.473,96.191,38.086,0.0,0
1582146399.4829998,51.758,38.574,-81.543,43.457,0.0,0
1582146399.4870002,29.785,63.965,-148.92600000000004,45.41,0.0,0
1582146399.49,33.691,111.816,8.301,46.875,0.0,0
1582146399.494,50.78100000000001,108.398,63.965,37.109,0.0,0
1582146399.498,40.527,20.996,-192.871,20.996,0.0,0
1582146399.502,27.344,47.852,-240.234,28.32,0.0,0
1582146399.506,28.809,134.27700000000002,10.254,38.086,0.0,0
1582146399.508,46.875,90.332,23.438,35.645,0.0,0
1582146399.512,23.438,62.988,-3.906,22.949,0.0,0
1582146399.516,10.254,55.176,-51.758,18.555,0.0,0
1582146399.52,37.109,51.758,-98.145,34.18,0.0,0
1582146399.524,57.129,59.57,-74.219,35.156,0.0,0
1582146399.528,45.41,46.387,-139.16,22.461,0.0,0
1582146399.532,27.832,52.246,-152.344,27.344,0.0,0
1582146399.535,34.668,80.078,13.672,41.992,0.0,0
1582146399.539,38.574,5.859,-81.543,51.27,0.0,0
1582146399.543,49.316,-12.695,-229.492,45.898,0.0,0
1582146399.5470002,37.109,99.121,3.906,35.156,0.0,0
1582146399.551,5.371,81.543,99.121,25.879,0.0,0
1582146399.553,15.625,38.086,19.043,24.902,0.0,0
1582146399.5570002,33.203,50.78100000000001,56.64100000000001,34.18,0.0,0
1582146399.561,19.531,41.504,104.492,30.273000000000003,0.0,0
1582146399.565,10.742,22.949,42.48,29.785,0.0,0
1582146399.569,32.227,21.973000000000006,34.668,34.668,0.0,0
1582146399.573,37.109,-5.859,-30.273000000000003,28.32,0.0,0
1582146399.577,24.414,-22.461,-83.984,33.203,0.0,0
1582146399.58,28.809,-23.438,-63.965,38.086,0.0,0
1582146399.584,19.531,-39.551,-145.996,33.203,0.0,0
1582146399.5879998,18.066,17.09,-24.414,20.02,0.0,0
1582146399.592,41.01600000000001,41.504,184.082,20.996,0.0,0
1582146399.596,35.645,-1.465,135.254,33.691,0.0,0
1582146399.5979998,24.414,-25.391,41.992,39.062,0.0,0
1582146399.6020002,49.805,-8.301,30.762,41.504,0.0,0
1582146399.606,62.5,34.18,107.91,34.18,0.0,0
1582146399.61,31.738000000000003,7.324,13.672,24.902,0.0,0
1582146399.6139998,-5.371,-3.906,-66.406,15.625,0.0,0
1582146399.6179998,21.973000000000006,11.719,-47.363,15.137,0.0,0
1582146399.6220002,51.27,52.246,38.086,23.926,0.0,0
1582146399.625,22.461,26.367,33.691,2.93,0.0,0
1582146399.629,-5.859,-34.18,-200.68400000000003,-5.859,0.0,0
1582146399.633,-6.348,65.43,13.184,16.602,0.0,0
1582146399.637,16.602,93.262,277.344,20.508000000000006,0.0,0
1582146399.641,27.344,40.039,183.594,17.578,0.0,0
1582146399.643,3.418,37.109,126.465,12.695,0.0,0
1582146399.647,2.93,33.691,147.461,13.184,0.0,0
1582146399.651,30.762,11.719,117.188,35.156,0.0,0
1582146399.655,49.805,42.48,155.273,34.18,0.0,0
1582146399.659,46.387,48.34,191.895,29.785,0.0,0
1582146399.663,41.992,11.719,99.609,38.086,0.0,0
1582146399.667,45.898,41.992,131.34799999999998,31.738000000000003,0.0,0
1582146399.67,51.27,12.695,44.434,24.902,0.0,0
1582146399.674,51.27,8.301,-70.801,30.273000000000003,0.0,0
1582146399.678,53.71100000000001,88.867,135.254,53.71100000000001,0.0,0
1582146399.6820002,56.152,58.594,136.719,44.434,0.0,0
1582146399.686,45.41,20.02,21.484,22.461,0.0,0
1582146399.688,34.668,34.18,87.891,20.02,0.0,0
1582146399.6920002,36.621,48.828,228.516,23.438,0.0,0
1582146399.696,23.438,17.09,224.121,35.156,0.0,0
1582146399.7,34.18,-7.812,112.793,21.973000000000006,0.0,0
1582146399.704,42.969,47.363,200.68400000000003,9.277,0.0,0
1582146399.708,14.648,34.668,197.754,17.09,0.0,0
1582146399.712,4.395,-49.316,-25.391,22.461,0.0,2
1582146399.715,38.086,-49.316,-126.953,20.02,0.0,0
1582146399.719,46.875,54.199,125.977,10.742,0.0,0
1582146399.7229998,27.344,57.129,272.949,13.672,0.0,0
1582146399.7270002,16.113,0.977,141.602,33.691,0.0,0
1582146399.731,22.461,3.906,91.797,33.203,0.0,0
1582146399.7329998,37.598,47.363,244.141,31.25,0.0,0
1582146399.7370002,45.898,34.18,267.578,30.273000000000003,0.0,0
1582146399.7410002,22.949,3.906,119.629,27.344,0.0,0
1582146399.745,26.855,51.27,140.625,34.668,0.0,0
1582146399.7489998,58.105,103.027,291.992,37.109,0.0,0
1582146399.7529998,44.922,48.34,185.547,39.062,0.0,0
1582146399.7570002,15.137,10.742,-82.52,35.645,0.0,0
1582146399.76,26.367,57.617,-72.75399999999998,40.527,0.0,0
1582146399.764,48.34,111.816,162.109,46.875,0.0,0
1582146399.768,45.41,109.863,255.859,31.25,0.0,0
1582146399.772,17.09,61.035,142.09,25.879,0.0,0
1582146399.776,23.438,68.359,150.879,34.668,0.0,0
1582146399.793,31.738000000000003,89.355,264.648,36.621,0.0,0
1582146399.7970002,38.574,58.105,222.168,32.715,0.0,0
1582146399.801,25.879,41.01600000000001,131.34799999999998,24.414,0.0,0
1582146399.805,6.836,66.895,119.141,25.879,0.0,0
1582146399.809,23.926,80.566,154.785,21.484,0.0,0
1582146399.813,41.01600000000001,55.176,64.453,11.23,0.0,0
1582146399.8170002,27.832,33.691,-81.543,23.926,0.0,0
1582146399.82,15.625,80.078,-34.18,38.574,0.0,0
1582146399.824,20.996,143.555,165.03900000000004,47.363,0.0,0
1582146399.8279998,38.574,97.168,115.723,31.25,0.0,0
1582146399.832,46.875,48.828,-41.992,11.23,0.0,0
1582146399.836,18.555,111.816,73.73,32.227,0.0,0
1582146399.8379998,19.043,117.676,127.93,40.039,0.0,0
1582146399.842,45.898,85.93799999999997,91.309,35.645,0.0,0
1582146399.846,49.316,98.145,171.875,31.738000000000003,0.0,0
1582146399.85,17.578,93.262,170.898,31.25,0.0,0
1582146399.854,7.324,71.777,75.195,41.504,0.0,0
1582146399.8579998,34.668,38.574,-38.086,32.715,0.0,0
1582146399.8620002,19.531,65.43,-61.523,33.203,0.0,0
1582146399.865,16.113,113.77,109.863,41.01600000000001,0.0,0
1582146399.869,19.043,37.598,-24.902,21.484,0.0,0
1582146399.873,23.438,-13.672,-252.93,20.996,0.0,0
1582146399.877,31.25,73.73,-81.543,26.855,0.0,0
1582146399.881,14.648,117.188,209.473,20.508000000000006,0.0,0
1582146399.883,17.578,52.246,187.988,16.602,0.0,0
1582146399.887,25.391,21.484,49.316,23.926,0.0,0
1582146399.891,44.434,48.34,93.75,23.438,0.0,0
1582146399.895,29.297,59.57,154.297,6.836,0.0,0
1582146399.899,12.207,9.766,-7.324,19.531,0.0,0
1582146399.903,9.277,2.441,-123.047,22.949,0.0,0
1582146399.907,20.996,31.25,-87.402,10.254,0.0,0
1582146399.91,34.668,68.359,72.75399999999998,15.137,0.0,0
1582146399.914,16.113,9.766,10.742,15.625,0.0,0
1582146399.918,18.066,-52.246,-250.0,22.949,0.0,0
1582146399.9220002,25.879,42.48,-22.461,23.926,0.0,0
1582146399.926,36.621,44.922,88.37899999999998,20.508000000000006,0.0,0
1582146399.929,21.973000000000006,26.367,-4.395,33.691,0.0,0
1582146399.9329998,9.277,33.691,93.75,33.203,0.0,0
1582146399.937,32.715,16.602,167.96900000000005,23.438,0.0,0
1582146399.941,43.457,10.742,125.0,11.23,0.0,0
1582146399.945,20.996,-4.395,43.457,0.488,0.0,0
1582146399.949,8.301,-44.922,-56.152,14.16,0.0,0
1582146399.9529998,12.207,-44.922,-84.473,23.926,0.0,0
1582146399.956,29.297,-10.742,20.996,15.137,0.0,0
1582146399.96,18.555,-56.64100000000001,-105.957,5.859,0.0,0
1582146399.964,8.301,-37.598,-115.723,14.16,0.0,0
1582146399.968,26.855,23.438,124.512,27.832,0.0,0
1582146399.972,29.785,-17.09,109.375,22.949,0.0,0
1582146399.974,51.27,-3.906,85.449,14.648,0.0,0
1582146399.978,35.156,38.086,157.227,15.625,0.0,0
1582146399.982,12.695,4.395,80.078,13.184,0.0,0
1582146399.986,10.254,-21.484,-43.457,20.02,0.0,0
1582146399.99,25.879,17.09,3.418,24.902,0.0,0
1582146399.994,39.062,13.672,-84.961,26.367,0.0,0
1582146399.998,18.066,49.316,-70.801,24.902,0.0,0
1582146400.0010002,12.695,64.453,-18.066,22.461,0.0,0
1582146400.005,38.574,22.949,-156.25,24.902,0.0,0
1582146400.0089998,28.809,84.473,25.391,15.137,0.0,0
1582146400.0129998,6.836,79.59,153.809,14.16,0.0,0
1582146400.0170002,13.672,3.906,48.34,11.719,0.0,0
1582146400.019,10.742,-24.902,20.02,0.0,0.0,0
1582146400.0229998,11.719,-8.301,110.84,4.395,0.0,0
1582146400.0270002,-0.977,-14.16,104.004,12.207,0.0,0
1582146400.031,8.301,-28.32,33.691,25.391,0.0,0
1582146400.035,32.227,-31.738000000000003,13.184,22.461,0.0,0
1582146400.039,41.01600000000001,-40.527,-28.809,18.066,0.0,0
1582146400.043,21.973000000000006,-63.477,-107.422,26.367,0.0,0
1582146400.046,14.648,-101.074,-305.664,23.438,0.0,0
1582146400.05,24.902,-42.969,-245.605,25.391,0.0,0
1582146400.054,34.668,43.945,41.992,20.996,0.0,0
1582146400.0579998,17.578,26.367,102.051,12.207,0.0,0
1582146400.062,-17.09,-16.113,-23.926,14.16,0.0,0
1582146400.064,7.812,42.48,30.273000000000003,21.973000000000006,0.0,0
1582146400.0679998,32.227,80.078,189.453,21.484,0.0,0
1582146400.072,18.066,17.578,60.547,11.23,0.0,0
1582146400.076,-5.859,5.371,-83.984,16.113,0.0,0
1582146400.08,4.883,64.941,-16.602,31.738000000000003,0.0,0
1582146400.084,38.086,108.398,-13.672,35.645,0.0,0
1582146400.0879998,38.574,125.0,-134.766,29.785,0.0,0
1582146400.091,-3.418,156.25,-234.863,5.371,0.0,0
1582146400.095,14.16,225.586,-159.18,5.371,0.0,0
1582146400.099,21.484,284.668,36.621,20.02,0.0,0
1582146400.103,4.395,280.273,59.082,12.207,0.0,0
1582146400.107,32.715,270.508,69.824,17.578,0.0,0
1582146400.109,27.832,274.902,95.703,24.414,0.0,0
1582146400.113,25.391,264.648,6.836,29.297,0.0,0
1582146400.117,37.598,284.18,39.551,25.879,0.0,0
1582146400.121,20.996,267.578,59.082,15.625,0.0,0
1582146400.125,2.441,253.418,54.688,23.926,0.0,0
1582146400.129,19.531,239.746,-5.371,24.902,0.0,0
1582146400.133,20.996,151.855,-237.305,5.371,0.0,0
1582146400.1360002,16.602,138.672,-217.773,0.488,0.0,0
1582146400.14,25.391,179.688,18.555,16.602,0.0,0
1582146400.144,26.367,171.387,53.223,30.273000000000003,0.0,0
1582146400.1479998,23.926,201.66,31.738000000000003,20.02,0.0,0
1582146400.1520002,12.695,226.074,-5.371,10.742,0.0,0
1582146400.169,21.484,256.348,73.73,22.461,0.0,0
1582146400.173,33.691,235.84,79.59,31.25,0.0,0
1582146400.177,37.109,205.566,6.836,24.902,0.0,0
1582146400.181,47.852,241.211,89.355,23.438,0.0,0
1582146400.185,30.273000000000003,231.93400000000003,99.609,26.367,0.0,0
1582146400.189,11.719,121.094,-104.98,38.086,0.0,0
1582146400.1929998,24.902,58.105,-290.039,31.738000000000003,0.0,0
1582146400.196,44.922,159.18,-82.031,20.508000000000006,0.0,0
1582146400.2,30.762,206.543,158.203,19.043,0.0,0
1582146400.204,11.719,93.262,4.883,16.602,0.0,0
1582146400.208,20.508000000000006,41.01600000000001,-65.918,21.484,0.0,0
1582146400.212,39.062,83.984,115.723,24.414,0.0,0
1582146400.214,52.734,77.637,164.551,32.227,0.0,0
1582146400.218,5.371,56.64100000000001,76.66,23.926,0.0,0
1582146400.222,-4.395,35.156,-68.359,19.043,0.0,0
1582146400.226,45.41,83.49600000000002,19.043,28.32,0.0,0
1582146400.23,42.48,85.449,85.93799999999997,11.719,0.0,0
1582146400.234,15.137,0.0,-43.945,6.348,0.0,0
1582146400.238,1.953,-58.594,-192.871,9.277,0.0,0
1582146400.2410002,17.578,-35.156,-88.867,10.742,0.0,0
1582146400.245,41.01600000000001,-28.809,95.703,19.531,0.0,0
1582146400.2489998,18.066,-131.836,-165.52700000000004,17.578,0.0,0
1582146400.2529998,4.395,-149.90200000000004,-276.855,34.668,0.0,0
1582146400.2570002,29.785,-58.594,19.043,43.945,0.0,0
1582146400.2589998,38.574,-82.031,66.895,28.809,0.0,0
1582146400.2629998,36.621,-116.211,-20.02,29.785,0.0,0
1582146400.2670002,37.598,-99.609,10.742,40.527,0.0,0
1582146400.271,1.465,-93.75,46.875,36.133,0.0,0
1582146400.275,19.531,-120.117,-28.809,25.391,0.0,0
1582146400.279,52.246,-158.691,-145.50799999999995,20.02,0.0,0
1582146400.283,19.531,-141.602,-155.273,28.32,0.0,0
1582146400.286,20.508000000000006,-133.789,-154.785,38.574,0.0,0
1582146400.29,27.344,-153.32,-208.984,34.668,0.0,0
1582146400.294,12.695,-144.531,-247.55900000000003,19.043,0.0,0
1582146400.298,12.207,-79.102,-82.52,18.555,0.0,0
1582146400.302,13.672,-62.012,31.738000000000003,22.949,0.0,0
1582146400.304,25.879,-70.801,-20.02,20.508000000000006,0.0,0
1582146400.3079998,44.922,-59.082,0.977,20.508000000000006,0.0,0
1582146400.312,18.066,-32.715,104.004,13.184,0.0,0
1582146400.316,12.207,-44.434,78.613,16.113,0.0,0
1582146400.32,14.16,-74.219,-41.992,26.855,0.0,0
1582146400.324,0.488,-82.52,-138.184,21.484,0.0,0
1582146400.3279998,13.184,-28.32,-133.789,9.277,0.0,0
1582146400.331,20.508000000000006,23.438,-10.254,6.836,0.0,0
1582146400.335,18.555,-62.5,-189.941,16.113,0.0,0
1582146400.339,28.32,-8.789,-274.902,25.391,0.0,0
1582146400.343,29.785,154.785,20.508000000000006,34.18,0.0,0
1582146400.347,0.977,165.03900000000004,21.973000000000006,25.879,0.0,0
1582146400.349,-9.766,183.105,-31.738000000000003,13.672,0.0,0
1582146400.353,25.391,195.312,59.082,13.672,0.0,0
1582146400.357,37.598,115.234,97.656,27.344,0.0,0
1582146400.361,24.414,18.555,-13.184,32.715,0.0,0
1582146400.365,7.324,-11.23,-91.309,20.02,0.0,0
1582146400.369,-1.465,-8.301,-138.672,18.555,0.0,0
1582146400.373,35.156,52.734,-94.727,31.25,0.0,0
1582146400.3760002,41.992,44.922,-71.777,29.785,0.0,0
1582146400.38,6.348,-24.414,-265.625,24.414,0.0,0
1582146400.3839998,9.766,69.336,-69.824,26.367,0.0,0
1582146400.3879998,18.555,69.824,25.391,14.648,0.0,0
1582146400.3920002,27.832,29.785,-74.707,19.531,0.0,0
1582146400.394,14.16,48.34,-20.02,32.227,0.0,0
1582146400.3979998,23.926,54.688,10.254,39.062,0.0,0
1582146400.4020002,58.105,55.176,39.551,42.969,0.0,0
1582146400.406,49.316,57.617,-3.418,21.484,0.0,0
1582146400.41,20.508000000000006,58.594,-25.879,16.113,0.0,0
1582146400.414,17.09,42.969,-63.965,17.09,0.0,0
1582146400.418,33.203,53.71100000000001,-103.027,18.066,0.0,0
1582146400.421,34.668,44.434,-172.363,21.484,0.0,0
1582146400.425,7.324,92.773,-97.656,0.488,0.0,0
1582146400.429,-16.602,172.852,116.211,-7.812,0.0,0
1582146400.4329998,4.395,126.465,82.52,-0.977,0.0,0
1582146400.437,6.836,83.49600000000002,75.684,9.766,0.0,0
1582146400.439,-1.953,92.285,187.988,7.324,0.0,0
1582146400.4429998,14.16,29.297,153.809,1.465,0.0,0
1582146400.447,21.973000000000006,-51.27,-50.293,17.09,0.0,0
1582146400.451,41.01600000000001,-21.484,-28.32,31.25,0.0,0
1582146400.455,46.875,42.969,126.465,22.461,0.0,0
1582146400.459,24.414,31.25,60.547,21.973000000000006,0.0,0
1582146400.4629998,18.066,-1.953,-91.797,18.066,0.0,0
1582146400.466,18.066,13.184,-157.715,14.648,0.0,0
1582146400.47,21.973000000000006,96.191,16.602,11.719,0.0,0
1582146400.474,13.672,128.906,175.78099999999995,8.301,0.0,0
1582146400.478,15.137,112.305,86.914,17.578,0.0,0
1582146400.482,35.645,114.258,45.898,14.648,0.0,0
1582146400.484,36.621,154.785,150.879,5.859,0.0,0
1582146400.488,24.414,164.062,180.664,4.883,0.0,0
1582146400.492,12.207,144.043,41.01600000000001,3.906,0.0,0
1582146400.496,19.043,177.734,49.316,8.789,0.0,0
1582146400.5,41.01600000000001,144.531,93.75,13.184,0.0,0
1582146400.504,35.645,93.262,-7.324,13.184,0.0,0
1582146400.508,17.09,75.684,-191.895,14.648,0.0,0
1582146400.5110002,10.742,116.211,-133.30100000000002,12.207,0.0,0
1582146400.515,41.504,161.621,158.691,20.508000000000006,0.0,0
1582146400.519,53.71100000000001,101.562,187.988,21.484,0.0,0
1582146400.5229998,30.273000000000003,53.223,158.203,29.297,0.0,0
1582146400.5270002,24.414,41.504,145.996,35.156,0.0,0
1582146400.544,40.527,62.988,221.191,30.762,0.0,0
1582146400.548,36.133,47.363,237.305,23.926,0.0,0
1582146400.552,21.973000000000006,26.855,168.457,13.184,0.0,0
1582146400.556,17.578,53.71100000000001,219.727,15.625,0.0,0
1582146400.56,16.602,32.715,248.047,6.836,0.0,0
1582146400.564,7.812,-69.824,26.367,-5.859,0.0,0
1582146400.5679998,15.625,-72.75399999999998,-45.898,0.0,0.0,0
1582146400.571,16.602,-26.367,148.92600000000004,4.883,0.0,0
1582146400.575,31.25,-89.844,36.621,6.348,0.0,0
1582146400.579,51.27,-132.812,-76.66,4.395,0.0,0
1582146400.583,24.414,-135.254,-18.066,-0.977,0.0,0
1582146400.587,18.066,-106.934,112.793,15.137,0.0,0
1582146400.5879998,22.461,-113.77,165.03900000000004,26.367,0.0,0
1582146400.592,39.551,-125.488,100.098,20.996,0.0,0
1582146400.596,20.996,-133.789,90.332,19.043,0.0,0
1582146400.6,-7.812,-148.92600000000004,135.254,21.484,0.0,0
1582146400.604,17.09,-156.738,108.398,23.438,0.0,0
1582146400.6079998,42.48,-167.48,18.555,15.137,0.0,0
1582146400.6120002,59.082,-147.94899999999996,-44.922,20.996,0.0,0
1582146400.615,45.898,-81.543,103.516,26.855,0.0,0
1582146400.619,15.137,-88.37899999999998,185.547,32.227,0.0,0
1582146400.623,22.949,-164.551,-65.918,25.879,0.0,0
1582146400.627,39.551,-172.852,-126.953,12.695,0.0,0
1582146400.631,36.621,-106.445,96.68,26.855,0.0,0
