timestamps,TP9,AF7,AF8,TP10,Marker0
1582221894.564,14.648,23.438,20.020,13.672,0
1582221894.568,3.906,25.879,19.531,14.160,0
1582221894.572,-0.977,32.715,16.602,11.230,0
1582221894.576,10.254,37.109,19.043,5.859,0
1582221894.580,15.137,35.156,19.531,14.648,0
1582221894.584,10.254,29.297,15.137,12.207,0
1582221894.588,11.230,27.344,18.066,4.883,0
1582221894.591,16.602,34.668,21.484,12.207,0
1582221894.595,19.531,26.367,20.508,17.090,0
1582221894.599,18.066,19.531,22.461,16.113,0
1582221894.603,23.438,29.297,28.809,18.555,0
1582221894.607,25.391,35.156,29.297,18.555,0
1582221894.609,9.766,39.062,27.344,16.113,0
1582221894.613,0.977,33.203,28.809,13.184,0
1582221894.617,7.812,29.785,26.855,8.301,0
1582221894.621,16.602,32.715,27.344,7.324,0
1582221894.625,11.230,29.297,28.809,10.742,0
1582221894.629,4.883,29.297,28.809,9.277,0
1582221894.633,10.254,30.762,26.367,6.836,0
1582221894.636,14.648,23.438,25.391,11.230,0
1582221894.640,13.184,20.996,27.344,11.230,0
1582221894.644,5.371,38.086,27.344,10.742,0
1582221894.648,-1.953,42.969,26.367,9.766,0
1582221894.652,4.395,37.109,27.344,7.324,0
1582221894.654,10.742,35.156,28.320,16.113,0
1582221894.658,10.742,31.738,29.785,17.578,0
1582221894.662,11.230,37.598,28.320,16.113,0
1582221894.666,11.230,34.180,26.855,15.137,0
1582221894.670,13.672,33.203,26.855,12.207,0
1582221894.674,21.973,34.180,26.367,17.090,0
1582221894.678,20.020,29.297,25.879,20.508,0
1582221894.681,20.020,28.320,25.391,22.949,0
1582221894.685,20.996,31.738,25.879,15.625,0
1582221894.689,19.043,39.062,25.879,17.578,0
1582221894.693,16.602,39.062,25.879,25.879,0
1582221894.697,14.648,29.297,22.949,24.414,0
1582221894.699,20.508,29.785,18.555,18.555,0
1582221894.703,22.461,41.504,18.555,9.766,0
1582221894.707,28.320,47.852,20.020,12.207,0
1582221894.711,32.715,41.992,20.996,15.137,0
1582221894.715,32.715,36.133,19.043,13.184,0
1582221894.719,34.668,33.691,20.020,21.484,0
1582221894.723,21.484,35.645,21.484,19.531,0
1582221894.726,7.324,33.203,20.020,18.066,0
1582221894.730,15.625,31.738,22.949,20.996,0
1582221894.734,20.020,39.062,21.484,19.531,0
1582221894.738,15.137,38.574,18.555,19.531,0
1582221894.742,14.648,30.273,22.949,28.320,0
1582221894.744,15.137,26.855,25.391,27.344,0
1582221894.748,18.066,29.785,22.461,19.043,0
1582221894.752,16.602,31.738,20.508,29.785,0
1582221894.756,12.207,31.738,22.461,41.992,0
1582221894.760,10.742,30.762,27.344,41.992,0
1582221894.764,15.625,33.203,28.320,31.738,0
1582221894.768,12.695,24.414,27.344,52.734,0
1582221894.771,12.695,21.484,30.762,36.621,0
1582221894.775,7.324,32.227,34.668,1.465,0
1582221894.779,0.977,28.320,33.691,26.367,0
1582221894.783,21.484,26.855,29.785,52.734,0
1582221894.787,32.227,29.785,28.809,36.621,0
1582221894.789,21.973,31.250,27.344,-5.371,0
1582221894.793,17.090,34.668,24.414,25.391,0
1582221894.797,22.949,24.414,24.414,52.734,0
1582221894.801,18.555,26.367,27.832,8.789,0
1582221894.805,9.766,38.574,29.297,12.207,0
1582221894.809,18.555,33.203,25.879,28.809,0
1582221894.813,23.438,26.367,23.926,20.996,0
1582221894.816,18.555,33.203,24.902,22.949,0
1582221894.820,21.484,43.945,25.879,28.320,0
1582221894.824,32.227,35.156,26.855,35.156,0
1582221894.828,39.551,25.391,25.391,32.715,0
1582221894.832,30.762,32.715,26.367,26.367,0
1582221894.834,27.832,34.180,29.297,30.273,0
1582221894.838,29.297,28.809,26.367,29.785,0
1582221894.842,24.902,25.879,26.367,33.203,0
1582221894.846,24.414,25.391,28.320,45.410,0
1582221894.850,17.578,26.367,27.832,38.574,0
1582221894.854,9.766,28.809,27.344,19.531,0
1582221894.858,14.160,33.691,25.879,21.973,0
1582221894.861,20.508,33.203,25.879,29.785,0
1582221894.865,19.043,27.832,27.344,31.738,0
1582221894.869,21.484,33.203,25.391,29.785,0
1582221894.873,25.879,38.086,27.832,23.926,0
1582221894.877,20.996,39.551,27.344,26.367,0
1582221894.894,20.508,34.668,27.344,27.832,0
1582221894.898,19.531,29.297,31.738,25.391,0
1582221894.902,18.066,28.809,31.738,28.809,0
1582221894.906,26.367,27.832,30.762,25.391,0
1582221894.910,22.461,21.484,31.250,20.996,0
1582221894.914,17.578,27.344,26.855,20.020,0
1582221894.918,16.113,38.086,23.438,14.648,0
1582221894.921,15.625,26.855,23.926,15.137,0
1582221894.925,23.438,12.695,24.902,19.043,0
1582221894.929,17.090,28.809,21.484,15.625,0
1582221894.933,6.836,42.480,19.531,14.160,0
1582221894.937,15.625,41.016,22.949,18.066,0
1582221894.939,27.344,33.203,25.391,25.391,0
1582221894.943,24.902,32.227,24.414,23.926,0
1582221894.947,14.648,35.645,25.391,23.926,0
1582221894.951,25.391,29.297,27.832,30.762,0
1582221894.955,28.320,24.414,26.367,18.555,0
1582221894.959,19.043,27.344,25.391,8.789,0
1582221894.963,14.648,30.762,20.996,11.230,0
1582221894.966,14.160,27.832,18.066,9.766,0
1582221894.970,10.742,29.297,18.555,6.348,0
1582221894.974,12.695,35.156,18.555,0.488,0
1582221894.978,6.836,39.062,18.555,4.883,0
1582221894.982,0.488,37.109,20.508,8.789,0
1582221894.984,6.836,19.043,22.461,6.836,0
1582221894.988,17.090,20.508,22.461,12.207,0
1582221894.992,16.602,35.156,21.973,15.625,0
1582221894.996,3.906,33.203,20.996,20.508,0
1582221895.000,8.301,29.297,21.484,20.508,0
1582221895.004,14.648,27.832,20.508,18.555,0
1582221895.008,9.277,29.297,20.508,18.555,0
1582221895.011,7.324,24.414,20.996,22.949,0
1582221895.015,15.625,32.715,20.020,30.762,0
1582221895.019,12.207,36.621,18.066,23.926,0
1582221895.023,11.719,31.738,18.066,17.090,0
1582221895.027,13.672,28.320,20.508,20.020,0
1582221895.029,0.488,24.902,20.508,22.461,0
1582221895.033,2.930,6.836,22.461,31.738,0
1582221895.037,17.578,11.230,23.926,26.367,0
1582221895.041,11.230,32.715,22.949,11.719,0
1582221895.045,4.883,23.926,21.484,13.672,0
1582221895.049,15.137,29.785,19.043,11.230,0
1582221895.053,23.926,35.645,17.090,16.113,0
1582221895.056,19.531,34.180,17.090,20.020,0
1582221895.060,15.137,29.297,19.531,17.578,0
1582221895.064,12.207,25.391,19.531,18.066,0
1582221895.068,13.672,34.180,19.043,17.090,0
1582221895.072,18.555,36.133,18.555,24.414,0
1582221895.074,22.949,33.691,14.160,34.180,0
1582221895.078,23.926,34.668,12.695,26.855,0
1582221895.082,20.996,32.715,14.160,18.555,0
1582221895.086,25.879,26.855,14.648,18.555,0
1582221895.090,26.855,26.855,15.137,20.996,0
1582221895.094,24.902,30.762,14.648,19.043,0
1582221895.098,28.809,35.645,16.602,18.555,0
1582221895.101,15.625,28.320,20.508,12.207,0
1582221895.105,17.090,21.973,25.879,5.859,0
1582221895.109,25.879,29.297,30.762,21.484,0
1582221895.113,20.996,31.738,29.297,27.344,0
1582221895.117,20.996,29.297,25.879,14.160,0
1582221895.119,19.043,25.879,27.832,5.859,0
1582221895.123,20.996,33.203,26.855,12.695,0
1582221895.127,20.996,31.738,26.855,15.625,0
1582221895.131,21.484,26.855,27.832,8.301,0
1582221895.135,17.578,31.250,26.367,13.184,0
1582221895.139,15.625,24.902,29.297,26.367,0
1582221895.143,20.996,28.809,30.273,28.809,0
1582221895.146,18.066,35.645,24.902,12.207,0
1582221895.150,20.996,27.344,24.414,11.719,0
1582221895.154,24.414,25.391,25.391,20.020,0
1582221895.158,17.090,26.855,22.461,17.578,0
1582221895.162,22.949,35.645,21.973,16.113,0
1582221895.164,25.879,27.832,25.391,13.672,0
1582221895.168,22.949,19.043,25.879,22.949,0
1582221895.172,26.855,39.551,23.926,29.297,0
1582221895.176,21.973,39.551,25.391,21.484,0
1582221895.180,25.879,28.809,27.832,20.996,0
1582221895.184,30.273,32.715,29.297,26.367,0
1582221895.188,18.066,32.227,29.785,16.113,0
1582221895.191,12.207,32.715,25.391,8.789,0
1582221895.195,14.160,33.691,24.902,3.906,0
1582221895.199,9.766,27.344,27.832,5.859,0
1582221895.203,7.812,28.320,29.785,15.625,0
1582221895.207,10.742,32.227,28.809,15.137,0
1582221895.209,20.996,30.762,28.320,13.184,0
1582221895.213,20.508,27.832,28.809,14.648,0
1582221895.217,3.906,24.414,28.809,18.066,0
1582221895.221,5.371,21.973,28.809,20.996,0
1582221895.225,23.438,26.367,27.832,24.902,0
1582221895.229,27.344,26.855,26.855,26.855,0
1582221895.233,26.367,26.367,23.438,25.391,0
1582221895.236,21.484,39.062,19.531,22.461,0
1582221895.240,17.090,38.086,19.531,20.996,0
1582221895.244,21.484,35.156,20.996,22.461,0
1582221895.248,21.973,37.109,20.996,25.391,0
1582221895.252,14.160,29.297,20.996,22.949,0
1582221895.269,10.254,15.625,27.344,20.996,0
1582221895.273,8.789,20.508,28.320,11.719,0
1582221895.277,3.906,22.461,22.949,5.859,0
1582221895.281,2.930,20.020,20.508,7.812,0
1582221895.285,11.230,23.926,20.996,18.066,0
1582221895.289,13.672,38.086,19.043,16.113,0
1582221895.293,10.742,42.480,19.531,6.348,0
1582221895.296,12.695,35.156,19.043,11.230,0
1582221895.300,10.742,32.715,18.066,21.973,0
1582221895.304,23.438,29.297,20.508,24.902,0
1582221895.308,27.832,30.762,20.508,20.996,0
1582221895.312,23.926,33.691,20.020,20.020,0
1582221895.314,22.461,41.016,21.973,22.949,0
1582221895.318,12.207,38.574,21.973,17.578,0
1582221895.322,9.277,33.203,22.949,11.230,0
1582221895.326,16.113,29.785,25.879,13.184,0
1582221895.330,18.555,28.320,26.855,8.301,0
1582221895.334,6.836,27.344,24.414,6.836,0
1582221895.338,8.301,23.438,24.414,10.742,0
1582221895.341,11.719,23.926,26.367,9.766,0
1582221895.345,5.371,27.832,27.344,10.742,0
1582221895.349,7.324,32.715,26.855,8.789,0
1582221895.353,-2.441,23.438,25.391,5.371,0
1582221895.357,3.418,23.926,27.344,10.742,0
1582221895.360,14.160,35.156,30.273,16.602,0
1582221895.364,0.000,38.574,29.297,6.836,0
1582221895.368,0.000,33.691,26.855,6.836,0
1582221895.372,12.695,31.738,28.320,16.113,0
1582221895.376,13.184,29.785,26.855,9.766,0
1582221895.380,11.230,33.203,21.484,2.441,0
1582221895.384,11.719,38.086,18.555,6.348,0
1582221895.387,13.184,35.156,19.043,2.930,0
1582221895.391,7.812,35.156,19.531,-0.488,0
1582221895.395,-2.930,36.621,20.020,-3.906,0
1582221895.399,-4.883,27.344,21.484,-7.324,0
1582221895.403,3.906,14.160,20.508,-7.324,0
1582221895.405,9.277,22.949,22.461,-4.883,0
1582221895.409,6.348,39.062,26.367,-1.465,0
1582221895.413,0.977,41.504,23.438,-6.348,0
1582221895.417,-3.418,36.621,18.555,-9.277,0
1582221895.421,-1.953,37.598,15.625,-4.883,0
1582221895.425,0.977,37.109,16.113,-2.441,0
1582221895.429,-3.906,29.785,16.602,1.465,0
1582221895.432,-11.719,29.785,16.113,6.836,0
1582221895.436,-1.465,32.715,18.555,12.207,0
1582221895.440,2.930,32.227,18.555,15.137,0
1582221895.444,-6.348,21.973,18.066,16.113,0
1582221895.448,3.906,10.742,19.531,20.508,0
1582221895.450,8.301,30.273,22.461,17.578,0
1582221895.454,-0.977,36.133,21.973,10.742,0
1582221895.458,4.883,26.367,18.555,9.766,0
1582221895.462,4.883,28.809,17.578,6.836,0
1582221895.466,-2.441,32.715,16.602,4.395,0
1582221895.470,8.789,35.156,18.555,3.906,0
1582221895.474,7.324,34.180,16.602,1.465,0
1582221895.477,1.953,33.691,16.602,1.953,0
1582221895.481,8.301,40.039,20.020,0.000,0
1582221895.485,10.254,34.180,16.113,-0.488,0
1582221895.489,14.160,27.344,14.648,12.695,0
1582221895.493,6.348,28.320,12.695,14.648,0
1582221895.495,7.324,27.832,9.766,12.695,0
1582221895.499,23.926,28.320,11.719,19.531,0
1582221895.503,20.996,26.855,10.254,19.043,0
1582221895.507,13.184,25.879,9.277,19.043,0
1582221895.511,13.672,25.879,10.254,14.160,0
1582221895.515,16.113,27.344,10.742,10.254,0
1582221895.519,15.137,29.297,14.648,7.324,0
1582221895.522,12.207,32.227,16.602,2.930,0
1582221895.526,12.207,31.250,17.578,6.348,0
1582221895.530,8.789,27.832,20.020,12.207,0
1582221895.534,13.184,28.320,19.043,19.531,0
1582221895.538,18.066,34.180,18.555,19.531,0
1582221895.540,13.184,40.527,18.555,15.625,0
1582221895.544,14.160,29.297,20.508,12.207,0
1582221895.548,15.625,24.414,22.461,13.184,0
1582221895.552,6.836,29.297,19.043,16.602,0
1582221895.556,3.906,14.160,18.555,15.625,0
1582221895.560,4.883,23.926,18.066,23.926,0
1582221895.564,11.230,34.180,18.066,27.832,0
1582221895.567,16.113,20.508,18.555,27.344,0
1582221895.571,4.395,26.855,17.578,32.227,0
1582221895.575,2.930,38.574,18.555,29.785,0
1582221895.579,15.137,36.621,18.555,22.949,0
1582221895.583,16.602,33.203,18.066,19.043,0
1582221895.585,15.137,37.109,20.020,18.066,0
1582221895.589,21.973,38.574,20.996,17.090,0
1582221895.593,30.762,26.367,18.555,15.137,0
1582221895.597,44.922,31.738,20.508,22.461,0
1582221895.601,48.340,43.457,23.926,27.832,0
1582221895.605,37.109,34.180,25.391,25.879,0
1582221895.609,31.738,26.367,28.809,22.461,0
1582221895.612,32.227,35.156,28.320,23.926,0
1582221895.616,27.832,39.551,26.855,31.250,0
1582221895.620,19.531,31.738,28.809,33.203,0
1582221895.624,18.555,30.273,28.809,34.180,0
1582221895.628,20.508,33.691,28.809,35.645,0
1582221895.645,16.113,32.227,30.762,31.250,0
1582221895.649,8.301,34.180,33.203,30.273,0
1582221895.653,11.719,26.855,33.691,36.621,0
1582221895.657,17.090,21.484,34.668,37.109,0
1582221895.661,15.137,27.344,36.133,41.016,0
1582221895.665,5.859,27.344,37.109,33.203,0
1582221895.669,-3.418,29.785,34.180,21.484,0
1582221895.672,-0.488,33.203,29.297,25.391,0
1582221895.676,0.000,33.203,27.344,20.508,0
1582221895.680,7.812,39.062,28.320,19.043,0
1582221895.684,18.066,36.133,32.227,25.879,0
1582221895.688,23.438,30.762,29.785,27.344,0
1582221895.690,22.461,39.062,27.344,22.461,0
1582221895.694,11.230,40.039,29.297,19.043,0
1582221895.698,2.930,32.715,32.715,20.020,0
1582221895.702,7.324,29.297,35.645,22.461,0
1582221895.706,16.602,29.297,31.250,21.973,0
1582221895.710,13.672,32.715,27.832,20.020,0
1582221895.714,10.254,32.227,27.832,29.785,0
1582221895.717,11.230,34.180,27.344,32.715,0
1582221895.721,22.949,32.715,27.832,24.414,0
1582221895.725,29.785,24.902,27.344,20.020,0
1582221895.729,18.555,20.996,30.273,18.066,0
1582221895.733,10.742,34.180,26.367,16.602,0
1582221895.735,15.625,25.391,23.438,17.578,0
1582221895.739,20.508,18.066,27.344,19.043,0
1582221895.743,16.602,40.039,25.879,20.020,0
1582221895.747,15.625,37.109,28.809,22.461,0
1582221895.751,12.207,32.227,33.203,22.461,0
1582221895.755,18.555,29.785,29.297,18.555,0
1582221895.759,19.043,23.438,27.832,18.555,0
1582221895.762,10.742,33.203,26.855,25.391,0
1582221895.766,12.695,38.574,23.926,28.320,0
1582221895.770,12.695,40.527,23.926,20.996,0
1582221895.774,20.020,39.551,25.879,19.531,0
1582221895.778,22.949,32.227,22.461,31.250,0
1582221895.780,13.184,25.879,20.508,35.645,0
1582221895.784,22.461,15.625,20.996,30.273,0
1582221895.788,37.598,18.555,20.996,33.203,0
1582221895.792,30.762,30.762,20.508,31.738,0
1582221895.796,16.602,41.504,20.020,30.762,0
1582221895.800,19.531,41.504,20.996,25.879,0
1582221895.804,28.809,40.039,21.973,18.555,0
1582221895.807,26.367,41.504,23.438,20.996,0
1582221895.811,20.020,37.109,23.438,21.484,0
1582221895.815,23.926,26.367,25.879,22.949,0
1582221895.819,21.484,12.207,29.297,17.090,0
1582221895.823,17.090,31.738,27.832,13.184,0
1582221895.825,11.230,46.875,23.926,10.742,0
1582221895.829,11.719,34.668,22.949,7.812,0
1582221895.833,20.508,28.809,25.391,8.789,0
1582221895.837,26.367,36.133,23.926,16.113,0
1582221895.841,23.926,43.457,23.438,20.020,0
1582221895.845,18.066,32.715,28.320,14.160,0
1582221895.849,20.020,29.297,30.273,19.531,0
1582221895.852,22.949,30.762,23.926,26.855,0
1582221895.856,20.020,27.832,22.949,28.320,0
1582221895.860,16.113,30.273,23.438,37.109,0
1582221895.864,15.625,24.414,22.461,32.715,0
1582221895.868,24.902,29.297,23.926,26.855,0
1582221895.870,34.180,39.062,25.879,30.762,0
1582221895.874,30.762,31.738,27.344,30.273,0
1582221895.878,20.996,28.809,26.855,25.391,0
1582221895.882,21.973,41.992,26.367,23.926,0
1582221895.886,22.461,41.016,24.414,18.066,0
1582221895.890,8.789,39.551,21.484,16.113,0
1582221895.894,9.277,35.645,23.438,20.508,0
1582221895.897,18.555,7.812,20.508,16.602,0
1582221895.901,20.508,18.066,19.531,12.695,0
1582221895.905,13.672,46.387,17.090,10.254,0
1582221895.909,4.395,42.480,18.555,9.277,0
1582221895.913,15.625,41.504,24.902,13.184,0
1582221895.915,21.973,38.086,23.438,17.090,0
1582221895.919,11.230,24.902,25.391,16.113,0
1582221895.923,13.184,22.461,25.391,21.973,0
1582221895.927,15.137,27.832,20.020,21.973,0
1582221895.931,12.207,31.738,21.973,15.137,0
1582221895.935,14.648,32.715,19.043,21.973,0
1582221895.939,11.230,25.391,14.648,22.461,0
1582221895.942,6.836,17.090,15.625,22.949,0
1582221895.946,8.789,14.160,18.066,23.438,0
1582221895.950,19.043,27.832,17.578,20.996,0
1582221895.954,21.973,40.527,16.602,28.320,0
1582221895.958,20.020,33.203,20.508,32.227,0
1582221895.960,25.879,31.250,20.020,25.391,0
1582221895.964,24.414,34.180,19.531,21.484,0
1582221895.968,18.066,28.809,21.484,22.461,0
1582221895.972,18.066,23.438,23.438,24.902,0
1582221895.976,20.020,28.809,23.438,24.902,0
1582221895.980,19.043,40.039,20.508,16.602,0
1582221895.984,21.973,35.156,21.973,19.043,0
1582221895.987,24.414,39.062,25.879,21.484,0
1582221895.991,15.625,28.809,26.855,14.648,0
1582221895.995,10.742,19.043,25.391,12.207,0
1582221895.999,9.766,42.969,26.855,5.371,0
1582221896.003,8.789,42.480,26.367,10.254,0
1582221896.020,10.742,34.668,22.949,19.043,0
1582221896.024,8.301,23.926,23.926,7.812,0
1582221896.028,11.230,19.043,22.949,2.441,0
1582221896.032,7.324,32.227,24.414,2.441,0
1582221896.036,1.953,41.504,21.973,2.441,0
1582221896.040,4.883,38.086,19.043,11.719,0
1582221896.044,14.648,22.461,22.949,20.020,0
1582221896.047,16.602,27.832,24.414,22.461,0
1582221896.051,14.648,40.039,21.484,26.855,0
1582221896.055,18.555,39.551,20.508,35.645,0
1582221896.059,23.438,29.785,20.508,31.738,0
1582221896.063,25.879,19.531,21.973,27.344,0
1582221896.065,26.367,26.855,21.484,35.645,0
1582221896.069,25.879,22.461,15.137,27.832,0
1582221896.073,18.066,14.648,17.578,14.160,0
1582221896.077,13.184,27.832,24.414,17.578,0
1582221896.081,17.578,35.156,22.949,24.414,0
1582221896.085,18.555,30.273,20.020,27.344,0
1582221896.089,10.742,41.992,18.555,21.484,0
1582221896.092,6.836,37.109,19.531,12.695,0
1582221896.096,10.742,22.949,23.438,17.578,0
1582221896.100,10.742,22.949,27.344,24.902,0
1582221896.104,15.625,29.297,27.832,26.367,0
1582221896.108,10.254,34.668,28.809,15.625,0
1582221896.110,5.371,22.461,26.855,9.766,0
1582221896.114,12.207,20.508,20.996,18.066,0
1582221896.118,8.789,38.574,20.996,24.414,0
1582221896.122,15.137,29.297,21.973,21.973,0
1582221896.126,12.695,9.277,23.438,15.137,0
1582221896.130,7.812,27.344,23.438,20.020,0
1582221896.134,10.742,42.969,21.484,20.020,0
1582221896.137,17.090,30.273,20.508,16.113,0
1582221896.141,19.531,30.762,21.973,16.113,0
1582221896.145,12.695,40.527,24.414,10.742,0
1582221896.149,7.812,32.715,24.902,14.160,0
1582221896.153,8.789,29.785,25.879,17.090,0
1582221896.155,17.090,37.598,26.367,16.113,0
1582221896.159,27.344,38.086,23.926,25.391,0
1582221896.163,24.414,33.203,23.926,31.250,0
1582221896.167,22.949,20.020,23.926,32.227,0
1582221896.171,34.668,19.043,25.879,32.227,0
1582221896.175,30.273,27.344,28.809,27.344,0
1582221896.179,9.766,30.762,28.809,19.043,0
1582221896.182,2.441,36.133,30.762,16.113,0
1582221896.186,10.742,38.086,30.273,12.207,0
1582221896.190,10.742,39.551,26.855,4.883,0
1582221896.194,-1.953,32.715,25.391,4.883,0
1582221896.198,-3.906,29.785,28.809,8.301,0
1582221896.199,2.441,29.297,28.809,8.789,0
1582221896.203,17.090,29.785,24.414,18.066,0
1582221896.207,13.672,20.508,27.344,25.391,0
1582221896.211,8.301,15.137,25.391,25.879,0
1582221896.215,18.555,27.832,25.879,27.344,0
1582221896.219,24.414,44.434,28.320,19.531,0
1582221896.223,20.996,47.363,29.297,20.996,0
1582221896.226,19.531,34.668,27.832,27.344,0
1582221896.230,20.508,29.297,24.414,19.043,0
1582221896.234,25.879,35.156,24.414,20.020,0
1582221896.238,28.809,30.762,25.391,21.973,0
1582221896.242,23.438,33.203,25.391,20.996,0
1582221896.244,26.855,28.809,28.320,33.203,0
1582221896.248,27.832,33.203,33.203,26.855,0
1582221896.252,22.949,34.668,28.320,16.602,0
1582221896.256,20.996,17.578,23.926,27.832,0
1582221896.260,15.625,30.273,27.344,28.320,0
1582221896.264,23.438,42.480,23.438,27.832,0
1582221896.268,28.320,44.922,20.996,28.320,0
1582221896.271,18.066,44.434,25.391,13.672,0
1582221896.275,11.719,32.715,31.250,5.859,0
1582221896.279,8.301,28.320,31.250,13.184,0
1582221896.283,9.277,29.297,28.320,15.625,0
1582221896.287,6.836,35.156,26.855,11.719,0
1582221896.289,7.812,33.203,30.762,15.625,0
1582221896.293,18.555,25.391,32.227,18.555,0
1582221896.297,10.254,25.879,30.762,8.789,0
1582221896.301,12.695,32.227,29.785,12.695,0
1582221896.305,27.832,27.832,27.832,24.902,0
1582221896.309,22.461,31.738,25.879,28.809,0
1582221896.313,26.855,37.109,25.879,24.902,0
1582221896.316,32.227,35.156,27.344,17.090,0
1582221896.320,28.809,27.832,26.855,23.926,0
1582221896.324,20.996,31.738,26.367,26.367,0
1582221896.328,20.508,42.480,27.344,25.391,0
1582221896.332,26.367,41.504,26.855,22.461,0
1582221896.334,22.461,37.109,26.367,20.508,0
1582221896.338,16.113,31.738,26.855,22.949,0
1582221896.342,14.648,35.156,24.902,18.555,0
1582221896.346,7.324,33.691,26.855,12.207,0
1582221896.350,5.371,33.203,29.297,10.742,0
1582221896.354,1.465,40.039,28.809,7.324,0
1582221896.358,-3.418,35.156,31.738,-1.953,0
1582221896.361,-7.324,29.785,31.250,-9.277,0
1582221896.365,-15.137,42.480,29.297,-8.301,0
1582221896.369,-18.066,49.316,33.691,-4.883,0
1582221896.373,-31.250,46.387,33.203,-14.648,0
1582221896.377,-40.527,45.898,40.527,-23.438,17041
1582221896.394,-41.016,42.480,54.199,-22.949,0
1582221896.398,-42.480,45.410,52.246,-23.926,0
1582221896.402,-40.039,63.965,52.246,-23.926,0
1582221896.406,-36.133,64.941,59.082,-35.156,0
1582221896.410,-41.504,52.246,62.012,-50.293,0
1582221896.414,-52.734,56.641,75.195,-56.152,0
1582221896.418,-57.617,61.035,77.637,-59.570,0
1582221896.421,-56.152,64.453,62.012,-70.801,0
1582221896.425,-61.523,88.379,66.895,-83.008,0
1582221896.429,-76.172,87.891,72.266,-96.191,0
1582221896.433,-96.680,88.379,70.801,-109.375,0
1582221896.437,-119.141,92.773,70.801,-120.605,0
1582221896.439,-125.000,95.215,79.102,-121.094,0
1582221896.443,-134.766,93.750,87.891,-129.395,0
1582221896.447,-156.738,85.938,81.055,-149.414,0
1582221896.451,-164.551,81.543,77.148,-150.391,0
1582221896.455,-164.551,81.055,79.590,-155.273,0
1582221896.459,-164.551,79.590,83.984,-165.039,0
1582221896.463,-158.203,78.613,77.637,-154.297,0
1582221896.466,-148.438,103.516,72.754,-145.508,0
1582221896.470,-141.113,94.238,77.148,-145.020,0
1582221896.474,-132.324,76.660,77.637,-134.766,0
1582221896.478,-124.023,60.547,76.660,-112.793,0
1582221896.482,-111.816,57.129,79.102,-96.680,0
1582221896.484,-102.051,75.684,76.660,-91.309,0
1582221896.488,-90.820,84.961,67.871,-81.543,0
1582221896.492,-69.824,72.266,69.336,-64.941,0
1582221896.496,-57.129,44.922,72.266,-54.688,0
1582221896.500,-41.992,68.359,63.477,-40.527,0
1582221896.504,-30.273,82.031,55.176,-22.949,0
1582221896.508,-29.785,64.453,52.734,-23.438,0
1582221896.511,-26.367,57.617,48.828,-22.461,0
1582221896.515,-15.137,49.316,45.410,-10.742,0
1582221896.519,4.395,36.621,44.434,-7.324,0
1582221896.523,10.742,37.598,40.527,0.977,0
1582221896.527,2.930,37.109,32.715,0.977,0
1582221896.529,-7.812,35.156,25.879,-1.953,0
1582221896.533,6.836,34.180,26.855,9.766,0
1582221896.537,21.484,18.555,26.367,21.973,0
1582221896.541,17.578,27.344,20.508,21.484,0
1582221896.545,20.020,40.527,20.508,26.367,0
1582221896.549,23.438,32.715,11.719,28.809,0
1582221896.553,43.945,36.133,0.977,37.109,0
1582221896.556,56.152,20.508,0.488,55.176,0
1582221896.560,56.641,19.531,-1.953,65.918,0
1582221896.564,64.453,38.574,-4.395,74.219,0
1582221896.568,70.801,34.180,-4.883,82.031,0
1582221896.572,83.496,24.902,-3.418,80.566,0
1582221896.575,87.402,21.484,-4.395,86.426,0
1582221896.579,85.938,19.043,-6.836,94.238,0
1582221896.583,94.727,19.531,-7.812,100.098,0
1582221896.587,94.727,20.996,-8.789,106.445,0
1582221896.591,102.539,21.973,-11.230,109.863,0
1582221896.595,109.375,19.043,-13.672,115.234,0
1582221896.599,111.816,0.000,-12.207,119.629,0
1582221896.602,113.770,-5.371,-10.254,114.258,0
1582221896.606,104.492,11.230,-11.230,107.910,0
1582221896.610,98.145,9.766,-11.719,109.863,0
1582221896.614,102.539,5.371,-13.672,112.793,0
1582221896.618,107.910,11.230,-13.672,107.422,0
1582221896.620,102.539,4.883,-11.719,98.145,0
1582221896.624,100.098,-1.953,-12.207,105.469,0
1582221896.628,98.633,2.441,-12.695,99.121,0
1582221896.632,96.191,-6.348,-14.160,91.309,0
1582221896.636,102.051,-4.883,-13.184,99.121,0
1582221896.640,101.562,5.371,-11.230,106.445,0
1582221896.644,101.074,1.465,-10.742,108.887,0
1582221896.647,102.051,0.488,-10.254,105.469,0
1582221896.651,101.562,0.488,-6.836,110.840,0
1582221896.655,98.633,-1.953,-4.395,113.281,0
1582221896.659,97.168,3.418,-4.395,105.469,0
1582221896.663,99.609,11.230,-4.395,102.051,0
1582221896.665,97.656,11.719,-1.465,92.773,0
1582221896.669,89.355,4.395,1.465,89.355,0
1582221896.673,86.914,5.371,-0.488,90.820,0
1582221896.677,86.914,6.836,-0.488,85.449,0
1582221896.681,87.891,0.488,3.418,87.891,0
1582221896.685,83.008,4.395,3.906,87.891,0
1582221896.689,73.730,20.020,3.418,80.078,0
1582221896.692,75.684,28.320,3.418,78.125,0
1582221896.696,80.078,20.508,1.953,78.613,0
1582221896.700,68.848,15.625,12.207,68.848,0
1582221896.704,59.570,29.297,18.555,65.430,0
1582221896.708,54.199,28.320,13.672,56.641,0
1582221896.710,54.688,31.738,21.973,50.781,0
1582221896.714,39.551,46.875,23.438,43.457,0
1582221896.718,17.090,46.875,30.762,19.043,0
1582221896.722,3.906,54.688,48.340,4.395,0
1582221896.726,-27.832,60.059,40.527,-25.391,0
1582221896.730,-55.176,62.988,42.969,-51.758,0
1582221896.734,-71.777,76.660,63.477,-66.406,0
1582221896.737,-115.234,85.938,64.453,-102.539,0
1582221896.741,-146.973,89.355,62.988,-138.672,0
1582221896.745,-151.367,87.891,68.848,-161.621,0
1582221896.749,-159.668,87.402,78.125,-170.410,0
1582221896.753,-170.410,95.703,84.961,-172.852,0
1582221896.770,-176.758,98.633,83.008,-175.293,0
1582221896.774,-166.016,90.820,86.426,-171.387,0
1582221896.778,-159.668,87.402,89.844,-162.598,0
1582221896.782,-171.875,88.867,92.773,-158.203,0
1582221896.786,-162.109,101.074,94.727,-151.367,0
1582221896.790,-131.348,104.492,88.379,-140.625,0
1582221896.794,-123.047,83.496,84.473,-124.023,0
1582221896.797,-114.258,75.684,87.891,-104.004,0
1582221896.801,-100.586,72.754,84.473,-101.074,0
1582221896.805,-85.938,60.059,77.637,-92.285,0
1582221896.809,-67.383,67.871,73.242,-77.637,0
1582221896.813,-65.430,62.500,70.312,-67.383,0
1582221896.815,-49.805,54.199,65.430,-47.363,0
1582221896.819,-29.785,43.945,61.035,-28.809,0
1582221896.823,-13.672,35.156,56.152,-18.555,0
1582221896.827,0.000,34.668,48.828,-5.859,0
1582221896.831,5.859,41.016,39.062,13.672,0
1582221896.835,17.578,19.531,29.785,26.855,0
1582221896.839,35.156,3.906,25.391,32.227,0
1582221896.842,47.852,20.996,19.043,41.016,0
1582221896.846,54.199,16.113,9.766,51.758,0
1582221896.850,60.059,11.230,8.789,57.617,0
1582221896.854,65.918,14.160,6.348,65.430,0
1582221896.858,73.242,10.254,0.977,72.754,0
1582221896.860,73.730,8.301,0.977,78.125,0
1582221896.864,80.078,9.277,-1.465,87.891,0
1582221896.868,85.938,2.441,-4.883,88.379,0
1582221896.872,89.844,-3.418,-9.277,89.355,0
1582221896.876,98.633,7.812,-10.742,104.004,0
1582221896.880,97.168,11.719,-9.766,105.957,0
1582221896.884,99.609,-4.395,-13.184,94.238,0
1582221896.887,109.863,-19.043,-15.625,98.145,0
1582221896.891,111.816,-3.418,-13.672,103.027,0
1582221896.895,107.422,19.531,-11.719,102.539,0
1582221896.899,103.516,20.508,-17.090,104.492,0
1582221896.903,98.145,0.977,-23.926,101.074,0
1582221896.905,102.539,-14.160,-19.531,103.516,0
1582221896.909,100.586,-4.883,-13.672,104.004,0
1582221896.913,99.609,4.395,-13.672,106.934,0
1582221896.917,104.004,3.418,-11.230,107.910,0
1582221896.921,104.980,-0.977,-11.230,99.121,0
1582221896.925,102.539,-2.930,-12.695,106.445,0
1582221896.929,96.680,-2.930,-8.789,117.676,0
1582221896.932,100.098,-7.324,-5.371,105.957,0
1582221896.936,109.863,-12.695,1.465,96.191,0
1582221896.940,112.305,-18.066,0.000,100.098,0
1582221896.944,98.145,-2.930,-6.348,97.656,0
1582221896.948,90.332,19.531,-3.418,96.680,0
1582221896.950,92.285,7.324,-0.977,101.562,0
1582221896.954,91.309,7.812,-3.418,95.703,0
1582221896.958,80.566,15.137,-6.348,91.797,0
1582221896.962,79.590,8.789,-4.883,90.820,0
1582221896.966,84.473,8.789,-2.441,88.867,0
1582221896.970,79.590,7.812,-1.953,92.285,0
1582221896.974,80.078,-2.930,0.977,89.355,0
1582221896.977,82.031,-8.789,3.906,83.008,0
1582221896.981,72.754,9.766,0.977,77.148,0
1582221896.985,69.824,19.531,-3.418,77.637,0
1582221896.989,66.895,11.230,1.465,75.684,0
1582221896.993,65.918,6.836,6.836,77.148,0
1582221896.995,68.359,9.766,6.348,79.590,0
1582221896.999,70.312,20.508,5.371,68.848,0
1582221897.003,63.477,15.137,5.371,65.918,0
1582221897.007,49.805,10.742,5.371,63.477,0
1582221897.011,49.805,19.043,8.789,59.570,0
1582221897.015,55.664,2.930,11.230,57.129,0
1582221897.019,54.688,3.418,10.742,62.012,0
1582221897.022,57.617,27.344,13.184,65.918,0
1582221897.026,51.758,23.438,12.695,62.988,0
1582221897.030,47.852,-1.465,12.695,63.965,0
1582221897.034,55.176,1.465,13.184,67.383,0
1582221897.038,49.805,20.508,12.207,65.918,0
1582221897.040,55.176,19.043,14.648,62.012,0
1582221897.044,59.570,15.625,13.672,63.965,0
1582221897.048,50.293,21.484,12.695,59.570,0
1582221897.052,47.852,25.391,14.160,59.082,0
1582221897.056,42.969,15.137,13.184,55.176,0
1582221897.060,41.992,25.879,13.672,49.805,0
1582221897.064,52.734,28.809,18.066,52.246,0
1582221897.067,55.176,15.625,20.996,51.758,0
1582221897.071,43.945,21.973,20.996,53.223,0
1582221897.075,41.504,27.344,23.926,53.711,0
1582221897.079,43.457,13.184,25.879,49.805,0
1582221897.083,42.969,9.277,22.461,42.480,0
1582221897.100,39.551,20.996,21.973,41.504,0
1582221897.104,37.598,28.809,20.508,46.387,0
1582221897.108,35.645,28.809,20.020,37.109,0
1582221897.112,31.250,22.461,21.484,29.785,0
1582221897.116,36.133,31.738,18.066,36.621,0
1582221897.120,36.621,43.457,20.508,33.691,0
1582221897.124,26.855,35.156,19.043,31.250,0
1582221897.127,30.762,27.832,16.113,38.574,0
1582221897.131,36.621,22.949,19.043,38.574,0
1582221897.135,28.320,22.461,17.578,29.297,0
1582221897.139,32.715,24.902,12.695,30.762,0
1582221897.143,35.156,21.484,11.230,31.250,0
1582221897.160,26.855,20.996,11.719,23.438,0
1582221897.164,22.949,22.949,14.160,22.949,0
1582221897.168,25.879,18.066,15.137,27.344,0
1582221897.172,28.809,11.230,15.625,26.367,0
1582221897.176,22.461,32.715,20.020,21.973,0
1582221897.180,12.695,49.805,22.461,21.484,0
1582221897.184,23.926,41.992,21.484,26.855,0
1582221897.187,36.133,29.785,20.020,29.297,0
1582221897.191,33.203,30.273,20.020,26.855,0
1582221897.195,31.250,37.598,21.484,28.809,0
1582221897.199,29.297,24.414,22.949,34.668,0
1582221897.203,22.949,21.484,21.973,28.809,0
1582221897.190,18.555,33.691,23.926,22.461,0
1582221897.194,23.438,33.203,27.832,26.855,0
1582221897.198,22.949,25.391,27.344,35.156,0
1582221897.202,19.531,21.484,28.320,36.621,0
1582221897.206,26.855,31.738,29.297,33.691,0
1582221897.210,21.484,27.832,30.273,28.320,0
1582221897.214,16.602,20.996,29.297,26.855,0
1582221897.217,9.766,33.203,29.297,28.809,0
1582221897.221,11.719,38.574,28.809,28.320,0
1582221897.225,27.344,38.574,25.391,31.738,0
1582221897.229,23.438,33.203,23.926,30.273,0
1582221897.233,24.414,32.227,22.461,35.156,0
1582221897.235,26.367,30.762,18.066,35.645,0
1582221897.239,23.438,31.250,18.066,20.508,0
1582221897.243,21.484,23.926,21.484,13.672,0
1582221897.247,21.484,28.809,23.438,13.672,0
1582221897.251,17.090,38.086,27.344,14.648,0
1582221897.255,4.883,35.645,27.344,10.254,0
1582221897.259,12.207,26.367,26.367,6.348,0
1582221897.262,28.320,21.484,30.762,17.090,0
1582221897.266,30.273,30.762,32.227,22.461,0
1582221897.270,32.715,36.133,27.344,12.695,0
1582221897.274,37.598,33.203,25.879,11.230,0
1582221897.278,32.715,21.973,32.227,16.113,0
1582221897.280,27.344,20.020,28.809,21.484,0
1582221897.284,22.461,34.668,24.414,26.855,0
1582221897.288,17.090,47.363,27.344,21.973,0
1582221897.292,4.883,42.480,26.367,14.160,0
1582221897.296,-2.441,39.062,24.902,15.625,0
1582221897.300,2.441,39.551,23.926,17.578,0
1582221897.304,0.000,31.738,25.391,15.625,0
1582221897.307,-11.719,29.785,22.949,2.930,0
1582221897.311,-10.742,23.926,20.996,-1.953,0
1582221897.315,2.930,19.531,19.531,5.859,0
1582221897.319,5.371,30.762,17.578,10.742,0
1582221897.323,7.812,32.227,19.531,12.207,0
1582221897.476,7.324,36.133,20.020,5.859,0
1582221897.480,10.254,33.203,17.578,15.625,0
1582221897.484,12.207,22.949,22.461,29.785,0
1582221897.488,3.418,30.762,22.461,18.555,0
1582221897.492,6.836,47.852,17.090,11.719,0
1582221897.496,12.207,48.828,15.137,15.625,0
1582221897.500,2.930,39.062,13.672,11.230,0
1582221897.503,1.953,29.297,13.672,11.719,0
1582221897.507,15.625,30.273,16.113,13.672,0
1582221897.511,15.625,34.180,19.043,5.859,0
1582221897.515,10.742,28.320,17.578,6.348,0
1582221897.519,16.602,32.227,18.555,13.184,0
1582221897.477,15.625,36.133,17.090,14.648,0
1582221897.481,12.207,37.109,20.020,19.043,0
1582221897.485,14.160,41.992,21.973,17.578,0
1582221897.489,8.789,32.227,20.020,6.348,0
1582221897.493,3.906,20.508,20.020,10.742,0
1582221897.497,1.465,38.086,19.531,17.578,0
1582221897.501,-0.488,40.527,19.531,13.672,0
1582221897.504,5.859,33.691,20.996,11.719,0
1582221897.508,3.906,34.668,20.508,10.742,0
1582221897.512,-1.465,35.156,18.555,18.066,0
1582221897.516,5.859,31.250,18.066,13.184,0
1582221897.520,9.277,23.926,17.090,5.859,0
1582221897.483,19.531,32.715,17.090,14.160,0
1582221897.487,14.160,29.297,17.090,10.742,0
1582221897.491,11.719,18.066,22.461,9.766,0
1582221897.495,17.090,27.832,23.926,14.160,0
1582221897.499,11.719,31.738,18.555,12.207,0
1582221897.503,10.742,27.832,19.531,15.137,0
1582221897.507,6.348,37.109,20.020,12.695,0
1582221897.510,1.953,36.133,20.020,15.625,0
1582221897.514,1.465,29.785,20.508,20.020,0
1582221897.518,7.812,28.809,21.973,25.879,0
1582221897.522,4.883,24.902,21.973,34.180,0
1582221897.526,-9.277,17.090,23.926,26.367,0
1582221897.485,-4.395,18.066,25.879,21.484,0
1582221897.489,11.230,25.391,24.414,17.090,0
1582221897.493,16.602,37.598,24.902,14.160,0
1582221897.497,17.090,36.133,24.414,20.996,0
1582221897.501,17.090,37.598,28.320,17.090,0
1582221897.505,23.438,47.852,29.785,8.301,0
1582221897.509,26.855,40.039,25.391,9.277,0
1582221897.512,27.344,39.551,25.391,13.672,0
1582221897.516,35.645,41.016,26.855,22.949,0
1582221897.520,32.715,37.109,26.855,23.926,0
1582221897.524,29.297,32.715,27.832,20.020,0
1582221897.528,34.180,35.645,25.391,24.902,0
1582221897.519,31.250,35.645,28.809,33.691,0
1582221897.523,25.879,29.785,34.180,31.738,0
1582221897.527,27.344,33.691,24.414,24.414,0
1582221897.531,16.602,38.086,19.531,19.531,28030
1582221897.535,10.742,35.156,20.020,28.320,0
1582221897.539,21.973,29.785,19.531,37.109,0
1582221897.543,21.973,41.504,21.484,31.250,0
1582221897.546,17.578,37.598,22.949,28.809,0
1582221897.550,12.695,21.484,24.902,35.156,0
1582221897.554,18.066,24.902,25.391,32.227,0
1582221897.558,29.297,31.250,25.879,30.762,0
1582221897.562,28.320,32.227,26.855,34.180,0
1582221897.564,21.973,31.738,28.320,32.715,0
1582221897.568,15.137,38.086,27.832,26.855,0
1582221897.572,19.531,30.762,30.273,23.926,0
1582221897.576,28.809,25.391,30.273,24.414,0
1582221897.580,25.879,29.297,30.762,23.926,0
1582221897.584,25.879,29.785,32.715,24.414,0
1582221897.588,40.039,27.344,31.250,25.391,0
1582221897.591,48.340,25.391,30.762,25.391,0
1582221897.595,35.156,35.156,27.832,30.273,0
1582221897.599,27.344,42.480,26.367,29.297,0
1582221897.603,31.250,40.527,26.855,19.043,0
1582221897.607,34.180,39.551,27.832,17.578,0
1582221897.609,29.297,42.969,34.180,18.555,0
1582221897.613,15.625,34.668,34.668,13.672,0
1582221897.617,22.949,17.578,30.762,17.090,0
1582221897.621,20.020,29.297,30.762,20.508,0
1582221897.625,12.695,34.668,29.785,20.996,0
1582221897.629,14.648,19.531,32.227,18.066,0
1582221897.633,20.508,25.879,29.297,23.926,0
1582221897.636,28.809,41.992,23.438,32.227,0
1582221897.640,26.855,24.414,23.926,25.391,0
1582221897.644,23.438,18.066,26.855,25.879,0
1582221897.648,12.207,41.016,26.367,26.855,0
1582221897.652,23.926,40.039,27.344,24.902,0
1582221897.654,26.855,35.156,27.344,22.461,0
1582221897.658,20.508,33.691,26.855,25.879,0
1582221897.662,30.762,33.203,29.785,39.062,0
1582221897.666,33.203,32.715,29.297,41.016,0
1582221897.670,35.645,30.762,29.785,35.156,0
1582221897.674,36.621,38.086,26.367,37.598,0
1582221897.678,25.391,43.457,21.484,39.551,0
1582221897.681,24.902,32.715,23.926,40.527,0
1582221897.685,37.109,27.832,26.855,33.691,0
1582221897.689,29.785,29.297,28.320,26.367,0
1582221897.693,22.949,16.113,31.250,33.203,0
1582221897.697,26.855,16.113,28.320,32.715,0
1582221897.699,33.691,41.504,25.391,30.762,0
1582221897.703,34.180,38.086,27.832,31.738,0
1582221897.707,28.809,23.926,28.320,22.949,0
1582221897.711,15.137,35.156,22.461,19.043,0
1582221897.715,13.672,37.109,17.578,20.996,0
1582221897.719,26.367,33.691,17.090,20.508,0
1582221897.723,19.043,30.762,19.531,18.555,0
1582221897.726,15.625,29.297,21.973,18.555,0
1582221897.730,18.555,35.645,21.973,18.066,0
1582221897.734,17.578,36.621,20.020,20.020,0
1582221897.738,16.602,30.273,22.461,20.508,0
1582221897.742,16.602,29.785,27.344,23.926,0
1582221897.745,22.461,29.785,29.297,23.926,0
1582221897.749,24.902,33.691,26.855,25.879,0
1582221897.753,25.879,32.227,20.508,33.203,0
1582221897.757,26.855,19.531,23.926,26.367,0
1582221897.761,26.855,24.902,24.414,25.879,0
1582221897.765,27.344,38.574,20.996,29.297,0
1582221897.769,20.508,42.969,20.996,20.020,0
1582221897.772,17.578,35.645,20.020,17.090,0
1582221897.776,17.090,30.762,20.508,20.020,0
1582221897.780,22.949,42.969,21.973,20.996,0
1582221897.784,26.367,39.062,21.973,17.578,0
1582221897.788,29.297,32.227,21.484,15.137,0
1582221897.790,23.926,33.203,24.414,19.043,0
1582221897.794,16.113,34.668,26.367,18.066,0
1582221897.798,20.508,33.691,26.855,12.207,0
1582221897.802,20.020,23.926,30.762,14.160,0
1582221897.806,13.184,28.320,30.273,16.113,0
1582221897.810,8.789,21.484,28.809,13.672,0
1582221897.814,16.602,20.020,29.785,12.695,0
1582221897.817,19.043,33.691,26.367,12.695,0
1582221897.821,18.555,36.133,25.391,15.137,0
1582221897.825,28.809,22.949,29.785,22.461,0
1582221897.829,25.391,14.648,33.203,22.949,0
1582221897.833,20.508,28.320,28.809,17.578,0
1582221897.835,17.578,37.598,26.367,18.555,0
1582221897.839,19.531,35.645,29.297,20.996,0
1582221897.843,30.273,34.668,32.715,23.926,0
1582221897.847,23.926,30.762,33.203,21.973,0
1582221897.851,23.438,21.484,30.762,27.344,0
1582221897.855,31.250,28.809,32.227,35.645,0
1582221897.859,29.785,29.785,33.203,26.367,0
1582221897.862,24.902,25.879,28.809,24.902,0
1582221897.866,23.926,29.297,27.344,25.879,0
1582221897.870,18.066,31.250,28.320,24.414,0
1582221897.874,18.555,27.344,26.367,24.414,0
1582221897.878,12.207,25.879,24.902,24.414,0
1582221897.895,7.812,26.855,26.855,23.438,0
1582221897.899,17.090,22.949,26.855,22.461,0
1582221897.903,14.648,31.250,29.297,23.438,0
1582221897.907,19.043,33.203,32.227,19.531,0
1582221897.911,17.090,27.832,30.273,14.160,0
1582221897.915,6.348,35.645,29.297,14.160,0
1582221897.919,11.719,33.691,28.809,12.207,0
1582221897.922,17.090,24.414,28.809,15.625,0
1582221897.926,25.391,30.762,28.320,20.996,0
1582221897.930,18.555,24.902,25.879,17.578,0
1582221897.934,18.066,27.832,26.855,18.066,0
1582221897.938,18.555,33.691,26.855,18.066,0
1582221897.940,22.949,33.691,25.879,17.578,0
1582221897.944,27.832,40.039,25.879,18.555,0
1582221897.948,21.484,40.527,25.879,18.066,0
1582221897.952,20.508,34.668,25.879,11.230,0
1582221897.956,13.672,26.367,26.855,7.812,0
1582221897.960,12.695,29.297,23.926,13.672,0
1582221897.964,5.859,39.062,25.879,14.160,0
1582221897.967,6.348,32.715,32.227,14.160,0
1582221897.971,10.742,26.855,31.738,16.602,0
1582221897.975,4.395,18.555,31.250,15.625,0
1582221897.979,1.465,12.207,33.691,15.625,0
1582221897.983,6.348,24.414,34.668,18.066,0
1582221897.985,12.207,33.203,29.785,18.555,0
1582221897.989,12.695,33.203,27.832,11.719,0
1582221897.993,10.742,34.668,31.738,11.719,0
1582221897.997,13.184,38.086,35.156,20.020,0
1582221898.001,16.113,38.574,35.645,24.414,0
1582221898.005,25.879,39.551,34.668,28.320,0
1582221898.009,25.391,35.156,35.645,22.461,0
1582221898.012,11.719,36.133,33.691,18.066,0
1582221898.016,19.531,24.414,31.250,23.926,0
1582221898.020,23.926,17.578,31.738,23.438,0
1582221898.024,22.949,35.156,33.691,19.043,0
1582221898.028,18.066,35.645,33.203,14.648,0
1582221898.030,21.484,23.438,28.320,21.484,0
1582221898.034,16.602,30.273,29.785,20.996,0
1582221898.038,12.207,41.504,31.250,11.719,0
1582221898.042,6.348,32.227,28.809,6.836,0
1582221898.046,-7.812,32.227,27.344,-2.930,0
1582221898.050,-3.418,33.691,28.809,9.277,0
1582221898.054,8.789,27.344,28.809,24.902,0
1582221898.057,6.348,24.414,23.438,17.090,0
1582221898.061,5.859,33.203,23.438,15.625,0
1582221898.065,9.277,34.180,29.297,19.043,0
1582221898.069,10.254,29.785,29.785,20.020,0
1582221898.073,14.160,29.785,29.785,19.531,0
1582221898.075,17.090,23.926,30.762,25.879,0
1582221898.079,15.625,23.438,28.809,29.785,0
1582221898.083,9.277,18.066,29.297,22.461,0
1582221898.087,12.695,16.602,28.809,20.020,0
1582221898.091,9.277,32.227,30.762,21.973,0
1582221898.095,7.812,36.133,27.344,20.020,0
1582221898.099,12.695,38.574,22.461,19.531,0
1582221898.102,14.160,32.227,25.391,17.090,0
1582221898.106,19.043,26.855,26.367,15.137,0
1582221898.110,19.043,31.738,25.879,11.719,0
1582221898.114,30.762,37.109,27.344,8.789,0
1582221898.118,29.785,37.598,24.414,10.254,0
1582221898.120,20.508,36.621,23.926,7.812,0
1582221898.124,22.461,24.414,27.832,11.230,0
1582221898.128,20.020,8.789,26.855,16.602,0
1582221898.132,16.602,24.902,26.367,17.578,0
1582221898.136,10.254,44.922,29.297,11.719,0
1582221898.140,-0.977,45.410,26.367,11.719,0
1582221898.144,-1.465,43.457,25.879,16.602,0
1582221898.147,6.348,37.109,28.320,9.766,0
1582221898.151,9.277,35.645,28.809,11.719,0
1582221898.155,11.230,33.203,30.762,16.602,0
1582221898.159,13.184,28.809,31.738,13.184,0
1582221898.163,14.160,29.785,26.367,13.672,0
1582221898.165,16.113,26.367,25.391,17.090,0
1582221898.169,14.160,24.902,29.785,26.367,0
1582221898.173,13.672,16.113,30.273,25.391,0
1582221898.177,25.879,30.273,30.762,26.367,0
1582221898.181,19.043,43.457,35.645,24.902,0
1582221898.185,8.301,24.414,32.227,26.855,0
1582221898.189,9.766,32.715,29.785,28.809,0
1582221898.192,7.812,48.340,32.227,15.625,0
1582221898.196,12.695,41.992,30.762,12.695,0
1582221898.200,16.602,32.715,30.273,14.160,0
1582221898.204,9.766,32.227,29.785,12.695,0
1582221898.208,7.324,34.668,29.297,11.230,0
1582221898.210,20.996,30.762,28.809,10.742,0
1582221898.214,27.344,28.809,26.367,13.672,0
1582221898.218,10.742,29.785,25.391,6.836,0
1582221898.222,4.395,30.273,25.391,1.953,0
1582221898.226,19.531,27.344,21.484,5.371,0
1582221898.230,21.484,13.184,21.973,3.906,0
1582221898.234,5.371,29.297,21.973,3.906,0
1582221898.237,0.488,42.969,18.555,3.906,0
1582221898.241,9.277,39.062,20.020,3.906,0
1582221898.245,16.113,41.016,19.043,0.977,0
1582221898.249,18.555,38.574,20.996,0.977,0
1582221898.253,10.742,33.691,22.461,2.930,0
1582221898.270,17.090,32.227,21.484,5.859,0
1582221898.274,25.879,33.203,21.484,15.625,0
1582221898.278,16.602,33.691,19.043,16.602,0
1582221898.282,11.719,37.598,17.090,7.324,0
1582221898.286,21.484,42.969,14.648,11.230,0
1582221898.290,24.414,34.668,20.996,18.555,0
1582221898.294,26.367,20.020,20.996,21.484,0
1582221898.297,21.973,19.043,20.020,22.461,0
1582221898.301,20.508,35.645,23.926,28.809,0
1582221898.305,21.973,44.922,20.508,31.738,0
1582221898.309,12.695,43.457,21.484,21.973,0
1582221898.313,11.230,39.551,24.902,20.020,0
1582221898.315,8.789,25.879,24.902,21.484,0
1582221898.319,11.719,26.855,22.461,18.555,0
1582221898.323,16.113,36.621,23.926,21.484,0
1582221898.327,15.137,27.344,22.949,28.320,0
1582221898.331,11.719,26.367,20.020,26.855,0
1582221898.335,5.371,36.621,20.508,20.508,0
1582221898.339,8.301,37.598,18.066,15.625,0
1582221898.342,16.602,29.785,18.066,17.578,0
1582221898.346,16.602,11.230,20.996,23.438,0
1582221898.350,9.277,20.020,20.508,15.625,0
1582221898.354,6.836,35.156,18.066,11.230,0
1582221898.358,9.277,36.621,20.020,16.602,0
1582221898.360,16.113,48.340,20.996,13.672,0
1582221898.364,20.996,36.133,22.949,16.602,0
1582221898.368,20.020,15.625,23.926,23.438,0
1582221898.372,14.648,26.367,22.461,25.391,0
1582221898.376,15.625,29.785,20.996,20.996,0
1582221898.380,14.160,31.738,20.996,21.973,0
1582221898.384,14.160,39.062,22.461,23.438,0
1582221898.387,23.438,15.625,22.949,25.879,0
1582221898.391,22.949,10.254,22.949,27.832,0
1582221898.395,25.391,37.598,22.461,22.949,0
1582221898.399,19.531,43.457,24.902,20.996,0
1582221898.403,20.020,35.156,27.344,24.414,0
1582221898.405,25.391,36.133,24.902,28.320,0
1582221898.409,21.484,33.691,27.344,27.832,0
1582221898.413,20.508,33.691,28.809,20.996,0
1582221898.417,20.996,37.109,28.809,20.996,0
1582221898.421,26.855,26.367,30.762,25.391,0
1582221898.425,18.066,20.996,28.320,27.832,0
1582221898.429,8.789,21.973,26.855,23.926,0
1582221898.432,22.949,8.789,28.320,21.973,0
1582221898.436,25.879,17.090,26.367,20.508,0
1582221898.440,16.113,36.133,22.461,18.066,0
1582221898.444,12.207,31.250,25.879,16.113,0
1582221898.448,7.324,34.668,26.855,16.113,0
1582221898.450,12.695,39.062,21.484,18.066,0
1582221898.454,15.625,30.762,20.020,9.277,0
1582221898.458,8.789,38.086,17.090,10.254,0
1582221898.462,7.812,35.645,15.625,15.625,0
1582221898.466,3.418,26.367,16.113,19.531,0
1582221898.470,4.883,26.367,19.043,20.508,0
1582221898.474,10.254,26.855,20.020,23.438,0
1582221898.477,15.625,18.555,18.555,28.809,0
1582221898.481,18.066,13.672,17.578,22.949,0
1582221898.485,15.137,26.855,13.672,22.461,0
1582221898.489,13.184,43.457,11.719,25.879,0
1582221898.493,12.207,42.969,16.113,24.414,0
1582221898.495,17.578,44.434,15.625,23.926,0
1582221898.499,20.508,36.133,12.695,19.531,0
1582221898.503,20.020,20.996,16.602,18.555,0
1582221898.507,20.508,28.809,17.090,22.461,0
1582221898.511,22.949,36.133,16.113,19.043,0
1582221898.515,27.832,33.691,16.113,19.043,0
1582221898.519,31.250,29.297,20.020,22.949,0
1582221898.522,21.484,14.160,21.484,22.949,0
1582221898.526,8.789,25.879,19.043,23.438,0
1582221898.530,17.578,41.504,19.531,25.391,0
1582221898.534,16.113,30.762,19.531,25.391,0
1582221898.538,8.789,37.109,21.484,27.832,0
1582221898.539,11.230,39.551,23.926,33.691,0
1582221898.543,15.137,34.668,25.879,31.738,0
1582221898.547,21.484,29.297,29.297,23.926,0
1582221898.551,18.066,35.156,23.926,21.484,0
1582221898.555,13.672,37.598,17.090,21.484,0
1582221898.559,20.996,30.273,20.996,26.855,0
1582221898.563,23.926,31.250,20.996,24.414,0
1582221898.566,21.484,24.902,21.484,19.531,0
1582221898.570,13.184,18.555,21.484,21.973,0
1582221898.574,15.137,35.645,19.531,24.414,0
1582221898.578,22.461,39.551,22.461,24.414,0
1582221898.582,20.996,39.062,21.973,19.531,0
1582221898.584,20.508,41.016,21.973,22.461,0
1582221898.588,16.602,35.156,25.879,25.879,0
1582221898.592,20.996,41.016,20.996,27.344,0
1582221898.596,21.484,39.062,19.043,33.203,0
1582221898.600,16.602,37.598,21.973,31.738,0
1582221898.604,22.461,36.621,21.973,25.391,0
1582221898.608,24.414,35.645,21.973,27.832,0
1582221898.611,25.879,33.691,21.973,25.391,0
1582221898.615,21.973,26.367,23.926,19.531,0
1582221898.619,15.625,25.879,22.461,16.113,0
1582221898.623,16.602,19.043,19.043,6.836,0
1582221898.627,14.648,21.973,20.996,6.836,0
1582221898.644,9.766,41.016,22.949,7.812,0
1582221898.648,5.371,33.203,23.926,3.418,0
1582221898.652,2.930,33.691,21.973,2.441,0
1582221898.656,2.441,42.480,19.531,9.277,0
1582221898.660,7.324,40.527,24.414,16.113,0
1582221898.664,10.254,35.156,21.973,8.301,0
1582221898.668,10.254,29.785,19.043,6.348,0
1582221898.671,15.625,23.926,21.484,12.207,0
1582221898.675,9.766,22.461,22.949,14.160,0
1582221898.679,9.277,20.996,23.438,21.484,0
1582221898.683,17.090,19.531,24.902,29.297,0
1582221898.687,18.066,32.227,21.973,31.738,0
1582221898.689,17.578,30.762,22.461,25.879,0
1582221898.693,14.648,32.227,21.973,24.414,0
1582221898.697,14.648,40.039,18.066,28.320,0
1582221898.701,12.695,39.551,19.531,22.461,0
1582221898.705,8.789,37.109,20.508,15.137,17040
1582221898.709,11.230,30.273,21.973,12.207,0
1582221898.713,6.836,27.832,23.438,6.348,0
1582221898.716,-3.418,31.738,22.461,4.883,0
1582221898.720,-4.395,29.297,22.949,4.395,0
1582221898.724,-1.465,18.066,22.949,-1.465,0
1582221898.728,0.488,22.461,23.926,-2.441,0
1582221898.732,-9.766,33.203,23.438,1.465,0
1582221898.734,-9.277,32.227,23.926,5.859,0
1582221898.738,3.418,27.344,23.926,6.836,0
1582221898.742,3.418,19.531,25.391,9.766,0
1582221898.746,10.254,27.832,25.879,16.113,0
1582221898.750,16.602,34.668,25.391,14.160,0
1582221898.754,17.578,34.180,25.391,16.602,0
1582221898.758,11.719,38.086,23.438,16.113,0
1582221898.761,8.301,33.691,22.949,23.438,0
1582221898.765,8.789,23.926,20.996,22.949,0
1582221898.769,10.742,35.156,19.043,18.066,0
1582221898.773,8.301,31.250,21.484,22.949,0
1582221898.777,5.371,25.391,25.879,17.090,0
1582221898.779,4.883,42.480,25.391,18.555,0
1582221898.783,12.207,37.598,26.367,18.066,0
1582221898.787,13.672,28.320,31.250,12.695,0
1582221898.791,12.207,33.203,30.273,10.254,0
1582221898.795,16.113,36.621,31.738,10.742,0
1582221898.799,17.578,31.738,32.715,18.066,0
1582221898.803,10.742,30.273,26.855,11.719,0
1582221898.806,12.695,40.039,26.367,3.906,0
1582221898.810,16.113,35.156,27.344,7.324,0
1582221898.814,11.719,31.250,27.832,3.906,0
1582221898.818,17.090,42.969,32.227,6.836,0
1582221898.822,10.742,41.992,33.691,7.812,0
1582221898.824,7.324,40.527,31.250,2.441,0
1582221898.828,10.254,38.574,29.785,4.883,0
1582221898.832,5.859,32.715,33.691,-0.488,0
1582221898.836,8.789,26.367,31.738,-6.836,0
1582221898.840,4.883,23.438,28.320,0.000,0
1582221898.844,1.953,28.320,28.809,13.672,0
1582221898.848,3.906,36.133,27.832,16.113,0
1582221898.851,7.812,41.992,23.438,8.789,0
1582221898.855,8.789,31.738,21.484,14.160,0
1582221898.859,5.859,33.691,20.508,14.160,0
1582221898.863,13.672,34.180,19.531,11.230,0
1582221898.867,19.531,29.297,21.484,13.672,0
1582221898.870,20.996,39.551,23.926,15.625,0
1582221898.874,21.484,44.922,23.926,22.949,0
1582221898.878,20.020,38.086,23.926,21.484,0
1582221898.882,25.391,26.855,24.902,23.926,0
1582221898.886,22.949,24.414,26.367,24.902,0
1582221898.890,27.832,21.973,26.855,25.391,0
1582221898.894,24.902,27.344,24.902,26.855,0
1582221898.897,21.484,41.016,24.902,16.113,0
1582221898.901,27.344,35.156,27.344,14.648,0
1582221898.905,18.066,29.297,25.391,16.602,0
1582221898.909,19.043,30.762,26.855,19.531,0
1582221898.913,19.531,29.297,30.273,22.949,0
1582221898.915,15.137,30.762,27.344,17.090,0
1582221898.919,12.207,33.203,24.414,24.414,0
1582221898.923,12.207,24.414,24.902,35.156,0
1582221898.927,12.207,12.695,28.320,24.902,0
1582221898.931,8.301,27.344,26.367,13.672,0
1582221898.935,7.324,37.598,22.949,16.602,0
1582221898.939,3.418,38.574,24.902,16.113,0
1582221898.942,4.395,39.551,23.926,16.602,0
1582221898.946,6.836,25.879,24.414,17.578,0
1582221898.950,5.371,29.297,23.926,16.113,0
1582221898.954,5.371,36.133,22.949,16.602,0
1582221898.958,3.418,30.273,22.949,15.137,0
1582221898.960,-1.465,35.645,20.996,9.766,0
1582221898.964,7.324,20.508,23.926,12.695,0
1582221898.968,4.883,20.508,26.855,14.160,0
1582221898.972,4.883,33.691,26.855,13.184,0
1582221898.976,11.719,35.156,26.367,16.602,0
1582221898.980,14.160,38.086,25.879,23.438,0
1582221898.984,14.648,32.227,29.297,17.578,0
1582221898.987,19.043,21.973,31.738,12.695,0
1582221898.991,25.391,22.461,31.250,23.438,0
1582221898.995,26.855,23.926,30.273,23.926,0
1582221898.999,25.879,23.926,25.391,20.996,0
1582221899.003,16.113,35.645,22.461,19.043,0
1582221899.020,22.461,35.645,23.438,24.414,0
1582221899.024,22.949,23.438,27.344,25.391,0
1582221899.028,13.672,29.297,28.809,26.367,0
1582221899.032,10.742,36.133,26.855,31.250,0
1582221899.036,10.742,30.273,24.902,31.738,0
1582221899.040,16.113,34.180,25.879,27.344,0
1582221899.044,20.996,35.645,28.809,20.020,0
1582221899.047,22.461,38.086,26.367,18.555,0
1582221899.051,13.184,34.668,24.902,18.066,0
1582221899.055,9.766,31.738,26.367,20.508,0
1582221899.059,19.043,22.949,28.809,21.973,0
1582221899.063,16.113,25.879,30.762,18.555,0
1582221899.065,16.602,28.320,29.297,21.484,0
1582221899.069,22.949,31.738,30.762,25.391,0
1582221899.073,23.926,35.156,31.250,23.926,0
1582221899.077,20.508,23.926,25.879,24.902,0
1582221899.081,13.672,32.227,25.879,23.926,0
1582221899.085,19.043,36.133,26.367,26.855,0
1582221899.089,20.996,28.320,23.926,28.320,0
1582221899.092,17.578,30.273,25.879,29.297,0
1582221899.096,14.160,36.133,24.414,29.297,0
1582221899.100,12.207,39.551,23.438,19.531,0
1582221899.104,19.043,36.621,23.438,11.719,0
1582221899.108,17.578,35.645,21.484,10.254,0
1582221899.110,17.578,27.832,23.926,19.531,0
1582221899.114,10.742,16.113,27.344,22.949,0
1582221899.118,17.090,29.297,30.273,16.113,0
1582221899.122,27.344,41.504,32.227,20.508,0
1582221899.126,24.414,33.203,29.785,23.926,0
1582221899.130,19.043,32.715,25.879,20.020,0
1582221899.134,14.648,32.227,23.438,15.625,0
1582221899.137,19.043,30.273,24.414,14.648,0
1582221899.141,19.531,38.086,23.926,13.184,0
1582221899.145,17.578,41.504,24.902,17.578,0
1582221899.149,20.508,36.621,23.926,24.414,0
1582221899.153,13.184,33.691,23.926,17.090,0
1582221899.155,13.184,36.133,26.855,13.672,0
1582221899.159,20.020,36.621,28.809,17.578,0
1582221899.163,8.789,31.250,27.344,13.672,0
1582221899.167,6.348,22.949,26.855,17.578,0
1582221899.171,11.230,20.020,24.902,19.531,0
1582221899.175,7.324,23.926,20.996,9.766,0
1582221899.179,7.812,31.738,22.461,8.301,0
1582221899.182,15.625,31.738,22.461,13.672,0
1582221899.186,17.578,30.273,23.926,10.742,0
1582221899.190,14.648,23.438,27.832,12.695,0
1582221899.194,20.020,32.227,28.320,20.996,0
1582221899.198,23.926,55.664,31.250,26.367,0
1582221899.200,25.391,46.875,32.227,21.973,0
1582221899.204,20.996,38.086,31.250,23.438,0
1582221899.208,18.555,39.551,32.227,27.344,0
1582221899.212,16.113,40.039,28.320,19.043,0
1582221899.216,16.602,33.691,25.879,11.230,0
1582221899.220,20.020,24.902,29.785,16.113,0
1582221899.224,17.090,32.227,28.809,18.555,0
1582221899.227,10.254,42.969,26.367,13.184,0
1582221899.231,12.207,38.086,25.879,12.695,0
1582221899.235,22.461,33.203,28.809,19.531,0
1582221899.239,19.043,33.203,30.762,24.414,0
1582221899.243,14.648,26.367,25.879,24.902,0
1582221899.245,15.625,16.602,22.461,23.438,0
1582221899.249,20.508,15.625,22.461,13.672,0
1582221899.253,23.438,31.738,20.996,12.695,0
1582221899.257,16.113,34.668,18.555,22.461,0
1582221899.261,8.789,38.574,18.555,20.020,0
1582221899.265,16.113,41.504,18.555,9.766,0
1582221899.269,14.648,33.203,19.531,10.742,0
1582221899.272,12.695,34.180,22.461,11.230,0
1582221899.276,13.672,39.551,21.973,10.254,0
1582221899.280,17.090,38.086,20.996,17.090,0
1582221899.284,15.625,33.203,24.414,17.090,0
1582221899.288,4.395,38.086,25.879,15.137,0
1582221899.290,-0.977,26.367,20.020,22.949,0
1582221899.294,-3.418,21.973,17.090,24.902,0
1582221899.298,12.207,31.250,20.996,20.508,0
1582221899.302,14.648,24.414,26.367,12.695,0
1582221899.306,6.348,34.180,25.879,13.184,0
1582221899.310,7.812,25.879,24.414,14.160,0
1582221899.314,12.207,22.461,25.391,6.348,0
1582221899.317,16.602,43.457,25.391,6.348,0
1582221899.321,5.859,44.922,24.902,7.324,0
1582221899.325,1.465,30.762,20.996,3.418,0
1582221899.329,13.184,24.414,19.043,8.301,0
1582221899.333,11.719,33.691,20.508,9.277,0
1582221899.335,9.766,35.645,20.996,9.277,0
1582221899.339,8.301,34.668,20.020,17.090,0
1582221899.343,8.301,23.926,20.020,20.508,0
1582221899.347,10.254,15.137,23.438,13.672,0
1582221899.351,12.695,26.855,22.949,9.277,0
1582221899.355,16.113,41.016,17.090,10.742,0
1582221899.359,16.113,41.016,15.137,7.812,0
1582221899.362,15.625,38.086,15.137,6.836,0
1582221899.366,8.301,35.156,15.625,9.766,0
1582221899.370,6.348,29.297,14.648,13.672,0
1582221899.374,16.113,25.879,18.555,19.043,0
1582221899.378,13.184,26.855,22.461,17.090,0
1582221899.395,13.184,34.668,21.484,15.137,0
1582221899.399,16.113,36.621,20.508,18.066,0
1582221899.403,11.230,32.715,21.484,18.555,0
1582221899.407,15.625,35.156,22.949,25.391,0
1582221899.411,22.461,35.156,22.461,21.484,0
1582221899.415,22.949,32.715,21.973,15.625,0
1582221899.419,15.625,27.344,20.020,18.066,0
1582221899.422,22.461,24.414,19.043,19.531,0
1582221899.426,32.227,33.691,19.531,21.484,0
1582221899.430,25.391,30.762,23.438,17.578,0
1582221899.434,16.602,38.086,27.832,13.672,0
1582221899.438,15.137,32.227,29.785,17.090,0
1582221899.440,26.855,20.996,29.297,19.043,0
1582221899.444,24.414,29.297,31.250,15.625,0
1582221899.448,11.719,32.715,32.227,12.207,0
1582221899.452,18.066,42.480,30.273,16.113,0
1582221899.456,21.484,42.480,28.320,20.508,0
1582221899.460,17.090,27.832,28.809,21.484,0
1582221899.464,19.531,24.414,27.344,27.344,0
1582221899.467,16.602,25.391,25.879,23.438,0
1582221899.471,13.672,22.461,26.855,18.555,0
1582221899.475,10.742,30.273,26.855,20.020,0
1582221899.479,9.277,34.668,26.855,21.973,0
1582221899.483,14.160,14.648,25.879,27.832,0
1582221899.485,19.531,13.672,25.879,21.973,0
1582221899.489,22.949,24.414,25.879,16.113,0
1582221899.493,15.625,25.391,23.926,18.066,0
1582221899.497,12.207,38.086,26.855,11.230,0
1582221899.501,15.625,43.945,23.438,13.672,0
1582221899.505,22.949,40.039,20.508,14.160,0
1582221899.509,32.715,32.715,26.367,16.113,0
1582221899.512,19.531,23.438,24.902,24.902,0
1582221899.516,19.531,24.414,22.461,20.020,0
1582221899.520,29.785,34.668,24.902,15.137,0
1582221899.524,23.438,35.645,23.926,16.602,0
1582221899.528,18.555,17.090,23.438,18.555,0
1582221899.530,20.996,15.137,25.879,30.762,0
1582221899.534,20.508,32.227,28.809,35.645,0
1582221899.538,21.484,28.809,27.344,26.367,0
1582221899.542,20.996,24.414,29.297,26.367,0
1582221899.546,22.949,34.180,30.273,32.715,0
1582221899.550,26.367,46.387,27.832,32.715,0
1582221899.554,21.484,45.410,28.809,24.414,0
1582221899.557,25.391,41.504,28.809,23.926,0
1582221899.561,23.438,31.250,31.250,20.020,0
1582221899.565,14.160,26.855,30.273,18.555,0
1582221899.569,20.996,27.344,25.391,16.602,0
1582221899.573,23.438,21.484,26.367,14.160,0
1582221899.575,17.578,14.160,27.832,13.184,0
1582221899.579,16.602,33.203,25.391,11.230,0
1582221899.583,22.461,44.922,23.926,8.301,0
1582221899.587,17.578,31.738,21.973,1.953,0
1582221899.591,13.184,32.227,20.020,5.859,0
1582221899.595,6.836,38.086,19.531,9.277,0
1582221899.599,-0.488,41.016,17.090,9.277,0
1582221899.602,8.789,37.598,18.555,12.695,0
1582221899.606,2.441,28.320,22.461,6.348,0
1582221899.610,1.465,18.555,24.902,9.766,0
1582221899.614,8.789,18.555,20.996,20.508,0
1582221899.618,2.930,20.020,20.020,20.020,0
1582221899.619,8.789,18.066,18.555,19.043,0
1582221899.623,15.137,23.926,16.113,18.066,0
1582221899.627,17.090,33.203,17.090,17.578,0
1582221899.631,21.484,29.297,17.578,13.184,0
1582221899.635,21.973,36.133,19.043,11.230,0
1582221899.639,11.230,34.668,18.555,15.137,0
1582221899.643,2.930,22.949,19.043,18.555,0
1582221899.646,17.578,25.391,21.484,16.113,0
1582221899.650,20.508,18.066,23.438,17.578,0
1582221899.654,8.789,21.484,24.414,19.531,0
1582221899.658,7.324,39.062,25.391,13.184,0
1582221899.662,7.324,38.086,25.879,16.113,0
1582221899.664,3.906,34.668,27.344,10.742,0
1582221899.668,3.906,25.391,25.879,12.207,0
1582221899.672,3.906,20.020,20.996,20.996,0
1582221899.676,5.859,27.344,19.531,15.137,0
1582221899.680,10.742,29.785,19.043,13.672,0
1582221899.684,4.395,31.738,17.578,14.160,0
1582221899.688,5.371,31.738,17.578,12.207,0
1582221899.691,13.672,31.250,18.066,12.207,0
1582221899.695,8.789,37.109,21.484,11.230,0
1582221899.699,8.789,27.344,24.902,18.066,0
1582221899.703,15.137,27.344,23.926,22.949,0
1582221899.707,6.348,34.180,21.973,13.672,0
1582221899.709,10.742,31.738,22.461,16.602,0
1582221899.713,13.672,36.621,19.043,22.949,0
1582221899.717,9.766,26.855,16.602,17.578,0
1582221899.721,17.090,22.949,20.996,16.113,0
1582221899.725,18.555,31.250,22.461,15.137,0
1582221899.729,21.973,17.090,19.531,18.066,0
1582221899.733,18.555,29.297,23.438,21.484,0
1582221899.736,16.602,47.363,28.809,26.367,0
1582221899.740,18.066,44.922,31.250,28.809,0
1582221899.744,13.184,29.785,32.227,22.461,0
1582221899.748,8.789,19.043,33.691,21.484,0
1582221899.752,8.789,30.762,30.273,30.273,0
1582221899.769,14.648,25.879,26.367,31.250,0
1582221899.773,15.625,17.578,26.855,20.996,0
1582221899.777,11.719,32.715,28.320,14.648,0
1582221899.781,5.371,36.133,26.367,19.531,0
1582221899.785,8.301,36.133,26.367,24.414,0
1582221899.789,21.973,41.992,30.273,21.973,0
1582221899.793,20.996,35.156,28.320,22.461,0
1582221899.796,18.555,30.273,27.344,21.484,0
1582221899.800,21.484,15.137,30.273,14.160,0
1582221899.804,16.602,22.949,26.855,16.113,0
1582221899.808,26.855,41.504,23.926,22.949,17490
1582221899.812,27.832,44.922,27.344,23.438,0
1582221899.814,17.090,44.922,28.809,20.996,0
1582221899.818,24.414,32.715,33.203,31.738,0
1582221899.822,33.691,21.484,38.086,35.156,0
1582221899.826,29.297,33.691,37.598,29.297,0
1582221899.830,25.391,41.016,33.691,34.180,0
1582221899.834,24.902,37.598,31.250,41.992,0
1582221899.838,20.508,32.715,30.762,31.738,0
1582221899.841,23.438,22.949,29.297,27.832,0
1582221899.845,13.672,21.484,28.320,32.227,0
1582221899.849,10.742,27.832,28.320,26.855,0
1582221899.853,22.949,36.621,29.785,24.414,0
1582221899.857,14.648,27.344,31.250,26.367,0
1582221899.859,1.953,22.461,30.273,21.484,0
1582221899.863,7.812,28.809,29.297,18.555,0
1582221899.867,14.160,27.832,29.785,20.996,0
1582221899.871,27.832,39.551,28.320,25.391,0
1582221899.875,22.949,43.457,32.227,17.090,0
1582221899.879,15.625,33.691,37.109,12.695,0
1582221899.883,27.344,23.438,33.203,12.695,0
1582221899.886,34.668,13.184,29.297,13.672,0
1582221899.890,32.715,36.133,28.809,15.137,0
1582221899.894,25.879,43.457,30.273,14.160,0
1582221899.898,35.156,31.250,27.832,23.926,0
1582221899.902,35.645,37.109,30.762,34.668,0
1582221899.904,20.996,38.574,34.668,36.621,0
1582221899.908,7.812,26.367,32.715,32.227,0
1582221899.912,4.883,23.926,34.668,27.344,0
1582221899.916,3.418,35.156,35.645,24.414,0
1582221899.920,8.789,38.574,34.180,26.367,0
1582221899.924,14.160,34.180,31.250,27.832,0
1582221899.928,4.883,22.461,27.344,23.926,0
1582221899.931,5.371,28.320,28.809,25.391,0
1582221899.935,10.742,29.785,29.297,23.926,0
1582221899.939,5.859,23.438,25.391,16.602,0
1582221899.943,10.254,24.414,23.438,15.137,0
1582221899.947,18.066,26.367,28.320,18.555,0
1582221899.949,20.508,40.039,25.879,18.555,0
1582221899.953,19.531,41.016,22.949,15.625,0
1582221899.957,12.207,34.180,22.949,16.602,0
1582221899.961,13.184,34.668,21.484,30.273,0
1582221899.965,18.066,34.180,24.902,27.832,0
1582221899.969,15.137,26.855,22.461,4.883,0
1582221899.973,13.184,9.277,20.996,4.883,0
1582221899.976,18.555,17.090,22.949,16.602,0
1582221899.980,18.066,38.086,21.484,11.719,0
1582221899.984,16.113,37.109,18.066,9.766,0
1582221899.988,16.113,35.645,15.625,13.672,0
1582221899.992,9.766,30.273,14.160,14.648,0
1582221899.995,14.160,28.320,16.602,14.648,0
1582221899.999,22.461,38.086,15.137,16.113,0
1582221900.003,20.020,37.109,17.578,20.996,0
1582221900.007,20.020,27.832,21.484,23.926,0
1582221900.011,12.695,27.344,22.461,26.855,0
1582221900.015,5.859,24.902,21.973,27.344,0
1582221900.019,14.648,29.785,18.555,35.645,0
1582221900.022,12.207,39.551,15.625,27.832,0
1582221900.026,15.137,29.785,15.625,15.137,0
1582221900.030,17.578,29.297,18.066,18.066,0
1582221900.034,15.137,29.297,18.066,23.926,0
1582221900.038,20.996,24.902,18.066,27.832,0
1582221900.040,27.832,20.996,17.578,21.973,0
1582221900.044,21.973,22.949,20.020,14.160,0
1582221900.048,15.625,35.156,20.508,15.625,0
1582221900.052,20.020,30.273,19.043,17.578,0
1582221900.056,20.508,22.949,21.484,18.555,0
1582221900.060,25.879,27.832,22.949,27.832,0
1582221900.064,22.949,33.691,25.391,25.879,0
1582221900.067,5.859,37.598,27.344,23.438,0
1582221900.071,4.883,42.480,23.438,26.367,0
1582221900.075,11.230,29.785,26.855,25.391,0
1582221900.079,23.926,14.648,28.320,23.438,0
1582221900.083,20.508,27.832,23.438,23.926,0
1582221900.085,22.949,31.250,29.297,29.297,0
1582221900.089,30.762,29.785,31.250,39.062,0
1582221900.093,25.391,37.109,27.344,36.133,0
1582221900.097,28.809,37.598,27.832,22.949,0
1582221900.101,22.461,31.738,28.809,21.973,0
1582221900.105,20.020,37.109,26.367,23.438,0
1582221900.109,26.855,39.062,27.832,20.508,0
1582221900.112,25.879,16.113,30.273,20.508,0
1582221900.116,22.949,11.719,31.738,24.902,0
1582221900.120,21.484,38.086,29.297,28.809,0
1582221900.124,24.414,48.828,25.879,27.344,0
1582221900.128,24.414,41.504,25.391,24.902,0
1582221900.145,22.949,38.086,22.949,26.855,0
1582221900.149,19.531,35.156,22.949,17.578,0
1582221900.153,23.438,23.438,26.367,8.789,0
1582221900.157,23.438,19.043,26.367,20.020,0
1582221900.161,17.578,27.832,28.320,20.508,0
1582221900.165,18.066,41.016,27.832,15.625,0
1582221900.169,23.926,30.762,28.320,19.531,0
1582221900.172,29.297,26.855,30.273,21.973,0
1582221900.176,27.832,46.387,27.832,18.066,0
1582221900.180,30.273,31.738,23.926,19.043,0
1582221900.184,36.621,26.367,27.832,25.391,0
1582221900.188,32.715,42.969,30.762,23.926,0
1582221900.190,21.484,38.086,26.855,11.719,0
1582221900.194,21.484,27.344,24.902,12.207,0
1582221900.198,20.020,27.344,26.855,17.578,0
1582221900.202,15.137,34.180,26.855,15.625,0
1582221900.206,20.996,39.062,23.438,9.277,0
1582221900.210,18.066,41.504,20.020,10.742,0
1582221900.214,21.973,36.621,18.555,22.949,0
1582221900.217,19.531,39.062,20.508,24.902,0
1582221900.221,22.461,37.109,21.484,25.391,0
1582221900.225,24.902,24.414,22.461,25.391,0
1582221900.229,12.207,31.738,23.438,22.461,0
1582221900.233,16.602,42.480,23.438,25.879,0
1582221900.235,19.531,25.879,23.438,25.391,0
1582221900.239,18.555,25.879,25.391,19.043,0
1582221900.243,25.391,13.672,24.902,26.855,0
1582221900.247,20.020,12.695,27.344,31.738,0
1582221900.251,17.578,47.852,29.297,26.367,0
1582221900.255,19.531,54.688,26.855,21.973,0
1582221900.259,13.672,43.945,26.367,18.066,0
1582221900.262,18.066,33.203,26.367,18.066,0
1582221900.266,21.484,24.902,24.414,21.973,0
1582221900.270,18.066,30.762,30.273,18.555,0
1582221900.274,21.484,41.504,31.250,13.672,0
1582221900.278,21.973,34.668,24.902,19.043,0
1582221900.280,27.832,17.090,26.855,19.043,0
1582221900.284,36.621,19.043,32.715,18.555,0
1582221900.288,31.738,34.180,37.109,24.902,0
1582221900.292,21.973,30.762,33.203,18.555,0
1582221900.296,22.949,32.227,27.832,17.090,0
1582221900.300,17.578,38.574,29.785,15.137,0
1582221900.304,10.742,38.086,27.344,18.066,0
1582221900.307,15.137,32.715,23.926,18.555,0
1582221900.311,13.672,31.738,25.391,9.766,0
1582221900.315,13.184,26.367,26.367,16.602,0
1582221900.319,19.531,20.996,26.367,18.066,0
1582221900.323,15.137,28.320,25.391,17.578,0
1582221900.325,5.859,28.320,24.902,20.508,0
1582221900.329,10.254,36.621,21.484,15.137,0
1582221900.333,27.832,37.598,20.020,14.160,0
1582221900.337,26.855,31.250,26.855,17.578,0
1582221900.341,27.344,28.320,27.344,23.438,0
1582221900.345,22.461,32.227,20.508,29.785,0
1582221900.349,17.578,23.926,21.973,25.391,0
1582221900.352,25.879,29.297,24.414,23.926,0
1582221900.356,25.879,35.645,23.926,15.625,0
1582221900.360,12.695,27.344,20.020,17.090,0
1582221900.364,7.812,24.902,19.043,14.160,0
1582221900.368,17.578,25.391,19.531,13.184,0
1582221900.370,21.973,31.738,21.484,18.555,0
1582221900.374,16.602,27.344,21.484,16.113,0
1582221900.378,20.508,20.508,19.531,16.113,0
1582221900.382,20.508,37.109,22.949,20.508,0
1582221900.386,17.090,51.270,23.438,21.973,0
1582221900.390,17.578,43.945,23.438,16.602,0
1582221900.394,16.602,33.691,23.438,18.066,0
1582221900.397,23.926,33.203,24.414,20.508,0
1582221900.401,19.043,28.320,27.832,14.648,0
1582221900.405,12.695,17.578,27.832,19.043,0
1582221900.409,11.230,32.227,29.785,22.949,0
1582221900.413,3.906,39.062,34.180,19.043,0
1582221900.415,9.277,20.508,34.668,22.461,0
1582221900.419,11.230,22.461,33.203,25.391,0
1582221900.423,0.977,32.715,32.715,25.391,0
1582221900.427,4.883,32.227,34.668,20.020,0
1582221900.431,7.812,33.691,36.621,19.531,0
1582221900.435,13.672,33.203,34.180,26.855,0
1582221900.439,15.625,30.273,34.180,21.973,0
1582221900.442,11.719,34.668,31.738,15.137,0
1582221900.446,20.996,26.855,33.203,23.926,0
1582221900.450,27.832,3.906,37.109,33.203,0
1582221900.454,25.391,24.902,30.762,25.391,0
1582221900.458,31.738,49.316,28.320,18.066,0
1582221900.460,23.438,35.156,31.250,16.602,0
1582221900.464,-0.488,35.156,29.785,15.625,0
1582221900.468,6.348,43.945,27.344,17.090,0
1582221900.472,18.555,39.062,27.832,15.625,0
1582221900.476,18.555,34.180,27.832,22.461,0
1582221900.480,19.043,32.715,24.414,21.973,0
1582221900.484,13.184,22.949,21.973,12.695,0
1582221900.487,15.625,21.484,23.438,22.949,0
1582221900.491,17.578,24.902,26.367,23.438,0
1582221900.495,8.789,25.391,27.832,11.230,0
1582221900.499,4.883,31.250,27.832,11.719,0
1582221900.503,7.812,37.598,26.367,18.555,0
1582221900.520,5.371,32.715,30.273,18.066,0
1582221900.524,4.883,28.809,29.297,13.672,0
1582221900.528,9.277,39.062,25.391,20.020,0
1582221900.532,0.488,35.156,25.391,19.043,0
1582221900.536,-5.859,28.320,26.855,15.137,0
1582221900.540,2.441,38.086,26.855,20.508,0
1582221900.544,5.859,31.250,24.902,20.996,0
1582221900.547,6.836,16.602,29.785,28.809,0
1582221900.551,15.625,21.484,31.738,34.180,0
1582221900.555,20.996,32.715,28.320,18.555,0
1582221900.559,20.996,42.969,24.414,15.625,0
1582221900.563,19.043,36.133,25.391,15.625,0
1582221900.565,9.277,32.227,25.391,14.648,0
1582221900.569,5.371,24.902,22.949,18.555,0
1582221900.573,17.578,23.438,26.367,16.113,0
1582221900.577,12.207,34.180,25.879,6.836,0
1582221900.581,11.719,35.645,20.508,8.301,0
1582221900.585,13.672,34.180,19.043,10.742,0
1582221900.589,4.883,26.367,20.020,14.160,0
1582221900.592,14.160,28.809,20.020,12.207,0
1582221900.596,18.555,34.180,20.996,8.789,0
1582221900.600,13.672,32.227,18.555,4.883,0
1582221900.604,16.113,39.551,20.020,2.441,0
1582221900.608,22.461,41.992,18.066,11.719,0
1582221900.610,17.090,32.715,19.043,22.949,0
1582221900.614,9.277,35.156,26.367,29.785,0
1582221900.618,18.555,34.180,21.484,26.367,0
1582221900.622,25.391,29.297,19.531,18.555,0
1582221900.626,17.090,26.855,20.996,11.719,0
1582221900.630,0.977,11.719,19.043,5.859,0
1582221900.634,-3.418,-2.930,20.996,2.441,0
1582221900.637,-0.977,5.859,21.973,1.465,0
1582221900.641,-2.930,35.645,23.438,3.418,0
1582221900.645,-1.953,49.316,22.949,3.906,0
1582221900.649,-4.883,41.992,22.949,3.418,0
1582221900.653,-6.836,37.598,26.367,10.254,0
1582221900.655,-2.930,32.227,23.926,13.184,0
1582221900.659,1.465,22.461,20.508,10.254,0
1582221900.663,3.906,14.648,21.484,11.230,0
1582221900.667,5.371,20.508,21.973,11.719,0
1582221900.671,9.766,18.555,26.367,14.648,0
1582221900.675,6.836,17.578,25.879,21.973,0
1582221900.679,6.348,37.598,21.484,22.461,0
1582221900.682,11.230,35.156,20.996,21.484,0
1582221900.686,6.348,33.203,21.973,11.719,0
1582221900.690,9.277,40.527,23.926,4.395,0
1582221900.694,16.602,35.645,24.414,14.648,0
1582221900.698,15.137,34.668,24.902,18.066,0
1582221900.699,14.648,28.809,25.879,14.648,0
1582221900.703,25.879,22.949,25.879,7.324,0
1582221900.707,19.531,36.621,25.391,3.418,0
1582221900.711,7.324,34.180,26.855,4.395,0
1582221900.715,14.648,29.785,31.738,7.812,0
1582221900.719,15.137,44.922,28.809,10.742,0
1582221900.723,6.348,47.852,26.855,8.789,0
1582221900.726,4.883,41.016,27.344,5.859,0
1582221900.730,5.859,34.180,29.297,7.812,0
1582221900.734,14.648,20.996,31.738,19.531,0
1582221900.738,19.531,18.555,30.762,15.137,0
1582221900.742,14.160,25.879,29.297,6.348,0
1582221900.744,21.973,32.227,28.320,11.719,0
1582221900.748,22.461,39.062,27.344,18.066,0
1582221900.752,15.625,36.133,27.832,12.207,0
1582221900.756,8.789,39.062,26.855,7.324,0
1582221900.760,6.836,41.504,21.484,9.277,0
1582221900.764,17.090,33.203,22.461,15.137,0
1582221900.768,17.090,32.715,25.879,20.996,0
1582221900.771,17.578,24.902,26.367,19.531,0
1582221900.775,23.438,28.320,26.855,14.160,0
1582221900.779,28.809,35.156,27.344,9.766,0
1582221900.783,37.109,26.855,24.414,16.602,0
1582221900.787,33.203,17.090,21.973,17.578,0
1582221900.789,22.949,28.320,22.461,17.090,0
1582221900.793,23.438,44.922,26.367,23.438,0
1582221900.797,22.461,38.574,31.738,24.414,0
1582221900.801,16.113,36.621,29.297,36.621,0
1582221900.805,17.578,24.414,31.250,37.598,0
1582221900.809,17.578,19.531,34.180,23.438,0
1582221900.813,6.348,34.180,30.273,22.949,0
1582221900.816,-1.953,38.574,25.879,17.578,0
1582221900.820,-14.160,23.926,26.855,19.043,0
1582221900.824,-8.789,12.207,24.902,23.926,0
1582221900.828,7.324,12.695,21.973,22.949,0
1582221900.832,4.883,13.672,25.391,28.809,0
1582221900.834,4.883,33.691,29.297,27.832,0
1582221900.838,2.441,41.992,31.250,27.344,0
1582221900.842,8.789,27.832,27.832,28.320,0
1582221900.846,12.695,29.297,24.414,22.949,0
1582221900.850,7.324,33.691,25.879,19.531,0
1582221900.854,14.160,26.855,21.973,21.484,0
1582221900.858,16.113,23.926,20.020,20.508,0
1582221900.861,8.789,25.391,17.578,9.277,28190
1582221900.865,10.254,21.973,19.531,14.160,0
1582221900.869,14.160,23.438,23.438,19.531,0
1582221900.873,13.184,17.090,22.949,14.160,0
1582221900.877,18.555,23.926,23.926,14.648,0
1582221900.894,14.160,44.434,24.414,19.531,0
1582221900.898,12.695,45.898,25.391,23.926,0
1582221900.902,20.508,39.062,30.762,25.879,0
1582221900.906,23.438,30.762,33.203,30.762,0
1582221900.910,16.602,27.344,31.738,30.762,0
1582221900.914,14.648,23.438,32.715,25.391,0
1582221900.918,17.578,24.902,31.250,23.438,0
1582221900.921,11.719,28.320,29.785,27.832,0
1582221900.925,0.977,21.484,30.273,24.414,0
1582221900.929,3.906,20.508,33.691,21.973,0
1582221900.933,5.859,27.344,31.250,21.973,0
1582221900.937,12.207,34.180,29.297,25.879,0
1582221900.939,20.508,48.340,31.738,25.879,0
1582221900.943,16.602,46.387,29.297,9.277,0
1582221900.947,11.230,37.109,26.855,9.277,0
1582221900.951,7.324,39.062,28.320,18.066,0
1582221900.955,17.090,40.527,28.809,16.113,0
1582221900.959,26.855,30.273,24.902,13.672,0
1582221900.963,27.344,23.926,21.973,17.090,0
1582221900.966,30.273,20.996,25.391,24.902,0
1582221900.970,32.227,18.555,24.414,18.555,0
1582221900.974,30.762,39.062,22.949,12.695,0
1582221900.978,17.578,50.781,21.973,23.926,0
1582221900.982,15.137,41.016,23.438,24.902,0
1582221900.984,27.344,34.668,27.832,22.461,0
1582221900.988,32.227,36.621,28.320,28.320,0
1582221900.992,26.855,22.949,26.855,29.785,0
1582221900.996,21.973,21.484,24.902,28.809,0
1582221901.000,16.113,25.391,24.902,22.461,0
1582221901.004,20.508,34.180,24.414,20.508,0
1582221901.008,22.461,42.480,20.996,21.484,0
1582221901.011,9.277,22.949,23.926,13.672,0
1582221901.015,15.137,24.902,24.414,24.414,0
1582221901.019,26.855,48.340,20.020,18.555,0
1582221901.023,22.461,44.434,17.578,12.695,0
1582221901.027,23.926,32.715,18.555,22.461,0
1582221901.029,35.156,30.273,20.508,25.879,0
1582221901.033,34.668,19.531,22.949,33.203,0
1582221901.037,38.574,19.043,25.391,35.645,0
1582221901.041,42.480,40.527,25.879,32.715,0
1582221901.045,37.598,43.945,28.320,32.227,0
1582221901.049,35.156,35.156,29.785,38.574,0
1582221901.053,42.480,31.738,26.855,43.945,0
1582221901.056,43.945,25.391,25.879,39.551,0
1582221901.060,35.156,31.738,28.320,29.785,0
1582221901.064,39.551,33.203,31.738,33.203,0
1582221901.068,40.527,33.691,31.738,39.551,0
1582221901.072,39.062,35.645,30.762,36.133,0
1582221901.075,39.062,29.297,30.273,37.598,0
1582221901.079,30.273,40.039,29.297,27.832,0
1582221901.083,30.762,43.457,28.320,23.438,0
1582221901.087,30.762,40.527,25.879,26.855,0
1582221901.091,22.949,43.457,21.973,20.996,0
1582221901.095,19.043,41.504,20.508,18.066,0
1582221901.099,18.066,38.086,20.020,16.113,0
1582221901.102,16.113,28.809,24.414,10.254,0
1582221901.106,10.742,21.484,28.809,13.184,0
1582221901.110,14.648,30.273,26.367,19.531,0
1582221901.114,18.066,21.973,25.391,24.414,0
1582221901.118,19.043,20.020,26.367,26.367,0
1582221901.120,25.879,25.391,27.832,29.297,0
1582221901.124,24.414,33.203,26.855,38.574,0
1582221901.128,21.484,43.457,26.367,34.180,0
1582221901.132,24.902,39.551,25.391,26.367,0
1582221901.136,20.996,37.598,26.855,28.809,0
1582221901.140,20.996,36.133,26.855,35.645,0
1582221901.144,31.250,27.832,22.949,41.992,0
1582221901.147,40.039,21.973,23.438,38.574,0
1582221901.151,34.180,30.762,23.926,29.297,0
1582221901.155,29.297,31.738,22.949,36.133,0
1582221901.159,33.691,36.133,22.949,44.922,0
1582221901.163,35.645,48.828,22.461,35.645,0
1582221901.165,39.062,40.527,21.973,29.785,0
1582221901.169,38.574,25.391,22.949,33.691,0
1582221901.173,35.156,25.391,21.484,29.785,0
1582221901.177,26.855,31.250,22.949,23.926,0
1582221901.181,18.066,28.809,22.461,18.066,0
1582221901.185,18.066,28.320,21.484,15.625,0
1582221901.189,17.090,37.109,23.438,17.578,0
1582221901.192,11.230,39.062,24.902,16.602,0
1582221901.196,14.648,31.250,24.902,19.531,0
1582221901.200,18.066,34.180,26.367,19.531,0
1582221901.204,18.555,39.551,25.879,19.531,0
1582221901.208,21.484,34.180,23.926,22.949,0
1582221901.210,24.414,27.832,25.879,24.414,0
1582221901.214,29.297,22.461,26.855,25.879,0
1582221901.218,24.902,18.066,25.391,27.832,0
1582221901.222,26.855,30.762,25.879,29.297,0
1582221901.226,31.250,41.504,26.367,23.438,0
1582221901.230,31.250,41.016,25.879,25.879,0
1582221901.234,32.227,42.480,26.367,21.973,0
1582221901.237,26.855,38.086,26.367,17.090,0
1582221901.241,27.832,24.902,27.344,27.344,0
1582221901.245,34.668,20.996,27.832,26.855,0
1582221901.249,28.320,25.391,27.344,19.531,0
1582221901.253,19.043,20.996,27.832,19.531,0
1582221901.270,19.531,32.227,27.832,22.949,0
1582221901.274,19.531,32.227,32.227,19.531,0
1582221901.278,21.484,30.762,33.203,21.973,0
1582221901.282,15.625,35.156,32.715,19.531,0
1582221901.286,8.789,36.621,32.227,16.602,0
1582221901.290,13.672,40.039,27.344,18.066,0
1582221901.294,16.602,31.738,27.832,11.719,0
1582221901.297,11.719,31.250,28.809,19.531,0
1582221901.301,12.695,28.320,30.273,25.879,0
1582221901.305,17.090,6.836,31.250,20.996,0
1582221901.309,16.602,18.066,30.273,20.996,0
1582221901.313,15.137,31.738,27.344,21.484,0
1582221901.315,19.043,19.531,25.391,24.902,0
1582221901.319,18.066,23.438,21.973,26.855,0
1582221901.323,21.484,40.527,21.484,24.902,0
1582221901.327,24.902,36.621,24.902,26.367,0
1582221901.331,16.602,34.668,24.902,28.809,0
1582221901.335,11.230,35.156,26.855,24.902,0
1582221901.339,14.160,37.598,22.949,19.531,0
1582221901.342,18.555,32.715,17.578,17.578,0
1582221901.346,17.578,19.043,17.090,20.996,0
1582221901.350,19.531,20.508,16.602,21.973,0
1582221901.354,21.973,19.043,18.555,20.020,0
1582221901.358,20.508,28.320,20.020,18.555,0
1582221901.360,15.625,46.387,20.020,12.207,0
1582221901.364,12.695,34.668,21.484,13.672,0
1582221901.368,19.043,28.809,25.879,20.020,0
1582221901.372,23.926,41.504,23.926,22.461,0
1582221901.376,30.273,42.969,22.461,23.926,0
1582221901.380,20.996,34.180,23.438,23.438,0
1582221901.384,7.812,36.133,22.461,20.020,0
1582221901.387,13.184,34.668,24.902,15.137,0
1582221901.391,12.207,20.020,27.344,17.578,0
1582221901.395,7.812,29.297,26.367,20.508,0
1582221901.399,12.207,41.016,24.414,26.367,0
1582221901.403,17.578,26.367,26.855,28.320,0
1582221901.406,20.508,11.719,27.832,26.855,0
1582221901.410,21.484,23.438,26.855,26.855,0
1582221901.414,16.602,34.668,28.320,17.090,0
1582221901.418,19.531,34.180,27.344,16.602,0
1582221901.422,27.344,38.574,25.879,24.902,0
1582221901.426,13.184,39.551,27.832,20.508,0
1582221901.430,9.277,28.320,27.344,19.043,0
1582221901.433,18.066,23.926,25.879,18.066,0
1582221901.437,17.578,37.598,25.879,11.230,0
1582221901.441,18.555,30.273,27.832,15.625,0
1582221901.445,20.020,24.414,29.297,18.555,0
1582221901.449,18.555,30.762,31.738,12.695,0
1582221901.450,23.438,33.691,31.738,20.020,0
1582221901.454,20.996,35.156,28.809,16.602,0
1582221901.458,16.113,32.715,31.738,12.207,0
1582221901.462,17.578,46.387,33.203,12.695,0
1582221901.466,12.207,45.410,28.809,6.348,0
1582221901.470,4.883,33.203,28.320,13.672,0
1582221901.474,11.230,38.086,33.691,20.996,0
1582221901.477,16.113,37.598,36.133,19.043,0
1582221901.481,16.602,24.414,36.621,14.160,0
1582221901.485,16.602,24.902,38.574,11.230,0
1582221901.489,9.277,32.715,36.621,14.160,0
1582221901.493,7.812,25.391,38.574,16.113,0
1582221901.495,12.207,31.738,36.621,14.648,0
1582221901.499,10.742,35.156,30.762,8.301,0
1582221901.503,10.254,29.785,32.715,8.789,0
1582221901.507,9.766,34.180,34.180,15.625,0
1582221901.511,5.371,37.109,33.691,14.648,0
1582221901.515,11.230,37.109,35.645,17.090,0
1582221901.519,12.695,32.715,36.621,23.438,0
1582221901.522,6.836,37.109,33.691,20.996,0
1582221901.526,6.348,38.574,33.203,17.090,0
1582221901.530,8.789,33.203,32.227,15.625,0
1582221901.534,8.789,23.438,32.227,20.508,0
1582221901.538,1.465,20.508,34.180,17.578,0
1582221901.540,4.395,24.902,30.273,11.719,0
1582221901.544,15.137,27.344,29.785,15.625,0
1582221901.548,9.766,36.621,32.715,15.625,0
1582221901.552,12.695,42.480,29.785,20.996,0
1582221901.556,14.160,37.598,30.273,18.066,0
1582221901.560,4.395,34.180,30.273,9.766,0
1582221901.564,11.230,33.691,27.344,11.719,0
1582221901.567,15.137,20.020,26.855,9.766,0
1582221901.571,9.766,22.461,24.414,3.906,0
1582221901.575,10.742,30.273,23.926,0.000,0
1582221901.579,15.137,20.996,23.926,8.301,0
1582221901.583,12.695,27.344,25.879,13.672,0
1582221901.585,7.812,38.086,27.832,16.113,0
1582221901.589,15.137,35.645,26.367,20.996,0
1582221901.593,23.438,39.062,27.832,19.043,0
1582221901.597,26.367,38.086,30.273,20.020,0
1582221901.601,20.508,27.832,31.250,20.020,0
1582221901.605,15.137,28.809,28.809,26.367,0
1582221901.609,22.949,27.344,28.320,36.133,0
1582221901.612,21.484,27.832,32.715,26.367,0
1582221901.616,4.883,36.621,34.668,20.020,0
1582221901.620,3.418,28.320,33.691,28.320,0
1582221901.624,4.883,9.766,36.133,31.250,0
1582221901.628,-2.441,19.531,39.551,24.902,0
1582221901.645,-4.395,37.109,36.133,18.555,0
1582221901.649,-2.441,41.504,34.180,21.484,0
1582221901.653,0.977,44.434,34.668,23.438,0
1582221901.657,1.465,33.691,31.738,18.066,0
1582221901.661,3.906,23.438,31.738,22.461,0
1582221901.665,3.418,28.320,33.691,23.438,0
1582221901.669,4.883,18.555,31.250,13.672,0
1582221901.672,12.695,11.230,29.785,10.742,0
1582221901.676,17.578,26.855,31.250,18.555,0
1582221901.680,11.719,41.016,28.809,16.113,0
1582221901.684,12.695,51.270,22.949,11.719,0
1582221901.688,16.113,42.969,23.438,15.137,0
1582221901.690,20.020,36.133,25.391,19.043,0
1582221901.694,20.996,40.039,22.949,17.578,0
1582221901.698,12.207,33.203,23.926,14.648,0
1582221901.702,20.020,27.832,25.391,24.414,0
1582221901.706,24.414,29.785,25.879,20.020,0
1582221901.710,15.625,18.066,25.391,10.742,0
1582221901.714,8.301,13.672,24.902,15.625,0
1582221901.717,3.418,32.227,28.320,14.160,0
1582221901.721,1.953,37.598,28.809,15.137,0
1582221901.725,1.953,33.691,23.926,14.648,0
1582221901.729,2.930,35.645,22.949,20.996,0
1582221901.733,-1.465,36.621,19.531,24.902,0
1582221901.735,-1.953,34.180,17.090,20.020,0
1582221901.739,6.836,29.785,23.926,18.555,0
1582221901.743,11.719,31.738,26.367,18.066,0
1582221901.747,15.137,33.691,22.949,25.391,0
1582221901.751,22.949,15.625,24.902,28.320,0
1582221901.755,26.855,19.043,26.367,21.484,0
1582221901.759,28.320,35.645,24.414,23.438,0
1582221901.762,31.738,39.062,22.461,28.320,0
1582221901.766,18.555,34.668,20.996,18.555,0
1582221901.770,16.113,36.621,25.391,13.184,0
1582221901.774,23.926,40.527,27.344,14.160,0
1582221901.778,13.672,41.992,24.902,8.301,0
1582221901.779,14.648,40.527,23.438,6.836,0
1582221901.783,19.043,25.879,24.902,12.695,0
1582221901.787,10.254,23.926,24.414,11.719,0
1582221901.791,4.883,32.715,22.461,12.207,0
1582221901.795,6.836,31.250,26.367,21.973,0
1582221901.799,7.812,34.180,25.391,20.020,0
1582221901.803,6.836,26.367,20.996,13.184,0
1582221901.806,5.859,25.879,23.438,20.996,0
1582221901.810,11.230,30.762,24.902,24.414,0
1582221901.814,10.742,26.855,19.531,22.461,0
1582221901.818,8.789,33.203,20.020,25.879,0
1582221901.822,16.113,31.738,25.391,25.879,0
1582221901.824,20.508,39.551,24.414,27.832,0
1582221901.828,22.949,39.551,21.484,25.879,0
1582221901.832,21.973,35.645,22.461,16.602,0
1582221901.836,17.578,36.133,22.461,15.137,0
1582221901.840,12.695,28.320,26.855,19.531,0
1582221901.844,12.695,27.832,25.391,20.996,0
1582221901.848,16.113,29.785,22.461,16.602,0
1582221901.851,18.066,25.879,24.902,15.625,0
1582221901.855,16.602,29.297,25.879,18.066,0
1582221901.859,11.230,26.367,28.320,15.625,0
1582221901.863,10.742,24.414,28.320,12.695,0
1582221901.867,13.672,35.156,25.391,12.695,0
1582221901.869,12.207,40.039,26.855,11.719,0
1582221901.873,19.531,36.133,31.250,14.160,0
1582221901.877,26.367,38.574,29.785,17.090,0
1582221901.881,20.996,30.273,27.344,16.602,0
1582221901.885,17.090,32.227,23.438,12.207,0
1582221901.889,19.531,37.109,21.973,14.648,0
1582221901.893,27.344,21.973,25.879,20.508,0
1582221901.896,27.344,20.020,26.855,20.020,0
1582221901.900,25.879,20.508,23.926,23.438,0
1582221901.904,21.973,30.273,25.879,27.832,0
1582221901.908,18.066,39.551,26.367,24.414,0
1582221901.912,22.949,35.156,23.438,21.484,0
1582221901.914,23.438,33.203,24.414,20.996,0
1582221901.918,21.484,34.668,21.484,23.438,0
1582221901.922,21.484,37.109,19.531,20.020,0
1582221901.926,20.020,37.598,21.973,20.996,0
1582221901.930,20.020,29.297,22.949,26.855,0
1582221901.934,23.926,29.297,22.461,26.855,0
1582221901.938,15.625,25.879,21.973,19.043,0
1582221901.941,11.719,20.508,20.508,12.695,0
1582221901.945,20.996,32.227,20.020,13.184,0
1582221901.949,16.113,38.086,20.508,14.160,0
1582221901.953,15.137,32.227,24.902,15.137,0
1582221901.957,21.973,32.715,26.855,19.531,0
1582221901.959,22.461,34.668,23.926,21.973,0
1582221901.963,20.020,31.738,22.949,17.090,0
1582221901.967,16.602,25.391,24.902,15.137,0
1582221901.971,13.184,22.461,27.832,17.578,17009
1582221901.975,16.602,32.227,28.809,20.996,0
1582221901.979,29.785,35.156,29.785,26.855,0
1582221901.983,28.809,34.180,29.297,25.879,0
1582221901.986,21.973,39.551,29.785,25.879,0
1582221901.990,27.832,34.668,27.832,33.691,0
1582221901.994,30.762,22.949,28.809,35.156,0
1582221901.998,22.461,13.184,31.738,33.203,0
1582221902.002,12.207,29.297,32.715,28.320,0
1582221902.019,16.113,43.457,31.738,25.879,0
1582221902.023,14.648,42.480,27.832,25.879,0
1582221902.027,10.254,35.156,26.855,23.926,0
1582221902.031,9.277,22.461,30.273,19.043,0
1582221902.035,2.930,35.156,31.250,15.137,0
1582221902.039,1.953,35.645,31.738,12.695,0
1582221902.043,8.301,24.414,30.273,8.301,0
1582221902.046,10.742,27.832,29.297,9.277,0
1582221902.050,11.230,31.250,29.785,9.277,0
1582221902.054,17.578,17.090,25.391,8.789,0
1582221902.058,22.461,17.578,23.438,19.043,0
1582221902.062,19.531,40.039,22.949,20.996,0
1582221902.064,13.184,38.086,24.414,15.625,0
1582221902.068,20.020,34.668,22.461,18.066,0
1582221902.072,29.785,42.969,21.484,17.578,0
1582221902.076,27.344,36.133,21.484,23.438,0
1582221902.080,25.391,29.785,18.066,20.508,0
1582221902.084,25.391,36.133,17.578,20.996,0
1582221902.088,25.879,37.598,20.508,27.832,0
1582221902.091,31.738,36.621,22.461,24.902,0
1582221902.095,25.391,29.785,19.531,27.344,0
1582221902.099,18.555,21.484,21.973,28.320,0
1582221902.103,20.996,25.391,25.391,21.973,0
1582221902.107,13.184,41.016,26.367,20.020,0
1582221902.109,2.930,40.527,26.367,18.066,0
1582221902.113,-1.465,40.527,26.367,18.555,0
1582221902.117,4.883,36.133,30.273,19.043,0
1582221902.121,9.277,29.785,34.180,19.531,0
1582221902.125,10.742,33.691,31.250,13.184,0
1582221902.129,9.277,37.598,26.367,13.672,0
1582221902.133,1.465,30.762,26.855,21.484,0
1582221902.136,10.742,27.344,25.391,20.996,0
1582221902.140,22.461,36.621,24.414,20.996,0
1582221902.144,20.508,28.320,29.297,16.602,0
1582221902.148,24.902,25.391,27.344,16.602,0
1582221902.152,32.227,38.574,20.508,22.461,0
1582221902.155,33.203,44.434,19.531,22.949,0
1582221902.159,27.344,39.551,19.043,24.414,0
1582221902.163,24.902,33.691,18.066,19.531,0
1582221902.167,36.133,27.832,20.020,16.113,0
1582221902.171,41.992,21.973,21.484,23.438,0
1582221902.175,29.297,27.344,20.508,26.855,0
1582221902.179,15.137,41.504,20.508,22.461,0
1582221902.182,13.672,43.945,20.996,16.113,0
1582221902.186,11.719,36.133,22.461,12.695,0
1582221902.190,6.348,29.785,21.973,11.230,0
1582221902.194,5.371,15.137,21.973,13.184,0
1582221902.198,13.672,14.648,21.484,19.531,0
1582221902.200,16.113,26.855,23.438,20.020,0
1582221902.204,15.137,27.344,27.344,21.484,0
1582221902.208,12.207,26.367,26.855,28.320,0
1582221902.212,10.742,32.715,25.879,27.832,0
1582221902.216,17.090,34.180,26.855,25.391,0
1582221902.220,22.461,25.879,24.902,23.438,0
1582221902.224,19.531,35.645,21.484,23.926,0
1582221902.227,14.160,43.457,22.461,23.438,0
1582221902.231,14.648,29.297,22.949,20.020,0
1582221902.235,22.461,22.461,23.438,22.461,0
1582221902.239,21.484,41.016,21.484,20.508,0
1582221902.243,20.508,36.621,21.973,18.066,0
1582221902.245,25.391,32.227,22.949,23.926,0
1582221902.249,23.926,28.320,25.879,20.508,0
1582221902.253,19.531,21.484,28.320,17.090,0
1582221902.257,14.160,30.762,24.414,15.137,0
1582221902.261,15.625,29.785,23.926,18.555,0
1582221902.265,12.695,34.180,24.902,20.020,0
1582221902.269,14.160,43.945,22.461,16.602,0
1582221902.272,14.648,43.457,22.461,12.695,0
1582221902.276,7.812,41.016,23.926,5.859,0
1582221902.280,9.277,34.180,26.855,12.207,0
1582221902.284,16.113,31.738,31.738,16.602,0
1582221902.288,12.695,35.645,34.668,14.648,0
1582221902.290,11.719,26.855,33.691,18.555,0
1582221902.294,14.160,25.391,31.738,15.625,0
1582221902.298,20.020,28.320,37.109,12.207,0
1582221902.302,21.973,20.508,38.574,11.230,0
1582221902.306,17.090,17.090,33.691,11.719,0
1582221902.310,16.113,23.438,32.715,15.625,0
1582221902.314,18.555,29.785,32.227,16.602,0
1582221902.317,14.648,37.109,33.691,17.090,0
1582221902.321,0.488,39.551,31.738,13.672,0
1582221902.325,0.488,41.016,29.785,16.602,0
1582221902.329,10.742,29.785,32.715,21.484,0
1582221902.333,15.137,27.344,34.180,19.531,0
1582221902.335,12.695,35.156,37.109,20.020,0
1582221902.339,13.184,26.855,36.621,20.020,0
1582221902.343,18.555,18.555,32.715,14.648,0
1582221902.347,20.020,20.508,35.645,11.719,0
1582221902.351,19.531,40.039,38.086,16.602,0
1582221902.355,19.531,53.223,34.668,20.996,0
1582221902.359,24.902,48.340,31.738,20.508,0
1582221902.362,32.715,39.062,31.250,19.043,0
1582221902.366,36.621,36.621,35.645,20.020,0
1582221902.370,32.715,28.320,38.086,25.879,0
1582221902.374,24.414,29.785,38.574,19.531,0
1582221902.378,29.297,41.992,39.062,12.207,0
1582221902.395,26.855,35.645,37.598,17.090,0
1582221902.399,21.973,40.527,37.598,17.578,0
1582221902.403,22.461,42.969,36.621,19.531,0
1582221902.407,21.484,31.738,36.133,21.973,0
1582221902.411,21.484,31.738,41.992,22.949,0
1582221902.415,16.113,46.875,41.016,28.809,0
1582221902.419,11.230,41.504,36.621,31.250,0
1582221902.422,16.602,29.297,37.598,31.738,0
1582221902.426,19.043,28.809,36.621,31.738,0
1582221902.430,14.648,30.762,33.203,32.715,0
1582221902.434,7.324,27.832,35.156,31.738,0
1582221902.438,5.859,19.043,37.109,27.832,0
1582221902.440,10.742,30.273,33.203,23.926,0
1582221902.444,6.836,37.109,32.715,19.531,0
1582221902.448,3.906,23.438,32.715,21.484,0
1582221902.452,6.836,37.109,28.809,20.508,0
1582221902.456,14.648,45.898,30.273,17.090,0
1582221902.460,21.973,44.434,31.738,24.414,0
1582221902.464,25.391,48.828,28.320,24.414,0
1582221902.467,34.180,41.016,28.809,12.695,0
1582221902.471,44.434,33.691,31.738,12.695,0
1582221902.475,47.852,41.504,31.738,13.672,0
1582221902.479,46.387,41.016,28.809,16.602,0
1582221902.483,44.922,32.715,26.855,22.461,0
1582221902.485,45.898,21.484,28.809,26.855,0
1582221902.489,41.992,22.461,29.785,30.762,0
1582221902.493,21.484,39.551,30.273,27.344,0
1582221902.497,15.137,39.551,35.156,34.668,0
1582221902.501,19.043,35.156,36.621,42.480,0
1582221902.505,12.695,32.227,34.668,36.621,0
1582221902.509,8.301,37.598,35.156,33.203,0
1582221902.512,9.766,41.016,37.598,37.109,0
1582221902.516,15.625,38.086,36.621,38.574,0
1582221902.520,14.648,34.180,32.715,25.391,0
1582221902.524,8.301,22.949,32.227,17.090,0
1582221902.528,3.906,27.344,27.832,19.043,0
1582221902.530,1.465,24.414,28.809,12.695,0
1582221902.534,6.836,14.160,32.715,7.324,0
1582221902.538,14.160,36.621,26.855,16.113,0
1582221902.542,13.672,42.969,24.414,17.578,0
1582221902.546,12.695,47.363,23.926,9.277,0
1582221902.550,22.949,39.062,22.949,13.184,0
1582221902.554,23.438,35.645,23.926,19.043,0
1582221902.557,20.996,47.852,27.344,20.508,0
1582221902.561,26.367,40.527,26.855,20.996,0
1582221902.565,32.715,29.297,27.832,23.926,0
1582221902.569,33.691,30.762,28.809,26.367,0
1582221902.573,24.414,36.621,27.344,20.020,0
1582221902.575,21.484,25.391,26.855,20.996,0
1582221902.579,27.344,20.020,26.855,31.250,0
1582221902.583,33.203,43.457,26.367,27.832,0
1582221902.587,31.738,52.246,27.344,18.066,0
1582221902.591,29.785,44.434,29.785,16.602,0
1582221902.595,32.715,45.898,27.832,23.926,0
1582221902.599,32.715,46.387,23.438,25.391,0
1582221902.602,28.320,31.738,21.484,23.926,0
1582221902.606,26.367,33.691,25.391,22.461,0
1582221902.610,18.066,38.574,26.855,18.555,0
1582221902.614,12.695,31.250,23.438,16.113,0
1582221902.618,14.160,23.926,23.438,13.672,0
1582221902.620,6.836,21.484,26.367,17.578,0
1582221902.624,4.883,30.273,26.855,21.484,0
1582221902.628,11.230,38.086,22.461,14.648,0
1582221902.632,18.066,29.785,20.996,11.230,0
1582221902.636,15.137,24.414,25.391,14.648,0
1582221902.640,12.207,32.227,24.902,20.508,0
1582221902.644,14.160,41.016,24.902,21.973,0
1582221902.647,19.043,41.504,26.367,17.090,0
1582221902.651,22.949,25.879,24.902,24.414,0
1582221902.655,19.531,27.344,25.879,27.832,0
1582221902.659,20.996,37.109,26.855,30.273,0
1582221902.663,26.367,23.438,29.297,25.391,0
1582221902.665,24.414,21.973,32.227,14.648,0
1582221902.669,20.020,28.809,30.273,19.043,0
1582221902.673,20.996,20.020,31.738,20.996,0
1582221902.677,24.902,13.672,33.203,20.020,0
1582221902.681,23.926,15.625,29.297,17.578,0
1582221902.685,15.625,32.227,27.832,16.602,0
1582221902.689,13.184,50.293,29.785,20.020,0
1582221902.692,20.996,43.945,33.203,23.438,0
1582221902.696,14.160,32.227,33.691,21.973,0
1582221902.700,8.301,22.949,37.109,23.438,0
1582221902.704,11.719,25.391,39.062,24.414,0
1582221902.708,16.113,27.344,35.645,27.832,0
1582221902.710,20.996,28.320,36.133,31.738,0
1582221902.714,20.996,24.902,40.039,32.227,0
1582221902.718,18.555,16.113,37.598,32.715,0
1582221902.722,13.672,28.320,35.156,26.855,0
1582221902.726,12.207,36.621,35.156,23.438,0
1582221902.730,17.090,35.645,34.668,19.531,0
1582221902.734,13.184,39.062,34.180,18.066,0
1582221902.737,5.859,33.691,36.133,17.578,0
1582221902.741,8.789,17.578,37.598,16.602,0
1582221902.745,14.648,20.996,32.227,19.043,0
1582221902.749,19.043,31.250,33.691,21.484,0
1582221902.753,13.184,34.668,39.551,19.043,0
1582221902.770,14.648,31.250,40.039,12.695,0
1582221902.774,21.484,23.926,40.039,11.230,0
1582221902.778,20.020,32.227,38.574,16.602,0
1582221902.782,10.254,41.016,37.109,14.160,0
1582221902.786,11.719,33.203,39.551,18.066,0
1582221902.790,22.461,34.180,39.551,22.461,0
1582221902.794,21.973,40.039,38.574,14.160,0
1582221902.797,21.484,29.785,41.016,14.160,0
1582221902.801,23.926,23.926,41.504,20.996,0
1582221902.805,26.367,31.738,41.504,25.391,0
1582221902.809,25.879,24.902,39.551,20.996,0
1582221902.813,19.043,15.625,34.668,18.555,0
1582221902.815,12.207,28.320,36.133,22.949,0
1582221902.819,16.113,30.762,37.109,22.461,0
1582221902.823,18.555,34.668,35.156,14.648,0
1582221902.827,12.695,48.828,31.250,14.648,0
1582221902.831,11.719,45.898,29.785,22.949,0
1582221902.835,16.602,32.227,30.273,25.879,0
1582221902.839,19.531,34.668,31.738,20.508,0
1582221902.842,14.648,39.551,32.227,20.508,0
1582221902.846,7.324,26.855,31.738,17.090,0
1582221902.850,3.906,17.578,27.344,10.742,0
1582221902.854,3.418,21.973,26.367,5.371,0
1582221902.858,2.930,31.250,26.855,5.859,0
1582221902.860,0.977,41.992,23.438,15.625,0
1582221902.864,0.488,38.574,22.949,17.578,0
1582221902.868,7.812,35.156,21.973,12.695,0
1582221902.872,9.766,29.785,21.484,13.184,0
1582221902.876,10.742,21.484,26.367,17.090,0
1582221902.880,12.695,29.297,28.320,19.043,0
1582221902.884,9.766,23.438,26.855,13.184,0
1582221902.887,7.324,21.973,26.855,6.348,0
1582221902.891,5.859,36.133,28.320,9.766,0
1582221902.895,4.883,30.273,30.273,12.695,0
1582221902.899,7.812,20.508,32.227,13.672,0
1582221902.903,14.160,29.297,33.203,14.648,0
1582221902.905,18.066,38.086,35.645,12.207,0
1582221902.909,13.672,30.762,36.621,12.695,0
1582221902.913,11.230,35.645,32.715,11.719,0
1582221902.917,11.230,41.016,33.691,2.441,0
1582221902.921,8.789,28.809,33.691,-2.930,0
1582221902.925,8.301,21.973,32.715,6.836,0
1582221902.929,4.395,31.738,34.668,14.160,0
1582221902.932,3.906,35.156,36.621,16.113,0
1582221902.936,7.324,19.043,36.621,17.578,0
1582221902.940,7.812,36.621,36.621,11.230,0
1582221902.944,11.230,36.133,38.574,16.113,0
1582221902.948,9.766,27.832,33.203,23.926,0
1582221902.950,15.137,40.527,33.691,19.531,0
1582221902.954,15.625,29.785,37.598,19.531,0
1582221902.958,3.418,34.668,32.715,15.625,0
1582221902.962,8.789,35.156,33.203,18.555,0
1582221902.966,20.996,22.461,33.691,26.367,0
1582221902.970,20.508,27.344,32.227,23.438,0
1582221902.974,17.090,31.738,31.738,21.973,0
1582221902.977,21.484,37.109,31.250,20.996,0
1582221902.981,21.973,28.320,31.250,19.043,0
1582221902.985,22.949,23.438,29.785,19.043,0
1582221902.989,28.809,28.809,32.715,18.066,0
1582221902.993,23.926,28.809,30.762,16.113,0
1582221902.994,17.090,41.992,23.926,10.742,0
1582221902.998,19.531,47.852,23.438,9.766,0
1582221903.002,19.531,44.434,24.902,12.695,0
1582221903.006,15.625,38.086,22.949,13.672,0
1582221903.010,10.254,28.320,25.879,12.695,0
1582221903.014,13.672,28.809,28.320,12.207,0
1582221903.018,14.160,34.668,28.320,14.160,0
1582221903.021,1.953,38.574,30.762,9.277,0
1582221903.025,14.648,35.156,30.273,13.672,0
1582221903.029,29.785,21.973,26.367,27.832,0
1582221903.033,34.180,17.090,24.902,29.297,0
1582221903.037,29.297,29.785,23.926,23.926,0
1582221903.039,18.555,43.457,23.926,17.578,0
1582221903.043,20.020,36.621,24.902,20.996,0
1582221903.047,22.461,32.227,27.344,23.926,0
1582221903.051,21.484,34.668,29.785,21.484,0
1582221903.055,19.043,30.273,31.250,22.461,0
1582221903.059,16.602,26.367,30.762,23.438,0
1582221903.063,21.484,30.762,32.227,22.461,0
1582221903.066,23.438,36.621,32.227,19.531,0
1582221903.070,15.137,33.691,33.203,17.578,0
1582221903.074,10.742,20.020,33.691,17.578,0
1582221903.078,8.301,14.648,30.273,19.043,0
1582221903.082,5.371,30.273,28.809,16.602,0
1582221903.084,10.254,30.762,31.738,18.066,0
1582221903.088,12.207,33.203,33.203,23.926,0
1582221903.092,8.789,41.016,28.809,22.949,0
1582221903.096,11.719,37.109,30.762,18.066,0
1582221903.100,11.719,32.715,33.203,20.508,0
1582221903.104,5.859,29.297,29.297,21.484,0
1582221903.108,8.301,32.227,26.367,10.742,0
1582221903.111,16.113,36.621,24.902,6.836,0
1582221903.115,15.137,30.762,23.438,12.695,0
1582221903.119,17.090,30.762,24.414,17.090,0
1582221903.123,23.438,39.062,28.809,11.230,0
1582221903.127,21.484,30.273,26.367,7.812,0
1582221903.144,20.996,26.855,22.949,11.230,0
1582221903.148,20.508,36.621,25.879,17.090,0
1582221903.152,18.555,39.551,24.902,17.578,0
1582221903.156,20.996,43.945,20.020,12.695,0
1582221903.160,23.438,33.691,20.996,16.602,0
1582221903.164,18.066,32.227,20.996,20.508,0
1582221903.168,8.789,36.621,19.043,19.043,0
1582221903.171,13.184,27.344,20.508,19.531,28341
1582221903.175,25.391,22.461,23.438,20.508,0
1582221903.179,20.508,6.836,25.391,22.949,0
1582221903.183,13.672,19.531,22.949,25.391,0
1582221903.187,10.254,52.246,17.090,22.461,0
1582221903.189,8.789,46.387,16.602,21.484,0
1582221903.193,11.230,38.086,20.020,20.996,0
1582221903.197,4.883,35.156,19.043,19.531,0
1582221903.201,1.465,30.273,18.555,20.996,0
1582221903.205,9.766,33.203,19.043,20.996,0
1582221903.209,11.719,37.109,20.996,19.531,0
1582221903.213,10.254,30.273,20.996,22.949,0
1582221903.216,18.555,21.484,18.555,21.973,0
1582221903.220,28.809,29.785,19.043,20.020,0
1582221903.224,26.367,31.738,19.531,19.531,0
1582221903.228,23.438,27.832,20.020,17.090,0
1582221903.232,35.156,24.902,21.484,20.996,0
1582221903.234,47.363,30.273,17.578,24.414,0
1582221903.238,39.551,51.270,14.648,22.461,0
1582221903.242,28.809,43.945,17.090,20.508,0
1582221903.246,30.273,34.668,19.043,21.484,0
1582221903.250,30.273,36.133,18.555,20.020,0
1582221903.254,33.691,27.832,16.602,14.160,0
1582221903.258,27.344,30.762,17.090,9.277,0
1582221903.261,22.461,41.016,15.625,11.719,0
1582221903.265,29.297,37.598,14.648,10.254,0
1582221903.269,28.809,30.273,19.043,3.906,0
1582221903.273,31.250,41.992,20.508,11.230,0
1582221903.277,26.367,35.156,19.043,18.066,0
1582221903.279,16.602,30.762,18.555,14.160,0
1582221903.283,13.672,38.086,15.137,16.113,0
1582221903.287,9.766,34.180,13.184,14.648,0
1582221903.291,6.348,34.180,15.137,14.648,0
1582221903.295,11.719,24.414,17.578,23.926,0
1582221903.299,7.812,20.508,21.484,22.949,0
1582221903.303,8.301,38.086,22.949,27.832,0
1582221903.306,12.695,42.480,23.438,28.320,0
1582221903.310,7.324,41.016,22.949,20.996,0
1582221903.314,5.371,38.086,22.949,17.578,0
1582221903.318,8.301,35.645,25.879,17.090,0
1582221903.322,8.789,30.762,27.832,24.902,0
1582221903.324,8.789,24.902,28.320,26.367,0
1582221903.328,15.625,30.273,30.273,24.902,0
1582221903.332,22.949,25.391,29.297,24.902,0
1582221903.336,21.484,22.949,27.344,24.902,0
1582221903.340,24.414,37.109,24.414,23.438,0
1582221903.344,35.156,41.504,25.391,22.461,0
1582221903.348,39.062,36.133,33.691,18.555,0
1582221903.351,43.457,39.551,32.715,15.625,0
1582221903.355,48.340,34.180,29.785,21.484,0
1582221903.359,46.387,31.738,32.227,20.996,0
1582221903.363,48.340,26.367,30.273,21.484,0
1582221903.367,45.410,28.320,32.715,26.855,0
1582221903.370,32.715,38.086,35.645,28.320,0
1582221903.374,23.926,27.344,37.598,30.762,0
1582221903.378,13.672,31.250,35.645,31.738,0
1582221903.382,13.672,38.574,31.250,23.926,0
1582221903.386,20.996,31.250,34.180,18.555,0
1582221903.390,13.672,28.320,35.156,16.602,0
1582221903.394,8.789,30.762,33.691,14.160,0
1582221903.397,12.695,35.156,31.738,17.090,0
1582221903.401,4.883,36.621,28.809,14.160,0
1582221903.405,-5.371,33.203,26.855,11.719,0
1582221903.409,0.977,30.273,26.855,23.926,0
1582221903.413,3.906,29.785,26.367,23.438,0
1582221903.415,2.441,25.391,25.879,16.602,0
1582221903.419,3.906,14.160,27.832,20.508,0
1582221903.423,4.883,24.414,28.320,23.926,0
1582221903.427,20.996,39.062,25.391,28.320,0
1582221903.431,25.391,35.156,22.949,28.320,0
1582221903.435,16.602,36.621,24.902,26.855,0
1582221903.439,18.555,39.551,26.855,22.461,0
1582221903.442,22.461,42.969,27.832,20.020,0
1582221903.446,24.902,44.434,25.391,21.973,0
1582221903.450,16.113,35.156,24.414,18.066,0
1582221903.454,8.301,34.180,23.438,18.555,0
1582221903.458,10.742,33.203,23.926,12.695,0
1582221903.460,18.555,24.902,27.344,6.836,0
1582221903.464,24.902,23.926,24.902,12.207,0
1582221903.468,17.578,30.273,25.391,15.137,0
1582221903.472,14.160,34.180,26.367,17.578,0
1582221903.476,18.555,31.250,24.414,12.207,0
1582221903.480,21.484,29.785,28.320,12.207,0
1582221903.484,16.113,31.250,31.738,11.230,0
1582221903.487,10.742,33.691,29.297,10.254,0
1582221903.491,1.465,37.109,27.344,13.184,0
1582221903.495,7.324,42.480,26.855,11.719,0
1582221903.499,11.230,31.250,28.809,17.578,0
1582221903.503,7.812,30.762,31.250,26.367,0
1582221903.505,12.695,36.133,34.668,22.461,0
1582221903.509,13.672,27.832,35.645,22.461,0
1582221903.513,16.113,25.391,36.621,33.691,0
1582221903.517,18.555,32.715,38.086,31.250,0
1582221903.521,19.043,29.785,35.156,25.879,0
1582221903.525,16.602,17.090,34.180,30.273,0
1582221903.529,20.508,21.973,33.691,27.344,0
1582221903.532,15.625,36.133,28.809,21.973,0
1582221903.536,10.254,41.016,26.855,20.508,0
1582221903.540,7.812,35.645,28.809,19.531,0
1582221903.544,13.672,27.832,31.250,20.996,0
1582221903.548,19.531,24.902,34.668,18.555,0
1582221903.565,12.207,31.250,30.762,20.996,0
1582221903.569,12.695,33.691,30.273,20.996,0
1582221903.573,17.090,31.250,32.715,21.484,0
1582221903.577,15.625,24.902,32.715,18.555,0
1582221903.581,15.625,28.809,32.715,22.949,0
1582221903.585,19.043,27.832,28.320,30.273,0
1582221903.589,16.113,20.020,26.855,24.414,0
1582221903.592,16.602,30.762,27.344,24.902,0
1582221903.596,12.207,26.855,29.297,28.809,0
1582221903.600,6.348,27.344,29.785,24.414,0
1582221903.604,16.602,45.410,28.809,25.391,0
1582221903.608,25.391,45.410,25.879,33.691,0
1582221903.610,15.625,39.062,27.344,38.086,0
1582221903.614,8.789,28.320,32.227,31.250,0
1582221903.618,16.113,20.996,34.668,28.320,0
1582221903.622,16.602,20.020,32.227,27.832,0
1582221903.626,12.695,28.320,33.203,24.414,0
1582221903.630,14.648,30.273,35.156,26.855,0
1582221903.634,13.184,30.273,27.344,23.438,0
1582221903.637,8.789,22.949,22.461,21.484,0
1582221903.641,4.395,22.461,22.461,15.137,0
1582221903.645,7.812,37.109,22.949,13.184,0
1582221903.649,14.648,33.203,23.438,20.020,0
1582221903.653,20.996,28.809,23.438,21.973,0
1582221903.655,24.414,21.484,22.461,21.973,0
1582221903.659,21.973,24.414,21.973,26.367,0
1582221903.663,28.320,41.016,24.902,26.367,0
1582221903.667,33.691,39.062,24.902,28.320,0
1582221903.671,33.203,25.879,26.855,30.273,0
1582221903.675,35.645,25.879,27.832,36.621,0
1582221903.679,31.250,30.762,27.832,26.855,0
1582221903.682,26.855,22.461,26.367,14.648,0
1582221903.686,24.414,23.438,25.879,16.113,0
1582221903.690,15.137,34.668,28.320,19.531,0
1582221903.694,12.695,36.133,28.809,23.438,0
1582221903.698,15.137,31.250,25.391,18.066,0
1582221903.700,19.043,35.645,23.438,22.461,0
1582221903.704,13.184,33.203,24.414,28.809,0
1582221903.708,6.836,29.297,25.879,26.367,0
1582221903.712,17.090,34.668,26.855,25.391,0
1582221903.716,28.809,31.738,27.832,28.320,0
1582221903.720,26.367,32.227,25.879,26.855,0
1582221903.724,13.184,18.555,24.902,23.438,0
1582221903.727,9.766,15.625,27.832,28.320,0
1582221903.731,24.414,31.250,27.832,22.461,0
1582221903.735,24.902,23.438,30.762,13.672,0
1582221903.739,15.137,23.438,31.738,17.578,0
1582221903.743,7.324,38.086,31.250,16.602,0
1582221903.745,13.184,37.109,29.297,13.672,0
1582221903.749,20.996,29.297,28.320,16.113,0
1582221903.753,29.297,35.156,29.785,20.996,0
1582221903.757,29.785,41.504,27.344,24.414,0
1582221903.761,10.254,32.715,25.391,21.484,0
1582221903.765,12.695,20.996,26.855,25.391,0
1582221903.769,13.184,24.414,26.367,22.461,0
1582221903.772,9.277,26.855,29.297,10.742,0
1582221903.776,11.719,22.949,27.344,18.555,0
1582221903.780,10.742,25.879,20.508,19.531,0
1582221903.784,7.812,21.973,21.484,9.277,0
1582221903.788,8.789,29.785,23.438,15.137,0
1582221903.790,6.836,37.598,20.508,17.578,0
1582221903.794,8.789,34.180,17.578,14.160,0
1582221903.798,12.695,36.621,16.602,11.719,0
1582221903.802,8.789,24.414,15.625,12.207,0
1582221903.806,8.789,13.672,16.113,16.602,0
1582221903.810,15.625,25.879,16.602,20.508,0
1582221903.814,7.812,36.621,16.113,23.926,0
1582221903.817,2.441,35.156,16.113,22.949,0
1582221903.821,10.742,38.086,18.066,20.508,0
1582221903.825,17.578,37.109,18.555,20.508,0
1582221903.829,16.113,33.691,16.113,22.461,0
1582221903.833,16.113,23.438,15.137,21.973,0
1582221903.835,25.391,20.508,14.648,18.555,0
1582221903.839,24.414,27.832,14.160,18.555,0
1582221903.843,26.855,36.621,15.137,20.020,0
1582221903.847,27.832,46.875,11.230,15.625,0
1582221903.851,17.578,38.574,9.277,6.836,0
1582221903.855,10.742,31.250,11.719,6.836,0
1582221903.859,20.020,35.645,11.719,8.301,0
1582221903.862,22.949,36.133,10.254,9.277,0
1582221903.866,14.160,23.438,14.648,16.113,0
1582221903.870,10.254,24.414,18.555,17.578,0
1582221903.874,15.137,35.645,20.996,21.484,0
1582221903.878,6.348,36.621,19.531,19.043,0
1582221903.895,-0.488,30.762,19.043,8.789,0
1582221903.899,3.418,24.414,22.461,9.277,0
1582221903.903,1.465,31.250,22.949,12.695,0
1582221903.907,-2.441,29.785,22.949,5.859,0
1582221903.911,-5.371,20.508,23.926,11.230,0
1582221903.915,-2.930,23.438,27.344,17.578,0
1582221903.919,5.859,38.086,28.809,16.602,0
1582221903.922,11.230,43.457,25.391,14.160,0
1582221903.926,5.859,39.551,26.855,10.254,0
1582221903.930,4.395,34.180,29.297,14.648,0
1582221903.934,16.113,32.227,27.832,23.926,0
1582221903.938,18.066,28.320,26.367,20.996,0
1582221903.940,20.996,27.832,26.367,15.137,0
1582221903.944,20.996,36.621,23.926,16.602,0
1582221903.948,17.578,28.809,22.461,23.926,0
1582221903.952,18.555,21.973,21.973,20.508,0
1582221903.956,27.344,31.250,20.996,11.719,0
1582221903.960,30.273,28.809,25.879,12.695,0
1582221903.964,20.996,32.715,24.902,14.648,0
1582221903.967,24.414,40.039,24.902,17.090,0
1582221903.971,27.344,31.738,26.367,18.066,0
1582221903.975,24.414,27.344,26.855,13.184,0
1582221903.979,16.113,31.738,27.832,11.230,0
1582221903.983,11.230,35.645,25.879,11.719,0
1582221903.985,7.812,37.109,25.879,15.625,0
1582221903.989,2.441,26.855,24.414,12.695,0
1582221903.993,-4.883,22.461,22.949,1.465,0
1582221903.997,-10.742,27.344,23.438,14.648,0
1582221904.001,-0.977,28.320,23.926,27.344,0
1582221904.005,13.672,33.203,25.391,25.391,0
1582221904.009,6.348,37.598,26.367,16.602,0
1582221904.012,4.395,34.668,26.855,18.555,0
1582221904.016,13.672,32.227,26.855,24.414,0
1582221904.020,16.113,32.715,30.273,15.137,0
1582221904.024,16.602,32.715,28.320,16.602,0
1582221904.028,21.973,37.598,28.320,20.996,0
1582221904.030,25.879,32.227,30.762,25.879,0
1582221904.034,30.762,32.715,24.902,27.344,0
1582221904.038,30.762,38.086,22.461,21.484,0
1582221904.042,20.508,29.785,26.367,17.090,0
1582221904.046,16.113,31.250,25.391,4.883,0
1582221904.050,18.555,37.598,24.902,-0.488,0
1582221904.054,15.137,27.344,26.855,1.465,0
1582221904.057,7.812,22.461,28.320,-0.977,0
1582221904.061,7.324,32.715,29.785,-4.395,0
1582221904.065,4.395,31.250,24.902,-8.301,0
1582221904.069,7.812,28.320,24.902,-0.488,0
1582221904.073,11.230,25.879,27.832,2.930,0
1582221904.074,-2.930,32.227,21.973,0.000,0
1582221904.078,-6.348,41.504,18.066,9.277,0
1582221904.082,5.859,25.879,17.578,9.766,0
1582221904.086,9.766,27.344,18.555,13.672,0
1582221904.090,5.859,37.109,20.508,14.160,0
1582221904.094,1.953,29.297,22.461,1.953,0
1582221904.098,6.348,34.180,21.484,12.207,0
1582221904.101,5.859,33.691,19.043,15.625,0
1582221904.105,5.371,15.137,21.973,6.348,0
1582221904.109,3.906,26.855,22.949,10.254,0
1582221904.113,3.418,43.457,22.949,16.602,0
1582221904.117,12.207,28.320,26.367,13.672,0
1582221904.119,10.742,27.344,29.297,10.254,0
1582221904.123,-1.953,36.621,29.297,13.672,0
1582221904.127,4.395,31.250,30.762,18.066,0
1582221904.131,13.672,30.762,27.832,20.508,0
1582221904.135,17.090,29.785,28.809,22.461,0
1582221904.139,16.602,22.949,31.250,24.902,0
1582221904.143,12.695,21.973,30.273,25.391,0
1582221904.146,15.137,25.391,30.273,20.508,0
1582221904.150,23.438,28.320,26.367,20.020,0
1582221904.154,15.625,31.250,24.414,20.508,0
1582221904.158,8.789,28.320,26.855,13.672,0
1582221904.162,9.277,28.320,27.344,13.184,0
1582221904.164,8.789,24.902,25.391,19.043,0
1582221904.168,2.930,15.625,23.438,12.207,0
1582221904.172,-2.930,27.344,24.902,7.812,0
1582221904.176,-3.906,40.527,23.438,0.000,0
1582221904.180,0.000,41.992,22.949,1.953,0
1582221904.184,0.488,39.062,26.367,8.301,0
1582221904.188,1.953,34.180,24.414,5.371,0
1582221904.191,0.488,26.855,26.855,7.812,0
1582221904.195,-3.906,29.297,30.273,9.766,0
1582221904.199,10.742,24.902,31.738,22.949,0
1582221904.203,10.742,24.902,32.227,31.250,0
1582221904.207,-2.930,37.109,29.785,31.738,0
1582221904.209,5.859,34.180,30.273,32.715,0
1582221904.213,17.578,26.855,31.738,30.762,0
1582221904.217,20.020,29.297,31.250,23.438,0
1582221904.221,31.738,41.016,32.227,21.973,0
1582221904.225,40.039,40.527,35.156,26.855,0
1582221904.229,45.410,37.598,33.691,26.367,0
1582221904.233,51.270,26.855,35.645,18.066,0
1582221904.236,49.316,35.156,35.156,20.020,0
1582221904.240,41.992,46.875,29.785,22.949,0
1582221904.244,29.785,31.738,33.203,18.555,0
1582221904.248,17.578,24.902,35.156,24.414,0
1582221904.252,13.184,27.832,34.668,23.438,0
1582221904.254,13.672,24.414,33.203,26.367,0
1582221904.258,12.207,29.297,31.250,25.879,0
1582221904.262,10.742,37.109,29.297,18.066,0
1582221904.266,6.836,28.320,27.832,16.113,0
1582221904.270,9.277,25.391,29.785,16.113,0
1582221904.274,19.531,37.598,27.344,16.602,25621
1582221904.278,17.090,43.945,24.902,4.883,0
1582221904.281,4.395,40.039,27.344,-1.465,0
1582221904.285,3.906,39.551,22.949,0.488,0
1582221904.289,17.090,36.133,19.531,3.418,0
1582221904.293,13.672,34.180,22.949,10.254,0
1582221904.297,5.371,34.180,22.461,17.578,0
1582221904.314,19.043,21.484,23.438,20.996,0
1582221904.318,30.273,21.484,25.391,23.926,0
1582221904.322,34.668,29.785,29.297,25.879,0
1582221904.326,28.320,32.227,30.762,32.715,0
1582221904.330,24.902,39.551,25.391,36.133,0
1582221904.334,29.297,40.039,25.879,29.297,0
1582221904.338,27.832,30.273,25.391,34.668,0
1582221904.341,30.762,26.855,21.973,35.156,0
1582221904.345,23.926,37.109,24.902,29.785,0
1582221904.349,22.949,37.598,30.273,26.367,0
1582221904.353,29.785,32.227,27.344,22.461,0
1582221904.357,24.902,29.785,23.926,21.484,0
1582221904.359,16.602,30.273,25.391,20.508,0
1582221904.363,13.184,37.598,26.367,15.137,0
1582221904.367,8.301,36.133,28.320,5.859,0
1582221904.371,7.812,26.855,26.367,7.812,0
1582221904.375,11.230,20.996,24.414,6.348,0
1582221904.379,-1.465,21.973,25.879,1.953,0
1582221904.383,-5.371,36.133,24.414,3.418,0
1582221904.386,11.719,36.621,23.926,-4.883,0
1582221904.390,9.277,29.297,25.879,-6.836,0
1582221904.394,-2.930,32.227,23.926,-5.371,0
1582221904.398,-6.836,33.691,23.926,-8.301,0
1582221904.402,1.465,30.273,25.391,-2.441,0
1582221904.404,7.812,24.414,27.832,6.348,0
1582221904.408,9.277,26.367,31.738,14.648,0
1582221904.412,11.719,35.156,29.297,17.578,0
1582221904.416,16.113,35.645,27.344,15.625,0
1582221904.420,24.902,20.996,27.344,19.043,0
1582221904.424,27.344,20.996,25.879,24.902,0
1582221904.428,24.902,34.180,26.367,23.926,0
1582221904.431,27.344,36.621,25.391,23.926,0
1582221904.435,41.504,40.039,21.973,25.391,0
1582221904.439,34.180,35.156,24.414,28.809,0
1582221904.443,20.508,37.598,24.414,34.180,0
1582221904.447,37.598,44.922,20.508,38.086,0
1582221904.449,33.691,37.109,21.973,29.785,0
1582221904.453,24.414,37.109,17.578,26.367,0
1582221904.457,28.320,35.156,18.066,29.785,0
1582221904.461,24.902,31.738,17.578,26.855,0
1582221904.465,20.508,33.203,15.625,26.367,0
1582221904.469,21.973,18.555,20.996,23.926,0
1582221904.473,20.508,18.555,22.461,24.902,0
1582221904.476,6.836,37.598,20.996,23.926,0
1582221904.480,4.395,36.621,17.578,12.207,0
1582221904.484,16.113,26.367,14.648,7.324,0
1582221904.488,16.602,34.668,15.137,13.184,0
1582221904.492,16.113,39.551,18.555,20.508,0
1582221904.495,16.602,33.203,18.066,15.137,0
1582221904.499,25.879,28.809,22.949,19.043,0
1582221904.503,29.297,22.949,24.902,26.855,0
1582221904.507,24.414,36.621,24.414,30.762,0
1582221904.511,27.832,40.039,27.344,31.250,0
1582221904.515,29.297,35.645,26.855,27.344,0
1582221904.519,27.832,40.039,30.273,32.715,0
1582221904.522,29.297,38.574,36.133,37.598,0
1582221904.526,26.367,25.391,34.180,32.227,0
1582221904.530,30.273,21.484,33.691,32.227,0
1582221904.534,29.297,26.855,39.062,34.668,0
1582221904.538,17.090,35.156,34.180,37.598,0
1582221904.540,21.973,34.668,33.691,40.527,0
1582221904.544,31.250,27.832,38.086,35.645,0
1582221904.548,29.297,35.156,35.645,30.273,0
1582221904.552,22.461,44.922,34.668,31.738,0
1582221904.556,25.391,32.715,35.156,32.227,0
1582221904.560,32.715,19.531,36.621,30.762,0
1582221904.564,27.832,28.809,36.621,27.832,0
1582221904.567,15.625,40.527,36.133,20.508,0
1582221904.571,4.395,27.344,33.203,23.438,0
1582221904.575,10.742,27.344,31.738,30.273,0
1582221904.579,20.020,32.715,30.762,27.344,0
1582221904.583,17.090,23.926,30.762,24.902,0
1582221904.585,11.230,31.250,33.203,28.809,0
1582221904.589,4.883,35.645,31.738,28.320,0
1582221904.593,13.184,35.645,32.227,31.250,0
1582221904.597,18.555,29.297,34.668,38.086,0
1582221904.601,20.020,26.367,36.133,36.133,0
1582221904.605,23.926,30.273,37.109,38.574,0
1582221904.609,25.391,30.273,40.039,35.645,0
1582221904.612,29.297,27.832,37.598,32.715,0
1582221904.616,31.250,32.227,35.645,36.133,0
1582221904.620,33.203,38.574,37.598,31.250,0
1582221904.624,33.691,38.574,38.574,33.203,0
1582221904.628,31.250,37.109,39.551,29.785,0
1582221904.645,26.855,34.668,38.574,20.508,0
1582221904.649,26.855,30.762,36.621,24.902,0
1582221904.653,21.973,32.715,34.668,23.438,0
1582221904.657,13.672,32.715,34.668,14.160,0
1582221904.661,16.602,23.438,34.180,19.043,0
1582221904.665,19.043,26.855,31.738,18.555,0
1582221904.669,16.602,36.133,29.785,15.625,0
1582221904.672,20.508,36.621,28.320,17.578,0
1582221904.676,21.484,26.367,30.762,21.484,0
1582221904.680,16.602,19.531,33.203,24.902,0
1582221904.684,16.602,34.668,32.715,28.320,0
1582221904.688,21.973,44.434,32.715,29.785,0
1582221904.690,24.414,35.645,34.180,27.832,0
1582221904.694,21.484,33.203,32.227,28.320,0
1582221904.698,15.625,37.109,30.273,34.180,0
1582221904.702,22.949,38.086,29.297,32.715,0
1582221904.706,34.180,31.250,28.809,24.414,0
1582221904.710,26.367,25.879,26.367,10.254,0
1582221904.714,19.043,34.180,20.020,15.137,0
1582221904.717,31.250,36.621,17.090,30.273,0
1582221904.721,37.109,30.273,18.555,25.879,0
1582221904.725,29.785,24.414,19.531,19.531,0
1582221904.729,22.949,26.855,21.484,20.020,0
1582221904.733,19.043,39.551,21.973,20.020,0
1582221904.735,16.113,34.668,19.531,10.254,0
1582221904.739,15.625,31.250,19.043,6.348,0
1582221904.743,8.789,33.691,20.508,6.836,0
1582221904.747,5.371,33.691,22.949,4.395,0
1582221904.751,13.672,41.504,22.949,9.277,0
1582221904.755,19.531,40.039,19.043,10.742,0
1582221904.759,18.555,31.738,16.602,8.789,0
1582221904.762,20.508,28.809,17.578,12.207,0
1582221904.766,20.020,25.879,20.020,14.648,0
1582221904.770,11.719,26.855,19.043,3.906,0
1582221904.774,10.254,33.691,18.066,0.977,0
1582221904.778,17.090,31.738,17.578,17.090,0
1582221904.780,20.996,38.086,20.508,20.996,0
1582221904.784,21.973,37.598,25.391,9.766,0
1582221904.788,21.484,22.949,25.879,15.625,0
1582221904.792,20.996,14.160,25.879,23.438,0
1582221904.796,20.508,27.344,25.879,24.414,0
1582221904.800,20.020,36.133,26.367,18.066,0
1582221904.804,15.625,33.691,26.855,13.184,0
1582221904.807,10.254,31.738,28.809,18.555,0
1582221904.811,13.672,19.043,29.785,20.508,0
1582221904.815,20.020,8.789,28.320,20.996,0
1582221904.819,22.949,29.785,28.320,18.066,0
1582221904.823,22.949,41.504,27.344,16.113,0
1582221904.825,17.090,38.574,26.367,17.578,0
1582221904.829,17.090,37.109,27.344,27.832,0
1582221904.833,23.438,30.762,29.297,25.879,0
1582221904.837,29.297,21.484,30.762,17.578,0
1582221904.841,24.902,21.484,29.785,16.602,0
1582221904.845,15.137,30.762,28.320,14.648,0
1582221904.849,16.602,31.250,24.902,15.625,0
1582221904.852,20.020,31.738,24.902,15.137,0
1582221904.856,20.020,30.273,27.344,13.672,0
1582221904.860,19.043,30.273,22.461,22.949,0
1582221904.864,20.996,43.945,22.461,26.855,0
1582221904.868,24.414,37.598,24.902,16.113,0
1582221904.870,20.508,34.668,25.879,12.207,0
1582221904.874,21.973,35.645,29.297,24.414,0
1582221904.878,18.555,21.973,29.297,23.926,0
1582221904.882,17.578,20.996,25.391,17.090,0
1582221904.886,21.973,23.926,25.879,20.020,0
1582221904.890,12.207,31.738,29.297,20.996,0
1582221904.894,8.301,41.504,27.832,16.113,0
1582221904.897,13.184,39.551,28.320,12.695,0
1582221904.901,15.137,33.203,26.855,12.695,0
1582221904.905,11.719,27.832,21.973,11.230,0
1582221904.909,14.648,35.156,21.973,16.113,0
1582221904.913,18.066,42.480,21.484,20.020,0
1582221904.915,19.043,31.738,21.973,16.602,0
1582221904.919,18.066,29.785,24.902,17.090,0
1582221904.923,25.391,34.668,22.949,14.160,0
1582221904.927,32.227,20.508,24.414,12.207,0
1582221904.931,29.785,21.484,27.832,12.695,0
1582221904.935,25.391,35.645,24.414,6.348,0
1582221904.939,16.602,37.109,20.996,4.883,0
1582221904.942,11.230,38.574,21.973,-0.488,0
1582221904.946,14.160,41.504,24.902,-5.371,0
1582221904.950,17.090,42.480,28.320,-1.465,0
1582221904.954,11.719,39.062,29.785,-2.441,0
1582221904.958,13.672,27.832,30.273,2.930,0
1582221904.960,25.391,24.902,28.809,7.324,0
1582221904.964,18.555,35.645,28.320,8.301,0
1582221904.968,9.277,41.992,26.855,12.207,0
1582221904.972,14.648,33.691,20.508,10.742,0
1582221904.976,20.020,26.367,20.508,12.695,0
1582221904.980,23.438,29.785,26.855,16.602,0
1582221904.984,26.367,36.621,27.832,21.973,0
1582221904.987,19.531,39.062,23.926,20.020,0
1582221904.991,19.531,29.785,27.344,11.719,0
1582221904.995,23.438,27.832,30.273,13.184,0
1582221904.999,17.090,39.062,25.879,13.672,0
1582221905.003,19.531,40.527,26.367,12.207,0
1582221905.263,25.391,35.156,29.785,16.113,0
