timestamps,TP9,AF7,AF8,TP10,Right AUX,Marker0
1581710942.601,-68.359,20.508000000000006,292.48,-37.109,0.0,0
1581710942.605,-54.199,30.273000000000003,313.4770000000001,-34.668,0.0,0
1581710942.609,-38.574,5.859,331.543,-39.062,0.0,0
1581710942.613,-33.691,14.648,307.129,-24.902,0.0,0
1581710942.617,-28.809,-1.465,267.578,-21.484,0.0,0
1581710942.621,-37.109,-37.598,286.133,-44.922,0.0,0
1581710942.625,-15.625,12.695,349.6090000000001,1.953,0.0,0
1581710942.6279998,-26.855,27.344,314.941,4.395,0.0,0
1581710942.6320002,-52.246,10.254,230.469,-43.945,0.0,0
1581710942.6360002,-57.129,8.789,259.766,-26.855,0.0,0
1581710942.64,-68.359,3.906,306.641,-24.414,0.0,0
1581710942.644,-61.035,-55.176,294.922,-23.926,0.0,0
1581710942.646,-32.715,-39.062,283.691,10.254,0.0,0
1581710942.65,-18.555,35.156,282.2270000000001,35.645,0.0,0
1581710942.654,-23.438,36.133,250.488,37.109,0.0,0
1581710942.658,-45.41,24.902,247.55900000000003,37.598,0.0,0
1581710942.6620002,-55.664,12.207,284.18,44.434,0.0,0
1581710942.666,-22.949,25.879,288.574,58.594,0.0,0
1581710942.67,-22.461,31.738000000000003,274.414,68.359,0.0,0
1581710942.673,-43.945,29.785,264.16,88.867,0.0,0
1581710942.677,-43.457,20.996,267.09,120.117,0.0,0
1581710942.681,-56.64100000000001,-5.371,264.16,121.582,0.0,0
1581710942.685,-62.988,-7.324,253.418,121.094,0.0,0
1581710942.689,-83.008,5.371,256.836,116.211,0.0,0
1581710942.691,-124.512,5.859,271.973,104.492,0.0,0
1581710942.695,-157.227,-0.977,271.48400000000004,88.37899999999998,0.0,0
1581710942.699,-147.94899999999996,-7.324,274.902,100.098,0.0,0
1581710942.7029998,-136.23,20.02,270.996,121.582,0.0,0
1581710942.707,-178.22299999999996,27.344,272.461,102.051,0.0,0
1581710942.711,-236.816,28.809,255.859,58.105,0.0,0
1581710942.715,-240.234,80.078,220.215,60.547,0.0,0
1581710942.718,-229.004,82.031,240.234,80.566,0.0,0
1581710942.722,-236.328,77.637,252.93,83.008,0.0,0
1581710942.726,-267.578,76.172,226.562,69.824,0.0,0
1581710942.73,-259.277,61.035,208.008,77.637,0.0,0
1581710942.734,-225.098,42.969,213.867,125.0,0.0,0
1581710942.7510002,-242.188,51.27,205.078,121.582,0.0,0
1581710942.755,-246.582,83.008,193.359,120.117,0.0,0
1581710942.7589998,-230.469,87.891,185.05900000000003,146.97299999999996,0.0,0
1581710942.7629998,-207.52,81.055,173.34,160.645,0.0,0
1581710942.7670002,-187.012,89.844,166.50400000000005,179.199,0.0,0
1581710942.771,-202.148,82.52,168.457,214.844,0.0,0
1581710942.775,-209.473,83.984,169.922,242.676,0.0,0
1581710942.778,-184.082,68.848,160.645,261.23,0.0,0
1581710942.782,-170.898,36.133,150.391,286.621,0.0,0
1581710942.786,-185.05900000000003,78.613,147.461,300.781,0.0,0
1581710942.79,-179.199,118.164,140.137,312.012,0.0,0
1581710942.794,-150.391,105.469,123.047,333.9840000000001,0.0,0
1581710942.796,-134.27700000000002,93.75,110.84,345.215,0.0,0
1581710942.8,-135.74200000000002,87.402,92.773,329.59,0.0,0
1581710942.804,-121.582,99.121,83.984,355.469,0.0,0
1581710942.8079998,-93.262,100.586,68.848,416.016,0.0,0
1581710942.812,-84.961,62.5,48.34,418.945,0.0,0
1581710942.816,-90.82,61.523,36.133,400.391,0.0,0
1581710942.82,-81.543,82.52,22.949,438.477,0.0,0
1581710942.823,-66.895,89.844,14.16,472.656,0.0,0
1581710942.827,-48.828,64.453,-6.836,494.141,0.0,0
1581710942.831,-22.461,28.809,-23.926,546.875,0.0,0
1581710942.835,-22.949,39.062,-41.992,598.145,0.0,0
1581710942.839,-2.93,51.27,-68.359,652.344,0.0,0
1581710942.841,4.395,41.504,-83.008,713.3789999999998,0.0,0
1581710942.845,-11.23,30.762,-95.703,760.2539999999998,0.0,0
1581710942.849,-2.441,25.391,-124.512,802.7339999999998,0.0,0
1581710942.853,20.996,10.254,-163.57399999999996,862.793,0.0,0
1581710942.857,45.898,0.0,-191.406,921.875,0.0,0
1581710942.861,48.34,-4.883,-208.496,975.586,0.0,0
1581710942.865,34.18,-1.953,-229.98,998.535,0.0,0
1581710942.8679998,30.762,-19.043,-251.465,998.535,0.0,0
1581710942.8720002,36.133,-41.01600000000001,-275.391,999.023,0.0,0
1581710942.8760002,41.504,-13.672,-293.457,999.512,0.0,0
1581710942.88,30.273000000000003,11.23,-305.176,998.047,0.0,0
1581710942.8839998,5.371,0.977,-318.848,999.023,0.0,0
1581710942.8860002,1.953,-11.719,-326.172,998.047,0.0,0
1581710942.89,19.043,-20.02,-325.684,946.289,0.0,0
1581710942.894,21.484,-28.32,-330.0780000000001,890.137,0.0,0
1581710942.8979998,12.207,-37.598,-341.309,849.6089999999998,0.0,0
1581710942.9020002,25.391,-49.805,-353.027,795.898,0.0,0
1581710942.906,47.363,-52.734,-358.398,758.301,0.0,0
1581710942.91,54.199,-37.109,-359.86300000000006,717.773,0.0,0
1581710942.913,40.039,-40.039,-363.281,666.5039999999998,0.0,0
1581710942.917,46.387,-59.082,-363.281,626.465,0.0,0
1581710942.921,73.242,-35.645,-367.676,587.891,0.0,0
1581710942.925,72.266,-24.414,-375.0,540.5269999999998,0.0,0
1581710942.929,52.246,-43.945,-373.535,500.977,0.0,0
1581710942.931,58.105,-41.992,-368.164,498.047,0.0,0
1581710942.935,74.219,-39.551,-361.328,500.48800000000006,0.0,0
1581710942.939,85.449,-40.039,-354.98,514.648,0.0,0
1581710942.9429998,72.266,-41.01600000000001,-352.539,553.711,0.0,0
1581710942.947,51.27,-48.828,-354.004,575.195,0.0,0
1581710942.951,60.547,-50.78100000000001,-355.957,613.281,0.0,0
1581710942.955,70.801,-43.945,-352.051,666.5039999999998,0.0,0
1581710942.958,67.87100000000001,-45.41,-345.7030000000001,714.8439999999998,0.0,0
1581710942.962,59.57,-44.434,-344.23800000000006,768.555,0.0,0
1581710942.966,55.664,-26.367,-343.26199999999994,819.336,0.0,0
1581710942.97,61.035,-11.719,-343.26199999999994,865.2339999999998,0.0,0
1581710942.974,69.824,-7.324,-340.82,891.602,0.0,0
1581710942.976,58.105,-6.836,-327.637,899.9019999999998,0.0,0
1581710942.98,42.969,-0.977,-325.684,910.156,0.0,0
1581710942.984,55.176,-13.672,-331.543,898.438,0.0,0
1581710942.988,65.43,-32.227,-332.031,861.816,0.0,0
1581710942.992,66.406,-39.062,-337.891,805.664,0.0,0
1581710942.996,63.477,-51.27,-339.844,745.605,0.0,0
1581710943.0,57.129,-52.734,-342.285,694.824,0.0,0
1581710943.0029998,75.195,-52.734,-348.145,675.293,0.0,0
1581710943.0070002,70.312,-41.01600000000001,-352.051,680.176,0.0,0
1581710943.0110002,55.176,-37.109,-356.445,679.199,0.0,0
1581710943.015,60.059,-65.43,-358.398,696.7769999999998,0.0,0
1581710943.019,76.66,-70.312,-353.516,723.633,0.0,0
1581710943.021,73.242,-65.43,-348.145,732.91,0.0,0
1581710943.025,64.941,-66.895,-343.75,752.93,0.0,0
1581710943.029,72.266,-57.617,-347.168,772.949,0.0,0
1581710943.033,91.797,-59.082,-355.957,779.785,0.0,0
1581710943.0370002,106.445,-69.824,-353.516,774.9019999999998,0.0,0
1581710943.041,80.078,-70.312,-353.516,773.438,0.0,0
1581710943.045,51.27,-75.684,-354.004,756.836,0.0,0
1581710943.048,61.035,-71.289,-355.957,753.418,0.0,0
1581710943.052,85.449,-54.688,-365.234,771.9730000000002,0.0,0
1581710943.056,70.801,-70.801,-366.211,758.301,0.0,0
1581710943.06,58.105,-89.355,-357.91,734.375,0.0,0
1581710943.064,68.848,-84.473,-354.004,715.82,0.0,0
1581710943.066,80.078,-78.613,-354.492,673.34,0.0,0
1581710943.07,89.355,-90.82,-354.98,624.023,0.0,0
1581710943.074,78.125,-94.238,-355.469,575.195,0.0,0
1581710943.0779998,83.984,-74.219,-358.398,537.5980000000002,0.0,0
1581710943.082,104.98,-70.312,-362.793,536.621,0.0,0
1581710943.086,100.098,-92.285,-373.535,556.1519999999998,0.0,0
1581710943.09,90.332,-89.844,-393.555,574.219,0.0,0
1581710943.093,96.191,-70.312,-405.762,582.031,0.0,0
1581710943.097,103.027,-66.406,-411.621,609.375,0.0,0
1581710943.101,109.863,-69.824,-407.715,644.531,0.0,0
1581710943.105,93.262,-71.777,-395.02,665.5269999999998,0.0,0
1581710943.109,74.707,-75.195,-383.789,672.852,0.0,0
1581710943.1260002,82.031,-70.801,-374.512,670.41,0.0,0
1581710943.13,94.238,-66.406,-366.211,678.711,0.0,0
1581710943.1339998,91.309,-54.688,-362.793,655.762,0.0,0
1581710943.1379998,88.867,-41.01600000000001,-360.84,614.258,0.0,0
1581710943.1420002,96.191,-39.062,-366.211,565.43,0.0,0
1581710943.146,107.91,-50.293,-372.07,505.859,0.0,0
1581710943.15,101.074,-60.547,-368.652,435.547,0.0,0
1581710943.153,93.262,-52.246,-365.723,366.211,0.0,0
1581710943.157,94.727,-49.316,-360.352,306.152,0.0,0
1581710943.161,97.168,-52.734,-350.098,238.281,0.0,0
1581710943.165,107.91,-39.062,-337.402,158.691,0.0,0
1581710943.169,93.262,-26.855,-331.543,96.191,0.0,0
1581710943.171,89.844,-36.133,-325.195,62.988,0.0,0
1581710943.175,94.238,-43.457,-314.453,17.578,0.0,0
1581710943.179,83.984,-40.039,-311.523,-5.859,0.0,0
1581710943.1829998,90.82,-41.01600000000001,-306.152,-14.16,0.0,0
1581710943.187,87.402,-51.27,-291.992,-29.785,0.0,0
1581710943.191,87.402,-67.383,-282.2270000000001,-44.922,0.0,0
1581710943.195,99.609,-70.312,-278.32,-49.316,0.0,0
1581710943.198,94.727,-65.43,-275.879,-41.01600000000001,0.0,0
1581710943.202,83.49600000000002,-75.195,-275.391,-16.113,0.0,0
1581710943.206,86.914,-90.82,-276.855,12.207,0.0,0
1581710943.21,100.586,-82.52,-277.832,36.133,0.0,0
1581710943.214,89.844,-74.707,-282.715,69.336,0.0,0
1581710943.216,74.219,-77.148,-282.715,116.699,0.0,0
1581710943.22,83.49600000000002,-62.988,-274.414,156.25,0.0,0
1581710943.224,89.355,-41.01600000000001,-265.137,191.406,0.0,0
1581710943.228,96.68,-45.898,-257.324,221.191,0.0,0
1581710943.232,94.727,-59.57,-250.0,234.863,0.0,0
1581710943.236,90.332,-62.988,-242.676,253.418,0.0,0
1581710943.24,82.031,-54.688,-237.305,250.0,0.0,0
1581710943.2429998,68.848,-43.457,-237.305,214.844,0.0,0
1581710943.2470002,66.406,-65.918,-233.887,162.59799999999996,0.0,0
1581710943.2510002,71.777,-66.895,-226.562,100.586,0.0,0
1581710943.255,83.984,-33.691,-219.727,36.621,0.0,0
1581710943.2589998,91.309,-37.598,-214.844,-20.996,0.0,0
1581710943.2610002,78.613,-50.78100000000001,-209.961,-80.078,0.0,0
1581710943.265,51.758,-45.41,-204.59,-129.395,0.0,0
1581710943.269,61.035,-45.41,-199.707,-162.59799999999996,0.0,0
1581710943.2729998,83.49600000000002,-56.152,-198.73,-216.30900000000003,0.0,0
1581710943.2770002,85.449,-65.43,-202.637,-256.836,0.0,0
1581710943.281,87.402,-66.406,-200.68400000000003,-261.719,0.0,0
1581710943.285,80.078,-62.012,-194.336,-256.836,0.0,0
1581710943.288,70.312,-51.27,-187.988,-261.23,0.0,0
1581710943.292,78.613,-47.363,-180.176,-255.859,0.0,0
1581710943.296,85.93799999999997,-32.227,-175.78099999999995,-236.328,0.0,0
1581710943.3,90.332,-19.531,-175.78099999999995,-207.52,0.0,0
1581710943.304,75.684,-4.883,-178.71099999999996,-186.523,0.0,0
1581710943.306,57.617,15.137,-182.617,-168.457,0.0,0
1581710943.31,65.43,31.25,-185.05900000000003,-133.789,0.0,0
1581710943.314,78.125,38.574,-178.22299999999996,-77.148,0.0,0
1581710943.3179998,66.406,32.227,-172.852,-30.273000000000003,0.0,0
1581710943.322,53.223,35.156,-175.78099999999995,1.465,0.0,0
1581710943.326,47.852,44.434,-166.50400000000005,46.875,0.0,0
1581710943.33,42.48,59.57,-162.109,103.027,0.0,0
1581710943.333,46.387,46.387,-162.59799999999996,130.371,0.0,0
1581710943.337,54.688,36.133,-159.18,123.535,0.0,0
1581710943.341,56.152,61.035,-161.13299999999995,136.719,0.0,0
1581710943.345,44.434,55.664,-156.25,166.50400000000005,0.0,0
1581710943.349,36.133,45.41,-148.92600000000004,197.754,0.0,0
1581710943.351,45.898,51.27,-148.92600000000004,214.844,0.0,0
1581710943.355,50.293,63.477,-146.97299999999996,216.30900000000003,0.0,0
1581710943.359,41.01600000000001,71.777,-145.50799999999995,225.586,0.0,0
1581710943.363,38.574,74.707,-143.555,239.746,0.0,0
1581710943.367,41.992,73.73,-136.23,218.262,0.0,0
1581710943.371,50.78100000000001,70.801,-129.395,187.012,0.0,0
1581710943.375,44.434,61.523,-132.32399999999998,149.90200000000004,0.0,0
1581710943.3779998,42.48,62.988,-135.254,104.98,0.0,0
1581710943.3820002,54.688,87.891,-130.859,69.336,0.0,0
1581710943.3860002,64.453,96.68,-129.88299999999998,26.367,0.0,0
1581710943.39,60.547,85.449,-132.32399999999998,-20.996,0.0,0
1581710943.394,52.734,77.637,-135.254,-59.57,0.0,0
1581710943.396,40.039,80.078,-134.766,-96.68,0.0,0
1581710943.4,46.387,94.727,-134.27700000000002,-132.32399999999998,0.0,0
1581710943.404,67.87100000000001,91.797,-132.32399999999998,-167.96900000000005,0.0,0
1581710943.408,66.895,98.145,-124.512,-201.66,0.0,0
1581710943.4120002,67.87100000000001,101.074,-122.07,-223.633,0.0,0
1581710943.416,93.262,96.191,-127.93,-225.098,0.0,0
1581710943.42,97.168,102.051,-123.535,-238.281,0.0,0
1581710943.423,78.125,105.469,-121.094,-254.395,0.0,0
1581710943.427,90.82,117.188,-123.047,-247.07,0.0,0
1581710943.431,99.121,124.023,-118.164,-240.234,0.0,0
1581710943.435,100.098,128.906,-116.699,-223.145,0.0,0
1581710943.439,86.914,117.188,-113.77,-222.168,0.0,0
1581710943.456,62.5,112.793,-110.84,-236.816,0.0,0
1581710943.46,62.5,106.445,-108.887,-238.77,0.0,0
1581710943.464,83.008,102.539,-107.422,-229.98,0.0,0
1581710943.468,73.73,106.445,-109.375,-216.797,0.0,0
1581710943.472,59.082,104.004,-104.492,-203.125,0.0,0
1581710943.476,61.523,95.215,-100.098,-196.289,0.0,0
1581710943.48,66.406,86.914,-102.539,-190.918,0.0,0
1581710943.4829998,57.129,94.727,-103.027,-190.43,0.0,0
1581710943.4870002,36.133,101.562,-102.539,-176.75799999999995,0.0,0
1581710943.4910002,37.598,80.566,-102.539,-166.016,0.0,0
1581710943.495,50.293,74.707,-102.051,-166.99200000000005,0.0,0
1581710943.4989998,47.852,87.891,-107.422,-169.922,0.0,0
1581710943.5010002,44.434,82.031,-108.398,-184.57,0.0,0
1581710943.505,52.246,74.707,-104.004,-184.082,0.0,0
1581710943.5089998,58.105,82.031,-104.004,-187.5,0.0,0
1581710943.5129998,63.965,86.914,-102.539,-212.891,0.0,0
1581710943.5170002,54.199,73.242,-102.051,-250.977,0.0,0
1581710943.521,38.086,61.523,-96.191,-284.668,0.0,0
1581710943.525,45.898,75.195,-93.75,-302.246,0.0,0
1581710943.528,62.012,98.633,-98.633,-315.43,0.0,0
1581710943.532,55.664,93.75,-96.68,-326.172,0.0,0
1581710943.536,36.621,66.895,-102.051,-345.7030000000001,0.0,0
1581710943.54,42.48,57.617,-105.957,-352.539,0.0,0
1581710943.544,52.734,65.918,-88.37899999999998,-341.309,0.0,0
1581710943.546,58.594,59.57,-78.613,-320.801,0.0,0
1581710943.55,48.828,63.477,-80.078,-302.7340000000001,0.0,0
1581710943.554,46.387,74.707,-74.219,-280.762,0.0,0
1581710943.5579998,59.082,69.336,-74.219,-252.441,0.0,0
1581710943.562,61.035,62.988,-80.566,-225.098,0.0,0
1581710943.566,66.406,60.059,-83.49600000000002,-187.012,0.0,0
1581710943.57,61.523,62.5,-83.984,-151.855,0.0,0
1581710943.573,62.5,65.43,-79.102,-119.141,0.0,0
1581710943.577,64.941,62.012,-83.49600000000002,-83.984,0.0,0
1581710943.581,60.547,64.453,-91.309,-69.824,0.0,0
1581710943.585,59.082,76.66,-87.402,-52.734,0.0,0
1581710943.589,54.199,72.75399999999998,-80.078,-34.18,0.0,0
1581710943.591,52.246,57.617,-83.49600000000002,-41.504,0.0,0
1581710943.595,59.57,50.78100000000001,-83.008,-40.039,0.0,0
1581710943.599,53.71100000000001,50.293,-75.195,-25.391,0.0,0
1581710943.603,41.504,57.129,-76.66,-27.344,0.0,0
1581710943.607,47.852,62.5,-77.637,-27.344,0.0,0
1581710943.611,58.105,54.199,-72.75399999999998,-32.715,0.0,0
1581710943.615,56.64100000000001,46.875,-67.87100000000001,-53.71100000000001,0.0,0
1581710943.6179998,61.035,60.059,-71.289,-45.898,0.0,0
1581710943.6220002,62.5,54.199,-74.219,-52.246,0.0,0
1581710943.6260002,57.129,42.969,-76.66,-82.52,0.0,0
1581710943.63,55.664,61.035,-74.707,-102.051,0.0,0
1581710943.6339998,52.246,56.64100000000001,-63.477,-110.84,0.0,0
1581710943.6360002,63.965,52.734,-59.082,-100.586,0.0,0
1581710943.64,73.242,59.082,-59.082,-95.703,0.0,0
1581710943.644,51.758,56.152,-64.941,-102.539,0.0,0
1581710943.6479998,39.062,50.78100000000001,-76.172,-108.398,0.0,0
1581710943.6520002,40.039,42.48,-82.52,-103.027,0.0,0
1581710943.656,38.086,45.898,-71.777,-84.961,0.0,0
1581710943.66,39.062,46.875,-69.336,-74.707,0.0,0
1581710943.663,32.227,29.785,-69.824,-69.824,0.0,0
1581710943.667,25.391,29.785,-66.406,-70.801,0.0,0
1581710943.671,41.992,47.852,-70.801,-57.617,0.0,0
1581710943.675,54.688,48.828,-69.824,-18.066,0.0,0
1581710943.679,24.414,32.227,-56.64100000000001,-21.484,0.0,0
1581710943.681,20.02,24.414,-45.898,-7.812,0.0,0
1581710943.685,49.805,30.273000000000003,-49.805,12.207,0.0,0
1581710943.689,46.387,27.832,-49.805,4.395,0.0,0
1581710943.6929998,47.852,17.578,-47.363,21.973000000000006,0.0,0
1581710943.697,44.922,10.742,-46.875,16.602,0.0,0
1581710943.701,33.203,6.348,-57.129,-1.465,0.0,0
1581710943.705,47.363,17.09,-64.941,-3.906,0.0,0
1581710943.708,53.223,20.02,-59.57,-7.324,0.0,0
1581710943.712,45.41,25.879,-64.453,4.883,0.0,0
1581710943.716,47.363,46.875,-66.895,3.418,0.0,0
1581710943.72,66.406,35.645,-56.64100000000001,-11.23,0.0,0
1581710943.724,72.266,22.949,-51.27,-41.01600000000001,0.0,0
1581710943.726,58.105,27.344,-50.293,-64.453,0.0,0
1581710943.73,48.34,29.785,-54.199,-65.918,0.0,0
1581710943.734,62.5,38.574,-48.828,-82.52,0.0,0
1581710943.738,74.219,41.504,-46.387,-90.332,0.0,0
1581710943.742,70.312,38.574,-51.27,-87.891,0.0,0
1581710943.746,70.312,31.25,-50.293,-90.332,0.0,0
1581710943.75,61.523,23.438,-54.688,-83.008,0.0,0
1581710943.7529998,52.246,21.973000000000006,-54.688,-73.73,0.0,0
1581710943.7570002,55.664,32.715,-49.805,-63.965,0.0,0
1581710943.7610002,54.199,32.715,-50.293,-51.27,0.0,0
1581710943.765,53.223,32.715,-51.758,-21.973000000000006,0.0,0
1581710943.769,52.734,43.945,-52.734,13.184,0.0,0
1581710943.771,52.246,32.715,-47.852,17.578,0.0,0
1581710943.775,51.758,21.973000000000006,-41.504,39.062,0.0,0
1581710943.779,49.805,20.996,-47.363,50.78100000000001,0.0,0
1581710943.783,58.105,16.602,-54.688,38.574,0.0,0
1581710943.7870002,59.57,27.832,-49.316,47.363,0.0,0
1581710943.791,56.152,39.062,-52.246,46.875,0.0,0
1581710943.795,46.875,38.086,-62.988,39.551,0.0,0
1581710943.798,34.18,30.273000000000003,-53.71100000000001,-4.883,0.0,0
1581710943.802,41.992,33.691,-47.363,-40.039,0.0,0
1581710943.806,36.621,32.715,-50.293,-49.316,0.0,0
1581710943.81,38.086,28.809,-52.734,-66.895,0.0,0
1581710943.814,46.387,32.227,-56.64100000000001,-71.777,0.0,0
1581710943.816,51.758,34.18,-57.129,-82.031,0.0,0
1581710943.82,45.41,24.902,-55.176,-95.703,0.0,0
1581710943.824,39.551,17.09,-55.176,-98.145,0.0,0
1581710943.8279998,52.734,22.461,-51.27,-110.84,0.0,0
1581710943.832,73.242,11.719,-45.41,-123.047,0.0,0
1581710943.836,83.984,2.93,-31.738000000000003,-114.258,0.0,0
1581710943.84,79.102,-3.418,-26.855,-111.328,0.0,0
1581710943.843,65.43,-1.953,-41.992,-123.535,0.0,0
1581710943.847,62.5,35.645,-59.57,-129.395,0.0,0
1581710943.851,60.547,41.992,-71.289,-122.559,0.0,0
1581710943.855,56.64100000000001,29.297,-75.684,-115.723,0.0,0
1581710943.859,56.64100000000001,28.809,-58.594,-104.004,0.0,0
1581710943.8760002,62.5,31.25,-35.645,-80.078,0.0,0
1581710943.88,71.289,33.691,-33.203,-61.035,0.0,0
1581710943.8839998,68.848,27.344,-24.414,-54.688,0.0,0
1581710943.8879998,53.223,18.066,-27.832,-53.71100000000001,0.0,0
1581710943.8920002,52.246,20.02,-41.01600000000001,-52.734,0.0,0
1581710943.896,59.57,19.043,-37.598,-44.434,0.0,0
1581710943.9,47.852,9.766,-40.039,-44.922,0.0,0
1581710943.903,42.969,10.254,-45.898,-41.01600000000001,0.0,0
1581710943.907,51.758,15.137,-41.01600000000001,-37.109,0.0,0
1581710943.911,64.941,7.324,-40.039,-52.246,0.0,0
1581710943.915,63.477,7.324,-39.551,-44.922,0.0,0
1581710943.919,50.78100000000001,18.555,-36.621,-32.715,0.0,0
1581710943.921,44.922,15.625,-41.504,-43.457,0.0,0
1581710943.925,43.457,6.836,-44.922,-60.547,0.0,0
1581710943.929,49.805,-0.977,-42.48,-64.941,0.0,0
1581710943.9329998,50.78100000000001,4.883,-38.574,-59.57,0.0,0
1581710943.937,43.457,7.324,-37.598,-49.805,0.0,0
1581710943.941,49.805,8.301,-39.551,-38.574,0.0,0
1581710943.945,67.383,16.602,-49.316,-35.156,0.0,0
1581710943.948,62.012,15.625,-41.01600000000001,-41.01600000000001,0.0,0
1581710943.952,41.992,15.625,-37.598,-35.156,0.0,0
1581710943.956,59.082,8.789,-35.645,-6.836,0.0,0
1581710943.96,76.66,18.555,-24.902,9.766,0.0,0
1581710943.964,58.594,16.113,-36.133,-12.695,0.0,0
1581710943.966,41.504,5.371,-41.01600000000001,-17.578,0.0,0
1581710943.97,44.922,8.789,-30.273000000000003,5.371,0.0,0
1581710943.974,59.57,9.277,-23.926,3.418,0.0,0
1581710943.978,60.059,2.441,-29.297,-6.836,0.0,0
1581710943.982,47.363,-2.441,-39.551,-27.344,0.0,0
1581710943.986,48.828,-8.789,-42.48,-36.621,0.0,0
1581710943.99,61.035,8.789,-41.504,-19.043,0.0,0
1581710943.9929998,61.035,27.832,-39.062,-15.625,0.0,0
1581710943.9970002,56.64100000000001,-5.371,-38.574,-20.02,0.0,0
1581710944.0010002,51.27,-14.648,-37.598,-26.367,0.0,0
1581710944.005,46.387,20.02,-45.41,-21.484,0.0,0
1581710944.0089998,63.477,28.809,-49.316,4.883,0.0,0
1581710944.0110002,62.988,22.461,-39.062,10.742,0.0,0
1581710944.015,47.852,14.648,-35.645,10.742,0.0,0
1581710944.019,55.664,12.695,-43.457,13.184,0.0,0
1581710944.0229998,54.199,16.113,-42.969,16.113,0.0,0
1581710944.0270002,59.082,7.812,-35.645,38.086,0.0,0
1581710944.031,76.66,-13.184,-23.438,50.293,0.0,1
1581710944.035,47.852,-3.418,-22.461,21.484,0.0,0
1581710944.038,42.48,13.184,-29.297,-4.883,0.0,0
1581710944.042,67.87100000000001,15.137,-32.715,0.0,0.0,0
1581710944.046,41.01600000000001,27.344,-42.48,-6.836,0.0,0
1581710944.05,37.109,29.297,-40.039,-6.836,0.0,0
1581710944.054,54.688,7.324,-36.621,2.441,0.0,0
1581710944.056,55.176,-2.441,-37.598,-8.789,0.0,0
1581710944.06,51.27,5.371,-37.109,-10.742,0.0,0
1581710944.064,51.758,-0.977,-40.039,6.348,0.0,0
1581710944.0679998,58.594,-0.977,-43.457,8.301,0.0,0
1581710944.072,63.477,0.488,-39.551,-1.465,0.0,0
1581710944.076,58.594,-0.488,-29.785,0.488,0.0,0
1581710944.08,50.293,12.207,-25.391,-6.836,0.0,0
1581710944.083,60.547,1.953,-26.367,-12.695,0.0,0
1581710944.087,68.359,-2.441,-28.32,-6.836,0.0,0
1581710944.091,57.129,1.465,-33.203,-11.23,0.0,0
1581710944.095,44.434,-2.93,-33.203,-26.367,0.0,0
1581710944.099,45.41,9.277,-32.227,-20.508000000000006,0.0,0
1581710944.101,52.734,3.906,-31.25,-10.254,0.0,0
1581710944.105,51.27,-4.395,-30.273000000000003,-18.066,0.0,0
1581710944.109,43.945,1.953,-30.273000000000003,-3.418,0.0,0
1581710944.113,44.922,9.277,-26.367,2.441,0.0,0
1581710944.117,52.734,4.883,-27.832,1.953,0.0,0
1581710944.121,51.758,-1.465,-30.762,5.859,0.0,0
1581710944.125,41.504,-4.395,-26.855,-1.953,0.0,0
1581710944.1279998,40.527,-6.348,-24.902,7.324,0.0,0
1581710944.1320002,49.316,2.93,-24.902,15.625,0.0,0
1581710944.1360002,61.035,-6.348,-24.414,16.113,0.0,0
1581710944.14,61.035,-20.996,-22.949,15.137,0.0,0
1581710944.144,48.34,-16.602,-20.996,16.113,0.0,0
1581710944.146,43.945,7.324,-19.531,20.996,0.0,0
1581710944.15,53.71100000000001,22.461,-22.461,8.789,0.0,0
1581710944.154,56.152,10.742,-28.809,0.0,0.0,0
1581710944.158,41.01600000000001,-2.93,-29.785,6.348,0.0,0
1581710944.1620002,43.945,-8.301,-24.902,11.719,0.0,0
1581710944.166,62.5,-1.953,-32.715,20.508000000000006,0.0,0
1581710944.17,72.75399999999998,2.441,-26.367,23.926,0.0,0
1581710944.173,67.383,3.906,-1.465,22.949,0.0,0
1581710944.177,63.477,18.555,-6.348,30.762,0.0,0
1581710944.181,69.824,5.371,-22.461,26.367,0.0,0
1581710944.185,63.965,-0.977,-31.25,16.602,0.0,0
1581710944.189,58.105,-4.395,-28.32,9.277,0.0,0
1581710944.191,58.105,-4.395,-25.391,18.066,0.0,0
1581710944.195,56.64100000000001,4.395,-26.367,35.645,0.0,0
1581710944.199,62.5,1.953,-22.461,31.738000000000003,0.0,0
1581710944.2029998,60.547,2.441,-30.273000000000003,27.832,0.0,0
1581710944.207,50.78100000000001,8.301,-29.785,23.926,0.0,0
1581710944.211,49.805,16.113,-25.879,28.32,0.0,0
1581710944.215,55.664,-0.977,-27.344,34.18,0.0,0
1581710944.218,47.852,3.906,-24.414,29.785,0.0,0
1581710944.222,35.645,12.207,-18.555,30.762,0.0,0
1581710944.226,38.574,-7.812,-14.648,36.621,0.0,0
1581710944.23,41.01600000000001,-10.254,-26.855,35.645,0.0,0
1581710944.234,52.734,8.789,-21.484,42.48,0.0,0
1581710944.2510002,53.71100000000001,10.254,-2.441,44.434,0.0,0
1581710944.255,39.551,4.395,1.953,41.504,0.0,0
1581710944.2589998,40.527,-4.395,-12.695,28.32,0.0,0
1581710944.2629998,38.574,-11.719,-29.297,20.02,0.0,0
1581710944.2670002,47.363,3.418,-23.438,30.762,0.0,0
1581710944.271,58.105,-5.371,-14.16,21.973000000000006,0.0,0
1581710944.275,42.969,-23.926,-27.832,20.02,0.0,0
1581710944.278,46.387,-11.719,-26.367,20.508000000000006,0.0,0
1581710944.282,52.246,-10.254,-16.113,13.184,0.0,0
1581710944.286,40.527,-9.766,-16.602,16.113,0.0,0
1581710944.29,42.969,10.742,-17.578,12.695,0.0,0
1581710944.294,56.152,25.879,-16.602,20.996,0.0,0
1581710944.296,58.105,15.625,-15.137,24.902,0.0,0
1581710944.3,47.363,5.859,-13.672,24.414,0.0,0
1581710944.304,49.805,0.977,-5.371,55.664,0.0,0
1581710944.3079998,62.988,-6.836,-4.883,71.777,0.0,0
1581710944.312,46.875,0.0,-12.207,51.27,0.0,0
1581710944.316,35.156,-1.953,-15.137,26.855,0.0,0
1581710944.32,30.762,-1.465,-19.531,29.297,0.0,0
1581710944.323,45.898,8.301,-15.137,46.387,0.0,0
1581710944.327,72.75399999999998,-3.418,-9.277,53.223,0.0,0
1581710944.331,55.176,-6.836,-12.207,36.133,0.0,0
1581710944.335,43.457,6.348,-11.719,21.973000000000006,0.0,0
1581710944.339,52.734,6.348,-7.324,24.414,0.0,0
1581710944.341,55.664,-2.441,-5.371,27.832,0.0,0
1581710944.345,63.965,-6.348,-7.324,25.391,0.0,0
1581710944.349,61.035,-10.742,-11.719,21.973000000000006,0.0,0
1581710944.353,58.105,-6.836,-7.812,16.113,0.0,0
1581710944.357,67.87100000000001,3.906,-9.277,20.996,0.0,0
1581710944.361,74.707,-3.906,-8.301,31.738000000000003,0.0,0
1581710944.365,54.688,-12.207,-5.371,25.879,0.0,0
1581710944.3679998,37.598,5.371,-10.742,33.691,0.0,0
1581710944.3720002,53.71100000000001,-3.418,-6.348,35.645,0.0,0
1581710944.3760002,66.406,-4.395,-0.977,42.48,0.0,0
1581710944.38,55.176,18.555,0.488,49.805,0.0,0
1581710944.3839998,36.133,11.23,4.395,47.852,0.0,0
1581710944.387,30.762,-2.441,-1.465,57.617,0.0,0
1581710944.391,51.27,-2.93,-7.324,65.43,0.0,0
1581710944.395,54.688,10.254,-4.395,71.289,0.0,0
1581710944.399,35.156,3.418,-4.395,69.824,0.0,0
1581710944.403,40.039,0.977,-4.883,74.707,0.0,0
1581710944.407,55.664,3.906,-3.418,72.75399999999998,0.0,0
1581710944.411,49.805,-5.859,-5.371,46.875,0.0,0
1581710944.414,36.133,-7.812,-5.371,39.062,0.0,0
1581710944.418,41.992,-2.441,-4.395,42.969,0.0,0
1581710944.4220002,52.246,7.812,-4.395,42.48,0.0,0
1581710944.426,55.664,7.324,-3.906,39.551,0.0,0
1581710944.43,45.41,-1.465,-1.465,20.508000000000006,0.0,0
1581710944.431,44.922,2.441,0.0,29.785,0.0,0
1581710944.435,49.316,13.184,-0.488,33.203,0.0,0
1581710944.439,49.805,12.207,0.488,14.16,0.0,0
1581710944.4429998,42.969,4.883,-5.859,12.207,0.0,0
1581710944.447,36.621,3.906,-6.348,13.672,0.0,0
1581710944.451,44.922,5.859,-3.906,24.902,0.0,0
1581710944.455,55.176,12.207,-3.906,34.668,0.0,0
1581710944.458,42.969,0.488,-2.93,19.043,0.0,0
1581710944.462,25.391,-10.254,-3.906,16.113,0.0,0
1581710944.466,30.762,3.418,-2.93,13.672,0.0,0
1581710944.47,50.293,7.812,0.0,25.391,0.0,0
1581710944.474,59.57,14.16,0.488,40.527,0.0,0
1581710944.476,50.293,13.184,-2.441,37.598,0.0,0
1581710944.48,43.945,5.371,-5.371,38.574,0.0,0
1581710944.484,56.152,0.488,-4.883,34.18,0.0,0
1581710944.488,65.43,-4.395,-2.93,32.715,0.0,0
1581710944.492,53.223,-5.859,0.0,37.598,0.0,0
1581710944.496,50.78100000000001,-8.301,6.348,48.34,0.0,0
1581710944.5,68.848,-3.906,7.324,61.035,0.0,0
1581710944.5029998,69.824,0.0,1.953,46.875,0.0,0
1581710944.5070002,51.758,14.648,-2.441,31.25,0.0,0
1581710944.5110002,30.762,19.531,-1.465,31.25,0.0,0
1581710944.515,30.762,2.441,0.488,31.738000000000003,0.0,0
1581710944.519,43.945,6.836,-2.93,37.598,0.0,0
1581710944.521,41.01600000000001,7.812,-1.953,25.879,0.0,0
1581710944.525,27.344,-3.906,6.348,25.879,0.0,0
1581710944.529,31.738000000000003,-1.953,10.742,32.227,0.0,0
1581710944.533,46.875,1.953,7.324,27.344,0.0,0
1581710944.5370002,51.27,3.906,-3.906,23.438,0.0,0
1581710944.541,49.316,-4.395,-5.371,21.973000000000006,0.0,0
1581710944.545,51.27,-10.254,0.488,35.156,0.0,0
1581710944.548,58.105,11.719,0.0,32.227,0.0,0
1581710944.552,61.035,27.344,1.465,26.855,0.0,0
1581710944.556,51.758,8.301,2.441,26.855,0.0,0
1581710944.56,46.387,6.836,3.906,22.461,0.0,0
1581710944.564,48.34,14.648,6.836,26.367,0.0,0
1581710944.5670002,48.828,18.555,5.859,30.762,0.0,0
1581710944.571,45.41,11.719,14.16,27.344,0.0,0
1581710944.575,33.691,4.883,13.184,26.367,0.0,0
1581710944.579,29.785,5.371,2.441,20.02,0.0,0
1581710944.583,31.738000000000003,-0.488,-4.395,27.832,0.0,0
1581710944.587,26.367,0.0,-6.836,38.574,0.0,0
1581710944.591,28.809,0.488,9.277,40.039,0.0,0
1581710944.594,40.039,0.0,16.602,50.293,0.0,0
1581710944.5979998,43.457,1.953,5.859,42.969,0.0,0
1581710944.6020002,38.574,5.371,1.953,30.762,0.0,0
1581710944.606,32.715,5.859,10.742,32.715,0.0,0
1581710944.61,33.691,6.348,19.531,39.062,0.0,0
1581710944.627,42.969,16.602,17.578,45.898,0.0,0
1581710944.631,54.199,22.461,15.137,40.527,0.0,0
1581710944.635,47.852,26.367,7.812,38.086,0.0,0
1581710944.639,37.598,32.227,4.395,38.086,0.0,0
1581710944.643,44.434,18.066,2.93,33.691,0.0,0
1581710944.647,46.875,0.0,1.953,30.762,0.0,0
1581710944.651,41.504,3.418,0.488,23.926,0.0,0
1581710944.654,31.738000000000003,11.719,4.883,25.879,0.0,0
1581710944.658,26.367,10.742,15.137,38.574,0.0,0
1581710944.6620002,39.551,3.906,11.23,40.527,0.0,0
1581710944.666,41.992,1.953,6.836,41.01600000000001,0.0,0
1581710944.67,31.738000000000003,5.371,13.184,36.621,0.0,0
1581710944.6720002,33.691,14.16,13.184,40.039,0.0,0
1581710944.676,42.969,8.301,17.578,53.71100000000001,0.0,0
1581710944.68,45.41,10.742,21.973000000000006,59.082,0.0,0
1581710944.684,38.086,30.762,11.719,50.293,0.0,0
1581710944.688,37.598,25.391,4.395,49.805,0.0,0
1581710944.6920002,43.457,9.766,9.766,50.78100000000001,0.0,0
1581710944.696,53.223,13.184,15.625,49.805,0.0,0
1581710944.699,50.78100000000001,22.461,15.137,53.71100000000001,0.0,0
1581710944.7029998,36.621,16.113,11.719,48.828,0.0,0
1581710944.707,39.062,2.441,8.301,38.086,0.0,0
1581710944.711,50.293,10.742,5.371,42.969,0.0,0
1581710944.715,46.387,12.207,13.672,45.898,0.0,0
1581710944.717,37.598,-5.859,22.461,41.992,0.0,0
1581710944.721,36.133,1.953,19.531,48.828,0.0,0
1581710944.725,42.969,16.602,9.766,45.41,0.0,0
1581710944.729,52.734,14.16,6.836,45.898,0.0,0
1581710944.7329998,40.527,3.906,13.672,51.758,0.0,0
1581710944.7370002,40.527,3.418,17.578,55.176,0.0,0
1581710944.7410002,56.152,9.766,16.113,49.805,0.0,0
1581710944.744,60.059,15.137,17.578,41.992,0.0,0
1581710944.748,52.246,7.324,13.672,47.363,0.0,0
1581710944.752,45.41,2.93,10.742,48.828,0.0,0
1581710944.756,51.758,7.324,12.695,47.363,0.0,0
1581710944.76,57.617,-6.836,9.277,48.34,0.0,0
1581710944.762,48.34,-19.043,7.324,41.504,0.0,0
1581710944.766,41.992,-14.648,17.09,40.039,0.0,0
1581710944.77,43.945,17.578,17.578,41.504,0.0,0
1581710944.774,46.387,32.715,12.207,43.457,0.0,0
1581710944.778,45.41,6.836,16.113,31.738000000000003,0.0,0
1581710944.782,30.762,-5.859,13.672,14.16,0.0,0
1581710944.786,36.621,7.812,18.066,25.391,0.0,0
1581710944.789,57.129,-2.441,30.273000000000003,34.668,0.0,0
1581710944.793,51.758,-17.09,24.414,18.066,0.0,0
1581710944.7970002,35.645,-3.418,7.812,6.348,0.0,0
1581710944.801,38.086,1.465,11.23,18.066,0.0,0
1581710944.805,54.688,-4.883,25.879,36.621,0.0,0
1581710944.8070002,58.594,2.441,24.902,44.434,0.0,0
1581710944.811,49.805,10.254,22.949,45.898,0.0,0
1581710944.815,46.387,3.906,23.926,45.41,0.0,0
1581710944.819,48.828,1.465,18.555,40.039,0.0,0
1581710944.823,57.617,5.371,15.625,58.594,0.0,0
1581710944.827,51.27,-3.906,20.02,66.406,0.0,0
1581710944.831,29.785,-7.812,20.508000000000006,65.43,0.0,0
1581710944.834,31.25,-8.789,21.484,73.73,0.0,0
1581710944.8379998,45.898,-8.789,30.273000000000003,72.266,0.0,0
1581710944.842,40.527,2.93,33.203,71.289,0.0,0
1581710944.846,27.344,8.789,25.391,63.477,0.0,0
1581710944.85,35.156,7.812,23.438,59.57,0.0,0
1581710944.851,57.129,17.578,30.273000000000003,73.73,0.0,0
1581710944.855,60.547,16.602,24.902,73.73,0.0,0
1581710944.859,40.039,-0.977,11.719,61.035,0.0,0
1581710944.863,31.738000000000003,0.977,11.719,63.965,0.0,0
1581710944.867,34.18,-3.906,15.137,65.43,0.0,0
1581710944.871,44.434,-10.254,11.719,67.87100000000001,0.0,0
1581710944.875,39.551,-4.395,17.578,64.453,0.0,0
1581710944.8779998,19.531,-0.977,23.926,52.734,0.0,0
1581710944.8820002,27.832,13.184,18.555,54.688,0.0,0
1581710944.8860002,38.086,18.066,13.184,60.547,0.0,0
1581710944.89,41.01600000000001,-4.395,18.555,57.129,0.0,0
1581710944.894,43.945,-12.207,22.949,60.059,0.0,0
1581710944.896,53.223,0.977,23.926,73.242,0.0,0
1581710944.9,61.035,-1.465,24.902,77.148,0.0,0
1581710944.904,52.246,-9.277,21.484,66.406,0.0,0
1581710944.908,35.645,-1.953,20.02,54.688,0.0,0
1581710944.9120002,27.832,2.93,21.484,48.828,0.0,0
1581710944.916,40.527,-2.441,14.16,52.246,0.0,0
1581710944.92,49.316,-17.09,11.23,58.105,0.0,0
1581710944.923,35.156,-23.438,24.414,53.223,0.0,0
1581710944.927,20.996,-12.207,33.203,50.293,0.0,0
1581710944.931,19.043,-7.324,27.344,47.363,0.0,0
1581710944.935,20.02,-6.836,26.367,40.527,0.0,0
1581710944.939,25.879,3.418,24.902,35.156,0.0,0
1581710944.941,37.598,3.906,24.902,42.969,0.0,0
1581710944.945,51.27,-8.789,25.879,54.688,0.0,0
1581710944.949,64.453,-2.93,19.043,48.34,0.0,0
1581710944.9529998,64.453,1.465,14.16,39.551,0.0,0
1581710944.957,58.594,-7.324,20.996,39.551,0.0,0
1581710944.961,62.5,-14.648,27.832,42.48,0.0,0
1581710944.965,74.219,-19.043,23.926,41.01600000000001,0.0,0
1581710944.968,71.289,0.488,21.973000000000006,26.367,0.0,0
1581710944.972,54.688,16.113,25.879,30.762,0.0,0
1581710944.976,40.039,-12.695,27.832,35.645,0.0,0
1581710944.98,42.48,-11.719,25.391,30.762,0.0,0
1581710944.984,46.875,5.859,22.949,30.762,0.0,0
1581710945.0010002,38.574,-13.672,20.508000000000006,25.879,0.0,0
1581710945.005,26.855,-21.973000000000006,19.043,28.809,0.0,0
1581710945.0089998,28.809,-9.766,19.531,40.039,0.0,0
1581710945.0129998,37.598,-7.812,29.297,46.875,0.0,0
1581710945.0170002,32.715,-7.812,34.18,49.316,0.0,0
1581710945.021,32.227,-10.742,33.691,51.758,0.0,0
1581710945.025,40.039,-23.438,34.18,59.57,0.0,0
1581710945.028,43.457,-7.812,27.832,58.594,0.0,0
1581710945.032,40.527,12.695,27.344,49.805,0.0,0
1581710945.036,23.926,-1.953,32.227,47.363,0.0,0
1581710945.04,18.555,-6.348,32.227,40.527,0.0,0
1581710945.044,28.809,3.906,27.832,42.969,0.0,0
1581710945.046,33.203,3.418,27.344,48.34,0.0,0
1581710945.05,28.809,-2.441,20.02,35.156,0.0,0
1581710945.054,22.461,-8.301,13.672,34.18,0.0,0
1581710945.0579998,27.344,-13.184,23.438,42.48,0.0,0
1581710945.062,30.273000000000003,-11.23,28.809,42.48,0.0,0
1581710945.066,17.578,-13.184,27.832,31.738000000000003,0.0,2
1581710945.07,16.602,-9.766,30.273000000000003,26.855,0.0,0
1581710945.073,28.32,-1.953,28.809,25.391,0.0,0
1581710945.077,32.715,-2.441,26.367,22.949,0.0,0
1581710945.081,31.25,-9.766,26.855,20.508000000000006,0.0,0
1581710945.085,26.367,4.883,26.855,25.391,0.0,0
1581710945.089,29.785,21.484,19.531,37.598,0.0,0
1581710945.091,40.527,7.812,15.625,33.203,0.0,0
1581710945.095,40.527,-7.812,27.832,36.621,0.0,0
1581710945.099,24.902,-11.719,38.574,52.734,0.0,0
1581710945.103,22.461,-3.906,38.086,66.895,0.0,0
1581710945.107,39.062,-7.812,36.621,70.312,0.0,0
1581710945.111,40.527,-11.719,40.527,68.848,0.0,0
1581710945.115,25.391,-5.859,34.668,64.941,0.0,0
1581710945.1179998,12.207,-0.488,25.879,58.594,0.0,0
1581710945.1220002,24.902,-2.93,22.461,59.57,0.0,0
1581710945.1260002,36.621,-12.695,20.02,61.523,0.0,0
1581710945.13,33.203,0.977,30.762,59.57,0.0,0
1581710945.1339998,22.949,7.324,38.574,50.293,0.0,0
1581710945.1360002,28.809,-1.953,27.832,47.363,0.0,0
1581710945.14,42.969,4.395,19.531,43.945,0.0,0
1581710945.144,40.527,8.301,25.879,35.645,0.0,0
1581710945.1479998,31.738000000000003,1.465,32.227,30.273000000000003,0.0,0
1581710945.1520002,29.785,-8.789,29.297,25.391,0.0,0
1581710945.156,36.133,-4.883,21.484,26.367,0.0,0
1581710945.16,32.715,2.93,24.414,25.879,0.0,0
1581710945.163,22.461,-0.488,26.855,23.438,0.0,0
1581710945.167,23.926,-3.906,21.973000000000006,31.738000000000003,0.0,0
1581710945.171,29.297,-3.906,25.391,31.25,0.0,0
1581710945.175,30.273000000000003,2.93,31.738000000000003,27.832,0.0,0
1581710945.179,13.672,7.812,29.297,29.297,0.0,0
1581710945.181,3.906,7.324,27.832,27.832,0.0,0
1581710945.185,20.508000000000006,5.371,27.344,36.133,0.0,0
1581710945.189,27.344,10.742,22.461,45.898,0.0,0
1581710945.1929998,16.113,9.277,16.602,40.039,0.0,0
1581710945.197,6.836,-2.441,17.09,39.551,0.0,0
1581710945.201,12.695,-6.348,22.949,41.992,0.0,0
1581710945.205,34.668,3.906,31.25,49.316,0.0,0
1581710945.208,45.41,-0.977,33.691,53.223,0.0,0
1581710945.212,34.668,-6.348,27.832,51.27,0.0,0
1581710945.216,39.062,7.324,28.32,57.129,0.0,0
1581710945.22,56.64100000000001,7.812,35.156,64.453,0.0,0
1581710945.224,61.523,6.836,36.621,61.035,0.0,0
1581710945.226,47.363,1.953,29.785,49.316,0.0,0
1581710945.23,47.363,0.488,28.32,46.387,0.0,0
1581710945.234,55.176,-2.441,35.645,47.852,0.0,0
1581710945.238,59.082,-2.441,35.645,45.41,0.0,0
1581710945.242,43.945,-3.418,28.32,26.855,0.0,0
1581710945.246,31.738000000000003,-2.93,21.484,13.672,0.0,0
1581710945.25,44.922,0.0,20.508000000000006,21.973000000000006,0.0,0
1581710945.2529998,59.082,-3.906,22.949,24.902,0.0,0
1581710945.2570002,56.152,8.789,20.02,24.902,0.0,0
1581710945.2610002,41.01600000000001,20.508000000000006,16.602,25.391,0.0,0
1581710945.265,44.922,3.418,16.113,22.949,0.0,0
1581710945.269,50.78100000000001,-2.93,23.926,33.691,0.0,0
1581710945.271,41.504,6.348,28.809,26.855,0.0,0
1581710945.275,27.344,6.348,21.973000000000006,20.02,0.0,0
1581710945.279,24.902,-5.371,27.832,24.414,0.0,0
1581710945.283,38.574,-13.672,31.25,21.973000000000006,0.0,0
1581710945.2870002,44.434,-5.371,18.555,24.902,0.0,0
1581710945.291,31.25,-6.348,18.555,17.578,0.0,0
1581710945.295,22.461,-20.996,30.762,24.902,0.0,0
1581710945.298,38.086,-13.672,33.203,32.227,0.0,0
1581710945.302,42.48,11.719,27.832,22.949,0.0,0
1581710945.306,34.18,1.953,24.414,25.391,0.0,0
1581710945.31,36.133,-12.207,31.25,27.832,0.0,0
1581710945.314,44.434,0.488,39.551,39.551,0.0,0
1581710945.316,51.27,8.789,41.992,40.527,0.0,0
1581710945.32,42.969,9.766,36.133,26.367,0.0,0
1581710945.324,29.785,3.906,28.32,31.25,0.0,0
1581710945.3279998,31.25,-1.953,22.949,34.18,0.0,0
1581710945.332,37.109,5.371,20.02,29.297,0.0,0
1581710945.336,34.668,-7.324,29.785,30.273000000000003,0.0,0
1581710945.34,32.715,-21.484,29.297,26.367,0.0,0
1581710945.343,32.715,-4.395,21.973000000000006,33.691,0.0,0
1581710945.347,40.527,0.977,28.809,42.48,0.0,0
1581710945.351,49.316,-3.418,34.668,48.828,0.0,0
1581710945.355,38.574,-2.441,34.668,49.316,0.0,0
1581710945.359,33.203,-2.441,35.156,45.898,0.0,0
1581710945.3760002,41.992,9.766,37.598,56.152,0.0,0
1581710945.38,48.34,3.906,34.668,60.059,0.0,0
1581710945.3839998,43.945,-10.742,34.18,58.105,0.0,0
1581710945.3879998,36.133,-9.277,36.133,56.152,0.0,0
1581710945.3920002,39.062,-9.277,36.621,57.617,0.0,0
1581710945.396,51.758,-12.695,36.621,68.359,0.0,0
1581710945.4,42.48,2.441,26.855,59.082,0.0,0
1581710945.403,31.25,19.043,29.785,53.223,0.0,0
1581710945.407,36.621,4.883,32.227,52.734,0.0,0
1581710945.411,39.551,-3.418,23.926,41.992,0.0,0
1581710945.415,40.527,3.418,30.762,46.875,0.0,0
1581710945.419,33.691,-2.93,40.039,49.316,0.0,0
1581710945.4220002,33.691,-7.812,37.109,47.852,0.0,0
1581710945.426,43.945,-1.465,22.949,47.363,0.0,0
1581710945.43,43.457,10.254,19.531,42.48,0.0,0
1581710945.434,34.18,9.766,25.879,45.41,0.0,0
1581710945.438,31.738000000000003,2.441,32.227,44.922,0.0,0
1581710945.4420002,33.203,-5.371,34.668,45.41,0.0,0
1581710945.446,37.598,-5.371,33.203,44.922,0.0,0
1581710945.449,35.645,-0.488,37.109,39.062,0.0,0
1581710945.4529998,28.32,-0.488,37.598,46.875,0.0,0
1581710945.457,35.156,-7.324,32.227,50.78100000000001,0.0,0
1581710945.461,47.363,2.441,30.762,52.246,0.0,0
1581710945.465,47.852,3.906,30.762,39.062,0.0,0
1581710945.466,42.969,-16.602,23.926,41.504,0.0,0
1581710945.47,44.434,-5.371,23.438,62.012,0.0,0
1581710945.474,56.64100000000001,7.812,31.738000000000003,61.523,0.0,0
1581710945.478,64.941,6.836,37.598,65.43,0.0,0
1581710945.482,57.617,2.441,39.551,57.617,0.0,0
1581710945.486,52.246,-5.859,36.621,47.852,0.0,0
1581710945.49,62.988,2.93,30.273000000000003,53.223,0.0,0
1581710945.4929998,68.359,9.766,23.438,53.223,0.0,0
1581710945.4970002,57.129,-0.488,23.438,51.27,0.0,0
1581710945.5010002,53.223,-3.418,23.926,41.01600000000001,0.0,0
1581710945.505,62.012,6.348,23.926,44.434,0.0,0
1581710945.5089998,63.477,5.371,20.996,60.059,0.0,0
1581710945.512,56.152,7.812,17.09,61.035,0.0,0
1581710945.516,50.293,14.16,20.996,59.082,0.0,0
1581710945.52,53.71100000000001,13.184,22.949,50.293,0.0,0
1581710945.524,64.453,8.789,21.484,49.805,0.0,0
1581710945.528,62.5,3.906,23.926,56.152,0.0,0
1581710945.532,50.293,-5.371,30.762,53.71100000000001,0.0,0
1581710945.536,47.363,15.625,36.133,60.059,0.0,0
1581710945.539,57.129,20.508000000000006,35.156,55.664,0.0,0
1581710945.543,56.64100000000001,1.465,31.738000000000003,39.551,0.0,0
1581710945.5470002,43.457,15.625,24.902,39.551,0.0,0
1581710945.551,36.133,26.367,26.855,43.457,0.0,0
1581710945.555,50.78100000000001,22.949,32.715,43.945,0.0,0
1581710945.556,63.477,18.066,34.18,37.598,0.0,0
1581710945.56,48.34,15.137,32.715,29.297,0.0,0
1581710945.564,44.922,17.09,27.344,40.039,0.0,0
1581710945.5679998,50.293,8.301,21.484,41.01600000000001,0.0,0
1581710945.572,48.828,3.418,25.879,37.598,0.0,0
1581710945.576,51.758,6.836,31.25,39.062,0.0,0
1581710945.58,41.01600000000001,11.719,34.18,36.621,0.0,0
1581710945.583,42.48,1.465,39.062,43.945,0.0,0
1581710945.587,52.246,0.0,35.156,45.41,0.0,0
1581710945.591,45.898,20.508000000000006,25.391,41.01600000000001,0.0,0
1581710945.595,34.18,17.09,26.367,33.691,0.0,0
1581710945.599,34.668,0.0,27.832,30.762,0.0,0
1581710945.6020002,36.621,0.0,27.344,39.551,0.0,0
1581710945.606,40.039,14.648,28.809,32.715,0.0,0
1581710945.61,29.297,13.672,25.879,21.973000000000006,0.0,0
1581710945.6139998,25.879,7.324,31.738000000000003,24.414,0.0,0
1581710945.6179998,41.504,1.953,35.156,28.809,0.0,0
1581710945.6220002,45.898,-2.93,30.273000000000003,35.156,0.0,0
1581710945.6260002,36.621,0.488,22.461,29.785,0.0,0
1581710945.629,20.508000000000006,-1.953,13.672,24.902,0.0,0
1581710945.633,19.043,6.348,18.555,16.113,0.0,0
1581710945.637,30.273000000000003,22.461,27.344,15.625,0.0,0
1581710945.641,23.438,14.16,29.297,22.461,0.0,0
1581710945.645,15.625,3.418,28.809,7.324,0.0,0
1581710945.661,21.484,16.113,30.762,9.766,0.0,0
1581710945.665,20.508000000000006,15.625,32.715,8.789,0.0,0
1581710945.669,21.973000000000006,-1.465,31.738000000000003,1.465,0.0,0
1581710945.673,17.09,-0.488,26.855,18.555,0.0,0
1581710945.677,10.254,5.859,26.367,20.02,0.0,0
1581710945.681,18.555,4.883,25.391,21.973000000000006,0.0,0
1581710945.685,27.344,-0.977,23.438,15.625,0.0,0
1581710945.688,24.414,-4.883,25.391,11.23,0.0,0
1581710945.6920002,15.137,13.184,24.902,33.203,0.0,0
1581710945.696,27.832,14.16,22.461,34.668,0.0,0
1581710945.7,43.457,0.977,28.32,39.551,0.0,0
1581710945.704,33.203,-5.371,35.645,34.18,0.0,0
1581710945.6920002,19.531,-8.301,28.32,22.949,0.0,0
1581710945.696,21.484,-13.184,15.625,27.344,0.0,0
1581710945.7,28.32,2.441,21.973000000000006,22.461,0.0,0
1581710945.704,30.762,19.531,29.297,21.973000000000006,0.0,0
1581710945.708,21.973000000000006,15.625,25.391,19.043,0.0,0
1581710945.712,17.578,14.16,23.926,16.113,0.0,0
1581710945.716,19.531,14.648,29.297,25.879,0.0,0
1581710945.719,34.18,10.742,31.25,41.504,0.0,0
1581710945.7229998,28.32,13.184,21.973000000000006,30.273000000000003,0.0,0
1581710945.7270002,12.207,14.16,19.043,-8.301,0.0,0
1581710945.731,32.227,3.418,19.531,-4.883,0.0,0
1581710945.735,37.109,10.742,18.066,12.695,0.0,0
1581710945.752,29.785,21.484,29.297,11.719,0.0,0
1581710945.756,29.297,14.648,35.645,23.438,0.0,0
1581710945.76,25.879,-3.906,32.227,15.137,0.0,0
1581710945.764,24.902,1.465,26.367,9.766,0.0,0
1581710945.768,20.02,14.648,27.344,14.648,0.0,0
1581710945.772,15.625,-0.488,31.738000000000003,6.348,0.0,0
1581710945.776,21.484,-3.906,22.949,10.742,0.0,0
1581710945.779,33.691,13.184,18.555,9.277,0.0,0
1581710945.783,36.621,8.301,26.855,11.23,0.0,0
1581710945.7870002,22.461,0.488,30.273000000000003,21.484,0.0,0
1581710945.791,14.648,9.277,26.855,17.09,0.0,0
1581710945.795,20.02,8.789,22.949,11.719,0.0,0
1581710945.7970002,22.949,4.395,20.508000000000006,9.766,0.0,0
1581710945.801,14.648,13.184,20.996,10.742,0.0,0
1581710945.805,6.836,13.672,28.32,21.484,0.0,0
1581710945.809,21.973000000000006,6.348,33.203,26.855,0.0,0
1581710945.813,35.156,-1.465,23.438,26.855,0.0,0
1581710945.8170002,25.879,-4.395,24.902,20.02,0.0,0
1581710945.821,19.531,5.371,34.668,16.602,0.0,0
1581710945.824,29.785,13.672,34.668,24.902,0.0,0
1581710945.8279998,34.668,14.16,29.297,20.508000000000006,0.0,0
1581710945.832,25.879,-1.465,25.879,8.789,0.0,0
1581710945.836,13.184,5.371,27.344,-4.395,0.0,0
1581710945.84,20.02,19.043,26.367,2.93,0.0,0
1581710945.842,31.25,4.395,26.855,18.066,0.0,0
1581710945.846,23.438,-3.418,27.344,12.695,0.0,0
1581710945.85,21.484,9.766,33.203,15.625,0.0,0
1581710945.854,29.297,10.254,42.48,19.043,0.0,0
1581710945.8579998,27.344,-4.395,36.133,16.113,0.0,0
1581710945.8620002,25.879,-4.395,23.438,21.973000000000006,0.0,0
1581710945.8660002,21.973000000000006,6.836,23.438,15.625,0.0,0
1581710945.869,17.578,15.625,26.855,20.02,0.0,0
1581710945.873,25.391,-4.395,30.762,24.902,0.0,0
1581710945.877,36.133,-15.137,34.18,23.926,0.0,0
1581710945.881,31.25,6.348,32.715,29.785,0.0,0
1581710945.885,18.066,4.883,33.691,31.738000000000003,0.0,0
1581710945.901,19.043,8.789,33.203,40.039,0.0,0
1581710945.905,35.645,23.438,25.391,31.738000000000003,0.0,0
1581710945.909,39.062,25.879,24.902,26.855,0.0,0
1581710945.913,25.879,17.09,30.273000000000003,30.273000000000003,0.0,0
1581710945.917,32.715,10.254,27.344,27.832,0.0,0
1581710945.921,39.062,7.324,21.973000000000006,23.438,0.0,0
1581710945.925,36.621,2.93,24.902,12.207,0.0,0
1581710945.928,32.227,3.418,26.367,8.789,0.0,0
1581710945.9320002,23.438,1.465,20.02,11.23,0.0,0
1581710945.936,30.762,7.812,27.344,10.254,0.0,0
1581710945.94,41.504,13.184,35.156,9.277,0.0,0
1581710945.944,32.715,9.277,27.344,-4.883,0.0,0
1581710945.931,25.391,10.254,20.02,-3.418,0.0,0
1581710945.935,33.691,23.926,23.926,13.672,0.0,0
1581710945.939,35.156,26.367,26.367,4.395,0.0,0
1581710945.9429998,27.832,12.207,26.367,10.254,0.0,0
1581710945.947,29.297,18.066,34.668,22.461,0.0,0
1581710945.951,31.25,20.02,37.109,20.996,0.0,0
1581710945.955,28.809,6.348,32.715,28.32,0.0,0
1581710945.958,27.344,-2.441,29.297,31.25,0.0,0
1581710945.962,20.508000000000006,15.137,27.832,35.645,0.0,0
1581710945.966,20.02,27.832,25.879,22.461,0.0,0
1581710945.97,26.367,24.902,21.484,14.16,0.0,0
1581710945.974,20.996,18.066,18.066,15.137,0.0,0
1581710945.976,16.602,10.254,20.996,13.184,0.0,0
1581710945.98,26.855,13.184,23.438,32.715,0.0,0
1581710945.984,36.133,15.137,20.02,30.762,0.0,0
1581710945.988,47.363,15.625,21.973000000000006,30.762,0.0,0
1581710945.992,41.504,15.137,27.344,41.01600000000001,0.0,0
1581710945.996,23.926,16.113,29.785,35.645,0.0,0
1581710946.0,33.203,15.625,31.25,37.109,0.0,0
1581710946.0029998,37.109,12.207,30.273000000000003,28.809,0.0,0
1581710946.0070002,35.645,17.09,24.414,13.672,0.0,0
1581710946.0110002,28.809,19.043,24.414,23.926,0.0,0
1581710946.015,22.949,7.812,29.297,21.484,0.0,0
1581710946.019,35.645,0.0,24.414,20.02,0.0,0
1581710946.021,29.785,5.859,19.043,13.184,0.0,0
1581710946.025,14.648,9.766,25.879,6.836,0.0,0
1581710946.029,23.926,6.836,28.809,23.926,0.0,0
1581710946.033,35.645,12.695,24.902,29.785,0.0,0
1581710946.0370002,30.273000000000003,9.277,27.832,27.344,0.0,0
1581710946.041,22.461,1.953,28.32,21.484,0.0,0
1581710946.045,19.531,0.0,29.785,25.879,0.0,0
1581710946.048,25.391,9.766,32.227,36.133,0.0,0
1581710946.052,31.738000000000003,24.414,23.926,37.109,0.0,0
1581710946.056,19.531,16.113,21.484,35.645,0.0,0
1581710946.06,11.719,19.531,21.973000000000006,30.762,0.0,0
1581710946.064,21.973000000000006,28.32,20.996,32.227,0.0,0
1581710946.066,30.273000000000003,18.555,26.367,41.504,0.0,0
1581710946.07,22.949,8.789,21.973000000000006,32.715,0.0,0
1581710946.074,9.766,1.953,23.438,31.738000000000003,0.0,0
1581710946.0779998,10.742,-5.859,35.156,25.391,0.0,0
1581710946.082,23.438,3.906,35.645,16.602,0.0,0
1581710946.086,20.996,10.742,28.809,22.949,0.0,0
1581710946.09,9.766,0.0,29.785,13.672,0.0,0
1581710946.093,9.766,3.906,29.297,12.695,0.0,0
1581710946.097,20.996,22.461,23.926,11.23,0.0,0
1581710946.101,29.297,18.555,29.297,10.254,0.0,2
1581710946.105,16.113,2.93,35.645,13.184,0.0,0
1581710946.109,13.672,4.883,38.086,24.902,0.0,0
1581710946.1260002,27.344,11.23,27.832,41.01600000000001,0.0,0
1581710946.13,34.18,5.859,26.855,34.18,0.0,0
1581710946.1339998,29.785,-7.812,37.598,26.367,0.0,0
1581710946.1379998,21.484,-1.953,34.18,24.414,0.0,0
1581710946.1420002,24.902,14.648,28.809,25.391,0.0,0
1581710946.146,33.691,3.906,30.762,30.273000000000003,0.0,0
1581710946.15,34.18,5.859,33.691,21.973000000000006,0.0,0
1581710946.153,27.832,23.438,33.203,21.973000000000006,0.0,0
1581710946.157,22.949,22.949,28.32,26.855,0.0,0
1581710946.161,20.508000000000006,8.301,28.32,21.973000000000006,0.0,0
1581710946.165,21.484,4.395,33.691,20.996,0.0,0
1581710946.169,11.719,15.137,31.738000000000003,15.625,0.0,0
1581710946.171,6.348,10.254,29.785,15.137,0.0,0
1581710946.175,14.648,14.648,30.762,21.973000000000006,0.0,0
1581710946.179,14.648,24.414,24.414,19.043,0.0,0
1581710946.1829998,9.277,13.672,25.879,18.066,0.0,0
1581710946.187,10.742,1.465,30.273000000000003,17.09,0.0,0
1581710946.191,21.484,-1.465,31.25,22.461,0.0,0
1581710946.195,31.738000000000003,15.137,30.762,27.832,0.0,0
1581710946.198,26.367,36.621,26.855,22.949,0.0,0
1581710946.202,16.602,35.156,27.344,26.855,0.0,0
1581710946.206,24.902,20.508000000000006,25.391,22.949,0.0,0
1581710946.21,39.062,26.855,20.996,25.879,0.0,0
1581710946.214,34.18,34.668,25.391,39.551,0.0,0
1581710946.216,25.391,15.625,26.367,32.715,0.0,0
1581710946.22,39.551,0.488,30.762,35.156,0.0,0
1581710946.224,52.246,-0.488,34.668,31.25,0.0,0
1581710946.228,47.852,18.555,34.18,26.367,0.0,0
1581710946.232,31.738000000000003,36.621,28.32,31.25,0.0,0
1581710946.236,19.043,24.414,22.461,28.809,0.0,0
1581710946.24,22.949,18.555,22.461,24.414,0.0,0
1581710946.2429998,25.879,26.855,15.137,12.207,0.0,0
1581710946.2470002,21.484,24.414,18.555,17.09,0.0,0
1581710946.2510002,21.973000000000006,22.461,30.762,23.438,0.0,0
1581710946.255,27.344,32.227,32.715,28.809,0.0,0
1581710946.2589998,37.109,27.344,24.414,35.156,0.0,0
1581710946.2610002,28.32,13.672,19.043,20.02,0.0,0
1581710946.265,21.484,12.207,23.438,26.855,0.0,0
1581710946.269,25.879,10.254,28.32,33.203,0.0,0
1581710946.2729998,36.133,-1.953,38.574,32.227,0.0,0
1581710946.2770002,37.109,9.277,44.922,31.738000000000003,0.0,0
1581710946.281,32.227,22.949,35.645,22.461,0.0,0
1581710946.285,30.273000000000003,27.832,30.762,28.32,0.0,0
1581710946.288,37.598,29.297,31.25,33.691,0.0,0
1581710946.292,50.78100000000001,21.973000000000006,27.832,28.809,0.0,0
1581710946.296,41.504,21.484,30.762,28.809,0.0,0
1581710946.3,34.18,25.879,29.297,27.344,0.0,0
1581710946.304,40.527,17.578,22.949,31.25,0.0,0
1581710946.306,41.504,20.02,23.926,37.109,0.0,0
1581710946.31,32.227,22.949,30.273000000000003,36.133,0.0,0
1581710946.314,20.02,18.066,29.785,42.969,0.0,0
1581710946.3179998,19.043,23.926,21.484,36.133,0.0,0
1581710946.322,26.367,32.715,23.926,30.273000000000003,0.0,0
1581710946.326,19.531,31.738000000000003,34.668,30.273000000000003,0.0,0
1581710946.33,7.324,26.855,28.32,29.297,0.0,0
1581710946.333,17.09,14.648,22.949,39.551,0.0,0
1581710946.337,30.273000000000003,9.766,30.273000000000003,34.668,0.0,0
1581710946.341,25.879,27.344,31.738000000000003,28.809,0.0,0
1581710946.345,15.137,27.832,32.715,30.762,0.0,0
1581710946.349,13.184,21.484,24.902,29.297,0.0,0
1581710946.351,28.32,28.32,27.344,41.01600000000001,0.0,0
1581710946.355,32.715,28.809,29.297,38.574,0.0,0
1581710946.359,27.832,13.184,25.879,30.762,0.0,0
1581710946.363,29.297,1.953,24.902,42.48,0.0,0
1581710946.367,40.039,16.602,27.832,50.293,0.0,0
1581710946.371,47.852,28.32,31.738000000000003,48.34,0.0,0
1581710946.375,35.645,22.461,26.367,39.062,0.0,0
1581710946.3779998,19.043,13.184,24.902,28.809,0.0,0
1581710946.3820002,20.996,21.973000000000006,23.926,27.832,0.0,0
1581710946.3860002,28.32,28.32,23.438,31.25,0.0,0
1581710946.39,21.973000000000006,22.461,28.32,27.344,0.0,0
1581710946.394,18.555,15.625,34.668,29.785,0.0,0
1581710946.396,28.809,20.996,35.156,45.41,0.0,0
1581710946.4,41.992,40.039,29.297,52.734,0.0,0
1581710946.404,40.039,32.715,21.484,45.41,0.0,0
1581710946.408,27.344,20.508000000000006,22.461,37.598,0.0,0
1581710946.4120002,31.738000000000003,18.066,29.785,32.715,0.0,0
1581710946.416,40.039,15.625,34.18,30.762,0.0,0
1581710946.42,33.691,20.508000000000006,31.25,32.227,0.0,0
1581710946.423,21.973000000000006,24.414,33.203,24.902,0.0,0
1581710946.427,11.23,41.01600000000001,28.809,23.438,0.0,0
1581710946.431,17.09,41.992,20.996,24.902,0.0,0
1581710946.435,35.645,37.109,24.902,31.738000000000003,0.0,0
1581710946.439,30.273000000000003,33.691,29.297,29.785,0.0,0
1581710946.441,19.531,26.855,23.926,21.484,0.0,0
1581710946.445,37.109,23.438,25.879,27.344,0.0,0
1581710946.449,45.41,22.461,29.785,22.461,0.0,0
1581710946.4529998,34.668,27.344,29.785,16.602,0.0,0
1581710946.457,25.879,21.973000000000006,25.879,8.789,0.0,0
1581710946.461,19.531,11.719,24.414,8.301,0.0,0
1581710946.465,35.156,7.324,26.367,14.16,0.0,0
1581710946.468,43.457,13.672,21.973000000000006,12.695,0.0,0
1581710946.472,29.297,26.855,27.344,17.09,0.0,0
1581710946.476,25.879,25.879,35.156,21.484,0.0,0
1581710946.48,29.297,16.602,37.598,17.578,0.0,0
1581710946.484,30.762,19.043,32.715,20.02,0.0,0
1581710946.516,25.391,20.508000000000006,29.785,20.02,0.0,0
1581710946.52,20.02,10.742,32.227,25.879,0.0,0
1581710946.524,21.484,13.672,28.809,32.715,0.0,0
1581710946.528,25.879,27.344,23.438,35.156,0.0,0
1581710946.532,20.996,20.996,22.461,25.879,0.0,0
1581710946.536,17.09,-2.441,29.297,20.996,0.0,0
1581710946.54,23.926,-0.488,29.785,28.32,0.0,0
1581710946.543,31.25,23.438,24.414,25.391,0.0,0
1581710946.5470002,34.18,21.973000000000006,21.973000000000006,19.531,0.0,0
1581710946.551,17.09,-2.93,20.02,12.695,0.0,0
1581710946.555,18.555,9.277,19.043,8.789,0.0,0
1581710946.559,35.156,36.621,15.137,10.254,0.0,0
1581710946.5470002,38.086,38.086,17.578,14.648,0.0,0
1581710946.551,31.25,32.715,24.414,18.066,0.0,0
1581710946.555,22.949,30.273000000000003,25.391,23.926,0.0,0
1581710946.559,40.527,36.621,24.902,29.297,0.0,0
1581710946.563,45.41,38.086,25.879,24.902,0.0,0
1581710946.5670002,27.344,20.996,29.297,19.531,0.0,0
1581710946.571,22.949,8.789,35.156,19.043,0.0,0
1581710946.574,27.832,29.785,34.18,16.602,0.0,0
1581710946.5779998,37.109,33.691,34.18,20.02,0.0,0
1581710946.582,33.203,14.648,37.598,21.484,0.0,0
1581710946.586,15.137,23.438,30.273000000000003,14.648,0.0,0
1581710946.59,10.254,26.367,20.508000000000006,19.531,0.0,0
1581710946.592,23.926,9.766,26.367,21.484,0.0,0
1581710946.596,21.484,20.508000000000006,28.32,6.348,0.0,0
1581710946.6,0.488,40.527,22.461,5.371,0.0,0
1581710946.604,2.441,36.621,22.461,13.672,0.0,0
1581710946.6079998,24.414,22.461,24.902,22.461,0.0,0
1581710946.6120002,30.273000000000003,18.555,29.297,27.832,0.0,0
1581710946.6160002,17.09,11.719,26.367,9.766,0.0,0
1581710946.619,13.184,19.043,21.973000000000006,16.113,0.0,0
1581710946.623,29.297,20.996,29.785,24.414,0.0,0
1581710946.627,35.645,16.113,31.738000000000003,8.789,0.0,0
1581710946.631,23.926,21.973000000000006,28.809,5.859,0.0,0
1581710946.635,22.949,14.648,32.715,8.789,0.0,0
1581710946.6360002,21.484,26.367,25.879,6.348,0.0,0
1581710946.64,24.414,37.598,20.02,10.254,0.0,0
1581710946.644,25.879,33.691,25.391,10.742,0.0,0
1581710946.6479998,16.113,27.344,29.785,2.441,0.0,0
1581710946.6520002,14.648,25.391,24.902,2.93,0.0,0
1581710946.656,35.156,26.855,19.043,14.16,0.0,0
1581710946.66,33.691,24.902,24.902,11.719,0.0,0
1581710946.663,11.23,25.391,29.785,7.812,0.0,0
1581710946.667,10.742,12.207,31.25,15.137,0.0,0
1581710946.671,21.973000000000006,14.16,28.809,15.137,0.0,0
1581710946.675,27.832,20.02,28.809,16.113,0.0,0
1581710946.679,24.414,15.625,30.273000000000003,18.066,0.0,0
1581710946.6820002,23.926,4.883,29.297,17.578,0.0,0
1581710946.686,30.273000000000003,7.324,24.902,19.531,0.0,0
1581710946.69,32.715,20.996,20.508000000000006,18.555,0.0,0
1581710946.694,20.996,17.578,20.996,12.695,0.0,0
1581710946.698,10.254,16.602,15.137,20.508000000000006,0.0,0
1581710946.702,19.043,16.602,15.137,31.738000000000003,0.0,0
1581710946.706,34.668,7.324,22.461,41.01600000000001,0.0,0
1581710946.709,33.691,-3.418,30.762,39.551,0.0,0
1581710946.7129998,21.973000000000006,2.441,41.992,32.715,0.0,0
1581710946.717,21.973000000000006,29.297,40.039,36.621,0.0,0
1581710946.721,31.25,33.691,36.621,38.574,0.0,0
1581710946.725,40.527,29.297,31.738000000000003,29.297,0.0,0
1581710946.729,41.504,24.902,30.273000000000003,16.113,0.0,0
1581710946.7329998,34.18,22.461,30.762,13.672,0.0,0
1581710946.7370002,36.133,25.879,22.461,17.09,0.0,0
1581710946.7410002,33.203,20.996,12.695,9.277,0.0,0
1581710946.745,16.602,15.137,13.184,1.465,0.0,0
1581710946.7489998,8.301,3.418,24.902,0.488,0.0,0
1581710946.7529998,17.09,2.441,35.156,4.395,0.0,0
1581710946.756,30.273000000000003,13.672,35.645,9.766,0.0,0
1581710946.76,31.25,25.391,27.344,15.625,0.0,0
1581710946.764,23.926,27.344,32.715,17.578,0.0,0
1581710946.768,18.555,13.184,44.434,20.508000000000006,0.0,0
1581710946.772,23.926,12.695,42.969,30.273000000000003,0.0,0
1581710946.772,27.832,21.973000000000006,33.691,26.855,0.0,0
1581710946.776,23.926,19.531,25.879,20.02,0.0,0
1581710946.78,31.738000000000003,15.625,32.715,22.949,0.0,0
1581710946.784,43.457,11.23,34.18,26.855,0.0,0
1581710946.788,40.527,9.766,14.648,24.902,0.0,0
1581710946.792,26.367,12.695,15.137,21.484,0.0,0
1581710946.796,11.719,14.648,27.832,16.602,0.0,0
1581710946.799,22.949,15.625,34.18,16.602,0.0,0
1581710946.803,39.062,17.578,42.48,19.531,0.0,0
1581710946.8070002,28.32,15.625,42.969,22.461,0.0,0
1581710946.811,18.555,20.996,39.551,26.855,0.0,0
1581710946.815,24.902,25.879,36.133,33.203,0.0,0
1581710946.8170002,30.273000000000003,29.785,25.391,34.668,0.0,0
1581710946.821,27.344,14.16,27.344,20.996,0.0,0
1581710946.825,21.484,4.395,34.18,22.949,0.0,0
1581710946.829,20.02,28.32,21.973000000000006,29.297,0.0,0
1581710946.833,27.344,36.621,18.066,21.973000000000006,0.0,0
1581710946.837,24.414,17.578,32.227,16.602,0.0,0
1581710946.841,20.996,2.441,39.062,11.23,0.0,0
1581710946.844,22.461,21.973000000000006,36.133,12.207,0.0,0
1581710946.8479998,27.344,42.969,29.785,18.555,0.0,0
1581710946.8520002,27.344,31.25,21.484,20.508000000000006,0.0,0
1581710946.856,23.438,20.02,23.926,20.996,0.0,0
1581710946.86,27.344,18.555,26.855,29.785,0.0,0
1581710946.8760002,32.227,19.043,20.996,29.785,0.0,0
1581710946.88,30.273000000000003,23.926,23.926,18.555,0.0,0
1581710946.8839998,21.484,27.344,27.832,18.555,0.0,0
1581710946.8879998,18.555,33.203,24.414,31.738000000000003,0.0,0
1581710946.8920002,25.879,23.438,30.762,34.668,0.0,0
1581710946.896,33.203,9.277,37.109,39.062,0.0,0
1581710946.9,21.973000000000006,14.16,32.227,28.32,0.0,0
1581710946.903,6.348,22.461,31.738000000000003,17.578,0.0,0
1581710946.907,14.16,25.879,36.133,25.391,0.0,0
1581710946.911,22.461,20.508000000000006,34.668,21.973000000000006,0.0,0
1581710946.915,20.508000000000006,18.066,32.715,16.602,0.0,0
1581710946.919,9.766,24.902,31.25,15.137,0.0,0
1581710946.9220002,0.977,21.973000000000006,28.32,9.277,0.0,0
1581710946.926,9.277,29.785,29.785,17.578,0.0,0
1581710946.93,19.531,26.367,34.18,25.391,0.0,0
1581710946.934,16.113,17.578,36.621,21.973000000000006,0.0,0
1581710946.938,12.207,26.855,34.18,30.762,0.0,0
1581710946.9420002,18.066,30.273000000000003,38.086,30.762,0.0,0
1581710946.946,21.973000000000006,33.691,33.691,24.902,0.0,0
1581710946.949,20.508000000000006,35.156,28.809,24.902,0.0,0
1581710946.9529998,11.719,20.508000000000006,35.156,34.18,0.0,0
1581710946.957,31.738000000000003,2.93,37.598,52.246,0.0,0
1581710946.961,39.551,22.461,29.297,29.785,0.0,0
1581710946.965,27.344,46.387,27.344,18.066,0.0,0
1581710946.967,23.926,33.691,23.926,34.18,0.0,0
1581710946.971,9.277,24.414,22.461,33.691,0.0,0
1581710946.975,16.602,41.504,25.391,36.621,0.0,0
1581710946.979,20.508000000000006,37.598,15.625,31.25,0.0,0
1581710946.9829998,15.625,23.438,17.09,30.762,0.0,0
1581710946.9870002,21.484,24.902,30.762,35.645,0.0,0
1581710946.9910002,24.902,26.367,31.738000000000003,36.621,0.0,0
1581710946.994,22.949,26.367,36.133,36.133,0.0,0
1581710946.998,9.766,16.602,35.156,22.949,0.0,0
1581710947.002,3.418,17.09,30.273000000000003,20.996,0.0,0
1581710947.006,17.578,30.273000000000003,35.156,24.414,0.0,0
1581710947.01,23.438,35.156,34.18,25.391,0.0,0
1581710947.012,11.23,36.621,27.344,26.367,0.0,0
1581710947.016,9.766,36.621,25.879,26.855,0.0,0
1581710947.02,22.461,38.574,25.879,30.273000000000003,0.0,0
1581710947.024,33.203,29.785,28.809,33.691,0.0,0
1581710947.028,27.344,20.996,32.227,38.574,0.0,0
1581710947.032,1.465,17.578,27.344,33.691,0.0,0
1581710947.036,1.465,21.973000000000006,24.414,27.344,0.0,0
1581710947.039,23.438,27.832,28.809,28.809,0.0,0
1581710947.043,33.203,27.344,31.25,29.785,0.0,0
1581710947.0470002,23.438,31.25,29.785,31.738000000000003,0.0,0
1581710947.051,18.066,29.785,31.25,32.227,0.0,0
1581710947.055,25.879,38.086,29.785,35.645,0.0,0
1581710947.0570002,25.391,45.41,29.297,32.715,0.0,0
1581710947.061,16.113,44.922,27.832,22.461,0.0,0
1581710947.065,8.301,35.645,27.344,23.926,0.0,0
1581710947.069,14.16,18.066,28.32,25.391,0.0,0
1581710947.073,32.227,11.719,35.156,27.344,0.0,0
1581710947.077,35.156,9.277,44.434,31.25,0.0,0
1581710947.081,9.277,16.113,31.738000000000003,19.043,0.0,0
1581710947.084,3.418,26.367,17.09,13.184,0.0,0
1581710947.0879998,22.949,37.109,21.973000000000006,16.602,0.0,0
1581710947.092,28.32,52.246,21.484,13.672,0.0,0
1581710947.096,26.855,41.504,26.855,6.348,0.0,0
1581710947.1,19.531,26.367,40.527,4.395,0.0,0
1581710947.101,20.02,26.367,37.598,6.836,0.0,0
1581710947.105,20.508000000000006,21.973000000000006,33.203,0.0,0.0,0
1581710947.109,11.719,15.625,28.809,0.0,0.0,0
1581710947.113,4.395,18.066,24.414,-2.93,0.0,0
1581710947.117,6.348,28.32,27.344,-5.859,0.0,0
1581710947.121,17.09,32.227,27.832,6.836,0.0,0
1581710947.125,10.742,25.879,21.484,3.906,0.0,0
1581710947.1279998,8.789,18.555,18.066,0.0,0.0,0
1581710947.1320002,26.855,34.668,21.973000000000006,10.254,0.0,0
1581710947.1360002,43.457,42.969,28.32,15.137,0.0,0
1581710947.14,42.48,28.809,33.691,21.973000000000006,0.0,0
1581710947.144,29.785,20.996,35.156,27.344,0.0,0
1581710947.146,30.762,15.625,26.855,30.762,0.0,0
1581710947.15,43.945,22.461,9.766,34.668,0.0,0
1581710947.154,44.434,26.367,5.859,23.438,0.0,0
1581710947.158,33.691,26.367,26.855,23.926,0.0,0
1581710947.1620002,31.738000000000003,29.785,35.156,26.855,0.0,0
1581710947.166,41.992,33.691,28.809,29.297,0.0,0
1581710947.17,40.527,41.01600000000001,20.996,31.25,0.0,0
1581710947.173,27.344,42.48,22.949,24.414,0.0,0
1581710947.177,25.879,49.316,29.297,32.715,0.0,0
1581710947.181,34.18,46.387,28.32,41.01600000000001,0.0,0
1581710947.185,38.574,33.691,35.156,46.875,0.0,0
1581710947.189,29.785,22.949,37.109,31.738000000000003,0.0,0
1581710947.206,16.602,17.578,34.18,21.484,0.0,0
1581710947.21,15.137,22.949,32.715,36.621,0.0,0
1581710947.214,21.973000000000006,29.785,30.762,41.992,0.0,0
1581710947.218,21.484,32.715,31.738000000000003,45.41,0.0,0
1581710947.222,8.789,24.414,32.715,36.621,0.0,0
1581710947.226,11.719,16.602,27.832,28.809,0.0,0
1581710947.23,28.32,10.742,20.508000000000006,39.062,0.0,0
1581710947.2329998,26.855,25.879,23.926,41.01600000000001,0.0,0
1581710947.2370002,17.578,40.527,30.273000000000003,33.691,0.0,0
1581710947.2410002,15.625,30.762,34.18,25.391,0.0,0
1581710947.245,19.043,24.902,36.621,19.531,0.0,0
1581710947.2489998,23.926,30.273000000000003,37.109,28.32,0.0,0
1581710947.2510002,20.508000000000006,35.645,35.645,24.902,0.0,0
1581710947.255,19.043,26.367,36.133,28.32,0.0,0
1581710947.2589998,21.973000000000006,25.879,29.297,31.738000000000003,0.0,0
1581710947.2629998,27.344,41.01600000000001,20.996,23.438,0.0,0
1581710947.2670002,30.273000000000003,32.227,28.809,21.484,0.0,0
1581710947.271,23.926,11.719,30.273000000000003,21.484,0.0,0
1581710947.275,17.09,11.23,22.949,24.902,0.0,0
1581710947.278,22.949,30.762,23.926,20.996,0.0,0
1581710947.282,22.461,40.039,21.484,10.742,0.0,0
1581710947.286,13.672,22.461,22.461,14.16,0.0,0
1581710947.29,15.625,26.367,29.785,20.02,0.0,0
1581710947.294,31.738000000000003,45.898,36.621,32.715,0.0,0
1581710947.296,44.922,37.109,34.668,27.832,0.0,0
1581710947.3,32.715,29.297,22.949,17.578,0.0,2
1581710947.304,19.043,25.391,21.973000000000006,30.762,0.0,0
1581710947.3079998,33.691,20.02,29.785,32.715,0.0,0
1581710947.312,36.621,25.879,27.832,31.25,0.0,0
1581710947.316,20.508000000000006,20.508000000000006,24.902,18.066,0.0,0
1581710947.32,8.789,18.555,24.414,5.859,0.0,0
1581710947.323,14.648,30.762,29.785,15.137,0.0,0
1581710947.327,27.832,25.391,36.621,16.602,0.0,0
1581710947.331,21.973000000000006,20.996,31.25,4.883,0.0,0
1581710947.335,17.09,36.133,25.879,-6.348,0.0,0
1581710947.339,15.137,42.969,14.648,-6.348,0.0,0
1581710947.341,25.391,34.668,15.625,6.836,0.0,0
1581710947.345,24.902,31.738000000000003,23.926,0.488,0.0,0
1581710947.349,14.648,35.645,24.902,0.488,0.0,0
1581710947.353,19.043,31.738000000000003,24.414,7.812,0.0,0
1581710947.357,26.367,27.344,21.484,16.602,0.0,0
1581710947.361,35.645,23.438,23.438,25.391,0.0,0
1581710947.365,32.715,20.508000000000006,29.297,16.602,0.0,0
1581710947.3679998,23.438,25.879,27.832,22.949,0.0,0
1581710947.3720002,34.668,26.855,23.926,28.809,0.0,0
1581710947.3760002,50.293,34.18,25.879,26.367,0.0,0
1581710947.38,36.621,45.41,21.484,30.762,0.0,0
1581710947.3839998,8.301,41.504,18.555,22.461,0.0,0
1581710947.3860002,13.184,31.25,25.879,14.16,0.0,0
1581710947.39,30.762,32.715,21.484,8.301,0.0,0
1581710947.394,25.391,28.32,10.742,-4.883,0.0,0
1581710947.3979998,23.926,22.949,18.066,6.348,0.0,0
1581710947.4020002,26.367,32.715,29.785,20.996,0.0,0
1581710947.406,31.738000000000003,21.973000000000006,26.367,17.09,0.0,0
1581710947.41,35.645,28.809,26.367,0.977,0.0,0
1581710947.413,23.926,43.945,24.902,-6.836,0.0,0
1581710947.417,14.16,28.809,28.809,2.441,0.0,0
1581710947.421,24.414,35.156,31.738000000000003,8.301,0.0,0
1581710947.425,31.738000000000003,39.551,26.367,10.742,0.0,0
1581710947.429,15.137,20.508000000000006,22.949,-7.324,0.0,0
1581710947.431,6.836,15.625,20.508000000000006,-9.766,0.0,0
1581710947.435,19.043,23.926,29.297,7.812,0.0,0
1581710947.439,31.738000000000003,27.344,36.621,10.742,0.0,0
1581710947.4429998,23.438,26.855,34.668,11.719,0.0,0
1581710947.447,10.742,10.254,27.344,9.766,0.0,0
1581710947.451,20.508000000000006,6.348,25.879,14.648,0.0,0
1581710947.455,26.855,27.832,26.855,29.297,0.0,0
1581710947.458,22.949,20.996,17.578,24.414,0.0,0
1581710947.462,20.02,29.297,18.555,13.672,0.0,0
1581710947.466,20.996,51.758,25.879,2.93,0.0,0
1581710947.47,24.902,41.01600000000001,19.531,3.906,0.0,0
1581710947.474,26.855,37.109,14.648,14.16,0.0,0
1581710947.476,13.672,50.293,23.926,8.789,0.0,0
1581710947.48,7.812,45.898,34.18,8.301,0.0,0
1581710947.484,18.555,29.297,29.297,-2.93,0.0,0
1581710947.488,27.832,26.855,25.391,0.488,0.0,0
1581710947.492,29.297,32.715,30.762,20.996,0.0,0
1581710947.496,22.949,23.438,29.297,20.508000000000006,0.0,0
1581710947.5,21.973000000000006,29.785,19.043,20.02,0.0,0
1581710947.5029998,36.133,40.039,20.996,11.719,0.0,0
1581710947.5070002,31.738000000000003,39.551,19.531,4.395,0.0,0
1581710947.5110002,19.531,34.18,18.555,21.973000000000006,0.0,0
1581710947.515,26.855,24.902,30.762,30.762,0.0,0
1581710947.519,37.598,27.832,28.809,35.645,0.0,0
1581710947.536,29.785,33.203,18.066,17.09,0.0,0
1581710947.54,14.648,34.18,17.578,8.789,0.0,0
1581710947.544,17.578,30.273000000000003,32.715,26.367,0.0,0
1581710947.548,33.203,38.574,34.668,35.156,0.0,0
1581710947.552,43.945,42.969,26.855,40.039,0.0,0
1581710947.556,36.133,38.574,33.203,32.715,0.0,0
1581710947.56,20.508000000000006,38.086,36.621,23.926,0.0,0
1581710947.563,37.598,40.039,30.273000000000003,25.391,0.0,0
1581710947.5670002,42.969,50.78100000000001,25.879,26.367,0.0,0
1581710947.571,29.785,41.992,25.879,25.879,0.0,0
1581710947.575,34.18,30.273000000000003,20.02,24.902,0.0,0
1581710947.579,33.203,27.344,24.902,32.227,0.0,0
1581710947.566,34.18,33.691,35.645,35.156,0.0,0
1581710947.57,29.297,35.645,30.273000000000003,18.066,0.0,0
1581710947.574,7.812,32.227,25.879,19.531,0.0,0
1581710947.5779998,11.719,33.691,24.414,19.531,0.0,0
1581710947.582,30.762,24.414,26.367,14.16,0.0,0
1581710947.586,28.32,9.766,34.668,14.648,0.0,0
1581710947.59,16.113,18.555,37.109,7.812,0.0,0
1581710947.593,15.137,42.48,30.273000000000003,16.113,0.0,0
1581710947.597,25.879,45.898,25.879,13.184,0.0,0
1581710947.601,29.785,30.762,32.715,10.254,0.0,0
1581710947.605,16.602,19.531,35.156,16.113,0.0,0
1581710947.609,18.555,30.273000000000003,33.203,19.043,0.0,0
1581710947.6260002,38.574,43.457,36.621,35.645,0.0,0
1581710947.63,44.434,40.527,37.109,37.598,0.0,0
1581710947.6339998,30.762,26.855,27.344,25.391,0.0,0
1581710947.6379998,22.461,24.902,23.438,35.156,0.0,0
1581710947.6420002,32.715,25.879,31.25,38.574,0.0,0
1581710947.646,34.668,14.16,37.598,38.574,0.0,0
1581710947.65,20.508000000000006,18.555,32.227,28.809,0.0,0
1581710947.653,10.742,13.672,27.344,17.578,0.0,0
1581710947.657,18.066,9.277,32.227,36.133,0.0,0
1581710947.661,34.668,20.996,34.18,44.434,0.0,0
1581710947.665,30.762,26.855,31.738000000000003,39.062,0.0,0
1581710947.669,17.578,37.598,28.32,26.367,0.0,0
1581710947.671,18.066,38.086,26.367,23.438,0.0,0
1581710947.675,25.879,35.645,20.996,29.785,0.0,0
1581710947.679,38.574,38.086,20.508000000000006,27.832,0.0,0
1581710947.6829998,27.832,37.598,28.32,26.367,0.0,0
1581710947.687,12.695,22.461,30.762,18.066,0.0,0
1581710947.691,24.414,14.648,25.879,13.184,0.0,0
1581710947.695,32.715,17.578,19.531,20.996,0.0,0
1581710947.698,25.391,26.855,26.367,18.066,0.0,0
1581710947.702,18.066,25.391,34.668,22.461,0.0,0
1581710947.706,29.297,5.371,32.227,23.438,0.0,0
1581710947.71,50.78100000000001,10.742,31.738000000000003,23.926,0.0,0
1581710947.714,41.504,20.996,36.621,42.48,0.0,0
1581710947.716,31.25,23.438,41.992,42.969,0.0,0
1581710947.72,29.785,36.621,40.527,39.551,0.0,0
1581710947.724,31.25,48.828,37.109,38.574,0.0,0
1581710947.728,32.227,44.434,29.785,27.344,0.0,0
1581710947.732,25.879,23.926,26.367,36.133,0.0,0
1581710947.736,36.133,20.996,27.344,49.805,0.0,0
1581710947.74,43.457,35.156,24.414,50.78100000000001,0.0,0
1581710947.7429998,41.01600000000001,34.18,26.855,38.574,0.0,0
1581710947.7470002,28.809,8.301,30.762,31.738000000000003,0.0,0
1581710947.7510002,21.484,20.508000000000006,19.043,36.621,0.0,0
1581710947.755,40.527,54.688,11.23,39.062,0.0,0
1581710947.7589998,53.71100000000001,43.945,26.855,45.898,0.0,0
1581710947.7610002,36.133,40.039,36.621,25.391,0.0,0
1581710947.765,26.855,41.504,35.156,9.277,0.0,0
1581710947.769,34.668,40.527,37.109,20.996,0.0,0
1581710947.7729998,37.598,35.645,32.227,22.949,0.0,0
1581710947.7770002,29.785,32.227,28.809,23.438,0.0,0
1581710947.781,20.508000000000006,29.297,34.668,20.508000000000006,0.0,0
1581710947.785,27.832,29.785,30.762,28.809,0.0,0
1581710947.788,36.621,31.738000000000003,14.648,39.551,0.0,0
1581710947.792,27.832,26.855,20.508000000000006,25.391,0.0,0
1581710947.796,16.602,38.086,24.902,20.996,0.0,0
1581710947.8,14.648,46.387,22.949,17.578,0.0,0
1581710947.804,22.461,28.809,33.691,17.578,0.0,0
1581710947.806,26.855,26.855,33.203,23.926,0.0,0
1581710947.81,13.184,36.133,28.809,11.23,0.0,0
1581710947.814,10.742,47.363,29.785,13.672,0.0,0
1581710947.8179998,20.996,49.805,33.691,12.207,0.0,0
1581710947.822,35.156,42.969,32.227,7.812,0.0,0
1581710947.826,32.227,31.738000000000003,21.973000000000006,17.578,0.0,0
1581710947.83,13.672,33.691,23.926,24.902,0.0,0
1581710947.833,16.113,29.297,30.273000000000003,25.879,0.0,0
1581710947.837,31.738000000000003,18.555,25.879,11.719,0.0,0
1581710947.841,32.227,42.969,20.508000000000006,15.137,0.0,0
1581710947.845,18.555,40.039,19.531,19.531,0.0,0
1581710947.849,12.207,23.926,25.391,10.254,0.0,0
1581710947.851,20.02,36.133,26.855,10.742,0.0,0
1581710947.855,29.785,45.898,24.902,5.371,0.0,0
1581710947.859,13.672,38.574,22.949,0.0,0.0,0
1581710947.863,1.465,41.992,21.973000000000006,10.742,0.0,0
1581710947.867,7.812,45.41,12.695,8.789,0.0,0
1581710947.871,19.043,44.434,17.578,5.371,0.0,0
1581710947.875,22.461,31.738000000000003,36.133,5.859,0.0,0
1581710947.8779998,20.02,21.484,41.504,4.883,0.0,0
1581710947.8820002,13.672,41.992,32.227,6.836,0.0,0
1581710947.8860002,13.184,42.969,23.438,-0.488,0.0,0
1581710947.89,16.113,25.391,25.879,-4.395,0.0,0
1581710947.894,15.137,24.902,25.879,0.977,0.0,0
1581710947.896,7.812,33.203,21.484,4.883,0.0,0
1581710947.9,20.996,30.273000000000003,22.461,11.23,0.0,0
1581710947.904,20.02,21.484,28.809,7.324,0.0,0
1581710947.908,10.254,25.391,27.344,8.301,0.0,0
1581710947.9120002,20.02,36.621,24.414,12.695,0.0,0
1581710947.916,20.996,35.156,28.32,16.113,0.0,0
1581710947.92,24.902,22.461,29.785,24.414,0.0,0
1581710947.923,21.973000000000006,18.066,30.273000000000003,20.508000000000006,0.0,0
1581710947.927,14.16,26.855,28.32,20.508000000000006,0.0,0
1581710947.931,24.902,29.785,24.414,25.391,0.0,0
1581710947.935,31.25,34.668,26.855,26.367,0.0,0
1581710947.939,22.461,29.785,29.297,29.785,0.0,0
1581710947.941,13.184,20.02,29.785,27.344,0.0,0
1581710947.945,9.277,20.508000000000006,24.902,25.391,0.0,0
1581710947.949,15.625,23.438,24.414,21.973000000000006,0.0,0
1581710947.9529998,13.672,22.949,26.855,11.719,0.0,0
1581710947.957,1.953,27.344,24.414,12.207,0.0,0
1581710947.961,10.254,20.508000000000006,24.902,11.719,0.0,0
1581710947.965,23.438,13.672,24.414,8.301,0.0,0
1581710947.968,17.578,31.738000000000003,25.879,-1.465,0.0,0
1581710947.972,7.812,38.086,31.25,-10.742,0.0,0
1581710947.976,11.719,31.738000000000003,30.762,6.348,0.0,0
1581710947.98,25.391,41.01600000000001,28.809,14.16,0.0,0
1581710947.984,21.973000000000006,47.363,25.391,11.719,0.0,0
1581710948.002,11.23,33.203,26.367,0.977,0.0,0
1581710948.006,8.789,17.09,31.25,-4.883,0.0,0
1581710948.01,13.184,23.926,29.785,4.883,0.0,0
1581710948.014,15.137,31.738000000000003,23.438,7.324,0.0,0
1581710948.018,10.254,31.25,24.414,6.348,0.0,0
1581710948.022,1.953,24.414,28.32,-5.859,0.0,0
1581710948.026,10.742,23.438,27.832,3.418,0.0,0
1581710948.029,27.344,35.156,33.691,30.273000000000003,0.0,0
1581710948.033,31.25,34.18,32.227,27.832,0.0,0
1581710948.0370002,30.273000000000003,29.297,30.273000000000003,24.902,0.0,0
1581710948.041,34.18,32.715,29.297,25.879,0.0,0
1581710948.045,44.922,37.598,27.344,26.855,0.0,0
1581710948.0470002,42.48,34.18,27.832,28.32,0.0,0
1581710948.051,33.691,34.18,30.273000000000003,30.273000000000003,0.0,0
1581710948.055,31.738000000000003,28.32,32.227,37.109,0.0,0
1581710948.059,34.668,26.367,33.691,31.25,0.0,0
1581710948.063,41.992,31.738000000000003,32.715,40.039,0.0,0
1581710948.0670002,33.691,15.625,35.156,38.574,0.0,0
1581710948.071,15.625,6.348,37.598,22.949,0.0,0
1581710948.074,22.461,24.902,29.297,27.344,0.0,0
1581710948.0779998,32.715,35.645,23.438,22.461,0.0,0
1581710948.082,14.648,28.809,26.367,20.02,0.0,0
1581710948.086,14.16,34.668,30.273000000000003,35.156,0.0,0
1581710948.09,31.738000000000003,43.457,29.785,47.852,0.0,0
1581710948.092,33.691,36.133,26.367,51.758,0.0,0
1581710948.096,25.879,17.578,31.738000000000003,34.668,0.0,0
1581710948.1,19.531,19.043,33.691,33.691,0.0,0
1581710948.104,18.066,29.297,29.785,44.434,0.0,0
1581710948.1079998,23.438,29.785,25.391,40.527,0.0,0
1581710948.1120002,30.762,21.973000000000006,14.16,35.645,0.0,0
1581710948.1160002,19.531,11.719,23.926,27.344,0.0,0
1581710948.119,13.672,22.461,24.902,24.414,0.0,0
1581710948.123,29.297,33.203,14.16,31.25,0.0,0
1581710948.127,35.156,38.086,26.855,25.391,0.0,0
1581710948.131,28.32,50.293,32.227,23.926,0.0,0
1581710948.135,21.973000000000006,43.457,29.297,21.973000000000006,0.0,0
1581710948.1360002,26.367,34.668,31.738000000000003,21.484,0.0,0
1581710948.14,25.391,42.48,34.18,26.855,0.0,0
1581710948.144,22.949,45.41,35.156,16.113,0.0,0
1581710948.1479998,21.973000000000006,37.109,30.762,13.184,0.0,0
1581710948.1520002,18.066,25.879,26.367,8.789,0.0,0
1581710948.156,28.809,12.695,26.367,18.066,0.0,0
1581710948.16,26.367,16.113,21.973000000000006,23.438,0.0,0
1581710948.163,17.09,25.391,24.902,19.531,0.0,0
1581710948.167,18.555,22.461,28.809,21.973000000000006,0.0,0
1581710948.171,28.32,36.621,32.227,20.508000000000006,0.0,0
1581710948.175,34.18,45.41,34.18,32.227,0.0,0
1581710948.179,13.184,36.621,21.484,28.32,0.0,0
1581710948.181,6.348,39.062,25.879,25.391,0.0,0
1581710948.185,31.738000000000003,47.363,46.875,42.969,0.0,0
1581710948.189,31.738000000000003,37.109,47.363,29.297,0.0,0
1581710948.1929998,3.906,-0.977,33.691,9.277,0.0,0
1581710948.197,-8.789,0.0,20.996,9.766,0.0,0
1581710948.201,-5.371,23.438,21.973000000000006,8.789,0.0,0
1581710948.205,1.465,32.715,25.391,1.465,0.0,0
1581710948.208,9.766,25.879,20.02,-12.695,0.0,0
1581710948.212,5.371,23.926,24.414,-13.672,0.0,0
1581710948.216,7.812,47.363,29.297,-5.371,0.0,0
1581710948.22,25.391,43.945,30.273000000000003,7.812,0.0,0
1581710948.224,21.484,32.715,28.809,11.719,0.0,0
1581710948.226,16.602,34.668,25.879,3.906,0.0,0
1581710948.23,16.113,38.574,33.203,21.973000000000006,0.0,0
1581710948.234,25.391,22.461,37.598,37.598,0.0,0
1581710948.238,31.25,8.789,28.32,29.785,0.0,0
1581710948.242,17.09,20.02,27.832,32.715,0.0,0
1581710948.246,8.301,22.949,32.227,27.344,0.0,0
1581710948.25,11.23,22.461,30.762,24.902,0.0,0
1581710948.2529998,20.508000000000006,20.996,29.785,35.645,0.0,0
1581710948.2570002,24.414,29.297,34.668,39.551,0.0,0
1581710948.2610002,11.719,41.01600000000001,32.227,40.527,0.0,0
1581710948.265,25.391,34.18,33.203,39.062,0.0,0
1581710948.269,43.945,32.715,37.598,39.551,0.0,0
1581710948.286,36.133,38.574,30.762,40.039,0.0,0
1581710948.29,32.715,22.461,19.043,33.691,0.0,0
1581710948.294,25.391,13.672,19.531,24.414,0.0,0
1581710948.298,34.18,25.391,33.691,20.02,0.0,0
1581710948.302,44.434,35.156,36.133,23.926,0.0,0
1581710948.306,35.156,38.574,31.738000000000003,21.484,0.0,0
1581710948.31,27.344,37.109,26.367,14.16,0.0,0
1581710948.313,26.855,36.621,22.949,16.113,0.0,0
1581710948.3170002,27.344,44.922,18.555,16.113,0.0,0
1581710948.321,23.438,41.504,16.113,19.043,0.0,0
1581710948.325,20.02,24.414,24.902,24.414,0.0,0
1581710948.329,32.715,18.555,35.156,26.367,0.0,0
1581710948.316,38.574,34.668,31.738000000000003,31.738000000000003,0.0,0
1581710948.32,26.367,22.461,27.832,23.438,0.0,0
1581710948.324,16.602,12.695,32.715,25.391,0.0,0
1581710948.3279998,20.996,37.109,30.762,27.832,0.0,0
1581710948.332,28.32,46.875,31.25,26.367,0.0,0
1581710948.336,31.738000000000003,32.227,36.621,33.203,0.0,0
1581710948.34,27.344,29.785,38.086,30.762,0.0,0
1581710948.343,30.273000000000003,43.945,37.109,39.551,0.0,0
1581710948.347,40.527,36.621,35.156,50.293,0.0,0
1581710948.351,36.133,22.461,30.762,47.852,0.0,0
1581710948.355,23.926,17.578,27.832,42.969,0.0,0
1581710948.359,20.508000000000006,28.32,32.715,41.992,0.0,2
1581710948.3760002,27.344,32.715,28.809,42.48,0.0,0
1581710948.38,33.691,27.832,25.879,41.992,0.0,0
1581710948.3839998,31.738000000000003,31.25,33.203,32.715,0.0,0
1581710948.3879998,20.996,34.18,37.598,28.32,0.0,0
1581710948.3920002,23.926,38.574,35.156,31.738000000000003,0.0,0
1581710948.396,37.109,34.18,29.297,38.086,0.0,0
1581710948.4,28.32,27.832,27.344,30.273000000000003,0.0,0
1581710948.403,19.531,28.809,30.273000000000003,23.438,0.0,0
1581710948.407,10.742,26.855,21.973000000000006,25.879,0.0,0
1581710948.411,10.742,16.113,16.113,11.719,0.0,0
1581710948.415,9.277,21.484,25.879,6.836,0.0,0
1581710948.419,-1.465,37.109,32.227,9.277,0.0,0
1581710948.436,-2.93,41.992,26.367,7.324,0.0,0
1581710948.44,1.465,33.691,24.414,9.766,0.0,0
1581710948.444,16.113,26.855,31.738000000000003,8.789,0.0,0
1581710948.448,8.301,33.203,34.18,9.277,0.0,0
1581710948.452,1.465,27.832,29.785,12.695,0.0,0
1581710948.456,14.648,20.996,28.809,15.137,0.0,0
1581710948.46,18.066,33.691,26.855,19.531,0.0,0
1581710948.4629998,14.648,38.574,29.297,26.855,0.0,0
1581710948.467,12.695,33.203,26.855,34.668,0.0,0
1581710948.471,19.043,20.02,23.438,37.598,0.0,0
1581710948.475,33.691,22.461,32.715,41.992,0.0,0
1581710948.479,28.32,34.18,36.621,43.457,0.0,0
1581710948.466,17.578,21.973000000000006,30.273000000000003,37.598,0.0,0
1581710948.47,23.438,20.996,29.785,41.01600000000001,0.0,0
1581710948.474,32.227,32.227,30.762,43.457,0.0,0
1581710948.478,32.715,31.738000000000003,30.762,36.621,0.0,0
1581710948.482,20.508000000000006,32.227,32.227,34.18,0.0,0
1581710948.486,12.207,27.832,32.227,28.809,0.0,0
1581710948.49,25.879,42.969,35.645,30.273000000000003,0.0,0
1581710948.4929998,35.645,51.758,29.785,32.227,0.0,0
1581710948.4970002,22.461,28.32,23.438,19.531,0.0,0
1581710948.5010002,21.484,28.809,30.762,19.043,0.0,0
1581710948.505,28.809,32.227,32.227,22.949,0.0,0
1581710948.5089998,36.621,27.344,23.926,24.902,0.0,0
1581710948.5110002,34.18,23.438,19.531,20.508000000000006,0.0,0
1581710948.515,21.484,30.273000000000003,26.367,17.578,0.0,0
1581710948.519,26.855,46.875,33.203,29.785,0.0,0
1581710948.5229998,41.992,34.668,30.762,35.645,0.0,0
1581710948.5270002,33.203,20.996,32.227,31.738000000000003,0.0,0
1581710948.531,20.02,22.461,37.109,36.133,0.0,0
1581710948.535,23.438,29.297,33.203,45.41,0.0,0
1581710948.538,27.344,38.086,28.32,42.969,0.0,0
1581710948.542,27.832,33.203,31.25,29.297,0.0,0
1581710948.546,19.043,30.273000000000003,33.691,22.949,0.0,0
1581710948.55,4.395,28.809,25.879,21.484,0.0,0
1581710948.554,7.324,24.414,25.879,20.996,0.0,0
1581710948.556,21.484,35.156,32.227,26.367,0.0,0
1581710948.56,16.602,28.32,27.344,19.531,0.0,0
1581710948.564,2.93,20.996,24.414,16.113,0.0,0
1581710948.5679998,10.742,27.832,27.344,28.32,0.0,0
1581710948.572,25.879,38.086,22.949,29.297,0.0,0
1581710948.576,28.32,45.898,18.066,24.414,0.0,0
1581710948.58,22.461,41.01600000000001,23.438,25.391,0.0,0
1581710948.583,30.762,31.738000000000003,32.227,29.785,0.0,0
1581710948.587,38.086,25.879,36.133,31.738000000000003,0.0,0
1581710948.591,26.855,32.227,32.715,25.391,0.0,0
1581710948.595,15.625,25.879,31.738000000000003,22.949,0.0,0
1581710948.599,16.602,22.461,31.738000000000003,24.414,0.0,0
1581710948.601,24.902,34.18,26.367,26.855,0.0,0
1581710948.605,30.762,27.344,25.879,26.855,0.0,0
1581710948.609,27.344,17.09,32.715,25.879,0.0,0
1581710948.613,16.113,25.879,29.785,23.438,0.0,0
1581710948.617,28.809,29.297,22.461,23.438,0.0,0
1581710948.621,32.227,30.273000000000003,20.996,21.973000000000006,0.0,0
1581710948.625,20.02,33.203,29.785,17.09,0.0,0
1581710948.6279998,17.09,26.855,28.32,14.16,0.0,0
1581710948.6320002,17.578,27.832,20.996,12.207,0.0,0
1581710948.6360002,22.949,36.621,29.297,9.766,0.0,0
1581710948.64,23.438,34.18,28.809,13.184,0.0,0
1581710948.644,7.324,34.18,21.973000000000006,14.648,0.0,0
1581710948.646,3.906,39.551,26.855,21.484,0.0,0
1581710948.65,18.555,40.039,35.645,21.973000000000006,0.0,0
1581710948.654,15.625,29.297,32.715,8.789,0.0,0
1581710948.658,11.719,29.785,25.391,16.113,0.0,0
1581710948.6620002,19.043,37.109,29.785,28.32,0.0,0
1581710948.666,32.227,34.18,34.668,29.785,0.0,0
1581710948.67,25.879,27.832,31.738000000000003,20.02,0.0,0
1581710948.673,5.371,21.973000000000006,27.832,8.789,0.0,0
1581710948.677,7.324,33.203,17.578,15.137,0.0,0
1581710948.681,19.043,33.691,17.578,14.648,0.0,0
1581710948.685,25.879,32.227,21.484,16.113,0.0,0
1581710948.689,17.578,33.691,22.949,22.949,0.0,0
1581710948.691,6.348,28.809,25.391,13.184,0.0,0
1581710948.695,18.555,32.227,25.391,25.391,0.0,0
1581710948.699,27.832,33.691,23.926,32.715,0.0,0
1581710948.7029998,19.043,35.645,20.996,21.973000000000006,0.0,0
1581710948.707,16.113,39.551,21.484,24.902,0.0,0
1581710948.711,24.414,31.738000000000003,22.461,21.973000000000006,0.0,0
1581710948.715,33.691,26.855,27.832,23.926,0.0,0
1581710948.718,38.086,40.039,35.156,28.809,0.0,0
1581710948.722,33.691,44.434,38.086,27.344,0.0,0
1581710948.726,25.391,32.227,36.621,27.832,0.0,0
1581710948.73,33.203,19.531,31.738000000000003,32.227,0.0,0
1581710948.734,43.457,21.973000000000006,31.738000000000003,38.086,0.0,0
1581710948.752,38.574,37.598,35.156,35.156,0.0,0
1581710948.756,21.973000000000006,40.039,27.344,32.715,0.0,0
1581710948.76,29.297,35.645,21.973000000000006,34.668,0.0,0
1581710948.764,40.527,40.039,31.25,34.18,0.0,0
1581710948.768,30.762,36.133,35.645,33.203,0.0,0
1581710948.772,27.344,20.508000000000006,31.738000000000003,23.926,0.0,0
1581710948.776,20.996,31.25,26.855,16.113,0.0,0
1581710948.779,21.484,50.78100000000001,23.438,19.531,0.0,0
1581710948.783,27.832,49.805,26.367,18.555,0.0,0
1581710948.7870002,17.578,39.062,30.762,21.973000000000006,0.0,0
1581710948.791,19.531,37.109,30.273000000000003,32.227,0.0,0
1581710948.795,41.01600000000001,44.434,29.297,27.344,0.0,0
1581710948.799,45.41,35.645,24.414,24.414,0.0,0
1581710948.803,31.25,29.297,19.531,26.855,0.0,0
1581710948.8070002,32.715,36.133,23.926,34.668,0.0,0
1581710948.811,46.387,41.992,24.414,41.504,0.0,0
1581710948.815,41.504,43.945,20.508000000000006,38.574,0.0,0
1581710948.819,34.668,37.109,22.949,38.086,0.0,0
1581710948.823,34.668,32.227,28.32,36.133,0.0,0
1581710948.826,33.203,49.316,27.344,32.715,0.0,0
1581710948.83,34.668,54.199,29.785,34.668,0.0,0
1581710948.834,23.926,39.551,36.133,20.02,0.0,0
1581710948.8379998,11.23,42.969,28.32,16.113,0.0,0
1581710948.842,24.414,40.527,26.855,24.414,0.0,0
1581710948.842,32.715,23.438,31.738000000000003,21.973000000000006,0.0,0
1581710948.846,23.926,31.25,31.738000000000003,20.996,0.0,0
1581710948.85,15.137,42.969,30.762,20.02,0.0,0
1581710948.854,17.09,33.691,21.973000000000006,21.484,0.0,0
1581710948.8579998,26.367,27.832,21.484,16.602,0.0,0
1581710948.8620002,27.832,31.25,26.855,18.066,0.0,0
1581710948.8660002,24.902,33.203,20.02,20.02,0.0,0
1581710948.869,27.344,35.645,21.973000000000006,32.227,0.0,0
1581710948.873,38.086,27.344,31.738000000000003,49.316,0.0,0
1581710948.877,42.48,22.949,34.18,48.34,0.0,0
1581710948.881,27.832,34.18,33.203,41.504,0.0,0
1581710948.885,16.602,29.785,37.109,40.527,0.0,0
1581710948.887,20.508000000000006,22.461,32.227,41.504,0.0,0
1581710948.891,25.391,25.391,26.367,41.992,0.0,0
1581710948.895,26.367,27.344,30.273000000000003,38.574,0.0,0
1581710948.899,15.625,5.859,28.809,33.691,0.0,0
1581710948.903,18.066,8.301,29.297,39.551,0.0,0
1581710948.907,25.879,35.645,30.762,32.715,0.0,0
1581710948.911,16.113,37.598,27.344,15.625,0.0,0
1581710948.914,6.836,28.809,27.344,13.184,0.0,0
1581710948.918,14.16,15.625,26.367,12.695,0.0,0
1581710948.9220002,25.879,22.949,22.461,19.531,0.0,0
1581710948.926,28.32,40.039,26.855,25.391,0.0,0
1581710948.93,27.832,31.25,32.715,19.531,0.0,0
1581710948.9320002,22.461,21.973000000000006,33.691,24.902,0.0,0
1581710948.936,26.367,26.855,28.809,34.18,0.0,0
1581710948.94,32.715,33.691,22.461,30.273000000000003,0.0,0
1581710948.944,23.926,30.762,27.344,30.762,0.0,0
1581710948.948,12.695,15.625,27.832,31.738000000000003,0.0,0
1581710948.952,24.902,17.09,28.32,28.809,0.0,0
1581710948.956,38.086,37.109,30.273000000000003,33.203,0.0,0
1581710948.959,33.691,37.598,28.32,28.32,0.0,0
1581710948.9629998,21.484,27.344,30.762,27.832,0.0,0
1581710948.967,23.926,37.598,34.18,34.668,0.0,0
1581710948.971,32.227,38.574,34.18,38.574,0.0,0
1581710948.975,37.109,33.203,29.297,50.78100000000001,0.0,0
1581710948.992,25.879,40.039,28.32,40.527,0.0,0
1581710948.996,17.09,41.504,29.297,29.785,0.0,0
1581710949.0,24.902,42.969,27.344,29.785,0.0,0
1581710949.004,23.438,34.18,34.18,19.043,0.0,0
1581710949.008,11.719,18.555,33.203,18.066,0.0,0
1581710949.012,5.371,22.461,23.926,20.02,0.0,0
1581710949.016,9.277,24.414,25.879,16.602,0.0,0
1581710949.019,20.02,21.973000000000006,25.879,20.02,0.0,0
1581710949.0229998,31.738000000000003,34.18,20.02,23.926,0.0,0
1581710949.0270002,28.32,49.316,26.855,37.598,0.0,0
1581710949.031,21.484,45.41,37.109,36.133,0.0,0
1581710949.035,35.156,39.062,39.551,35.156,0.0,0
1581710949.022,34.668,46.875,33.691,28.32,0.0,0
1581710949.026,20.508000000000006,43.457,27.344,9.277,0.0,0
1581710949.03,27.832,34.668,27.344,16.602,0.0,0
1581710949.034,37.109,36.621,33.691,24.902,0.0,0
1581710949.038,28.32,40.527,39.062,28.32,0.0,0
1581710949.042,13.184,34.668,32.227,18.066,0.0,0
1581710949.046,13.184,28.32,30.273000000000003,15.625,0.0,0
1581710949.049,23.926,31.25,33.691,29.785,0.0,0
1581710949.053,21.973000000000006,32.715,30.273000000000003,27.344,0.0,0
1581710949.0570002,10.742,27.832,28.32,21.973000000000006,0.0,0
1581710949.061,1.465,23.438,27.344,16.602,0.0,0
1581710949.065,8.301,22.949,20.996,13.184,0.0,0
1581710949.081,25.391,43.945,22.949,35.156,0.0,0
1581710949.085,23.438,36.621,30.273000000000003,31.738000000000003,0.0,0
1581710949.089,12.695,20.02,28.32,28.32,0.0,0
1581710949.093,21.484,27.832,31.25,36.133,0.0,0
1581710949.097,32.715,39.062,34.668,34.18,0.0,0
1581710949.101,26.855,33.203,29.297,36.133,0.0,0
1581710949.105,13.672,30.273000000000003,28.32,30.273000000000003,0.0,0
1581710949.1079998,8.789,48.828,25.879,29.297,0.0,0
1581710949.1120002,20.508000000000006,52.734,29.785,26.855,0.0,0
1581710949.1160002,31.25,38.086,37.598,17.09,0.0,0
1581710949.12,16.602,27.832,38.574,11.719,0.0,0
1581710949.1239998,11.719,33.203,26.367,7.812,0.0,0
1581710949.1420002,31.25,36.133,15.625,18.066,0.0,0
1581710949.146,38.574,31.738000000000003,21.973000000000006,20.996,0.0,0
1581710949.15,31.25,26.855,29.297,16.113,0.0,0
1581710949.154,24.902,33.203,33.203,28.809,0.0,0
1581710949.158,26.367,44.434,38.574,32.227,0.0,0
1581710949.1620002,32.715,31.25,38.086,31.738000000000003,0.0,0
1581710949.166,26.855,27.832,35.645,29.297,0.0,0
1581710949.169,15.137,33.691,37.109,25.879,0.0,0
1581710949.173,15.137,34.668,34.668,32.227,0.0,0
1581710949.177,19.531,24.902,27.832,28.32,0.0,0
1581710949.181,21.484,24.902,27.832,21.973000000000006,0.0,0
1581710949.185,17.578,42.48,32.227,18.066,0.0,0
1581710949.1720002,24.902,30.273000000000003,31.738000000000003,21.973000000000006,0.0,0
1581710949.176,28.32,20.996,24.414,25.391,0.0,0
1581710949.18,26.855,32.227,23.926,18.555,0.0,0
1581710949.184,16.602,38.086,28.809,16.602,0.0,0
1581710949.188,10.742,28.32,26.855,10.742,0.0,0
1581710949.1920002,27.832,13.184,31.25,14.16,0.0,0
1581710949.196,36.133,23.438,39.551,25.879,0.0,0
1581710949.199,32.227,33.203,33.203,20.996,0.0,0
1581710949.2029998,23.926,15.137,27.832,14.648,0.0,0
1581710949.207,29.785,23.926,25.879,7.324,0.0,0
1581710949.211,46.387,36.133,21.973000000000006,4.395,0.0,0
1581710949.215,44.434,31.738000000000003,27.832,15.625,0.0,0
1581710949.217,31.25,32.227,30.762,14.16,0.0,0
1581710949.221,35.645,28.809,28.32,11.719,0.0,0
1581710949.225,32.227,32.715,30.273000000000003,2.441,0.0,0
1581710949.229,24.414,39.062,30.762,-4.395,0.0,0
1581710949.2329998,20.02,28.32,30.762,2.93,0.0,0
1581710949.2370002,16.113,20.02,28.32,0.977,0.0,0
1581710949.2410002,25.879,37.109,23.438,10.742,0.0,0
1581710949.244,27.832,33.691,26.367,12.207,0.0,0
1581710949.248,18.555,17.578,35.156,4.395,0.0,0
1581710949.252,8.301,24.902,34.18,12.695,0.0,0
1581710949.256,9.766,43.457,26.855,14.648,0.0,0
1581710949.26,25.391,44.922,21.973000000000006,20.02,0.0,0
1581710949.262,26.367,39.062,26.855,13.672,0.0,0
1581710949.266,14.648,33.691,31.25,7.812,0.0,0
1581710949.27,24.414,38.086,30.762,18.555,0.0,0
1581710949.274,44.922,43.457,32.715,26.367,0.0,0
1581710949.278,41.01600000000001,17.578,30.762,20.02,0.0,0
1581710949.282,22.461,0.488,18.066,3.418,0.0,0
1581710949.286,12.207,23.926,16.602,-6.836,0.0,0
1581710949.289,20.996,46.387,30.762,-1.465,0.0,0
1581710949.293,29.297,48.34,26.367,4.883,0.0,0
1581710949.2970002,16.113,41.01600000000001,22.949,-0.488,0.0,0
1581710949.301,14.16,35.645,28.809,-4.395,0.0,0
1581710949.305,24.902,27.344,26.855,-0.488,0.0,0
1581710949.306,24.902,22.461,31.738000000000003,12.695,0.0,0
1581710949.31,16.602,26.367,34.668,12.207,0.0,0
1581710949.314,7.324,30.762,30.273000000000003,9.766,0.0,0
1581710949.3179998,15.625,27.344,30.273000000000003,9.766,0.0,0
1581710949.322,36.621,24.414,30.762,22.949,0.0,0
1581710949.326,30.273000000000003,35.645,29.297,24.414,0.0,0
1581710949.33,4.395,43.945,27.832,2.441,0.0,0
1581710949.333,12.207,46.387,23.926,0.977,0.0,0
1581710949.337,24.902,48.34,22.949,-4.883,0.0,0
1581710949.341,20.508000000000006,43.945,26.855,-5.859,0.0,0
1581710949.345,13.184,32.227,31.738000000000003,14.648,0.0,0
1581710949.349,3.906,31.25,31.738000000000003,15.625,0.0,0
1581710949.351,14.16,37.109,28.809,21.484,0.0,0
1581710949.355,22.949,43.945,26.367,18.066,0.0,0
1581710949.359,11.719,45.41,24.414,6.348,0.0,0
1581710949.363,10.742,44.922,28.32,14.16,0.0,0
1581710949.367,22.949,35.156,34.18,14.16,0.0,0
1581710949.371,24.902,29.785,35.645,13.672,0.0,0
1581710949.375,13.672,34.18,31.25,0.977,0.0,0
1581710949.3779998,6.348,26.367,30.273000000000003,-2.93,0.0,0
1581710949.3820002,13.672,31.738000000000003,34.18,15.625,0.0,0
1581710949.3860002,23.926,51.758,29.297,17.578,0.0,0
1581710949.39,19.531,43.945,19.531,4.395,0.0,0
1581710949.394,15.137,37.598,21.484,0.0,0.0,0
1581710949.411,28.32,43.945,31.738000000000003,7.324,0.0,0
1581710949.415,41.01600000000001,41.504,33.691,21.973000000000006,0.0,0
1581710949.419,43.945,33.203,31.25,31.25,0.0,0
1581710949.423,35.156,32.715,31.738000000000003,41.504,0.0,0
1581710949.427,27.344,33.691,30.762,35.645,0.0,0
1581710949.431,29.785,31.738000000000003,23.926,35.156,0.0,0
1581710949.435,32.715,35.156,30.273000000000003,45.41,0.0,0
1581710949.438,26.855,40.039,39.551,41.504,0.0,0
1581710949.4420002,16.602,43.945,37.598,41.992,0.0,0
1581710949.446,20.508000000000006,45.41,30.273000000000003,33.691,0.0,0
1581710949.45,29.785,41.504,21.973000000000006,35.645,0.0,0
1581710949.454,26.367,42.48,29.785,49.805,0.0,0
1581710949.456,23.926,29.297,33.691,44.434,0.0,0
1581710949.46,25.391,15.625,27.832,44.922,0.0,0
1581710949.464,35.156,31.25,31.25,36.133,0.0,0
1581710949.468,27.344,36.133,33.203,15.625,0.0,0
1581710949.472,18.066,36.621,35.645,27.344,0.0,0
1581710949.476,21.484,45.41,33.203,33.691,0.0,0
1581710949.48,26.855,42.969,28.32,20.508000000000006,0.0,0
1581710949.4829998,24.902,46.387,28.809,5.371,0.0,0
1581710949.4870002,10.742,37.109,29.785,7.324,0.0,0
1581710949.4910002,9.766,27.832,25.391,16.113,0.0,0
1581710949.495,13.184,23.926,18.555,6.836,0.0,0
1581710949.4989998,2.441,27.832,11.719,-4.395,0.0,0
1581710949.5010002,-0.977,33.691,16.602,-14.648,0.0,0
1581710949.505,3.906,20.02,27.832,-4.883,0.0,0
1581710949.5089998,9.766,32.715,26.855,14.648,0.0,0
1581710949.5129998,20.02,47.852,30.273000000000003,16.602,0.0,0
1581710949.5170002,13.184,43.457,34.18,11.23,0.0,0
1581710949.521,-6.836,29.785,30.273000000000003,0.977,0.0,0
1581710949.525,-3.418,24.902,29.785,2.93,0.0,0
1581710949.528,16.602,41.992,28.32,19.531,0.0,0
1581710949.532,11.719,36.621,27.832,16.602,0.0,1
1581710949.536,1.465,6.836,24.414,9.766,0.0,0
1581710949.54,4.883,6.348,25.391,3.418,0.0,0
1581710949.544,15.625,32.227,26.367,7.812,0.0,0
1581710949.546,26.367,32.227,23.926,21.973000000000006,0.0,0
1581710949.55,30.273000000000003,30.273000000000003,31.25,26.855,0.0,0
1581710949.554,33.691,37.109,38.086,29.785,0.0,0
1581710949.5579998,32.715,35.156,37.598,21.484,0.0,0
1581710949.562,29.297,35.156,35.645,16.602,0.0,0
1581710949.566,29.785,41.504,33.691,20.02,0.0,0
1581710949.57,19.531,36.133,32.227,12.695,0.0,0
1581710949.573,21.973000000000006,37.598,32.227,13.672,0.0,0
1581710949.577,31.738000000000003,41.504,30.273000000000003,7.812,0.0,0
1581710949.581,19.531,30.273000000000003,27.344,-5.859,0.0,0
1581710949.585,15.137,34.18,27.832,-0.488,0.0,0
1581710949.589,16.113,32.715,23.926,8.789,0.0,0
1581710949.591,24.902,22.461,19.531,13.184,0.0,0
1581710949.595,20.508000000000006,31.25,20.996,-2.441,0.0,0
1581710949.599,2.441,39.062,20.508000000000006,-8.789,0.0,0
1581710949.603,-0.488,37.109,20.02,2.441,0.0,0
1581710949.607,12.207,41.01600000000001,29.785,11.23,0.0,0
1581710949.611,17.09,39.551,38.574,14.648,0.0,0
1581710949.615,2.441,35.156,35.156,-1.953,0.0,0
1581710949.6179998,-4.395,27.832,33.203,0.488,0.0,0
1581710949.6220002,12.207,10.742,30.762,15.625,0.0,0
1581710949.6260002,20.508000000000006,13.184,34.18,15.137,0.0,0
1581710949.63,8.789,32.227,35.156,16.602,0.0,0
1581710949.6339998,6.348,39.551,28.809,12.695,0.0,0
1581710949.6360002,9.766,39.062,24.902,5.859,0.0,0
1581710949.64,12.207,38.574,22.461,14.648,0.0,0
1581710949.644,14.16,40.527,26.855,16.113,0.0,0
1581710949.6479998,12.695,35.645,32.715,19.043,0.0,0
1581710949.6520002,21.484,33.691,36.133,23.438,0.0,0
1581710949.656,31.25,33.691,37.109,24.414,0.0,0
1581710949.66,34.668,32.227,23.926,27.832,0.0,0
1581710949.663,27.344,38.086,12.695,22.461,0.0,0
1581710949.667,31.25,38.574,23.438,28.809,0.0,0
1581710949.671,40.039,45.898,29.785,31.738000000000003,0.0,0
1581710949.675,35.645,51.27,29.785,28.809,0.0,0
1581710949.679,33.691,46.387,28.809,39.551,0.0,0
1581710949.696,31.25,37.598,27.344,45.41,0.0,0
1581710949.7,35.156,29.785,29.785,48.34,0.0,0
1581710949.704,41.01600000000001,37.598,29.297,39.062,0.0,0
1581710949.708,37.109,33.203,31.25,31.25,0.0,0
1581710949.712,26.855,22.461,36.621,37.598,0.0,0
1581710949.716,34.668,20.996,36.133,32.227,0.0,0
1581710949.72,48.34,35.156,36.133,36.133,0.0,0
1581710949.7229998,30.273000000000003,33.691,33.203,27.344,0.0,0
1581710949.7270002,2.441,26.855,27.344,8.301,0.0,0
1581710949.731,7.812,54.688,23.926,21.484,0.0,0
1581710949.735,17.578,54.199,22.461,17.578,0.0,0
1581710949.7389998,11.719,35.645,20.02,11.23,0.0,0
1581710949.726,5.371,28.32,14.648,14.16,0.0,0
1581710949.73,1.953,24.414,21.484,15.137,0.0,0
1581710949.734,7.812,36.133,23.926,25.391,0.0,0
1581710949.738,21.973000000000006,40.039,22.949,30.273000000000003,0.0,0
1581710949.742,16.602,29.297,29.297,26.367,0.0,0
1581710949.746,11.23,32.227,36.621,22.949,0.0,0
1581710949.75,23.438,37.598,39.062,21.484,0.0,0
1581710949.7529998,20.996,32.715,33.203,22.461,0.0,0
1581710949.7570002,9.277,32.715,21.484,16.602,0.0,0
1581710949.7610002,5.371,30.273000000000003,12.207,20.02,0.0,0
1581710949.765,11.23,17.578,11.23,13.184,0.0,0
1581710949.769,19.531,15.625,15.625,5.371,0.0,0
1581710949.772,20.02,38.086,24.414,18.066,0.0,0
1581710949.776,7.324,47.852,26.367,20.996,0.0,0
1581710949.78,10.742,41.504,26.367,27.832,0.0,0
1581710949.784,30.762,41.01600000000001,28.809,23.438,0.0,0
1581710949.788,32.227,43.945,31.738000000000003,14.16,0.0,0
1581710949.792,22.949,40.039,29.785,24.902,0.0,0
1581710949.796,20.508000000000006,20.996,28.809,31.738000000000003,0.0,0
1581710949.799,32.715,23.438,32.227,34.668,0.0,0
1581710949.803,31.25,45.898,27.832,24.902,0.0,0
1581710949.8070002,21.973000000000006,37.598,20.02,17.578,0.0,0
1581710949.811,18.066,30.273000000000003,17.09,23.926,0.0,0
1581710949.815,26.855,38.574,26.855,31.738000000000003,0.0,0
1581710949.8170002,38.086,44.922,29.297,38.086,0.0,0
1581710949.821,27.832,42.969,23.438,29.297,0.0,0
1581710949.825,13.672,32.715,25.879,25.879,0.0,0
1581710949.829,12.207,25.879,28.809,34.668,0.0,0
1581710949.833,20.02,29.297,26.367,37.109,0.0,0
1581710949.837,13.184,26.855,23.438,30.762,0.0,0
1581710949.841,5.371,22.949,20.508000000000006,11.719,0.0,0
1581710949.844,12.695,27.832,25.391,11.719,0.0,0
1581710949.8479998,21.484,31.738000000000003,33.203,27.344,0.0,0
1581710949.8520002,12.207,26.367,29.297,19.043,0.0,0
1581710949.856,1.953,20.996,27.344,12.207,0.0,0
1581710949.86,8.301,26.855,29.785,9.277,0.0,0
1581710949.877,20.02,31.25,30.762,14.648,0.0,0
1581710949.881,31.738000000000003,26.855,30.762,24.902,0.0,0
1581710949.885,32.715,29.785,30.762,21.973000000000006,0.0,0
1581710949.889,22.461,35.156,32.715,26.367,0.0,0
1581710949.893,20.02,39.551,33.691,22.461,0.0,0
1581710949.897,23.926,25.879,28.32,22.461,0.0,0
1581710949.901,19.531,17.578,27.832,20.02,0.0,0
1581710949.904,18.555,42.48,35.645,12.695,0.0,0
1581710949.908,27.832,41.992,34.18,22.949,0.0,0
1581710949.9120002,34.668,20.02,30.762,18.066,0.0,0
1581710949.916,35.645,24.414,30.273000000000003,14.648,0.0,0
1581710949.92,23.926,41.504,25.879,16.602,0.0,0
1581710949.9220002,26.367,40.527,23.438,12.207,0.0,0
1581710949.926,35.156,33.691,30.762,15.137,0.0,0
1581710949.93,39.062,28.32,36.621,7.324,0.0,0
1581710949.934,38.086,33.691,33.691,6.348,0.0,0
1581710949.938,29.785,38.086,29.785,11.719,0.0,0
1581710949.9420002,34.668,33.691,29.297,15.625,0.0,0
1581710949.946,33.691,35.645,23.926,10.742,0.0,0
1581710949.949,22.949,38.574,13.672,-7.812,0.0,0
1581710949.9529998,19.043,39.062,17.09,-2.441,0.0,0
1581710949.957,26.367,26.855,25.879,5.859,0.0,0
1581710949.961,39.062,23.438,23.438,12.695,0.0,0
1581710949.965,40.039,40.527,20.508000000000006,13.672,0.0,0
1581710949.966,27.344,44.434,23.438,2.441,0.0,0
1581710949.97,31.25,38.574,27.832,18.555,0.0,0
1581710949.974,34.668,37.598,27.344,19.043,0.0,0
1581710949.978,29.297,42.969,29.297,11.23,0.0,0
1581710949.982,19.043,41.01600000000001,26.855,18.066,0.0,0
1581710949.986,20.508000000000006,29.297,23.438,13.184,0.0,0
1581710949.99,33.691,36.621,20.508000000000006,21.973000000000006,0.0,0
1581710949.9929998,37.598,44.922,18.555,30.762,0.0,0
1581710949.9970002,31.738000000000003,37.109,28.809,20.996,0.0,0
1581710950.0010002,23.438,36.133,33.203,16.113,0.0,0
1581710950.005,32.227,44.922,26.855,14.648,0.0,0
1581710950.0089998,37.109,37.598,17.578,14.648,0.0,0
1581710950.012,29.785,36.133,21.973000000000006,16.602,0.0,0
1581710950.016,37.109,50.293,32.715,29.297,0.0,0
1581710950.02,42.969,53.223,31.738000000000003,38.574,0.0,0
1581710950.024,42.48,44.922,20.996,30.273000000000003,0.0,0
1581710950.028,39.551,35.645,22.949,22.949,0.0,0
1581710950.032,30.762,39.551,36.621,28.32,0.0,0
1581710950.036,24.902,43.457,29.785,28.809,0.0,0
1581710950.039,32.715,46.387,22.949,27.344,0.0,0
1581710950.043,37.109,34.18,32.227,23.926,0.0,0
1581710950.0470002,26.367,28.809,37.109,23.926,0.0,0
1581710950.051,26.367,40.039,38.574,35.645,0.0,0
1581710950.055,33.203,37.109,38.086,38.574,0.0,0
1581710950.0570002,34.18,41.01600000000001,31.738000000000003,40.527,0.0,0
1581710950.061,31.738000000000003,51.27,26.367,41.01600000000001,0.0,0
1581710950.065,22.949,57.617,27.344,41.504,0.0,0
1581710950.069,22.949,45.898,25.879,31.25,0.0,0
1581710950.073,36.621,36.133,27.344,28.809,0.0,0
1581710950.077,36.621,43.457,28.809,28.809,0.0,0
1581710950.081,23.438,39.062,28.809,13.672,0.0,0
1581710950.084,31.738000000000003,32.227,34.668,20.508000000000006,0.0,0
1581710950.0879998,42.969,35.156,42.969,24.902,0.0,0
1581710950.092,32.227,44.434,39.551,11.719,0.0,0
1581710950.096,22.461,40.527,31.25,15.625,0.0,0
1581710950.1,22.949,41.992,28.809,25.391,0.0,0
1581710950.1020002,27.832,46.875,32.227,31.738000000000003,0.0,0
1581710950.106,25.879,40.039,32.227,31.738000000000003,0.0,0
1581710950.11,20.508000000000006,38.086,30.273000000000003,29.785,0.0,0
1581710950.1139998,20.02,41.504,34.668,35.645,0.0,0
1581710950.1179998,19.531,40.527,27.344,32.227,0.0,0
1581710950.1220002,24.902,27.344,13.672,36.621,0.0,0
1581710950.1260002,18.066,31.738000000000003,11.719,43.945,0.0,0
1581710950.129,10.742,34.18,20.996,35.156,0.0,0
1581710950.133,24.414,42.48,26.367,34.18,0.0,0
1581710950.137,33.691,53.223,25.879,29.297,0.0,0
1581710950.141,24.414,30.273000000000003,20.508000000000006,16.602,0.0,0
1581710950.145,19.043,19.531,22.949,20.02,0.0,0
1581710950.146,24.414,35.645,21.973000000000006,18.066,0.0,0
1581710950.15,34.668,48.34,17.578,19.531,0.0,0
1581710950.154,32.715,41.992,29.785,15.137,0.0,0
1581710950.158,25.391,38.086,33.203,8.789,0.0,0
1581710950.1620002,27.832,38.574,32.715,11.719,0.0,0
1581710950.166,31.738000000000003,37.109,34.18,18.555,0.0,0
1581710950.17,34.668,37.109,24.902,12.207,0.0,0
1581710950.173,22.461,34.18,20.508000000000006,-8.789,0.0,0
1581710950.177,9.766,39.062,27.832,-4.883,0.0,0
1581710950.181,17.578,32.715,40.527,5.371,0.0,0
1581710950.185,21.484,27.344,39.551,1.465,0.0,0
1581710950.189,10.254,36.621,28.809,-8.301,0.0,0
1581710950.1920002,5.371,42.969,26.367,-2.93,0.0,0
1581710950.196,7.324,41.992,22.461,5.371,0.0,0
1581710950.2,16.602,40.527,27.832,4.883,0.0,0
1581710950.204,18.066,37.598,31.738000000000003,4.395,0.0,0
1581710950.208,12.695,26.367,26.855,7.324,0.0,0
1581710950.212,18.555,16.113,30.762,2.441,0.0,0
1581710950.216,22.461,26.855,37.109,6.348,0.0,0
1581710950.219,20.996,46.387,36.621,11.719,0.0,0
1581710950.2229998,6.836,55.664,33.691,7.812,0.0,0
1581710950.2270002,3.906,43.945,38.574,8.789,0.0,0
1581710950.231,22.461,38.574,38.574,11.719,0.0,0
1581710950.235,30.762,47.363,34.668,20.02,0.0,0
1581710950.252,18.066,48.34,32.227,15.137,0.0,0
1581710950.256,8.301,37.109,27.832,7.812,0.0,0
1581710950.26,15.137,34.668,26.855,8.789,0.0,0
1581710950.264,15.625,35.645,27.832,2.93,0.0,0
1581710950.268,7.812,29.785,29.297,3.906,0.0,0
1581710950.272,2.93,20.508000000000006,26.855,0.488,0.0,0
1581710950.276,4.883,20.02,27.344,-0.977,0.0,0
1581710950.279,12.207,37.598,28.32,6.836,0.0,0
1581710950.283,17.09,42.48,27.344,11.23,0.0,0
1581710950.2870002,6.348,31.25,27.832,9.277,0.0,0
1581710950.291,0.0,31.738000000000003,28.32,0.488,0.0,0
1581710950.295,16.602,39.062,26.855,11.23,0.0,0
1581710950.2970002,33.203,26.855,27.832,21.973000000000006,0.0,0
1581710950.301,8.789,32.715,25.879,5.371,0.0,0
1581710950.305,-3.418,41.992,27.832,-0.488,0.0,0
1581710950.309,6.836,44.434,32.715,0.977,0.0,0
1581710950.313,4.883,37.598,30.762,-2.93,0.0,0
1581710950.3170002,6.836,19.043,27.832,3.418,0.0,0
1581710950.321,-1.465,34.668,32.715,2.441,0.0,0
1581710950.324,6.348,46.875,29.297,8.301,0.0,0
1581710950.3279998,25.879,53.71100000000001,21.484,28.809,0.0,0
1581710950.332,16.602,39.551,30.273000000000003,21.484,0.0,0
1581710950.336,2.441,36.621,35.645,11.719,0.0,0
1581710950.34,7.324,47.852,30.762,14.648,0.0,0
1581710950.342,15.137,30.762,27.344,12.695,0.0,0
1581710950.346,8.301,23.926,31.738000000000003,10.742,0.0,0
1581710950.35,3.418,27.344,39.062,11.23,0.0,0
1581710950.354,7.812,35.156,38.574,15.625,0.0,0
1581710950.3579998,15.625,38.574,34.668,14.16,0.0,0
1581710950.3620002,20.996,28.32,34.18,15.137,0.0,0
1581710950.3660002,16.113,26.855,33.203,13.184,0.0,0
1581710950.369,13.672,42.48,29.785,9.766,0.0,0
1581710950.373,22.949,40.039,32.227,0.977,0.0,0
1581710950.377,25.391,24.414,32.227,-5.371,0.0,0
1581710950.381,15.625,32.715,24.902,-0.977,0.0,0
1581710950.385,11.23,36.133,30.762,3.906,0.0,0
1581710950.401,18.066,36.133,35.156,10.742,0.0,0
1581710950.405,24.902,37.109,27.832,11.23,0.0,0
1581710950.409,20.996,27.832,29.785,8.301,0.0,0
1581710950.413,8.789,30.273000000000003,32.715,15.137,0.0,0
1581710950.417,3.906,31.25,27.832,16.113,0.0,0
1581710950.421,13.184,19.531,20.508000000000006,17.578,0.0,0
1581710950.425,19.043,25.391,22.461,26.367,0.0,0
1581710950.428,8.301,37.598,33.203,22.461,0.0,0
1581710950.4320002,8.301,36.621,31.25,18.555,0.0,0
1581710950.436,17.09,47.852,26.367,19.043,0.0,0
1581710950.44,19.531,50.78100000000001,30.762,13.672,0.0,0
1581710950.444,17.09,34.668,27.344,7.324,0.0,0
1581710950.431,12.207,25.879,24.414,6.836,0.0,0
1581710950.435,17.09,31.738000000000003,27.832,16.113,0.0,0
1581710950.439,22.949,31.738000000000003,28.32,20.02,0.0,0
1581710950.4429998,15.625,24.414,28.809,15.625,0.0,0
1581710950.447,14.648,27.832,30.762,21.484,0.0,0
1581710950.451,26.367,35.156,30.273000000000003,20.02,0.0,0
1581710950.455,28.32,42.969,24.414,13.672,0.0,0
1581710950.458,19.043,47.363,24.902,6.836,0.0,0
1581710950.462,12.207,38.574,25.879,3.906,0.0,0
1581710950.466,20.996,37.598,23.438,13.672,0.0,0
1581710950.47,33.203,49.805,22.461,17.09,0.0,0
1581710950.474,25.879,41.504,23.438,19.531,0.0,0
1581710950.4910002,12.695,27.832,20.02,18.066,0.0,0
1581710950.495,21.484,37.109,20.02,25.879,0.0,0
1581710950.4989998,28.809,40.527,27.344,35.645,0.0,0
1581710950.5029998,24.902,35.645,33.691,30.273000000000003,0.0,0
1581710950.5070002,22.461,28.809,36.133,24.902,0.0,0
1581710950.5110002,15.625,31.25,33.691,23.926,0.0,0
1581710950.515,19.043,38.086,28.809,19.531,0.0,0
1581710950.518,23.926,38.574,25.391,19.043,0.0,0
1581710950.522,13.672,44.922,30.273000000000003,9.277,0.0,0
1581710950.526,11.23,45.898,35.156,17.09,0.0,0
1581710950.53,19.043,25.391,28.809,28.809,0.0,0
1581710950.534,20.508000000000006,28.809,27.344,14.648,0.0,0
1581710950.521,19.043,44.434,31.25,6.348,0.0,0
1581710950.525,19.043,33.691,32.227,8.301,0.0,0
1581710950.529,18.555,28.32,33.203,9.277,0.0,0
1581710950.533,25.391,37.598,31.738000000000003,13.672,0.0,0
1581710950.5370002,33.203,43.945,27.344,21.973000000000006,0.0,0
1581710950.541,23.438,40.527,24.414,20.996,0.0,0
1581710950.545,12.207,35.645,23.438,15.625,0.0,0
1581710950.548,20.996,37.598,22.461,14.648,0.0,0
1581710950.552,31.738000000000003,44.922,28.32,13.672,0.0,0
1581710950.556,26.367,42.48,32.227,14.16,0.0,0
1581710950.56,18.555,21.484,28.809,14.648,0.0,0
1581710950.564,23.926,22.949,27.344,12.695,0.0,0
1581710950.581,30.273000000000003,47.363,20.02,20.02,0.0,0
1581710950.585,22.949,37.598,23.438,17.09,0.0,0
1581710950.589,10.742,41.504,25.879,15.137,0.0,0
1581710950.593,14.16,55.664,25.879,22.949,0.0,0
1581710950.597,26.855,50.78100000000001,31.25,22.949,0.0,0
1581710950.601,18.555,41.504,25.879,17.578,0.0,0
1581710950.605,10.254,28.32,22.949,12.695,0.0,0
1581710950.6079998,18.555,39.551,23.926,24.414,0.0,0
1581710950.6120002,34.18,50.78100000000001,25.879,41.992,0.0,0
1581710950.6160002,33.203,35.156,28.809,29.785,0.0,0
1581710950.62,17.578,35.645,24.414,18.555,0.0,0
1581710950.6239998,14.16,46.875,21.973000000000006,21.973000000000006,0.0,2
1581710950.656,19.531,47.363,23.438,17.09,0.0,0
1581710950.66,24.902,42.48,20.02,17.09,0.0,0
1581710950.664,16.602,39.062,24.902,16.113,0.0,0
1581710950.668,10.742,41.504,33.691,22.949,0.0,0
1581710950.6720002,19.043,41.01600000000001,30.762,27.832,0.0,0
1581710950.676,19.531,42.48,24.902,19.043,0.0,0
1581710950.68,13.184,38.574,28.32,19.531,0.0,0
1581710950.6829998,11.719,32.227,30.762,24.902,0.0,0
1581710950.687,19.043,39.551,27.832,36.133,0.0,0
1581710950.691,34.668,23.926,25.879,45.898,0.0,0
1581710950.695,25.391,18.555,29.785,35.156,0.0,0
1581710950.699,9.766,47.852,30.762,30.273000000000003,0.0,0
1581710950.658,17.578,41.504,28.809,33.203,0.0,0
1581710950.6620002,27.344,36.133,32.227,34.668,0.0,0
1581710950.666,32.227,47.852,30.762,38.574,0.0,0
1581710950.67,27.344,39.062,32.227,31.738000000000003,0.0,0
1581710950.674,25.879,32.715,40.039,27.344,0.0,0
1581710950.678,33.691,28.32,38.086,25.879,0.0,0
1581710950.6820002,36.133,33.203,36.133,25.391,0.0,0
1581710950.685,34.668,50.293,30.762,25.391,0.0,0
1581710950.689,22.461,41.992,26.855,20.508000000000006,0.0,0
1581710950.6929998,13.672,26.855,31.738000000000003,16.602,0.0,0
1581710950.697,27.832,32.715,33.203,12.695,0.0,0
1581710950.701,33.203,43.457,35.156,21.484,0.0,0
1581710950.716,19.531,27.832,32.715,22.949,0.0,0
1581710950.72,20.996,14.648,31.25,13.184,0.0,0
1581710950.724,32.715,36.621,31.25,18.066,0.0,0
1581710950.728,36.133,39.551,33.203,22.461,0.0,0
1581710950.732,32.227,25.391,36.621,22.461,0.0,0
1581710950.736,28.32,20.508000000000006,31.738000000000003,20.508000000000006,0.0,0
1581710950.74,43.945,35.156,26.367,22.461,0.0,0
1581710950.7429998,49.316,42.969,29.785,29.785,0.0,0
1581710950.7470002,31.738000000000003,28.809,30.762,22.949,0.0,0
1581710950.7510002,31.25,21.973000000000006,24.902,27.832,0.0,0
1581710950.755,41.504,29.297,24.414,40.039,0.0,0
1581710950.7589998,41.01600000000001,34.668,26.367,36.133,0.0,0
1581710950.7610002,29.297,32.227,24.414,34.668,0.0,0
1581710950.765,13.672,30.273000000000003,24.414,22.949,0.0,0
1581710950.769,20.02,39.062,21.484,20.508000000000006,0.0,0
1581710950.7729998,33.691,41.01600000000001,23.438,30.273000000000003,0.0,0
1581710950.7770002,41.504,36.621,28.32,32.715,0.0,0
1581710950.781,41.01600000000001,30.762,28.32,35.645,0.0,0
1581710950.785,43.945,16.602,28.809,41.504,0.0,0
1581710950.788,54.199,19.531,25.879,45.898,0.0,0
1581710950.792,49.805,28.809,25.879,44.922,0.0,0
1581710950.796,45.41,30.762,26.855,45.41,0.0,0
1581710950.8,38.086,29.785,33.203,44.434,0.0,0
1581710950.804,39.062,32.715,31.738000000000003,37.598,0.0,0
1581710950.8070002,45.41,43.945,23.438,39.551,0.0,0
1581710950.811,35.156,42.969,22.949,38.086,0.0,0
1581710950.815,26.855,41.504,32.715,39.551,0.0,0
1581710950.819,34.668,32.227,38.574,42.969,0.0,0
1581710950.823,45.41,27.344,33.203,38.086,0.0,0
1581710950.827,41.504,28.809,30.273000000000003,43.945,0.0,0
1581710950.831,27.832,26.367,35.645,45.898,0.0,0
1581710950.834,26.367,26.367,34.18,41.01600000000001,0.0,0
1581710950.8379998,33.203,26.367,31.25,32.715,0.0,0
1581710950.842,23.926,39.551,34.668,25.391,0.0,0
1581710950.846,12.695,48.34,25.879,28.809,0.0,0
1581710950.85,16.602,37.598,24.414,35.156,0.0,0
1581710950.851,23.438,23.926,33.203,37.109,0.0,0
1581710950.855,27.832,29.785,34.668,29.297,0.0,0
1581710950.859,22.949,40.527,38.086,18.066,0.0,0
1581710950.863,7.324,39.062,34.18,15.625,0.0,0
1581710950.867,16.602,33.203,25.879,20.996,0.0,0
1581710950.871,20.996,29.785,28.32,17.578,0.0,0
1581710950.875,4.883,37.598,34.18,0.977,0.0,0
1581710950.8779998,3.906,31.25,37.109,1.465,0.0,0
1581710950.8820002,19.531,28.32,38.086,13.672,0.0,0
1581710950.8860002,35.156,46.387,38.086,22.949,0.0,0
1581710950.89,23.926,48.34,32.715,16.602,0.0,0
1581710950.894,9.277,38.574,23.926,4.395,0.0,0
1581710950.911,18.066,30.273000000000003,21.973000000000006,7.812,0.0,0
1581710950.915,33.203,37.598,12.207,18.555,0.0,0
1581710950.919,41.504,30.762,7.324,13.184,0.0,0
1581710950.923,26.367,17.09,20.508000000000006,7.324,0.0,0
1581710950.927,16.113,31.738000000000003,26.855,5.371,0.0,0
1581710950.931,32.715,42.969,30.273000000000003,6.348,0.0,0
1581710950.935,29.785,32.715,34.668,13.184,0.0,0
1581710950.938,16.113,27.344,28.809,2.93,0.0,0
1581710950.9420002,15.625,34.668,16.602,2.93,0.0,0
1581710950.946,20.02,28.32,13.672,8.301,0.0,0
1581710950.95,32.227,24.414,31.738000000000003,10.254,0.0,0
1581710950.954,21.484,32.227,37.109,17.578,0.0,0
1581710950.956,13.672,31.25,31.738000000000003,13.672,0.0,0
1581710950.96,26.367,27.832,36.621,17.578,0.0,0
1581710950.964,28.809,30.273000000000003,41.992,18.555,0.0,0
1581710950.968,23.438,28.809,35.156,8.789,0.0,0
1581710950.972,18.066,30.273000000000003,31.738000000000003,16.602,0.0,0
1581710950.976,18.066,29.785,34.668,23.926,0.0,0
1581710950.98,25.391,35.645,32.227,29.785,0.0,0
1581710950.9829998,23.926,42.48,26.367,21.973000000000006,0.0,0
1581710950.9870002,16.602,33.691,28.809,11.23,0.0,0
1581710950.9910002,18.555,25.879,33.691,21.484,0.0,0
1581710950.995,17.578,18.066,24.902,26.855,0.0,0
1581710950.9989998,15.137,25.391,24.414,18.066,0.0,0
1581710951.002,11.719,34.18,29.297,6.836,0.0,0
1581710951.006,7.324,24.902,26.855,1.953,0.0,0
1581710951.01,6.348,22.461,30.273000000000003,3.418,0.0,0
1581710951.014,16.602,30.762,31.25,6.836,0.0,0
1581710951.018,21.484,27.344,30.762,8.789,0.0,0
1581710951.022,3.418,25.879,26.855,0.488,0.0,0
1581710951.026,6.836,31.25,25.391,-1.953,0.0,0
1581710951.029,24.902,38.574,23.926,6.348,0.0,0
1581710951.033,24.902,42.48,18.066,5.371,0.0,0
1581710951.0370002,25.391,29.785,23.438,15.625,0.0,0
1581710951.041,30.762,36.621,30.762,12.695,0.0,0
1581710951.045,35.156,50.293,28.32,7.324,0.0,0
1581710951.062,43.945,45.41,23.438,29.297,0.0,0
1581710951.066,33.691,36.133,27.344,27.344,0.0,0
1581710951.07,22.461,30.762,34.18,22.949,0.0,0
1581710951.074,26.855,37.598,36.621,21.973000000000006,0.0,0
1581710951.0779998,36.621,33.203,31.25,17.578,0.0,0
1581710951.082,33.203,22.949,28.32,28.809,0.0,0
1581710951.086,11.23,30.273000000000003,30.762,30.273000000000003,0.0,0
1581710951.089,23.926,47.852,29.297,33.691,0.0,0
1581710951.093,40.527,43.945,28.32,25.879,0.0,0
1581710951.097,31.738000000000003,29.297,30.273000000000003,15.137,0.0,0
1581710951.101,27.832,40.527,30.762,32.715,0.0,0
1581710951.105,33.691,47.363,31.738000000000003,38.086,0.0,0
1581710951.092,39.062,38.574,32.227,35.645,0.0,0
1581710951.096,31.25,31.25,30.762,22.461,0.0,0
1581710951.1,23.438,29.297,38.574,3.418,0.0,0
1581710951.104,27.832,31.25,38.574,6.348,0.0,0
1581710951.1079998,39.551,35.645,26.855,12.695,0.0,0
1581710951.1120002,39.551,37.109,21.484,14.16,0.0,0
1581710951.1160002,25.391,38.574,19.043,-0.488,0.0,0
1581710951.119,17.578,46.387,14.16,-2.441,0.0,0
1581710951.123,26.855,43.945,10.742,9.277,0.0,0
1581710951.127,36.621,41.992,13.672,9.277,0.0,0
1581710951.131,26.855,42.969,17.09,12.695,0.0,0
1581710951.135,20.508000000000006,44.922,21.973000000000006,13.184,0.0,0
1581710951.137,24.414,30.273000000000003,26.367,10.742,0.0,0
1581710951.141,29.297,31.25,22.949,22.461,0.0,0
1581710951.145,24.414,44.922,18.066,27.832,0.0,0
1581710951.149,13.672,29.297,21.973000000000006,27.344,0.0,0
1581710951.153,19.043,39.062,30.273000000000003,27.344,0.0,0
1581710951.157,18.555,47.363,31.25,23.438,0.0,0
1581710951.161,11.719,41.504,32.227,17.09,0.0,0
1581710951.164,11.719,42.48,25.391,8.789,0.0,0
1581710951.168,11.719,28.32,21.484,6.348,0.0,0
1581710951.1720002,22.949,25.879,32.715,4.883,0.0,0
1581710951.176,23.926,26.855,37.109,3.906,0.0,0
1581710951.18,14.648,17.578,33.203,4.883,0.0,0
1581710951.1820002,20.02,32.227,32.227,9.766,0.0,0
1581710951.186,32.715,43.945,27.344,22.949,0.0,0
1581710951.19,40.527,38.086,18.066,21.484,0.0,0
1581710951.194,37.109,33.203,27.832,20.02,0.0,0
1581710951.198,31.738000000000003,39.551,44.434,35.645,0.0,0
1581710951.202,34.668,43.457,49.805,34.668,0.0,0
1581710951.206,33.203,37.109,41.01600000000001,29.297,0.0,0
1581710951.209,22.461,18.555,32.227,14.648,0.0,0
1581710951.2129998,14.16,13.184,37.109,6.348,0.0,0
1581710951.217,13.184,37.598,44.434,18.066,0.0,0
1581710951.221,19.043,44.922,36.133,16.113,0.0,0
1581710951.225,18.555,33.203,26.855,11.719,0.0,0
1581710951.2270002,5.859,24.414,25.391,0.488,0.0,0
1581710951.231,11.719,31.25,19.531,-0.488,0.0,0
1581710951.235,20.996,40.039,16.602,10.742,0.0,0
1581710951.2389998,20.02,41.01600000000001,22.461,9.277,0.0,0
1581710951.2429998,14.16,36.133,20.996,6.836,0.0,0
1581710951.2470002,11.719,30.762,17.578,4.883,0.0,0
1581710951.2510002,19.531,31.738000000000003,21.973000000000006,6.348,0.0,0
1581710951.254,30.762,25.391,29.297,13.184,0.0,0
1581710951.258,31.738000000000003,19.531,33.691,13.184,0.0,0
1581710951.262,26.367,21.973000000000006,34.18,21.484,0.0,0
1581710951.266,26.367,31.738000000000003,36.133,16.602,0.0,0
1581710951.27,25.879,38.574,32.715,4.883,0.0,0
1581710951.272,19.531,38.086,29.297,11.23,0.0,0
1581710951.276,7.812,32.715,26.367,9.277,0.0,0
1581710951.28,5.371,28.32,24.414,6.836,0.0,0
1581710951.284,6.836,34.18,28.809,0.0,0.0,0
1581710951.288,11.719,37.598,31.25,-2.441,0.0,0
1581710951.292,11.23,26.855,29.297,5.859,0.0,0
1581710951.296,8.789,22.949,29.297,7.812,0.0,0
1581710951.299,21.973000000000006,34.668,34.18,13.184,0.0,0
1581710951.303,21.484,38.086,28.32,3.418,0.0,0
1581710951.3070002,12.695,21.973000000000006,23.438,-10.254,0.0,0
1581710951.311,4.883,23.438,32.715,-2.441,0.0,0
1581710951.315,10.742,35.156,30.273000000000003,-1.953,0.0,0
1581710951.3170002,17.578,39.062,20.508000000000006,2.93,0.0,0
1581710951.321,15.625,38.574,23.926,-2.93,0.0,0
1581710951.325,6.348,34.668,29.785,-11.23,0.0,0
1581710951.329,11.719,35.156,24.414,6.836,0.0,0
1581710951.333,20.508000000000006,29.785,19.043,12.695,0.0,0
1581710951.337,13.184,20.508000000000006,29.785,13.672,0.0,0
1581710951.341,9.766,20.996,43.945,4.395,0.0,0
1581710951.344,11.719,42.48,39.062,1.465,0.0,0
1581710951.3479998,24.902,40.039,25.391,19.043,0.0,0
1581710951.3520002,26.855,18.555,27.832,16.602,0.0,0
1581710951.356,14.648,26.855,31.738000000000003,14.16,0.0,0
1581710951.36,8.301,38.086,33.203,10.742,0.0,0
1581710951.377,12.207,37.598,34.18,10.254,0.0,0
1581710951.381,16.113,36.133,28.32,16.602,0.0,0
1581710951.385,6.836,39.062,23.926,6.836,0.0,0
1581710951.389,1.465,39.551,20.02,4.883,0.0,0
1581710951.393,14.648,36.621,21.484,1.465,0.0,0
1581710951.397,30.762,22.461,20.508000000000006,-0.488,0.0,0
1581710951.401,31.25,19.043,13.672,4.395,0.0,0
1581710951.404,23.926,24.414,21.973000000000006,0.0,0.0,0
1581710951.408,25.879,34.668,30.273000000000003,6.348,0.0,0
1581710951.4120002,35.645,50.78100000000001,25.391,1.953,0.0,0
1581710951.416,29.785,53.71100000000001,26.367,-9.277,0.0,0
1581710951.42,8.301,51.27,33.203,-2.93,0.0,0
1581710951.4220002,4.395,38.086,37.109,5.859,0.0,0
1581710951.426,10.742,40.527,32.227,6.836,0.0,0
1581710951.43,6.348,41.992,22.461,0.0,0.0,0
