timestamps,TP9,AF7,AF8,TP10,Right AUX,Marker0
1581435952.5070002,10.254000000000001,16.113,50.293,15.625,0.0,0
1581435952.5110002,45.41,21.484,60.059,8.789,0.0,0
1581435952.515,34.668,20.996,64.941,21.484,0.0,0
1581435952.519,-0.488,20.996,54.199,24.901999999999997,0.0,0
1581435952.5229998,3.906,15.625,26.366999999999997,22.461,0.0,0
1581435952.5270002,32.227,13.672,16.113,18.066,0.0,0
1581435952.5310001,32.227,15.625,33.203,15.137,0.0,0
1581435952.534,1.465,17.09,46.875,21.484,0.0,0
1581435952.5379999,-3.906,12.207,3.906,19.043,0.0,0
1581435952.542,23.926,18.555,37.109,11.719000000000001,0.0,0
1581435952.546,34.18,23.438000000000002,77.637,13.184000000000001,0.0,0
1581435952.55,6.836,14.16,19.043,20.508000000000006,0.0,0
1581435952.552,-12.207,15.137,17.578,22.461,0.0,0
1581435952.556,13.672,19.531,50.293,14.648,0.0,0
1581435952.56,37.109,17.09,52.733999999999995,18.555,0.0,0
1581435952.564,14.648,18.066,32.715,19.043,0.0,0
1581435952.5679998,-17.578,17.09,18.066,13.672,0.0,0
1581435952.572,-4.395,16.602,8.301,20.996,0.0,0
1581435952.576,23.438000000000002,20.02,20.508000000000006,19.531,0.0,0
1581435952.579,19.531,15.625,-2.93,17.09,0.0,0
1581435952.583,-12.207,16.602,-20.508000000000006,9.766,0.0,0
1581435952.5870001,-12.695,30.273000000000003,47.852,8.789,0.0,0
1581435952.591,20.508000000000006,29.296999999999997,47.363,14.648,0.0,0
1581435952.595,23.438000000000002,27.344,38.574,7.324,0.0,0
1581435952.5970001,-5.371,31.738000000000003,41.01600000000001,8.789,0.0,0
1581435952.601,-20.996,29.296999999999997,31.25,6.836,0.0,0
1581435952.605,5.371,21.484,15.625,5.371,0.0,0
1581435952.609,19.531,20.508000000000006,32.715,6.836,0.0,0
1581435952.613,-8.789,21.484,42.48,8.301,0.0,0
1581435952.617,-21.97300000000001,19.043,17.578,18.555,0.0,0
1581435952.621,0.488,18.066,12.207,14.16,0.0,0
1581435952.6239998,26.855,17.578,1.953,2.441,0.0,0
1581435952.6279998,12.695,20.996,35.156,5.859,0.0,0
1581435952.6320002,-15.137,29.296999999999997,80.566,18.555,0.0,0
1581435952.6360002,-6.348,20.02,46.875,18.555,0.0,0
1581435952.64,26.855,11.719000000000001,32.227,6.348,0.0,0
1581435952.6420002,23.438000000000002,19.043,45.41,3.906,0.0,0
1581435952.6460001,-13.184000000000001,20.508000000000006,35.156,15.137,0.0,0
1581435952.65,-9.766,17.578,16.602,21.97300000000001,0.0,0
1581435952.654,22.949,19.043,19.043,17.578,0.0,0
1581435952.658,22.461,20.996,37.598,2.93,0.0,0
1581435952.6620002,-9.277000000000001,16.602,20.996,0.977,0.0,0
1581435952.6660001,-18.555,14.16,-22.461,9.277000000000001,0.0,0
1581435952.669,14.16,20.508000000000006,-10.254000000000001,5.859,0.0,0
1581435952.6729999,31.738000000000003,32.715,60.547,0.488,0.0,0
1581435952.677,4.395,30.761999999999997,61.523,-0.977,0.0,0
1581435952.681,-17.578,23.926,24.414,2.441,0.0,0
1581435952.685,-4.883,24.901999999999997,32.715,1.465,0.0,0
1581435952.687,13.184000000000001,26.855,64.453,-8.301,0.0,0
1581435952.691,-1.465,27.831999999999997,50.78100000000001,-11.23,0.0,0
1581435952.695,-34.18,29.785,24.414,-13.672,0.0,0
1581435952.699,-22.461,33.203,37.598,-11.23,0.0,0
1581435952.7029998,-2.441,33.203,64.941,-25.879,0.0,0
1581435952.707,-26.855,28.32,41.992,-45.898,0.0,0
1581435952.711,-77.148,25.391,-13.184000000000001,-65.918,0.0,0
1581435952.714,-96.191,36.133,23.926,-86.426,0.0,0
1581435952.718,-73.73,42.968999999999994,71.289,-92.285,0.0,0
1581435952.7220001,-84.961,34.18,44.922,-109.375,0.0,0
1581435952.726,-123.04700000000001,30.761999999999997,31.25,-116.211,0.0,0
1581435952.73,-154.297,35.645,63.965,-129.395,0.0,0
1581435952.7470002,-142.578,36.133,73.242,-144.043,0.0,0
1581435952.7510002,-116.699,34.18,51.27,-147.94899999999996,0.0,0
1581435952.755,-149.90200000000004,34.18,47.363,-156.738,0.0,0
1581435952.7589998,-181.641,32.715,61.035,-154.297,0.0,0
1581435952.7629998,-158.203,31.738000000000003,70.312,-149.414,0.0,0
1581435952.7670002,-132.812,30.761999999999997,14.648,-162.59799999999996,0.0,0
1581435952.7710001,-137.695,36.621,1.953,-153.809,0.0,0
1581435952.774,-156.25,49.316,77.637,-137.207,0.0,0
1581435952.7779999,-147.94899999999996,36.133,61.035,-135.254,0.0,0
1581435952.782,-103.516,27.344,34.668,-125.0,0.0,0
1581435952.786,-90.82,27.831999999999997,33.691,-107.91,0.0,0
1581435952.79,-118.652,24.901999999999997,30.761999999999997,-92.773,0.0,0
1581435952.792,-104.98,26.855,44.434,-72.266,0.0,0
1581435952.796,-54.688,23.926,42.968999999999994,-59.57,0.0,0
1581435952.8,-36.621,21.484,43.945,-55.663999999999994,0.0,0
1581435952.804,-47.852,20.508000000000006,41.01600000000001,-36.133,0.0,0
1581435952.8079998,-48.34,17.578,35.645,-17.09,0.0,0
1581435952.812,-9.766,11.23,17.09,-9.277000000000001,0.0,0
1581435952.816,33.691,7.324,17.578,-2.441,0.0,0
1581435952.819,23.926,10.254000000000001,60.059,9.277000000000001,0.0,0
1581435952.823,2.441,8.789,42.968999999999994,25.879,0.0,0
1581435952.8270001,35.645,0.977,-21.97300000000001,37.598,0.0,0
1581435952.831,73.242,6.348,16.602,40.039,0.0,0
1581435952.835,64.941,11.23,52.246,50.293,0.0,0
1581435952.8370001,41.992,2.93,19.043,66.895,0.0,0
1581435952.841,51.758,-3.418,-3.418,70.312,0.0,0
1581435952.845,87.402,4.395,19.043,68.848,0.0,0
1581435952.849,93.75,9.277000000000001,52.246,70.801,0.0,0
1581435952.853,64.941,4.395,29.296999999999997,75.684,0.0,0
1581435952.857,59.57,4.883,-9.277000000000001,78.613,0.0,0
1581435952.861,94.238,9.277000000000001,11.23,76.66,0.0,0
1581435952.8639998,107.42200000000001,10.742,50.293,72.75399999999998,0.0,0
1581435952.8679998,80.566,0.977,5.371,75.195,0.0,0
1581435952.8720002,65.43,-3.418,-15.625,80.078,0.0,0
1581435952.8760002,89.355,3.906,56.152,76.66,0.0,0
1581435952.88,112.305,1.465,50.78100000000001,70.312,0.0,0
1581435952.8820002,89.355,4.883,34.668,72.266,0.0,0
1581435952.8860002,65.43,10.254000000000001,53.223,79.59,0.0,0
1581435952.89,83.49600000000002,8.301,45.41,80.566,0.0,0
1581435952.894,108.398,7.812,42.968999999999994,76.66,0.0,0
1581435952.8979998,100.586,5.371,33.691,72.75399999999998,0.0,0
1581435952.9020002,68.359,3.418,11.23,74.219,0.0,0
1581435952.9060001,66.406,5.859,17.09,73.73,0.0,0
1581435952.909,98.633,8.789,46.387,68.359,0.0,0
1581435952.9129999,104.98,5.859,17.09,64.941,0.0,0
1581435952.917,73.242,10.742,30.273000000000003,63.477,0.0,0
1581435952.921,60.547,18.066,69.824,67.383,0.0,0
1581435952.925,83.984,12.207,46.387,64.453,0.0,0
1581435952.927,99.609,9.277000000000001,37.598,62.012,0.0,0
1581435952.931,74.219,16.113,42.48,64.941,0.0,0
1581435952.935,47.852,18.066,41.01600000000001,65.918,0.0,0
1581435952.939,70.801,14.648,24.901999999999997,66.406,0.0,0
1581435952.9429998,95.215,14.16,16.602,61.523,0.0,0
1581435952.947,71.289,12.695,19.043,55.176,0.0,0
1581435952.951,36.621,11.23,15.137,52.733999999999995,0.0,0
1581435952.954,48.828,10.254000000000001,-8.301,51.758,0.0,0
1581435952.958,77.148,10.254000000000001,-5.371,45.898,0.0,0
1581435952.9620001,74.707,18.066,71.777,44.922,0.0,0
1581435952.966,34.18,15.137,58.593999999999994,51.758,0.0,0
1581435952.97,23.926,17.578,24.901999999999997,51.27,0.0,0
1581435952.9720001,59.57,23.438000000000002,35.156,43.457,0.0,0
1581435952.976,66.895,25.391,50.293,40.527,0.0,0
1581435952.98,33.691,21.97300000000001,46.875,41.504,0.0,0
1581435952.984,16.113,16.602,21.97300000000001,39.551,0.0,0
1581435952.988,44.922,19.531,36.621,37.598,0.0,0
1581435952.992,65.43,16.113,38.574,38.086,0.0,0
1581435952.996,35.645,11.719000000000001,16.113,38.086,0.0,0
1581435952.9989998,13.184000000000001,14.648,-6.348,32.227,0.0,0
1581435953.0029998,29.785,25.391,18.066,27.831999999999997,0.0,0
1581435953.0070002,48.34,28.32,66.895,24.901999999999997,0.0,0
1581435953.0110002,34.668,16.602,31.25,28.32,0.0,0
1581435953.015,5.859,20.02,16.602,32.715,0.0,0
1581435953.0170002,13.672,24.901999999999997,42.968999999999994,34.668,0.0,0
1581435953.0210001,48.828,21.484,44.434,31.738000000000003,0.0,0
1581435953.025,44.922,17.578,27.831999999999997,30.273000000000003,0.0,0
1581435953.029,7.324,20.508000000000006,17.09,24.414,0.0,0
1581435953.033,2.93,24.414,29.296999999999997,21.97300000000001,0.0,0
1581435953.0370002,33.203,17.09,8.789,24.901999999999997,0.0,0
1581435953.0410001,44.434,11.719000000000001,-19.531,20.02,0.0,0
1581435953.044,11.719000000000001,15.625,-8.301,18.555,0.0,0
1581435953.0479999,-8.789,26.366999999999997,55.663999999999994,20.996,0.0,0
1581435953.052,13.184000000000001,21.484,60.059,24.901999999999997,0.0,0
1581435953.056,33.203,17.578,32.227,21.97300000000001,0.0,0
1581435953.06,14.16,21.97300000000001,44.922,24.901999999999997,0.0,0
1581435953.062,-14.16,20.02,52.246,22.949,0.0,0
1581435953.066,4.395,18.066,28.32,22.461,0.0,0
1581435953.07,39.062,15.625,15.625,22.949,0.0,0
1581435953.074,22.949,18.066,30.761999999999997,20.02,0.0,0
1581435953.0779998,-18.066,18.066,31.738000000000003,24.901999999999997,0.0,0
1581435953.082,-11.719000000000001,9.277000000000001,12.207,21.97300000000001,0.0,0
1581435953.086,24.414,4.883,-21.97300000000001,18.555,0.0,0
1581435953.089,24.414,18.555,18.555,18.066,0.0,0
1581435953.093,-12.207,26.366999999999997,72.266,18.066,0.0,0
1581435953.0970001,-21.484,20.02,44.922,24.414,0.0,0
1581435953.101,7.324,18.555,35.645,20.02,0.0,0
1581435953.105,19.531,24.414,50.293,13.672,0.0,0
1581435953.1220002,-6.836,26.366999999999997,52.733999999999995,17.578,0.0,0
1581435953.1260002,-22.461,19.043,16.602,17.09,0.0,0
1581435953.13,6.836,17.578,19.043,11.23,0.0,0
1581435953.1339998,28.32,22.461,40.039,2.93,0.0,0
1581435953.1379998,5.859,22.949,26.855,4.883,0.0,0
1581435953.1420002,-15.137,12.695,-14.16,14.648,0.0,0
1581435953.1460001,6.348,15.137,-8.301,11.719000000000001,0.0,0
1581435953.149,32.227,27.831999999999997,57.617,7.812,0.0,0
1581435953.1529999,10.254000000000001,23.926,61.523,10.254000000000001,0.0,0
1581435953.157,-34.18,13.672,16.602,19.043,0.0,0
1581435953.161,-40.039,16.113,21.97300000000001,28.809,0.0,0
1581435953.165,-15.137,21.97300000000001,63.965,27.344,0.0,0
1581435953.168,-13.184000000000001,18.555,43.457,27.831999999999997,0.0,0
1581435953.1720002,-44.922,14.16,20.02,23.438000000000002,0.0,0
1581435953.176,-56.152,15.625,23.438000000000002,21.97300000000001,0.0,0
1581435953.18,-27.344,17.578,45.41,27.831999999999997,0.0,0
1581435953.184,-8.301,16.602,48.828,25.391,0.0,0
1581435953.188,-32.715,15.137,10.254000000000001,29.785,0.0,0
1581435953.1920002,-59.57,15.137,9.766,25.879,0.0,0
1581435953.195,-33.691,16.602,20.996,20.996,0.0,0
1581435953.199,0.488,19.043,19.043,26.366999999999997,0.0,0
1581435953.2029998,-17.09,13.672,-5.371,25.391,0.0,0
1581435953.207,-39.062,20.02,23.926,19.531,0.0,0
1581435953.211,-18.066,29.296999999999997,70.801,15.137,0.0,0
1581435953.2120001,6.348,18.066,36.133,16.113,0.0,0
1581435953.216,-2.93,13.672,16.602,19.531,0.0,0
1581435953.22,-31.25,20.02,38.574,20.508000000000006,0.0,0
1581435953.224,-32.227,20.02,38.574,22.949,0.0,0
1581435953.228,1.953,14.648,14.16,17.09,0.0,0
1581435953.232,11.23,13.184000000000001,5.371,11.719000000000001,0.0,0
1581435953.236,-18.555,20.02,23.926,13.184000000000001,0.0,0
1581435953.2389998,-39.551,20.996,54.199,17.578,0.0,0
1581435953.2429998,-25.879,14.16,14.16,24.901999999999997,0.0,0
1581435953.2470002,-12.207,11.719000000000001,-20.02,15.625,0.0,0
1581435953.2510002,-33.691,21.484,40.039,10.742,0.0,0
1581435953.255,-52.246,23.438000000000002,57.129,17.578,0.0,0
1581435953.258,-32.715,20.996,50.78100000000001,13.672,0.0,0
1581435953.262,-8.789,22.461,48.828,9.277000000000001,0.0,0
1581435953.266,-22.949,23.438000000000002,47.363,5.859,0.0,0
1581435953.27,-46.387,21.484,36.621,6.348,0.0,0
1581435953.274,-32.227,18.555,18.066,12.695,0.0,0
1581435953.2779999,1.953,18.066,6.348,10.742,0.0,0
1581435953.282,5.371,22.461,11.23,7.324,0.0,0
1581435953.285,-20.508000000000006,22.461,18.066,7.324,0.0,0
1581435953.289,-20.02,15.137,-26.366999999999997,8.789,0.0,0
1581435953.293,13.184000000000001,21.97300000000001,2.441,11.23,0.0,0
1581435953.2970002,24.901999999999997,28.32,53.223,10.254000000000001,0.0,0
1581435953.301,0.0,19.531,23.926,20.508000000000006,0.0,0
1581435953.303,-9.766,20.508000000000006,20.02,22.949,0.0,0
1581435953.3070002,22.949,25.879,37.598,15.137,0.0,0
1581435953.311,43.945,23.926,60.059,6.348,0.0,0
1581435953.315,21.484,20.02,46.875,8.789,0.0,0
1581435953.319,-2.93,18.066,33.691,20.02,0.0,0
1581435953.323,12.695,16.602,37.598,18.066,0.0,0
1581435953.3270001,49.805,21.484,48.34,18.555,0.0,0
1581435953.33,44.434,15.137,30.761999999999997,20.02,0.0,0
1581435953.3339999,24.414,13.184000000000001,6.836,17.09,0.0,0
1581435953.3379998,35.645,33.691,70.312,17.578,0.0,0
1581435953.342,54.688,31.25,83.008,14.16,0.0,0
1581435953.346,54.199,22.949,52.733999999999995,16.602,0.0,0
1581435953.3479998,26.366999999999997,23.438000000000002,58.593999999999994,22.461,0.0,0
1581435953.3520002,23.438000000000002,22.949,73.242,22.461,0.0,0
1581435953.356,62.988,22.461,65.918,16.113,0.0,0
1581435953.36,78.125,18.555,56.152,7.324,0.0,0
1581435953.3639998,52.246,17.578,63.477,12.695,0.0,0
1581435953.3679998,47.852,17.578,47.852,18.555,0.0,0
1581435953.3720002,92.285,18.555,39.551,19.043,0.0,0
1581435953.375,131.34799999999998,19.531,23.438000000000002,17.09,0.0,0
1581435953.379,125.0,24.901999999999997,46.875,9.766,0.0,0
1581435953.383,105.469,27.344,84.961,14.648,0.0,0
1581435953.387,118.164,20.508000000000006,64.453,19.531,0.0,0
1581435953.391,136.719,19.043,56.64100000000001,14.16,0.0,0
1581435953.393,118.652,27.344,82.52,10.742,0.0,0
1581435953.397,74.219,24.414,72.75399999999998,5.859,0.0,0
1581435953.401,67.383,12.207,19.531,10.254000000000001,0.0,0
1581435953.405,87.891,16.602,26.855,14.648,0.0,0
1581435953.409,79.102,20.508000000000006,56.64100000000001,10.742,0.0,0
1581435953.4129999,48.34,19.043,35.156,20.508000000000006,0.0,0
1581435953.417,31.738000000000003,14.16,-8.301,24.414,0.0,0
1581435953.42,50.293,11.23,-3.906,20.02,0.0,0
1581435953.424,55.663999999999994,22.461,63.965,17.578,0.0,0
1581435953.428,12.695,18.555,67.383,20.996,0.0,0
1581435953.4320002,-18.555,12.695,29.785,18.066,0.0,0
1581435953.436,-1.465,14.16,17.09,11.719000000000001,0.0,0
1581435953.438,12.695,20.996,38.086,15.137,0.0,0
1581435953.4420002,-10.742,22.461,37.109,19.531,0.0,0
1581435953.446,-33.691,17.09,24.901999999999997,19.531,0.0,0
1581435953.45,-22.949,20.02,29.785,20.02,0.0,0
1581435953.454,1.465,24.414,41.992,12.695,0.0,0
1581435953.458,-0.977,18.555,18.555,17.578,0.0,0
1581435953.4620001,-30.761999999999997,9.277000000000001,-38.574,27.344,0.0,0
1581435953.465,-36.133,13.672,-5.371,21.484,0.0,0
1581435953.4689999,-10.254000000000001,23.438000000000002,51.758,15.625,0.0,0
1581435953.4729998,-2.93,20.02,32.227,21.97300000000001,0.0,0
1581435953.4770002,-27.344,18.555,9.766,27.344,0.0,0
1581435953.481,-38.574,24.414,25.879,22.949,0.0,0
1581435953.498,-9.766,25.391,36.621,19.531,0.0,0
1581435953.502,3.418,21.484,20.02,20.996,0.0,0
1581435953.506,-24.901999999999997,18.066,6.348,23.438000000000002,0.0,0
1581435953.51,-49.316,21.97300000000001,22.461,24.901999999999997,0.0,0
1581435953.514,-31.738000000000003,24.414,30.761999999999997,23.438000000000002,0.0,0
1581435953.518,0.0,19.043,-12.207,21.97300000000001,0.0,0
1581435953.522,-10.742,17.09,-22.949,16.602,0.0,0
1581435953.525,-34.18,31.25,34.18,16.113,0.0,0
1581435953.529,-25.391,32.227,48.828,23.438000000000002,0.0,0
1581435953.533,-3.906,20.996,33.203,20.02,0.0,0
1581435953.5370002,-11.719000000000001,16.602,25.879,12.207,0.0,0
1581435953.5410001,-38.086,21.97300000000001,41.504,14.16,0.0,0
1581435953.543,-34.668,19.531,16.602,21.97300000000001,0.0,0
1581435953.5470002,-5.859,13.672,5.371,17.578,0.0,0
1581435953.551,2.441,19.043,37.598,12.695,0.0,0
1581435953.555,-22.461,21.97300000000001,42.968999999999994,19.531,0.0,0
1581435953.559,-42.48,19.531,44.922,20.508000000000006,0.0,0
1581435953.563,-24.414,12.207,17.578,12.207,0.0,0
1581435953.5670002,-5.371,14.16,22.949,13.184000000000001,0.0,0
1581435953.57,-28.809,19.043,46.875,17.578,0.0,0
1581435953.574,-48.828,18.066,33.691,21.484,0.0,0
1581435953.5779998,-29.296999999999997,11.719000000000001,-1.465,21.484,0.0,0
1581435953.582,-2.441,19.043,31.738000000000003,13.672,0.0,0
1581435953.586,-6.348,25.879,67.87100000000001,15.625,0.0,0
1581435953.5879998,-31.738000000000003,19.043,29.296999999999997,20.02,0.0,0
1581435953.592,-27.344,17.09,6.836,20.996,0.0,0
1581435953.596,6.836,21.97300000000001,44.434,16.113,0.0,0
1581435953.6,15.137,20.508000000000006,64.941,19.043,0.0,0
1581435953.6039999,-5.371,13.672,25.879,22.461,0.0,0
1581435953.6079998,4.883,14.648,6.348,19.043,0.0,0
1581435953.6120002,40.039,22.949,33.203,17.578,0.0,0
1581435953.615,53.223,24.901999999999997,68.359,14.648,0.0,0
1581435953.619,32.715,16.113,20.508000000000006,17.09,0.0,0
1581435953.623,13.184000000000001,13.184000000000001,-14.16,16.113,0.0,0
1581435953.627,32.227,26.855,59.57,14.16,0.0,0
1581435953.631,59.082,30.273000000000003,61.035,18.555,0.0,0
1581435953.6320002,40.527,26.366999999999997,30.273000000000003,19.531,0.0,0
1581435953.6360002,12.695,27.831999999999997,44.434,19.043,0.0,0
1581435953.64,27.344,26.366999999999997,62.5,23.438000000000002,0.0,0
1581435953.644,45.41,22.461,63.965,23.926,0.0,0
1581435953.6479998,35.156,19.043,41.504,24.901999999999997,0.0,0
1581435953.6520002,4.883,13.184000000000001,8.301,26.855,0.0,0
1581435953.6560001,0.977,13.184000000000001,13.184000000000001,25.391,0.0,0
1581435953.659,32.227,17.09,31.738000000000003,22.949,0.0,0
1581435953.6629999,36.133,17.09,12.207,15.625,0.0,0
1581435953.667,1.953,22.461,41.01600000000001,18.066,0.0,0
1581435953.671,-13.184000000000001,26.855,83.49600000000002,18.555,0.0,0
1581435953.675,13.672,21.484,49.316,19.043,0.0,0
1581435953.677,24.414,17.09,32.715,19.043,0.0,0
1581435953.681,2.93,22.949,57.129,15.625,0.0,0
1581435953.685,-19.043,24.414,61.035,16.602,0.0,0
1581435953.689,-6.836,20.508000000000006,34.668,18.555,0.0,0
1581435953.6929998,21.484,20.996,18.555,20.996,0.0,0
1581435953.697,5.859,21.484,18.066,23.438000000000002,0.0,0
1581435953.701,-25.879,21.484,20.508000000000006,22.461,0.0,0
1581435953.704,-19.043,17.578,6.836,21.484,0.0,0
1581435953.708,3.906,16.113,6.348,16.113,0.0,0
1581435953.7120001,-4.395,21.97300000000001,43.457,17.578,0.0,0
1581435953.716,-41.992,20.508000000000006,24.901999999999997,21.484,0.0,0
1581435953.72,-60.547,19.531,14.648,20.996,0.0,0
1581435953.7220001,-33.691,20.02,29.296999999999997,22.461,0.0,0
1581435953.726,-24.901999999999997,24.414,45.898,18.066,0.0,0
1581435953.73,-50.78100000000001,20.996,37.109,20.02,0.0,0
1581435953.734,-59.57,17.578,16.602,25.879,0.0,0
1581435953.738,-38.086,16.602,17.578,20.02,0.0,0
1581435953.742,-26.855,10.254000000000001,13.184000000000001,21.97300000000001,0.0,0
1581435953.746,-54.199,12.207,9.766,20.02,0.0,0
1581435953.7489998,-75.195,14.16,-8.789,14.648,0.0,0
1581435953.7529998,-56.64100000000001,19.043,18.066,14.648,0.0,0
1581435953.7570002,-33.203,23.438000000000002,70.312,11.719000000000001,0.0,0
1581435953.7610002,-50.78100000000001,20.508000000000006,44.922,12.207,0.0,0
1581435953.765,-84.473,18.555,22.949,12.695,0.0,0
1581435953.7670002,-77.637,15.625,32.227,14.16,0.0,0
1581435953.7710001,-54.688,18.555,54.688,15.625,0.0,0
1581435953.775,-62.5,16.113,38.574,16.602,0.0,0
1581435953.779,-93.262,15.625,16.602,19.531,0.0,0
1581435953.783,-92.773,20.996,40.039,16.602,0.0,0
1581435953.7870002,-57.129,17.578,29.785,19.531,0.0,0
1581435953.7910001,-43.457,15.137,12.695,21.484,0.0,0
1581435953.794,-60.059,14.16,9.277000000000001,13.184000000000001,0.0,0
1581435953.7979999,-66.406,20.02,48.828,15.137,0.0,0
1581435953.802,-38.574,23.438000000000002,61.035,14.648,0.0,0
1581435953.806,-12.695,19.531,41.992,12.695,0.0,0
1581435953.81,-31.25,21.484,44.434,20.508000000000006,0.0,0
1581435953.812,-53.71100000000001,25.391,59.57,18.555,0.0,0
1581435953.816,-37.598,19.043,52.246,14.16,0.0,0
1581435953.82,-9.277000000000001,15.625,30.761999999999997,3.906,0.0,0
1581435953.824,-13.184000000000001,18.555,17.578,3.906,0.0,0
1581435953.8279998,-43.457,21.97300000000001,39.551,19.531,0.0,2
1581435953.832,-41.992,17.578,25.879,20.996,0.0,0
1581435953.836,-6.836,13.672,-7.324,13.184000000000001,0.0,0
1581435953.839,-6.348,20.02,38.574,4.883,0.0,0
1581435953.843,-35.645,27.344,77.148,2.93,0.0,0
1581435953.8470001,-36.621,22.461,45.898,9.766,0.0,0
1581435953.851,-8.789,20.996,24.414,8.301,0.0,0
1581435953.855,12.207,27.344,35.645,4.883,0.0,0
1581435953.8720002,-9.766,30.761999999999997,50.293,5.371,0.0,0
1581435953.8760002,-33.203,26.855,21.97300000000001,13.184000000000001,0.0,0
1581435953.88,-1.953,27.344,20.508000000000006,18.066,0.0,0
1581435953.8839998,27.344,31.25,52.733999999999995,14.648,0.0,0
1581435953.8879998,11.23,28.32,42.968999999999994,18.555,0.0,0
1581435953.8920002,-15.625,20.996,2.441,20.02,0.0,0
1581435953.8960001,-2.441,16.602,-8.301,15.137,0.0,0
1581435953.899,23.926,21.97300000000001,36.133,10.742,0.0,0
1581435953.9029999,18.555,24.414,64.941,6.836,0.0,0
1581435953.907,-2.93,20.02,15.137,10.742,0.0,0
1581435953.911,4.883,21.484,12.207,6.836,0.0,0
1581435953.915,37.598,22.949,61.523,4.883,0.0,0
1581435953.917,46.875,18.066,47.852,14.16,0.0,0
1581435953.921,28.809,18.066,27.344,13.672,0.0,0
1581435953.925,23.926,22.949,31.738000000000003,15.625,0.0,0
1581435953.929,41.504,23.438000000000002,52.246,13.672,0.0,0
1581435953.9329998,51.27,20.02,43.457,7.812,0.0,0
1581435953.937,38.574,17.09,12.695,16.113,0.0,0
1581435953.941,24.901999999999997,19.531,14.648,21.484,0.0,0
1581435953.944,43.457,28.32,53.71100000000001,13.184000000000001,0.0,0
1581435953.948,70.801,25.879,51.27,4.395,0.0,0
1581435953.9520001,57.617,16.602,-8.789,4.883,0.0,0
1581435953.956,35.645,24.901999999999997,24.414,9.766,0.0,0
1581435953.96,40.527,30.273000000000003,74.707,13.672,0.0,0
1581435953.9620001,64.453,18.066,32.715,12.207,0.0,0
1581435953.966,64.453,14.648,24.414,0.977,0.0,0
1581435953.97,35.156,23.926,49.316,1.953,0.0,0
1581435953.974,34.18,26.366999999999997,47.852,4.883,0.0,0
1581435953.978,69.824,20.02,8.301,0.977,0.0,0
1581435953.982,81.543,19.043,-11.719000000000001,3.418,0.0,0
1581435953.986,56.152,22.461,25.879,0.488,0.0,0
1581435953.9889998,48.828,28.32,56.152,-0.977,0.0,0
1581435953.9929998,62.988,21.484,15.137,8.301,0.0,0
1581435953.9970002,63.965,15.625,-11.719000000000001,14.16,0.0,0
1581435954.0010002,28.32,23.926,61.035,17.09,0.0,0
1581435954.005,1.465,20.02,61.035,18.555,0.0,0
1581435954.0070002,22.949,15.625,23.926,17.578,0.0,0
1581435954.0110002,44.922,21.97300000000001,39.062,20.02,0.0,0
1581435954.015,29.296999999999997,23.926,50.293,13.672,0.0,0
1581435954.019,10.742,20.508000000000006,29.296999999999997,15.137,0.0,0
1581435954.0229998,25.879,20.996,23.926,17.578,0.0,0
1581435954.0270002,55.663999999999994,19.043,26.855,14.648,0.0,0
1581435954.0310001,49.805,18.066,21.484,18.555,0.0,0
1581435954.034,9.766,20.02,49.805,19.043,0.0,0
1581435954.0379999,1.953,17.09,7.812,14.648,0.0,0
1581435954.042,29.785,20.996,10.742,3.906,0.0,0
1581435954.046,46.875,25.879,55.663999999999994,9.277000000000001,0.0,0
1581435954.05,21.97300000000001,21.97300000000001,28.32,19.531,0.0,0
1581435954.053,1.953,19.043,28.32,19.043,0.0,0
1581435954.0570002,26.855,25.879,59.57,13.672,0.0,0
1581435954.061,50.293,27.831999999999997,59.082,9.277000000000001,0.0,0
1581435954.065,30.761999999999997,21.97300000000001,20.996,14.16,0.0,0
1581435954.069,14.16,20.996,11.719000000000001,17.578,0.0,0
1581435954.073,41.01600000000001,23.438000000000002,29.296999999999997,22.461,0.0,0
1581435954.0770001,55.176,21.484,41.01600000000001,24.901999999999997,0.0,0
1581435954.08,37.598,11.719000000000001,20.996,22.949,0.0,0
1581435954.0839999,10.742,10.742,12.207,21.97300000000001,0.0,0
1581435954.0879998,17.09,19.043,55.663999999999994,18.066,0.0,0
1581435954.092,48.828,19.043,65.43,22.949,0.0,0
1581435954.096,49.805,15.137,51.27,21.484,0.0,0
1581435954.0979998,20.508000000000006,14.16,51.27,24.414,0.0,0
1581435954.1020002,2.93,11.719000000000001,54.199,30.761999999999997,0.0,0
1581435954.106,18.066,6.836,46.875,19.043,0.0,0
1581435954.11,35.156,10.254000000000001,47.363,19.531,0.0,0
1581435954.1139998,19.043,12.207,42.968999999999994,26.366999999999997,0.0,0
1581435954.1179998,4.395,7.324,26.855,30.761999999999997,0.0,0
1581435954.1220002,29.296999999999997,6.836,12.207,28.809,0.0,0
1581435954.125,45.898,3.906,-7.812,27.831999999999997,0.0,0
1581435954.129,29.296999999999997,8.789,19.043,28.809,0.0,0
1581435954.133,8.301,18.066,62.988,27.344,0.0,0
1581435954.137,16.602,14.16,48.828,27.831999999999997,0.0,0
1581435954.141,42.968999999999994,11.23,22.461,31.25,0.0,0
1581435954.143,36.133,17.09,42.968999999999994,31.738000000000003,0.0,0
1581435954.147,1.953,17.09,60.059,34.18,0.0,0
1581435954.151,5.371,10.742,38.086,39.062,0.0,0
1581435954.155,41.992,11.719000000000001,34.668,34.668,0.0,0
1581435954.159,51.758,17.578,49.805,28.32,0.0,0
1581435954.1629999,20.508000000000006,15.625,34.18,31.25,0.0,0
1581435954.167,10.254000000000001,12.695,13.672,28.809,0.0,0
1581435954.17,37.109,16.602,23.926,20.996,0.0,0
1581435954.174,44.434,20.02,45.898,20.02,0.0,0
1581435954.178,20.508000000000006,19.043,46.875,25.391,0.0,0
1581435954.1820002,3.418,16.113,56.152,24.901999999999997,0.0,0
1581435954.186,20.02,11.23,53.223,19.531,0.0,0
1581435954.188,42.48,15.625,65.918,17.578,0.0,0
1581435954.1920002,25.391,17.09,58.105,21.97300000000001,0.0,0
1581435954.196,3.418,14.16,43.457,25.879,0.0,0
1581435954.2,16.602,17.09,53.71100000000001,20.508000000000006,0.0,0
1581435954.204,40.039,21.484,67.87100000000001,16.602,0.0,0
1581435954.208,33.203,16.113,41.504,21.97300000000001,0.0,0
1581435954.2120001,13.184000000000001,11.719000000000001,-5.371,22.949,0.0,0
1581435954.215,12.695,17.578,23.926,17.578,0.0,0
1581435954.2189999,26.366999999999997,22.949,84.961,13.672,0.0,0
1581435954.2229998,34.668,18.555,65.43,17.09,0.0,0
1581435954.2270002,13.672,17.578,44.434,17.578,0.0,0
1581435954.231,-1.953,19.531,36.621,12.695,0.0,0
1581435954.2329998,22.949,21.484,35.645,11.23,0.0,0
1581435954.2370002,43.457,22.949,53.223,13.672,0.0,0
1581435954.2410002,16.113,18.555,34.668,18.555,0.0,0
1581435954.245,-6.836,20.996,40.527,15.625,0.0,0
1581435954.2489998,19.531,20.996,53.223,11.719000000000001,0.0,0
1581435954.2529998,44.922,11.23,8.301,16.113,0.0,0
1581435954.2570002,23.926,11.23,-9.277000000000001,8.789,0.0,0
1581435954.26,-5.371,23.926,51.27,5.371,0.0,0
1581435954.264,2.441,27.344,65.918,11.23,0.0,0
1581435954.268,28.32,21.484,34.668,13.184000000000001,0.0,0
1581435954.272,25.391,25.391,33.203,16.113,0.0,0
1581435954.276,-0.488,32.227,54.688,15.625,0.0,0
1581435954.293,-1.953,25.879,45.41,15.625,0.0,0
1581435954.2970002,22.949,21.484,25.391,12.695,0.0,0
1581435954.301,26.855,25.879,18.555,10.742,0.0,0
1581435954.305,-1.953,28.809,34.668,17.09,0.0,0
1581435954.309,-14.16,21.97300000000001,32.227,20.996,0.0,0
1581435954.313,14.648,20.996,16.113,18.555,0.0,0
1581435954.3170002,38.086,23.926,26.366999999999997,17.09,0.0,0
1581435954.32,12.695,24.414,50.78100000000001,20.508000000000006,0.0,0
1581435954.324,-12.695,21.484,47.852,27.831999999999997,0.0,0
1581435954.3279998,8.301,17.09,18.555,26.855,0.0,0
1581435954.332,34.668,22.949,41.504,18.555,0.0,0
1581435954.336,19.043,27.344,64.941,18.066,0.0,0
1581435954.3379998,-11.719000000000001,20.508000000000006,24.414,23.438000000000002,0.0,0
1581435954.342,4.395,19.043,12.207,26.855,0.0,0
1581435954.346,34.668,25.391,43.945,22.461,0.0,0
1581435954.35,20.02,24.901999999999997,44.434,22.461,0.0,0
1581435954.3539999,-5.371,21.484,30.761999999999997,28.809,0.0,0
1581435954.3579998,-9.766,15.625,10.742,29.296999999999997,0.0,0
1581435954.3620002,13.184000000000001,12.207,4.395,25.879,0.0,0
1581435954.365,29.785,19.531,34.18,27.344,0.0,0
1581435954.369,6.348,15.625,14.16,27.344,0.0,0
1581435954.373,-7.812,13.672,-6.348,15.137,0.0,0
1581435954.377,10.254000000000001,23.438000000000002,56.64100000000001,11.23,0.0,0
1581435954.381,20.508000000000006,19.531,63.477,15.137,0.0,0
1581435954.383,2.441,20.02,36.133,17.578,0.0,0
1581435954.387,-14.648,20.508000000000006,25.879,21.97300000000001,0.0,0
1581435954.391,0.977,18.555,31.25,19.531,0.0,0
1581435954.395,22.949,18.555,37.598,12.695,0.0,0
1581435954.399,14.648,14.648,28.809,13.184000000000001,0.0,0
1581435954.4029999,-15.625,8.789,8.301,15.625,0.0,0
1581435954.407,-16.113,10.742,3.906,18.555,0.0,0
1581435954.41,14.16,12.695,25.391,15.137,0.0,0
1581435954.414,15.137,6.836,-7.324,5.371,0.0,0
1581435954.418,-15.625,16.602,17.09,7.812,0.0,0
1581435954.4220002,-22.461,24.901999999999997,74.707,12.695,0.0,0
1581435954.426,2.93,17.09,50.293,13.672,0.0,0
1581435954.428,17.09,15.137,27.831999999999997,10.254000000000001,0.0,0
1581435954.4320002,-4.883,21.484,38.574,10.254000000000001,0.0,0
1581435954.436,-21.484,22.949,42.968999999999994,15.137,0.0,0
1581435954.44,9.766,18.555,20.02,16.113,0.0,0
1581435954.444,36.621,14.648,23.438000000000002,18.555,0.0,0
1581435954.448,16.113,16.113,36.621,15.137,0.0,0
1581435954.4520001,-5.371,20.02,26.366999999999997,13.672,0.0,0
1581435954.455,-5.371,15.625,2.93,18.555,0.0,0
1581435954.4589999,12.207,16.602,3.906,12.695,0.0,0
1581435954.4629998,12.207,28.32,54.199,9.766,0.0,0
1581435954.467,-8.789,25.879,59.57,13.184000000000001,0.0,0
1581435954.471,-11.23,22.949,38.574,20.02,0.0,0
1581435954.4729998,12.695,25.391,38.086,21.97300000000001,0.0,0
1581435954.4770002,18.555,25.879,46.387,16.113,0.0,0
1581435954.481,-3.418,25.391,43.457,23.438000000000002,0.0,0
1581435954.485,-15.137,22.949,25.391,20.508000000000006,0.0,0
1581435954.4889998,-0.977,19.043,32.227,17.578,0.0,0
1581435954.4929998,13.672,21.97300000000001,34.18,20.02,0.0,0
1581435954.4970002,-6.348,21.484,21.484,18.555,0.0,0
1581435954.5,-26.855,13.672,-3.906,13.672,0.0,0
1581435954.504,-8.789,24.414,31.738000000000003,6.348,0.0,0
1581435954.508,11.719000000000001,31.738000000000003,80.566,10.254000000000001,0.0,0
1581435954.512,-0.488,20.996,55.663999999999994,23.438000000000002,0.0,0
1581435954.516,-20.02,16.113,37.598,25.391,0.0,0
1581435954.518,-6.348,23.438000000000002,49.805,20.508000000000006,0.0,0
1581435954.522,16.602,23.438000000000002,43.457,11.719000000000001,0.0,0
1581435954.526,12.695,18.555,18.066,10.254000000000001,0.0,0
1581435954.53,-10.254000000000001,21.484,25.879,18.555,0.0,0
1581435954.534,-11.719000000000001,22.949,38.574,15.625,0.0,0
1581435954.5379999,10.742,20.996,28.809,11.23,0.0,0
1581435954.542,16.113,15.625,-1.465,11.23,0.0,0
1581435954.545,-7.324,13.672,-3.418,15.137,0.0,0
1581435954.549,-23.926,20.02,59.082,14.16,0.0,0
1581435954.553,-0.488,16.113,57.129,13.184000000000001,0.0,0
1581435954.5570002,23.438000000000002,14.16,39.551,13.184000000000001,0.0,0
1581435954.561,6.348,16.602,29.785,14.648,0.0,0
1581435954.563,-11.23,21.97300000000001,43.945,20.508000000000006,0.0,0
1581435954.5670002,4.883,20.508000000000006,52.733999999999995,20.996,0.0,0
1581435954.571,23.926,16.602,35.156,11.23,0.0,0
1581435954.575,7.812,18.066,45.41,10.742,0.0,0
1581435954.579,-12.695,18.555,42.48,9.277000000000001,0.0,0
1581435954.583,-0.977,13.184000000000001,19.043,13.672,0.0,0
1581435954.5870001,22.461,8.301,-14.16,13.672,0.0,0
1581435954.59,17.578,16.113,5.371,3.418,0.0,0
1581435954.5939999,-11.719000000000001,22.949,44.434,7.324,0.0,0
1581435954.5979998,-12.207,17.578,27.344,12.695,0.0,0
1581435954.6020002,15.137,13.184000000000001,23.438000000000002,8.789,0.0,0
1581435954.606,22.949,20.996,50.78100000000001,9.277000000000001,0.0,0
1581435954.623,0.0,23.438000000000002,49.805,16.602,0.0,0
1581435954.627,-8.789,19.531,30.761999999999997,19.043,0.0,0
1581435954.631,10.254000000000001,20.02,21.97300000000001,16.602,0.0,0
1581435954.635,21.97300000000001,21.97300000000001,40.527,9.277000000000001,0.0,0
1581435954.639,5.371,24.414,61.035,12.695,0.0,0
1581435954.643,-10.742,16.602,0.0,22.461,0.0,0
1581435954.647,0.977,15.625,-15.625,20.02,0.0,0
1581435954.65,20.508000000000006,22.949,55.176,8.789,0.0,0
1581435954.654,17.578,19.531,49.316,12.695,0.0,0
1581435954.658,-10.742,17.578,0.977,16.113,0.0,0
1581435954.6620002,-12.207,19.043,3.418,8.301,0.0,0
1581435954.6660001,19.531,26.366999999999997,58.105,9.277000000000001,0.0,0
1581435954.667,22.949,28.32,56.152,9.277000000000001,0.0,0
1581435954.671,-1.465,27.344,34.18,8.301,0.0,0
1581435954.675,-11.23,24.901999999999997,23.438000000000002,17.578,0.0,0
1581435954.679,8.301,26.855,42.968999999999994,16.602,0.0,0
1581435954.6829998,22.461,24.414,43.457,14.16,0.0,0
1581435954.687,3.418,17.578,23.926,16.113,0.0,0
1581435954.691,-13.672,20.996,31.25,15.137,0.0,0
1581435954.694,7.812,24.901999999999997,50.293,18.555,0.0,0
1581435954.698,28.32,20.996,58.105,16.113,0.0,0
1581435954.7020001,7.324,15.625,3.418,10.742,0.0,0
1581435954.706,-18.555,20.02,-6.836,9.277000000000001,0.0,0
1581435954.71,-10.254000000000001,28.809,43.945,12.207,0.0,0
1581435954.7120001,15.137,24.414,60.059,12.207,0.0,0
1581435954.716,17.578,20.02,39.062,15.137,0.0,0
1581435954.72,-9.277000000000001,24.414,40.527,12.207,0.0,0
1581435954.724,-7.812,23.926,53.223,10.742,0.0,0
1581435954.728,28.809,20.508000000000006,26.366999999999997,14.16,0.0,0
1581435954.732,34.18,15.625,3.906,16.602,0.0,0
1581435954.736,7.324,18.066,21.484,20.02,0.0,0
1581435954.7389998,-1.465,25.391,53.71100000000001,19.043,0.0,0
1581435954.7429998,17.09,18.555,15.625,11.23,0.0,0
1581435954.7470002,28.32,15.625,-11.719000000000001,2.93,0.0,0
1581435954.7510002,6.836,25.879,47.852,3.418,0.0,0
1581435954.755,-20.996,22.949,57.129,9.766,0.0,0
1581435954.7570002,-7.812,18.066,41.01600000000001,8.789,0.0,0
1581435954.7610002,23.438000000000002,15.625,31.738000000000003,4.883,0.0,0
1581435954.765,10.254000000000001,14.16,36.621,12.207,0.0,0
1581435954.769,-16.602,19.043,53.223,16.602,0.0,0
1581435954.7729998,-2.441,20.508000000000006,48.828,14.648,0.0,0
1581435954.7770002,29.785,17.578,30.761999999999997,17.09,0.0,0
1581435954.7810001,26.366999999999997,17.578,15.625,17.578,0.0,0
1581435954.784,-4.395,17.09,21.484,21.97300000000001,0.0,0
1581435954.7879999,-1.953,15.137,-0.488,19.531,0.0,0
1581435954.792,24.901999999999997,23.926,25.879,14.16,0.0,0
1581435954.796,26.366999999999997,31.738000000000003,82.52,12.695,0.0,0
1581435954.8,3.906,21.484,49.805,16.602,0.0,0
1581435954.802,-4.883,18.555,25.391,23.438000000000002,0.0,0
1581435954.806,16.113,26.855,53.71100000000001,21.484,0.0,0
1581435954.81,32.227,26.366999999999997,59.082,18.066,0.0,0
1581435954.814,8.301,22.949,42.48,19.043,0.0,0
1581435954.8179998,-18.555,18.066,15.625,16.113,0.0,0
1581435954.822,5.859,17.09,5.859,15.137,0.0,0
1581435954.826,29.785,20.996,34.18,13.672,0.0,0
1581435954.829,12.695,18.066,20.508000000000006,16.602,0.0,0
1581435954.833,-7.324,20.02,1.465,13.184000000000001,0.0,0
1581435954.8370001,1.953,30.273000000000003,58.105,6.836,0.0,0
1581435954.841,29.296999999999997,24.414,65.43,8.301,0.0,0
1581435954.845,32.715,20.996,53.71100000000001,8.789,0.0,0
1581435954.8470001,7.812,21.97300000000001,54.688,6.836,0.0,2
1581435954.851,1.465,20.02,61.035,4.395,0.0,0
1581435954.855,34.18,18.066,55.176,-0.977,0.0,0
1581435954.859,50.78100000000001,16.113,39.062,-4.395,0.0,0
1581435954.863,30.273000000000003,19.531,41.992,2.441,0.0,0
1581435954.867,16.113,17.578,20.996,12.207,0.0,0
1581435954.871,32.715,14.648,16.602,21.97300000000001,0.0,0
1581435954.8739998,44.922,10.254000000000001,-6.348,24.901999999999997,0.0,0
1581435954.8779998,21.97300000000001,14.648,25.391,22.949,0.0,0
1581435954.8820002,-2.441,19.043,83.008,27.344,0.0,0
1581435954.8860002,11.23,16.113,52.246,27.344,0.0,0
1581435954.89,37.598,18.066,48.828,20.996,0.0,0
1581435954.8920002,24.901999999999997,18.555,71.289,16.602,0.0,0
1581435954.8960001,0.0,17.09,62.5,20.02,0.0,0
1581435954.9,8.789,12.695,23.438000000000002,23.438000000000002,0.0,0
1581435954.904,35.156,14.648,25.879,15.625,0.0,0
1581435954.908,34.668,20.508000000000006,45.898,10.254000000000001,0.0,0
1581435954.9120002,6.348,18.066,18.555,12.207,0.0,0
1581435954.9160001,0.977,12.207,-13.672,15.625,0.0,0
1581435954.919,27.831999999999997,13.184000000000001,-5.371,10.742,0.0,0
1581435954.9229999,41.01600000000001,23.926,53.223,5.371,0.0,0
1581435954.927,18.066,23.438000000000002,66.406,13.184000000000001,0.0,0
1581435954.931,-0.488,19.531,35.156,16.113,0.0,0
1581435954.935,21.484,20.508000000000006,19.043,14.16,0.0,0
1581435954.937,41.01600000000001,25.879,49.316,11.719000000000001,0.0,0
1581435954.941,21.484,23.438000000000002,47.363,13.184000000000001,0.0,0
1581435954.945,-6.348,20.508000000000006,25.879,16.113,0.0,0
1581435954.949,5.371,26.366999999999997,40.039,14.648,0.0,0
1581435954.9529998,32.227,26.366999999999997,48.828,11.23,0.0,0
1581435954.957,24.901999999999997,18.555,15.625,10.742,0.0,0
1581435954.961,-1.465,13.672,-37.598,8.789,0.0,0
1581435954.964,2.93,19.043,-9.766,6.348,0.0,0
1581435954.968,26.855,25.391,61.523,7.812,0.0,0
1581435954.9720001,30.273000000000003,21.97300000000001,51.27,9.766,0.0,0
1581435954.976,5.371,18.555,42.48,12.207,0.0,0
1581435954.98,-3.906,20.508000000000006,53.223,9.277000000000001,0.0,0
1581435954.982,21.484,22.949,55.663999999999994,6.348,0.0,0
1581435954.986,37.598,18.555,33.203,10.254000000000001,0.0,0
1581435954.99,15.625,15.137,9.277000000000001,12.207,0.0,0
1581435954.994,-5.859,21.484,43.457,13.672,0.0,0
1581435954.998,11.719000000000001,23.438000000000002,53.223,16.113,0.0,0
1581435955.002,38.574,16.602,0.977,18.555,0.0,0
1581435955.006,23.438000000000002,13.184000000000001,-15.625,18.555,0.0,0
1581435955.0089998,-3.418,22.949,57.617,21.97300000000001,0.0,0
1581435955.0129998,12.695,21.484,73.242,25.391,0.0,0
1581435955.0170002,41.504,18.555,46.387,26.366999999999997,0.0,0
1581435955.0210001,44.434,21.484,49.316,25.391,0.0,0
1581435955.025,17.09,21.97300000000001,54.688,25.879,0.0,0
1581435955.042,11.719000000000001,22.949,43.945,27.831999999999997,0.0,0
1581435955.046,45.898,20.996,42.968999999999994,28.809,0.0,0
1581435955.05,53.71100000000001,21.484,57.617,30.273000000000003,0.0,0
1581435955.054,30.273000000000003,22.949,66.895,23.438000000000002,0.0,0
1581435955.0579998,21.484,16.602,41.992,25.879,0.0,0
1581435955.062,43.945,13.672,20.996,28.809,0.0,0
1581435955.066,62.988,17.578,40.527,22.461,0.0,0
1581435955.069,43.457,20.996,71.777,18.066,0.0,0
1581435955.073,33.203,18.555,57.617,18.555,0.0,0
1581435955.0770001,52.733999999999995,13.184000000000001,12.207,17.09,0.0,0
1581435955.081,64.941,20.508000000000006,49.805,13.184000000000001,0.0,0
1581435955.085,54.688,25.879,84.473,10.742,0.0,0
1581435955.0879998,42.968999999999994,19.043,44.922,14.16,0.0,0
1581435955.092,50.293,18.555,28.32,12.207,0.0,0
1581435955.096,70.312,24.414,61.035,6.348,0.0,0
1581435955.1,70.801,21.97300000000001,58.593999999999994,9.766,0.0,0
1581435955.1039999,42.968999999999994,14.16,30.761999999999997,8.301,0.0,0
1581435955.1079998,36.133,13.184000000000001,16.113,11.23,0.0,0
1581435955.1120002,58.105,19.043,43.457,5.371,0.0,0
1581435955.115,59.57,22.949,65.43,-1.953,0.0,0
1581435955.119,37.598,17.578,23.438000000000002,4.883,0.0,0
1581435955.123,28.809,15.625,10.742,6.836,0.0,0
1581435955.127,45.41,27.344,71.289,8.301,0.0,0
1581435955.131,64.941,28.809,65.43,12.207,0.0,0
1581435955.133,43.945,22.461,35.645,13.184000000000001,0.0,0
1581435955.137,12.695,20.508000000000006,30.761999999999997,19.043,0.0,0
1581435955.141,23.438000000000002,21.97300000000001,49.805,17.578,0.0,0
1581435955.145,45.41,20.508000000000006,47.363,15.625,0.0,0
1581435955.149,36.133,20.996,35.645,19.043,0.0,0
1581435955.1529999,11.23,19.531,13.184000000000001,22.949,0.0,0
1581435955.157,15.137,20.02,14.16,27.344,0.0,0
1581435955.16,36.621,20.508000000000006,54.688,26.366999999999997,0.0,0
1581435955.164,31.738000000000003,13.184000000000001,18.066,25.879,0.0,0
1581435955.168,5.859,15.625,10.254000000000001,15.137,0.0,0
1581435955.1720002,4.883,21.484,44.922,18.555,0.0,0
1581435955.176,28.809,19.531,34.18,24.414,0.0,0
1581435955.178,31.738000000000003,18.555,24.901999999999997,20.996,0.0,0
1581435955.1820002,5.859,23.438000000000002,44.434,23.926,0.0,0
1581435955.186,-12.695,24.901999999999997,49.316,20.508000000000006,0.0,0
1581435955.19,8.789,19.531,20.508000000000006,18.555,0.0,0
1581435955.194,28.809,18.066,21.97300000000001,22.461,0.0,0
1581435955.198,10.254000000000001,17.578,32.715,16.602,0.0,0
1581435955.2020001,-12.695,20.02,34.18,15.137,0.0,0
1581435955.205,-2.93,17.09,1.953,17.578,0.0,0
1581435955.2089999,18.066,13.672,-5.859,15.137,0.0,0
1581435955.2129998,5.371,27.344,62.988,12.207,0.0,0
1581435955.217,-15.625,27.831999999999997,49.805,17.578,0.0,0
1581435955.221,-8.789,23.438000000000002,20.02,20.996,0.0,0
1581435955.2229998,18.555,26.366999999999997,34.668,14.16,0.0,0
1581435955.2270002,23.438000000000002,26.366999999999997,33.203,16.602,0.0,0
1581435955.231,2.441,26.855,32.715,22.949,0.0,0
1581435955.235,0.0,24.901999999999997,42.48,21.484,0.0,0
1581435955.2389998,24.901999999999997,20.508000000000006,38.574,22.949,0.0,0
1581435955.2429998,33.203,16.602,27.831999999999997,20.02,0.0,0
1581435955.2470002,-0.977,13.672,15.137,21.97300000000001,0.0,0
1581435955.25,-19.043,15.137,-6.836,24.901999999999997,0.0,0
1581435955.254,4.395,22.949,32.715,18.066,0.0,0
1581435955.258,26.855,23.438000000000002,68.848,16.113,0.0,0
1581435955.262,13.184000000000001,19.043,36.621,14.16,0.0,0
1581435955.266,-15.137,21.484,33.203,18.555,0.0,0
1581435955.268,-6.836,21.97300000000001,45.898,17.578,0.0,0
1581435955.272,24.414,22.461,54.688,11.719000000000001,0.0,0
1581435955.276,18.555,17.09,30.273000000000003,13.672,0.0,0
1581435955.28,-8.789,14.648,8.301,21.484,0.0,0
1581435955.284,-9.277000000000001,20.996,20.02,19.531,0.0,0
1581435955.2879999,15.137,22.461,38.574,13.672,0.0,0
1581435955.292,20.996,15.625,18.066,17.09,0.0,0
1581435955.295,-10.742,12.207,-13.672,10.742,0.0,0
1581435955.299,-25.391,22.461,40.527,3.906,0.0,0
1581435955.303,5.371,23.926,70.801,7.324,0.0,0
1581435955.3070002,21.484,19.531,53.223,6.348,0.0,0
1581435955.311,-3.418,21.484,44.922,14.648,0.0,0
1581435955.313,-23.926,25.391,66.406,21.484,0.0,0
1581435955.3170002,-2.441,25.879,66.406,14.16,0.0,0
1581435955.321,24.414,22.949,36.621,11.719000000000001,0.0,0
1581435955.325,9.277000000000001,25.391,43.945,20.02,0.0,0
1581435955.329,-12.207,24.414,45.898,23.438000000000002,0.0,0
1581435955.333,-5.859,19.043,30.273000000000003,25.879,0.0,0
1581435955.3370001,11.719000000000001,13.184000000000001,-2.441,22.461,0.0,0
1581435955.34,11.23,19.531,8.789,16.113,0.0,0
1581435955.3439999,-12.695,29.296999999999997,59.57,19.531,0.0,0
1581435955.3479998,-12.695,23.438000000000002,42.968999999999994,26.366999999999997,0.0,0
1581435955.3520002,13.184000000000001,21.97300000000001,34.18,22.949,0.0,0
1581435955.356,16.113,25.879,53.71100000000001,12.207,0.0,0
1581435955.373,-9.766,24.414,51.758,19.043,0.0,0
1581435955.377,-20.508000000000006,19.531,26.855,25.391,0.0,0
1581435955.381,0.977,16.602,15.625,18.555,0.0,0
1581435955.385,16.113,20.996,44.922,8.789,0.0,0
1581435955.389,-2.93,23.438000000000002,43.457,2.93,0.0,0
1581435955.393,-18.066,15.625,-4.883,13.672,0.0,0
1581435955.397,0.0,15.625,-12.207,15.137,0.0,0
1581435955.4,16.602,24.901999999999997,53.71100000000001,11.23,0.0,0
1581435955.404,4.395,23.926,67.383,15.625,0.0,0
1581435955.408,-23.438000000000002,15.625,26.855,13.672,0.0,0
1581435955.4120002,-14.648,16.113,18.066,16.602,0.0,0
1581435955.4160001,17.578,23.438000000000002,39.551,15.625,0.0,0
1581435955.418,20.996,19.531,34.668,14.648,0.0,0
1581435955.4220002,-5.859,16.113,22.461,20.02,0.0,0
1581435955.426,-11.719000000000001,21.484,36.621,19.531,0.0,0
1581435955.43,17.578,24.901999999999997,47.363,20.996,0.0,0
1581435955.434,30.761999999999997,23.438000000000002,44.922,25.879,0.0,0
1581435955.438,6.836,18.066,20.508000000000006,31.738000000000003,0.0,0
1581435955.4420002,-10.742,19.531,8.789,29.296999999999997,0.0,0
1581435955.445,11.719000000000001,25.391,38.086,21.97300000000001,0.0,0
1581435955.449,30.273000000000003,21.484,44.922,25.391,0.0,0
1581435955.4529998,12.695,16.602,-0.488,27.344,0.0,0
1581435955.457,-8.301,21.484,15.137,21.484,0.0,0
1581435955.461,6.836,23.438000000000002,64.941,22.461,0.0,0
1581435955.4629998,29.785,20.02,47.852,24.901999999999997,0.0,0
1581435955.467,16.602,20.02,31.738000000000003,21.97300000000001,0.0,0
1581435955.471,-7.324,21.484,43.457,24.414,0.0,0
1581435955.475,-0.977,23.438000000000002,54.688,24.901999999999997,0.0,0
1581435955.4789999,27.831999999999997,20.508000000000006,36.621,20.508000000000006,0.0,0
1581435955.4829998,39.062,12.695,-0.488,19.043,0.0,0
1581435955.4870002,13.184000000000001,17.09,6.348,17.578,0.0,0
1581435955.49,-9.277000000000001,28.809,53.223,10.742,0.0,0
1581435955.494,6.836,23.926,20.996,9.277000000000001,0.0,0
1581435955.498,23.926,18.066,-12.695,6.348,0.0,0
1581435955.502,5.371,26.855,43.457,4.395,0.0,0
1581435955.506,-6.348,26.366999999999997,48.34,10.742,0.0,0
1581435955.508,19.043,23.438000000000002,24.414,14.16,0.0,0
1581435955.512,37.598,25.391,26.366999999999997,14.16,0.0,0
1581435955.516,20.508000000000006,27.831999999999997,49.805,13.184000000000001,0.0,0
1581435955.52,-3.906,21.97300000000001,26.366999999999997,16.602,0.0,0
1581435955.524,5.371,20.508000000000006,16.602,19.531,0.0,0
1581435955.5279999,32.715,20.996,36.621,15.137,0.0,0
1581435955.532,25.879,18.066,19.043,11.719000000000001,0.0,0
1581435955.535,6.348,21.484,15.137,16.602,0.0,0
1581435955.539,2.93,17.09,-7.812,12.207,0.0,0
1581435955.543,20.996,20.02,17.09,1.953,0.0,0
1581435955.5470002,31.738000000000003,26.855,69.824,2.441,0.0,0
1581435955.551,11.23,21.484,41.504,10.742,0.0,0
1581435955.553,-2.93,19.043,23.438000000000002,15.137,0.0,0
1581435955.5570002,19.531,24.901999999999997,54.688,12.695,0.0,0
1581435955.561,36.133,22.949,59.57,12.695,0.0,0
1581435955.565,14.16,19.043,31.738000000000003,12.207,0.0,0
1581435955.569,-4.883,20.02,18.555,13.184000000000001,0.0,0
1581435955.573,11.23,22.461,29.296999999999997,12.207,0.0,0
1581435955.5770001,28.32,27.344,34.18,4.395,0.0,0
1581435955.58,13.672,24.414,-1.953,7.324,0.0,0
1581435955.5839999,-8.301,22.949,-2.93,6.836,0.0,0
1581435955.5879998,-9.766,32.227,66.406,1.953,0.0,0
1581435955.592,15.625,29.785,71.777,4.395,0.0,0
1581435955.596,18.066,22.949,32.715,4.395,0.0,0
1581435955.5979998,-12.695,23.926,44.434,5.859,0.0,0
1581435955.6020002,-13.672,25.391,54.199,8.301,0.0,0
1581435955.606,19.531,24.901999999999997,39.551,10.254000000000001,0.0,0
1581435955.61,25.391,22.461,36.133,11.23,0.0,0
1581435955.6139998,1.465,19.043,36.133,9.766,0.0,0
1581435955.6179998,-2.441,19.531,24.414,18.066,0.0,0
1581435955.6220002,21.484,20.508000000000006,21.484,21.97300000000001,0.0,0
1581435955.625,34.18,17.578,6.348,15.137,0.0,0
1581435955.629,1.465,22.949,38.574,8.789,0.0,0
1581435955.633,-21.484,23.926,64.941,15.625,0.0,0
1581435955.637,0.488,20.02,38.086,21.97300000000001,0.0,0
1581435955.641,21.97300000000001,23.438000000000002,56.152,15.137,0.0,0
1581435955.643,14.16,21.97300000000001,65.43,10.254000000000001,0.0,0
1581435955.647,-6.348,23.926,63.477,10.254000000000001,0.0,0
1581435955.651,7.324,20.996,40.527,13.672,0.0,0
1581435955.655,32.227,17.578,29.785,15.137,0.0,0
1581435955.659,22.461,19.531,44.434,15.137,0.0,0
1581435955.6629999,-6.348,17.09,32.227,17.09,0.0,0
1581435955.667,-8.301,12.695,6.348,17.09,0.0,0
1581435955.67,12.695,14.648,-2.93,8.789,0.0,0
1581435955.674,15.137,21.97300000000001,54.199,1.953,0.0,0
1581435955.678,-10.254000000000001,21.484,66.406,6.836,0.0,0
1581435955.6820002,-22.949,18.555,31.25,11.719000000000001,0.0,0
1581435955.686,2.441,19.531,40.527,6.836,0.0,0
1581435955.688,22.461,22.949,47.852,4.395,0.0,0
1581435955.6920002,-1.465,21.484,34.668,11.719000000000001,0.0,0
1581435955.696,-25.391,23.438000000000002,38.574,18.066,0.0,0
1581435955.7,-6.836,25.391,50.78100000000001,20.508000000000006,0.0,0
1581435955.704,22.949,23.926,57.617,20.996,0.0,0
1581435955.708,21.484,19.043,41.504,25.391,0.0,0
1581435955.7120001,-2.441,13.184000000000001,-9.766,17.578,0.0,0
1581435955.715,-1.953,20.02,3.906,10.742,0.0,0
1581435955.7189999,25.391,26.855,72.75399999999998,17.09,0.0,0
1581435955.7229998,30.273000000000003,19.531,55.663999999999994,15.137,0.0,0
1581435955.7270002,7.812,20.02,25.879,13.672,0.0,0
1581435955.731,-2.441,23.438000000000002,38.086,14.648,0.0,0
1581435955.7329998,26.366999999999997,20.02,57.617,15.137,0.0,0
1581435955.7370002,35.645,15.625,47.852,16.602,0.0,0
1581435955.7410002,7.812,16.602,27.831999999999997,12.207,0.0,0
1581435955.745,-3.418,20.02,33.691,12.695,0.0,0
1581435955.7489998,20.996,20.02,49.805,20.508000000000006,0.0,0
1581435955.7529998,45.41,15.137,21.97300000000001,20.508000000000006,0.0,0
1581435955.7570002,33.203,12.207,5.859,19.531,0.0,0
1581435955.76,9.277000000000001,23.926,55.663999999999994,18.555,0.0,0
1581435955.764,19.531,22.949,62.5,25.879,0.0,0
1581435955.768,40.527,17.578,51.27,27.344,0.0,0
1581435955.772,30.273000000000003,20.996,49.316,24.901999999999997,0.0,0
1581435955.776,4.395,24.901999999999997,46.387,26.855,0.0,0
1581435955.792,12.207,23.926,40.039,18.066,0.0,0
1581435955.796,42.968999999999994,19.531,42.48,11.719000000000001,0.0,0
1581435955.8,45.898,17.578,45.41,11.23,0.0,0
1581435955.804,18.066,21.97300000000001,53.223,6.836,0.0,0
1581435955.8079998,6.348,23.438000000000002,38.574,8.301,0.0,0
1581435955.812,36.621,20.996,7.324,2.93,0.0,0
1581435955.816,56.64100000000001,20.508000000000006,1.953,2.441,0.0,0
1581435955.819,31.738000000000003,23.926,31.25,11.719000000000001,0.0,0
1581435955.823,-2.93,21.484,39.551,21.484,0.0,0
1581435955.8270001,4.883,15.137,3.418,27.831999999999997,0.0,0
1581435955.831,24.414,23.438000000000002,40.527,19.531,0.0,0
1581435955.835,4.883,26.366999999999997,66.406,19.531,0.0,0
1581435955.8370001,-15.625,18.066,26.366999999999997,25.879,0.0,0
1581435955.841,-6.836,15.625,28.809,21.484,0.0,0
1581435955.845,11.719000000000001,20.508000000000006,62.5,12.695,0.0,0
1581435955.849,0.0,18.555,53.71100000000001,7.812,0.0,0
1581435955.853,-28.809,13.672,18.066,9.277000000000001,0.0,0
1581435955.857,-22.461,13.672,-1.953,14.648,0.0,0
1581435955.861,9.277000000000001,16.602,15.625,13.184000000000001,0.0,0
1581435955.8639998,12.207,21.97300000000001,55.663999999999994,10.742,0.0,0
1581435955.8679998,-9.766,18.066,27.344,13.672,0.0,0
1581435955.8720002,-13.672,13.184000000000001,-9.766,13.672,0.0,0
1581435955.8760002,13.184000000000001,22.949,53.71100000000001,8.789,0.0,0
1581435955.88,24.901999999999997,26.366999999999997,72.266,10.742,0.0,0
1581435955.8820002,0.977,22.949,53.71100000000001,18.066,0.0,0
1581435955.8860002,-14.16,20.508000000000006,44.922,13.672,0.0,0
1581435955.89,1.953,20.996,47.852,8.301,0.0,0
1581435955.894,26.855,21.484,47.363,16.602,0.0,0
1581435955.8979998,11.23,18.555,34.668,20.996,0.0,0
1581435955.9020002,-17.578,12.207,14.648,20.02,0.0,0
1581435955.9060001,-8.301,18.066,20.02,17.09,0.0,0
1581435955.909,20.508000000000006,27.344,56.64100000000001,13.672,0.0,0
1581435955.9129999,23.438000000000002,17.09,17.578,12.207,0.0,0
1581435955.917,-7.324,18.555,19.043,12.207,0.0,0
1581435955.921,-8.301,28.32,72.266,23.438000000000002,0.0,0
1581435955.925,20.996,24.901999999999997,58.105,18.555,0.0,0
1581435955.927,21.484,20.996,31.738000000000003,7.324,0.0,0
1581435955.931,-6.836,21.484,38.574,7.324,0.0,0
1581435955.935,-14.648,22.461,40.039,7.324,0.0,0
1581435955.939,9.277000000000001,19.043,16.602,15.625,0.0,0
1581435955.9429998,21.484,19.043,23.438000000000002,13.672,0.0,0
1581435955.947,1.465,22.949,21.97300000000001,8.789,0.0,0
1581435955.951,-17.09,25.879,34.18,17.09,0.0,0
1581435955.954,5.371,22.461,36.621,23.926,0.0,0
1581435955.958,28.32,22.461,13.184000000000001,17.578,0.0,0
1581435955.9620001,15.625,31.738000000000003,58.593999999999994,13.184000000000001,0.0,2
1581435955.966,-10.742,28.809,65.918,21.97300000000001,0.0,0
1581435955.97,-12.695,23.926,41.504,23.926,0.0,0
1581435955.9720001,18.066,22.949,45.898,20.02,0.0,0
1581435955.976,24.414,23.438000000000002,59.57,23.438000000000002,0.0,0
1581435955.98,-1.465,23.438000000000002,51.27,19.043,0.0,0
1581435955.984,-8.789,18.555,37.598,18.066,0.0,0
1581435955.988,20.508000000000006,20.508000000000006,40.039,26.366999999999997,0.0,0
1581435955.992,32.715,23.926,46.387,21.484,0.0,0
1581435955.996,3.418,20.02,35.645,19.043,0.0,0
1581435955.9989998,-8.789,14.16,-10.742,17.578,0.0,0
1581435956.0029998,16.113,20.996,14.16,13.672,0.0,0
1581435956.0070002,41.01600000000001,31.738000000000003,79.102,19.531,0.0,0
1581435956.0110002,21.484,23.926,51.758,24.414,0.0,0
1581435956.015,-2.441,19.531,41.504,26.366999999999997,0.0,0
1581435956.0170002,6.836,23.926,61.035,17.09,0.0,0
1581435956.0210001,27.344,25.391,65.43,12.207,0.0,0
1581435956.025,27.344,22.949,42.968999999999994,17.09,0.0,0
1581435956.029,-1.465,19.043,27.344,14.648,0.0,0
1581435956.033,-0.488,20.02,44.922,14.16,0.0,0
1581435956.0370002,22.461,19.043,41.992,15.625,0.0,0
1581435956.0410001,22.949,14.648,7.324,12.695,0.0,0
1581435956.044,-1.465,17.09,4.395,5.371,0.0,0
1581435956.0479999,-11.23,27.344,68.359,4.395,0.0,0
1581435956.052,16.602,27.344,86.914,14.16,0.0,0
1581435956.056,34.668,21.97300000000001,52.733999999999995,13.184000000000001,0.0,0
1581435956.06,10.254000000000001,20.508000000000006,36.133,15.625,0.0,0
1581435956.062,-15.137,21.484,51.27,19.043,0.0,0
1581435956.066,3.418,21.484,53.71100000000001,17.578,0.0,0
1581435956.07,29.296999999999997,20.996,37.109,20.02,0.0,0
1581435956.074,16.602,20.02,31.25,22.461,0.0,0
1581435956.0779998,-14.16,20.02,51.758,26.366999999999997,0.0,0
1581435956.082,-6.836,17.09,36.133,29.785,0.0,0
1581435956.086,21.484,13.184000000000001,-20.02,28.809,0.0,0
1581435956.089,13.184000000000001,20.508000000000006,9.277000000000001,24.901999999999997,0.0,0
1581435956.093,-15.625,23.926,59.57,22.949,0.0,0
1581435956.0970001,-11.719000000000001,15.137,10.254000000000001,30.273000000000003,0.0,0
1581435956.101,19.531,18.555,15.625,34.18,0.0,0
1581435956.105,26.855,28.32,58.105,29.785,0.0,0
1581435956.1379998,0.0,26.855,61.035,29.785,0.0,0
1581435956.1420002,-14.16,18.066,30.761999999999997,30.273000000000003,0.0,0
1581435956.1460001,5.859,17.09,23.438000000000002,29.296999999999997,0.0,0
1581435956.15,15.625,21.484,54.199,23.926,0.0,0
1581435956.154,-3.418,20.996,51.27,26.855,0.0,0
1581435956.158,-12.695,14.16,-7.812,34.18,0.0,0
1581435956.1620002,2.93,13.672,-23.926,22.949,0.0,0
1581435956.165,22.461,23.926,37.598,20.02,0.0,0
1581435956.169,12.207,25.391,55.663999999999994,27.344,0.0,0
1581435956.1729999,-14.648,18.555,23.926,29.296999999999997,0.0,0
1581435956.177,-7.812,19.043,32.227,31.738000000000003,0.0,0
1581435956.181,23.926,21.484,33.203,27.831999999999997,0.0,0
1581435956.168,20.996,21.97300000000001,12.207,21.484,0.0,0
1581435956.1720002,-12.207,22.949,17.578,19.531,0.0,0
1581435956.176,-9.277000000000001,22.949,14.648,17.09,0.0,0
1581435956.18,22.461,30.273000000000003,33.691,13.672,0.0,0
1581435956.184,36.133,28.809,36.133,12.695,0.0,0
1581435956.188,8.301,20.996,7.324,18.555,0.0,0
1581435956.1920002,-19.531,23.438000000000002,7.324,17.09,0.0,0
1581435956.195,2.93,30.761999999999997,37.598,13.184000000000001,0.0,0
1581435956.199,25.879,29.296999999999997,34.18,8.789,0.0,0
1581435956.2029998,6.836,22.461,3.906,7.324,0.0,0
1581435956.207,-15.137,23.438000000000002,12.207,10.742,0.0,0
1581435956.211,-2.93,23.926,30.273000000000003,6.348,0.0,0
1581435956.2120001,18.066,18.555,8.301,5.371,0.0,0
1581435956.216,13.672,12.695,-17.09,6.348,0.0,0
1581435956.22,-10.254000000000001,15.625,-3.418,7.812,0.0,0
1581435956.224,-13.672,19.043,23.926,10.254000000000001,0.0,0
1581435956.228,15.137,20.02,32.227,9.277000000000001,0.0,0
1581435956.232,16.602,14.16,-2.93,15.137,0.0,0
1581435956.236,-16.113,13.184000000000001,1.465,17.09,0.0,0
1581435956.2389998,-19.043,20.508000000000006,48.34,15.137,0.0,0
1581435956.2429998,17.09,15.625,22.461,18.555,0.0,0
1581435956.2470002,35.156,14.16,-6.348,20.508000000000006,0.0,0
1581435956.2510002,9.277000000000001,24.414,58.105,23.926,0.0,0
1581435956.255,-14.16,19.043,64.453,26.366999999999997,0.0,0
1581435956.258,-1.953,14.648,34.18,18.555,0.0,0
1581435956.262,9.766,14.16,50.293,17.578,0.0,0
1581435956.266,-8.301,13.672,69.336,19.531,0.0,0
1581435956.27,-25.391,11.719000000000001,51.27,23.926,0.0,0
1581435956.274,-4.883,8.789,30.761999999999997,22.461,0.0,0
1581435956.2779999,16.113,7.812,25.391,20.02,0.0,0
1581435956.282,2.441,8.301,16.602,21.97300000000001,0.0,0
1581435956.285,-17.09,11.719000000000001,26.855,21.97300000000001,0.0,0
1581435956.289,-4.395,12.207,5.859,20.02,0.0,0
1581435956.293,20.02,15.137,17.578,12.207,0.0,0
1581435956.2970002,17.09,19.531,72.75399999999998,12.207,0.0,0
1581435956.301,-10.742,11.23,38.086,22.949,0.0,0
1581435956.303,-22.461,9.277000000000001,23.438000000000002,27.344,0.0,0
1581435956.3070002,1.953,16.113,49.805,19.531,0.0,0
1581435956.311,24.901999999999997,13.672,47.852,18.066,0.0,0
1581435956.315,4.883,8.789,29.296999999999997,29.296999999999997,0.0,0
1581435956.319,-16.602,8.301,5.859,30.761999999999997,0.0,0
1581435956.323,1.953,11.23,0.488,24.414,0.0,0
1581435956.3270001,21.97300000000001,16.602,34.668,21.97300000000001,0.0,0
1581435956.33,5.859,13.672,20.996,19.043,0.0,0
1581435956.3339999,-11.719000000000001,10.742,-14.16,14.648,0.0,0
1581435956.3379998,4.883,20.996,48.34,13.184000000000001,0.0,0
1581435956.342,28.809,19.531,57.617,20.508000000000006,0.0,0
1581435956.346,20.508000000000006,16.113,29.296999999999997,17.578,0.0,0
1581435956.3479998,-12.207,20.02,38.086,17.09,0.0,0
1581435956.3520002,-9.766,21.484,52.246,19.531,0.0,0
1581435956.356,26.855,18.555,49.316,19.043,0.0,0
1581435956.36,29.785,17.09,51.758,17.578,0.0,0
1581435956.3639998,2.93,15.137,36.133,19.531,0.0,0
1581435956.3679998,-3.418,14.648,6.348,19.531,0.0,0
1581435956.3720002,19.043,23.438000000000002,42.48,13.184000000000001,0.0,0
1581435956.375,27.344,20.996,29.296999999999997,9.277000000000001,0.0,0
1581435956.379,2.93,19.531,20.02,8.301,0.0,0
1581435956.383,-16.602,26.855,62.5,10.254000000000001,0.0,0
1581435956.387,-1.465,22.949,51.27,9.766,0.0,0
1581435956.391,20.02,19.043,29.785,7.812,0.0,0
1581435956.393,11.23,23.438000000000002,43.945,7.812,0.0,0
1581435956.397,-19.043,25.391,62.5,9.277000000000001,0.0,0
1581435956.401,-8.789,20.02,33.691,11.23,0.0,0
1581435956.405,30.761999999999997,20.02,30.761999999999997,11.719000000000001,0.0,0
1581435956.409,28.809,24.901999999999997,51.758,10.742,0.0,0
1581435956.4129999,-2.441,23.926,30.761999999999997,20.996,0.0,0
1581435956.417,-7.812,19.043,0.0,23.438000000000002,0.0,0
1581435956.42,17.578,19.531,-4.395,13.672,0.0,0
1581435956.424,24.901999999999997,28.809,47.363,2.441,0.0,0
1581435956.428,2.93,25.879,55.176,5.859,0.0,0
1581435956.4320002,-6.836,20.996,22.461,15.137,0.0,0
1581435956.436,20.02,24.414,27.344,14.648,0.0,0
1581435956.438,41.992,27.344,50.293,12.695,0.0,0
1581435956.4420002,18.555,25.391,46.387,11.719000000000001,0.0,0
1581435956.446,0.0,21.97300000000001,16.602,14.16,0.0,0
1581435956.45,17.09,23.438000000000002,24.901999999999997,18.555,0.0,0
1581435956.454,34.18,25.879,57.129,15.137,0.0,0
1581435956.458,17.09,20.996,34.18,18.066,0.0,0
1581435956.4620001,-10.254000000000001,13.672,-25.391,15.625,0.0,0
1581435956.465,-0.488,17.578,-1.465,6.836,0.0,0
1581435956.4689999,28.32,24.901999999999997,61.523,9.766,0.0,0
1581435956.4729998,28.809,22.461,46.387,12.207,0.0,0
1581435956.4770002,3.906,20.996,31.738000000000003,14.16,0.0,0
1581435956.481,-2.93,20.996,39.551,11.719000000000001,0.0,0
1581435956.4829998,21.97300000000001,18.066,42.968999999999994,8.789,0.0,0
1581435956.4870002,32.227,16.602,22.461,14.16,0.0,0
1581435956.4910002,12.207,17.578,8.789,12.207,0.0,0
1581435956.495,-5.859,24.414,53.223,12.207,0.0,0
1581435956.4989998,16.602,23.438000000000002,61.035,13.672,0.0,0
1581435956.5029998,32.715,13.184000000000001,9.766,11.719000000000001,0.0,0
1581435956.5070002,6.836,9.766,-8.301,9.277000000000001,0.0,0
1581435956.51,-18.066,20.508000000000006,45.41,8.789,0.0,0
1581435956.514,-8.789,24.414,64.453,9.766,0.0,0
1581435956.518,13.184000000000001,20.508000000000006,36.133,0.977,0.0,0
1581435956.522,1.953,23.926,40.039,-1.953,0.0,0
1581435956.526,-28.32,25.391,54.199,-2.441,0.0,0
1581435956.543,-32.227,24.414,51.27,-13.184000000000001,0.0,0
1581435956.5470002,-9.277000000000001,27.344,39.062,-20.02,0.0,0
1581435956.551,-20.996,27.831999999999997,53.223,-35.156,0.0,0
1581435956.555,-59.082,27.344,70.801,-38.574,0.0,0
1581435956.559,-62.988,27.344,51.758,-36.621,0.0,0
1581435956.563,-42.968999999999994,22.461,36.133,-45.898,0.0,0
1581435956.5670002,-40.527,28.809,47.852,-59.57,0.0,0
1581435956.57,-75.195,38.574,69.336,-78.613,0.0,0
1581435956.574,-107.42200000000001,35.156,32.227,-83.984,0.0,0
1581435956.5779998,-94.727,36.133,10.742,-85.93799999999996,0.0,0
1581435956.582,-81.543,37.598,50.78100000000001,-100.098,0.0,0
1581435956.586,-107.42200000000001,37.598,81.543,-107.42200000000001,0.0,0
1581435956.5879998,-126.465,36.621,58.593999999999994,-105.95700000000001,0.0,0
1581435956.592,-118.652,40.039,34.668,-120.117,0.0,0
1581435956.596,-100.098,47.363,52.246,-131.836,0.0,0
1581435956.6,-105.469,44.434,60.547,-125.0,0.0,0
1581435956.6039999,-144.043,41.504,40.527,-125.977,0.0,0
1581435956.6079998,-147.94899999999996,38.574,19.531,-131.34799999999998,0.0,0
1581435956.6120002,-116.699,40.527,35.156,-130.371,0.0,0
1581435956.615,-117.676,47.363,55.663999999999994,-133.30100000000002,0.0,0
1581435956.619,-144.531,39.551,17.578,-131.34799999999998,0.0,0
1581435956.623,-149.414,35.156,-9.766,-125.488,0.0,0
1581435956.627,-126.465,47.363,52.246,-135.254,0.0,0
1581435956.631,-103.516,49.316,57.617,-132.812,0.0,0
1581435956.633,-118.164,48.828,49.316,-118.164,0.0,0
1581435956.637,-141.602,42.968999999999994,48.828,-117.18799999999999,0.0,0
1581435956.641,-119.141,39.551,49.805,-109.863,0.0,0
1581435956.645,-86.426,38.086,52.246,-107.91,0.0,0
1581435956.649,-90.82,34.18,37.109,-100.098,0.0,0
1581435956.6529999,-111.816,34.668,25.391,-83.984,0.0,0
1581435956.657,-99.609,35.645,18.555,-80.078,0.0,0
1581435956.66,-63.477,34.668,43.945,-75.195,0.0,0
1581435956.664,-60.059,26.855,7.812,-75.195,0.0,0
1581435956.668,-77.148,33.203,14.648,-75.684,0.0,0
1581435956.6720002,-66.895,39.062,70.801,-61.035,0.0,0
1581435956.676,-32.715,24.901999999999997,36.621,-48.34,0.0,0
1581435956.678,-25.391,21.97300000000001,37.109,-38.574,0.0,0
1581435956.6820002,-46.875,29.785,51.758,-36.133,0.0,0
1581435956.686,-46.875,25.879,26.366999999999997,-30.273000000000003,0.0,0
1581435956.69,-6.348,19.043,33.203,-8.301,0.0,0
1581435956.694,24.414,17.09,38.086,2.441,0.0,0
1581435956.698,7.812,18.066,21.484,0.0,0.0,0
1581435956.7020001,2.93,23.926,33.203,5.371,0.0,0
1581435956.705,33.203,13.184000000000001,8.301,21.484,0.0,0
1581435956.7089999,58.105,2.441,-15.625,24.414,0.0,0
1581435956.7129998,52.733999999999995,15.625,41.992,24.901999999999997,0.0,0
1581435956.717,33.691,18.066,53.71100000000001,34.668,0.0,0
1581435956.721,54.688,11.23,27.344,35.156,0.0,0
1581435956.7229998,106.445,12.695,28.809,42.48,0.0,0
1581435956.7270002,110.84,14.648,31.25,55.176,0.0,0
1581435956.731,79.59,11.719000000000001,21.97300000000001,60.059,0.0,0
1581435956.735,88.867,10.742,12.207,67.383,0.0,0
1581435956.7389998,122.07,6.836,5.859,75.684,0.0,0
1581435956.7429998,125.0,6.348,17.09,92.285,0.0,0
1581435956.7470002,99.609,6.836,18.066,112.79299999999999,0.0,0
1581435956.75,90.33200000000001,0.488,-20.508000000000006,119.62899999999999,0.0,0
1581435956.754,111.32799999999999,5.859,2.441,117.676,0.0,0
1581435956.758,127.441,6.348,52.733999999999995,116.699,0.0,0
1581435956.762,110.84,-0.977,32.227,122.559,0.0,0
1581435956.766,93.262,4.395,20.02,125.0,0.0,0
1581435956.768,105.469,7.812,36.133,119.141,0.0,0
1581435956.772,124.023,6.348,46.875,120.605,0.0,0
1581435956.776,120.117,1.953,21.97300000000001,122.559,0.0,0
1581435956.78,97.656,3.418,9.277000000000001,126.465,0.0,0
1581435956.784,103.027,8.789,37.109,123.04700000000001,0.0,0
1581435956.7879999,126.465,5.859,29.296999999999997,117.676,0.0,0
1581435956.792,128.418,1.465,-0.977,118.652,0.0,0
1581435956.795,106.934,-1.953,-24.901999999999997,107.91,0.0,0
1581435956.799,93.75,4.395,19.531,104.00399999999999,0.0,0
1581435956.803,108.398,7.324,55.176,104.492,0.0,0
1581435956.8070002,115.723,4.883,33.691,101.074,0.0,0
1581435956.811,90.82,6.348,29.296999999999997,106.445,0.0,0
1581435956.812,70.312,10.254000000000001,44.434,103.027,0.0,0
1581435956.816,88.37899999999998,8.789,46.875,97.16799999999999,0.0,0
1581435956.82,108.398,4.395,36.621,95.70299999999999,0.0,0
1581435956.824,91.309,4.883,25.879,91.309,0.0,0
1581435956.8279998,70.801,10.742,34.18,87.891,0.0,0
1581435956.832,85.449,13.672,13.184000000000001,89.355,0.0,0
1581435956.836,108.398,8.301,-38.574,84.961,0.0,0
1581435956.839,98.145,12.695,-6.836,78.125,0.0,0
1581435956.843,62.988,19.043,46.875,76.66,0.0,0
1581435956.8470001,58.593999999999994,10.742,32.227,80.566,0.0,0
1581435956.851,86.426,7.324,5.859,79.102,0.0,0
1581435956.855,86.914,13.184000000000001,18.555,72.75399999999998,0.0,0
1581435956.8720002,56.152,18.555,58.105,72.75399999999998,0.0,0
1581435956.8760002,50.78100000000001,13.672,24.414,72.75399999999998,0.0,0
1581435956.88,77.637,10.254000000000001,0.0,70.312,0.0,0
1581435956.8839998,87.402,15.137,37.109,63.965,0.0,0
1581435956.8879998,58.593999999999994,14.16,47.852,61.523,0.0,0
1581435956.8920002,39.551,5.859,-1.953,68.359,0.0,0
1581435956.8960001,53.71100000000001,5.371,-21.484,64.941,0.0,0
1581435956.899,71.777,19.043,45.898,55.176,0.0,0
1581435956.9029999,53.71100000000001,21.484,60.059,55.176,0.0,0
1581435956.907,23.438000000000002,15.137,15.625,62.988,0.0,0
1581435956.911,38.086,17.09,21.484,62.988,0.0,0
1581435956.915,73.242,21.97300000000001,46.875,54.688,0.0,0
1581435956.917,70.801,17.09,36.621,57.617,0.0,0
1581435956.921,30.761999999999997,13.672,22.461,57.617,0.0,0
1581435956.925,21.484,17.09,23.438000000000002,54.688,0.0,0
1581435956.929,54.199,14.16,31.25,51.758,0.0,0
1581435956.9329998,60.059,11.719000000000001,36.133,51.27,0.0,0
1581435956.937,24.901999999999997,10.742,15.625,52.246,0.0,0
1581435956.941,16.113,15.137,18.066,51.27,0.0,0
1581435956.944,48.828,20.508000000000006,57.129,51.27,0.0,0
1581435956.948,59.57,18.555,53.223,49.316,0.0,0
1581435956.9520001,37.598,15.137,4.395,48.34,0.0,0
1581435956.956,20.508000000000006,18.066,12.695,44.434,0.0,0
1581435956.96,36.133,23.438000000000002,56.152,38.086,0.0,0
1581435956.9770002,58.593999999999994,20.508000000000006,40.039,35.645,0.0,0
1581435956.981,43.457,21.484,23.438000000000002,35.645,0.0,0
1581435956.985,14.648,24.414,43.945,33.691,0.0,0
1581435956.9889998,19.043,22.461,49.316,32.227,0.0,0
1581435956.9929998,42.968999999999994,19.531,31.25,28.809,0.0,1
1581435956.9970002,44.434,17.09,15.137,32.227,0.0,0
1581435957.0010002,17.578,21.484,33.203,34.18,0.0,0
1581435957.004,12.207,25.879,67.87100000000001,30.273000000000003,0.0,0
1581435957.008,38.574,14.648,23.438000000000002,38.086,0.0,0
1581435957.012,47.852,7.324,-10.254000000000001,34.18,0.0,0
1581435957.016,21.484,18.555,54.199,25.879,0.0,0
1581435957.02,6.836,25.879,66.895,29.785,0.0,0
1581435957.0070002,30.761999999999997,25.391,45.898,27.831999999999997,0.0,0
1581435957.0110002,46.875,21.97300000000001,33.691,30.273000000000003,0.0,0
1581435957.015,24.901999999999997,23.926,34.668,26.366999999999997,0.0,0
1581435957.019,2.441,24.414,30.273000000000003,21.97300000000001,0.0,0
1581435957.0229998,18.555,20.508000000000006,9.766,27.344,0.0,0
1581435957.0270002,43.945,20.508000000000006,4.395,25.391,0.0,0
1581435957.0310001,26.366999999999997,24.901999999999997,22.949,22.949,0.0,0
1581435957.034,-5.371,24.901999999999997,25.879,21.484,0.0,0
1581435957.0379999,-5.859,20.02,17.09,20.996,0.0,0
1581435957.042,22.461,23.438000000000002,42.48,20.02,0.0,0
1581435957.046,23.438000000000002,28.809,57.129,18.066,0.0,0
1581435957.05,-3.418,19.531,26.366999999999997,20.02,0.0,0
1581435957.052,-1.953,9.766,-28.32,18.066,0.0,0
1581435957.056,23.926,20.996,2.441,15.625,0.0,0
1581435957.06,37.109,24.901999999999997,39.551,24.901999999999997,0.0,0
1581435957.064,14.648,18.555,20.02,29.785,0.0,0
1581435957.0679998,-4.395,17.09,5.859,25.879,0.0,0
1581435957.072,18.066,18.555,14.648,23.438000000000002,0.0,0
1581435957.076,36.621,19.043,21.97300000000001,23.438000000000002,0.0,0
1581435957.079,18.555,18.066,-10.254000000000001,22.949,0.0,0
1581435957.083,-4.395,18.066,-27.344,25.879,0.0,0
1581435957.0870001,-1.953,23.438000000000002,27.831999999999997,20.02,0.0,0
1581435957.091,23.926,24.901999999999997,41.504,20.02,0.0,0
1581435957.095,23.926,21.97300000000001,28.32,24.901999999999997,0.0,0
1581435957.0970001,-4.883,18.555,34.18,20.508000000000006,0.0,0
1581435957.101,-6.348,17.578,44.922,20.02,0.0,0
1581435957.105,11.23,16.113,38.574,16.113,0.0,0
1581435957.109,11.23,16.602,34.668,8.301,0.0,0
1581435957.113,-5.371,20.02,49.805,10.254000000000001,0.0,0
1581435957.117,-19.531,19.531,36.133,13.184000000000001,0.0,0
1581435957.121,5.859,19.043,23.438000000000002,18.555,0.0,0
1581435957.1239998,28.32,13.184000000000001,-8.301,15.625,0.0,0
1581435957.1279998,3.906,14.648,1.465,7.812,0.0,0
1581435957.1320002,-14.648,24.414,49.805,12.695,0.0,0
1581435957.1360002,3.418,21.484,41.01600000000001,15.137,0.0,0
1581435957.14,25.879,18.066,27.831999999999997,22.461,0.0,0
1581435957.1420002,15.625,23.926,55.176,21.484,0.0,0
1581435957.1460001,-6.836,18.555,33.203,21.97300000000001,0.0,0
1581435957.15,-1.953,13.184000000000001,9.277000000000001,31.738000000000003,0.0,0
1581435957.154,29.785,19.531,36.133,25.879,0.0,0
1581435957.158,29.785,22.461,45.898,21.97300000000001,0.0,0
1581435957.1620002,-2.93,19.043,25.391,22.461,0.0,0
1581435957.1660001,-5.371,10.742,-10.254000000000001,22.949,0.0,0
1581435957.169,18.066,10.254000000000001,-11.23,21.484,0.0,0
1581435957.1729999,28.809,20.996,43.945,17.09,0.0,0
1581435957.177,3.906,23.438000000000002,67.383,22.461,0.0,0
1581435957.181,-8.789,18.555,49.316,19.531,0.0,0
1581435957.185,13.672,18.555,55.176,14.16,0.0,0
1581435957.187,20.996,22.461,63.477,19.531,0.0,0
1581435957.191,-1.953,20.996,48.34,18.066,0.0,0
1581435957.195,-19.043,16.113,21.484,19.043,0.0,0
1581435957.199,-2.441,20.508000000000006,21.97300000000001,11.719000000000001,0.0,0
1581435957.2029998,24.414,24.414,34.18,8.789,0.0,0
1581435957.207,15.625,19.531,25.879,21.484,0.0,0
1581435957.211,-11.719000000000001,12.695,-24.414,25.879,0.0,0
1581435957.214,-3.906,17.578,-9.277000000000001,20.508000000000006,0.0,0
1581435957.218,18.555,25.879,63.477,11.719000000000001,0.0,0
1581435957.2220001,13.672,22.949,55.176,13.672,0.0,0
1581435957.226,-18.555,20.508000000000006,26.366999999999997,20.508000000000006,0.0,0
1581435957.23,-19.043,22.949,36.133,21.484,0.0,0
1581435957.248,12.695,25.879,55.663999999999994,20.508000000000006,0.0,0
1581435957.252,16.113,23.926,37.598,18.555,0.0,0
1581435957.256,-10.254000000000001,23.438000000000002,23.926,22.461,0.0,0
1581435957.26,-19.531,27.344,38.086,25.391,0.0,0
1581435957.264,4.883,24.901999999999997,45.41,16.602,0.0,0
1581435957.268,19.531,19.531,12.695,18.066,0.0,0
1581435957.272,1.953,18.066,-11.719000000000001,11.23,0.0,0
1581435957.275,-20.996,23.438000000000002,31.25,6.348,0.0,0
1581435957.279,-14.648,29.785,54.688,15.625,0.0,0
1581435957.283,5.859,26.366999999999997,36.621,14.16,0.0,0
1581435957.2870002,-3.906,22.949,40.039,10.742,0.0,0
1581435957.2910001,-30.273000000000003,25.391,62.5,9.766,0.0,0
1581435957.293,-23.926,22.949,47.852,11.23,0.0,0
1581435957.2970002,9.277000000000001,21.484,35.156,15.625,0.0,0
1581435957.301,9.766,22.949,56.64100000000001,13.672,0.0,0
1581435957.305,-15.137,23.926,64.453,9.766,0.0,0
1581435957.309,-20.508000000000006,20.996,50.293,13.184000000000001,0.0,0
1581435957.313,6.348,18.555,22.461,14.648,0.0,0
1581435957.3170002,22.949,19.531,7.812,16.602,0.0,0
1581435957.32,1.953,22.461,33.691,20.02,0.0,0
1581435957.324,-9.766,22.461,56.64100000000001,22.461,0.0,0
1581435957.3279998,17.09,12.207,0.977,20.996,0.0,0
1581435957.332,30.761999999999997,19.531,13.184000000000001,16.113,0.0,0
1581435957.336,9.766,28.809,65.43,16.602,0.0,0
1581435957.3379998,-8.301,21.97300000000001,38.574,22.461,0.0,0
1581435957.342,5.859,21.97300000000001,34.668,27.831999999999997,0.0,0
1581435957.346,31.25,25.391,50.293,19.531,0.0,0
1581435957.35,22.461,22.949,51.758,17.578,0.0,0
1581435957.3539999,0.977,19.043,32.227,22.461,0.0,0
1581435957.3579998,9.277000000000001,19.043,12.207,22.461,0.0,0
1581435957.3620002,32.227,23.438000000000002,24.901999999999997,16.602,0.0,0
1581435957.365,28.32,25.391,53.223,4.395,0.0,0
1581435957.369,-2.441,20.996,31.25,9.766,0.0,0
1581435957.373,-14.16,18.066,-2.441,20.508000000000006,0.0,0
1581435957.377,9.766,24.901999999999997,41.01600000000001,13.672,0.0,0
1581435957.381,24.901999999999997,26.366999999999997,65.43,12.207,0.0,0
1581435957.383,1.465,23.926,41.992,15.625,0.0,0
1581435957.387,-10.254000000000001,24.414,19.531,15.625,0.0,0
1581435957.391,18.066,27.831999999999997,50.78100000000001,14.648,0.0,0
1581435957.395,45.898,26.366999999999997,57.617,15.625,0.0,0
1581435957.399,35.156,27.831999999999997,41.992,20.02,0.0,0
1581435957.4029999,9.277000000000001,23.438000000000002,17.09,18.066,0.0,0
1581435957.407,9.277000000000001,20.508000000000006,16.602,17.578,0.0,0
1581435957.41,27.344,27.831999999999997,61.523,14.648,0.0,0
1581435957.414,30.273000000000003,21.484,21.97300000000001,14.16,0.0,0
1581435957.418,2.441,19.043,11.719000000000001,18.066,0.0,0
1581435957.4220002,-8.789,26.366999999999997,78.613,15.137,0.0,0
1581435957.426,19.043,20.508000000000006,62.988,9.766,0.0,0
1581435957.428,29.296999999999997,17.09,36.621,10.742,0.0,0
1581435957.4320002,8.789,23.438000000000002,37.598,14.648,0.0,0
1581435957.436,-5.371,25.391,41.504,15.137,0.0,0
1581435957.44,22.461,21.484,26.855,16.113,0.0,0
1581435957.444,44.434,23.926,15.625,19.531,0.0,0
1581435957.448,22.949,28.32,32.227,21.484,0.0,0
1581435957.4520001,7.812,27.344,38.086,20.996,0.0,0
1581435957.455,24.414,20.02,13.672,20.996,0.0,0
1581435957.4589999,47.852,20.508000000000006,6.348,14.16,0.0,0
1581435957.4629998,36.133,31.25,68.359,10.742,0.0,0
1581435957.467,11.719000000000001,29.785,64.941,15.625,0.0,0
1581435957.471,13.184000000000001,25.879,32.715,13.672,0.0,0
1581435957.4729998,42.968999999999994,24.414,36.621,12.695,0.0,0
1581435957.4770002,49.805,28.32,52.246,15.625,0.0,0
1581435957.481,19.531,29.296999999999997,49.316,23.926,0.0,0
1581435957.485,14.648,24.414,34.668,25.879,0.0,0
1581435957.4889998,39.062,22.461,41.504,16.113,0.0,0
1581435957.4929998,46.387,20.02,36.621,15.625,0.0,0
1581435957.4970002,19.531,19.531,19.531,24.414,0.0,0
1581435957.5,5.859,20.02,-16.113,23.438000000000002,0.0,0
1581435957.504,29.785,24.414,13.672,15.137,0.0,0
1581435957.508,43.457,30.273000000000003,73.73,11.719000000000001,0.0,0
1581435957.512,23.926,22.949,47.363,16.602,0.0,0
1581435957.516,-0.488,15.137,16.602,20.02,0.0,0
1581435957.518,10.742,20.508000000000006,39.062,16.602,0.0,0
1581435957.522,41.992,23.926,70.312,12.695,0.0,0
1581435957.526,41.01600000000001,17.578,37.598,15.625,0.0,0
1581435957.53,7.812,19.043,18.555,17.09,0.0,0
1581435957.534,0.488,23.926,43.945,16.602,0.0,0
1581435957.5379999,34.18,18.555,26.366999999999997,19.043,0.0,0
1581435957.542,31.738000000000003,10.254000000000001,-10.254000000000001,19.531,0.0,0
1581435957.545,1.465,14.648,-8.789,20.02,0.0,0
1581435957.549,3.418,25.391,54.688,14.16,0.0,0
1581435957.553,29.296999999999997,22.949,53.71100000000001,9.766,0.0,0
1581435957.5570002,36.621,19.043,24.414,11.719000000000001,0.0,0
1581435957.561,12.695,22.949,48.828,12.695,0.0,0
1581435957.563,2.441,26.366999999999997,57.129,14.16,0.0,0
1581435957.5670002,20.996,26.366999999999997,57.129,14.648,0.0,0
1581435957.571,43.457,22.461,43.945,12.695,0.0,0
1581435957.575,33.203,20.508000000000006,27.831999999999997,13.672,0.0,0
1581435957.579,7.324,22.949,33.691,12.695,0.0,0
1581435957.583,15.137,19.043,22.949,17.578,0.0,0
1581435957.5870001,39.062,13.184000000000001,-9.766,13.672,0.0,0
1581435957.59,22.949,20.02,8.301,4.395,0.0,0
1581435957.5939999,-0.977,28.32,52.733999999999995,8.789,0.0,0
1581435957.5979998,7.812,24.414,38.086,5.859,0.0,0
1581435957.6020002,31.25,21.97300000000001,37.598,6.348,0.0,0
1581435957.606,33.203,23.926,46.387,6.836,0.0,0
1581435957.623,13.672,22.949,36.133,3.906,0.0,0
1581435957.627,2.93,17.578,23.926,7.812,0.0,0
1581435957.631,24.414,18.066,18.555,13.672,0.0,0
1581435957.635,32.715,21.97300000000001,28.32,12.207,0.0,0
1581435957.639,4.395,18.555,33.203,7.324,0.0,0
1581435957.643,-9.277000000000001,15.625,-8.301,9.277000000000001,0.0,0
1581435957.647,14.16,16.602,-20.508000000000006,8.301,0.0,0
1581435957.65,27.344,25.879,43.945,0.977,0.0,0
1581435957.654,11.23,27.831999999999997,62.012,2.93,0.0,0
1581435957.658,-11.23,21.484,28.809,8.789,0.0,0
1581435957.6620002,0.488,20.508000000000006,28.809,2.93,0.0,0
1581435957.6660001,30.761999999999997,24.901999999999997,44.922,-6.348,0.0,0
1581435957.668,27.344,26.855,40.527,-6.836,0.0,0
1581435957.6720002,6.348,26.855,32.227,-7.812,0.0,0
1581435957.676,9.766,30.761999999999997,45.41,-11.23,0.0,0
1581435957.68,38.086,32.715,51.758,-8.789,0.0,0
1581435957.684,45.41,31.25,37.598,-10.254000000000001,0.0,0
1581435957.688,8.301,28.809,23.438000000000002,-14.648,0.0,0
1581435957.6920002,-20.996,26.855,30.273000000000003,-14.648,0.0,0
1581435957.695,-11.23,31.738000000000003,71.777,-14.648,0.0,0
1581435957.699,-9.277000000000001,32.715,72.266,-20.508000000000006,0.0,0
1581435957.7029998,-43.457,24.901999999999997,10.742,-28.32,0.0,0
1581435957.707,-77.148,29.785,19.043,-39.551,0.0,0
1581435957.711,-70.312,37.598,87.891,-50.293,0.0,0
1581435957.7129998,-57.617,30.761999999999997,74.219,-62.988,0.0,0
1581435957.717,-74.219,24.901999999999997,42.968999999999994,-73.73,0.0,0
1581435957.721,-104.492,29.785,62.988,-75.684,0.0,0
1581435957.725,-106.445,31.25,78.613,-84.473,0.0,0
1581435957.7289999,-88.867,24.901999999999997,55.176,-96.191,0.0,0
1581435957.7329998,-91.79700000000001,22.949,20.508000000000006,-96.68,0.0,0
1581435957.7370002,-114.258,31.738000000000003,30.761999999999997,-94.238,0.0,0
1581435957.74,-118.652,33.691,62.5,-98.633,0.0,0
1581435957.744,-86.914,25.391,41.504,-96.191,0.0,0
1581435957.748,-69.336,25.391,35.645,-86.914,0.0,0
1581435957.752,-91.309,30.273000000000003,78.125,-84.473,0.0,0
1581435957.756,-88.867,33.203,78.613,-73.242,0.0,0
1581435957.758,-54.199,31.25,65.43,-60.547,0.0,0
1581435957.762,-39.062,27.344,60.059,-62.988,0.0,0
1581435957.766,-48.34,27.344,59.57,-47.363,0.0,0
1581435957.77,-62.012,23.438000000000002,56.64100000000001,-31.25,0.0,0
1581435957.774,-36.133,20.508000000000006,45.41,-31.738000000000003,0.0,0
1581435957.7779999,2.93,20.02,35.156,-17.578,0.0,0
1581435957.782,-9.766,22.461,46.387,-12.207,0.0,0
1581435957.785,-24.414,23.926,54.199,-7.812,0.0,0
1581435957.789,0.488,17.09,-2.93,7.324,0.0,0
1581435957.793,28.809,18.066,-0.488,8.301,0.0,0
1581435957.7970002,33.691,24.414,77.637,13.672,0.0,0
1581435957.801,20.02,20.996,56.64100000000001,25.879,0.0,0
1581435957.803,23.926,19.043,28.32,35.645,0.0,0
1581435957.8070002,54.688,20.996,53.223,40.527,0.0,0
1581435957.811,66.895,22.949,55.176,48.34,0.0,0
1581435957.815,45.898,16.602,21.97300000000001,62.5,0.0,0
1581435957.819,30.761999999999997,12.207,8.301,62.5,0.0,0
1581435957.823,56.152,16.602,11.719000000000001,64.941,0.0,0
1581435957.8270001,76.66,18.555,30.273000000000003,65.43,0.0,0
1581435957.83,55.176,8.789,19.043,62.5,0.0,0
1581435957.8339999,39.551,4.883,-10.254000000000001,62.5,0.0,0
1581435957.8379998,58.105,19.531,50.293,57.129,0.0,0
1581435957.842,85.449,20.02,66.406,62.012,0.0,0
1581435957.846,81.543,10.254000000000001,29.785,64.453,0.0,0
1581435957.8479998,44.922,8.301,13.184000000000001,60.059,0.0,0
1581435957.8520002,42.968999999999994,17.09,45.898,62.5,0.0,0
1581435957.856,77.637,18.555,59.57,64.453,0.0,0
1581435957.86,81.543,15.625,49.805,67.383,0.0,0
1581435957.8639998,58.105,13.184000000000001,42.48,66.406,0.0,0
1581435957.8679998,49.805,9.766,29.296999999999997,63.965,0.0,0
1581435957.8720002,74.219,10.254000000000001,20.508000000000006,66.895,0.0,0
1581435957.875,88.867,9.277000000000001,-3.418,65.918,0.0,0
1581435957.879,62.5,14.648,32.227,61.523,0.0,0
1581435957.883,48.828,19.531,78.613,53.71100000000001,0.0,0
1581435957.887,69.824,11.23,48.828,55.663999999999994,0.0,0
1581435957.891,85.449,9.277000000000001,39.551,59.57,0.0,0
1581435957.893,66.895,16.602,59.082,58.105,0.0,0
1581435957.897,42.968999999999994,17.578,66.406,61.523,0.0,0
1581435957.901,50.78100000000001,10.742,36.133,53.71100000000001,0.0,0
1581435957.905,70.312,9.766,10.254000000000001,45.41,0.0,0
1581435957.909,67.87100000000001,19.043,35.156,51.27,0.0,0
1581435957.9129999,46.875,19.043,26.855,55.663999999999994,0.0,0
1581435957.917,37.109,13.184000000000001,2.441,55.663999999999994,0.0,0
1581435957.92,56.64100000000001,14.16,15.137,41.504,0.0,0
1581435957.924,63.965,20.02,57.617,33.203,0.0,0
1581435957.928,50.293,18.555,67.383,44.922,0.0,0
1581435957.9320002,39.062,17.578,42.968999999999994,51.758,0.0,0
1581435957.936,49.805,18.066,31.25,53.223,0.0,0
1581435957.938,62.988,19.043,50.78100000000001,39.062,0.0,0
1581435957.9420002,44.434,15.625,45.41,38.086,0.0,0
1581435957.946,25.391,14.648,32.227,50.293,0.0,0
1581435957.95,37.598,21.484,46.875,41.992,0.0,0
1581435957.954,57.617,20.02,47.363,39.551,0.0,0
1581435957.958,48.828,16.113,28.32,44.922,0.0,0
1581435957.9620001,25.391,13.672,-9.766,43.457,0.0,0
1581435957.965,27.831999999999997,12.695,-3.418,36.133,0.0,0
1581435957.9689999,49.316,22.461,60.059,32.227,0.0,0
1581435957.9729998,44.434,24.901999999999997,55.176,36.621,0.0,0
1581435957.9770002,19.043,17.09,29.785,36.133,0.0,0
1581435957.981,10.742,20.02,42.48,36.621,0.0,0
1581435957.9970002,35.156,25.879,58.593999999999994,36.621,0.0,0
1581435958.0010002,51.758,22.949,34.668,36.133,0.0,0
1581435958.005,23.926,20.508000000000006,17.09,40.527,0.0,0
1581435958.0089998,8.301,22.949,39.551,35.645,0.0,0
1581435958.0129998,33.691,22.949,51.758,31.25,0.0,0
1581435958.0170002,45.898,18.555,18.555,38.574,0.0,0
1581435958.0210001,24.414,16.602,-12.695,33.203,0.0,0
1581435958.024,0.977,22.949,37.598,30.273000000000003,0.0,0
1581435958.0279999,20.02,26.366999999999997,58.593999999999994,28.809,0.0,0
1581435958.032,44.434,21.97300000000001,27.344,27.344,0.0,0
1581435958.036,22.461,19.043,33.203,31.25,0.0,0
1581435958.04,-7.812,19.043,49.316,27.831999999999997,0.0,0
1581435958.042,8.301,19.531,44.434,22.461,0.0,0
1581435958.046,36.621,20.02,33.203,22.949,0.0,0
1581435958.05,26.855,21.484,47.852,27.831999999999997,0.0,0
1581435958.054,0.977,22.949,51.758,28.32,0.0,0
1581435958.0579998,1.953,20.508000000000006,38.574,28.809,0.0,0
1581435958.062,30.273000000000003,16.113,13.672,27.831999999999997,0.0,0
1581435958.066,35.156,15.625,6.836,16.602,0.0,0
1581435958.069,8.301,20.02,35.156,15.137,0.0,0
1581435958.073,-5.371,21.97300000000001,37.598,20.996,0.0,0
1581435958.0770001,19.043,13.672,-5.371,19.043,0.0,0
1581435958.081,38.086,15.625,11.23,13.184000000000001,0.0,0
1581435958.085,20.996,22.949,47.363,13.184000000000001,0.0,0
1581435958.0870001,-2.441,18.066,13.672,22.461,0.0,0
1581435958.091,7.812,19.043,21.484,24.414,0.0,0
1581435958.095,31.25,20.996,52.733999999999995,22.461,0.0,0
1581435958.099,25.391,20.02,45.41,25.391,0.0,0
1581435958.103,4.883,20.02,21.97300000000001,24.901999999999997,0.0,0
1581435958.107,10.254000000000001,17.09,3.906,26.855,0.0,0
1581435958.111,34.668,20.508000000000006,18.066,26.366999999999997,0.0,0
1581435958.1139998,33.691,28.809,54.688,20.996,0.0,0
1581435958.1179998,8.789,20.508000000000006,23.926,23.438000000000002,0.0,0
1581435958.1220002,2.93,16.113,-13.672,17.578,0.0,0
1581435958.1260002,29.785,28.32,40.039,9.766,0.0,0
1581435958.13,40.527,27.344,60.059,13.672,0.0,0
1581435958.1320002,12.207,20.996,38.086,13.184000000000001,0.0,0
1581435958.1360002,-14.648,22.461,36.621,10.742,0.0,2
1581435958.14,6.348,21.97300000000001,32.227,13.184000000000001,0.0,0
1581435958.144,31.25,19.043,32.715,14.648,0.0,0
1581435958.1479998,13.184000000000001,20.508000000000006,30.273000000000003,15.137,0.0,0
1581435958.1520002,-3.418,15.625,12.207,21.97300000000001,0.0,0
1581435958.1560001,11.23,16.113,26.855,21.97300000000001,0.0,0
1581435958.159,33.203,20.508000000000006,54.688,20.02,0.0,0
1581435958.1629999,27.344,16.602,24.414,21.484,0.0,0
1581435958.167,4.395,20.02,19.531,17.09,0.0,0
1581435958.171,7.812,22.461,54.199,17.578,0.0,0
1581435958.175,26.366999999999997,16.602,31.25,20.996,0.0,0
1581435958.178,26.366999999999997,18.066,26.855,18.555,0.0,0
1581435958.1820002,2.93,22.949,29.785,17.09,0.0,0
1581435958.186,-6.836,23.926,37.598,20.508000000000006,0.0,0
1581435958.19,17.09,20.508000000000006,27.344,20.02,0.0,0
1581435958.194,26.366999999999997,19.043,8.789,20.508000000000006,0.0,0
1581435958.198,6.836,19.043,7.324,20.02,0.0,0
1581435958.2020001,-9.766,17.09,16.113,18.066,0.0,0
1581435958.205,5.371,12.695,6.348,18.066,0.0,0
1581435958.2089999,24.901999999999997,15.625,2.93,15.137,0.0,0
1581435958.2129998,10.742,27.831999999999997,58.105,10.742,0.0,0
1581435958.217,-11.719000000000001,25.879,62.5,13.672,0.0,0
1581435958.221,-0.977,20.996,33.691,19.043,0.0,0
1581435958.2220001,22.949,22.949,35.645,14.648,0.0,0
1581435958.226,17.09,26.366999999999997,54.688,12.695,0.0,0
1581435958.23,-4.883,22.461,37.598,17.578,0.0,0
1581435958.234,1.465,19.531,15.625,17.09,0.0,0
1581435958.238,21.97300000000001,23.438000000000002,28.809,16.113,0.0,0
1581435958.242,23.926,20.996,20.996,17.578,0.0,0
1581435958.246,1.953,17.09,6.836,25.391,0.0,0
1581435958.2489998,-9.766,13.672,-15.137,25.879,0.0,0
1581435958.2529998,13.672,18.555,3.418,18.555,0.0,0
1581435958.2570002,31.25,24.414,57.617,16.113,0.0,0
1581435958.2610002,20.996,22.461,52.733999999999995,16.113,0.0,0
1581435958.265,3.906,23.438000000000002,33.691,17.578,0.0,0
1581435958.2670002,6.836,25.879,41.992,17.578,0.0,0
1581435958.2710001,24.414,24.414,40.039,13.672,0.0,0
1581435958.275,10.742,21.97300000000001,27.831999999999997,10.254000000000001,0.0,0
1581435958.279,-10.254000000000001,21.484,24.901999999999997,16.113,0.0,0
1581435958.283,4.883,22.949,37.109,18.066,0.0,0
1581435958.2870002,32.227,19.043,17.09,19.531,0.0,0
1581435958.2910001,26.366999999999997,15.625,-0.977,26.366999999999997,0.0,0
1581435958.294,0.0,13.672,-12.695,19.531,0.0,0
1581435958.2979999,4.395,22.461,32.227,16.113,0.0,0
1581435958.302,32.227,25.391,46.875,24.901999999999997,0.0,0
1581435958.306,33.691,23.926,30.273000000000003,20.996,0.0,0
1581435958.31,5.371,23.438000000000002,27.831999999999997,17.09,0.0,0
1581435958.312,-8.301,20.508000000000006,26.855,19.531,0.0,0
1581435958.316,12.695,19.043,25.879,17.09,0.0,0
1581435958.32,30.761999999999997,20.508000000000006,17.09,12.695,0.0,0
1581435958.324,12.695,22.461,31.25,12.695,0.0,0
1581435958.3279998,-8.301,22.949,36.621,14.648,0.0,0
1581435958.332,9.766,21.484,5.371,19.043,0.0,0
1581435958.336,39.551,11.23,-34.18,16.113,0.0,0
1581435958.339,30.273000000000003,17.578,-2.93,7.324,0.0,0
1581435958.343,2.441,25.879,48.828,9.277000000000001,0.0,0
1581435958.3470001,6.836,20.02,38.574,15.625,0.0,0
1581435958.351,33.691,19.531,36.621,17.09,0.0,0
1581435958.355,34.18,15.625,28.809,14.16,0.0,0
1581435958.3579998,4.395,15.625,32.227,17.09,0.0,0
1581435958.3620002,-4.395,16.113,41.992,19.531,0.0,0
1581435958.3660002,24.901999999999997,12.695,9.277000000000001,20.996,0.0,0
1581435958.37,39.062,18.066,18.555,21.484,0.0,0
1581435958.3739998,15.625,22.949,57.617,19.043,0.0,0
1581435958.3779998,0.488,14.16,21.97300000000001,24.901999999999997,0.0,0
1581435958.3820002,23.438000000000002,14.648,-1.953,22.949,0.0,0
1581435958.385,39.062,23.926,51.27,9.766,0.0,0
1581435958.389,14.648,25.879,73.242,11.23,0.0,0
1581435958.393,-5.371,20.02,25.391,19.043,0.0,0
1581435958.397,7.324,12.207,-15.137,11.719000000000001,0.0,0
1581435958.401,28.32,19.043,43.457,4.883,0.0,0
1581435958.418,20.02,23.438000000000002,70.801,11.23,0.0,0
1581435958.4220002,-14.648,19.043,30.761999999999997,18.066,0.0,0
1581435958.426,-13.672,21.484,26.366999999999997,19.531,0.0,0
1581435958.43,13.672,25.879,54.688,15.625,0.0,0
1581435958.434,17.09,25.391,51.27,6.836,0.0,0
1581435958.438,-6.836,18.555,13.184000000000001,9.766,0.0,0
1581435958.4420002,-15.625,18.555,10.742,17.09,0.0,0
1581435958.445,10.254000000000001,26.366999999999997,52.733999999999995,14.16,0.0,0
1581435958.449,22.949,23.438000000000002,55.663999999999994,13.184000000000001,0.0,0
1581435958.4529998,-0.488,15.625,-1.953,9.277000000000001,0.0,0
1581435958.457,-13.184000000000001,18.555,9.766,9.277000000000001,0.0,0
1581435958.461,10.742,23.438000000000002,53.223,15.625,0.0,0
1581435958.4629998,27.344,18.555,40.527,17.578,0.0,0
1581435958.467,5.859,19.043,35.645,19.043,0.0,0
1581435958.471,-13.672,22.949,38.086,13.184000000000001,0.0,0
1581435958.475,-0.488,24.414,46.387,11.719000000000001,0.0,0
1581435958.4789999,16.113,19.043,38.574,17.578,0.0,0
1581435958.4829998,14.16,8.301,3.418,19.531,0.0,0
1581435958.4870002,-6.836,15.137,10.254000000000001,20.02,0.0,0
1581435958.49,-12.207,23.438000000000002,45.41,10.254000000000001,0.0,0
1581435958.494,14.648,12.207,14.16,12.695,0.0,0
1581435958.498,25.879,11.23,-5.371,14.16,0.0,0
1581435958.502,0.977,20.996,60.059,6.348,0.0,0
1581435958.506,-9.277000000000001,18.555,58.593999999999994,10.742,0.0,0
1581435958.508,16.602,18.555,29.785,2.441,0.0,0
1581435958.512,40.039,24.901999999999997,40.527,-1.465,0.0,0
1581435958.516,30.761999999999997,27.344,50.293,7.324,0.0,0
1581435958.52,16.602,22.949,34.18,6.836,0.0,0
1581435958.524,29.785,21.97300000000001,26.366999999999997,11.23,0.0,0
1581435958.5279999,39.551,20.996,23.438000000000002,18.066,0.0,0
1581435958.532,14.16,21.97300000000001,28.809,23.438000000000002,0.0,0
1581435958.535,-17.578,24.901999999999997,48.828,30.761999999999997,0.0,0
1581435958.539,-2.93,16.602,12.695,33.203,0.0,0
1581435958.543,29.296999999999997,19.531,13.672,30.761999999999997,0.0,0
1581435958.5470002,16.113,27.831999999999997,64.941,22.461,0.0,0
1581435958.551,-11.23,20.02,39.062,25.391,0.0,0
1581435958.553,-9.766,19.531,24.414,30.273000000000003,0.0,0
1581435958.5570002,14.16,25.879,50.293,18.066,0.0,0
1581435958.561,23.438000000000002,23.926,65.918,15.625,0.0,0
1581435958.565,4.395,18.066,34.668,19.043,0.0,0
1581435958.569,-7.324,17.09,10.254000000000001,23.926,0.0,0
1581435958.573,17.578,19.531,25.879,26.366999999999997,0.0,0
1581435958.5770001,35.645,21.484,31.25,21.484,0.0,0
1581435958.58,15.137,18.555,9.766,25.391,0.0,0
1581435958.5839999,2.441,20.508000000000006,2.93,13.672,0.0,0
1581435958.5879998,16.113,28.32,59.082,5.859,0.0,0
1581435958.592,38.086,26.855,61.523,15.137,0.0,0
1581435958.596,25.879,21.484,21.97300000000001,15.137,0.0,0
1581435958.5979998,-0.488,21.484,29.296999999999997,20.508000000000006,0.0,0
1581435958.6020002,9.277000000000001,24.901999999999997,48.34,20.508000000000006,0.0,0
1581435958.606,31.738000000000003,25.391,35.645,14.648,0.0,0
1581435958.61,27.831999999999997,25.391,38.574,20.02,0.0,0
1581435958.6139998,6.348,18.555,35.156,25.391,0.0,0
1581435958.6179998,1.953,15.625,11.23,24.414,0.0,0
1581435958.6220002,25.391,17.578,15.625,20.508000000000006,0.0,0
1581435958.625,37.598,15.137,-11.719000000000001,17.578,0.0,0
1581435958.629,9.277000000000001,20.996,1.465,15.137,0.0,0
1581435958.633,-10.254000000000001,30.273000000000003,63.965,13.672,0.0,0
1581435958.637,11.23,26.855,48.34,15.137,0.0,0
1581435958.641,31.25,22.461,40.039,14.648,0.0,0
1581435958.643,11.719000000000001,21.97300000000001,49.805,8.789,0.0,0
1581435958.647,-13.184000000000001,24.414,54.688,9.277000000000001,0.0,0
1581435958.651,6.348,21.484,31.25,16.602,0.0,0
1581435958.655,28.809,18.066,15.137,14.16,0.0,0
1581435958.659,8.789,20.02,40.527,8.789,0.0,0
1581435958.6629999,-14.648,17.09,20.02,20.02,0.0,0
1581435958.667,-5.371,12.695,-16.602,25.879,0.0,0
1581435958.67,25.391,13.672,-4.883,16.602,0.0,0
1581435958.674,31.738000000000003,22.949,56.152,18.066,0.0,0
1581435958.678,4.395,25.391,71.777,23.926,0.0,0
1581435958.6820002,-8.301,24.414,43.945,26.855,0.0,0
1581435958.686,16.113,26.366999999999997,40.039,24.901999999999997,0.0,0
1581435958.688,31.25,25.391,57.617,17.09,0.0,0
1581435958.6920002,8.789,20.02,51.758,20.508000000000006,0.0,0
1581435958.696,-4.395,20.02,39.551,22.461,0.0,0
1581435958.7,20.508000000000006,20.508000000000006,37.598,14.648,0.0,0
1581435958.704,40.527,20.508000000000006,52.246,12.695,0.0,0
1581435958.708,29.296999999999997,21.484,43.945,20.996,0.0,0
1581435958.7120001,3.906,14.648,-7.324,17.09,0.0,0
1581435958.715,7.324,17.09,2.441,8.789,0.0,0
1581435958.7189999,35.645,23.926,55.176,10.254000000000001,0.0,0
1581435958.7229998,38.086,20.02,55.176,9.766,0.0,0
1581435958.7270002,8.789,17.09,41.992,18.555,0.0,0
1581435958.731,-3.906,21.484,48.828,20.508000000000006,0.0,0
1581435958.748,23.926,21.97300000000001,59.57,10.742,0.0,0
1581435958.752,36.133,16.602,50.293,13.184000000000001,0.0,0
1581435958.756,14.16,14.16,35.645,19.043,0.0,0
1581435958.76,5.371,17.578,46.387,15.137,0.0,0
1581435958.764,23.926,19.043,62.012,17.09,0.0,0
1581435958.768,41.504,14.648,17.578,19.531,0.0,0
1581435958.772,23.438000000000002,15.625,5.371,22.949,0.0,0
1581435958.775,-4.395,23.926,62.012,16.113,0.0,0
1581435958.779,10.254000000000001,25.391,58.593999999999994,13.672,0.0,0
1581435958.783,36.621,20.996,28.32,21.484,0.0,0
1581435958.7870002,24.901999999999997,16.113,-2.93,20.02,0.0,0
1581435958.7910001,-1.953,21.484,20.02,18.066,0.0,0
1581435958.8079998,5.859,26.855,57.129,19.043,0.0,0
1581435958.812,33.203,23.438000000000002,46.387,14.648,0.0,0
1581435958.816,31.25,19.043,44.922,13.184000000000001,0.0,0
1581435958.82,-1.953,19.043,48.34,18.555,0.0,0
1581435958.824,0.977,18.066,34.668,25.391,0.0,0
1581435958.8279998,32.227,14.648,17.578,23.438000000000002,0.0,0
1581435958.832,30.273000000000003,14.16,19.531,20.508000000000006,0.0,0
1581435958.835,0.0,21.484,50.78100000000001,21.484,0.0,0
1581435958.839,-18.555,18.066,49.316,21.484,0.0,0
1581435958.843,6.348,7.812,-2.93,19.043,0.0,0
1581435958.8470001,30.761999999999997,16.602,11.719000000000001,10.742,0.0,0
1581435958.851,7.324,21.484,64.941,9.766,0.0,0
1581435958.8379998,-11.23,12.695,37.598,13.672,0.0,0
1581435958.842,8.301,10.742,8.301,16.113,0.0,0
1581435958.846,27.831999999999997,17.578,29.296999999999997,13.672,0.0,0
1581435958.85,13.184000000000001,23.926,54.688,14.648,0.0,0
1581435958.8539999,-13.672,16.602,22.949,18.555,0.0,0
1581435958.8579998,-10.254000000000001,13.672,9.277000000000001,20.02,0.0,0
1581435958.8620002,20.996,20.02,23.926,14.16,0.0,0
1581435958.865,24.901999999999997,23.926,50.78100000000001,13.184000000000001,0.0,0
1581435958.869,-3.418,13.672,18.555,21.97300000000001,0.0,0
1581435958.873,-13.184000000000001,12.695,2.441,22.461,0.0,0
1581435958.877,11.719000000000001,23.438000000000002,63.477,12.695,0.0,0
1581435958.881,17.578,22.949,67.383,9.277000000000001,0.0,0
1581435958.883,-12.207,14.648,10.254000000000001,17.09,0.0,0
1581435958.887,-20.508000000000006,13.184000000000001,-15.137,15.625,0.0,0
1581435958.891,8.789,22.461,47.852,12.695,0.0,0
1581435958.895,30.761999999999997,20.508000000000006,62.012,13.672,0.0,0
1581435958.899,10.742,17.09,39.551,16.113,0.0,0
1581435958.9029999,-12.695,15.625,17.09,23.926,0.0,0
1581435958.907,-1.465,15.137,25.391,18.066,0.0,0
1581435958.91,26.366999999999997,17.09,60.547,10.742,0.0,0
1581435958.914,22.461,13.672,15.137,14.16,0.0,0
1581435958.918,-5.859,16.602,1.953,12.207,0.0,0
1581435958.9220002,-10.742,22.461,50.293,11.23,0.0,0
1581435958.926,12.695,20.508000000000006,46.387,15.137,0.0,0
1581435958.928,16.602,18.555,32.227,12.207,0.0,0
1581435958.9320002,-7.812,20.508000000000006,32.715,9.277000000000001,0.0,0
1581435958.936,-10.254000000000001,22.461,41.504,13.184000000000001,0.0,0
1581435958.94,12.207,19.531,24.414,14.648,0.0,0
1581435958.944,22.461,20.02,19.043,13.672,0.0,0
1581435958.948,5.371,19.043,17.578,18.555,0.0,0
1581435958.9520001,-11.719000000000001,20.996,27.344,16.602,0.0,0
1581435958.955,6.836,19.043,16.602,11.23,0.0,0
1581435958.9589999,27.831999999999997,18.555,0.977,10.254000000000001,0.0,0
1581435958.9629998,8.789,27.831999999999997,42.968999999999994,11.719000000000001,0.0,0
1581435958.967,-10.742,27.344,54.688,22.461,0.0,0
1581435958.971,2.93,23.438000000000002,42.968999999999994,24.414,0.0,0
1581435958.9729998,23.438000000000002,22.949,35.156,20.996,0.0,0
1581435958.9770002,20.996,25.391,41.504,19.531,0.0,0
1581435958.981,1.953,21.484,45.898,24.901999999999997,0.0,0
1581435958.985,5.859,20.508000000000006,43.945,27.831999999999997,0.0,0
1581435958.9889998,32.227,23.438000000000002,36.621,21.97300000000001,0.0,0
1581435958.9929998,36.621,20.508000000000006,24.414,22.461,0.0,0
1581435958.9970002,10.742,20.02,23.438000000000002,22.949,0.0,0
1581435959.0,5.371,15.137,-15.625,21.97300000000001,0.0,0
1581435959.004,28.809,17.09,3.418,16.113,0.0,0
1581435959.008,32.715,27.344,72.266,10.254000000000001,0.0,0
1581435959.012,10.254000000000001,19.531,33.203,19.043,0.0,0
1581435959.016,-2.441,13.672,4.395,24.901999999999997,0.0,0
1581435959.018,13.184000000000001,20.508000000000006,43.945,18.066,0.0,0
1581435959.022,32.715,23.926,59.57,18.555,0.0,0
1581435959.026,22.949,20.996,26.855,19.531,0.0,0
1581435959.03,-1.465,17.578,4.883,16.113,0.0,0
1581435959.034,2.93,20.508000000000006,29.296999999999997,15.625,0.0,0
1581435959.0379999,34.18,17.578,33.203,17.578,0.0,0
1581435959.042,33.691,12.695,4.395,19.043,0.0,0
1581435959.045,3.418,9.766,-11.23,15.137,0.0,0
1581435959.049,-0.977,19.531,34.18,14.648,0.0,0
1581435959.053,22.949,20.02,45.898,17.578,0.0,0
1581435959.0570002,24.901999999999997,14.16,35.645,12.207,0.0,0
1581435959.061,0.0,17.578,41.504,14.16,0.0,0
1581435959.0779998,-0.977,20.996,50.293,15.137,0.0,0
1581435959.082,25.879,15.137,26.366999999999997,14.16,0.0,0
1581435959.086,38.574,13.184000000000001,15.625,23.438000000000002,0.0,0
1581435959.09,15.625,18.555,38.086,20.02,0.0,0
1581435959.0939999,-8.301,16.602,37.109,19.531,0.0,0
1581435959.0979998,8.301,15.625,15.137,21.97300000000001,0.0,0
1581435959.1020002,35.645,14.648,-17.09,15.625,0.0,0
1581435959.105,21.97300000000001,15.137,-2.93,15.137,0.0,0
1581435959.109,-4.883,23.438000000000002,49.805,17.578,0.0,0
1581435959.113,7.812,21.484,41.504,19.531,0.0,0
1581435959.117,35.156,15.625,31.738000000000003,16.602,0.0,0
1581435959.121,29.296999999999997,16.113,43.945,13.672,0.0,0
1581435959.1079998,-1.465,20.02,48.828,18.555,0.0,0
1581435959.1120002,-9.277000000000001,17.09,31.738000000000003,22.949,0.0,0
1581435959.1160002,21.97300000000001,14.648,24.901999999999997,21.484,0.0,0
1581435959.12,33.691,16.113,43.945,14.16,0.0,0
1581435959.1239998,5.859,15.137,40.527,13.672,0.0,0
1581435959.1279998,-7.324,11.23,-1.465,23.438000000000002,0.0,0
1581435959.1320002,15.137,13.672,6.836,25.391,0.0,0
1581435959.135,34.18,18.555,49.316,20.02,0.0,0
1581435959.139,20.02,19.531,53.223,15.137,0.0,0
1581435959.143,-3.906,16.113,15.137,17.578,0.0,0
1581435959.147,7.812,16.602,-13.184000000000001,18.555,0.0,0
1581435959.151,29.785,27.831999999999997,42.968999999999994,11.23,0.0,0
1581435959.167,20.02,25.879,58.593999999999994,12.207,0.0,0
1581435959.171,-6.348,20.508000000000006,30.761999999999997,9.766,0.0,0
1581435959.175,-1.953,16.113,15.625,6.836,0.0,0
1581435959.179,29.296999999999997,22.461,41.504,7.812,0.0,0
1581435959.1829998,27.344,27.831999999999997,36.621,10.742,0.0,0
1581435959.187,0.977,20.996,4.883,17.09,0.0,0
1581435959.191,-3.418,22.461,10.742,9.277000000000001,0.0,0
1581435959.194,15.137,28.32,31.738000000000003,10.254000000000001,0.0,0
1581435959.198,19.531,26.366999999999997,43.945,18.066,0.0,0
1581435959.2020001,0.0,22.949,12.695,12.695,0.0,0
1581435959.206,-13.184000000000001,25.879,17.578,10.742,0.0,0
1581435959.21,7.324,27.344,48.34,8.789,0.0,0
1581435959.2120001,22.949,25.391,43.457,7.812,0.0,0
1581435959.216,4.883,22.949,29.296999999999997,9.766,0.0,0
1581435959.22,-9.766,19.531,30.761999999999997,6.348,0.0,0
1581435959.224,4.395,23.926,47.363,10.742,0.0,0
1581435959.228,31.738000000000003,21.97300000000001,25.879,11.719000000000001,0.0,0
1581435959.232,29.296999999999997,18.066,13.672,10.254000000000001,0.0,0
1581435959.236,0.488,19.043,17.578,16.113,0.0,0
1581435959.2389998,1.953,23.438000000000002,48.34,13.672,0.0,0
1581435959.2429998,34.668,19.043,33.203,18.066,0.0,0
1581435959.2470002,29.785,12.207,-8.301,10.742,0.0,0
1581435959.2510002,-0.977,19.043,28.809,4.883,0.0,0
1581435959.255,-6.348,21.484,51.758,15.625,0.0,0
1581435959.2570002,16.113,16.602,32.227,15.137,0.0,0
1581435959.2610002,29.785,19.043,33.203,13.184000000000001,0.0,0
1581435959.265,7.812,22.949,55.176,14.16,0.0,0
1581435959.269,-9.277000000000001,21.97300000000001,49.805,15.137,0.0,0
1581435959.2729998,10.254000000000001,18.555,29.296999999999997,18.555,0.0,0
1581435959.2770002,31.738000000000003,16.113,12.207,9.766,0.0,0
1581435959.2810001,16.113,19.531,24.414,4.395,0.0,0
1581435959.284,-9.277000000000001,21.97300000000001,49.805,5.859,0.0,0
1581435959.2879999,-4.883,16.113,7.812,6.348,0.0,0
1581435959.292,19.531,20.508000000000006,9.766,8.789,0.0,0
1581435959.296,17.578,26.855,72.75399999999998,8.789,0.0,0
1581435959.3,-9.277000000000001,18.555,54.688,14.648,0.0,0
1581435959.302,-6.348,16.113,29.785,14.648,0.0,0
1581435959.306,14.16,18.555,26.366999999999997,9.766,0.0,0
1581435959.31,19.531,22.461,44.434,7.812,0.0,0
1581435959.314,2.93,23.438000000000002,41.992,9.766,0.0,2
1581435959.3179998,-2.441,21.484,26.855,18.555,0.0,0
1581435959.322,19.043,16.602,21.97300000000001,17.578,0.0,0
1581435959.326,28.32,15.137,35.645,12.695,0.0,0
1581435959.329,7.324,11.23,25.391,18.555,0.0,0
1581435959.333,-11.23,9.766,-2.441,19.043,0.0,0
1581435959.3370001,0.977,20.508000000000006,42.968999999999994,12.207,0.0,0
1581435959.341,21.97300000000001,22.461,64.453,9.766,0.0,0
1581435959.345,13.672,19.531,39.551,9.277000000000001,0.0,0
1581435959.3470001,-4.395,21.97300000000001,37.109,13.672,0.0,0
1581435959.351,15.137,26.855,50.293,6.836,0.0,0
1581435959.355,50.293,24.414,40.039,5.371,0.0,0
1581435959.359,45.898,21.97300000000001,23.926,10.742,0.0,0
1581435959.363,16.113,20.996,11.23,8.789,0.0,0
1581435959.367,12.695,24.414,20.508000000000006,15.137,0.0,0
1581435959.371,35.156,25.879,29.296999999999997,22.949,0.0,0
1581435959.3739998,34.18,15.625,-7.324,24.414,0.0,0
1581435959.3779998,-0.977,19.531,19.043,25.391,0.0,0
1581435959.3820002,-17.578,30.273000000000003,82.031,31.25,0.0,0
1581435959.3860002,9.766,22.949,57.617,31.738000000000003,0.0,0
1581435959.39,30.273000000000003,21.484,40.039,29.785,0.0,0
1581435959.3920002,7.812,26.366999999999997,57.129,23.438000000000002,0.0,0
1581435959.3960001,-10.254000000000001,23.926,58.593999999999994,18.555,0.0,0
1581435959.4,11.719000000000001,21.484,37.598,25.391,0.0,0
1581435959.404,30.273000000000003,21.97300000000001,27.344,26.855,0.0,0
1581435959.408,13.184000000000001,22.461,45.41,19.043,0.0,0
1581435959.4120002,-10.254000000000001,16.602,39.551,21.484,0.0,0
1581435959.4160001,0.0,10.254000000000001,0.488,24.414,0.0,0
1581435959.419,30.273000000000003,12.207,-5.371,22.461,0.0,0
1581435959.4229999,28.32,19.531,44.922,13.672,0.0,0
1581435959.427,-3.906,20.508000000000006,58.593999999999994,14.648,0.0,0
1581435959.431,-7.812,16.113,29.785,21.97300000000001,0.0,0
1581435959.435,23.926,16.602,28.32,19.043,0.0,0
1581435959.437,30.273000000000003,20.508000000000006,60.547,15.625,0.0,0
1581435959.441,3.418,17.09,52.246,13.672,0.0,0
1581435959.445,-2.93,14.16,19.043,17.09,0.0,0
1581435959.449,17.578,20.02,29.296999999999997,15.137,0.0,0
1581435959.4529998,32.715,23.926,44.434,8.301,0.0,0
1581435959.457,15.137,19.043,19.531,10.742,0.0,0
1581435959.461,-9.766,9.277000000000001,-23.438000000000002,16.602,0.0,0
1581435959.464,8.789,16.113,-1.953,16.602,0.0,0
1581435959.468,39.551,26.855,55.176,14.16,0.0,0
1581435959.4720001,26.855,21.97300000000001,34.18,21.484,0.0,0
1581435959.476,-4.395,19.531,10.254000000000001,25.391,0.0,0
1581435959.48,-5.371,21.484,32.227,20.508000000000006,0.0,0
1581435959.482,20.996,21.484,45.898,15.625,0.0,0
1581435959.486,26.855,20.02,34.668,19.531,0.0,0
1581435959.49,1.465,14.648,21.97300000000001,24.901999999999997,0.0,0
1581435959.494,-10.254000000000001,18.555,37.598,24.901999999999997,0.0,0
1581435959.498,8.789,21.484,47.852,26.855,0.0,0
1581435959.502,28.32,13.672,8.789,27.344,0.0,0
1581435959.506,11.23,15.137,-15.625,16.602,0.0,0
1581435959.5089998,-10.742,23.926,32.715,10.742,0.0,0
1581435959.5129998,7.324,24.901999999999997,62.5,19.043,0.0,0
1581435959.5170002,30.761999999999997,18.066,34.668,19.531,0.0,0
1581435959.5210001,20.02,16.113,28.809,22.949,0.0,0
1581435959.525,5.371,21.97300000000001,54.199,30.273000000000003,0.0,0
1581435959.543,20.508000000000006,17.578,34.668,28.809,0.0,0
1581435959.5470002,39.062,16.602,22.949,26.366999999999997,0.0,0
1581435959.551,33.203,19.043,32.715,25.391,0.0,0
1581435959.555,10.254000000000001,20.996,47.363,27.831999999999997,0.0,0
1581435959.559,6.836,16.602,48.828,26.855,0.0,0
1581435959.563,30.273000000000003,10.742,20.02,21.484,0.0,0
1581435959.5670002,37.109,17.578,19.043,19.531,0.0,0
1581435959.57,5.859,24.901999999999997,49.316,18.555,0.0,0
1581435959.574,-3.906,23.438000000000002,58.593999999999994,19.043,0.0,0
1581435959.5779998,21.97300000000001,18.066,13.184000000000001,16.113,0.0,0
1581435959.582,40.039,22.461,32.227,12.695,0.0,0
1581435959.586,26.366999999999997,24.901999999999997,71.777,18.555,0.0,0
1581435959.5879998,0.977,19.531,41.992,24.901999999999997,0.0,0
1581435959.592,15.137,18.555,35.645,24.901999999999997,0.0,0
1581435959.596,36.133,22.949,57.129,19.043,0.0,0
1581435959.6,18.066,20.996,51.758,20.996,0.0,0
1581435959.6039999,0.0,13.672,12.207,23.926,0.0,0
1581435959.6079998,12.207,15.137,1.953,22.949,0.0,0
1581435959.6120002,35.156,21.484,21.97300000000001,19.043,0.0,0
1581435959.615,27.344,24.414,46.387,16.602,0.0,0
1581435959.619,0.0,17.578,25.879,20.02,0.0,0
1581435959.623,1.465,14.648,1.953,13.672,0.0,0
1581435959.627,28.32,22.461,54.688,14.16,0.0,0
1581435959.631,34.668,20.508000000000006,60.547,20.508000000000006,0.0,0
1581435959.633,11.719000000000001,21.97300000000001,33.203,18.555,0.0,0
1581435959.637,-5.371,27.831999999999997,35.156,20.508000000000006,0.0,0
1581435959.641,14.648,29.785,49.316,20.02,0.0,0
1581435959.645,35.156,27.344,58.105,18.555,0.0,0
1581435959.649,12.695,22.949,42.968999999999994,21.484,0.0,0
1581435959.6529999,-3.906,21.97300000000001,25.391,23.438000000000002,0.0,0
1581435959.657,15.137,23.926,31.738000000000003,20.508000000000006,0.0,0
1581435959.66,32.227,23.438000000000002,47.363,15.625,0.0,0
1581435959.664,19.043,16.113,11.23,11.23,0.0,0
1581435959.668,-4.395,15.137,7.812,8.789,0.0,0
1581435959.6720002,0.488,21.97300000000001,58.593999999999994,8.789,0.0,0
1581435959.676,24.901999999999997,20.508000000000006,55.663999999999994,7.812,0.0,0
1581435959.678,18.066,17.09,43.457,9.277000000000001,0.0,0
1581435959.6820002,-9.766,21.97300000000001,48.828,10.742,0.0,0
1581435959.686,-9.766,25.879,61.035,6.836,0.0,0
1581435959.69,12.207,17.578,44.434,8.301,0.0,0
1581435959.694,20.508000000000006,13.672,23.438000000000002,3.418,0.0,0
1581435959.698,-1.465,15.625,7.324,5.371,0.0,0
1581435959.7020001,-14.16,16.602,6.836,11.719000000000001,0.0,0
1581435959.705,4.395,12.695,15.137,9.766,0.0,0
1581435959.7089999,17.09,8.789,-0.488,5.859,0.0,0
1581435959.7129998,1.953,20.02,21.97300000000001,5.859,0.0,0
1581435959.717,-19.531,22.949,34.668,16.602,0.0,0
1581435959.721,-9.277000000000001,19.043,19.531,20.508000000000006,0.0,0
1581435959.7229998,23.926,24.414,31.25,18.555,0.0,0
1581435959.7270002,20.508000000000006,27.344,54.688,18.066,0.0,0
1581435959.731,-11.23,21.484,34.668,22.461,0.0,0
1581435959.735,-6.836,21.97300000000001,21.97300000000001,23.926,0.0,0
1581435959.7389998,19.043,23.438000000000002,39.551,17.578,0.0,0
1581435959.7429998,22.949,20.508000000000006,21.97300000000001,18.066,0.0,0
1581435959.7470002,2.93,16.602,10.254000000000001,21.97300000000001,0.0,0
1581435959.75,-3.418,13.184000000000001,-8.789,18.555,0.0,0
1581435959.754,9.766,18.066,5.859,7.324,0.0,0
1581435959.758,10.742,22.949,55.663999999999994,-2.93,0.0,0
1581435959.762,-13.184000000000001,23.438000000000002,44.922,0.488,0.0,0
1581435959.766,-39.551,22.949,41.504,-2.93,0.0,0
1581435959.768,-30.273000000000003,19.531,36.133,-14.648,0.0,0
1581435959.772,-9.277000000000001,23.438000000000002,36.621,-19.043,0.0,0
1581435959.776,-31.738000000000003,26.366999999999997,49.805,-27.344,0.0,0
1581435959.78,-67.87100000000001,20.996,45.41,-34.668,0.0,0
1581435959.784,-64.941,20.508000000000006,51.27,-48.828,0.0,0
1581435959.7879999,-51.27,18.555,41.992,-58.593999999999994,0.0,0
1581435959.792,-70.312,15.625,25.879,-60.547,0.0,0
1581435959.795,-107.42200000000001,19.043,15.625,-77.637,0.0,0
1581435959.799,-109.863,30.273000000000003,59.57,-85.93799999999996,0.0,0
1581435959.803,-84.473,31.738000000000003,78.125,-89.844,0.0,0
1581435959.8070002,-78.613,29.296999999999997,44.434,-97.656,0.0,0
1581435959.811,-106.445,29.785,44.922,-92.285,0.0,0
1581435959.813,-126.95299999999999,31.738000000000003,60.547,-97.656,0.0,0
1581435959.8170002,-105.469,32.227,60.547,-104.492,0.0,0
1581435959.821,-92.773,32.227,34.18,-107.42200000000001,0.0,0
1581435959.825,-127.441,36.621,36.133,-112.305,0.0,0
1581435959.829,-154.297,35.645,56.152,-116.699,0.0,0
1581435959.833,-134.766,35.156,40.039,-119.62899999999999,0.0,0
1581435959.8370001,-109.375,32.227,11.23,-124.512,0.0,0
1581435959.84,-125.0,31.738000000000003,30.273000000000003,-139.16,0.0,0
1581435959.8439999,-158.203,42.968999999999994,78.613,-141.602,0.0,0
1581435959.8479998,-156.25,44.434,62.5,-136.23,0.0,0
1581435959.8520002,-128.906,38.086,49.805,-137.695,0.0,0
1581435959.856,-126.95299999999999,39.062,53.71100000000001,-135.74200000000002,0.0,0
1581435959.8579998,-156.25,42.968999999999994,68.848,-133.789,0.0,0
1581435959.8620002,-156.25,42.48,64.941,-130.371,0.0,0
1581435959.8660002,-123.04700000000001,41.992,45.41,-122.07,0.0,0
1581435959.87,-116.211,39.551,58.593999999999994,-120.117,0.0,0
1581435959.8739998,-130.371,39.551,67.383,-113.281,0.0,0
1581435959.8779998,-126.95299999999999,36.133,30.761999999999997,-108.398,0.0,0
1581435959.8820002,-103.516,32.227,8.789,-106.934,0.0,0
1581435959.885,-92.285,38.086,51.758,-101.56200000000001,0.0,0
1581435959.889,-101.074,39.062,70.801,-92.773,0.0,0
1581435959.893,-102.051,32.715,46.875,-73.73,0.0,0
1581435959.897,-78.613,26.855,43.945,-72.75399999999998,0.0,0
1581435959.901,-47.852,28.809,55.663999999999994,-70.801,0.0,0
1581435959.918,-47.852,31.738000000000003,46.875,-50.78100000000001,0.0,0
1581435959.9220002,-65.43,26.366999999999997,20.996,-37.109,0.0,0
1581435959.926,-49.316,24.414,29.296999999999997,-26.855,0.0,0
1581435959.93,-5.371,28.32,51.27,-25.391,0.0,0
1581435959.934,4.395,27.831999999999997,40.039,-16.113,0.0,0
1581435959.938,-16.602,24.414,1.953,4.883,0.0,0
1581435959.9420002,-12.207,24.414,5.371,12.695,0.0,0
1581435959.945,21.97300000000001,27.831999999999997,51.27,16.113,0.0,0
1581435959.949,41.992,22.461,35.156,17.09,0.0,0
1581435959.9529998,30.273000000000003,17.09,-21.484,26.366999999999997,0.0,0
1581435959.957,21.484,20.996,-0.977,41.01600000000001,0.0,0
1581435959.961,46.387,22.461,39.062,44.434,0.0,0
1581435959.9629998,66.406,18.555,25.879,48.34,0.0,0
1581435959.967,51.27,15.137,19.043,54.199,0.0,0
1581435959.971,39.062,14.16,28.32,61.523,0.0,0
1581435959.975,60.059,14.648,38.086,70.312,0.0,0
1581435959.9789999,86.426,12.695,37.109,74.707,0.0,0
1581435959.9829998,83.008,8.301,1.465,85.449,0.0,0
1581435959.9870002,60.547,11.719000000000001,-3.906,87.891,0.0,0
1581435959.99,69.336,17.09,30.273000000000003,86.914,0.0,0
1581435959.994,103.027,9.766,3.418,93.75,0.0,0
1581435959.998,103.516,6.348,-29.785,92.285,0.0,0
1581435960.002,78.613,18.066,19.043,90.33200000000001,0.0,0
1581435960.006,70.312,16.602,36.133,92.285,0.0,0
1581435960.0070002,93.75,7.812,5.859,92.773,0.0,0
1581435960.0110002,106.445,11.23,16.113,95.70299999999999,0.0,0
1581435960.015,84.961,19.043,35.156,94.238,0.0,0
1581435960.019,70.801,16.602,33.203,96.191,0.0,0
1581435960.0229998,95.215,13.184000000000001,20.02,96.191,0.0,0
1581435960.0270002,122.559,10.742,-0.488,96.191,0.0,0
1581435960.0310001,104.98,15.137,11.719000000000001,102.051,0.0,0
1581435960.034,68.848,19.043,46.875,100.098,0.0,0
1581435960.0379999,81.543,3.418,-6.836,94.727,0.0,0
1581435960.042,110.352,4.883,-16.113,78.125,0.0,0
1581435960.046,96.68,16.113,63.477,76.172,0.0,0
1581435960.05,69.824,9.766,36.133,87.891,0.0,0
1581435960.053,69.336,8.301,0.977,87.891,0.0,0
1581435960.0570002,91.79700000000001,12.207,35.645,83.008,0.0,0
1581435960.061,93.75,9.766,30.761999999999997,79.102,0.0,0
1581435960.065,73.73,8.301,-5.859,85.449,0.0,0
1581435960.069,68.848,8.789,8.301,85.93799999999996,0.0,0
1581435960.073,88.37899999999998,9.277000000000001,17.578,82.52,0.0,0
1581435960.0770001,94.727,16.602,30.273000000000003,80.078,0.0,0
1581435960.08,72.266,16.113,20.02,78.613,0.0,0
1581435960.0839999,52.733999999999995,5.371,-13.184000000000001,77.637,0.0,0
1581435960.0879998,71.777,12.207,29.296999999999997,70.801,0.0,0
1581435960.092,94.238,18.555,50.293,66.895,0.0,0
1581435960.096,71.289,15.625,28.809,68.359,0.0,0
1581435960.0979998,40.039,13.672,14.648,66.406,0.0,0
1581435960.1020002,46.387,14.16,44.922,64.941,0.0,0
1581435960.106,78.125,11.719000000000001,37.109,62.988,0.0,0
1581435960.11,74.219,10.254000000000001,8.301,60.059,0.0,0
1581435960.1139998,44.922,11.23,19.531,64.941,0.0,0
1581435960.1179998,42.968999999999994,9.277000000000001,15.137,65.43,0.0,0
1581435960.1220002,70.801,13.184000000000001,20.996,63.477,0.0,0
1581435960.125,80.078,8.789,-3.906,60.059,0.0,0
1581435960.129,49.316,7.812,-7.812,55.663999999999994,0.0,0
1581435960.133,30.273000000000003,22.461,54.688,54.688,0.0,0
1581435960.137,51.758,19.531,49.316,49.805,0.0,0
1581435960.141,62.012,14.16,32.715,48.828,0.0,0
1581435960.143,45.898,20.996,41.992,49.805,0.0,0
1581435960.147,31.738000000000003,25.391,41.504,51.27,0.0,0
1581435960.151,46.387,20.508000000000006,26.366999999999997,50.78100000000001,0.0,0
1581435960.155,64.453,17.09,20.996,43.945,0.0,0
1581435960.159,51.758,21.97300000000001,44.434,37.598,0.0,0
1581435960.1629999,24.901999999999997,18.066,23.926,44.434,0.0,0
1581435960.167,21.97300000000001,9.766,-0.977,46.387,0.0,0
1581435960.17,41.01600000000001,7.812,-4.883,33.203,0.0,0
1581435960.174,39.062,12.207,18.555,28.809,0.0,0
1581435960.178,15.625,17.578,36.133,32.715,0.0,0
1581435960.1820002,12.207,16.602,21.97300000000001,31.738000000000003,0.0,0
1581435960.186,35.156,14.648,14.16,24.414,0.0,0
1581435960.188,37.598,16.113,37.598,21.484,0.0,0
1581435960.1920002,20.02,14.16,32.715,25.391,0.0,0
1581435960.196,11.23,13.672,8.301,32.715,0.0,0
1581435960.2,25.391,16.602,23.926,30.761999999999997,0.0,0
1581435960.204,39.551,17.578,39.551,28.32,0.0,0
1581435960.208,20.508000000000006,13.672,19.043,34.668,0.0,0
1581435960.2120001,6.348,8.301,-24.901999999999997,31.25,0.0,0
1581435960.215,23.926,14.16,-1.953,27.344,0.0,0
1581435960.2189999,39.062,23.926,65.918,24.901999999999997,0.0,0
1581435960.2229998,29.296999999999997,19.531,53.71100000000001,23.438000000000002,0.0,0
1581435960.2270002,8.789,14.648,28.32,26.366999999999997,0.0,0
1581435960.231,14.648,14.648,15.137,23.926,0.0,0
1581435960.2329998,46.875,16.602,26.366999999999997,14.648,0.0,0
1581435960.2370002,53.71100000000001,19.043,46.387,10.742,0.0,0
1581435960.2410002,23.926,17.578,30.761999999999997,20.996,0.0,0
1581435960.245,18.555,20.508000000000006,37.109,20.996,0.0,0
1581435960.2489998,49.805,22.949,44.434,15.137,0.0,0
1581435960.2529998,62.5,14.16,3.906,25.391,0.0,0
1581435960.2570002,23.926,10.742,-14.648,30.273000000000003,0.0,0
1581435960.26,-4.883,20.02,40.527,29.296999999999997,0.0,0
1581435960.264,16.113,20.996,62.988,33.691,0.0,0
1581435960.268,36.133,16.602,36.621,40.039,0.0,0
1581435960.272,14.16,16.602,33.691,36.133,0.0,0
1581435960.276,-12.695,20.02,55.663999999999994,30.273000000000003,0.0,0
1581435960.292,1.465,20.508000000000006,48.828,31.25,0.0,0
1581435960.296,26.855,17.578,31.25,25.879,0.0,0
1581435960.3,20.996,12.695,15.137,30.273000000000003,0.0,0
1581435960.304,-1.953,13.672,14.648,28.32,0.0,0
1581435960.3079998,-2.93,16.113,36.621,22.461,0.0,0
1581435960.312,23.926,11.719000000000001,22.949,27.344,0.0,0
1581435960.316,33.203,15.137,17.578,23.438000000000002,0.0,0
1581435960.319,3.418,21.97300000000001,49.805,20.996,0.0,0
1581435960.323,3.418,22.461,56.64100000000001,29.785,0.0,0
1581435960.3270001,32.715,15.625,9.277000000000001,23.438000000000002,0.0,0
1581435960.331,29.785,19.531,16.602,18.066,0.0,0
1581435960.335,6.348,24.901999999999997,61.523,22.949,0.0,0
1581435960.3370001,-5.859,17.09,43.945,20.508000000000006,0.0,0
1581435960.341,14.16,18.555,30.273000000000003,17.578,0.0,0
1581435960.345,40.039,22.461,41.992,18.555,0.0,0
1581435960.349,26.366999999999997,20.508000000000006,48.34,19.043,0.0,0
1581435960.353,0.488,16.602,28.32,19.531,0.0,0
1581435960.357,14.16,9.277000000000001,-10.254000000000001,22.461,0.0,0
1581435960.361,39.551,11.719000000000001,-3.418,21.484,0.0,0
1581435960.3639998,37.598,18.066,38.574,24.414,0.0,0
1581435960.3679998,10.742,11.23,25.391,29.296999999999997,0.0,0
1581435960.3720002,2.93,9.277000000000001,-14.16,25.391,0.0,0
1581435960.3760002,25.879,23.438000000000002,41.992,16.602,0.0,0
1581435960.38,30.273000000000003,24.901999999999997,67.87100000000001,19.531,0.0,0
1581435960.3820002,4.395,17.578,34.668,23.926,0.0,0
1581435960.3860002,0.488,17.09,37.598,21.97300000000001,0.0,0
1581435960.39,24.901999999999997,18.066,59.082,19.043,0.0,0
1581435960.394,39.062,15.137,45.898,19.043,0.0,0
1581435960.3979998,23.926,13.184000000000001,29.296999999999997,23.438000000000002,0.0,0
1581435960.4020002,3.418,9.766,12.695,26.855,0.0,0
1581435960.4060001,14.16,11.719000000000001,17.09,22.949,0.0,0
1581435960.409,34.18,16.113,49.805,17.578,0.0,0
1581435960.4129999,25.879,12.207,9.766,20.508000000000006,0.0,0
1581435960.417,-2.93,15.625,4.395,23.926,0.0,0
1581435960.421,3.418,25.879,67.87100000000001,21.484,0.0,0
1581435960.425,37.109,23.438000000000002,57.617,21.97300000000001,0.0,0
1581435960.427,34.668,19.043,46.387,20.996,0.0,0
1581435960.431,3.418,17.09,49.316,19.531,0.0,0
1581435960.435,6.836,18.066,50.293,19.043,0.0,0
1581435960.439,32.227,17.09,49.316,15.625,0.0,0
1581435960.4429998,38.574,14.648,37.598,20.996,0.0,0
1581435960.447,8.789,12.695,27.831999999999997,18.066,0.0,0
1581435960.451,-9.766,11.23,26.855,10.742,0.0,0
1581435960.454,23.438000000000002,11.719000000000001,17.578,20.02,0.0,0
1581435960.458,47.852,14.16,-3.906,18.066,0.0,0
1581435960.4620001,29.296999999999997,23.438000000000002,45.898,12.207,0.0,0
1581435960.466,8.789,22.949,60.547,13.184000000000001,0.0,0
1581435960.47,22.949,16.113,28.32,16.602,0.0,1
1581435960.4720001,46.875,14.16,33.691,17.09,0.0,0
1581435960.476,33.203,20.996,55.176,11.719000000000001,0.0,0
1581435960.48,3.906,23.438000000000002,45.41,15.137,0.0,0
1581435960.484,11.719000000000001,18.555,29.785,13.184000000000001,0.0,0
1581435960.488,34.668,16.602,31.738000000000003,9.277000000000001,0.0,0
1581435960.492,30.273000000000003,14.16,14.16,15.137,0.0,0
1581435960.496,13.184000000000001,15.625,16.602,21.97300000000001,0.0,0
1581435960.4989998,11.719000000000001,11.23,-4.883,26.855,0.0,0
1581435960.5029998,31.25,14.648,10.254000000000001,12.695,0.0,0
1581435960.5070002,39.062,24.901999999999997,71.777,7.324,0.0,0
1581435960.5110002,11.719000000000001,22.949,50.78100000000001,21.97300000000001,0.0,0
1581435960.515,1.465,19.531,34.18,30.273000000000003,0.0,0
1581435960.5170002,23.438000000000002,18.066,49.805,28.32,0.0,0
1581435960.5210001,37.598,20.996,63.965,21.97300000000001,0.0,0
1581435960.525,26.855,17.578,20.508000000000006,27.344,0.0,0
1581435960.529,8.789,17.09,10.742,32.227,0.0,0
1581435960.533,17.09,21.97300000000001,43.457,26.366999999999997,0.0,0
1581435960.5370002,39.062,19.043,31.738000000000003,29.785,0.0,0
1581435960.5410001,29.785,16.602,3.906,24.414,0.0,0
1581435960.544,-4.883,15.137,-11.23,20.508000000000006,0.0,0
1581435960.5479999,-5.371,20.996,40.527,22.461,0.0,0
1581435960.552,26.366999999999997,22.949,66.895,21.97300000000001,0.0,0
