timestamps,TP9,AF7,AF8,TP10,Right AUX,Marker0
1556211573.920,-5.371,-9.766,45.898,27.344,20.020,0
1556211573.924,-7.812,-14.648,41.016,34.668,-4.395,0
1556211573.928,61.035,-8.789,39.551,29.785,0.977,0
1556211573.932,78.125,-0.488,39.062,21.484,45.410,0
1556211573.936,19.043,-4.395,34.668,28.320,41.992,0
1556211573.940,-14.160,-5.371,44.434,36.133,25.879,0
1556211573.944,37.109,-5.371,54.688,34.180,59.082,0
1556211573.947,75.684,0.977,53.223,29.785,100.098,0
1556211573.951,30.273,1.465,54.688,32.715,107.422,0
1556211573.955,-16.113,-5.371,53.223,38.574,52.734,0
1556211573.959,26.855,-4.883,52.246,44.434,40.039,0
1556211573.963,84.961,-7.812,49.316,44.434,76.172,0
1556211573.965,52.734,-15.625,43.945,41.016,93.262,0
1556211573.969,-13.184,-8.789,48.828,45.410,57.129,0
1556211573.973,-0.488,-0.977,53.223,36.133,34.668,0
1556211573.977,64.453,-6.836,54.199,28.320,26.367,0
1556211573.981,74.219,-4.395,53.223,35.156,28.320,0
1556211573.985,11.719,-1.465,48.828,39.551,68.848,0
1556211573.989,-8.301,-6.348,50.293,38.086,88.867,0
1556211573.992,55.176,-0.977,47.363,31.738,107.910,0
1556211573.996,83.008,-8.789,45.898,24.902,107.422,0
1556211574.000,24.902,-16.602,44.434,28.809,78.613,0
1556211574.004,-17.578,-9.766,41.992,30.273,56.641,0
1556211574.008,31.738,-11.719,39.062,22.461,96.680,0
1556211574.010,79.102,-11.230,33.203,20.020,110.840,0
1556211574.014,36.621,-8.789,36.621,28.809,82.031,0
1556211574.018,-23.926,-10.254,42.969,23.438,86.914,0
1556211574.022,8.789,-10.742,46.875,20.996,111.328,0
1556211574.026,77.637,-6.348,46.387,31.250,137.207,0
1556211574.030,58.594,-10.742,47.852,27.832,107.910,0
1556211574.034,-8.301,-19.531,53.711,28.320,91.797,0
1556211574.037,-1.953,-19.531,52.246,25.879,98.633,0
1556211574.041,60.547,-20.996,49.316,16.602,132.812,0
1556211574.045,64.453,-14.160,42.969,13.184,148.926,0
1556211574.049,-8.301,-12.207,33.203,10.254,126.953,0
1556211574.053,-30.273,-20.996,27.832,16.602,124.023,0
1556211574.055,33.691,-24.414,28.809,18.555,118.164,0
1556211574.059,61.035,-19.531,30.273,10.742,115.723,0
1556211574.063,5.859,-13.184,29.297,11.719,118.164,0
1556211574.067,-39.551,-16.113,32.227,13.184,96.680,0
1556211574.071,6.836,-8.789,33.691,16.113,101.074,0
1556211574.075,63.477,-4.395,34.668,15.625,111.328,0
1556211574.079,23.926,-7.812,41.016,18.066,115.723,0
1556211574.082,-42.969,-7.812,47.363,12.207,149.902,0
1556211574.086,-16.113,-0.488,51.758,-5.371,129.883,0
1556211574.090,47.852,5.859,47.852,-8.301,127.930,0
1556211574.094,28.809,1.465,46.387,-17.090,152.344,0
1556211574.098,-45.898,8.789,62.500,-20.508,120.117,0
1556211574.100,-53.711,19.043,70.312,-31.250,108.398,0
1556211574.104,-8.301,15.137,60.059,-59.570,141.113,0
1556211574.108,-8.301,26.367,62.988,-67.871,151.855,0
1556211574.112,-93.262,36.133,69.824,-83.984,125.000,0
1556211574.116,-163.574,34.180,66.895,-114.746,128.418,0
1556211574.120,-128.418,31.250,71.289,-133.301,174.316,0
1556211574.124,-108.887,39.551,77.148,-140.625,179.688,0
1556211574.127,-172.363,43.457,79.590,-142.578,151.855,0
1556211574.131,-234.863,39.551,82.520,-156.738,138.184,0
1556211574.135,-200.684,44.922,82.520,-170.898,145.020,0
1556211574.139,-133.789,42.969,83.496,-171.875,155.762,0
1556211574.143,-157.715,40.527,82.031,-169.434,162.598,0
1556211574.145,-217.285,32.715,82.520,-166.992,160.645,0
1556211574.149,-195.312,28.809,74.219,-165.039,187.500,0
1556211574.153,-118.652,24.414,64.453,-159.180,193.359,0
1556211574.157,-107.422,14.160,69.336,-145.020,167.480,0
1556211574.161,-157.715,15.625,72.266,-121.582,149.414,0
1556211574.165,-146.973,10.254,65.430,-103.516,155.273,0
1556211574.169,-57.617,6.348,48.828,-92.285,165.527,0
1556211574.172,-20.020,-12.207,33.203,-70.801,150.879,0
1556211574.176,-68.848,-25.391,20.996,-52.246,155.273,0
1556211574.180,-81.543,-13.184,17.578,-35.645,187.012,0
1556211574.184,-2.441,-17.090,20.020,-14.160,196.289,0
1556211574.188,59.082,-16.602,18.066,6.348,201.172,0
1556211574.190,33.691,-13.672,19.531,31.250,197.266,0
1556211574.194,-5.859,-19.531,23.926,44.434,184.570,0
1556211574.198,37.109,-24.902,23.438,40.527,175.293,0
1556211574.202,103.027,-24.414,23.926,44.434,164.062,0
1556211574.206,85.938,-20.020,21.973,58.594,179.688,0
1556211574.210,30.273,-16.602,20.996,74.219,169.922,0
1556211574.214,47.363,-24.414,25.879,83.496,142.090,0
1556211574.217,118.652,-33.691,28.320,81.543,152.344,0
1556211574.221,126.953,-25.879,29.297,88.867,164.062,0
1556211574.225,66.406,-20.020,32.227,98.145,152.344,0
1556211574.229,50.781,-26.855,35.645,94.238,133.301,0
1556211574.233,110.352,-34.668,29.785,89.355,154.297,0
1556211574.235,141.113,-35.156,19.043,93.262,157.715,0
1556211574.239,84.473,-29.297,20.020,96.191,107.910,0
1556211574.243,40.039,-24.414,22.949,94.238,117.188,0
1556211574.247,92.773,-25.879,20.996,96.191,129.883,0
1556211574.251,145.508,-30.762,24.414,99.609,106.445,0
1556211574.255,111.328,-28.809,26.367,104.980,111.328,0
1556211574.259,51.758,-28.320,34.668,109.375,75.195,0
1556211574.262,73.730,-29.297,40.039,100.586,80.078,0
1556211574.266,134.277,-28.320,34.668,86.914,114.746,0
1556211574.270,116.211,-29.785,36.621,82.520,119.629,0
1556211574.274,40.039,-31.250,36.621,82.031,98.145,0
1556211574.278,41.504,-33.203,33.203,80.078,76.660,0
1556211574.295,113.281,-30.762,33.691,80.566,114.258,0
1556211574.299,124.023,-31.738,34.180,83.008,84.473,0
1556211574.303,59.570,-34.668,35.156,80.078,53.711,0
1556211574.307,35.156,-26.855,33.691,76.660,59.082,0
1556211574.311,91.797,-22.949,30.762,76.172,62.012,0
1556211574.315,123.535,-28.320,30.273,69.336,60.547,0
1556211574.319,66.406,-28.320,30.273,60.059,39.551,0
1556211574.322,7.812,-22.461,31.250,56.641,65.918,0
1556211574.326,53.223,-22.461,30.273,52.734,60.547,0
1556211574.330,112.305,-15.137,30.762,48.828,27.344,0
1556211574.334,73.242,-11.230,31.250,49.805,1.465,0
1556211574.338,6.836,-13.184,30.762,50.781,19.043,0
1556211574.340,33.203,-20.020,32.715,54.199,18.555,0
1556211574.344,98.633,-23.438,35.645,52.734,6.348,0
1556211574.348,90.820,-7.324,35.156,54.199,14.648,0
1556211574.352,21.484,-8.301,35.645,60.059,-7.324,0
1556211574.356,15.137,-14.648,42.969,62.012,-28.809,0
1556211574.360,86.426,-13.672,43.945,64.941,-32.715,0
1556211574.364,103.027,-17.090,41.992,62.500,-54.199,0
1556211574.367,38.086,-4.883,47.852,67.383,-70.801,0
1556211574.371,8.789,0.488,57.129,69.824,-68.359,0
1556211574.375,68.848,-7.812,55.664,64.453,-88.379,0
1556211574.379,104.980,-5.859,45.410,57.617,-80.566,0
1556211574.383,51.270,0.000,47.852,56.152,-60.059,0
1556211574.385,1.953,-5.371,59.570,61.035,-91.309,0
1556211574.389,38.574,-5.371,52.246,54.199,-122.559,0
1556211574.393,91.797,7.812,39.062,48.828,-96.680,0
1556211574.397,63.965,-1.465,42.480,51.270,-102.051,0
1556211574.401,-3.418,-2.930,47.363,51.270,-137.207,0
1556211574.405,3.906,7.812,43.457,45.410,-140.625,0
1556211574.409,67.383,-5.371,41.504,40.039,-156.250,0
1556211574.412,63.965,-7.812,43.457,32.227,-144.043,0
1556211574.416,-9.277,-1.953,48.828,25.879,-155.762,0
1556211574.420,-22.949,-7.812,51.758,25.391,-171.387,0
1556211574.424,41.504,-9.277,43.945,20.020,-157.227,0
1556211574.428,67.383,-12.207,36.621,19.043,-178.223,0
1556211574.430,13.672,-2.930,40.527,31.250,-181.641,0
1556211574.434,-18.066,7.324,51.758,36.133,-191.406,0
1556211574.438,38.086,2.930,49.316,34.668,-191.406,0
1556211574.442,83.496,2.930,46.387,38.574,-173.828,0
1556211574.446,41.016,-0.488,51.270,44.922,-184.082,0
1556211574.450,-10.254,-2.930,48.340,50.293,-178.711,0
1556211574.454,24.902,0.488,41.016,50.781,-173.828,0
1556211574.457,75.684,-0.488,37.598,40.039,-161.133,0
1556211574.461,54.688,-0.977,39.062,32.227,-172.852,0
1556211574.465,-4.883,4.883,38.086,35.645,-188.477,0
1556211574.469,3.418,5.859,33.691,38.086,-145.020,0
1556211574.473,79.102,8.789,38.086,48.340,-149.902,0
1556211574.475,88.379,13.184,42.480,49.805,-171.387,0
1556211574.479,22.949,16.113,44.922,57.129,-153.320,0
1556211574.483,4.883,18.555,47.852,60.547,-141.602,0
1556211574.487,62.988,13.184,41.016,43.457,-154.297,0
1556211574.491,95.703,11.719,39.551,51.758,-171.875,0
1556211574.495,41.992,12.207,51.270,64.941,-134.766,0
1556211574.499,-6.348,15.625,53.223,62.500,-133.789,0
1556211574.502,40.527,22.461,50.293,55.664,-143.066,0
1556211574.506,89.844,14.648,47.363,47.852,-124.023,0
1556211574.510,49.316,17.090,47.852,48.340,-136.230,0
1556211574.514,-12.207,20.020,49.805,46.875,-114.258,0
1556211574.518,12.207,9.766,51.270,41.504,-104.492,0
1556211574.520,79.102,4.883,47.363,41.992,-89.355,0
1556211574.524,67.871,3.906,46.387,46.387,-40.527,0
1556211574.528,-4.395,2.441,50.293,49.805,-39.062,0
1556211574.532,-0.977,2.441,50.293,48.828,-67.383,0
1556211574.536,73.730,5.371,54.199,48.340,-103.027,0
1556211574.540,86.426,6.836,52.734,51.758,-63.965,0
1556211574.544,22.461,10.254,47.363,54.688,-34.180,0
1556211574.547,-5.371,9.766,49.316,48.828,-76.172,0
1556211574.551,53.223,6.836,47.363,43.945,-83.008,0
1556211574.555,87.891,0.977,42.969,45.898,-69.824,0
1556211574.559,35.156,-7.324,41.504,49.805,-78.125,0
1556211574.563,-17.090,-3.906,39.551,58.594,-42.969,0
1556211574.565,27.344,1.953,39.551,59.570,-42.480,0
1556211574.569,88.379,5.371,46.387,53.223,-83.984,0
1556211574.573,62.500,6.836,47.363,55.176,-58.105,0
1556211574.577,4.883,8.301,41.992,57.617,-23.926,0
1556211574.581,18.555,4.395,41.504,50.781,-12.207,0
1556211574.585,79.590,-1.465,39.062,44.922,-21.484,0
1556211574.589,76.172,0.000,39.551,47.852,-36.621,0
1556211574.592,4.883,0.977,40.039,41.504,5.371,0
1556211574.596,-14.648,-10.254,36.621,35.645,8.301,0
1556211574.600,48.828,-16.602,39.551,34.668,17.578,0
1556211574.604,72.266,-7.324,44.434,33.203,65.430,0
1556211574.608,9.277,-1.953,41.504,38.086,16.602,0
1556211574.610,-21.484,-0.977,46.875,38.574,-32.715,0
1556211574.614,42.480,6.348,51.758,42.480,-36.133,0
1556211574.618,81.055,2.441,44.922,43.945,13.672,0
1556211574.622,32.227,-8.301,41.016,38.574,1.953,0
1556211574.626,-18.555,-6.836,43.457,38.574,-84.473,0
1556211574.630,20.020,-7.324,45.410,37.109,-20.020,0
1556211574.634,79.590,-4.883,50.781,40.527,37.109,0
1556211574.637,51.758,-1.953,59.570,41.992,5.859,0
1556211574.641,-16.602,-3.906,62.500,35.645,-9.277,0
1556211574.645,-2.441,-2.930,48.828,32.715,-40.039,0
1556211574.649,65.918,2.441,37.109,28.809,-37.598,0
1556211574.653,68.359,3.418,39.062,28.320,-4.395,0
1556211574.670,7.324,-1.953,43.457,36.133,-11.230,0
1556211574.674,-0.977,-7.324,44.434,38.086,18.555,0
1556211574.678,58.594,-9.766,35.156,32.715,34.668,0
1556211574.682,79.590,-7.812,37.109,34.668,-16.113,0
1556211574.686,25.391,-6.348,51.270,43.945,-28.809,0
1556211574.690,-15.625,-10.742,47.852,40.039,-5.371,0
1556211574.694,40.527,-13.184,39.551,34.668,55.664,0
1556211574.697,96.680,-6.348,36.621,42.969,62.012,0
1556211574.701,35.645,-7.324,38.086,29.785,18.066,0
1556211574.705,-48.340,-4.883,46.387,3.418,20.996,0
1556211574.709,-26.855,-2.930,51.758,-8.789,19.531,0
1556211574.713,26.855,-6.836,46.387,-15.137,43.457,0
1556211574.715,7.812,-5.859,48.340,-17.578,53.223,0
1556211574.719,-53.711,-8.789,58.105,-12.695,38.574,0
1556211574.723,-47.852,-7.324,55.176,-10.742,68.359,0
1556211574.727,8.789,-1.465,46.875,-20.996,84.473,0
1556211574.731,22.461,0.977,47.852,-10.742,63.477,0
1556211574.735,-37.109,-4.883,51.758,-2.441,32.227,0
1556211574.739,-63.477,-7.812,49.316,-11.230,31.738,0
1556211574.742,5.859,-9.766,45.410,-10.742,62.012,0
1556211574.746,53.223,-7.324,41.992,1.953,83.496,0
1556211574.750,8.301,-1.465,50.293,16.602,89.355,0
1556211574.754,-32.227,0.977,53.711,14.160,69.824,0
1556211574.758,18.555,-2.930,42.480,13.184,66.406,0
1556211574.760,73.242,-5.371,36.621,22.461,93.262,0
1556211574.764,37.109,-4.395,40.039,24.414,93.750,0
1556211574.768,-21.973,-8.789,41.016,25.879,81.055,0
1556211574.772,-0.488,-11.230,39.551,29.297,88.867,0
1556211574.776,56.641,-6.836,39.551,32.227,86.914,0
1556211574.780,42.969,-9.277,41.992,37.598,51.758,0
1556211574.784,-28.809,-4.883,37.109,34.668,48.340,0
1556211574.787,-31.738,-1.953,36.133,30.762,88.867,0
1556211574.791,36.133,-9.766,45.898,29.297,47.363,0
1556211574.795,50.293,-7.812,48.828,24.414,8.301,0
1556211574.799,-9.766,-5.859,47.852,21.484,42.969,0
1556211574.803,-37.598,-8.789,51.758,21.973,86.426,0
1556211574.820,23.926,-11.230,45.410,19.043,72.266,0
1556211574.824,69.336,-14.648,38.574,13.672,58.594,0
1556211574.828,20.996,-1.953,43.945,15.625,29.785,0
1556211574.832,-31.738,2.441,36.621,18.555,37.109,0
1556211574.836,11.719,-2.441,31.738,16.602,85.449,0
1556211574.840,69.336,-4.883,37.598,18.066,68.848,0
1556211574.844,40.527,-4.395,37.598,25.391,26.367,0
1556211574.847,-13.672,-1.465,40.039,35.156,43.457,0
1556211574.851,12.695,-0.488,41.504,39.062,59.570,0
1556211574.855,70.801,-2.441,43.945,26.367,50.781,0
1556211574.859,61.523,-6.836,47.852,21.973,76.660,0
1556211574.863,1.465,-10.742,46.875,35.645,62.988,0
1556211574.850,-6.836,-2.930,54.688,36.621,41.016,0
1556211574.854,54.199,2.441,56.641,30.273,66.895,0
1556211574.858,76.172,0.000,51.270,35.645,99.609,0
1556211574.862,17.090,7.812,54.688,41.504,86.426,0
1556211574.866,-17.578,15.137,54.199,34.180,63.965,0
1556211574.870,36.133,5.371,52.246,22.949,76.172,0
1556211574.874,74.707,0.488,53.223,23.926,87.891,0
1556211574.877,28.809,6.348,52.246,32.227,62.012,0
1556211574.881,-28.809,4.883,53.223,25.879,41.992,0
1556211574.885,1.465,-1.465,43.457,12.695,51.758,0
1556211574.889,58.105,-0.488,44.434,11.230,73.242,0
1556211574.893,36.621,-2.930,52.734,16.113,58.594,0
1556211574.895,-27.344,-6.836,52.734,16.602,25.391,0
1556211574.899,-16.113,-8.301,51.758,14.648,0.977,0
1556211574.903,59.570,-3.906,52.734,25.879,17.578,0
1556211574.907,62.988,3.418,52.246,37.598,30.762,0
1556211574.911,-2.441,4.395,56.152,36.133,46.387,0
1556211574.915,-11.719,5.859,57.129,35.645,36.621,0
1556211574.919,54.199,3.418,51.270,34.668,13.672,0
1556211574.922,79.590,-5.859,50.293,31.250,8.301,0
1556211574.926,19.043,-7.812,50.781,30.273,-9.766,0
1556211574.930,-22.461,-8.789,47.363,28.809,8.301,0
1556211574.934,29.297,-13.184,37.109,30.273,8.301,0
1556211574.938,78.125,-12.207,37.109,34.180,2.930,0
1556211574.940,38.574,-13.672,46.875,29.785,11.230,0
1556211574.944,-15.625,-12.207,51.270,32.715,2.441,0
1556211574.948,23.438,-7.324,51.270,40.039,-18.555,0
1556211574.952,79.590,-9.277,40.039,36.621,3.418,0
1556211574.956,48.828,-9.766,37.109,32.227,4.883,0
1556211574.960,-18.555,-7.324,44.434,40.527,-22.461,0
1556211574.964,-9.277,-14.160,44.922,37.109,-7.812,0
1556211574.967,56.152,-16.113,47.852,29.297,-19.531,0
1556211574.971,62.012,-5.859,51.758,25.879,-17.090,0
1556211574.975,-0.977,-4.395,53.223,28.809,-12.207,0
1556211574.979,-22.949,2.930,49.316,26.855,-11.719,0
1556211574.983,41.504,4.883,42.969,24.902,14.648,0
1556211574.985,73.242,-1.465,43.457,27.344,-9.766,0
1556211574.989,20.020,-8.789,38.086,28.320,-33.691,0
1556211574.993,-24.414,-10.742,38.574,34.668,-30.762,0
1556211574.997,16.602,-2.930,34.668,25.391,-7.812,0
1556211575.001,64.453,-2.930,29.785,19.043,-15.625,0
1556211575.005,30.273,-9.766,40.527,32.715,-24.414,0
1556211575.009,-31.250,-10.742,48.828,38.574,6.348,0
1556211575.012,-6.348,-4.395,42.969,32.227,-9.277,0
1556211575.016,60.547,4.883,41.504,31.738,-29.297,0
1556211575.020,51.758,3.906,44.922,39.062,8.301,0
1556211575.024,-15.625,0.977,34.668,36.621,3.418,0
1556211575.028,-26.367,3.418,36.133,28.809,-26.855,0
1556211575.045,41.016,-0.488,41.504,32.715,-3.906,0
1556211575.049,58.105,-14.648,32.227,30.273,-15.137,0
1556211575.053,-6.348,-15.625,35.156,20.996,-41.992,0
1556211575.057,-34.668,-7.812,42.480,22.461,-30.273,0
1556211575.061,25.391,-7.812,38.086,22.949,0.000,0
1556211575.065,67.871,-6.348,36.133,22.949,-8.789,0
1556211575.069,20.020,-5.859,41.504,24.902,-27.344,0
1556211575.072,-33.203,-3.418,47.363,25.879,-10.742,0
1556211575.076,7.324,1.953,43.457,26.855,-8.301,0
1556211575.080,64.941,0.977,38.086,22.949,-11.230,0
1556211575.084,38.086,-2.930,32.715,24.902,-15.625,0
1556211575.088,-28.809,-5.859,35.156,28.809,-2.441,0
1556211575.090,-16.602,-12.207,41.016,22.461,-13.184,0
1556211575.094,54.199,-18.555,38.086,13.672,-14.160,0
1556211575.098,53.711,-9.766,39.551,19.043,6.836,0
1556211575.102,-18.066,-0.488,40.527,23.926,12.695,0
1556211575.106,-26.367,-5.859,39.062,20.996,-11.230,0
1556211575.110,37.598,-13.184,34.668,21.973,-23.926,0
1556211575.114,56.641,-13.184,32.715,24.902,14.648,0
1556211575.117,1.953,-7.812,39.551,31.250,-2.441,0
1556211575.121,-29.297,-6.348,47.363,34.668,-17.090,0
1556211575.125,27.832,-2.930,48.340,32.227,-3.906,0
1556211575.129,70.312,2.441,41.504,29.297,-16.602,0
1556211575.133,30.762,4.883,41.016,31.738,-8.301,0
1556211575.135,-23.438,-11.230,51.270,32.715,-31.250,0
1556211575.139,3.906,-17.090,53.223,28.320,-30.762,0
1556211575.143,64.453,-2.930,46.875,30.273,-7.812,0
1556211575.147,45.898,1.953,46.387,31.738,-17.578,0
1556211575.151,-18.555,-4.395,50.293,30.273,-23.926,0
1556211575.155,-7.812,-4.395,52.246,28.809,-30.762,0
1556211575.159,57.617,2.441,52.734,25.879,-5.859,0
1556211575.162,56.641,0.977,52.246,27.344,-22.949,0
1556211575.166,-13.184,-3.906,46.387,28.809,-55.664,0
1556211575.170,-32.227,-14.160,42.480,23.438,-42.480,0
1556211575.174,31.738,-17.090,41.016,16.602,-50.781,0
1556211575.178,64.453,-14.648,40.527,21.484,-16.602,0
1556211575.180,8.301,-19.043,39.551,28.809,10.742,0
1556211575.184,-40.039,-17.090,41.992,21.973,-20.996,0
1556211575.188,10.254,-7.324,39.062,18.066,18.555,0
1556211575.192,66.406,-9.766,38.086,19.531,29.297,0
1556211575.196,25.879,-13.672,39.551,23.438,-11.719,0
1556211575.200,-36.133,-15.137,38.086,25.879,-16.602,0
1556211575.204,-7.324,-10.742,29.785,19.531,-8.789,0
1556211575.207,58.594,-5.859,27.344,18.555,-21.973,0
1556211575.211,47.852,-1.953,41.992,24.414,-39.062,0
1556211575.215,-19.531,-2.930,38.574,21.484,6.348,0
1556211575.219,-20.508,-1.953,35.645,14.160,33.691,0
1556211575.223,49.805,2.441,37.598,17.578,-1.953,0
1556211575.226,69.824,3.418,36.621,25.391,37.598,0
1556211575.230,8.789,12.207,46.387,35.156,27.344,0
1556211575.234,-22.949,17.090,54.199,32.715,-3.906,0
1556211575.238,33.691,17.090,51.270,22.461,13.672,0
1556211575.242,68.359,21.484,53.223,20.996,12.695,0
1556211575.246,14.160,26.367,60.547,21.484,-18.555,0
1556211575.250,-46.387,29.297,57.129,6.836,-34.668,0
1556211575.253,-13.672,29.297,54.688,-12.695,1.465,0
1556211575.257,29.785,24.902,58.105,-20.508,18.555,0
1556211575.261,-16.602,28.320,63.477,-29.297,14.648,0
1556211575.265,-94.727,37.598,68.359,-47.363,-40.527,0
1556211575.269,-98.145,40.039,69.824,-71.777,0.977,0
1556211575.270,-56.152,46.387,70.312,-90.820,41.016,0
1556211575.274,-79.590,51.270,71.777,-108.887,-4.395,0
1556211575.278,-149.414,53.711,77.637,-114.746,-20.020,0
1556211575.282,-159.668,43.945,77.637,-115.234,-45.410,0
1556211575.286,-107.422,27.344,54.199,-133.789,-11.719,0
1556211575.290,-95.215,18.066,34.668,-136.719,5.859,0
1556211575.294,-158.691,5.859,33.691,-129.395,-11.719,0
1556211575.297,-184.082,8.789,35.156,-125.977,-5.371,0
1556211575.301,-112.305,8.789,37.109,-119.141,3.906,0
1556211575.305,-60.547,7.324,34.180,-107.910,6.348,0
1556211575.309,-92.773,9.277,36.621,-88.867,-35.156,0
1556211575.313,-125.977,1.953,42.969,-73.242,-30.273,0
1556211575.315,-76.172,3.418,42.480,-57.617,7.324,0
1556211575.319,0.977,9.766,39.551,-40.039,11.230,0
1556211575.323,-2.930,3.418,43.457,-21.484,-1.465,0
1556211575.327,-59.570,-9.766,45.410,-9.766,-16.113,0
1556211575.331,-31.738,-10.742,39.551,-0.977,-42.480,0
1556211575.335,48.828,-10.254,37.598,12.695,-48.828,0
1556211575.339,53.223,-13.184,41.504,18.555,-27.832,0
1556211575.342,-9.277,-7.812,42.969,21.484,9.277,0
1556211575.346,-16.113,-7.812,37.598,27.344,-4.883,0
1556211575.350,52.246,-17.090,36.621,32.715,-18.066,0
1556211575.354,77.637,-16.602,41.992,40.039,13.672,0
1556211575.358,23.926,-22.461,41.504,45.410,1.465,0
1556211575.360,-7.324,-16.602,39.551,50.293,26.367,0
1556211575.364,52.246,-6.836,37.598,56.641,63.477,0
1556211575.368,101.562,-12.695,33.203,60.059,44.434,0
1556211575.372,56.152,-6.348,33.203,62.012,22.949,0
1556211575.376,-2.441,-10.254,32.715,61.035,-5.859,0
1556211575.380,38.086,-18.555,35.156,74.707,-34.180,0
1556211575.384,106.934,-19.531,38.086,77.637,20.996,0
1556211575.387,81.055,-17.578,32.227,65.430,30.273,0
1556211575.391,11.230,-18.066,32.715,68.848,8.789,0
1556211575.395,25.879,-30.273,42.480,70.801,32.227,0
1556211575.399,90.332,-31.250,39.551,65.430,20.508,0
1556211575.403,100.586,-27.832,34.668,67.383,-28.809,0
1556211575.405,46.875,-25.391,33.691,69.336,0.000,0
1556211575.409,29.297,-18.066,34.180,71.777,13.184,0
1556211575.413,92.285,-14.648,34.180,69.336,-28.320,0
1556211575.417,122.559,-14.160,35.645,66.895,20.996,0
1556211575.421,70.312,-17.578,38.574,78.125,29.297,0
1556211575.425,23.926,-20.508,37.598,79.102,17.090,0
1556211575.429,62.500,-18.555,37.598,67.383,-0.977,0
1556211575.432,100.586,-15.625,44.434,65.430,2.441,0
1556211575.436,56.641,-18.555,38.574,73.242,44.922,0
1556211575.440,-5.371,-20.020,36.621,77.148,27.344,0
1556211575.444,21.484,-11.230,47.363,72.754,12.207,0
1556211575.448,88.867,-11.719,47.852,66.406,2.930,0
1556211575.465,77.148,-20.508,46.875,64.453,20.996,0
1556211575.469,9.277,-12.207,47.363,63.965,5.859,0
1556211575.473,7.324,-9.766,41.992,51.270,31.250,0
1556211575.477,69.824,-15.137,36.133,40.039,51.270,0
1556211575.481,80.566,-25.879,37.598,42.480,0.488,0
1556211575.485,23.438,-27.344,42.480,42.480,14.648,0
1556211575.489,-4.395,-12.207,40.527,36.621,22.461,0
1556211575.492,52.246,-11.230,38.574,37.598,19.531,0
1556211575.496,88.867,-16.113,42.480,41.504,-16.602,0
1556211575.500,35.156,-15.137,41.992,40.527,-0.488,0
1556211575.504,-10.254,-12.695,42.969,43.945,40.527,0
1556211575.508,36.621,-13.184,50.293,50.293,20.020,0
1556211575.510,86.426,-13.184,51.270,48.340,34.180,0
1556211575.514,54.199,-6.348,51.758,47.363,30.273,0
1556211575.518,-2.441,-2.441,53.223,55.176,10.254,0
1556211575.522,19.043,-5.371,59.082,56.152,9.766,0
1556211575.526,77.148,-8.301,55.176,46.387,-2.930,0
1556211575.530,68.848,-13.672,42.480,46.875,26.855,0
1556211575.534,1.953,-12.207,40.527,47.363,12.695,0
1556211575.537,-10.254,-6.836,40.527,36.133,-3.418,0
1556211575.541,61.035,-9.277,44.434,38.086,14.160,0
1556211575.545,81.543,-11.719,44.434,41.992,19.531,0
1556211575.549,13.184,-1.953,39.551,37.109,42.969,0
1556211575.553,-20.996,-1.465,47.363,37.109,10.254,0
1556211575.555,34.180,-7.324,41.016,27.344,-8.301,0
1556211575.559,76.172,-5.859,32.227,20.508,44.922,0
1556211575.563,33.203,3.906,42.480,29.297,-0.488,0
1556211575.567,-24.902,7.812,47.363,30.762,-27.344,0
1556211575.571,9.277,-4.883,42.969,26.855,-51.758,0
1556211575.575,66.895,-7.812,45.410,24.414,-21.973,0
1556211575.579,40.039,7.324,48.828,24.902,40.527,0
1556211575.582,-19.043,11.230,49.316,35.645,1.465,0
1556211575.586,-1.465,-1.465,48.340,33.691,20.020,0
1556211575.590,62.500,-5.371,38.574,21.484,-30.762,0
1556211575.594,66.406,-1.953,40.527,29.297,-30.273,0
1556211575.598,9.766,1.465,51.270,43.945,23.926,0
1556211575.600,-5.371,3.906,48.340,42.969,9.277,0
1556211575.604,57.617,0.488,44.922,39.551,10.742,0
1556211575.608,84.961,-0.977,48.828,42.969,41.504,0
1556211575.612,32.715,1.953,45.898,47.363,73.242,0
1556211575.616,-4.395,5.859,48.828,50.781,87.891,0
1556211575.620,46.387,13.672,52.246,55.176,25.879,0
1556211575.624,91.309,4.395,45.898,51.758,18.066,0
1556211575.627,46.875,-5.859,43.457,52.734,36.621,0
1556211575.631,-11.230,0.977,47.363,57.129,-41.016,0
1556211575.635,14.160,3.906,39.551,44.434,-37.109,0
1556211575.639,72.754,1.953,44.434,30.762,-25.391,0
1556211575.643,55.176,-1.465,58.105,27.344,-13.672,0
1556211575.645,-10.742,4.883,57.617,31.250,-29.297,0
1556211575.649,-10.254,14.648,47.363,26.367,-34.180,0
1556211575.653,54.688,9.766,43.945,18.555,31.250,0
1556211575.657,64.453,5.371,49.805,27.832,24.902,0
1556211575.661,-3.418,2.930,56.152,33.203,-18.555,0
1556211575.665,-27.832,-9.277,50.293,27.832,9.277,0
1556211575.669,32.227,-4.395,42.969,26.855,57.617,0
1556211575.672,70.312,8.301,45.410,30.762,-20.508,0
1556211575.676,22.461,10.742,48.828,34.180,-17.578,0
1556211575.680,-20.020,12.695,44.434,40.039,45.898,0
1556211575.684,28.320,7.812,40.527,41.016,-27.832,0
1556211575.688,80.566,6.836,38.086,33.203,32.715,0
1556211575.690,45.410,3.906,36.621,35.645,44.434,0
1556211575.694,-19.531,0.977,40.527,35.645,-17.578,0
1556211575.698,4.395,3.418,40.527,32.715,7.812,0
1556211575.702,66.895,1.953,42.969,35.645,1.465,0
1556211575.706,59.082,0.977,42.480,39.062,28.809,0
1556211575.710,-4.395,5.859,44.922,46.875,25.391,0
1556211575.714,-9.766,7.324,51.270,49.805,-28.320,0
1556211575.717,52.734,2.441,47.852,40.039,-14.648,0
1556211575.721,64.941,-2.930,41.504,34.668,-25.879,0
1556211575.725,4.883,-1.953,38.574,33.203,-36.621,0
1556211575.729,-20.996,0.000,44.434,33.691,21.484,0
1556211575.733,40.039,-3.418,50.781,27.344,36.621,0
1556211575.735,79.590,1.465,51.270,23.926,14.160,0
1556211575.739,27.344,0.977,50.781,33.203,70.801,0
1556211575.743,-25.879,-1.465,50.293,40.527,62.012,0
1556211575.747,11.719,0.000,46.875,32.227,54.688,0
1556211575.751,66.406,-9.766,42.480,26.367,58.594,0
1556211575.755,39.062,-11.230,46.875,30.762,20.020,0
1556211575.759,-22.461,-0.977,51.758,33.691,32.227,0
1556211575.762,-5.371,3.418,47.852,32.715,9.277,0
1556211575.766,65.430,4.883,39.551,32.715,-20.020,0
1556211575.770,66.406,6.348,41.992,36.621,-2.441,0
1556211575.774,0.000,11.230,45.898,43.457,3.906,0
1556211575.778,-11.230,3.906,43.945,38.086,-23.438,0
1556211575.780,53.711,-5.371,45.898,27.344,25.879,0
1556211575.784,77.637,6.348,48.340,31.250,53.223,0
1556211575.788,15.625,10.254,48.828,33.691,26.855,0
1556211575.792,-22.461,2.930,48.828,32.227,-15.137,0
1556211575.796,33.691,-0.488,43.945,31.738,13.184,0
1556211575.800,76.660,0.977,42.480,37.109,27.344,0
1556211575.804,33.691,9.766,51.758,35.156,-40.039,0
1556211575.807,-21.484,8.301,46.387,29.785,-21.484,0
1556211575.811,13.672,4.883,38.086,32.227,29.785,0
1556211575.815,70.801,7.324,39.551,30.762,39.551,0
1556211575.819,42.480,3.418,44.922,23.438,52.734,0
1556211575.823,-24.414,0.977,44.922,21.484,40.039,0
1556211575.840,-15.137,3.906,40.527,21.484,-12.207,0
1556211575.844,55.664,0.000,45.898,25.879,-27.832,0
1556211575.848,64.453,-0.488,49.805,29.297,-24.902,0
1556211575.852,0.488,6.348,56.641,31.738,-16.113,0
1556211575.856,-15.137,6.348,61.035,33.691,19.043,0
1556211575.860,45.410,-7.812,56.152,32.715,-0.977,0
1556211575.864,71.289,-10.742,54.688,34.180,31.250,0
1556211575.867,18.066,2.930,56.641,40.527,40.039,0
1556211575.871,-19.043,6.836,55.664,44.434,26.855,0
1556211575.875,30.762,4.395,57.617,41.016,0.977,0
1556211575.879,80.566,-3.418,52.246,40.527,14.160,0
1556211575.883,46.387,3.906,43.945,44.434,85.938,0
1556211575.900,-18.066,13.672,48.828,40.039,74.707,0
1556211575.904,18.066,11.230,54.688,42.969,31.250,0
1556211575.908,77.637,14.648,52.246,33.691,24.414,0
1556211575.912,50.781,24.414,45.898,19.043,20.996,0
1556211575.916,-14.648,20.020,41.504,15.137,36.621,0
1556211575.920,-11.230,4.883,37.598,20.996,32.715,0
1556211575.924,60.059,15.137,33.203,26.367,45.410,0
1556211575.927,71.777,30.273,35.156,24.414,26.855,0
1556211575.931,8.301,21.973,39.551,23.926,24.414,0
1556211575.935,-16.602,17.090,34.668,17.090,53.711,0
1556211575.939,45.898,22.461,30.273,17.090,40.039,0
1556211575.943,83.496,23.438,34.180,20.996,37.598,0
1556211575.931,34.668,20.508,40.039,33.203,45.410,0
1556211575.935,-11.230,18.066,35.645,46.387,24.414,0
1556211575.939,33.203,13.672,32.715,38.574,-10.742,0
1556211575.943,85.449,12.207,33.691,26.855,1.953,0
1556211575.947,52.734,17.090,32.227,27.344,36.133,0
1556211575.951,-8.789,16.602,33.691,31.250,9.277,0
1556211575.955,7.812,0.977,35.156,27.344,-29.297,0
1556211575.958,77.637,5.859,37.109,22.949,-7.812,0
1556211575.962,65.918,11.230,40.039,25.391,31.250,0
1556211575.966,-6.836,4.883,38.574,29.785,4.883,0
1556211575.970,-7.324,6.836,38.086,34.668,-15.625,1
1556211575.974,60.547,11.230,36.133,29.297,-18.066,0
1556211575.975,78.125,16.113,36.133,23.926,32.227,0
1556211575.979,14.648,14.160,40.527,25.879,76.660,0
1556211575.983,-15.625,6.836,39.551,25.391,21.484,0
1556211575.987,43.945,7.812,35.156,22.949,25.391,0
1556211575.991,91.309,14.160,40.527,28.809,44.922,0
1556211575.995,49.316,11.719,43.945,38.086,-30.762,0
1556211575.999,-5.859,3.906,42.480,40.527,26.855,0
1556211576.002,36.133,18.555,48.340,42.969,65.918,0
1556211576.006,91.309,20.020,45.898,41.992,3.418,0
1556211576.010,60.547,6.348,40.527,39.551,20.020,0
1556211576.014,-0.488,8.301,41.992,41.992,22.461,0
1556211576.018,11.719,8.301,40.039,42.480,11.719,0
1556211576.023,76.172,4.883,39.062,40.527,2.930,0
1556211576.027,72.754,8.301,41.504,39.062,-17.090,0
1556211576.031,2.441,7.812,45.898,43.945,-9.277,0
1556211576.035,-10.742,8.301,44.922,43.457,-8.789,0
1556211576.039,54.199,8.301,37.598,35.156,-19.043,0
1556211576.043,83.008,1.465,34.668,33.203,47.363,0
1556211576.047,40.527,9.766,36.621,55.664,24.414,0
1556211576.050,5.859,12.695,41.016,68.848,13.672,0
1556211576.054,36.621,4.883,48.828,46.387,28.809,0
1556211576.058,68.359,2.930,52.246,34.668,33.691,0
1556211576.062,10.742,-10.742,54.688,24.414,10.254,0
1556211576.066,-44.922,-14.648,54.688,21.973,10.254,0
1556211576.065,-7.812,-8.789,52.734,22.461,21.484,0
1556211576.069,47.852,-9.766,50.781,12.207,9.766,0
1556211576.073,29.785,-8.789,51.758,19.531,4.395,0
1556211576.077,-45.898,-15.137,54.688,22.949,3.906,0
1556211576.081,-38.086,-25.879,51.758,16.602,-4.883,0
1556211576.085,33.203,-28.320,47.363,4.883,-2.441,0
1556211576.089,50.293,-32.227,50.781,10.742,28.809,0
1556211576.092,-0.977,-31.738,58.594,24.414,28.809,0
1556211576.096,-21.484,-23.926,52.734,25.391,19.531,0
1556211576.100,41.016,-16.113,48.828,30.273,12.695,0
1556211576.104,73.242,-20.996,48.340,41.992,28.320,0
1556211576.108,14.648,-21.973,49.805,47.852,62.500,0
1556211576.110,-34.180,-7.812,53.711,47.363,36.621,0
1556211576.114,7.812,-8.789,45.410,43.945,12.695,0
1556211576.118,54.199,-13.184,38.086,42.480,13.184,0
1556211576.122,20.020,-9.277,41.016,47.852,0.488,0
1556211576.126,-33.691,-8.301,46.387,46.387,6.348,0
1556211576.130,-1.465,-8.789,45.898,40.527,15.625,0
1556211576.134,61.523,-8.301,43.457,39.062,73.242,0
1556211576.137,47.363,-4.883,42.969,32.715,31.250,0
1556211576.141,-19.043,0.000,44.922,25.879,-50.781,0
1556211576.145,-11.230,-1.953,39.062,30.273,-18.555,0
1556211576.149,62.500,-1.953,36.133,37.598,-22.461,0
1556211576.153,72.754,-3.418,45.410,41.992,-0.977,0
1556211576.170,10.254,-12.695,47.852,41.016,37.598,0
1556211576.174,-21.484,-11.719,48.340,41.016,40.039,0
1556211576.178,35.156,-4.395,47.363,36.133,68.848,0
1556211576.182,70.312,-3.418,43.945,29.297,105.469,0
1556211576.186,17.090,-9.277,45.898,30.273,68.848,0
1556211576.190,-25.391,-12.207,49.805,32.715,-0.977,0
1556211576.194,19.043,-7.324,48.340,30.762,-30.273,0
1556211576.197,71.777,-2.930,41.016,31.250,-10.742,0
1556211576.201,40.039,-5.859,41.992,35.156,-1.953,0
1556211576.205,-22.949,-9.277,51.270,39.551,-15.625,0
1556211576.209,-4.395,-6.836,52.734,34.668,-1.953,0
1556211576.213,57.129,-10.742,46.875,27.344,23.926,0
1556211576.215,52.246,-10.254,48.340,25.879,22.461,0
1556211576.219,-16.602,-8.789,48.340,25.879,21.484,0
1556211576.223,-19.043,-5.859,48.828,29.785,69.336,0
1556211576.227,54.199,-1.953,50.293,32.227,23.926,0
1556211576.231,67.383,-1.465,41.504,23.438,22.461,0
1556211576.235,7.812,12.207,43.945,24.902,40.039,0
1556211576.239,-24.414,8.301,45.898,32.227,-11.719,0
1556211576.242,22.949,-4.883,36.133,20.508,13.672,0
1556211576.246,65.918,-5.859,40.527,16.602,33.203,0
1556211576.250,21.973,-6.836,47.363,26.855,-9.766,0
1556211576.254,-36.621,-4.883,45.410,20.508,-23.438,0
1556211576.258,3.418,-3.418,42.480,13.184,-16.113,0
1556211576.260,67.383,-3.906,47.363,21.484,30.273,0
1556211576.264,43.945,5.859,50.293,27.344,51.758,0
1556211576.268,-22.461,13.184,46.875,23.926,60.547,0
1556211576.272,-13.672,1.465,44.434,19.531,88.867,0
1556211576.276,51.758,-8.301,40.527,16.113,76.172,0
1556211576.280,55.176,1.465,39.062,18.555,9.277,0
1556211576.284,-10.742,7.324,43.457,24.414,21.973,0
1556211576.287,-22.461,6.348,42.480,27.832,-11.230,0
1556211576.291,48.340,3.906,38.574,24.902,-31.738,0
1556211576.295,77.148,0.977,45.410,25.391,28.809,0
1556211576.299,20.508,0.977,48.340,30.273,0.000,0
1556211576.303,-17.090,3.906,42.969,31.738,-64.453,0
1556211576.305,33.203,4.883,36.133,30.273,-52.246,0
1556211576.309,77.148,3.418,40.527,28.809,-1.465,0
1556211576.313,37.598,1.953,46.387,33.691,7.812,0
1556211576.317,-16.113,-0.488,43.945,33.691,15.625,0
1556211576.321,13.672,2.441,40.527,28.809,-22.461,0
1556211576.325,70.801,4.395,45.410,26.855,-38.574,0
1556211576.329,51.270,7.812,52.246,26.367,-6.348,0
1556211576.332,-15.625,11.719,51.758,24.414,9.277,0
1556211576.336,-11.719,3.906,47.363,25.391,15.137,0
1556211576.340,52.734,0.977,39.551,18.555,10.742,0
1556211576.344,57.129,5.371,39.062,13.184,18.555,0
1556211576.348,-3.418,0.977,46.875,23.438,-37.109,0
1556211576.350,-22.949,1.953,52.734,35.156,-44.922,0
1556211576.354,40.039,8.301,49.316,31.738,39.551,0
1556211576.358,74.707,9.277,47.852,27.832,65.918,0
1556211576.362,17.090,7.324,58.594,37.109,11.230,0
1556211576.366,-31.738,5.371,59.570,36.621,24.414,0
1556211576.370,19.043,0.488,52.246,31.250,38.574,0
1556211576.374,72.266,2.441,53.711,34.668,9.766,0
1556211576.377,41.016,5.859,55.176,40.527,28.809,0
1556211576.381,-21.484,2.930,48.828,41.016,17.090,0
1556211576.385,-1.953,9.277,47.363,32.227,-35.156,0
1556211576.389,65.918,16.113,49.805,26.855,38.086,0
1556211576.393,53.711,16.602,51.758,30.762,75.195,0
1556211576.395,-15.137,12.695,55.176,33.203,35.156,0
1556211576.399,-13.184,12.207,52.734,35.156,9.766,0
1556211576.403,51.270,8.789,54.199,31.250,34.668,0
1556211576.407,62.988,1.465,60.059,27.832,84.961,0
1556211576.411,3.418,0.488,52.246,32.715,45.410,0
1556211576.415,-22.461,9.766,49.316,41.016,30.762,0
1556211576.419,36.133,9.766,50.293,40.039,-5.859,0
1556211576.422,71.289,8.301,51.270,34.668,22.949,0
1556211576.426,25.391,19.043,56.152,37.598,63.965,0
1556211576.430,-18.066,20.020,50.781,39.551,16.602,0
1556211576.434,26.367,10.254,43.457,40.039,90.332,0
1556211576.438,84.961,10.742,46.387,40.527,83.008,0
1556211576.440,52.246,17.090,50.781,36.133,12.207,0
1556211576.444,-14.648,9.277,48.340,39.551,64.941,0
1556211576.448,4.395,4.883,39.062,36.621,62.500,0
1556211576.452,68.359,8.301,37.598,33.203,-1.953,0
1556211576.456,56.641,8.301,39.551,38.086,-24.414,0
1556211576.460,-6.348,11.719,41.992,41.992,-23.926,0
1556211576.464,-11.230,12.695,49.316,37.598,9.766,0
1556211576.467,48.828,5.859,47.363,27.344,41.504,0
1556211576.471,73.242,4.395,46.387,28.320,42.480,0
1556211576.475,19.043,8.301,53.711,31.738,20.508,0
1556211576.479,-18.066,12.207,53.711,31.738,8.789,0
1556211576.483,35.645,6.348,37.598,27.344,20.508,0
1556211576.485,79.102,0.000,36.133,28.320,43.945,0
1556211576.489,36.133,5.371,47.852,37.598,10.742,0
1556211576.493,-17.578,10.742,43.457,37.109,-25.391,0
1556211576.497,21.973,10.254,41.016,39.062,55.176,0
1556211576.501,85.938,7.812,45.898,40.527,94.238,0
1556211576.505,62.500,2.930,49.316,42.969,18.555,0
1556211576.509,0.000,-0.977,52.734,43.457,-1.953,0
1556211576.512,5.859,1.465,53.711,34.668,8.789,0
1556211576.516,61.035,-2.930,49.805,23.438,-4.883,0
1556211576.520,61.035,-7.324,50.781,23.926,11.719,0
1556211576.524,0.000,-2.441,57.129,32.227,49.805,0
1556211576.528,-19.043,0.488,52.246,34.180,14.160,0
1556211576.530,43.457,4.395,39.551,29.297,22.949,0
1556211576.534,75.195,0.000,38.574,28.320,70.801,0
1556211576.538,18.555,0.488,41.504,34.668,45.410,0
1556211576.542,-20.020,6.836,48.340,35.156,-19.043,0
1556211576.546,27.832,9.766,54.199,33.203,31.250,0
1556211576.550,75.195,-2.441,50.293,25.879,40.527,0
1556211576.554,33.691,-9.277,45.898,18.555,-16.113,0
1556211576.557,-25.879,4.395,45.898,26.367,6.836,0
1556211576.561,8.301,3.418,49.805,29.785,11.230,0
1556211576.565,68.848,-6.836,52.734,24.902,19.531,0
1556211576.569,48.340,-3.906,51.758,25.391,20.020,0
1556211576.573,-15.137,-0.488,46.875,28.320,7.812,0
1556211576.590,-9.766,-4.395,48.340,26.855,37.109,0
1556211576.594,57.129,-2.930,50.293,27.344,9.766,0
1556211576.598,68.359,4.883,44.434,24.902,-14.160,0
1556211576.602,3.906,11.230,37.598,22.949,14.160,0
1556211576.606,-15.137,2.930,41.992,26.367,-11.719,0
1556211576.610,44.922,-2.930,48.828,22.949,45.898,0
1556211576.614,68.848,5.859,47.852,21.484,72.266,0
1556211576.617,11.719,2.930,45.410,22.949,38.574,0
1556211576.621,-28.320,-2.930,51.270,24.414,33.203,0
1556211576.625,20.508,-4.395,54.688,22.949,56.641,0
1556211576.629,68.359,-0.488,43.945,11.719,81.055,0
1556211576.633,38.086,7.812,42.969,12.695,36.133,0
1556211576.635,-17.090,12.207,49.316,23.926,21.484,0
1556211576.639,9.766,11.719,45.898,22.461,13.184,0
1556211576.643,77.637,12.207,46.875,27.832,0.488,0
1556211576.647,67.383,5.371,52.246,30.762,38.086,0
1556211576.651,1.465,2.441,49.805,35.156,42.969,0
1556211576.655,-4.883,3.418,53.223,33.203,21.973,0
1556211576.659,53.223,-5.371,51.270,22.949,22.461,0
1556211576.662,69.336,-6.348,46.875,22.949,3.906,0
1556211576.666,11.719,-3.906,50.293,30.762,26.367,0
1556211576.670,-21.973,-8.301,52.246,27.832,23.438,0
1556211576.674,29.297,-10.254,51.758,16.113,4.395,0
1556211576.678,65.918,-12.695,49.316,16.113,31.250,0
1556211576.680,17.090,-8.301,46.387,20.508,52.734,0
1556211576.684,-30.273,-5.859,47.852,20.020,32.715,0
1556211576.688,11.719,-10.742,46.387,15.137,-21.484,0
1556211576.692,64.453,-10.254,45.410,12.207,0.000,0
1556211576.696,35.645,-4.395,48.828,16.113,-43.457,0
1556211576.700,-23.438,-3.906,44.434,19.531,-50.781,0
1556211576.704,-4.883,-3.906,49.316,23.438,8.789,0
1556211576.707,55.664,-1.953,53.711,18.555,-14.648,0
1556211576.711,50.781,-2.441,53.223,19.531,0.488,0
1556211576.715,-14.648,3.906,56.152,27.344,-9.766,0
1556211576.719,-25.879,0.977,51.758,23.926,4.395,0
1556211576.723,42.969,-8.789,42.480,18.066,32.227,0
1556211576.725,62.500,-1.953,34.668,14.648,22.461,0
1556211576.729,4.395,5.371,37.109,17.090,29.785,0
1556211576.733,-34.180,0.000,40.527,14.160,7.324,0
1556211576.737,14.160,0.488,33.691,3.906,-24.414,0
1556211576.741,63.477,4.883,28.809,9.766,3.906,0
1556211576.745,23.438,-2.441,34.180,19.043,39.062,0
1556211576.749,-35.156,-11.230,40.039,15.137,33.203,0
1556211576.752,0.000,-7.324,42.969,12.695,-10.742,0
1556211576.756,59.570,-10.742,43.457,13.672,10.742,0
1556211576.760,34.668,-11.719,43.457,12.207,40.039,0
1556211576.764,-26.855,0.977,42.480,18.555,54.199,0
1556211576.768,-15.137,-3.906,40.527,19.531,-2.441,0
1556211576.770,51.758,1.953,39.551,10.742,-34.180,0
1556211576.774,59.570,9.766,41.992,13.184,38.574,0
1556211576.778,0.000,0.488,45.410,25.391,82.031,0
1556211576.782,-20.996,-0.977,43.457,33.691,69.824,0
1556211576.786,35.645,2.930,38.086,29.297,49.316,0
1556211576.790,61.523,-6.348,42.480,33.691,46.875,0
1556211576.794,-0.488,-14.160,44.922,40.039,21.973,0
1556211576.797,-42.480,-10.742,46.387,41.992,36.133,0
1556211576.801,6.836,0.977,48.828,30.273,25.391,0
1556211576.805,53.223,3.906,47.363,19.043,-25.391,0
1556211576.809,22.949,5.859,52.734,24.902,14.648,0
1556211576.813,-26.855,5.859,53.223,30.762,43.945,0
1556211576.815,4.883,5.371,39.062,26.367,43.457,0
1556211576.819,71.289,14.648,36.621,26.855,-2.930,0
1556211576.823,62.500,22.949,47.363,38.574,-21.484,0
1556211576.827,-5.859,20.020,47.852,38.086,-22.949,0
1556211576.831,-8.789,7.812,45.898,38.574,-4.883,0
1556211576.835,58.105,2.441,41.992,37.109,52.246,0
1556211576.839,70.312,4.883,37.598,28.320,76.172,0
1556211576.842,10.742,7.812,34.668,29.297,15.137,0
1556211576.846,-17.578,5.859,32.227,25.879,8.789,0
1556211576.850,41.016,11.230,37.598,23.926,4.883,0
1556211576.854,72.754,4.395,39.551,22.461,33.203,0
1556211576.858,21.484,-4.395,44.434,23.438,50.293,0
1556211576.860,-24.902,6.836,45.410,31.250,-2.930,0
1556211576.864,14.160,6.348,45.410,26.855,37.598,0
1556211576.868,71.777,6.836,50.293,21.484,20.508,0
1556211576.872,42.969,11.719,53.223,29.297,1.465,0
1556211576.876,-20.508,9.277,53.711,34.180,-35.645,0
1556211576.880,0.488,10.742,56.152,31.250,-32.715,0
1556211576.884,65.430,0.488,52.246,30.762,24.414,0
1556211576.887,54.688,0.488,48.340,26.855,44.434,0
1556211576.891,-6.836,13.184,53.711,23.438,71.777,0
1556211576.895,-6.836,8.301,53.223,26.855,56.152,0
1556211576.899,56.152,6.836,45.898,22.949,25.879,0
1556211576.903,71.777,9.277,45.898,20.020,-30.762,0
1556211576.905,12.695,6.348,46.875,22.949,-10.742,0
1556211576.909,-19.531,4.883,49.316,19.531,9.766,0
1556211576.913,30.273,5.859,47.363,16.113,8.789,0
1556211576.917,69.336,7.324,42.969,14.648,8.301,0
1556211576.921,21.484,3.418,42.969,10.254,-29.785,0
1556211576.925,-27.344,-0.977,41.992,17.090,19.043,0
1556211576.929,8.301,1.953,48.340,15.625,45.410,0
1556211576.932,60.059,11.719,50.781,11.719,-1.953,0
1556211576.936,40.039,13.184,52.734,18.555,10.742,0
1556211576.940,-22.461,6.836,58.105,23.926,4.395,0
1556211576.944,-7.812,8.301,56.152,26.367,12.695,0
1556211576.948,56.152,3.418,51.758,22.949,-12.695,0
1556211576.966,56.641,-2.930,44.922,24.414,-14.648,0
1556211576.970,-8.301,-0.977,47.852,28.320,-4.883,0
1556211576.974,-22.461,3.418,51.270,24.902,-6.348,0
1556211576.978,45.410,10.254,49.316,27.344,59.570,0
1556211576.982,77.637,12.207,51.758,35.645,21.973,0
1556211576.986,29.297,15.625,56.641,47.363,-12.695,0
1556211576.990,-11.230,18.555,54.199,47.852,-5.859,0
1556211576.993,32.227,10.742,47.852,38.086,6.348,0
1556211576.997,79.102,4.883,46.875,35.645,46.387,0
1556211577.001,36.133,5.859,50.293,30.273,21.973,0
1556211577.005,-24.414,6.836,48.340,30.273,16.602,1
1556211577.009,5.371,1.465,42.480,28.320,19.043,0
1556211577.010,65.918,-3.418,46.387,23.438,-14.160,0
1556211577.014,48.340,4.883,44.434,24.902,-35.156,0
1556211577.018,-20.996,-1.465,42.969,23.438,-22.461,0
1556211577.022,-14.648,-2.930,46.387,17.578,-20.508,0
1556211577.026,46.875,6.836,44.434,13.184,20.508,0
1556211577.030,52.734,14.648,46.875,18.066,54.688,0
1556211577.034,-5.371,18.555,47.852,28.320,19.531,0
1556211577.037,-26.367,11.719,43.457,23.926,-17.090,0
1556211577.041,36.133,6.348,42.480,18.555,-8.301,0
1556211577.045,69.336,6.836,43.457,23.438,-12.207,0
1556211577.049,17.578,12.207,46.387,27.344,-6.836,0
1556211577.053,-20.996,16.113,52.734,32.227,21.973,0
1556211577.055,26.855,11.719,53.711,34.180,36.621,0
1556211577.059,77.148,6.348,49.805,36.133,-9.277,0
1556211577.063,40.527,14.160,45.410,38.086,-19.531,0
1556211577.067,-15.137,12.695,51.758,41.504,-4.395,0
1556211577.071,11.719,7.324,51.758,40.527,-15.137,0
1556211577.075,72.754,13.184,46.875,34.668,39.062,0
1556211577.079,59.082,10.254,54.199,38.086,24.902,0
1556211577.082,-7.324,5.371,61.523,41.504,-12.207,0
1556211577.086,-9.277,6.836,58.105,35.156,-1.465,0
1556211577.090,54.199,3.418,49.805,25.391,67.871,0
1556211577.094,69.336,0.977,50.781,38.574,43.945,0
1556211577.098,8.789,6.348,53.223,43.945,32.715,0
1556211577.100,-20.508,10.742,49.316,35.156,66.406,0
1556211577.104,34.180,11.230,42.969,30.762,57.129,0
1556211577.108,67.871,0.488,40.039,26.367,46.387,0
1556211577.112,22.461,-5.859,46.387,32.227,21.973,0
1556211577.116,-23.438,-6.836,48.828,32.715,-3.906,0
1556211577.120,15.137,-1.953,41.992,25.879,1.465,0
1556211577.124,68.848,1.953,39.062,23.926,12.207,0
1556211577.127,39.062,-3.418,41.504,25.879,14.160,0
1556211577.131,-23.926,-1.465,47.852,23.438,-12.207,0
1556211577.135,-3.418,1.953,46.875,21.484,-22.461,0
1556211577.139,62.988,8.301,42.480,24.414,27.344,0
1556211577.143,55.176,6.836,46.387,26.855,-13.184,0
1556211577.145,-11.230,-2.441,53.711,31.250,-23.926,0
1556211577.149,-16.602,1.465,47.852,35.156,-2.441,0
1556211577.153,46.387,2.441,43.457,34.180,9.277,0
1556211577.157,67.871,0.000,53.223,30.762,45.410,0
1556211577.161,5.371,-8.789,49.805,28.320,36.621,0
1556211577.165,-32.715,-11.230,43.457,30.762,47.363,0
1556211577.169,26.855,-6.836,37.598,32.227,33.203,0
1556211577.172,73.730,-5.859,37.109,33.203,16.113,0
1556211577.176,24.902,-1.465,42.969,33.203,15.137,0
1556211577.180,-25.879,5.371,45.410,32.715,-28.809,0
1556211577.184,15.625,5.859,49.805,31.738,13.184,0
1556211577.188,74.707,7.812,55.664,30.762,64.453,0
1556211577.190,52.734,6.348,51.270,26.855,37.109,0
1556211577.194,-11.719,-3.418,50.293,27.344,-6.836,0
1556211577.198,-2.930,-4.395,57.129,26.855,23.438,0
1556211577.202,59.082,-0.977,57.129,28.809,50.781,0
1556211577.206,59.082,6.836,59.082,27.832,29.297,0
1556211577.210,-6.836,2.441,63.965,30.273,32.715,0
1556211577.214,-21.484,1.953,59.570,34.668,23.438,0
1556211577.217,43.457,8.301,52.734,25.391,22.949,0
1556211577.221,70.312,5.371,45.410,21.973,21.973,0
1556211577.225,14.160,6.348,47.852,26.855,37.109,0
1556211577.229,-25.879,7.324,47.852,26.855,1.465,0
1556211577.233,23.926,6.836,40.527,24.902,5.859,0
1556211577.236,71.289,13.184,44.434,26.367,60.547,0
1556211577.240,35.645,15.137,49.316,25.391,6.836,0
1556211577.244,-20.020,9.766,53.711,25.391,37.109,0
1556211577.248,9.766,14.648,54.688,23.926,74.707,0
1556211577.252,73.242,16.113,52.246,26.367,45.410,0
1556211577.256,57.129,15.137,51.270,32.715,75.684,0
1556211577.260,-8.789,6.348,56.152,31.738,46.387,0
1556211577.263,-7.812,-2.441,49.805,25.879,-37.598,0
1556211577.267,59.082,0.977,47.363,28.809,-37.109,0
1556211577.271,70.312,8.789,59.570,33.203,13.184,0
1556211577.275,5.371,15.137,62.988,37.598,50.293,0
1556211577.279,-19.043,17.578,58.105,37.109,7.324,0
1556211577.295,41.992,17.090,54.688,29.785,-30.762,0
1556211577.299,75.684,13.672,54.199,33.691,19.531,0
1556211577.303,20.020,13.184,59.082,37.598,15.625,0
1556211577.307,-27.344,20.020,58.105,33.203,11.230,0
1556211577.311,20.996,16.602,52.246,33.203,44.922,0
1556211577.315,78.613,1.465,46.387,35.645,35.156,0
1556211577.319,40.527,0.977,48.340,33.691,-1.953,0
1556211577.322,-25.879,12.207,57.617,33.203,-22.461,0
1556211577.326,-1.465,10.742,56.152,33.203,-34.180,0
1556211577.330,60.059,1.465,48.340,24.902,-7.812,0
1556211577.334,46.875,-2.441,46.875,24.414,26.855,0
1556211577.338,-19.531,0.977,51.270,30.762,29.297,0
1556211577.341,-25.879,1.953,49.316,21.484,39.062,0
1556211577.345,41.504,5.371,45.898,18.555,12.207,0
1556211577.349,61.523,10.742,41.016,18.555,-11.230,0
1556211577.353,-2.930,4.883,39.551,16.113,-36.133,0
1556211577.357,-33.203,-1.953,43.945,19.531,-36.133,0
1556211577.361,28.320,-5.859,47.363,19.531,41.016,0
1556211577.365,71.289,-4.883,45.898,20.508,58.105,0
1556211577.368,22.949,0.977,44.922,21.973,28.809,0
1556211577.372,-25.391,0.977,53.711,30.762,-25.879,0
1556211577.376,18.066,-2.930,54.199,23.438,-17.090,0
1556211577.380,67.871,-7.812,46.875,10.742,35.645,0
1556211577.384,40.527,-7.812,48.340,21.484,13.672,0
1556211577.385,-13.184,-6.836,55.176,32.227,8.789,0
1556211577.389,3.906,-9.277,56.152,27.344,49.316,0
1556211577.393,65.430,-0.488,51.758,26.367,57.617,0
1556211577.397,63.965,4.883,59.082,30.762,7.324,0
1556211577.401,0.977,5.859,61.523,33.203,-38.086,0
1556211577.405,-10.254,11.719,54.688,35.645,37.109,0
1556211577.409,54.688,8.789,46.387,27.832,75.195,0
1556211577.412,72.266,4.395,40.527,22.461,44.922,0
1556211577.416,14.648,4.883,49.805,30.762,28.320,0
1556211577.420,-20.508,7.324,53.223,34.180,25.879,0
1556211577.424,28.320,8.789,47.363,20.996,45.410,0
1556211577.428,69.824,4.395,48.340,18.066,32.227,0
1556211577.430,28.320,-2.441,49.316,22.461,36.621,0
1556211577.434,-23.438,-2.930,48.828,25.391,32.715,0
1556211577.438,9.277,0.488,48.340,23.438,27.344,0
1556211577.442,71.289,-4.395,48.340,23.926,-10.742,0
1556211577.446,50.293,0.488,51.270,27.344,17.578,0
1556211577.450,-16.113,9.277,54.688,30.273,46.387,0
1556211577.454,-6.348,4.395,46.387,31.738,60.547,0
1556211577.457,60.059,-0.488,40.527,25.391,41.016,0
1556211577.461,69.336,-5.371,48.828,28.320,-21.484,0
1556211577.465,5.371,-2.930,41.504,30.762,13.672,0
1556211577.469,-13.184,-3.418,36.621,27.344,16.113,0
1556211577.473,50.781,-7.324,45.410,29.785,-0.488,0
1556211577.475,74.707,-6.836,47.363,32.227,51.270,0
1556211577.479,17.090,-8.301,49.805,31.250,49.805,0
1556211577.483,-18.555,-7.812,50.781,28.320,4.883,0
1556211577.487,31.738,-11.719,48.340,27.832,-9.277,0
1556211577.491,80.078,-13.672,43.457,34.180,-25.879,0
1556211577.495,40.527,-12.695,47.363,37.598,-33.691,0
1556211577.499,-22.461,-13.672,50.781,28.809,11.230,0
1556211577.502,1.953,-11.719,47.852,24.414,23.438,0
1556211577.506,65.918,-0.977,46.875,20.020,41.992,0
1556211577.510,50.293,1.465,41.992,17.090,22.949,0
1556211577.514,-16.602,-4.883,37.598,17.090,-5.371,0
1556211577.518,-8.789,-8.789,39.551,20.020,30.273,0
1556211577.520,62.988,-7.324,35.156,18.555,10.254,0
1556211577.524,73.242,-2.930,34.180,18.555,2.930,0
1556211577.528,17.090,3.418,42.969,32.227,24.902,0
1556211577.532,-8.301,-0.977,37.109,38.574,5.371,0
1556211577.536,39.062,-7.324,30.273,32.227,-0.488,0
1556211577.540,68.848,-9.766,34.668,33.691,12.207,0
1556211577.544,15.137,-16.113,39.062,38.086,-17.090,0
1556211577.547,-36.621,-9.766,42.480,33.203,27.832,0
1556211577.551,2.441,-1.465,41.992,28.809,28.809,0
1556211577.555,52.734,-8.789,42.969,24.414,-10.254,0
1556211577.559,26.855,-1.465,49.316,26.367,15.137,0
1556211577.563,-26.367,9.766,54.688,34.180,8.301,0
1556211577.565,-5.859,9.277,54.199,32.715,-14.160,0
1556211577.569,60.059,4.883,53.711,29.297,-17.090,0
1556211577.573,58.105,1.465,50.293,30.273,29.785,0
1556211577.577,-9.277,-6.348,42.969,24.414,2.441,0
1556211577.581,-15.137,-8.789,53.223,20.020,18.066,0
1556211577.585,49.805,-3.906,58.594,24.902,15.137,0
1556211577.589,64.941,-2.441,54.199,24.902,18.555,0
1556211577.592,0.488,-6.348,55.664,21.484,39.062,0
1556211577.596,-39.551,-3.906,53.711,17.090,-16.113,0
1556211577.600,17.090,-2.441,47.363,16.602,41.016,0
1556211577.604,60.547,-3.418,41.504,22.461,69.824,0
1556211577.608,20.996,-4.883,43.457,28.320,41.992,0
1556211577.610,-22.461,1.465,49.316,32.715,49.316,0
1556211577.614,17.090,4.395,51.270,35.156,29.785,0
1556211577.618,68.848,-0.977,48.828,35.156,33.203,0
1556211577.622,41.992,1.465,47.852,37.598,25.879,0
1556211577.626,-16.602,2.930,45.898,35.645,47.363,0
1556211577.630,1.465,1.953,43.945,31.250,88.379,0
1556211577.634,68.848,3.906,46.875,29.785,45.410,0
1556211577.637,65.918,16.602,48.340,29.297,49.805,0
1556211577.641,0.000,20.508,49.316,32.227,81.055,0
1556211577.645,-9.277,9.277,46.387,38.574,0.488,0
1556211577.649,56.641,7.812,42.480,28.809,16.602,0
1556211577.653,79.590,7.812,40.039,20.508,74.219,0
1556211577.670,17.578,10.254,40.527,22.461,51.270,0
1556211577.674,-21.484,12.695,47.363,27.344,23.926,0
1556211577.678,29.785,15.137,47.852,24.414,33.691,0
1556211577.682,74.219,17.090,43.945,20.020,20.996,0
1556211577.686,32.227,15.137,43.945,18.555,34.180,0
1556211577.690,-24.414,16.113,47.852,17.578,3.418,0
1556211577.694,12.207,13.672,45.410,19.531,-47.363,0
1556211577.697,65.918,11.719,37.109,12.695,-8.301,0
1556211577.701,39.551,7.812,38.086,6.836,19.531,0
1556211577.705,-20.508,7.812,42.969,13.184,-2.930,0
1556211577.709,-9.766,16.113,49.316,15.625,16.602,0
1556211577.713,54.199,17.090,48.340,10.254,38.574,0
1556211577.715,61.035,14.648,45.898,11.719,21.973,0
1556211577.719,-5.859,16.113,49.805,15.137,34.668,0
1556211577.723,-29.297,15.137,46.875,15.137,60.059,0
1556211577.727,32.715,7.812,37.598,20.996,56.641,0
1556211577.731,65.430,3.418,41.016,22.949,30.273,0
1556211577.735,14.160,6.348,47.852,20.996,-19.531,0
1556211577.739,-29.785,6.836,48.340,22.461,1.465,0
1556211577.742,20.020,5.371,45.410,21.973,25.391,0
1556211577.746,72.266,1.953,43.945,20.508,17.578,0
1556211577.750,41.016,7.324,48.828,27.832,24.414,0
1556211577.754,-18.066,11.719,50.293,27.344,-8.301,0
1556211577.758,1.465,7.812,42.969,16.602,-4.883,0
1556211577.760,64.453,11.719,34.180,20.020,-44.434,0
1556211577.764,49.316,12.207,39.551,23.926,-38.086,0
1556211577.768,-13.184,16.602,51.758,19.531,8.789,0
1556211577.772,-8.301,17.090,52.734,25.879,-19.043,0
1556211577.776,61.523,11.719,51.270,32.227,18.066,0
1556211577.780,72.266,11.230,50.293,29.297,26.367,0
1556211577.784,5.371,5.859,50.293,31.250,39.551,0
1556211577.787,-21.484,8.789,53.223,30.762,68.359,0
1556211577.791,36.621,13.184,53.223,27.832,64.941,0
1556211577.795,69.336,8.789,53.223,28.320,62.012,0
1556211577.799,16.113,7.812,54.688,31.250,29.785,0
1556211577.803,-31.738,4.395,54.688,28.809,-21.484,0
1556211577.805,10.254,-0.977,50.293,16.113,-10.742,0
1556211577.809,63.965,2.930,46.875,18.066,7.324,0
1556211577.813,36.621,8.789,50.293,23.438,-1.953,0
1556211577.817,-23.438,1.465,49.805,24.902,-0.488,0
1556211577.821,-11.230,-0.488,36.133,20.508,20.020,0
1556211577.825,53.223,1.465,35.645,18.555,15.625,0
1556211577.829,51.758,4.395,48.340,27.344,29.785,0
1556211577.832,-17.090,4.883,50.781,28.320,36.621,0
1556211577.836,-22.949,-4.883,47.363,21.973,51.758,0
1556211577.840,42.480,1.953,44.922,19.531,69.336,0
1556211577.844,56.152,10.254,44.922,16.602,-17.578,0
1556211577.848,-2.930,-0.977,47.363,22.949,-18.066,0
1556211577.850,-32.227,1.953,46.875,28.809,41.992,0
1556211577.854,20.020,11.230,42.969,23.438,49.316,0
1556211577.858,60.547,5.371,48.828,28.320,7.324,0
1556211577.862,18.555,3.418,53.711,27.832,-43.945,0
1556211577.866,-30.762,2.930,48.828,16.602,31.250,0
1556211577.870,5.859,-1.953,44.434,19.043,-13.672,0
1556211577.874,59.570,1.465,50.781,27.832,3.418,0
1556211577.877,38.086,4.883,55.664,30.273,32.227,0
1556211577.881,-21.973,-2.930,53.223,30.762,-50.781,0
1556211577.885,-9.766,1.953,49.805,33.691,-47.363,0
1556211577.889,59.082,3.906,55.664,33.691,-31.250,0
1556211577.893,63.477,-4.883,60.059,39.551,-0.488,0
1556211577.896,0.000,-1.465,56.641,40.527,31.738,0
1556211577.900,-16.602,9.766,53.223,32.715,14.160,0
1556211577.904,47.363,9.766,51.270,30.762,-2.930,0
1556211577.908,77.148,8.301,50.781,32.227,1.953,0
1556211577.912,17.090,11.719,53.223,35.645,68.848,0
1556211577.916,-21.973,11.230,56.152,37.598,56.152,0
1556211577.920,31.250,14.648,56.152,35.156,31.250,0
1556211577.923,78.613,16.113,58.594,30.762,43.945,0
1556211577.927,33.691,8.301,57.617,28.809,7.324,0
1556211577.931,-22.461,12.207,54.688,29.785,30.762,0
1556211577.935,11.719,9.277,53.711,24.902,10.254,0
1556211577.939,69.336,4.395,54.688,21.973,35.645,0
1556211577.940,55.176,13.184,52.246,23.926,56.152,0
1556211577.944,-9.766,4.883,52.734,27.344,44.434,0
1556211577.948,-7.812,1.465,56.152,25.879,6.836,0
1556211577.952,57.129,14.160,52.246,24.414,-26.367,0
1556211577.956,62.988,8.789,52.246,29.297,17.578,0
1556211577.960,-0.977,2.441,53.223,34.180,34.668,0
1556211577.964,-22.461,4.395,50.293,29.297,43.945,0
1556211577.967,37.109,1.465,47.363,23.926,48.828,0
1556211577.971,63.965,1.465,48.828,25.879,96.191,0
1556211577.975,16.113,0.488,55.176,27.832,105.469,0
1556211577.979,-21.484,-3.906,58.105,30.762,21.973,0
1556211577.983,20.508,-0.977,55.664,27.832,18.066,0
1556211577.985,68.359,5.859,50.293,26.855,21.973,0
1556211577.989,35.156,5.371,46.875,26.855,-11.230,0
1556211577.993,-29.785,-6.348,42.969,24.414,-6.836,0
1556211577.997,-5.859,-4.883,43.945,27.344,-5.371,0
1556211578.001,64.453,2.441,38.574,25.879,17.578,0
1556211578.005,56.152,4.883,40.039,26.855,29.297,0
1556211578.009,-11.230,5.371,54.688,32.227,-16.113,0
1556211578.012,-12.695,3.906,50.781,30.762,-67.871,0
1556211578.016,48.340,3.418,41.016,24.414,-11.230,0
1556211578.020,60.059,0.000,38.574,25.879,19.531,0
1556211578.024,2.441,-1.465,40.039,32.227,-28.320,1
1556211578.028,-26.855,1.465,38.574,30.273,-9.277,0
1556211578.045,34.180,5.371,40.527,23.438,14.648,0
1556211578.049,75.195,5.371,45.898,22.461,41.992,0
1556211578.053,24.902,6.348,47.852,27.344,36.133,0
1556211578.057,-26.367,6.348,48.828,29.297,25.391,0
1556211578.061,16.602,5.859,48.340,25.879,63.965,0
1556211578.065,81.055,-0.488,48.828,31.738,58.594,0
1556211578.069,48.828,-2.441,47.363,32.227,17.578,0
1556211578.072,-15.137,0.000,45.898,37.598,-12.695,0
1556211578.076,7.812,3.418,44.922,43.457,-20.508,0
1556211578.080,67.871,4.883,40.527,36.133,-21.484,0
1556211578.084,63.477,6.836,43.457,39.551,8.301,0
1556211578.088,-1.465,12.207,44.922,40.039,44.434,0
1556211578.090,-14.160,7.812,43.945,34.180,26.367,0
1556211578.094,48.340,6.348,42.480,34.180,16.602,0
1556211578.098,70.312,11.719,36.621,34.180,-1.953,0
1556211578.102,10.254,11.230,41.016,33.203,-13.672,0
1556211578.106,-26.367,13.184,45.410,39.062,-15.625,0
1556211578.110,26.855,12.207,39.551,34.668,-30.273,0
1556211578.114,63.477,6.348,40.527,20.508,29.297,0
1556211578.117,21.973,5.859,43.945,23.438,45.410,0
1556211578.121,-27.832,4.395,44.922,26.367,36.621,0
1556211578.125,7.324,0.000,44.434,28.320,40.039,0
1556211578.129,62.988,0.000,41.504,25.879,28.320,0
1556211578.133,41.992,7.324,36.133,23.926,8.301,0
1556211578.135,-18.066,1.953,33.691,34.668,-6.348,0
1556211578.139,-8.789,-1.465,41.992,34.668,-6.348,0
1556211578.143,53.223,7.324,43.945,26.367,83.008,0
1556211578.147,61.035,9.766,42.480,31.738,68.848,0
1556211578.151,-1.465,12.207,46.875,37.598,-8.789,0
1556211578.155,-19.531,12.695,44.434,37.598,23.926,0
1556211578.159,43.945,8.789,45.898,30.762,-23.926,0
1556211578.162,67.383,8.789,51.270,26.855,-22.949,0
1556211578.166,16.113,6.836,56.152,41.504,41.992,0
1556211578.170,-20.020,3.418,60.547,43.457,24.414,0
1556211578.174,27.832,0.000,55.664,25.879,34.180,0
1556211578.178,74.219,4.395,54.688,23.926,40.527,0
1556211578.180,34.668,7.324,55.176,30.273,4.883,0
1556211578.184,-20.020,9.766,52.734,33.691,6.348,0
1556211578.188,5.859,14.648,52.734,25.391,26.367,0
1556211578.192,61.035,10.742,54.199,23.438,23.438,0
1556211578.196,46.387,9.277,62.012,25.391,42.969,0
1556211578.200,-14.648,8.301,73.242,22.949,67.383,0
1556211578.204,-11.230,4.883,77.148,22.461,39.062,0
1556211578.207,52.246,3.418,72.266,25.391,22.461,0
1556211578.211,62.012,3.906,73.242,30.273,27.832,0
1556211578.215,0.488,3.906,79.590,29.297,21.973,0
1556211578.219,-22.461,10.254,82.520,30.273,-10.254,0
1556211578.223,37.598,14.160,81.055,29.297,-3.418,0
1556211578.225,68.848,11.719,80.078,31.738,2.930,0
1556211578.229,17.578,6.836,83.496,34.668,58.105,0
1556211578.233,-27.344,-0.977,81.543,28.809,91.309,0
1556211578.237,16.602,-2.441,82.031,29.297,51.758,0
1556211578.241,67.871,1.953,85.449,31.250,31.738,0
1556211578.245,30.273,3.906,77.637,31.250,38.574,0
1556211578.249,-32.715,-1.465,72.754,37.598,22.461,0
1556211578.252,-1.953,1.465,78.125,39.551,-6.836,0
1556211578.256,67.383,3.906,75.684,34.180,-7.324,0
1556211578.260,57.617,1.953,69.824,34.180,-6.836,0
1556211578.264,-5.371,3.906,65.918,31.250,-7.812,0
1556211578.268,-6.836,4.883,63.477,29.297,32.227,0
1556211578.271,63.477,2.441,62.500,32.715,16.602,0
1556211578.275,85.938,6.348,63.477,38.086,15.137,0
1556211578.279,22.949,5.859,64.941,43.457,24.414,0
1556211578.283,-11.719,-0.488,62.500,46.875,10.742,0
1556211578.287,39.062,0.000,59.570,46.387,23.438,0
1556211578.291,71.289,-0.488,57.617,43.457,-2.930,0
1556211578.295,20.996,-0.977,56.641,42.969,17.578,0
1556211578.298,-33.691,4.883,60.059,43.945,21.484,0
1556211578.302,-2.441,3.906,54.688,38.574,32.227,0
1556211578.306,48.828,-2.441,48.340,32.715,100.586,0
1556211578.310,24.414,-6.348,53.223,32.227,41.504,0
1556211578.314,-33.691,-1.953,62.988,35.156,-75.195,0
1556211578.315,-22.461,0.000,62.500,28.809,-38.086,0
1556211578.319,39.551,-1.465,56.152,22.461,32.715,0
1556211578.323,41.992,-2.441,54.199,24.414,-16.602,0
1556211578.327,-24.414,-9.766,52.734,24.414,-11.719,0
1556211578.331,-34.180,-11.230,50.781,20.996,6.836,0
1556211578.335,36.621,-3.906,49.805,23.438,9.766,0
1556211578.339,62.500,0.000,51.758,25.391,-1.465,0
1556211578.342,5.371,0.977,55.176,26.855,34.180,0
1556211578.346,-34.668,-0.488,53.711,27.832,67.871,0
1556211578.350,19.531,0.000,47.852,29.785,49.805,0
1556211578.354,66.406,4.883,42.480,29.785,18.066,0
1556211578.358,26.367,14.648,42.480,29.297,5.859,0
1556211578.360,-28.320,12.695,40.039,27.344,6.348,0
1556211578.364,2.441,3.418,35.156,21.973,-1.465,0
1556211578.368,64.453,4.883,37.109,18.066,7.812,0
1556211578.372,45.898,15.137,42.480,20.996,27.832,0
1556211578.376,-17.090,16.602,48.828,26.855,52.734,0
1556211578.380,-10.742,12.695,50.781,23.926,-8.789,0
1556211578.384,56.152,9.277,52.246,22.949,-49.805,0
1556211578.387,58.594,8.789,47.363,17.090,-29.297,0
1556211578.391,-9.766,15.625,46.387,20.508,46.387,0
1556211578.395,-20.508,17.090,55.176,31.738,-5.371,0
1556211578.399,41.992,8.301,47.852,27.832,-15.137,0
1556211578.403,66.406,6.348,36.621,20.508,46.875,0
1556211578.405,13.184,15.137,46.875,27.832,-20.508,0
1556211578.409,-24.902,16.602,57.129,37.598,-10.742,0
1556211578.413,22.949,13.672,53.223,30.762,32.715,0
1556211578.417,71.777,11.719,49.316,27.344,38.086,0
1556211578.421,35.156,7.812,49.316,31.250,14.648,0
1556211578.425,-22.949,6.836,51.758,31.250,-5.371,0
1556211578.429,2.441,6.836,55.176,28.320,55.664,0
1556211578.432,57.129,2.441,51.270,19.043,64.453,0
1556211578.436,50.293,6.836,47.852,23.438,26.855,0
1556211578.440,-12.207,14.160,48.828,29.297,7.812,0
1556211578.444,-18.066,6.836,45.898,23.926,34.668,0
1556211578.448,47.852,-4.883,38.086,22.461,23.926,0
1556211578.465,63.477,-3.418,38.086,21.973,38.086,0
1556211578.469,3.418,-3.418,44.922,21.484,0.977,0
1556211578.473,-21.484,-8.789,46.875,22.949,-72.266,0
1556211578.477,40.039,0.000,45.410,21.973,-2.930,0
1556211578.481,72.266,9.277,47.363,22.949,50.781,0
1556211578.485,22.949,5.371,43.457,26.367,2.930,0
1556211578.489,-23.438,5.371,43.945,25.391,-4.883,0
1556211578.492,13.184,9.766,45.898,18.066,36.133,0
1556211578.496,66.406,7.324,44.434,21.973,20.996,0
1556211578.500,37.109,1.465,46.387,24.902,-21.484,0
1556211578.504,-22.949,1.953,47.363,19.043,3.418,0
1556211578.508,-5.859,3.906,51.758,17.090,4.395,0
1556211578.510,62.988,-3.418,54.199,25.879,-18.066,0
1556211578.514,64.453,-5.371,50.293,31.738,-7.812,0
1556211578.518,-5.371,3.906,45.898,27.832,9.277,0
1556211578.522,-13.672,4.395,42.969,20.996,-5.371,0
1556211578.526,49.316,5.859,45.898,22.461,-10.742,0
1556211578.530,63.965,9.766,48.828,28.809,-2.441,0
1556211578.534,6.836,4.883,46.387,28.320,7.812,0
1556211578.537,-22.949,8.301,42.969,27.832,32.227,0
1556211578.541,32.227,11.230,44.434,28.320,-20.508,0
1556211578.545,68.359,0.488,40.527,21.973,-46.875,0
1556211578.549,20.996,0.488,39.551,19.531,21.973,0
1556211578.553,-30.273,5.859,50.293,24.414,44.434,0
1556211578.555,4.395,3.906,48.828,22.949,-22.949,0
1556211578.559,65.430,5.371,46.387,21.973,0.977,0
1556211578.563,45.898,12.207,51.270,26.367,22.461,0
1556211578.567,-19.531,11.719,55.664,31.250,-5.371,0
1556211578.571,-10.742,2.930,55.664,26.855,26.855,0
1556211578.575,56.152,0.977,50.293,22.949,23.438,0
1556211578.579,58.594,6.836,51.758,25.391,-10.742,0
1556211578.582,-9.766,4.395,57.617,28.320,3.418,0
1556211578.586,-24.902,5.371,56.152,27.832,-26.855,0
1556211578.590,39.062,4.883,51.758,22.949,25.391,0
1556211578.594,62.988,4.883,50.781,24.902,17.578,0
1556211578.598,9.766,12.695,52.246,32.715,-1.953,0
1556211578.600,-28.809,10.742,48.340,31.250,50.781,0
1556211578.604,21.973,12.695,46.387,31.250,36.133,0
1556211578.608,75.195,13.672,53.711,33.691,32.227,0
1556211578.612,35.645,11.230,63.965,30.273,29.297,0
1556211578.616,-18.066,12.207,63.965,27.832,53.711,0
1556211578.620,16.113,9.277,56.641,25.879,34.668,0
1556211578.624,69.824,11.719,49.805,20.996,28.809,0
1556211578.627,52.246,11.719,52.734,25.391,32.227,0
1556211578.631,-9.277,12.695,56.641,30.273,33.691,0
1556211578.635,-9.277,18.555,51.270,25.391,63.965,0
1556211578.639,52.734,12.695,47.363,16.602,74.707,0
1556211578.643,58.594,14.648,47.363,12.207,79.590,0
1556211578.645,-2.441,21.484,53.223,21.973,14.648,0
1556211578.649,-20.508,20.996,58.594,27.344,-33.691,0
1556211578.653,41.992,17.578,51.270,27.344,-15.625,0
1556211578.657,75.684,11.719,42.969,28.320,22.949,0
1556211578.661,21.973,12.695,40.039,27.832,43.945,0
1556211578.665,-26.855,10.742,43.457,24.414,-3.418,0
1556211578.669,12.695,7.324,45.410,17.578,-20.508,0
1556211578.672,61.035,2.441,43.457,20.020,7.812,0
1556211578.676,23.438,1.465,40.039,15.137,36.133,0
1556211578.680,-34.668,6.836,37.598,8.789,60.059,0
1556211578.684,-8.301,2.441,42.480,14.648,71.777,0
1556211578.688,52.734,-2.441,43.945,16.113,16.113,0
1556211578.690,41.504,-1.953,41.992,18.066,-48.340,0
1556211578.694,-22.461,0.977,44.922,23.926,-32.715,0
1556211578.698,-21.973,-1.465,43.945,20.020,50.293,0
1556211578.702,45.410,-2.930,46.875,21.484,87.402,0
1556211578.706,61.035,-1.953,53.223,28.320,126.465,0
1556211578.710,-0.977,-1.953,56.152,30.273,126.953,0
1556211578.714,-27.344,6.836,51.270,31.250,34.668,0
1556211578.717,28.809,6.348,47.852,26.367,41.992,0
1556211578.721,60.547,4.395,56.641,19.531,6.348,0
1556211578.725,14.648,6.348,61.523,27.344,-53.711,0
1556211578.729,-28.320,0.977,63.965,34.668,-0.488,0
1556211578.733,13.672,-0.977,58.594,29.297,61.035,0
1556211578.735,71.777,2.930,49.805,29.297,65.430,0
1556211578.739,45.898,6.348,51.270,39.062,10.254,0
1556211578.743,-10.742,1.465,56.152,44.434,-6.836,0
1556211578.747,11.719,-6.348,56.641,39.551,-27.832,0
1556211578.751,73.730,4.395,49.805,35.645,4.395,0
1556211578.755,71.289,12.207,50.781,36.621,51.758,0
1556211578.759,9.277,12.695,51.758,38.086,44.434,0
1556211578.762,-4.883,7.324,47.363,31.738,45.898,0
1556211578.766,55.176,0.977,50.781,31.738,79.102,0
1556211578.770,78.613,1.465,49.805,34.668,55.664,0
1556211578.774,15.625,5.371,48.340,35.156,-24.414,0
1556211578.778,-21.973,0.488,53.711,33.691,8.301,0
1556211578.780,31.250,-13.184,56.152,26.367,-20.508,0
1556211578.784,70.312,-9.766,52.246,24.902,-21.484,0
1556211578.788,24.414,-3.906,51.758,31.738,30.273,0
1556211578.792,-31.250,-2.930,49.316,25.879,23.438,0
1556211578.796,-1.465,-5.371,42.969,10.254,30.273,0
1556211578.800,56.641,-12.207,38.086,17.090,18.066,0
1556211578.804,36.621,-6.348,39.551,19.531,3.906,0
1556211578.807,-29.785,1.465,44.922,13.672,15.625,0
1556211578.811,-15.137,-3.906,44.922,18.555,11.719,0
1556211578.815,53.711,-7.324,44.922,22.461,2.441,0
1556211578.819,54.199,-7.812,49.805,30.273,4.395,0
1556211578.823,-7.324,-5.859,50.781,34.668,45.898,0
1556211578.840,-27.344,0.977,41.992,19.043,44.434,0
1556211578.844,38.086,-0.488,41.992,16.602,-16.113,0
1556211578.848,69.824,-6.836,43.945,22.461,5.859,0
1556211578.852,9.766,-3.906,41.992,20.996,45.410,0
1556211578.856,-27.832,-0.488,40.039,22.949,29.785,0
1556211578.860,27.344,1.465,40.039,20.020,52.246,0
1556211578.864,76.172,-0.488,41.016,22.461,87.891,0
1556211578.867,29.297,-14.160,41.504,24.414,79.102,0
1556211578.871,-29.297,-10.254,44.922,19.043,-27.832,0
1556211578.875,5.371,-1.953,43.457,21.484,-42.480,0
1556211578.879,65.918,-1.953,41.016,21.973,23.438,0
1556211578.883,44.434,-3.418,43.945,20.020,81.055,0
1556211578.885,-19.043,-9.277,50.781,24.902,74.219,0
1556211578.889,-11.719,-10.742,41.016,27.832,6.836,0
1556211578.893,50.293,-11.230,34.668,20.508,6.836,0
1556211578.897,58.105,-11.230,42.480,20.508,30.273,0
1556211578.901,-2.441,-4.395,41.992,25.391,45.898,0
1556211578.905,-23.438,1.465,40.039,27.344,23.438,0
1556211578.909,36.133,3.906,45.410,24.902,-23.926,0
1556211578.912,69.336,6.348,50.293,24.414,24.414,0
1556211578.916,20.020,1.465,50.781,33.691,50.293,0
1556211578.920,-28.809,-3.418,50.781,31.738,28.809,0
1556211578.924,11.230,3.418,44.922,16.602,19.531,0
1556211578.928,66.406,11.719,53.711,15.625,9.277,0
1556211578.945,37.598,6.836,57.617,19.531,-3.418,0
1556211578.949,-20.508,1.953,51.758,23.926,-40.527,0
1556211578.953,-1.953,-3.906,46.875,21.484,-48.828,0
1556211578.957,59.082,-2.930,46.875,25.391,-25.879,0
1556211578.961,51.758,12.695,50.293,28.320,-16.602,0
1556211578.965,-16.113,11.719,44.922,21.484,10.254,0
1556211578.969,-14.648,7.324,42.480,21.973,83.984,0
1556211578.972,51.270,7.324,44.922,24.902,67.383,0
1556211578.976,62.988,4.395,44.434,24.414,4.883,0
1556211578.980,0.000,4.395,44.922,23.926,35.645,0
1556211578.984,-27.344,5.371,38.574,24.902,74.707,0
1556211578.988,36.621,1.465,38.574,22.949,33.691,0
1556211578.976,76.660,3.418,44.434,28.809,-1.953,0
1556211578.980,23.926,13.184,41.504,30.273,9.766,0
1556211578.984,-22.949,15.137,40.039,29.297,-17.090,0
1556211578.988,18.066,9.766,40.527,29.785,-43.457,0
1556211578.992,69.336,8.301,38.086,28.320,-1.465,0
1556211578.996,45.898,7.324,39.062,29.297,53.223,0
1556211579.000,-12.207,6.348,40.527,32.715,41.016,0
1556211579.003,6.836,8.789,43.945,29.297,-0.977,0
1556211579.007,72.754,5.371,38.574,19.043,41.504,0
1556211579.011,73.730,3.418,36.133,19.043,47.852,0
1556211579.015,6.836,10.254,44.922,26.367,23.438,0
1556211579.019,-4.395,10.254,46.875,37.598,-34.668,0
1556211579.020,57.129,7.324,42.969,37.598,-33.691,0
1556211579.024,65.430,6.348,36.133,28.809,19.043,0
1556211579.028,0.977,-3.418,41.992,35.645,12.695,0
1556211579.032,-38.574,-0.488,47.363,36.621,27.344,0
1556211579.036,14.160,10.254,42.969,28.809,11.719,0
1556211579.040,61.035,9.277,40.527,32.227,6.348,0
1556211579.044,21.484,13.184,42.969,34.668,8.301,0
1556211579.047,-28.320,12.695,49.316,27.344,-1.465,0
1556211579.051,7.324,8.301,42.969,26.855,48.340,0
1556211579.055,67.383,13.184,38.574,28.809,29.785,0
1556211579.059,46.387,23.438,51.270,29.785,-19.531,0
1556211579.063,-14.648,20.996,48.828,29.297,5.371,0
1556211579.065,-6.836,18.066,37.109,26.367,41.504,0
1556211579.069,56.641,15.625,41.504,29.297,15.625,0
1556211579.073,62.012,12.207,49.805,29.297,8.301,0
1556211579.077,-1.953,16.113,52.734,29.785,44.922,0
1556211579.081,-19.043,14.160,52.734,28.809,19.531,0
1556211579.085,44.922,9.277,54.688,31.250,-24.902,0
1556211579.089,74.219,15.625,53.711,31.738,3.906,0
1556211579.092,19.531,16.113,55.176,28.320,48.828,0
1556211579.096,-28.320,13.672,51.270,26.367,23.438,0
1556211579.100,16.113,12.207,45.410,20.996,-4.395,0
1556211579.104,64.941,12.695,53.711,19.043,-7.324,0
1556211579.108,27.832,11.230,55.176,20.020,25.879,0
1556211579.110,-33.691,3.418,52.734,19.531,19.531,0
1556211579.114,-10.742,2.441,52.246,14.648,-21.973,0
1556211579.118,53.223,9.277,47.363,16.113,11.719,0
1556211579.122,41.992,21.484,48.340,24.414,21.973,0
1556211579.126,-21.484,27.832,52.734,20.508,-44.434,0
1556211579.130,-21.973,13.184,47.363,11.230,-39.062,0
1556211579.134,44.434,5.371,44.922,8.301,33.203,0
1556211579.137,59.082,13.672,48.340,11.719,-0.977,0
1556211579.141,-3.906,15.625,47.363,16.602,-44.922,0
1556211579.145,-24.902,6.836,43.945,19.043,10.742,0
1556211579.149,36.621,4.883,44.922,23.926,21.973,0
1556211579.153,69.824,8.301,46.387,26.367,-32.715,0
1556211579.155,20.508,17.090,49.316,25.879,3.906,0
1556211579.159,-24.414,21.484,48.828,25.879,29.785,0
1556211579.163,19.531,15.625,46.387,23.438,27.832,0
1556211579.167,69.824,10.254,44.922,16.602,54.199,0
1556211579.171,37.598,11.230,43.945,11.719,-8.301,2
1556211579.175,-18.066,11.719,40.039,19.043,-46.875,0
1556211579.179,2.930,10.254,38.086,26.855,-12.207,0
1556211579.182,59.082,10.254,47.363,21.973,13.184,0
1556211579.186,53.223,19.531,56.152,24.414,0.000,0
1556211579.190,-6.348,18.555,61.035,29.785,23.438,0
1556211579.194,-12.207,14.648,68.359,27.344,57.617,0
1556211579.198,53.711,20.020,70.801,25.391,32.227,0
1556211579.215,70.312,16.113,71.777,29.297,9.277,0
1556211579.219,7.812,18.555,75.195,35.645,6.348,0
1556211579.223,-20.996,18.555,73.730,35.645,9.277,0
1556211579.227,33.203,17.578,65.918,30.762,12.207,0
1556211579.231,75.684,16.113,64.453,29.297,16.602,0
1556211579.235,32.715,16.113,71.777,32.227,21.973,0
1556211579.239,-19.043,13.184,71.777,33.203,-4.883,0
1556211579.242,19.531,4.883,60.547,30.273,1.953,0
1556211579.246,74.219,7.812,61.035,34.668,26.855,0
1556211579.250,45.898,17.578,66.895,30.273,19.043,0
1556211579.254,-13.672,16.113,68.848,23.926,-19.043,0
1556211579.258,0.488,14.648,61.523,28.320,-13.184,0
1556211579.260,61.523,12.695,55.664,26.855,12.695,0
1556211579.264,62.500,2.441,62.988,28.320,2.930,0
1556211579.268,-2.441,6.348,70.801,32.715,-20.508,0
1556211579.272,-16.113,7.324,73.730,36.133,-13.184,0
1556211579.276,48.340,2.930,70.312,34.668,27.344,0
1556211579.280,68.359,7.324,63.965,28.320,70.312,0
1556211579.284,12.207,15.625,64.941,20.996,24.414,0
1556211579.287,-21.484,13.672,62.500,20.020,-39.551,0
1556211579.291,29.297,6.348,56.641,22.949,4.883,0
1556211579.295,73.730,15.137,59.570,26.367,-11.230,0
1556211579.299,26.367,20.020,58.594,23.926,-22.461,0
1556211579.303,-25.391,19.531,58.105,34.668,5.859,0
1556211579.305,14.648,18.555,56.641,38.086,32.227,0
1556211579.309,74.707,8.789,52.246,26.855,57.129,0
1556211579.313,57.129,9.277,53.223,31.250,29.297,0
1556211579.317,-1.953,19.043,58.105,41.992,0.977,0
1556211579.321,4.395,17.090,57.617,40.039,8.789,0
1556211579.325,64.453,11.230,52.734,33.691,67.871,0
1556211579.329,67.871,12.695,49.316,34.668,72.754,0
1556211579.332,8.301,16.602,48.828,45.410,28.809,0
1556211579.336,-9.766,11.719,43.945,43.457,11.230,0
1556211579.340,50.293,3.418,37.109,31.738,5.859,0
1556211579.344,79.590,11.230,42.969,30.762,57.617,0
1556211579.348,24.902,10.742,49.805,34.668,102.051,0
1556211579.350,-19.531,6.348,50.781,36.133,49.316,0
1556211579.354,25.879,7.812,44.434,34.180,16.602,0
1556211579.358,73.730,5.371,39.551,33.203,28.320,0
1556211579.362,36.133,5.859,42.480,31.250,18.555,0
1556211579.366,-22.949,5.371,48.340,32.227,40.039,0
1556211579.370,-2.441,4.883,45.410,27.344,60.547,0
1556211579.374,44.922,0.977,35.645,18.555,29.785,0
1556211579.377,34.180,-5.371,37.598,22.949,-5.859,0
1556211579.381,-20.996,-5.371,38.574,29.785,-4.395,0
1556211579.385,-23.926,-1.465,40.527,21.973,-1.465,0
1556211579.389,41.504,-0.488,42.969,15.137,10.254,0
1556211579.393,57.129,10.254,33.691,20.508,29.785,0
1556211579.395,-2.930,15.137,37.598,27.832,56.152,0
1556211579.399,-25.879,10.742,43.457,29.297,47.363,0
1556211579.403,30.273,7.812,41.016,22.949,29.297,0
1556211579.407,62.500,8.301,39.062,21.973,35.156,0
1556211579.411,19.043,6.836,37.109,28.320,31.250,0
1556211579.415,-23.438,0.000,40.527,36.133,39.062,0
1556211579.419,20.020,3.418,40.039,31.250,48.828,0
1556211579.422,73.730,3.906,40.039,23.926,30.762,0
1556211579.426,41.016,3.906,41.504,25.391,15.137,0
1556211579.430,-16.113,7.812,41.992,28.809,16.113,0
1556211579.434,11.230,0.488,41.016,31.250,-29.785,0
1556211579.438,82.520,2.441,34.668,35.645,25.391,0
1556211579.440,80.078,11.719,37.598,42.480,62.988,0
1556211579.444,1.953,7.324,44.922,33.691,-6.348,0
1556211579.448,-19.043,5.371,47.363,20.020,-15.137,0
1556211579.452,39.062,7.812,42.969,10.742,15.137,0
1556211579.456,49.316,2.441,41.992,5.371,-20.020,0
1556211579.460,-12.207,3.418,46.875,15.137,-4.395,0
1556211579.464,-39.551,5.859,46.875,14.648,-4.395,0
1556211579.467,15.625,4.883,40.527,3.418,34.180,0
1556211579.471,52.246,6.836,33.203,6.836,38.086,0
1556211579.475,6.836,9.766,36.133,11.230,13.672,0
1556211579.479,-40.527,8.789,42.480,15.137,53.223,0
1556211579.483,-2.930,0.488,40.527,14.648,73.242,0
1556211579.485,52.734,-1.465,32.227,12.207,35.645,0
1556211579.489,29.297,3.418,22.461,11.230,38.574,0
1556211579.493,-31.738,2.441,24.902,11.230,53.711,0
1556211579.497,-20.020,-2.441,36.621,15.625,9.277,0
1556211579.501,44.922,-0.488,38.574,16.113,-11.230,0
1556211579.505,48.828,5.859,40.039,19.531,-12.695,0
1556211579.509,-15.137,3.906,42.480,23.438,6.836,0
1556211579.512,-32.715,7.324,39.551,22.461,34.180,0
1556211579.516,29.297,14.160,37.109,18.555,-2.441,0
1556211579.520,58.105,13.184,40.527,18.066,38.086,0
1556211579.524,8.789,11.230,43.457,24.414,41.504,0
1556211579.528,-27.344,14.160,42.969,24.414,-41.992,0
1556211579.530,19.531,19.043,36.133,20.996,12.207,0
1556211579.534,66.895,17.090,35.156,22.461,49.316,0
1556211579.538,28.320,3.418,38.574,23.438,-1.465,0
1556211579.542,-29.785,4.883,37.109,16.113,-29.785,0
1556211579.546,0.000,13.184,30.273,14.160,-36.133,0
1556211579.550,60.547,1.465,25.879,16.113,3.906,0
1556211579.554,43.457,0.488,33.691,15.625,19.531,0
1556211579.557,-22.461,9.277,35.645,21.973,59.570,0
1556211579.561,-15.137,6.348,31.250,30.273,61.523,0
1556211579.565,50.293,8.301,31.250,26.367,67.383,0
1556211579.569,62.500,18.555,40.039,22.461,77.637,0
1556211579.573,2.930,13.672,43.457,28.320,17.578,0
1556211579.590,-18.066,8.301,38.574,33.203,-1.465,0
1556211579.594,46.387,16.602,42.480,35.645,-6.836,0
1556211579.598,75.684,15.625,45.898,32.715,16.113,0
1556211579.602,21.973,15.137,43.457,34.668,50.293,0
1556211579.606,-19.043,19.531,43.945,40.039,25.879,0
1556211579.610,27.832,13.672,43.457,36.621,-5.859,0
1556211579.614,75.684,14.648,44.434,28.320,3.906,0
1556211579.617,45.410,20.508,51.758,34.180,40.039,0
1556211579.621,-6.348,23.926,58.105,41.504,49.805,0
1556211579.625,17.578,27.832,61.035,39.062,41.504,0
1556211579.629,77.637,21.484,59.570,35.645,29.297,0
1556211579.633,64.941,17.090,62.988,34.180,-19.531,0
1556211579.635,-6.348,21.484,62.012,28.320,-49.805,0
1556211579.639,-22.949,24.414,61.035,18.066,-45.410,0
1556211579.643,33.203,34.668,63.965,9.277,-18.066,0
1556211579.647,45.410,41.016,68.848,1.465,-9.766,0
1556211579.651,-22.461,32.715,70.801,-4.395,1.465,0
1556211579.655,-68.848,37.598,66.406,-15.137,38.086,0
1556211579.659,-32.227,47.363,66.895,-39.062,14.648,0
1556211579.662,-17.090,54.688,65.430,-59.082,4.883,0
1556211579.666,-76.660,56.641,74.219,-66.895,61.035,0
1556211579.670,-138.184,49.316,86.914,-81.055,-4.395,0
1556211579.674,-119.141,54.199,76.172,-107.910,-5.859,0
1556211579.678,-67.871,59.082,73.730,-118.652,57.617,0
1556211579.696,-94.238,60.059,86.426,-109.863,63.477,0
1556211579.700,-159.180,69.336,83.008,-111.328,64.941,0
1556211579.704,-137.695,66.406,79.102,-111.816,60.547,0
1556211579.708,-66.406,59.570,76.172,-106.445,38.574,0
1556211579.712,-68.848,57.617,67.871,-103.027,24.902,0
1556211579.716,-125.977,53.711,68.359,-91.797,45.898,0
1556211579.720,-123.535,48.828,66.895,-83.984,73.730,0
1556211579.723,-50.781,40.527,64.453,-84.961,57.129,0
1556211579.727,-10.742,28.809,70.801,-67.383,26.855,0
1556211579.731,-53.223,19.531,67.383,-56.641,15.137,0
1556211579.735,-76.660,19.043,60.547,-45.898,15.625,0
1556211579.739,-2.441,10.742,58.105,-20.508,26.855,0
1556211579.725,50.781,-13.672,53.223,-6.348,-1.465,0
1556211579.729,13.184,-12.695,47.852,12.695,-11.230,0
1556211579.733,-28.320,-2.930,47.363,31.250,-22.949,0
1556211579.737,11.719,-13.184,44.434,36.133,10.254,0
1556211579.741,71.777,-16.113,44.434,48.340,-17.090,0
1556211579.745,49.805,-17.578,45.410,55.176,-5.371,0
1556211579.749,-11.719,-21.973,42.480,62.500,118.164,0
1556211579.752,8.301,-21.973,41.992,72.266,123.047,0
1556211579.756,81.055,-23.926,38.574,71.777,71.289,0
1556211579.760,93.262,-25.391,37.598,75.195,22.949,0
1556211579.764,38.574,-27.832,36.621,79.590,20.020,0
1556211579.768,23.438,-30.762,33.691,79.102,42.969,0
1556211579.771,89.355,-31.250,33.691,77.637,-7.812,0
1556211579.775,123.047,-27.344,31.738,80.078,-6.348,0
1556211579.779,71.777,-19.531,35.156,94.238,34.668,0
1556211579.783,36.133,-13.672,39.551,99.609,19.043,0
1556211579.787,83.496,-18.555,30.762,83.496,31.738,0
1556211579.791,128.418,-23.926,30.762,82.031,34.668,0
1556211579.795,92.285,-15.137,38.574,87.402,45.898,0
1556211579.798,36.621,-8.789,37.109,84.473,53.711,0
1556211579.802,64.453,-8.301,36.133,80.566,5.859,0
1556211579.806,122.559,-8.789,35.645,76.660,0.977,0
1556211579.810,105.957,-10.254,36.133,80.078,54.688,0
1556211579.814,39.062,-3.418,36.133,75.195,30.762,0
1556211579.816,41.992,2.930,34.180,70.312,-7.324,0
1556211579.820,103.027,-3.418,31.738,64.941,-2.441,0
1556211579.824,112.793,-11.230,33.203,61.523,-29.297,0
1556211579.828,51.270,-10.742,36.133,64.453,-22.461,0
1556211579.832,22.949,-7.324,35.645,60.547,30.273,0
1556211579.836,78.125,-13.184,32.715,58.594,39.551,0
1556211579.840,113.281,-19.043,37.598,63.477,57.129,0
1556211579.843,65.918,-6.836,41.992,64.941,27.832,0
1556211579.847,18.066,1.953,42.480,63.965,35.645,0
1556211579.851,59.570,-12.207,41.992,63.965,31.250,0
1556211579.855,111.328,-20.020,38.574,62.012,23.438,0
1556211579.859,80.078,-9.766,41.504,67.383,38.086,0
1556211579.860,19.043,-0.977,44.434,62.988,41.504,0
1556211579.864,40.039,-0.977,41.992,56.152,-14.648,0
1556211579.868,98.145,0.977,38.574,58.594,-27.832,0
1556211579.872,83.008,0.488,41.016,49.805,7.812,0
1556211579.876,19.531,-5.371,45.898,46.875,12.695,0
1556211579.880,11.230,-11.719,43.457,45.898,22.949,0
1556211579.884,67.871,-13.184,38.574,41.504,26.855,0
1556211579.887,84.473,-13.672,40.527,43.457,40.039,0
1556211579.891,25.391,-9.277,44.922,47.363,37.109,0
1556211579.895,-0.488,3.418,44.434,52.246,10.742,0
1556211579.899,57.129,12.695,41.016,54.688,1.465,0
1556211579.903,96.191,13.672,36.621,46.387,9.766,0
1556211579.905,48.828,6.836,33.691,42.480,-7.324,0
1556211579.909,-1.465,1.465,40.527,54.199,-25.879,0
1556211579.913,36.133,1.465,39.551,53.223,0.000,0
1556211579.917,84.961,1.465,26.367,39.551,24.414,0
1556211579.921,60.059,0.488,25.879,41.992,71.289,0
1556211579.925,0.000,0.000,29.297,44.922,48.828,0
1556211579.929,16.602,1.465,30.273,41.016,13.184,0
1556211579.932,80.078,8.301,24.902,36.621,43.457,0
1556211579.936,72.266,12.207,25.879,41.992,27.344,0
1556211579.940,3.906,3.906,37.109,40.527,-48.340,0
1556211579.944,-9.277,2.930,35.156,28.809,-14.160,0
1556211579.948,54.199,11.230,29.785,27.832,30.762,0
1556211579.965,79.590,8.301,30.273,34.668,-11.719,0
1556211579.969,24.414,6.348,34.180,40.527,-2.441,0
1556211579.973,-6.836,8.789,38.574,42.480,35.645,0
1556211579.977,41.992,2.930,40.039,39.062,18.555,0
1556211579.981,85.938,5.371,40.039,44.434,5.371,0
1556211579.985,52.246,9.277,40.039,50.293,-6.348,0
1556211579.989,-2.441,4.395,41.992,41.016,16.113,0
1556211579.992,25.391,4.883,45.898,43.457,45.898,0
1556211579.996,85.449,6.348,43.457,47.852,44.922,0
1556211580.000,64.453,3.906,37.109,44.922,7.324,0
1556211580.004,-3.906,-6.836,38.574,40.039,25.879,0
1556211580.008,2.441,-4.883,39.062,39.062,53.223,0
1556211580.010,63.477,-1.465,37.598,39.551,11.719,0
1556211580.014,67.383,0.000,39.551,32.715,13.184,0
1556211580.018,0.488,1.953,40.527,32.227,33.203,0
1556211580.022,-21.973,-2.930,40.039,36.621,-17.578,0
1556211580.026,40.039,0.000,34.180,35.156,-1.465,0
1556211580.030,70.801,-0.488,33.203,34.668,38.086,0
1556211580.034,20.508,-1.953,41.992,33.203,53.223,0
1556211580.037,-20.020,7.324,45.898,36.621,78.125,0
1556211580.041,28.320,10.254,38.574,36.133,54.199,0
1556211580.045,76.660,9.277,35.645,25.879,25.391,0
1556211580.049,38.574,7.812,30.762,23.926,33.203,0
1556211580.053,-19.531,12.207,26.367,24.414,22.461,0
1556211580.055,5.859,15.625,36.133,26.367,-15.137,0
1556211580.059,67.871,15.625,37.109,35.156,-13.672,0
1556211580.063,55.664,16.113,32.715,29.785,33.203,0
1556211580.067,-11.719,11.719,29.785,23.438,30.762,0
1556211580.071,-13.184,6.348,31.738,25.879,26.367,0
1556211580.075,55.176,8.789,32.715,29.785,52.246,0
1556211580.079,66.406,16.602,34.180,28.809,43.457,0
1556211580.082,5.371,16.113,40.039,25.391,46.875,0
1556211580.086,-21.973,0.000,39.062,28.809,50.293,0
1556211580.090,32.715,-3.418,31.250,24.414,-8.789,0
1556211580.094,67.871,5.371,29.297,26.367,-20.996,0
1556211580.098,20.020,2.930,29.785,30.273,-12.207,0
1556211580.101,-27.832,7.324,32.715,27.832,-0.488,0
1556211580.105,12.207,10.742,32.715,27.832,46.387,0
1556211580.109,68.359,11.719,30.762,32.227,18.066,0
1556211580.113,42.480,19.531,34.180,36.621,1.953,0
1556211580.117,-14.648,20.508,35.156,35.156,35.156,0
1556211580.121,7.324,16.602,34.668,33.203,23.926,0
1556211580.125,67.383,20.020,39.062,34.180,8.301,0
1556211580.128,60.059,21.484,46.387,37.109,11.230,0
1556211580.132,-6.348,14.160,49.805,32.715,16.602,0
1556211580.136,-19.043,10.254,48.828,27.344,73.242,0
1556211580.140,45.410,9.766,43.945,23.926,55.176,0
1556211580.144,64.453,11.230,41.992,23.438,28.320,0
1556211580.145,6.348,3.418,49.316,31.250,19.043,0
1556211580.149,-20.508,-0.488,41.504,31.250,20.020,0
1556211580.153,38.086,14.160,39.062,27.344,36.621,0
1556211580.157,79.590,24.414,47.852,32.715,46.875,0
1556211580.161,31.738,21.484,46.875,35.645,20.996,0
1556211580.165,-24.414,14.648,50.293,35.156,-13.672,0
1556211580.169,6.836,10.254,46.875,26.855,-11.719,0
1556211580.172,60.547,5.371,44.434,28.320,5.371,0
1556211580.176,33.691,5.371,44.434,26.855,8.301,0
1556211580.180,-29.297,11.719,44.434,22.949,0.977,0
1556211580.184,-13.184,9.766,45.898,28.320,3.906,0
1556211580.188,53.223,0.977,43.457,30.273,5.859,0
1556211580.205,51.758,1.465,41.992,27.832,7.812,0
1556211580.209,-11.719,11.230,43.457,28.809,-20.020,0
1556211580.213,-23.438,7.812,36.621,32.227,7.324,0
1556211580.217,38.086,8.789,33.691,24.902,35.645,0
1556211580.221,57.129,17.090,39.551,25.879,59.570,0
1556211580.225,4.883,18.555,45.410,29.297,33.691,0
1556211580.229,-23.438,21.484,51.270,26.855,-4.883,0
1556211580.232,26.367,18.066,51.758,23.926,-12.695,0
1556211580.236,64.941,14.160,46.875,19.043,-3.418,0
1556211580.240,24.902,15.625,45.898,22.461,-6.348,0
1556211580.244,-26.855,12.695,46.875,22.949,-5.859,0
1556211580.248,5.371,13.672,44.434,23.438,40.039,0
1556211580.235,66.895,19.531,42.480,27.832,6.348,0
1556211580.239,51.758,21.484,42.969,23.926,-11.230,0
1556211580.243,-12.695,19.043,44.922,25.391,10.742,0
1556211580.247,-7.324,5.859,40.527,25.391,18.555,0
1556211580.251,53.223,-1.465,35.645,17.090,10.254,0
1556211580.255,59.082,12.207,41.992,20.020,-49.805,0
1556211580.259,-0.977,21.484,46.875,26.367,-37.109,0
1556211580.262,-24.414,20.508,46.875,23.926,18.066,0
1556211580.266,36.133,17.090,46.875,30.273,55.176,0
1556211580.270,74.219,15.625,41.992,26.855,60.059,0
1556211580.274,25.391,17.090,44.434,20.020,-14.160,0
1556211580.278,-21.484,22.461,48.340,24.902,-6.836,0
1556211580.280,23.926,24.902,46.875,24.902,44.922,0
1556211580.284,76.172,19.531,52.246,27.832,29.297,0
1556211580.288,44.434,19.043,52.246,32.227,14.648,0
1556211580.292,-16.602,19.043,43.945,28.320,-1.953,0
1556211580.296,4.395,15.625,40.527,19.043,-8.789,0
1556211580.300,67.871,7.812,40.527,15.137,20.508,0
1556211580.304,57.617,14.648,45.410,21.973,-3.418,0
1556211580.307,-9.766,20.996,53.223,27.344,-2.930,0
1556211580.311,-12.207,18.555,55.664,25.879,17.578,0
1556211580.315,57.129,23.926,55.176,25.391,16.113,0
1556211580.319,69.336,21.973,47.363,24.414,29.297,0
1556211580.323,2.930,14.160,44.922,26.855,39.551,0
1556211580.341,-22.949,8.301,48.340,29.297,41.992,0
1556211580.345,37.598,14.160,52.246,26.367,24.902,0
1556211580.349,73.730,20.508,53.223,25.879,-2.930,0
1556211580.353,23.438,15.625,48.828,20.996,-4.883,0
1556211580.357,-28.809,9.277,47.852,18.066,34.180,0
1556211580.361,5.859,4.883,47.363,18.066,20.996,0
1556211580.365,56.152,2.441,37.109,16.602,-2.441,0
1556211580.368,27.832,1.465,35.645,16.602,30.273,0
1556211580.372,-33.691,5.371,46.387,20.508,28.809,0
1556211580.376,-17.090,9.766,48.340,18.066,-34.668,0
1556211580.380,47.363,15.625,43.945,7.324,-1.953,1
1556211580.384,44.922,9.277,45.898,10.742,26.855,0
1556211580.385,-12.207,3.418,51.758,21.973,-18.555,0
1556211580.389,-18.555,9.766,49.805,21.484,31.250,0
1556211580.393,41.504,5.371,49.316,17.578,45.898,0
1556211580.397,64.941,-1.465,50.293,22.461,34.668,0
1556211580.401,6.348,0.977,54.199,23.438,23.438,0
1556211580.405,-29.785,-1.465,58.105,25.391,0.000,0
1556211580.409,31.250,1.953,47.852,26.367,14.648,0
1556211580.412,78.613,14.160,41.992,21.973,20.996,0
1556211580.416,38.574,10.742,45.898,26.855,29.297,0
1556211580.420,-8.789,8.301,49.805,29.785,25.879,0
1556211580.424,26.367,6.348,54.688,32.715,-2.930,0
1556211580.428,81.055,5.859,56.152,41.992,-31.250,0
1556211580.430,54.688,13.184,57.129,39.551,38.574,0
1556211580.434,-12.695,12.695,59.082,42.480,17.090,0
1556211580.438,-13.184,10.742,56.641,46.387,21.973,0
1556211580.442,49.316,11.719,55.664,40.039,45.410,0
1556211580.446,54.199,11.230,59.570,44.434,-1.465,0
1556211580.450,-8.301,9.277,57.617,45.410,11.719,0
1556211580.454,-20.020,13.672,52.734,38.574,23.438,0
1556211580.457,42.969,13.184,51.270,38.574,0.488,0
1556211580.461,67.871,11.230,49.316,32.715,4.395,0
1556211580.465,10.742,15.137,48.340,20.996,31.738,0
1556211580.469,-33.691,12.695,42.969,17.090,26.367,0
1556211580.473,18.066,7.324,41.992,19.531,53.223,0
1556211580.475,68.848,9.766,54.199,23.926,19.043,0
1556211580.479,23.926,1.465,56.152,19.043,0.488,0
1556211580.483,-30.762,4.395,53.223,28.320,43.945,0
1556211580.487,4.395,19.043,52.246,32.227,29.785,0
1556211580.491,60.547,15.137,42.969,19.043,8.301,0
1556211580.495,46.387,15.625,39.062,24.414,16.602,0
1556211580.499,-13.184,19.531,44.434,32.715,31.250,0
1556211580.502,-4.883,22.461,44.434,35.156,30.273,0
1556211580.506,64.941,21.973,49.805,33.203,41.992,0
1556211580.510,73.730,21.973,56.152,37.598,71.289,0
1556211580.514,11.230,23.926,58.105,42.480,19.531,0
1556211580.518,-16.113,18.066,50.293,33.203,-39.062,0
1556211580.521,38.574,14.160,38.086,26.367,-39.551,0
1556211580.525,74.707,18.066,40.527,28.320,-32.715,0
1556211580.529,26.367,13.672,52.246,38.574,-15.625,0
1556211580.533,-20.996,12.695,49.316,37.109,22.461,0
1556211580.537,22.461,10.254,39.551,29.297,9.766,0
1556211580.541,72.754,5.371,41.992,28.809,-1.953,0
1556211580.545,36.133,12.207,46.875,24.414,50.781,0
1556211580.548,-24.414,8.789,48.828,23.926,62.500,0
1556211580.552,0.488,5.371,52.734,24.902,59.570,0
1556211580.556,62.500,5.859,43.945,21.973,42.480,0
1556211580.560,51.758,5.371,36.133,20.996,28.809,0
1556211580.564,-12.695,7.812,45.898,23.926,71.289,0
1556211580.565,-18.555,2.930,48.340,24.902,78.613,0
1556211580.569,43.945,3.906,39.551,18.066,52.734,0
1556211580.573,64.941,7.324,43.945,15.137,19.043,0
1556211580.577,8.301,0.977,51.270,20.508,-9.277,0
1556211580.581,-20.508,1.465,50.293,21.973,25.879,0
1556211580.585,41.992,9.766,51.758,26.855,30.273,0
1556211580.589,77.148,10.254,49.316,28.809,-20.508,0
1556211580.592,30.762,6.836,58.105,35.156,-48.828,0
1556211580.596,-17.090,9.766,60.547,38.574,-10.742,0
1556211580.600,17.090,17.578,51.270,37.598,15.625,0
1556211580.604,85.449,29.297,55.176,48.340,14.160,0
1556211580.608,62.988,37.109,65.918,47.363,40.527,0
1556211580.610,-8.301,33.691,66.406,41.504,48.340,0
1556211580.614,-0.977,23.438,69.336,37.598,16.113,0
1556211580.618,57.617,26.855,73.242,30.273,-0.977,0
1556211580.622,52.734,36.621,74.219,26.367,1.465,0
1556211580.626,-21.973,33.203,81.543,14.160,34.668,0
1556211580.630,-48.340,39.551,86.426,0.000,41.016,0
1556211580.634,-0.977,43.457,90.332,-16.602,62.988,0
1556211580.637,-4.883,41.016,89.844,-43.457,101.074,0
1556211580.641,-83.984,54.199,90.332,-64.941,48.828,0
1556211580.645,-136.230,63.965,96.191,-83.496,17.090,0
1556211580.649,-109.375,64.453,92.773,-104.980,-11.230,0
1556211580.653,-86.914,70.801,92.773,-126.465,-24.902,0
1556211580.655,-143.066,70.801,95.703,-139.648,-3.906,0
1556211580.659,-190.918,76.660,88.867,-136.230,31.250,0
1556211580.663,-156.738,78.125,83.008,-141.113,-2.930,0
1556211580.667,-103.516,71.289,77.148,-147.461,-36.621,0
1556211580.671,-109.863,63.965,73.730,-132.324,29.297,0
1556211580.675,-161.133,59.082,72.266,-113.770,64.453,0
1556211580.679,-146.973,57.129,62.988,-105.957,27.832,0
1556211580.682,-65.430,51.758,51.270,-88.379,-15.137,0
1556211580.686,-42.969,39.551,48.340,-68.359,-7.812,0
1556211580.690,-89.355,30.273,53.711,-55.176,33.691,0
1556211580.694,-83.496,21.484,47.852,-34.668,62.500,0
1556211580.698,-0.977,8.789,39.551,-17.578,24.414,0
1556211580.717,37.598,-2.441,39.062,-5.371,-29.297,0
1556211580.721,-1.465,-4.883,32.227,6.348,24.902,0
1556211580.725,-36.133,-3.906,25.879,19.043,74.219,0
1556211580.729,19.043,-6.836,23.926,29.785,54.199,0
1556211580.733,81.543,-7.324,21.973,37.109,29.785,0
1556211580.737,53.223,-13.672,25.391,54.688,29.297,0
1556211580.741,3.906,-19.043,26.367,65.918,23.926,0
1556211580.744,37.598,-12.695,21.484,64.453,-10.742,0
1556211580.748,106.934,-11.230,19.043,67.383,34.668,0
1556211580.752,102.539,-19.043,17.090,71.289,48.340,0
1556211580.756,42.480,-23.438,19.531,71.289,37.598,0
1556211580.760,42.969,-20.996,17.090,67.383,18.555,0
1556211580.760,106.445,-22.461,9.277,70.801,-6.348,0
1556211580.764,122.559,-16.113,17.090,78.125,13.184,0
1556211580.768,61.523,-8.789,22.949,86.426,46.387,0
1556211580.772,32.715,-7.324,20.996,90.332,40.527,0
1556211580.776,89.355,-6.348,21.973,81.543,33.203,0
1556211580.780,122.559,-13.184,21.484,82.520,64.453,0
1556211580.784,73.242,-14.648,22.461,87.891,79.102,0
1556211580.787,31.250,-2.441,26.367,87.891,57.129,0
1556211580.791,76.660,-0.977,25.391,84.473,39.551,0
1556211580.795,123.047,-9.277,20.508,74.707,15.625,0
1556211580.799,89.355,-10.254,20.020,72.754,8.789,0
1556211580.803,29.785,-13.184,26.367,79.102,34.668,0
1556211580.805,49.805,-11.230,27.832,74.707,24.902,0
1556211580.809,111.816,-4.395,26.367,74.707,48.340,0
1556211580.813,102.051,-6.348,25.391,75.195,50.293,0
1556211580.817,38.574,0.977,30.273,72.266,2.930,0
1556211580.821,31.250,3.418,32.227,73.242,73.242,0
1556211580.825,87.402,-8.789,27.832,68.848,81.543,0
1556211580.829,108.398,-4.883,29.297,61.035,19.043,0
1556211580.832,51.758,-2.930,31.738,61.035,-14.160,0
1556211580.836,15.625,-1.953,35.156,60.059,16.113,0
1556211580.840,62.988,2.930,30.273,49.316,4.395,0
1556211580.844,97.168,0.977,24.902,47.363,2.930,0
1556211580.848,56.641,1.465,26.855,50.293,48.828,0
1556211580.851,3.906,0.488,29.297,49.316,23.438,0
1556211580.855,34.180,1.465,34.668,47.852,-33.203,0
1556211580.859,94.727,0.488,30.273,50.293,-8.301,0
1556211580.863,71.289,-1.465,25.391,53.223,-13.672,0
1556211580.867,6.836,3.906,34.180,51.758,21.973,0
1556211580.871,18.066,0.977,36.621,53.223,55.176,0
1556211580.875,80.078,-1.953,35.156,49.316,-12.695,0
1556211580.878,78.613,8.301,38.574,52.246,-27.832,0
1556211580.882,15.137,12.207,42.969,52.246,-16.113,0
1556211580.886,-0.488,8.789,43.457,36.133,6.348,0
1556211580.890,62.988,11.719,45.410,35.645,-8.301,0
1556211580.894,85.449,7.324,41.992,41.992,-27.832,0
1556211580.895,23.926,-0.977,37.109,35.645,-21.484,0
1556211580.899,-12.695,-0.488,35.645,31.250,-13.672,0
1556211580.903,43.457,5.859,37.598,34.668,23.438,0
1556211580.907,85.938,8.301,43.457,39.551,36.621,0
1556211580.911,37.598,-0.977,39.551,37.598,48.828,0
1556211580.915,-17.090,-5.371,38.086,36.621,49.316,0
1556211580.919,18.555,-0.977,45.898,42.480,-17.090,0
1556211580.922,74.219,3.906,44.434,36.621,-27.832,0
1556211580.926,53.711,6.836,45.898,32.715,30.273,0
1556211580.930,-4.395,10.742,50.781,39.551,36.133,0
1556211580.934,2.930,9.766,54.199,43.457,0.977,0
1556211580.938,66.406,5.859,51.758,41.992,-42.969,0
1556211580.940,77.148,6.348,50.781,43.945,-34.180,0
1556211580.944,13.672,6.836,56.152,50.781,4.395,0
1556211580.948,-5.859,5.859,59.570,51.758,33.691,0
1556211580.952,57.617,0.000,52.246,43.457,25.391,0
1556211580.956,85.449,3.906,44.922,41.992,-11.719,0
1556211580.960,33.203,9.277,51.270,50.781,3.418,0
1556211580.964,-6.836,9.277,54.199,42.969,12.207,0
1556211580.967,35.645,3.418,47.363,31.250,-5.371,0
1556211580.971,82.520,0.000,46.387,29.785,12.207,0
1556211580.975,49.805,6.836,49.316,36.621,-12.695,0
1556211580.979,-6.348,4.883,47.852,39.551,6.348,0
1556211580.983,17.578,-1.953,42.480,36.133,34.180,0
1556211580.985,73.730,-3.418,42.480,29.297,6.348,0
1556211580.989,61.035,-6.348,42.969,31.250,1.953,0
1556211580.993,-2.441,-1.953,36.133,38.086,13.672,0
1556211580.997,-1.953,3.906,32.715,35.645,-2.930,0
1556211581.001,59.082,7.324,33.691,32.227,-41.016,0
1556211581.005,69.824,4.883,41.992,36.621,-7.324,0
1556211581.009,15.137,4.883,55.176,41.016,27.832,0
1556211581.012,-14.648,3.418,49.805,40.039,-18.066,0
1556211581.016,34.180,-2.441,39.062,30.273,-33.691,0
1556211581.020,70.801,2.441,43.457,26.855,2.441,0
1556211581.024,21.484,2.930,44.922,31.250,69.824,0
1556211581.028,-31.250,-5.371,41.504,24.414,95.703,0
1556211581.030,9.277,-12.207,40.527,15.625,18.066,0
1556211581.034,66.406,-8.301,40.527,10.742,13.184,0
1556211581.038,36.133,-1.465,47.852,16.602,40.039,0
1556211581.042,-27.832,-4.883,51.758,18.066,43.945,0
1556211581.046,-12.695,-11.719,47.363,13.184,21.973,0
1556211581.050,47.363,-18.066,46.875,14.160,-6.836,0
1556211581.054,46.387,-16.602,47.852,10.742,3.418,0
1556211581.057,-20.508,-2.930,48.828,8.789,-18.555,0
1556211581.061,-27.832,-4.395,49.316,11.230,0.977,0
1556211581.065,44.922,-2.930,44.922,14.648,-1.953,0
1556211581.069,68.848,5.859,44.434,19.531,-16.602,0
1556211581.073,10.254,0.000,47.363,18.555,2.441,0
1556211581.090,-17.090,1.465,48.340,23.926,23.926,0
1556211581.094,44.434,5.859,39.551,23.926,69.824,0
1556211581.098,84.961,6.348,39.551,19.531,98.145,0
1556211581.102,40.039,3.418,45.898,25.391,79.590,0
1556211581.106,-11.719,4.395,48.340,29.785,51.758,0
1556211581.110,20.996,4.395,46.387,33.691,14.160,0
1556211581.114,75.195,5.371,37.109,35.156,-2.930,0
1556211581.117,49.316,2.441,37.109,36.621,27.344,0
1556211581.121,-19.531,5.859,40.039,44.434,-1.953,0
1556211581.125,-10.742,5.859,42.969,42.480,-18.066,0
1556211581.129,51.270,0.000,38.086,31.738,9.277,0
1556211581.133,61.035,11.719,40.039,36.133,-2.930,0
1556211581.135,4.883,12.207,41.016,40.527,3.418,0
1556211581.139,-18.066,4.883,38.086,34.180,1.465,0
1556211581.143,40.039,7.812,35.645,26.367,-6.348,0
1556211581.147,69.824,8.301,38.086,26.367,45.898,0
1556211581.151,17.090,4.883,45.410,26.855,18.555,0
1556211581.155,-18.066,6.836,48.828,30.762,7.324,0
1556211581.159,25.391,4.883,42.480,25.879,18.555,0
1556211581.162,59.570,-1.465,32.715,7.324,14.160,0
1556211581.166,29.785,-0.977,38.086,12.695,34.180,0
1556211581.170,-20.508,2.930,41.992,19.531,23.438,0
1556211581.174,5.859,10.742,38.574,18.066,8.789,0
1556211581.178,67.383,15.625,42.480,26.855,38.086,0
1556211581.180,47.363,16.113,46.875,23.926,0.488,0
1556211581.184,-17.090,16.113,41.504,27.344,2.441,0
1556211581.188,-11.719,14.648,43.457,27.344,67.871,0
1556211581.192,54.199,16.602,48.340,14.648,-0.977,0
1556211581.196,64.453,18.066,46.387,20.996,-17.090,0
1556211581.200,-2.441,10.742,49.805,26.855,85.449,0
1556211581.204,-21.973,9.766,51.270,25.391,46.875,0
1556211581.207,43.945,16.602,45.898,27.344,4.883,0
1556211581.211,80.566,20.020,44.434,30.762,51.270,0
1556211581.215,30.273,27.832,45.410,30.762,35.645,0
1556211581.219,-21.973,29.297,43.457,29.297,0.488,0
1556211581.223,20.020,20.508,43.457,26.367,18.555,0
1556211581.225,67.383,13.672,37.598,19.531,54.688,0
1556211581.229,33.691,9.766,38.574,18.555,-7.812,0
1556211581.233,-22.949,7.812,50.781,21.484,-5.371,0
1556211581.237,-3.418,6.348,45.410,22.949,25.391,0
1556211581.241,51.758,5.859,33.203,16.113,20.020,0
1556211581.245,38.086,7.324,41.504,12.207,30.273,0
1556211581.249,-28.320,12.695,47.852,20.508,42.969,0
1556211581.252,-30.762,8.301,43.945,21.973,40.039,0
1556211581.256,34.180,2.441,38.086,10.742,-15.137,0
1556211581.260,44.434,5.371,34.180,10.254,11.719,0
1556211581.264,-9.766,10.742,39.551,20.996,-5.859,0
1556211581.268,-30.273,11.230,43.945,24.414,-17.090,0
1556211581.270,25.391,8.301,41.504,19.043,19.531,0
1556211581.274,62.500,13.184,40.527,27.344,26.855,0
1556211581.278,21.484,15.625,46.387,39.062,52.246,0
1556211581.282,-26.367,11.719,49.316,40.039,21.973,0
1556211581.286,12.207,6.836,49.805,38.086,25.391,0
1556211581.290,66.406,3.906,51.270,27.344,24.902,0
1556211581.294,41.016,9.766,48.828,25.391,-10.254,0
1556211581.297,-13.672,12.695,48.340,29.785,21.973,0
1556211581.301,-1.953,7.812,51.270,24.902,-2.930,0
1556211581.305,57.617,6.836,48.828,20.996,-2.441,0
1556211581.309,59.082,14.160,50.781,28.320,45.410,0
1556211581.313,-4.883,10.742,58.594,31.250,-4.395,0
1556211581.315,-18.066,4.395,62.012,25.391,-15.625,0
1556211581.319,45.898,8.301,59.570,24.414,34.180,0
1556211581.323,69.336,10.254,57.129,32.715,27.344,0
1556211581.327,8.301,14.160,51.758,27.344,33.203,0
1556211581.331,-28.809,14.160,52.734,21.484,-15.137,0
1556211581.335,25.879,10.742,53.711,22.461,-9.766,0
1556211581.339,71.289,12.695,53.711,26.367,28.809,0
1556211581.342,30.762,9.277,53.223,28.809,-30.762,0
1556211581.346,-21.484,14.648,47.363,27.344,3.418,0
1556211581.350,16.113,21.484,46.387,36.133,70.312,0
1556211581.354,71.777,15.137,48.340,39.062,69.336,0
1556211581.358,50.781,9.277,49.316,35.645,53.223,0
1556211581.360,-6.836,11.230,51.758,38.574,69.824,0
1556211581.364,-0.488,5.371,47.363,35.156,55.176,0
1556211581.368,60.059,5.859,40.527,31.738,27.832,0
1556211581.372,65.430,14.648,35.156,30.273,61.035,0
1556211581.376,1.953,17.090,34.180,30.762,78.613,0
1556211581.380,-9.766,19.043,36.621,33.691,31.250,0
1556211581.384,49.316,17.090,39.551,27.344,36.621,0
1556211581.387,67.871,15.137,39.551,24.414,38.086,0
1556211581.391,14.160,16.602,35.156,25.879,43.457,0
1556211581.395,-22.461,18.066,35.156,25.391,22.461,0
1556211581.399,24.902,17.578,34.180,26.855,-35.156,0
1556211581.403,69.336,11.230,34.180,25.391,-10.742,0
1556211581.405,35.156,11.719,40.527,26.855,-11.719,0
1556211581.409,-22.461,9.766,42.480,28.809,-4.395,0
1556211581.413,3.906,-1.953,43.457,28.320,68.359,0
1556211581.417,66.406,-1.465,40.527,25.879,42.480,0
1556211581.421,46.875,5.859,40.039,24.902,9.766,0
1556211581.425,-18.066,1.953,42.480,26.367,-27.344,0
1556211581.429,-17.090,2.441,38.086,21.484,-57.617,0
1556211581.432,43.945,7.812,34.180,12.207,62.500,0
1556211581.436,60.547,4.395,39.062,20.508,73.730,0
1556211581.440,0.977,3.418,45.410,30.273,-15.625,0
1556211581.444,-23.926,0.488,42.480,31.250,6.836,0
1556211581.448,33.691,5.371,41.504,30.273,32.715,0
1556211581.465,69.336,18.066,48.340,24.414,-16.113,0
1556211581.469,18.555,11.719,42.969,22.949,-32.715,0
1556211581.473,-26.367,6.836,42.480,26.367,22.949,0
1556211581.477,21.973,10.742,46.387,24.414,114.746,0
1556211581.481,72.754,8.789,40.527,23.926,77.148,0
1556211581.485,35.645,0.977,38.574,23.926,34.180,0
1556211581.489,-23.926,-4.395,43.457,22.461,27.832,0
1556211581.492,-2.441,2.441,42.969,19.043,38.086,0
1556211581.496,59.570,8.301,40.039,19.531,62.500,0
1556211581.500,58.105,5.371,45.898,32.715,53.223,0
1556211581.504,-5.371,8.301,47.363,31.738,3.418,0
1556211581.508,-10.742,13.672,46.875,28.320,-13.184,0
1556211581.510,52.734,19.043,50.293,31.738,29.785,0
1556211581.514,67.383,19.043,45.410,32.715,18.066,0
1556211581.518,7.812,9.766,44.922,33.691,30.273,0
1556211581.522,-17.578,3.418,52.246,38.086,39.551,0
1556211581.526,36.621,-0.488,50.781,37.109,-20.996,0
1556211581.530,73.730,4.883,52.734,33.203,-44.922,0
1556211581.534,30.273,7.324,50.781,35.645,14.648,0
1556211581.537,-21.484,7.812,50.781,36.133,29.785,0
1556211581.541,19.043,14.648,51.758,37.109,38.574,2
1556211581.545,78.125,17.090,50.781,37.109,68.848,0
1556211581.549,48.828,14.648,48.828,28.809,14.648,0
1556211581.553,-10.254,14.160,48.828,33.203,13.672,0
1556211581.555,7.812,15.625,48.828,42.480,27.832,0
1556211581.559,68.359,10.254,42.480,37.598,48.340,0
1556211581.563,71.777,8.301,45.410,33.691,36.621,0
1556211581.567,10.254,1.953,52.246,33.691,3.906,0
1556211581.571,-8.301,-0.488,49.805,30.273,-1.465,0
1556211581.575,50.293,9.766,40.039,26.855,-14.648,0
1556211581.579,71.777,16.113,41.992,28.320,-3.418,0
1556211581.582,16.602,9.766,47.852,27.832,9.766,0
1556211581.586,-15.625,7.812,53.223,35.156,-0.488,0
1556211581.590,31.738,21.484,50.293,28.320,14.160,0
1556211581.594,72.754,22.949,44.922,17.578,4.395,0
1556211581.598,33.691,14.160,49.316,23.926,38.086,0
1556211581.600,-13.184,15.137,54.199,27.344,46.387,0
1556211581.604,20.996,12.695,53.711,26.367,-18.066,0
1556211581.608,66.406,0.488,46.387,20.020,4.395,0
1556211581.612,46.875,0.977,48.828,25.879,7.324,0
1556211581.616,-10.254,10.742,56.641,35.156,-6.348,0
1556211581.620,-4.883,11.230,50.781,29.785,-3.906,0
1556211581.624,56.641,5.371,41.504,28.809,-7.812,0
1556211581.627,63.965,9.277,42.480,27.832,42.969,0
1556211581.631,5.371,17.090,46.387,26.855,39.551,0
1556211581.635,-19.043,12.695,46.387,25.391,8.789,0
1556211581.639,38.574,2.930,46.387,21.973,40.039,0
1556211581.643,69.336,5.371,47.363,25.391,56.641,0
1556211581.645,14.160,9.277,47.363,33.691,65.430,0
1556211581.649,-24.902,11.719,46.875,31.250,33.691,0
1556211581.653,20.996,10.254,38.574,25.391,47.852,0
1556211581.657,63.965,0.488,32.715,26.855,67.871,0
1556211581.661,30.273,-2.930,36.133,22.461,32.227,0
1556211581.665,-23.438,-0.488,39.551,24.414,35.156,0
1556211581.669,-4.883,-4.883,36.621,20.996,45.898,0
1556211581.672,53.711,-12.207,32.227,15.625,-29.297,0
1556211581.676,41.992,-12.695,26.367,20.020,-7.812,0
1556211581.680,-22.949,-5.371,25.879,20.020,55.176,0
1556211581.684,-18.555,-0.977,33.203,28.320,-2.930,0
1556211581.688,44.922,1.953,35.156,30.762,-9.277,0
1556211581.690,58.594,1.953,33.203,28.320,8.301,0
1556211581.694,-2.441,2.930,35.645,30.273,-13.184,0
1556211581.698,-25.391,5.859,42.480,33.691,-6.836,0
1556211581.702,33.203,13.184,42.480,36.133,40.039,0
1556211581.706,61.523,12.207,40.527,32.227,17.578,0
1556211581.710,12.695,8.789,44.434,36.621,-15.625,0
1556211581.714,-32.227,18.066,46.875,41.016,-11.719,0
1556211581.717,5.859,15.625,45.410,25.391,-37.598,0
1556211581.721,60.547,22.461,56.152,17.578,-9.277,0
1556211581.725,43.945,29.785,65.430,32.227,28.320,0
1556211581.729,-13.184,25.391,52.734,39.551,18.555,0
1556211581.733,3.418,37.109,60.059,31.738,10.742,0
1556211581.735,71.777,49.316,76.172,31.250,11.230,0
1556211581.739,43.945,46.875,74.219,10.742,-2.441,0
1556211581.743,-54.199,33.691,78.613,-25.391,-30.273,0
1556211581.747,-80.566,45.410,79.590,-45.898,14.648,0
1556211581.751,-37.598,69.336,83.008,-66.406,-0.977,0
1556211581.755,-43.457,84.961,93.750,-86.914,-16.602,0
1556211581.759,-139.160,82.031,101.074,-111.816,-5.371,0
1556211581.762,-198.242,82.520,116.211,-135.254,-10.254,0
1556211581.766,-152.344,87.891,115.234,-149.414,12.695,0
1556211581.770,-122.070,83.984,118.652,-152.344,17.090,0
1556211581.774,-174.805,89.844,125.488,-153.320,-31.738,0
1556211581.778,-217.285,86.426,120.117,-149.414,9.277,0
1556211581.780,-171.875,79.590,111.816,-145.996,37.109,0
1556211581.784,-116.211,77.637,108.398,-145.996,9.766,0
1556211581.788,-133.301,75.195,105.469,-133.789,29.785,0
1556211581.792,-176.758,67.383,97.656,-123.047,57.617,0
1556211581.796,-152.832,57.129,86.426,-116.211,24.414,0
1556211581.800,-68.848,46.875,71.289,-98.145,14.160,0
1556211581.804,-39.551,35.645,62.988,-77.148,54.199,0
1556211581.807,-90.332,26.367,61.523,-58.105,40.527,0
1556211581.811,-81.055,21.973,57.129,-33.203,29.297,0
1556211581.815,4.883,13.672,50.293,-12.695,22.949,0
1556211581.819,42.480,4.395,34.180,5.859,1.953,0
1556211581.823,-1.465,6.348,26.855,19.043,21.973,0
1556211581.840,-25.879,3.906,34.668,29.297,62.988,0
1556211581.844,33.691,-4.883,30.273,35.645,68.359,0
1556211581.848,80.566,-20.020,16.602,41.504,39.062,0
1556211581.852,50.781,-23.926,19.531,56.641,24.414,0
1556211581.856,11.230,-12.207,28.809,64.453,23.926,0
1556211581.860,45.898,-12.695,26.855,66.895,0.488,0
1556211581.864,108.887,-14.648,20.020,74.707,11.719,0
1556211581.867,102.051,-12.695,15.625,83.496,-0.977,0
1556211581.871,41.016,-18.555,18.066,84.961,-19.043,0
1556211581.875,44.922,-22.461,23.926,88.379,25.391,0
1556211581.879,108.398,-24.902,23.926,86.914,33.691,0
1556211581.883,117.188,-27.344,21.484,84.961,17.578,0
1556211581.885,58.105,-26.367,22.949,92.773,21.973,0
1556211581.889,37.598,-28.809,21.484,95.703,7.324,0
1556211581.893,96.191,-36.133,12.207,92.285,18.066,0
1556211581.897,128.906,-35.156,7.324,87.891,38.086,0
1556211581.901,83.496,-27.832,15.137,92.773,60.059,0
1556211581.905,38.086,-22.461,15.625,93.262,42.480,0
1556211581.909,75.684,-21.973,11.719,86.914,9.766,0
1556211581.912,129.395,-24.902,12.695,87.891,-6.348,0
1556211581.916,102.051,-22.949,17.090,95.703,8.789,0
1556211581.920,45.410,-28.320,15.137,98.633,53.711,0
1556211581.924,61.035,-33.203,11.719,84.473,21.484,0
1556211581.928,121.094,-32.715,20.996,86.426,12.695,0
1556211581.930,115.723,-33.691,24.902,85.449,-3.418,0
1556211581.934,48.828,-31.738,20.020,77.148,27.344,0
1556211581.938,45.410,-28.809,19.043,78.125,55.176,0
1556211581.942,111.328,-27.344,23.926,78.125,-27.344,0
1556211581.946,125.000,-27.832,29.785,80.566,-35.645,0
1556211581.950,65.430,-26.367,29.297,83.496,10.742,0
1556211581.954,36.621,-30.762,31.738,82.031,36.133,0
1556211581.957,91.309,-24.902,32.227,79.102,14.160,0
1556211581.961,125.977,-17.090,31.250,74.707,29.297,0
1556211581.965,76.172,-22.461,24.414,71.289,55.176,0
1556211581.969,27.344,-20.996,20.508,73.730,59.570,0
1556211581.973,64.453,-18.066,30.762,69.336,45.898,0
1556211581.975,112.793,-13.672,33.691,64.453,56.152,0
1556211581.979,78.125,-13.672,34.668,64.941,28.320,0
1556211581.983,11.230,-15.137,35.156,63.477,36.621,0
1556211581.987,26.855,-15.625,35.156,62.012,62.500,0
1556211581.991,91.309,-13.184,34.668,62.988,26.367,0
1556211581.995,83.008,-10.254,33.691,65.430,-0.977,0
1556211581.999,13.184,-14.160,36.621,60.059,-14.648,0
1556211582.002,5.371,-17.090,37.598,49.316,22.949,0
1556211582.006,66.895,-13.184,32.227,41.992,-16.113,0
1556211582.010,80.078,-15.137,26.367,33.691,-36.133,0
1556211582.014,21.973,-10.742,28.320,36.133,15.625,0
1556211582.018,-10.254,0.488,26.367,38.086,18.555,0
1556211582.020,44.434,0.977,24.902,38.574,8.301,0
1556211582.024,86.426,0.977,37.109,38.574,36.133,0
1556211582.028,40.527,0.000,41.016,37.598,66.895,0
1556211582.032,-10.254,0.488,38.086,41.504,52.734,0
1556211582.036,26.855,1.465,38.086,41.992,10.742,0
1556211582.040,84.473,0.488,33.691,39.551,41.016,0
1556211582.044,60.547,-2.441,31.250,43.945,54.199,0
1556211582.047,2.441,-2.930,36.133,44.922,48.340,0
1556211582.051,15.137,1.953,36.621,37.109,33.691,0
1556211582.055,72.266,1.465,30.273,32.715,7.812,0
1556211582.059,75.684,-5.371,35.156,31.738,57.617,0
1556211582.063,15.625,-5.371,45.410,39.551,67.383,0
1556211582.080,0.977,0.488,46.387,48.340,-3.906,0
1556211582.084,60.547,2.930,39.062,44.434,-41.016,0
1556211582.088,83.496,0.000,37.109,44.434,-8.301,0
1556211582.092,31.738,-2.441,47.363,47.363,-6.836,0
1556211582.096,-5.859,0.000,53.223,41.992,-11.230,0
1556211582.100,37.598,0.000,50.293,41.992,-4.395,0
1556211582.104,84.473,-7.812,47.852,42.969,3.906,0
1556211582.107,51.758,-2.441,49.316,46.875,39.062,0
1556211582.111,-5.371,9.277,49.316,46.387,44.922,0
1556211582.115,19.043,3.418,47.363,41.504,5.859,0
1556211582.119,73.242,-5.371,42.480,37.109,38.086,0
1556211582.123,56.152,-8.789,40.039,35.156,77.637,0
1556211582.111,-5.371,-2.930,44.922,34.668,38.086,0
1556211582.115,-1.953,-2.930,46.387,32.227,20.020,0
1556211582.119,60.059,-4.883,37.109,28.809,44.434,0
1556211582.123,72.754,0.977,34.180,25.879,62.500,0
1556211582.127,19.531,7.324,40.527,31.250,45.410,0
1556211582.131,-3.906,8.789,41.992,40.527,21.484,0
1556211582.135,47.363,6.348,40.527,37.598,41.016,0
1556211582.138,78.125,6.836,34.180,30.762,44.434,0
1556211582.142,23.926,4.395,36.133,27.344,-2.441,0
1556211582.146,-23.926,-2.441,39.062,23.438,-30.762,0
1556211582.150,17.090,-6.348,37.598,15.137,10.742,0
1556211582.154,61.523,-1.953,35.156,12.207,17.578,0
1556211582.155,30.762,-1.465,31.250,16.113,-9.766,0
1556211582.159,-24.414,-1.465,40.527,20.020,-5.371,0
1556211582.163,-8.789,1.465,49.805,19.043,10.742,0
1556211582.167,52.734,6.836,44.922,16.113,36.621,0
1556211582.171,47.363,-0.488,41.016,19.043,75.684,0
1556211582.175,-12.695,-5.859,43.945,30.273,94.238,0
1556211582.179,-17.090,3.418,40.039,28.809,57.129,0
1556211582.182,42.480,6.348,30.273,20.020,65.918,0
1556211582.186,59.082,8.301,34.668,24.902,83.008,0
1556211582.190,1.465,5.371,39.551,32.715,21.973,0
1556211582.194,-23.438,0.977,39.062,31.738,20.020,0
1556211582.198,33.691,4.395,40.527,21.973,61.523,0
1556211582.215,69.824,3.906,41.992,20.996,50.293,0
1556211582.219,24.414,7.324,43.945,28.320,9.766,0
1556211582.223,-19.531,11.719,44.922,31.250,18.066,0
1556211582.227,16.113,3.418,44.434,21.484,-9.766,0
1556211582.231,64.941,4.395,39.551,11.719,-44.922,0
1556211582.235,40.527,1.953,44.434,22.461,-48.340,0
1556211582.239,-22.949,0.977,49.316,25.391,-3.418,0
1556211582.242,-8.301,10.254,41.504,16.602,-5.859,0
1556211582.246,53.223,3.418,39.062,16.602,-16.602,0
1556211582.250,49.805,-13.672,36.621,20.020,-9.766,0
1556211582.254,-12.695,-15.137,39.062,21.973,21.973,0
1556211582.258,-25.391,-1.465,43.945,24.414,50.293,0
1556211582.260,40.527,-0.488,47.852,26.855,-10.254,0
1556211582.264,64.453,-7.324,50.781,26.367,-11.230,0
1556211582.268,7.324,-0.977,50.781,30.762,3.906,0
1556211582.272,-25.391,7.812,53.711,38.574,18.555,0
1556211582.276,27.344,0.000,55.664,31.738,62.988,0
1556211582.280,72.754,-5.859,53.223,29.297,41.504,0
1556211582.284,35.156,5.371,42.969,33.203,47.363,0
1556211582.287,-18.555,-0.977,36.133,32.715,36.621,0
1556211582.291,12.695,-6.836,43.457,34.180,-5.371,0
1556211582.295,68.359,7.324,41.504,31.738,0.488,0
1556211582.299,44.434,8.789,39.062,26.855,34.180,0
1556211582.303,-17.090,3.906,45.898,28.320,75.684,0
1556211582.305,-6.836,0.488,45.410,30.762,43.945,0
1556211582.309,54.199,-0.488,41.504,24.414,62.012,0
1556211582.313,58.594,0.977,39.062,15.137,77.637,0
1556211582.317,-4.883,2.930,41.016,15.137,36.621,0
1556211582.321,-24.414,3.906,40.039,17.578,75.684,0
1556211582.325,35.156,-0.977,34.668,11.230,35.645,0
1556211582.329,62.988,-9.766,32.715,5.859,23.438,0
1556211582.332,4.883,-7.812,27.832,8.301,0.000,0
1556211582.336,-36.621,-6.348,31.738,11.719,-32.227,0
1556211582.340,8.789,-12.207,38.574,5.371,48.340,0
1556211582.344,52.734,-9.277,36.133,7.324,53.223,0
1556211582.348,21.484,1.953,34.668,15.625,12.207,0
1556211582.350,-32.715,6.836,37.598,13.672,13.672,0
1556211582.354,-7.812,8.789,39.062,10.254,36.133,0
1556211582.358,53.711,9.766,36.621,6.836,42.480,0
1556211582.362,45.410,9.766,42.969,14.160,28.320,0
1556211582.366,-15.137,5.371,49.316,24.414,-14.648,0
1556211582.370,-15.137,2.930,47.852,27.344,21.484,0
1556211582.374,45.410,8.301,48.828,24.902,56.641,0
1556211582.377,61.035,17.090,52.734,32.227,43.945,0
1556211582.381,7.324,11.719,48.340,31.738,20.508,0
1556211582.385,-18.555,3.418,42.480,18.555,28.809,0
1556211582.389,41.016,3.418,43.457,25.879,83.496,0
1556211582.393,82.031,0.488,43.457,29.297,42.969,0
1556211582.395,31.738,7.812,47.363,21.973,10.254,0
1556211582.399,-17.578,13.184,49.316,23.438,25.391,0
1556211582.403,29.297,12.695,44.434,28.809,-30.762,0
1556211582.407,75.684,8.301,39.551,30.273,-69.336,0
1556211582.411,37.598,5.371,41.992,30.762,-19.043,0
1556211582.415,-25.391,8.789,47.852,30.273,19.043,0
1556211582.419,-15.625,2.441,46.387,25.391,11.719,0
1556211582.422,42.969,-4.395,42.480,22.949,41.992,0
1556211582.426,36.621,-2.930,37.109,21.973,46.387,0
1556211582.430,-28.320,-6.348,39.062,20.508,25.879,0
1556211582.434,-33.691,-7.812,49.805,20.508,-11.719,0
1556211582.438,30.762,-2.930,49.805,18.555,-32.715,0
1556211582.440,53.223,-0.977,47.852,20.020,12.695,0
1556211582.444,0.000,-2.930,48.340,19.531,8.301,0
1556211582.448,-28.320,0.488,46.875,20.020,-17.578,0
1556211582.452,29.785,1.465,45.898,21.484,-13.672,0
1556211582.456,67.383,-5.371,45.410,19.531,-18.555,0
1556211582.460,21.973,-3.418,47.852,20.508,12.695,0
1556211582.464,-23.926,-1.953,49.316,29.785,41.992,0
1556211582.467,14.160,-5.371,47.852,28.320,59.570,0
1556211582.471,66.406,1.953,45.898,21.973,69.824,0
1556211582.475,44.434,6.836,47.363,23.438,44.922,0
1556211582.479,-10.742,7.812,42.969,25.879,59.570,0
1556211582.483,4.395,6.348,41.992,32.227,71.289,0
1556211582.485,65.918,-5.371,48.828,31.250,51.758,0
1556211582.489,67.871,-2.930,49.316,27.344,42.969,0
1556211582.493,7.812,7.812,44.922,27.344,72.266,0
1556211582.497,-9.766,10.254,42.969,31.250,51.758,0
1556211582.501,45.410,7.812,45.410,25.391,5.371,0
1556211582.505,70.801,0.488,46.875,23.438,-23.438,0
1556211582.509,19.043,4.883,46.875,32.227,-28.809,0
1556211582.512,-23.926,5.859,43.457,23.926,-2.441,0
1556211582.516,19.531,3.418,37.109,10.254,43.457,0
1556211582.520,60.547,1.465,35.156,13.184,20.508,0
1556211582.524,20.996,2.930,41.016,20.020,-2.930,0
1556211582.528,-28.809,4.395,44.922,24.414,6.348,0
1556211582.530,2.930,0.977,41.504,26.855,16.113,0
1556211582.534,57.617,5.859,41.016,25.879,48.340,0
1556211582.538,40.527,5.371,43.457,21.973,30.273,0
1556211582.542,-18.066,2.930,45.898,24.902,-9.277,0
1556211582.546,-9.766,9.277,45.898,22.949,-4.883,0
1556211582.550,55.176,9.277,44.922,20.996,-37.598,0
1556211582.554,61.035,7.812,46.387,22.461,-26.367,0
1556211582.557,-5.371,7.812,43.457,23.926,27.344,0
1556211582.561,-27.344,8.789,40.527,19.043,31.738,0
1556211582.565,36.133,9.277,38.086,14.160,24.414,0
1556211582.569,64.941,11.230,37.109,14.648,41.016,0
1556211582.573,15.625,16.113,40.527,18.066,30.273,0
1556211582.590,-24.414,5.859,39.062,20.996,-15.137,0
1556211582.594,21.484,-2.441,33.691,18.555,-21.484,0
1556211582.598,68.359,12.695,33.203,17.090,5.859,0
1556211582.602,29.297,22.461,38.574,22.949,28.320,0
1556211582.606,-24.414,17.578,42.969,31.738,2.441,0
1556211582.610,6.348,9.766,42.969,27.832,-16.602,0
1556211582.614,65.430,3.906,41.016,20.996,21.973,0
1556211582.617,54.199,5.859,40.039,23.926,14.160,0
1556211582.621,-3.418,13.184,44.922,32.227,2.930,0
1556211582.625,-0.977,19.531,47.852,34.180,8.789,0
1556211582.629,60.059,9.766,43.945,26.367,-9.766,0
1556211582.633,70.312,5.371,44.434,23.926,-10.254,0
1556211582.650,10.742,10.742,47.852,26.855,14.648,0
1556211582.654,-17.090,6.348,54.199,25.879,20.508,2
1556211582.658,36.621,13.672,49.316,26.367,30.273,0
1556211582.662,71.289,17.578,39.551,26.367,87.402,0
1556211582.666,23.438,11.230,46.387,25.391,52.246,0
1556211582.670,-25.391,7.324,49.316,27.832,16.113,0
1556211582.674,11.719,3.906,41.992,21.973,52.734,0
1556211582.677,61.523,1.465,41.016,16.602,35.645,0
1556211582.681,35.156,-5.371,46.387,23.926,11.230,0
1556211582.685,-23.438,-4.883,43.457,30.273,74.219,0
1556211582.689,-7.812,2.441,40.039,22.461,67.383,0
1556211582.693,57.129,-1.465,37.598,19.043,16.602,0
1556211582.680,51.758,-3.906,39.062,24.902,-7.324,0
1556211582.684,-11.719,5.859,45.898,29.297,11.230,0
1556211582.688,-21.973,2.441,45.898,29.785,-5.859,0
1556211582.692,34.180,-6.836,38.574,20.508,-26.855,0
1556211582.696,54.199,-3.906,41.504,18.555,59.570,0
1556211582.700,-0.488,2.930,47.852,31.250,58.594,0
1556211582.704,-32.715,4.883,45.410,28.809,17.578,0
1556211582.707,19.043,1.953,42.969,16.602,13.184,0
1556211582.711,66.895,3.418,46.875,21.973,13.184,0
1556211582.715,27.832,7.324,49.316,27.832,15.625,0
1556211582.719,-24.414,14.160,46.387,30.762,54.688,0
1556211582.723,7.812,11.719,41.992,25.879,108.398,0
1556211582.725,64.941,8.789,44.922,27.344,117.188,0
1556211582.729,46.387,17.578,42.480,31.738,52.246,0
1556211582.733,-20.996,23.438,36.133,20.996,8.301,0
1556211582.737,-10.254,21.973,43.457,18.555,1.953,0
1556211582.741,58.594,14.160,38.086,23.926,19.531,0
1556211582.745,57.617,14.648,36.133,22.949,49.805,0
1556211582.749,-1.953,19.531,44.434,29.297,29.785,0
1556211582.752,-12.695,12.207,41.016,34.668,31.250,0
1556211582.756,45.410,9.277,38.086,33.691,31.250,0
1556211582.760,71.289,17.090,37.109,36.133,18.555,0
1556211582.764,18.555,18.555,41.016,28.320,75.195,0
1556211582.768,-22.949,12.207,36.621,19.531,54.199,0
1556211582.770,20.996,13.672,27.832,15.625,25.879,0
1556211582.774,62.988,17.090,30.762,15.625,3.906,0
1556211582.778,26.855,13.672,35.156,19.531,25.879,0
1556211582.782,-26.367,12.695,38.574,20.508,1.953,0
1556211582.786,2.441,14.160,41.504,18.066,-5.371,0
1556211582.790,61.035,18.066,41.016,21.484,-6.348,0
1556211582.794,45.898,17.578,41.504,15.137,-2.441,0
1556211582.797,-13.184,13.672,41.504,16.602,38.574,0
1556211582.801,-9.766,9.766,34.668,20.996,-10.742,0
1556211582.805,50.781,7.812,34.180,17.090,-43.457,0
1556211582.809,60.547,9.766,41.016,22.461,-23.438,0
1556211582.813,3.906,16.113,45.898,31.738,20.020,0
1556211582.815,-15.137,20.996,47.852,37.598,47.852,0
1556211582.819,41.992,13.184,44.434,33.203,22.949,0
1556211582.823,69.336,5.859,41.016,22.461,30.273,0
1556211582.827,18.555,3.418,42.969,22.949,53.223,0
1556211582.831,-21.973,-0.488,52.246,29.785,-12.207,0
1556211582.835,19.531,-1.953,49.805,29.297,-20.996,0
1556211582.839,68.848,2.441,42.969,29.785,13.184,0
1556211582.842,41.016,6.348,48.828,34.668,6.836,0
1556211582.846,-19.531,2.441,47.852,38.086,-15.137,0
1556211582.850,1.953,4.395,45.410,34.180,-3.418,0
1556211582.854,66.406,8.789,44.434,26.855,47.363,0
1556211582.858,62.012,7.812,45.898,35.645,47.363,0
1556211582.860,-2.441,9.277,49.316,40.039,-13.672,0
1556211582.864,-8.789,8.789,45.410,31.738,-35.156,0
1556211582.868,55.176,12.695,42.480,28.809,-2.930,0
1556211582.872,67.383,20.508,43.945,32.227,22.461,0
1556211582.876,2.930,13.184,42.480,29.297,11.719,0
1556211582.880,-20.996,10.742,46.387,30.762,6.348,0
1556211582.884,44.434,10.742,48.828,38.574,15.137,0
1556211582.887,83.984,3.906,45.410,36.133,-23.438,0
