timestamps,TP9,AF7,AF8,TP10,Right AUX,Marker0
1556290867.665,13.184,18.066,28.809,18.555,22.949,0
1556290867.669,9.766,21.484,38.086,26.367,43.457,0
1556290867.673,19.043,18.066,44.922,26.367,48.340,0
1556290867.677,20.508,17.090,45.410,18.555,13.184,0
1556290867.681,15.137,23.926,42.969,25.391,14.648,0
1556290867.685,9.277,35.156,40.039,24.414,-9.277,0
1556290867.689,13.184,36.133,38.086,22.949,6.348,0
1556290867.692,26.367,23.926,35.645,27.832,55.664,0
1556290867.696,16.113,20.020,33.691,23.438,31.250,0
1556290867.700,1.953,22.949,36.621,27.832,51.758,0
1556290867.704,3.418,21.484,40.039,32.715,46.387,0
1556290867.708,13.672,21.973,38.086,30.273,66.895,0
1556290867.710,11.230,23.438,37.109,30.762,56.152,0
1556290867.714,10.254,25.391,34.668,27.344,61.523,0
1556290867.718,19.043,28.320,31.738,30.762,93.750,0
1556290867.722,25.879,25.391,38.086,32.715,33.691,0
1556290867.726,30.762,31.738,42.969,28.320,29.785,0
1556290867.730,11.719,34.180,36.133,16.602,47.363,0
1556290867.734,4.395,29.785,36.621,19.043,2.441,0
1556290867.737,14.160,26.855,36.621,15.625,10.742,0
1556290867.741,7.324,21.484,32.227,3.418,23.926,0
1556290867.745,11.719,22.461,35.645,6.836,-9.766,0
1556290867.749,20.508,27.344,35.156,18.066,10.254,0
1556290867.753,10.254,24.414,33.203,14.648,0.977,0
1556290867.755,7.324,17.090,35.645,16.602,2.930,0
1556290867.759,13.672,17.090,39.551,25.879,-8.789,0
1556290867.763,9.766,18.555,32.715,21.973,-28.809,0
1556290867.767,18.555,17.578,28.809,16.602,0.488,0
1556290867.771,26.367,18.555,39.062,5.859,5.371,0
1556290867.775,9.766,22.461,35.645,-3.418,10.254,0
1556290867.779,0.000,21.973,27.832,-3.906,26.855,0
1556290867.782,-3.906,19.043,30.762,3.906,-2.930,0
1556290867.786,0.488,20.508,36.621,-1.953,12.207,0
1556290867.790,0.000,17.090,38.086,-2.930,11.230,0
1556290867.794,-8.301,17.090,37.598,-5.371,36.621,0
1556290867.798,-5.371,23.926,37.109,-3.906,45.410,0
1556290867.800,-0.977,26.855,34.180,1.953,26.367,0
1556290867.804,6.836,25.391,30.273,2.441,35.156,0
1556290867.808,12.207,22.461,29.785,0.000,60.547,0
1556290867.812,-4.883,20.508,33.691,-0.977,-5.371,0
1556290867.816,-4.883,23.438,37.109,4.395,-23.438,0
1556290867.820,11.719,29.785,39.062,5.859,43.457,0
1556290867.824,4.883,27.832,38.574,-0.977,54.199,0
1556290867.827,-1.465,31.738,40.527,-1.465,65.918,0
1556290867.831,0.000,39.062,42.969,0.977,47.363,0
1556290867.835,-19.043,31.250,42.480,-14.160,15.137,0
1556290867.839,-29.785,36.133,42.969,-16.602,21.973,0
1556290867.843,-37.598,43.457,40.527,-30.762,21.484,0
1556290867.844,-49.805,51.758,47.363,-55.664,11.719,0
1556290867.848,-68.359,59.082,52.734,-69.824,26.367,0
1556290867.852,-86.426,57.617,52.246,-91.797,36.621,0
1556290867.856,-114.258,66.406,50.781,-106.934,46.875,0
1556290867.860,-146.973,74.219,47.852,-139.160,18.066,0
1556290867.864,-159.668,80.566,43.945,-168.945,-26.855,0
1556290867.868,-188.477,83.984,45.898,-188.477,-27.344,0
1556290867.871,-215.820,85.938,45.410,-219.727,-15.137,0
1556290867.875,-223.145,91.309,40.527,-224.121,-4.395,0
1556290867.879,-219.727,94.238,36.621,-222.168,31.738,0
1556290867.883,-217.285,83.984,41.992,-228.027,47.852,0
1556290867.887,-206.543,70.801,49.805,-198.730,21.484,0
1556290867.889,-185.547,65.430,44.434,-165.527,32.715,0
1556290867.893,-154.297,65.430,40.527,-145.996,27.344,0
1556290867.897,-115.723,61.523,44.434,-116.699,-38.574,0
1556290867.901,-80.078,55.664,49.805,-83.984,-47.852,0
1556290867.905,-62.012,51.758,48.828,-60.059,34.668,0
1556290867.909,-55.176,44.434,39.551,-40.527,37.598,0
1556290867.913,-22.461,33.691,32.715,-13.672,5.371,0
1556290867.916,5.371,28.809,30.762,-0.977,24.414,0
1556290867.920,17.090,25.391,23.438,10.254,9.766,0
1556290867.924,25.879,19.531,24.414,31.738,36.133,0
1556290867.928,46.875,20.020,36.621,42.969,25.391,0
1556290867.932,64.941,20.508,36.621,56.641,25.391,0
1556290867.935,70.801,15.137,30.762,72.266,37.598,0
1556290867.939,72.266,10.742,28.320,79.102,21.484,0
1556290867.943,86.914,8.789,32.227,83.984,16.602,0
1556290867.947,101.562,7.812,31.250,88.867,0.977,0
1556290867.951,92.773,6.836,30.762,88.379,38.086,0
1556290867.955,101.074,7.324,28.809,97.168,46.875,0
1556290867.959,109.863,9.277,26.367,98.633,39.062,0
1556290867.962,107.910,8.301,26.367,97.168,14.160,0
1556290867.966,114.258,6.836,27.344,105.957,29.785,0
1556290867.970,104.004,5.859,27.832,106.445,4.395,0
1556290867.974,95.215,3.906,27.344,112.305,-8.301,0
1556290867.978,105.469,0.977,33.691,107.422,7.324,0
1556290867.979,111.816,0.977,35.156,101.074,-20.020,0
1556290867.983,111.816,5.371,34.668,109.375,31.250,0
1556290867.987,111.816,6.348,40.527,107.910,37.598,0
1556290867.991,109.375,6.348,37.109,105.469,25.879,0
1556290867.995,111.816,7.324,32.227,105.469,18.066,0
1556290867.999,104.004,8.789,26.855,96.191,-0.488,0
1556290868.003,88.867,10.742,27.344,91.309,-3.418,0
1556290868.006,79.102,8.301,32.227,92.285,-4.883,0
1556290868.010,83.984,8.301,33.691,92.285,4.395,0
1556290868.014,80.078,7.324,36.133,86.914,-3.418,0
1556290868.018,69.824,5.371,36.621,84.473,1.953,0
1556290868.022,73.730,6.348,32.715,88.867,7.812,0
1556290868.039,84.473,6.348,24.414,84.961,-16.113,0
1556290868.043,94.727,6.348,28.809,83.008,-26.855,0
1556290868.047,89.355,7.324,32.227,87.402,-4.395,0
1556290868.051,78.125,5.859,24.414,91.309,-8.789,0
1556290868.055,80.566,4.883,18.555,86.426,-24.414,0
1556290868.059,82.520,2.441,25.391,74.707,-19.531,0
1556290868.063,81.543,2.930,32.227,75.195,-30.273,0
1556290868.066,76.660,8.789,30.273,87.402,-37.598,0
1556290868.070,80.566,10.254,31.738,94.727,30.273,0
1556290868.074,81.543,12.207,36.133,78.125,90.820,0
1556290868.078,79.590,15.625,33.691,76.172,46.387,0
1556290868.082,79.102,16.602,25.879,81.543,9.766,0
1556290868.085,73.242,18.555,24.414,77.148,10.254,0
1556290868.089,66.895,16.113,28.809,70.801,5.371,0
1556290868.093,66.406,13.672,35.645,67.383,11.719,0
1556290868.097,56.152,15.625,37.109,67.871,0.488,0
1556290868.101,59.082,17.578,36.133,61.523,37.598,0
1556290868.105,66.406,17.578,36.133,65.430,44.434,0
1556290868.109,65.918,16.602,32.715,72.754,49.805,0
1556290868.112,61.523,17.578,31.738,60.059,43.945,0
1556290868.116,57.617,19.531,33.691,55.176,21.973,0
1556290868.120,65.430,23.926,25.879,53.223,27.344,0
1556290868.124,68.359,30.273,17.578,36.133,25.879,0
1556290868.128,72.266,30.273,28.809,42.969,44.434,0
1556290868.129,71.289,28.320,40.039,57.617,33.203,0
1556290868.133,63.965,24.902,43.457,62.988,50.293,0
1556290868.137,53.711,23.438,42.969,71.777,40.527,0
1556290868.141,43.945,23.926,36.133,68.848,41.992,0
1556290868.145,40.527,23.926,31.250,52.246,76.172,0
1556290868.149,36.133,22.949,28.809,47.852,67.871,0
1556290868.153,43.945,20.996,29.297,46.875,58.105,0
1556290868.156,51.758,23.438,31.250,45.410,10.742,0
1556290868.160,48.340,26.855,27.344,34.668,28.809,0
1556290868.164,44.922,28.320,17.578,34.180,47.363,0
1556290868.168,38.086,27.832,18.066,37.598,45.410,0
1556290868.172,38.086,26.367,25.391,33.691,52.734,0
1556290868.174,45.898,25.391,29.297,45.898,10.742,0
1556290868.178,34.668,23.926,37.598,40.039,-1.953,0
1556290868.182,33.691,21.484,37.109,27.832,66.406,0
1556290868.186,46.387,26.855,34.668,34.668,100.098,0
1556290868.190,44.922,29.297,32.227,28.320,47.363,0
1556290868.194,36.133,28.809,31.250,30.762,29.785,0
1556290868.198,28.809,25.391,38.086,28.320,49.805,0
1556290868.201,28.809,19.531,36.621,18.066,33.203,0
1556290868.205,26.855,19.531,36.133,20.020,21.973,0
1556290868.209,14.648,18.066,32.715,25.879,3.418,0
1556290868.213,13.672,20.020,20.996,28.320,24.414,0
1556290868.217,26.855,24.902,16.113,27.344,26.367,0
1556290868.219,39.062,25.879,25.391,28.320,-8.789,0
1556290868.223,32.715,30.762,41.504,26.855,6.348,0
1556290868.227,16.113,32.715,50.781,34.180,13.184,0
1556290868.231,24.414,30.762,47.852,35.645,7.324,0
1556290868.235,39.551,32.715,41.992,25.879,38.574,0
1556290868.239,34.180,40.039,48.828,28.809,62.012,0
1556290868.243,32.715,40.039,52.734,35.645,56.152,0
1556290868.246,56.641,35.156,46.875,42.480,41.504,0
1556290868.250,44.922,41.016,41.992,29.785,-13.672,0
1556290868.254,13.672,46.387,36.133,1.953,-3.418,0
1556290868.258,12.695,45.410,34.180,8.301,-4.883,0
1556290868.262,15.625,47.852,29.297,3.418,13.672,0
1556290868.264,8.301,45.898,23.438,-17.578,6.348,0
1556290868.268,15.625,41.992,22.949,-6.348,12.207,0
1556290868.272,5.371,42.969,30.273,-4.395,10.742,0
1556290868.276,-18.555,38.574,38.086,-22.461,-2.930,0
1556290868.280,-1.465,38.574,37.598,-16.113,46.875,0
1556290868.284,18.555,40.039,38.086,2.441,66.895,0
1556290868.288,19.043,39.551,38.086,8.301,38.574,0
1556290868.291,23.438,44.434,40.039,1.953,50.781,0
1556290868.295,26.367,43.457,38.574,0.977,44.922,0
1556290868.299,25.879,41.016,34.668,10.742,20.508,0
1556290868.303,24.414,41.504,33.691,16.602,69.336,0
1556290868.307,19.531,41.504,29.785,19.531,28.320,0
1556290868.324,14.648,35.645,29.297,18.555,-22.461,0
1556290868.328,27.344,34.180,31.250,12.207,46.387,0
1556290868.332,33.203,35.645,31.250,16.602,45.898,0
1556290868.336,18.066,32.715,27.832,24.414,-0.488,0
1556290868.340,13.184,35.645,30.273,18.555,-33.203,0
1556290868.344,23.926,32.715,31.250,6.836,-34.668,0
1556290868.348,26.367,31.250,29.297,9.766,-6.836,0
1556290868.351,19.043,36.621,33.203,13.184,-7.324,0
1556290868.355,19.531,34.668,33.203,14.648,-17.090,0
1556290868.359,25.879,33.203,30.762,21.973,37.109,0
1556290868.363,24.902,34.180,30.273,16.113,22.461,0
1556290868.367,21.484,37.598,27.832,8.301,-37.598,0
1556290868.354,23.926,39.062,25.879,19.531,-19.043,0
1556290868.358,29.297,35.645,33.691,22.949,21.484,0
1556290868.362,40.039,36.621,37.109,14.648,34.668,0
1556290868.366,29.785,40.039,35.156,16.602,17.578,0
1556290868.370,6.348,43.457,34.668,21.973,46.875,0
1556290868.374,18.555,47.363,35.156,20.508,28.320,0
1556290868.378,28.809,44.922,38.086,19.043,24.414,0
1556290868.381,18.066,39.062,32.715,20.508,1.465,0
1556290868.385,14.160,38.086,29.785,26.855,35.156,0
1556290868.389,19.043,39.062,30.762,25.879,94.238,0
1556290868.393,25.879,36.133,27.832,11.719,38.574,0
1556290868.397,31.738,28.809,35.645,10.254,-14.648,0
1556290868.414,18.555,31.250,41.992,22.949,-16.113,0
1556290868.418,0.977,35.156,36.621,26.855,15.137,0
1556290868.422,13.184,31.738,37.598,25.879,28.320,0
1556290868.426,16.113,28.320,38.086,27.832,56.641,0
1556290868.430,13.184,31.250,30.762,27.344,32.715,0
1556290868.434,21.484,36.621,28.320,39.062,-15.137,0
1556290868.438,23.438,31.738,38.086,41.016,-0.977,0
1556290868.441,3.418,25.391,47.852,7.812,22.949,0
1556290868.445,-3.418,22.461,45.898,6.348,12.695,0
1556290868.449,10.742,22.461,47.363,22.949,30.762,0
1556290868.453,17.578,23.438,51.270,25.391,13.184,0
1556290868.457,27.832,21.484,45.898,35.645,-14.648,0
1556290868.459,20.020,18.555,38.574,39.551,43.945,0
1556290868.463,6.836,18.555,36.133,31.738,41.504,0
1556290868.467,8.789,20.996,39.062,24.414,27.344,0
1556290868.471,6.348,21.484,39.062,27.832,56.152,0
1556290868.475,9.277,27.344,33.691,24.414,67.871,0
1556290868.479,14.648,35.156,43.945,26.367,87.402,0
1556290868.483,15.625,38.086,50.293,29.785,44.922,0
1556290868.486,16.113,35.645,46.875,28.320,22.949,0
1556290868.490,14.160,33.691,49.316,31.738,85.938,0
1556290868.494,11.719,35.645,48.828,31.738,46.387,0
1556290868.498,6.836,35.645,45.898,33.691,7.812,0
1556290868.502,6.836,35.156,42.480,29.297,37.109,0
1556290868.504,19.043,37.109,39.551,18.066,-8.301,0
1556290868.508,13.184,38.086,37.109,17.090,-18.555,0
1556290868.512,-5.859,35.156,35.645,13.184,50.293,0
1556290868.516,4.883,32.227,30.762,7.324,50.293,0
1556290868.520,16.602,28.809,29.785,10.742,26.855,0
1556290868.524,12.207,28.320,37.109,18.066,35.645,0
1556290868.528,8.789,29.785,41.992,20.020,27.832,0
1556290868.531,1.953,32.227,40.039,15.625,11.230,0
1556290868.535,10.254,36.133,37.109,17.578,0.977,0
1556290868.539,16.113,35.645,37.598,20.508,0.000,0
1556290868.543,7.812,36.133,32.227,14.648,54.688,0
1556290868.547,7.812,38.086,32.715,12.695,43.457,0
1556290868.549,12.695,34.668,38.574,13.672,39.551,0
1556290868.553,16.113,36.133,43.457,16.602,37.598,0
1556290868.557,19.043,37.598,38.574,15.137,2.930,0
1556290868.561,17.578,36.133,33.203,14.648,30.762,0
1556290868.565,9.766,31.738,37.598,17.578,58.105,0
1556290868.569,8.789,27.832,38.574,12.695,17.090,0
1556290868.573,16.602,28.809,41.504,8.789,-0.977,0
1556290868.576,7.812,29.297,41.016,11.230,50.781,0
1556290868.580,8.789,33.691,39.551,18.066,55.176,0
1556290868.584,20.020,37.598,40.039,13.184,23.926,0
1556290868.588,14.648,39.551,39.062,14.160,40.527,0
1556290868.592,7.324,37.598,38.574,18.066,8.301,0
1556290868.594,16.113,36.133,30.273,15.625,11.719,0
1556290868.598,20.996,36.621,28.320,10.742,48.828,0
1556290868.602,7.812,37.109,35.645,11.230,25.879,0
1556290868.606,2.441,34.668,38.574,15.137,24.414,0
1556290868.610,7.812,31.738,40.527,13.672,13.184,0
1556290868.614,16.602,34.180,39.551,18.555,38.086,0
1556290868.618,18.555,31.738,38.086,16.113,13.184,0
1556290868.621,18.555,29.785,39.551,5.371,-48.828,0
1556290868.625,5.371,31.250,37.109,6.836,-18.555,0
1556290868.629,-3.906,31.250,35.645,9.277,20.508,0
1556290868.633,15.137,34.180,30.273,15.625,30.273,0
1556290868.637,8.789,38.086,24.414,11.719,46.875,0
1556290868.639,-6.348,38.574,26.367,3.418,15.137,0
1556290868.643,-0.488,37.109,28.320,13.184,-18.066,0
1556290868.647,2.441,35.156,30.762,13.672,10.254,0
1556290868.651,9.277,32.715,28.320,9.277,30.273,0
1556290868.655,7.324,30.762,30.273,9.277,51.758,0
1556290868.659,1.953,27.344,30.273,10.254,46.875,0
1556290868.663,7.812,28.320,29.785,10.742,47.852,0
1556290868.666,13.672,32.715,35.645,6.348,77.637,0
1556290868.670,15.625,34.180,38.574,15.137,87.402,0
1556290868.674,8.301,31.738,38.086,14.160,41.504,0
1556290868.678,4.395,32.227,38.574,13.672,12.207,0
1556290868.682,14.648,37.598,35.156,20.996,28.809,0
1556290868.684,17.578,38.086,28.809,16.602,21.973,0
1556290868.688,11.230,38.574,32.715,23.438,6.836,0
1556290868.692,12.695,41.016,34.180,21.973,13.672,0
1556290868.696,24.414,42.969,36.133,14.160,10.742,0
1556290868.700,32.715,43.457,34.668,17.090,4.883,0
1556290868.704,26.855,41.016,30.762,21.484,44.434,0
1556290868.708,30.762,40.527,38.574,19.531,0.000,0
1556290868.711,31.250,35.156,39.551,8.789,-14.648,0
1556290868.715,17.578,31.738,32.227,16.113,5.371,0
1556290868.719,15.625,30.762,31.250,28.809,23.438,0
1556290868.723,22.461,28.809,29.785,20.508,43.945,0
1556290868.727,21.484,34.180,24.414,9.277,34.668,0
1556290868.729,20.996,37.109,25.391,15.137,-11.719,0
1556290868.733,15.625,35.156,32.715,16.113,60.059,0
1556290868.737,15.137,33.203,39.551,18.066,97.656,0
1556290868.741,20.020,32.715,33.203,17.578,46.875,0
1556290868.745,24.414,33.203,25.879,12.207,-9.277,0
1556290868.749,24.414,35.156,30.762,19.531,-43.945,0
1556290868.753,16.113,33.691,37.109,24.902,17.090,0
1556290868.756,15.625,29.297,33.203,12.695,4.883,0
1556290868.760,21.973,34.668,27.832,13.672,-8.301,0
1556290868.764,26.367,38.574,25.391,20.996,26.855,0
1556290868.768,13.184,33.691,29.297,16.602,17.578,0
1556290868.772,2.930,26.367,33.691,18.066,-18.555,0
1556290868.790,7.812,29.297,34.668,12.695,-19.531,0
1556290868.794,19.043,35.645,38.086,18.066,42.480,0
1556290868.798,19.043,36.621,37.598,30.273,16.602,0
1556290868.802,9.277,36.133,32.227,14.648,-85.449,0
1556290868.806,20.508,35.156,30.273,3.418,-33.691,0
1556290868.810,35.645,38.086,32.227,11.719,62.500,0
1556290868.814,32.227,37.598,34.180,16.602,83.496,0
1556290868.817,19.043,34.180,40.039,19.043,92.773,0
1556290868.821,17.578,35.645,45.898,21.973,47.363,0
1556290868.825,26.855,37.109,47.363,26.367,10.254,0
1556290868.829,27.832,34.668,44.922,22.949,60.059,0
1556290868.833,17.578,34.180,39.551,22.949,110.352,0
1556290868.834,16.113,34.668,34.668,22.949,28.320,0
1556290868.838,27.832,29.297,34.668,20.996,42.969,0
1556290868.842,31.738,25.391,36.133,22.461,63.477,0
1556290868.846,26.367,29.785,40.527,23.926,-3.418,0
1556290868.850,28.809,34.180,36.133,19.531,-4.395,0
1556290868.854,34.668,39.551,33.203,13.672,6.348,0
1556290868.858,34.180,41.992,40.039,19.043,81.055,0
1556290868.861,34.668,39.551,41.504,14.648,111.328,0
1556290868.865,38.574,37.109,41.992,11.719,72.266,0
1556290868.869,37.109,38.574,44.434,27.344,61.523,0
1556290868.873,32.227,37.109,33.691,30.273,32.227,0
1556290868.877,25.391,35.645,32.715,28.320,10.254,0
1556290868.879,17.578,37.598,45.410,40.039,-3.906,0
1556290868.883,19.531,34.668,46.387,37.598,-6.836,0
1556290868.887,22.461,30.273,33.203,25.879,-35.645,0
1556290868.891,23.926,32.715,25.391,18.555,-34.668,0
1556290868.895,16.113,33.691,34.180,20.020,8.789,0
1556290868.899,1.953,30.273,46.875,21.484,1.953,0
1556290868.903,9.277,33.691,50.293,20.508,-13.184,0
1556290868.906,20.020,34.180,41.992,12.695,40.039,0
1556290868.910,14.648,36.621,39.551,8.789,54.199,0
1556290868.914,3.906,38.086,37.109,10.254,3.418,0
1556290868.918,5.371,32.227,35.645,16.602,5.859,0
1556290868.922,21.484,31.250,38.574,22.461,35.156,0
1556290868.924,18.555,27.344,38.574,16.113,35.156,0
1556290868.928,9.766,23.926,34.668,15.625,8.789,0
1556290868.932,14.160,29.297,32.227,21.484,9.766,0
1556290868.936,19.531,29.785,37.598,24.902,35.156,0
1556290868.940,22.949,27.344,39.551,24.414,30.273,0
1556290868.944,18.066,32.227,34.668,25.879,35.156,0
1556290868.948,6.348,32.227,34.668,18.066,41.504,0
1556290868.951,4.883,31.250,39.551,8.301,3.418,0
1556290868.955,8.789,31.738,38.574,6.836,20.020,0
1556290868.959,2.441,28.809,31.250,8.301,49.316,0
1556290868.963,-5.371,30.762,30.273,8.301,39.551,0
1556290868.967,9.277,33.203,34.180,20.508,15.137,0
1556290868.970,22.949,35.645,42.480,23.926,5.859,0
1556290868.974,15.625,40.039,45.410,18.066,18.555,0
1556290868.978,8.789,36.133,39.551,8.789,-2.930,0
1556290868.982,11.230,32.227,41.504,9.766,17.090,0
1556290868.986,8.301,32.715,42.480,12.207,12.695,0
1556290868.990,10.254,36.133,44.434,5.859,15.625,0
1556290868.994,11.230,37.598,43.945,10.742,31.738,0
1556290868.997,5.859,32.715,37.109,-0.977,34.180,0
1556290869.001,12.695,42.969,44.922,-8.789,23.438,0
1556290869.005,2.441,50.781,53.711,-12.207,-28.320,0
1556290869.009,-23.926,54.199,47.852,-22.461,32.227,0
1556290869.013,-39.551,61.523,44.434,-36.133,12.207,0
1556290869.015,-35.156,63.965,52.734,-49.805,38.574,0
1556290869.019,-46.387,62.500,56.152,-65.430,48.828,0
1556290869.023,-83.008,63.477,60.547,-86.426,38.086,0
1556290869.027,-121.582,63.477,68.848,-116.699,72.266,0
1556290869.031,-143.066,61.523,65.918,-150.879,50.293,0
1556290869.035,-162.598,69.824,64.453,-178.223,50.293,0
1556290869.039,-198.730,76.660,62.988,-203.125,1.953,0
1556290869.042,-241.211,80.078,65.430,-239.258,6.836,0
1556290869.046,-277.344,82.520,67.383,-270.508,21.973,0
1556290869.050,-288.086,83.984,70.801,-279.297,11.230,0
1556290869.054,-293.457,85.938,69.824,-290.527,10.742,0
1556290869.058,-304.199,88.867,66.406,-307.617,1.953,0
1556290869.061,-299.316,89.844,69.824,-291.504,-33.691,0
1556290869.065,-282.227,83.008,70.312,-274.414,-37.109,0
1556290869.069,-269.531,81.543,65.430,-273.926,-10.254,0
1556290869.073,-271.973,83.984,63.477,-270.996,27.832,0
1556290869.077,-265.625,82.031,68.848,-261.230,68.848,0
1556290869.081,-241.211,76.660,70.801,-236.816,20.020,0
1556290869.085,-211.426,75.684,57.617,-216.797,-2.930,0
1556290869.088,-192.871,71.777,55.664,-199.219,50.781,0
1556290869.092,-182.129,68.848,63.965,-179.688,27.832,0
1556290869.096,-159.668,70.312,64.941,-160.645,37.598,0
1556290869.100,-135.254,64.453,62.988,-143.555,82.520,0
1556290869.104,-116.699,60.547,62.012,-127.930,39.551,0
1556290869.105,-109.863,51.270,58.594,-107.910,50.293,0
1556290869.109,-93.750,41.016,60.059,-89.355,32.715,0
1556290869.113,-72.754,44.922,59.082,-79.590,12.207,0
1556290869.117,-61.523,49.316,47.363,-61.523,5.859,0
1556290869.121,-41.504,50.781,31.738,-42.969,38.574,0
1556290869.125,-26.855,52.246,21.973,-21.484,114.258,0
1556290869.129,-7.812,44.922,29.297,2.930,26.367,0
1556290869.132,21.484,35.156,30.273,21.484,11.230,0
1556290869.136,34.668,33.691,25.879,45.410,3.418,0
1556290869.140,48.828,31.250,23.926,54.688,-11.230,0
1556290869.144,73.242,31.250,22.949,71.777,0.000,0
1556290869.148,83.008,34.180,21.973,83.008,56.641,0
1556290869.165,91.309,30.273,16.602,86.914,81.543,0
1556290869.169,93.750,20.508,18.555,90.820,12.695,0
1556290869.173,100.586,19.531,19.043,96.680,-6.348,0
1556290869.177,127.441,22.461,8.301,114.258,-0.977,0
1556290869.181,135.742,21.973,10.742,127.930,84.473,0
1556290869.185,133.301,23.438,21.484,139.648,81.055,0
1556290869.189,137.207,17.090,20.996,141.113,51.758,0
1556290869.192,137.695,7.812,18.066,141.602,17.578,0
1556290869.196,136.230,9.277,17.090,137.695,13.184,0
1556290869.200,135.742,12.695,14.160,135.742,34.180,0
1556290869.204,136.230,12.695,14.648,142.090,-24.902,0
1556290869.208,147.461,12.207,19.531,144.531,-10.254,0
1556290869.210,155.273,14.160,20.996,141.113,57.617,0
1556290869.214,146.973,11.719,22.461,144.531,35.156,0
1556290869.218,139.160,8.301,25.391,144.531,4.395,0
1556290869.222,145.996,8.301,12.207,135.742,56.641,0
1556290869.226,164.062,7.812,5.859,140.137,82.520,0
1556290869.230,155.273,5.859,23.438,134.766,1.953,0
1556290869.234,142.090,5.859,32.715,132.324,-63.477,0
1556290869.237,139.648,4.395,32.227,135.254,11.719,0
1556290869.241,152.832,2.930,33.691,136.230,18.555,0
1556290869.245,148.926,5.859,31.250,131.348,-18.066,0
1556290869.249,130.859,7.812,25.391,132.812,35.156,0
1556290869.253,137.207,7.324,22.461,142.090,66.406,0
1556290869.255,134.277,2.441,19.531,132.812,41.992,0
1556290869.259,134.277,-0.488,20.996,135.742,0.488,0
1556290869.263,131.348,4.395,28.320,145.020,-63.965,0
1556290869.267,122.559,6.348,36.133,125.000,-52.734,0
1556290869.271,127.441,5.371,38.086,111.816,-26.855,0
1556290869.275,125.488,7.324,32.227,121.582,-30.762,0
1556290869.279,126.465,9.766,25.391,122.559,7.812,0
1556290869.282,117.676,9.766,21.484,111.328,9.277,0
1556290869.286,120.117,10.254,26.855,111.328,-4.395,0
1556290869.290,125.488,11.719,40.527,116.699,13.184,0
1556290869.294,110.352,8.301,40.527,110.840,11.719,0
1556290869.298,104.492,8.789,29.297,94.238,20.020,0
1556290869.300,125.977,13.672,21.484,105.469,10.742,0
1556290869.304,139.648,18.555,22.949,109.863,8.789,0
1556290869.308,91.797,18.066,29.785,79.590,10.254,0
1556290869.312,57.129,14.648,39.062,55.664,28.809,0
1556290869.316,46.387,12.695,40.039,49.805,57.617,0
1556290869.320,60.059,11.230,34.180,71.289,27.832,0
1556290869.324,59.082,13.184,36.133,66.406,25.391,0
1556290869.327,18.555,14.648,43.945,20.020,23.926,0
1556290869.331,14.648,12.695,47.852,12.207,30.273,0
1556290869.335,19.043,6.836,39.062,8.789,5.371,0
1556290869.339,1.465,3.418,38.086,1.465,-13.184,0
1556290869.343,-1.953,3.418,43.945,8.301,-13.672,0
1556290869.345,0.000,4.883,40.039,20.020,40.039,0
1556290869.349,4.395,8.789,39.551,20.996,58.105,0
1556290869.353,29.297,8.301,39.551,29.297,47.363,0
1556290869.357,25.879,4.395,36.133,38.086,18.555,0
1556290869.361,24.414,11.230,34.180,42.480,-1.465,0
1556290869.365,31.250,15.137,23.926,41.504,24.414,0
1556290869.369,39.062,14.160,24.414,45.898,48.340,0
1556290869.372,44.922,19.043,36.621,51.758,84.961,0
1556290869.376,38.086,19.531,36.133,40.039,87.891,0
1556290869.380,40.527,19.531,31.250,34.180,-9.277,0
1556290869.384,55.664,18.555,33.691,41.504,-21.973,0
1556290869.388,64.453,12.695,37.598,45.410,-3.418,0
1556290869.390,54.688,11.719,34.180,44.922,-12.207,0
1556290869.394,48.340,16.113,35.156,50.781,28.320,0
1556290869.398,59.082,21.484,36.621,48.340,23.926,0
1556290869.402,66.895,21.484,37.109,44.922,-15.625,0
1556290869.406,61.035,23.926,35.645,51.270,-25.391,0
1556290869.410,57.617,30.762,34.180,54.688,0.977,0
1556290869.414,66.895,27.832,37.109,47.363,-1.953,0
1556290869.417,81.543,27.344,31.738,45.410,-23.438,0
1556290869.421,82.520,22.461,24.902,53.711,19.531,0
1556290869.425,66.406,16.602,27.832,46.387,42.480,0
1556290869.429,62.012,20.508,33.203,43.945,2.441,0
1556290869.433,60.547,24.902,31.738,47.363,-7.812,0
1556290869.435,59.570,25.391,25.391,35.645,15.137,0
1556290869.439,58.594,21.484,29.785,38.574,37.109,0
1556290869.443,50.781,20.020,36.133,32.715,66.895,0
1556290869.447,59.082,18.555,35.156,33.203,31.250,0
1556290869.451,55.664,22.949,36.621,35.645,-12.207,0
1556290869.455,40.527,23.926,40.527,31.250,15.137,0
1556290869.459,62.012,20.996,44.434,54.688,3.418,0
1556290869.462,70.801,19.531,40.039,49.805,30.273,0
1556290869.466,39.062,25.879,26.367,18.555,68.359,0
1556290869.470,24.414,38.574,22.949,16.113,44.922,0
1556290869.474,38.574,28.320,19.531,25.879,27.832,0
1556290869.478,45.410,17.578,8.301,7.324,75.684,0
1556290869.480,41.992,35.156,9.277,-20.020,87.402,0
1556290869.484,34.668,59.082,20.020,-17.090,21.484,0
1556290869.488,32.715,68.359,21.973,1.953,21.973,0
1556290869.492,47.852,63.477,19.531,13.184,58.594,0
1556290869.496,60.547,54.199,19.043,15.625,-15.625,0
1556290869.500,51.758,47.852,20.020,9.766,-16.602,0
1556290869.504,44.922,45.410,24.414,12.695,28.809,0
1556290869.507,54.199,38.086,22.949,28.809,10.254,0
1556290869.511,54.688,34.668,17.090,21.484,30.273,0
1556290869.515,48.340,35.645,9.766,22.461,54.199,0
1556290869.519,52.734,39.062,17.578,27.832,40.527,0
1556290869.523,44.434,40.039,24.902,20.508,41.992,0
1556290869.540,36.621,34.180,13.672,20.020,42.480,0
1556290869.544,49.805,34.668,16.113,27.344,36.133,0
1556290869.548,46.875,36.621,27.344,31.250,16.113,0
1556290869.552,30.762,30.762,26.855,30.273,15.625,0
1556290869.556,33.691,25.391,28.320,24.902,35.156,0
1556290869.560,45.898,28.809,30.273,19.043,-3.418,0
1556290869.564,44.434,36.621,28.809,14.160,19.043,0
1556290869.567,33.203,36.133,24.414,16.113,15.137,0
1556290869.571,36.621,30.762,20.508,24.902,2.441,0
1556290869.575,42.480,28.809,26.855,26.367,71.289,0
1556290869.579,46.875,28.809,28.809,20.996,44.434,0
1556290869.583,38.574,29.297,26.367,24.902,-25.879,0
1556290869.584,42.969,27.832,24.414,26.367,-14.160,0
1556290869.588,58.105,28.320,22.949,25.879,20.996,0
1556290869.592,58.105,31.738,23.438,18.066,-8.301,0
1556290869.596,61.035,31.250,21.484,15.625,29.785,0
1556290869.600,61.035,27.832,26.855,26.367,33.691,0
1556290869.604,60.059,25.879,32.715,23.926,-2.441,0
1556290869.608,65.430,28.320,29.785,35.645,22.949,0
1556290869.611,61.035,33.691,26.367,49.805,18.066,0
1556290869.615,49.316,33.203,24.902,49.805,25.879,0
1556290869.619,48.340,36.133,25.879,47.852,1.953,0
1556290869.623,46.387,39.062,25.391,37.598,-30.273,0
1556290869.627,42.480,30.273,29.297,23.926,-8.301,0
1556290869.629,34.180,24.414,32.715,23.926,48.828,0
1556290869.633,31.250,26.855,26.855,13.184,85.938,0
1556290869.637,40.527,30.273,25.879,12.695,20.020,0
1556290869.641,37.109,29.785,25.879,24.414,33.203,0
1556290869.645,28.320,26.367,26.367,15.625,78.613,0
1556290869.649,22.461,27.344,31.250,14.160,94.727,0
1556290869.653,32.715,28.809,34.668,23.926,49.805,0
1556290869.656,36.133,30.762,33.691,25.391,-4.883,0
1556290869.660,22.461,31.250,33.203,15.137,21.484,0
1556290869.664,15.625,32.227,31.738,6.348,33.203,0
1556290869.668,17.090,34.180,24.414,9.766,35.156,0
1556290869.672,39.551,36.133,24.902,20.508,12.695,0
1556290869.674,52.734,36.621,37.109,31.250,18.555,0
1556290869.678,23.926,40.527,38.086,8.789,-3.418,0
1556290869.682,6.348,44.434,28.320,-12.207,-18.066,0
1556290869.686,29.297,42.480,18.555,-5.859,11.719,0
1556290869.690,44.922,44.922,14.160,0.488,17.578,0
1556290869.694,25.391,49.805,11.719,5.371,46.875,0
1556290869.698,21.973,46.875,11.719,2.930,48.828,0
1556290869.701,45.410,44.434,14.160,2.441,19.043,0
1556290869.705,46.875,44.434,20.996,0.000,24.414,0
1556290869.709,34.180,41.992,25.391,1.953,27.832,0
1556290869.713,24.902,40.039,23.926,11.719,23.438,0
1556290869.717,33.203,35.645,26.855,8.789,-20.996,0
1556290869.719,41.504,32.715,25.879,11.719,19.043,0
1556290869.723,36.621,35.645,20.996,10.254,61.035,0
1556290869.727,36.621,38.574,20.508,4.883,30.762,0
1556290869.731,36.621,34.180,29.785,10.254,47.363,0
1556290869.735,34.180,25.391,32.715,3.906,48.340,0
1556290869.739,30.273,26.855,24.414,1.953,2.441,0
1556290869.743,18.555,31.738,21.484,8.789,16.113,0
1556290869.746,18.555,36.133,20.996,5.371,-4.395,0
1556290869.750,24.414,39.551,22.949,5.371,0.488,0
1556290869.754,21.484,36.621,28.809,11.230,33.691,0
1556290869.758,20.020,36.621,25.391,11.719,49.805,0
1556290869.762,21.973,39.062,20.020,8.789,32.227,0
1556290869.765,31.250,39.062,21.484,2.930,32.227,0
1556290869.769,33.691,40.039,26.367,-0.488,37.109,0
1556290869.773,29.785,38.574,29.785,3.906,22.949,0
1556290869.777,30.762,37.109,28.320,10.254,57.129,0
1556290869.781,28.320,34.668,26.367,7.812,10.742,0
1556290869.785,30.273,33.203,29.297,7.812,8.301,0
1556290869.789,24.414,32.715,33.691,10.254,52.246,0
1556290869.792,20.508,32.227,30.762,6.836,64.941,0
1556290869.796,24.902,39.062,21.973,9.277,64.941,0
1556290869.800,23.438,44.922,22.461,12.695,42.969,0
1556290869.804,23.926,37.109,34.180,14.648,13.184,0
1556290869.808,26.855,29.785,41.016,19.531,-5.859,0
1556290869.810,25.391,34.668,29.785,14.160,11.230,0
1556290869.814,25.879,39.062,26.855,6.348,43.457,0
1556290869.818,25.391,36.133,34.180,8.789,93.750,0
1556290869.822,22.949,34.668,32.715,7.324,56.152,0
1556290869.826,24.414,35.156,28.320,11.719,21.484,0
1556290869.830,46.387,38.574,21.973,22.461,44.434,0
1556290869.834,60.547,39.062,29.297,24.902,42.480,0
1556290869.837,23.926,31.250,46.387,7.812,-30.762,0
1556290869.841,0.000,18.066,44.922,1.953,-50.293,0
1556290869.845,21.973,8.789,42.969,19.531,-6.348,2
1556290869.849,33.691,5.371,47.363,28.320,-26.855,0
1556290869.853,44.434,9.277,51.270,56.641,-0.977,0
1556290869.855,51.758,15.625,52.734,70.801,15.137,0
1556290869.859,41.016,18.555,51.758,59.082,18.066,0
1556290869.863,51.758,21.973,56.152,57.617,43.945,0
1556290869.867,65.430,23.926,56.641,62.988,33.691,0
1556290869.871,52.734,23.926,53.223,65.430,27.832,0
1556290869.875,42.480,24.902,51.758,66.406,35.156,0
1556290869.879,49.316,28.809,52.734,62.012,44.434,0
1556290869.882,44.922,26.367,52.734,54.199,26.855,0
1556290869.886,31.250,25.879,51.270,55.176,36.621,0
1556290869.890,27.832,27.832,51.758,54.688,51.270,0
1556290869.894,35.645,27.344,44.922,41.992,59.570,0
1556290869.898,40.039,23.438,40.039,37.598,44.922,0
1556290869.914,26.367,23.926,47.852,38.574,3.418,0
1556290869.918,14.160,27.344,54.199,40.039,-26.367,0
1556290869.922,20.508,31.738,49.316,32.227,13.672,0
1556290869.926,30.273,32.715,40.527,20.020,39.062,0
1556290869.930,28.809,28.809,38.574,23.926,16.602,0
1556290869.934,24.414,30.762,45.898,24.902,-5.371,0
1556290869.938,33.691,34.668,45.410,14.160,7.324,0
1556290869.941,37.598,34.180,38.574,13.184,23.438,0
1556290869.945,26.367,38.574,39.062,30.762,6.836,0
1556290869.949,20.996,38.574,44.434,33.203,26.367,0
1556290869.953,12.207,27.344,48.340,19.043,5.859,0
1556290869.957,15.137,27.832,50.293,24.414,-12.695,0
1556290869.959,24.902,29.785,50.781,23.926,-19.531,0
1556290869.963,25.391,22.949,48.340,22.461,-22.461,0
1556290869.967,14.160,22.949,46.387,21.484,-2.441,0
1556290869.971,9.766,29.785,46.387,10.254,14.160,0
1556290869.975,22.461,31.250,43.457,20.020,10.254,0
1556290869.979,21.973,27.344,42.480,21.973,16.113,0
1556290869.983,17.090,26.855,44.922,17.090,34.180,0
1556290869.986,19.043,29.297,36.621,25.391,10.742,0
1556290869.990,15.625,28.809,34.180,21.484,-22.949,0
1556290869.994,21.484,28.809,41.992,21.484,47.852,0
1556290869.998,19.043,27.832,48.828,27.344,60.547,0
1556290870.002,13.184,29.785,46.387,23.926,22.949,0
1556290870.004,23.438,33.691,40.039,19.043,63.477,0
1556290870.008,23.926,31.250,37.598,16.113,89.844,0
1556290870.012,13.672,30.273,35.156,19.531,63.477,0
1556290870.016,13.184,29.297,33.203,24.414,56.152,0
1556290870.020,21.484,25.391,38.086,25.879,66.406,0
1556290870.024,19.531,22.949,42.969,24.414,52.734,0
1556290870.028,19.043,21.973,41.992,21.484,66.406,0
1556290870.031,12.207,23.926,41.504,21.484,46.387,0
1556290870.035,11.719,23.438,38.574,20.020,24.902,0
1556290870.039,15.137,20.996,35.645,16.113,-7.324,0
1556290870.043,3.906,24.414,31.738,11.719,-15.137,0
1556290870.047,13.672,29.297,32.715,16.602,16.602,0
1556290870.050,20.508,32.227,38.574,28.809,42.969,0
1556290870.054,12.207,33.203,39.062,26.855,35.645,0
1556290870.058,12.695,30.762,37.109,19.043,4.883,0
1556290870.062,9.766,29.785,39.551,26.855,16.113,0
1556290870.066,6.836,28.809,46.875,26.855,-5.859,0
1556290870.070,14.648,23.438,46.387,20.996,6.836,0
1556290870.074,20.996,23.438,40.527,18.555,61.035,0
1556290870.077,22.461,22.461,42.969,24.414,19.531,0
1556290870.081,20.508,20.996,46.875,41.992,-2.441,0
1556290870.085,18.066,31.250,41.992,27.832,31.250,0
1556290870.089,18.066,40.527,33.203,3.906,34.668,0
1556290870.093,26.855,42.480,31.738,11.230,33.691,0
1556290870.095,35.156,43.945,32.227,26.855,26.367,0
1556290870.099,36.133,41.992,28.320,33.203,32.715,0
1556290870.103,44.434,45.410,25.879,26.855,41.992,0
1556290870.107,41.016,47.363,31.250,28.320,37.109,0
1556290870.111,35.156,43.945,35.645,34.668,25.391,0
1556290870.115,28.809,38.574,35.156,34.180,-0.977,0
1556290870.119,26.367,33.691,28.809,22.461,9.766,0
1556290870.122,36.621,35.156,22.949,8.789,19.531,0
1556290870.126,26.855,36.133,25.879,9.277,10.254,0
1556290870.130,13.184,39.062,33.691,14.648,-40.527,0
1556290870.134,30.762,39.062,34.180,18.066,-26.855,0
1556290870.138,33.203,39.062,32.715,20.508,10.742,0
1556290870.140,17.090,37.598,37.598,21.484,-20.020,0
1556290870.144,20.508,37.109,33.203,14.160,8.301,0
1556290870.148,27.832,37.598,26.855,8.789,25.391,0
1556290870.152,21.484,35.156,24.902,16.113,5.371,0
1556290870.156,14.648,39.062,25.879,12.695,20.996,0
1556290870.160,18.555,43.457,30.273,7.324,14.160,0
1556290870.164,22.461,43.945,32.227,12.695,-5.371,0
1556290870.167,28.809,41.992,33.203,11.230,9.277,0
1556290870.171,32.715,40.527,33.203,9.766,29.785,0
1556290870.175,19.043,41.992,30.762,17.090,-26.855,0
1556290870.179,16.113,40.039,36.133,18.555,-9.277,0
1556290870.183,26.367,37.109,41.992,20.508,59.082,0
1556290870.185,23.926,34.180,44.922,17.578,27.832,0
1556290870.189,16.602,32.227,46.387,12.207,-51.270,0
1556290870.193,18.555,35.156,41.504,17.578,-4.883,0
1556290870.197,25.391,37.109,41.992,18.066,40.527,0
1556290870.201,27.344,38.574,40.527,15.625,28.320,0
1556290870.205,24.414,42.480,39.062,18.066,10.742,0
1556290870.209,21.973,42.969,43.945,15.625,-38.574,0
1556290870.212,21.973,44.922,43.945,5.371,-19.043,0
1556290870.216,19.531,42.480,48.340,14.160,-17.090,0
1556290870.220,19.531,37.109,49.316,24.902,-32.227,0
1556290870.224,19.531,36.621,41.016,13.184,-4.883,0
1556290870.228,14.160,34.180,36.621,15.137,38.086,0
1556290870.230,19.043,32.715,34.668,16.602,59.570,0
1556290870.234,19.531,37.598,33.691,18.066,84.473,0
1556290870.238,10.254,40.527,36.133,22.461,69.336,0
1556290870.242,13.184,41.504,38.086,19.531,36.133,0
1556290870.246,20.996,41.992,40.527,22.949,11.719,0
1556290870.250,23.926,41.504,44.434,21.973,-13.672,0
1556290870.254,6.836,38.086,43.457,15.137,15.625,0
1556290870.257,1.953,32.227,33.691,9.277,51.270,0
1556290870.261,12.695,33.203,23.926,18.066,57.129,0
1556290870.265,10.254,37.109,22.949,22.461,22.461,0
1556290870.269,4.395,39.062,26.855,8.301,36.621,0
1556290870.273,4.883,38.086,31.250,5.859,33.691,0
1556290870.275,6.348,35.645,38.086,10.742,10.254,0
1556290870.279,14.160,39.551,41.504,9.277,28.809,0
1556290870.283,9.766,41.016,36.621,10.742,27.832,0
1556290870.287,6.348,36.621,35.156,20.508,4.883,0
1556290870.291,20.996,37.109,39.551,22.949,25.391,0
1556290870.295,23.926,40.527,40.039,10.254,23.926,0
1556290870.299,20.020,36.621,38.086,4.395,-11.230,0
1556290870.302,22.461,34.180,41.992,12.695,5.859,0
1556290870.306,25.391,31.738,44.922,15.137,40.527,0
1556290870.310,34.180,31.738,40.527,9.766,-13.672,0
1556290870.314,45.898,39.062,36.621,17.578,-17.090,0
1556290870.318,33.203,40.039,41.992,28.809,11.230,0
1556290870.335,14.648,40.527,44.922,25.879,26.855,0
1556290870.339,20.508,39.551,41.504,32.715,40.039,0
1556290870.343,20.996,35.645,38.086,35.156,14.648,0
1556290870.347,5.371,35.645,40.527,20.508,29.297,0
1556290870.351,3.906,37.109,46.875,20.508,26.855,0
1556290870.355,4.883,36.621,45.410,11.230,28.320,0
1556290870.359,6.348,36.133,42.969,4.395,-20.020,0
1556290870.362,15.625,35.156,39.062,11.230,17.578,0
1556290870.366,11.719,33.691,34.668,14.160,76.660,0
1556290870.370,12.207,34.180,42.969,10.254,17.578,0
1556290870.374,13.184,34.180,50.293,2.930,-11.719,0
1556290870.378,12.695,30.762,46.387,5.371,6.836,0
1556290870.380,16.602,35.645,47.363,6.836,3.906,0
1556290870.384,11.719,36.621,50.293,11.719,4.395,0
1556290870.388,17.090,31.250,48.828,10.254,40.039,0
1556290870.392,23.926,31.738,48.340,14.160,69.336,0
1556290870.396,19.531,36.621,45.898,21.484,4.883,0
1556290870.400,9.766,40.527,45.898,12.207,13.184,0
1556290870.404,15.137,40.039,51.758,14.160,47.363,0
1556290870.407,31.738,38.086,51.758,17.578,4.883,0
1556290870.411,27.344,37.598,48.340,11.230,1.465,0
1556290870.415,18.066,40.039,47.363,10.742,30.273,0
1556290870.419,17.578,40.527,45.898,14.648,48.828,0
1556290870.423,35.156,41.992,40.039,21.484,73.242,0
1556290870.425,44.434,41.504,45.898,33.203,42.480,0
1556290870.429,19.043,31.250,53.711,21.973,19.531,0
1556290870.433,-1.953,19.043,49.805,0.488,65.430,0
1556290870.437,0.000,19.531,54.199,7.812,30.762,0
1556290870.441,0.977,24.902,58.105,9.766,34.180,0
1556290870.445,-1.465,26.367,54.688,11.719,50.293,0
1556290870.449,5.859,26.367,51.270,10.254,-2.441,0
1556290870.452,9.277,23.926,47.363,6.836,22.461,0
1556290870.456,12.207,25.391,51.758,10.254,26.367,0
1556290870.460,13.672,27.832,55.176,7.812,14.648,0
1556290870.464,13.672,30.273,51.270,10.742,45.410,0
1556290870.468,18.555,33.203,53.223,18.066,40.039,0
1556290870.470,26.367,36.133,62.500,23.438,35.156,0
1556290870.474,26.855,41.016,59.082,20.996,36.133,0
1556290870.478,17.090,34.180,50.293,16.113,7.324,0
1556290870.482,15.137,29.785,45.898,15.625,14.160,0
1556290870.486,13.672,35.645,46.387,16.113,24.414,0
1556290870.490,16.113,38.574,49.805,20.996,-18.066,0
1556290870.494,13.672,37.598,46.875,20.020,-8.301,0
1556290870.497,14.648,33.203,47.363,14.648,44.922,0
1556290870.501,22.461,31.250,51.270,15.137,18.555,0
1556290870.505,25.879,36.133,48.828,16.602,44.922,0
1556290870.509,26.367,39.551,47.363,20.508,92.285,0
1556290870.513,27.832,35.645,45.410,23.438,79.102,0
1556290870.515,25.879,35.156,41.992,15.625,81.055,0
1556290870.519,20.508,32.715,43.457,11.719,28.809,0
1556290870.523,22.949,28.809,44.434,16.602,18.066,0
1556290870.527,19.531,36.621,44.922,15.137,2.441,0
1556290870.531,22.461,37.109,43.457,6.348,-10.742,0
1556290870.535,28.320,32.715,39.062,4.395,0.977,0
1556290870.539,26.367,36.133,36.133,7.812,-6.348,0
1556290870.542,16.602,39.062,41.016,5.371,5.371,0
1556290870.546,13.672,36.133,44.434,7.324,-24.414,0
1556290870.550,18.066,32.715,40.039,11.719,-28.320,0
1556290870.554,27.832,31.250,40.039,7.812,3.418,0
1556290870.558,31.738,37.109,46.387,11.230,9.277,0
1556290870.560,13.672,37.598,43.457,14.160,30.273,0
1556290870.564,17.578,32.227,36.621,16.602,48.340,0
1556290870.568,29.297,27.344,36.621,15.625,43.945,0
1556290870.572,15.137,26.367,38.086,17.578,0.000,0
1556290870.576,14.160,32.715,33.691,21.973,-2.441,0
1556290870.580,20.020,36.133,35.156,22.461,18.555,0
1556290870.584,24.414,38.574,46.387,19.531,8.301,0
1556290870.587,23.926,38.086,51.758,19.531,21.484,0
1556290870.591,8.301,31.250,51.270,25.879,53.711,0
1556290870.595,11.230,26.367,52.246,36.621,7.812,0
1556290870.599,15.625,26.367,45.410,28.320,-20.996,0
1556290870.603,10.254,26.367,37.598,21.484,-8.301,0
1556290870.605,14.648,29.785,41.504,25.391,4.395,0
1556290870.609,20.508,33.203,42.480,23.926,45.410,0
1556290870.613,24.414,34.180,41.992,24.414,34.180,0
1556290870.617,15.137,35.156,44.434,25.879,62.988,0
1556290870.621,6.348,29.785,43.457,28.320,83.984,0
1556290870.625,18.066,32.227,40.039,27.344,34.180,0
1556290870.629,26.367,40.527,41.016,24.414,38.574,0
1556290870.632,20.020,33.203,41.016,19.043,51.758,0
1556290870.636,20.020,24.902,44.434,26.855,68.359,0
1556290870.640,20.508,27.344,54.199,29.297,20.508,0
1556290870.644,25.391,24.414,55.176,27.832,18.555,0
1556290870.648,31.250,24.902,46.875,29.785,1.465,0
1556290870.665,28.320,29.785,42.969,23.926,-31.250,0
1556290870.669,21.484,31.250,49.316,26.855,5.859,0
1556290870.673,16.602,30.273,48.340,27.344,24.414,0
1556290870.677,24.902,30.762,42.969,24.902,44.434,0
1556290870.681,20.996,32.715,42.969,30.273,12.207,0
1556290870.685,12.695,22.461,38.574,27.344,-11.719,0
1556290870.689,15.137,12.207,31.738,19.531,27.832,0
1556290870.692,12.695,14.648,29.785,25.391,48.828,0
1556290870.696,11.230,19.043,32.715,20.508,43.945,0
1556290870.700,6.348,25.391,38.086,17.090,43.457,0
1556290870.704,7.324,28.320,40.527,20.996,68.359,0
1556290870.708,22.461,25.391,47.363,15.137,65.430,0
1556290870.725,19.531,24.414,47.363,14.160,16.602,0
1556290870.729,14.648,28.809,41.992,20.508,-27.832,0
1556290870.733,13.184,31.738,41.504,22.461,6.836,0
1556290870.737,20.508,27.832,39.062,11.230,65.918,0
1556290870.741,28.809,28.320,38.086,10.742,44.434,0
1556290870.745,22.949,33.203,41.504,23.926,-4.395,0
1556290870.749,14.648,27.832,41.016,19.531,-4.395,0
1556290870.752,22.461,21.484,40.527,17.090,-7.324,0
1556290870.756,38.574,22.949,34.668,16.602,3.418,0
1556290870.760,29.297,26.855,29.785,13.184,-6.348,0
1556290870.764,13.184,31.738,32.227,20.508,-29.297,0
1556290870.768,10.254,31.250,35.156,20.996,28.320,0
1556290870.755,13.672,29.785,37.598,13.672,37.598,0
1556290870.759,17.578,27.344,42.480,18.066,38.086,0
1556290870.763,10.254,28.320,46.875,20.996,51.758,0
1556290870.767,12.695,29.785,43.945,17.090,54.199,0
1556290870.771,20.996,26.855,40.527,21.484,20.020,0
1556290870.775,22.949,25.879,41.992,25.879,-0.977,0
1556290870.779,17.090,26.855,38.574,21.484,8.789,0
1556290870.782,12.695,23.926,35.156,14.648,-4.883,0
1556290870.786,15.137,23.926,37.598,13.672,8.301,0
1556290870.790,22.949,29.785,40.039,12.695,47.363,0
1556290870.794,26.367,30.762,42.480,22.461,26.367,0
1556290870.798,29.297,32.715,40.039,32.227,20.020,0
1556290870.800,33.691,39.551,41.992,28.809,33.203,0
1556290870.804,31.738,42.480,43.945,15.137,10.254,0
1556290870.808,19.043,38.574,41.992,11.230,25.879,0
1556290870.812,9.766,36.133,45.898,13.672,4.883,0
1556290870.816,17.090,32.227,44.922,13.672,17.090,0
1556290870.820,20.020,27.344,40.527,12.695,22.949,0
1556290870.824,22.461,29.297,41.016,14.160,2.930,0
1556290870.827,23.438,34.180,45.410,16.602,14.160,0
1556290870.831,20.508,35.156,40.527,19.043,-9.766,0
1556290870.835,26.855,31.250,35.645,11.719,-32.715,0
1556290870.839,20.996,21.484,38.574,9.766,26.367,0
1556290870.843,8.789,20.996,36.133,18.066,44.922,0
1556290870.844,18.555,33.203,35.156,13.184,30.762,0
1556290870.848,21.973,35.156,39.551,14.648,16.113,0
1556290870.852,16.113,31.250,37.109,15.137,8.301,0
1556290870.856,17.090,35.156,38.086,15.137,46.875,0
1556290870.860,23.926,36.621,45.410,22.461,71.289,0
1556290870.864,29.297,32.227,44.922,21.484,27.832,0
1556290870.868,19.531,31.738,37.598,22.949,-7.324,0
1556290870.871,12.207,32.227,38.574,15.625,48.828,0
1556290870.875,15.625,30.762,40.039,6.348,85.938,0
1556290870.879,16.113,25.391,34.180,10.742,33.203,0
1556290870.883,22.949,21.484,38.086,14.160,60.547,0
1556290870.887,28.320,22.949,44.922,24.414,61.035,0
1556290870.889,26.855,27.832,45.898,20.508,18.555,0
1556290870.893,20.996,37.598,44.922,10.742,10.254,0
1556290870.897,15.625,42.969,41.504,16.602,12.695,0
1556290870.901,22.461,39.551,36.133,15.137,-6.348,0
1556290870.905,29.297,35.645,37.109,18.066,-54.688,0
1556290870.909,26.855,32.715,41.992,25.879,-18.555,0
1556290870.913,22.949,28.320,42.480,27.344,-24.414,0
1556290870.916,29.785,31.738,41.992,30.762,8.789,0
1556290870.920,25.391,32.715,41.504,23.926,89.844,0
1556290870.924,3.906,31.250,37.598,16.602,29.785,0
1556290870.928,7.324,34.668,36.621,16.113,-20.020,0
1556290870.932,23.438,36.133,38.574,14.648,10.742,0
1556290870.934,26.855,36.133,40.527,20.996,63.965,0
1556290870.938,21.484,34.668,40.039,27.344,53.711,0
1556290870.942,13.672,31.250,38.086,21.973,0.488,0
1556290870.946,15.137,28.809,42.480,16.113,18.555,0
1556290870.950,13.672,31.738,43.945,15.137,9.766,0
1556290870.954,4.883,32.715,41.992,15.625,-15.625,0
1556290870.958,15.625,33.691,42.480,20.996,29.785,0
1556290870.961,25.879,32.715,44.922,25.879,21.484,0
1556290870.965,19.043,29.297,43.945,19.531,22.461,0
1556290870.969,14.648,30.273,44.434,17.578,35.645,0
1556290870.973,6.348,30.762,48.828,23.926,10.742,0
1556290870.977,9.277,32.227,43.457,12.695,63.965,0
1556290870.979,17.578,38.574,40.527,16.113,34.668,0
1556290870.983,20.020,43.945,44.434,20.020,3.418,0
1556290870.987,19.043,37.109,39.062,23.438,22.949,0
1556290870.991,21.484,30.273,34.668,23.438,15.137,0
1556290870.995,19.043,33.203,41.992,18.555,32.227,0
1556290870.999,20.996,31.738,53.223,24.414,-0.488,2
1556290871.003,28.809,28.809,59.082,24.414,43.945,0
1556290871.006,22.949,30.273,58.105,11.230,82.520,0
1556290871.010,29.297,26.367,52.734,9.766,34.180,0
1556290871.014,31.738,29.297,45.898,14.160,24.414,0
1556290871.018,21.484,37.109,40.039,14.648,48.340,0
1556290871.022,15.625,36.133,46.387,16.113,81.543,0
1556290871.039,23.438,34.668,55.664,5.859,76.660,0
1556290871.043,29.297,38.086,56.641,5.371,59.082,0
1556290871.047,31.738,38.086,50.293,17.578,80.566,0
1556290871.051,20.020,36.133,49.805,32.227,31.250,0
1556290871.055,11.719,31.738,51.758,38.086,31.250,0
1556290871.059,26.367,28.320,54.199,39.551,52.246,0
1556290871.063,25.879,27.832,58.594,36.133,12.207,0
1556290871.066,9.766,30.273,57.617,33.691,8.789,0
1556290871.070,10.742,35.156,55.176,34.668,-0.977,0
1556290871.074,26.855,37.109,47.852,24.902,10.254,0
1556290871.078,35.645,33.691,38.086,18.555,-1.953,0
1556290871.082,11.230,26.855,34.668,8.301,-7.324,0
1556290871.084,-5.859,29.297,44.922,10.742,21.484,0
1556290871.088,9.766,34.180,46.875,15.625,9.766,0
1556290871.092,16.602,32.715,43.945,9.766,24.414,0
1556290871.096,13.184,35.645,51.758,15.137,27.344,0
1556290871.100,8.789,34.668,56.152,19.043,33.203,0
1556290871.104,14.648,27.832,54.688,7.324,62.012,0
1556290871.108,17.578,23.926,48.340,3.906,40.039,0
1556290871.111,17.578,26.367,50.781,21.973,10.742,0
1556290871.115,3.906,28.809,53.223,18.555,6.348,0
1556290871.119,4.883,29.785,48.340,5.859,13.184,0
1556290871.123,22.949,29.785,42.480,7.324,-17.578,0
1556290871.127,14.160,27.344,38.574,17.090,-70.801,0
1556290871.129,8.301,24.414,38.574,17.090,-6.348,0
1556290871.133,14.648,28.320,39.551,9.766,29.785,0
1556290871.137,16.602,31.250,39.062,15.137,20.996,0
1556290871.141,18.555,28.320,32.715,20.020,30.762,0
1556290871.145,15.137,30.273,39.551,17.578,-11.719,0
1556290871.149,15.137,31.738,46.875,21.484,1.465,0
1556290871.153,19.531,31.250,41.504,18.555,13.672,0
1556290871.156,19.043,32.227,38.086,18.066,27.344,0
1556290871.160,20.020,31.250,42.969,23.438,36.133,0
1556290871.164,17.090,26.367,48.828,27.344,34.668,0
1556290871.168,18.066,25.879,46.387,24.414,71.777,0
1556290871.172,26.855,30.273,41.504,23.926,53.223,0
1556290871.175,23.926,28.320,42.969,26.855,42.969,0
1556290871.179,20.996,28.320,48.340,19.531,61.035,0
1556290871.183,25.879,31.250,49.805,21.484,53.223,0
1556290871.187,26.855,30.762,45.410,20.996,31.250,0
1556290871.191,22.461,28.809,38.574,20.020,21.484,0
1556290871.195,21.973,31.250,41.504,23.926,66.895,0
1556290871.199,28.320,32.715,49.316,22.461,64.941,0
1556290871.202,30.273,30.762,52.246,22.461,7.324,0
1556290871.206,29.785,32.715,49.805,24.902,4.395,0
1556290871.210,23.438,31.250,46.875,21.484,24.902,0
1556290871.214,13.184,28.320,48.340,18.066,51.758,0
1556290871.218,20.020,27.832,47.852,18.066,-2.441,0
1556290871.235,31.738,31.250,44.922,16.602,-37.109,0
1556290871.239,24.902,34.668,43.457,16.113,1.465,0
1556290871.243,21.484,32.715,41.992,15.625,-17.578,0
1556290871.247,24.902,32.715,39.062,20.020,8.301,0
1556290871.251,32.227,36.133,41.504,31.250,41.504,0
1556290871.255,31.250,36.133,44.434,26.855,11.719,0
1556290871.259,30.762,36.133,47.363,20.996,-62.500,0
1556290871.262,36.621,37.598,46.387,17.578,-10.742,0
1556290871.266,32.227,37.598,39.551,15.137,79.102,0
1556290871.270,34.668,32.715,39.551,24.902,32.227,0
1556290871.274,47.363,26.367,43.945,42.480,29.297,0
1556290871.278,41.016,31.250,41.016,48.340,27.832,0
1556290871.265,21.973,43.945,34.180,20.996,75.195,0
1556290871.269,16.602,50.781,32.227,1.465,59.570,0
1556290871.273,15.625,48.828,33.691,5.859,13.672,0
1556290871.277,18.066,47.852,35.645,6.836,63.965,0
1556290871.281,20.996,49.805,35.645,4.883,63.477,0
1556290871.285,24.414,46.387,25.391,0.000,7.324,0
1556290871.289,13.672,40.527,17.578,5.371,-5.859,0
1556290871.292,2.930,40.527,23.926,11.719,-19.531,0
1556290871.296,18.066,42.969,24.414,10.742,-38.574,0
1556290871.300,25.391,38.086,26.855,14.160,0.000,0
1556290871.304,12.207,35.645,33.203,13.184,-3.906,0
1556290871.308,7.812,38.574,34.180,2.930,26.367,0
1556290871.310,9.277,41.992,32.715,1.953,68.848,0
1556290871.314,15.137,41.016,31.250,13.184,54.688,0
1556290871.318,19.531,38.574,33.203,23.438,1.465,0
1556290871.322,16.602,42.480,31.250,17.578,-14.160,0
1556290871.326,12.695,44.922,30.762,19.043,18.066,0
1556290871.330,13.672,40.039,32.715,20.996,18.555,0
1556290871.334,12.695,39.062,30.273,2.930,-16.602,0
1556290871.337,8.789,37.598,32.227,7.812,-22.461,0
1556290871.341,6.348,35.645,30.762,21.973,5.859,0
1556290871.345,8.789,41.992,28.809,11.230,53.711,0
1556290871.349,6.348,39.551,32.227,3.418,53.223,0
1556290871.353,2.930,31.738,32.715,6.836,-11.719,0
1556290871.355,-2.930,29.297,29.297,11.230,28.320,0
1556290871.359,-2.441,31.250,18.066,3.418,13.184,0
1556290871.363,7.812,30.273,19.043,-1.465,14.648,0
1556290871.367,7.812,24.414,29.785,-0.977,57.617,0
1556290871.371,3.418,29.297,30.273,6.348,67.871,0
1556290871.375,1.465,33.203,29.785,10.742,73.242,0
1556290871.379,7.324,28.809,28.320,3.906,30.273,0
1556290871.382,12.695,30.762,22.949,2.930,13.184,0
1556290871.386,5.859,32.227,24.902,4.395,25.391,0
1556290871.390,3.418,35.156,28.320,2.930,34.668,0
1556290871.394,9.766,37.109,31.738,13.672,24.902,0
1556290871.398,14.160,33.691,35.156,19.043,22.461,0
1556290871.414,7.324,32.715,31.250,17.090,25.391,0
1556290871.418,2.441,32.715,27.832,16.113,-8.301,0
1556290871.422,5.859,31.738,34.180,11.719,28.809,0
1556290871.426,19.043,30.762,37.598,15.625,62.500,0
1556290871.430,20.996,30.273,29.785,18.555,38.086,0
1556290871.434,7.812,31.738,28.320,15.137,23.438,0
1556290871.438,4.395,33.203,33.203,8.301,41.504,0
1556290871.441,20.996,33.203,35.156,16.602,53.223,0
1556290871.445,19.043,36.621,37.109,23.926,62.012,0
1556290871.449,4.395,36.621,39.551,16.113,53.223,0
1556290871.453,6.836,33.691,40.527,17.578,18.555,0
1556290871.457,10.254,35.156,41.016,22.949,37.109,0
1556290871.459,12.207,36.133,35.645,21.484,7.812,0
1556290871.463,10.254,34.180,35.156,21.973,-35.645,0
1556290871.467,4.395,30.762,42.480,20.020,-6.836,0
1556290871.471,17.090,36.133,35.645,22.461,3.418,0
1556290871.475,43.457,43.945,22.949,37.598,-31.738,0
1556290871.479,30.762,31.738,31.250,28.809,-39.551,0
1556290871.483,-6.348,14.648,40.527,5.859,14.160,0
1556290871.486,-5.859,11.230,44.922,10.254,3.906,0
1556290871.490,4.883,12.695,50.293,22.949,-25.391,0
1556290871.494,-3.418,13.672,54.688,23.926,-24.414,0
1556290871.498,-14.648,14.648,58.594,27.832,7.812,0
1556290871.502,0.488,16.113,56.152,30.273,33.203,0
1556290871.505,25.879,19.531,50.781,30.762,7.812,0
1556290871.509,21.484,19.531,48.340,39.062,26.367,0
1556290871.513,10.254,19.531,46.387,37.598,17.578,0
1556290871.517,14.648,23.438,44.922,35.645,45.410,0
1556290871.521,8.301,21.484,41.504,33.203,60.547,0
1556290871.525,1.465,18.066,41.016,24.414,-5.371,0
1556290871.529,8.301,22.461,45.898,23.438,17.578,0
1556290871.532,12.695,24.902,44.434,34.668,15.625,0
1556290871.536,14.648,23.926,39.062,34.668,-65.918,0
1556290871.540,18.555,24.902,40.527,29.297,-33.203,0
1556290871.544,15.137,28.809,48.340,34.668,14.160,0
1556290871.548,7.812,31.738,51.758,41.992,43.457,0
1556290871.550,4.883,29.297,47.363,39.062,10.254,0
1556290871.554,18.555,24.414,45.898,27.344,9.766,0
1556290871.558,30.273,26.367,47.363,31.250,49.805,0
1556290871.562,8.789,33.691,42.480,34.180,-1.465,0
1556290871.566,-1.465,32.227,44.434,31.738,40.527,0
1556290871.570,8.301,28.320,45.898,30.273,48.340,0
1556290871.574,18.066,29.785,45.898,35.645,29.785,0
1556290871.577,22.949,31.738,44.922,38.086,22.461,0
1556290871.581,20.020,31.250,35.156,25.391,-25.879,0
1556290871.585,19.043,30.762,30.762,26.855,-23.438,0
1556290871.589,22.461,26.367,46.875,36.621,-12.695,0
1556290871.593,18.555,27.832,56.641,31.250,-8.789,0
1556290871.595,15.625,33.203,60.059,28.320,33.691,0
1556290871.599,18.066,31.250,62.012,35.645,41.016,0
1556290871.603,19.531,25.391,51.270,24.414,34.668,0
1556290871.607,18.066,29.297,39.062,16.602,53.223,0
1556290871.611,13.184,28.809,43.457,26.855,47.852,0
1556290871.615,13.672,25.879,51.270,25.391,-32.715,0
1556290871.619,20.020,28.809,51.758,24.414,-8.789,0
1556290871.622,21.484,30.762,46.387,23.926,66.406,0
1556290871.626,14.648,31.250,38.574,16.113,81.055,0
1556290871.630,17.578,25.879,40.039,15.625,108.887,0
1556290871.634,16.602,27.344,48.340,25.391,85.938,0
1556290871.638,17.578,33.203,43.945,25.391,54.199,0
1556290871.640,19.531,34.180,35.645,22.461,18.066,0
1556290871.644,10.742,34.180,40.039,14.160,-2.441,0
1556290871.648,8.789,33.203,37.598,16.113,21.484,0
1556290871.652,13.184,31.738,35.156,16.602,32.227,0
1556290871.656,4.883,30.273,37.598,8.301,12.695,0
1556290871.660,-3.418,26.855,36.133,18.066,53.223,0
1556290871.664,7.812,23.438,37.109,17.090,61.035,0
1556290871.667,26.855,26.855,34.180,7.324,41.992,0
1556290871.671,25.879,33.203,29.785,13.184,49.316,0
1556290871.675,4.395,36.133,30.273,12.695,28.809,0
1556290871.679,6.836,35.645,30.273,4.395,34.180,0
1556290871.683,25.879,32.227,36.621,20.020,18.066,0
1556290871.685,31.738,30.273,39.551,23.438,14.160,0
1556290871.689,17.578,29.297,37.109,15.625,-19.531,0
1556290871.693,14.160,26.855,35.645,26.855,-23.926,0
1556290871.697,23.926,23.926,33.691,29.785,54.199,0
1556290871.701,25.391,23.926,36.621,21.484,53.223,0
1556290871.705,27.344,26.367,39.062,23.438,6.348,0
1556290871.709,23.438,27.832,39.062,23.438,24.414,0
1556290871.712,12.207,26.855,33.691,20.996,33.691,0
1556290871.716,19.043,27.344,29.785,27.832,5.859,0
1556290871.720,24.414,29.785,32.715,31.250,0.488,0
1556290871.724,16.113,29.785,34.668,20.020,10.254,0
1556290871.728,16.602,27.344,31.738,23.926,-8.301,0
1556290871.730,23.438,27.832,29.297,26.855,14.648,0
1556290871.734,18.555,29.297,33.203,20.996,53.711,0
1556290871.738,18.555,28.809,35.156,31.738,39.062,0
1556290871.742,23.438,29.785,34.668,29.785,39.062,0
1556290871.746,30.273,33.203,39.062,21.484,13.184,0
1556290871.750,31.250,33.691,41.504,19.531,-12.695,0
1556290871.754,29.785,35.156,38.574,14.160,3.906,0
1556290871.757,39.062,41.504,38.086,23.926,28.809,0
1556290871.761,38.086,38.574,35.645,26.367,16.113,0
1556290871.765,28.809,35.156,35.645,33.691,2.441,0
1556290871.769,17.578,36.133,41.504,41.016,26.367,0
1556290871.773,7.812,34.180,45.410,32.715,38.574,0
1556290871.789,11.719,33.203,47.852,29.297,29.297,0
1556290871.793,19.531,28.809,37.109,30.762,0.488,0
1556290871.797,23.926,28.320,27.832,29.297,13.184,0
1556290871.801,11.230,29.785,34.668,23.438,16.113,0
1556290871.805,8.301,32.227,37.598,21.484,4.395,0
1556290871.809,21.484,31.738,35.645,24.414,11.719,0
1556290871.813,21.484,30.273,27.832,22.949,39.551,0
1556290871.816,22.461,33.203,27.832,20.508,12.207,0
1556290871.820,21.973,35.645,35.645,21.484,33.691,0
1556290871.824,34.668,37.598,41.992,23.926,67.383,0
1556290871.828,33.691,35.156,44.434,18.555,57.617,0
1556290871.832,14.648,30.762,40.527,15.625,40.527,0
1556290871.835,10.254,27.344,35.645,20.996,10.254,0
1556290871.839,20.020,26.367,27.832,22.949,38.574,0
1556290871.843,30.273,27.344,27.832,15.625,59.570,0
1556290871.847,14.160,24.414,33.203,14.648,65.430,0
1556290871.851,9.277,24.414,37.109,18.066,12.207,0
1556290871.855,14.648,23.926,36.133,17.090,16.113,0
1556290871.859,13.672,26.367,33.203,21.484,57.617,0
1556290871.862,16.602,29.785,28.320,23.926,27.344,0
1556290871.866,8.789,28.809,25.879,20.996,19.043,0
1556290871.870,14.160,31.250,32.227,14.160,14.648,0
1556290871.874,28.320,29.297,36.621,8.789,21.484,0
1556290871.878,24.414,24.414,35.645,9.277,42.480,0
1556290871.880,18.555,25.391,38.574,19.043,52.246,0
1556290871.884,16.113,28.320,34.668,19.531,13.184,0
1556290871.888,11.230,26.367,28.320,17.090,14.648,0
1556290871.892,25.879,20.020,33.691,21.973,17.578,0
1556290871.896,32.227,25.879,40.527,27.832,25.879,0
1556290871.900,12.695,36.133,36.621,7.812,17.090,0
1556290871.904,4.883,35.156,25.879,-9.766,8.789,0
1556290871.907,20.508,31.738,23.438,5.859,13.672,0
1556290871.911,26.855,40.527,23.926,1.465,17.090,0
1556290871.915,15.137,50.293,16.602,-5.371,22.461,0
1556290871.919,9.766,46.387,10.254,3.418,42.480,0
1556290871.923,14.648,43.457,24.414,-4.395,29.785,0
1556290871.925,20.996,43.945,34.668,-7.812,-5.371,0
1556290871.929,11.230,39.062,30.273,-4.395,17.090,0
1556290871.933,3.906,35.156,32.227,1.465,33.691,0
1556290871.937,12.207,32.715,32.227,12.207,14.648,0
1556290871.941,17.578,33.203,31.250,12.695,44.434,0
1556290871.945,15.137,34.668,34.668,8.301,-45.410,0
1556290871.949,17.578,33.691,33.691,12.695,-9.766,0
1556290871.952,24.414,34.668,28.320,15.625,98.145,0
1556290871.956,16.602,37.109,27.832,7.324,49.316,0
1556290871.960,7.812,33.691,26.855,5.859,23.926,0
1556290871.964,5.371,28.809,25.391,9.277,63.477,0
1556290871.968,15.625,25.879,22.949,5.371,98.145,0
1556290871.970,26.855,23.926,18.066,12.695,94.727,0
1556290871.974,29.297,25.391,18.066,20.996,28.809,0
1556290871.978,26.855,28.809,25.879,30.273,15.137,0
1556290871.982,23.926,28.320,32.227,26.367,65.430,0
1556290871.986,26.367,28.320,35.156,13.672,58.105,0
1556290871.990,27.344,31.250,34.180,15.137,55.176,0
1556290871.994,23.926,30.273,32.227,14.648,-5.859,0
1556290871.997,26.367,29.297,36.621,15.137,-15.625,0
1556290872.001,31.738,26.855,37.598,14.160,22.461,0
1556290872.005,32.227,24.902,33.691,21.484,9.277,0
1556290872.009,27.832,26.367,35.156,31.250,55.664,0
1556290872.013,22.949,24.902,35.645,32.227,49.805,0
1556290872.014,20.020,26.855,27.344,23.438,-34.668,0
1556290872.018,21.973,27.344,25.391,11.230,-3.906,0
1556290872.022,17.578,23.438,36.621,11.230,71.289,0
1556290872.026,13.672,20.508,42.969,15.137,66.895,0
1556290872.030,13.184,20.020,38.086,20.508,24.414,0
1556290872.034,15.137,21.484,35.645,22.949,27.344,0
1556290872.038,16.602,25.391,39.062,18.066,35.645,0
1556290872.041,8.789,23.926,41.504,15.625,31.738,0
1556290872.045,3.418,18.066,41.992,11.230,28.809,0
1556290872.049,12.695,17.578,40.527,20.996,-3.906,0
1556290872.053,12.695,22.461,37.109,33.691,-14.160,0
1556290872.057,4.883,24.414,34.668,28.809,0.977,0
1556290872.059,4.883,25.391,41.016,25.879,21.484,0
1556290872.063,2.441,28.809,44.922,24.902,25.879,0
1556290872.067,9.766,30.762,37.598,27.832,-0.488,0
1556290872.071,10.742,29.785,33.691,24.902,35.156,0
1556290872.075,7.324,28.809,39.062,17.578,11.719,0
1556290872.079,22.949,25.879,43.457,24.414,1.465,0
1556290872.083,26.855,26.855,35.156,25.391,88.379,0
1556290872.086,18.555,31.250,29.297,20.996,29.785,0
1556290872.090,16.113,29.785,35.645,24.414,-7.812,0
1556290872.094,17.090,26.367,39.062,21.484,64.941,0
1556290872.098,20.996,22.949,36.621,13.184,26.855,0
1556290872.102,12.207,23.926,38.086,12.695,34.668,0
1556290872.105,7.812,28.320,39.062,12.207,20.020,0
1556290872.109,10.742,27.832,29.297,20.508,-25.879,0
1556290872.113,13.672,25.391,26.367,36.133,10.742,0
1556290872.117,14.160,27.832,36.621,29.297,-14.648,0
1556290872.121,8.789,29.297,37.109,20.508,-3.906,0
1556290872.125,3.906,28.320,36.621,20.508,28.320,0
1556290872.129,17.090,26.855,33.203,11.719,36.621,0
1556290872.132,26.855,27.344,28.809,10.742,-0.488,0
1556290872.136,15.625,27.344,29.785,18.555,-32.715,2
1556290872.140,5.371,26.855,33.203,25.879,20.020,0
1556290872.144,19.043,29.785,36.133,32.715,-1.465,0
1556290872.148,26.367,30.273,35.156,22.461,-29.785,0
1556290872.164,12.207,24.902,34.180,9.766,-34.668,0
1556290872.168,15.137,25.879,31.738,20.020,8.301,0
1556290872.172,25.391,28.809,34.180,21.484,58.594,0
1556290872.176,17.090,27.832,36.621,11.230,36.621,0
1556290872.180,12.695,26.855,36.133,19.043,22.461,0
1556290872.184,10.254,21.484,36.621,22.949,14.160,0
1556290872.188,8.789,21.973,28.809,18.555,-16.602,0
1556290872.191,20.996,26.855,20.508,12.207,19.043,0
1556290872.195,26.367,26.855,28.320,12.207,59.570,0
1556290872.199,18.066,28.320,40.527,22.461,1.465,0
1556290872.203,12.695,28.320,39.062,20.508,-16.113,0
1556290872.207,16.602,28.320,33.203,20.996,15.137,0
1556290872.209,26.367,26.855,30.762,26.367,31.250,0
1556290872.213,26.855,28.320,26.855,19.531,31.250,0
1556290872.217,17.090,33.203,27.832,21.973,34.668,0
1556290872.221,22.461,31.738,35.645,17.578,3.906,0
1556290872.225,18.555,27.344,40.039,16.113,45.898,0
1556290872.229,8.301,20.996,35.156,19.531,80.566,0
1556290872.233,7.324,27.344,34.668,12.695,-4.883,0
1556290872.236,8.301,34.180,37.109,19.043,7.324,0
1556290872.240,9.766,31.738,30.762,21.484,27.344,0
1556290872.244,13.672,32.227,29.785,14.648,-5.371,0
1556290872.248,10.742,33.203,35.645,14.160,33.203,0
1556290872.252,8.789,33.691,38.574,16.602,47.363,0
1556290872.254,24.414,31.250,36.133,15.625,58.594,0
1556290872.258,30.273,31.250,33.691,19.043,67.871,0
1556290872.262,18.066,37.109,40.527,21.484,5.859,0
1556290872.266,14.648,40.527,47.852,26.367,-6.348,0
1556290872.270,16.113,39.551,41.992,27.832,20.020,0
1556290872.274,17.090,34.668,37.598,21.973,-7.812,0
1556290872.278,13.184,31.250,41.016,22.461,38.086,0
1556290872.281,3.418,34.180,37.598,20.996,44.922,0
1556290872.285,9.766,41.016,37.109,12.695,59.082,0
1556290872.289,21.484,43.945,37.109,8.789,91.797,0
1556290872.293,18.066,38.574,36.621,14.160,34.668,0
1556290872.297,15.137,41.992,39.551,18.066,10.254,0
1556290872.300,17.090,44.434,41.992,20.996,-3.906,0
1556290872.304,27.832,41.992,36.133,20.996,7.812,0
1556290872.308,34.668,42.480,32.715,22.461,12.695,0
1556290872.312,24.414,38.086,41.504,25.391,-1.465,0
1556290872.316,26.855,35.645,44.922,30.273,33.691,0
1556290872.320,23.438,41.016,45.898,26.367,52.734,0
1556290872.324,19.043,44.922,49.805,27.832,0.977,0
1556290872.327,25.391,46.875,50.293,34.668,0.977,0
1556290872.331,20.508,52.246,48.340,21.484,28.809,0
1556290872.335,24.414,56.152,41.992,16.602,35.645,0
1556290872.339,33.203,56.152,38.574,22.949,58.594,0
1556290872.343,32.227,59.570,33.691,33.691,79.590,0
1556290872.344,23.438,58.105,29.297,34.180,80.566,0
1556290872.348,28.809,55.176,34.180,33.691,82.520,0
1556290872.352,35.156,54.688,36.133,33.203,54.199,0
1556290872.356,27.832,53.223,36.621,28.809,23.438,0
1556290872.360,20.996,50.781,38.086,24.902,34.180,0
1556290872.364,27.832,48.828,40.039,18.555,27.344,0
1556290872.368,27.832,44.922,43.457,17.090,27.344,0
1556290872.371,22.461,44.922,44.434,17.578,28.320,0
1556290872.375,30.273,47.363,41.992,17.578,30.273,0
1556290872.379,23.438,45.410,40.039,20.508,25.879,0
1556290872.383,20.508,43.457,40.527,28.320,52.246,0
1556290872.387,32.227,40.527,41.992,25.391,24.414,0
1556290872.390,27.344,41.016,42.480,16.113,18.555,0
1556290872.394,22.949,42.969,38.574,20.996,48.828,0
1556290872.398,20.020,39.062,34.180,25.879,11.230,0
1556290872.402,23.438,36.621,32.227,29.785,26.367,0
1556290872.406,32.227,36.133,33.691,24.414,-8.789,0
1556290872.410,25.879,32.227,45.898,29.785,-15.137,0
1556290872.414,21.973,29.297,52.246,34.668,-29.297,0
1556290872.417,28.809,33.691,47.363,26.367,-16.602,0
1556290872.421,20.020,34.668,43.945,22.461,38.086,0
1556290872.425,7.812,34.180,41.504,14.648,24.414,0
1556290872.429,10.742,33.691,39.551,16.602,21.484,0
1556290872.433,24.902,31.250,34.668,26.855,33.691,0
1556290872.435,29.297,32.227,28.320,27.832,65.430,0
1556290872.439,22.949,32.227,29.297,19.043,25.391,0
1556290872.443,14.160,31.738,37.109,14.160,-3.906,0
1556290872.447,14.160,33.203,44.434,18.066,0.000,0
1556290872.451,17.090,30.762,40.039,15.625,0.000,0
1556290872.455,19.043,30.762,34.180,28.320,0.977,0
1556290872.459,19.531,33.203,41.504,27.832,40.527,0
1556290872.462,18.066,31.738,43.945,13.672,30.273,0
1556290872.466,29.785,31.250,35.156,17.578,-2.930,0
1556290872.470,20.996,33.691,37.598,25.391,49.316,0
1556290872.474,11.230,34.180,43.457,24.414,53.711,0
1556290872.478,15.137,30.762,38.086,24.414,22.461,0
1556290872.480,19.043,29.297,34.668,14.648,20.508,0
1556290872.484,27.832,31.250,36.621,4.883,-3.906,0
1556290872.488,30.762,35.645,36.621,7.324,-47.852,0
1556290872.492,30.762,35.156,35.645,11.230,-20.508,0
1556290872.496,30.762,29.785,33.691,20.996,39.062,0
1556290872.500,32.227,31.738,34.180,33.691,52.734,0
1556290872.504,27.344,35.156,40.039,38.574,72.266,0
1556290872.507,11.719,31.738,39.551,33.691,104.980,0
1556290872.511,19.531,28.809,29.785,31.738,46.387,0
1556290872.515,25.879,29.297,32.715,30.762,-3.418,0
1556290872.519,14.160,26.367,40.039,27.344,23.926,0
1556290872.523,6.836,25.879,31.738,19.043,-26.367,0
1556290872.540,16.602,25.391,26.367,20.020,-52.246,0
1556290872.544,26.367,23.926,34.668,25.391,3.418,0
1556290872.548,16.602,24.902,40.039,23.438,12.695,0
1556290872.552,12.207,27.832,37.598,22.461,-19.531,0
1556290872.556,18.066,29.785,33.691,21.973,-3.906,0
1556290872.560,20.996,28.809,34.180,14.648,-21.484,0
1556290872.564,9.766,27.832,29.785,9.766,-53.711,0
1556290872.567,5.371,23.438,25.879,17.090,-43.945,0
1556290872.571,15.625,22.949,29.785,11.719,-22.949,0
1556290872.575,27.832,27.832,26.367,9.766,5.859,0
1556290872.579,38.086,33.203,20.508,21.484,26.367,0
1556290872.583,30.273,29.785,23.926,26.855,6.348,0
1556290872.585,21.973,24.414,34.668,17.578,-12.207,0
1556290872.589,24.414,24.414,37.598,16.602,56.641,0
1556290872.593,20.996,28.809,29.297,18.066,71.289,0
1556290872.597,15.137,30.273,29.785,19.531,76.660,0
1556290872.601,18.555,25.879,35.645,21.973,99.609,0
1556290872.605,21.484,25.391,33.691,25.391,72.754,0
1556290872.609,13.672,23.438,27.832,20.020,52.246,0
1556290872.612,20.508,24.902,30.762,13.184,35.156,0
1556290872.616,29.297,30.273,38.086,19.043,34.668,0
1556290872.620,32.227,35.645,29.297,19.043,12.207,0
1556290872.624,43.457,35.645,20.508,23.926,7.812,0
1556290872.628,36.621,30.273,32.227,24.414,11.230,0
1556290872.630,10.254,26.855,38.574,18.555,44.922,0
1556290872.634,-4.883,21.973,46.875,19.043,58.594,0
1556290872.638,0.977,18.555,57.129,15.137,5.371,0
1556290872.642,12.207,20.020,56.152,20.996,-11.230,0
1556290872.646,0.488,16.113,56.152,14.648,-21.973,0
1556290872.650,-13.184,9.277,54.199,6.348,-40.527,0
1556290872.654,2.930,14.648,48.828,7.324,-25.391,0
1556290872.657,14.648,18.066,44.434,9.766,-2.930,0
1556290872.661,8.301,19.531,46.875,15.625,31.250,0
1556290872.665,5.371,27.344,44.434,14.648,22.949,0
1556290872.669,17.578,24.902,36.621,22.949,18.066,0
1556290872.673,24.902,18.555,46.387,27.344,21.973,0
1556290872.675,13.672,19.043,53.711,19.043,47.852,0
1556290872.679,6.348,21.973,48.828,18.066,35.156,0
1556290872.683,14.160,23.438,44.434,20.020,8.789,0
1556290872.687,13.672,29.785,43.945,22.461,30.273,0
1556290872.691,11.230,28.320,43.457,21.973,22.461,0
1556290872.695,12.695,21.973,42.969,23.438,-2.441,0
1556290872.699,12.695,22.461,40.527,22.461,20.996,0
1556290872.702,17.090,24.414,41.504,20.508,36.621,0
1556290872.706,23.926,28.320,50.293,18.066,51.758,0
1556290872.710,23.926,31.738,44.922,27.832,49.316,0
1556290872.714,19.531,31.738,36.133,23.926,25.879,0
1556290872.718,20.996,31.738,45.898,10.742,20.020,0
1556290872.722,23.438,33.203,53.711,14.160,-3.418,0
1556290872.726,14.648,34.180,48.828,17.090,-6.348,0
1556290872.730,10.742,32.227,42.480,16.113,39.551,0
1556290872.734,17.578,28.320,39.551,15.625,40.527,0
1556290872.738,14.648,27.344,40.039,12.695,44.922,0
1556290872.742,11.230,31.250,41.504,11.719,74.707,0
1556290872.746,10.254,30.762,41.504,14.160,49.805,0
1556290872.749,5.859,25.391,39.551,15.137,18.555,0
1556290872.753,12.207,25.391,38.086,12.207,38.086,0
1556290872.757,13.184,24.902,41.504,12.695,34.180,0
1556290872.761,2.441,26.367,41.016,24.414,7.324,0
1556290872.765,5.859,32.227,44.434,36.621,0.488,0
1556290872.765,16.113,33.203,47.852,30.762,-7.812,0
1556290872.769,19.531,31.738,41.504,20.996,21.484,0
1556290872.773,16.602,29.297,39.551,25.879,16.113,0
1556290872.777,1.953,25.879,41.992,24.414,49.316,0
1556290872.781,3.906,25.879,43.945,22.461,42.480,0
1556290872.785,7.324,26.367,43.457,24.902,-16.602,0
1556290872.789,5.371,25.879,45.898,22.461,-40.039,0
1556290872.792,7.812,31.250,47.852,26.367,-6.836,0
1556290872.796,7.812,33.691,39.062,33.203,28.809,0
1556290872.800,15.625,28.809,36.621,35.645,0.000,0
1556290872.804,21.484,25.879,38.086,20.508,29.297,0
1556290872.808,10.742,27.344,38.086,16.602,28.320,0
1556290872.810,8.301,28.809,43.457,20.508,24.902,0
1556290872.814,20.508,29.297,42.480,19.043,46.387,0
1556290872.818,20.996,32.227,42.480,18.555,40.527,0
1556290872.822,19.531,31.738,46.875,24.902,48.340,0
1556290872.826,11.719,31.250,45.410,31.738,30.762,0
1556290872.830,5.371,32.227,40.527,26.855,7.812,0
1556290872.834,6.348,32.715,41.992,15.625,40.039,0
1556290872.837,7.812,32.227,45.898,13.184,31.250,0
1556290872.841,2.441,29.297,42.480,20.020,1.953,0
1556290872.845,6.836,31.738,42.480,20.508,6.836,0
1556290872.849,15.625,33.691,39.551,20.508,-2.930,0
1556290872.853,20.996,33.203,37.109,19.531,-30.273,0
1556290872.855,12.207,36.133,40.527,26.855,33.691,0
1556290872.859,4.883,35.156,43.457,27.344,48.828,0
1556290872.863,14.648,33.691,46.875,15.137,37.109,0
1556290872.867,14.160,32.227,44.434,20.020,62.500,0
1556290872.871,15.625,34.668,41.016,26.367,75.684,0
1556290872.875,14.648,33.203,42.480,19.531,48.340,0
1556290872.879,14.648,27.344,42.969,16.113,55.664,0
1556290872.882,20.508,26.367,38.574,12.207,47.852,0
1556290872.886,15.625,26.855,43.457,20.996,-19.043,0
1556290872.890,10.254,32.227,46.875,21.484,30.762,0
1556290872.894,16.113,38.574,34.180,20.508,70.312,0
1556290872.898,30.273,37.109,28.809,24.414,41.504,0
1556290872.915,32.227,32.715,37.109,22.461,23.926,0
1556290872.919,17.578,34.180,43.457,27.832,45.898,0
1556290872.923,12.695,36.621,38.086,22.461,39.551,0
1556290872.927,19.531,35.156,37.109,23.438,14.648,0
1556290872.931,26.855,32.227,42.969,26.855,24.414,0
1556290872.935,20.508,35.156,48.340,20.996,-35.645,0
1556290872.939,20.020,33.691,41.992,18.555,4.883,0
1556290872.942,27.832,27.344,34.180,20.508,72.266,0
1556290872.946,22.461,31.250,37.598,24.414,51.758,0
1556290872.950,24.414,35.645,41.504,18.555,66.895,0
1556290872.954,24.902,35.645,43.945,18.066,42.480,0
1556290872.958,24.902,35.645,34.668,28.809,0.977,0
1556290872.960,34.180,31.250,32.715,23.438,13.672,0
1556290872.964,20.020,27.832,39.551,22.461,29.785,0
1556290872.968,7.324,25.391,40.039,12.695,36.133,0
1556290872.972,18.066,27.344,37.598,5.371,26.855,0
1556290872.976,25.879,30.762,35.645,19.043,42.969,0
1556290872.980,12.207,27.832,39.551,13.184,47.852,0
1556290872.984,1.465,26.855,42.480,3.906,30.273,0
1556290872.987,1.465,25.879,37.598,9.766,-2.930,0
1556290872.991,2.441,26.367,33.203,13.672,-7.812,0
1556290872.995,4.883,29.297,36.621,10.254,-4.883,0
1556290872.999,-0.977,25.879,35.156,1.953,-14.648,0
1556290873.003,5.371,22.949,35.156,4.395,78.125,0
1556290873.005,16.113,22.949,38.574,15.137,87.891,0
1556290873.009,20.996,22.461,38.086,11.230,39.551,0
1556290873.013,20.508,23.438,38.574,18.555,37.109,0
1556290873.017,11.230,21.973,36.621,20.996,10.742,0
1556290873.021,12.695,16.602,32.227,9.766,-6.836,0
1556290873.025,24.414,16.602,35.156,22.949,2.930,0
1556290873.029,21.973,23.438,37.109,28.320,13.672,0
1556290873.032,9.277,26.367,30.273,16.602,24.902,0
1556290873.036,12.695,25.391,26.855,11.230,51.270,0
1556290873.040,17.578,21.973,29.785,8.789,62.500,0
1556290873.044,10.254,22.461,30.762,10.742,41.504,0
1556290873.048,11.230,25.391,24.902,15.625,40.527,0
1556290873.049,20.508,21.484,19.043,14.160,18.066,0
1556290873.053,20.020,19.531,25.391,13.184,3.906,0
1556290873.057,25.391,22.461,32.227,15.625,-8.301,0
1556290873.061,20.996,25.391,34.668,17.578,-27.832,0
1556290873.065,9.277,23.926,36.133,17.578,20.020,0
1556290873.069,28.320,21.973,36.621,21.484,39.062,0
1556290873.073,27.344,26.855,34.668,24.414,8.301,0
1556290873.076,18.066,26.855,33.691,23.438,76.172,0
1556290873.080,18.066,22.461,37.109,11.719,48.828,0
1556290873.084,15.625,22.461,33.691,1.953,35.156,0
1556290873.088,29.297,25.879,25.879,13.184,57.129,0
1556290873.092,29.785,27.344,29.297,18.555,5.371,0
1556290873.094,15.625,25.879,35.645,19.531,-22.949,0
1556290873.098,22.949,23.438,32.715,19.531,5.859,0
1556290873.102,31.738,20.996,35.156,14.160,9.277,0
1556290873.106,24.414,21.484,43.457,12.695,-21.484,0
1556290873.110,13.184,22.949,40.039,15.625,33.203,0
1556290873.114,14.160,22.461,39.551,23.926,5.859,0
1556290873.118,21.484,22.461,44.434,15.625,3.418,0
1556290873.121,16.113,19.531,48.340,11.230,79.102,0
1556290873.125,12.695,23.926,44.434,18.066,-7.812,0
1556290873.129,12.695,27.344,41.504,8.789,-35.645,0
1556290873.133,11.719,23.926,39.551,7.812,53.223,0
1556290873.137,17.090,22.461,32.227,16.602,69.336,0
1556290873.139,21.484,24.414,31.738,14.160,81.543,0
1556290873.143,16.113,28.809,37.598,17.578,76.660,0
1556290873.147,21.484,26.855,38.086,24.414,16.602,0
1556290873.151,21.973,24.414,32.227,15.625,4.883,0
1556290873.155,1.953,34.668,30.762,0.488,2.441,0
1556290873.159,2.930,38.574,28.320,-2.441,20.020,0
1556290873.163,16.113,31.250,26.367,6.348,33.691,0
1556290873.166,14.160,28.809,28.320,13.184,67.871,0
1556290873.170,4.883,29.297,29.785,12.207,106.934,0
1556290873.174,0.977,25.391,29.297,12.207,69.336,0
1556290873.178,12.207,24.902,27.344,17.578,42.969,0
1556290873.182,25.879,24.414,23.438,12.695,30.762,0
1556290873.184,32.715,24.902,31.738,7.812,10.254,0
1556290873.188,23.926,32.227,42.480,12.695,10.742,0
1556290873.192,6.348,34.668,38.574,11.719,23.438,0
1556290873.196,15.137,29.297,35.156,11.719,32.227,0
1556290873.200,21.484,28.320,39.551,15.625,45.898,0
1556290873.204,9.766,27.344,41.016,17.090,32.715,0
1556290873.208,10.742,25.879,37.109,12.695,4.883,0
1556290873.211,14.648,22.949,34.180,0.488,12.207,0
1556290873.215,20.508,23.926,30.762,0.488,-29.297,0
1556290873.219,23.926,27.832,31.250,6.836,-9.277,0
1556290873.223,20.996,28.320,38.574,13.184,24.902,0
1556290873.227,28.809,27.832,35.645,12.207,19.043,0
1556290873.229,41.016,27.832,31.250,3.418,50.293,0
1556290873.233,37.109,34.180,30.273,3.418,46.387,0
1556290873.237,20.508,34.668,30.273,9.277,30.762,0
1556290873.241,8.301,25.391,31.738,12.207,-2.441,0
1556290873.245,15.137,22.461,28.809,20.020,-27.344,0
1556290873.249,15.625,23.438,33.691,24.902,-13.672,0
1556290873.253,8.301,23.926,40.039,16.602,-2.441,0
1556290873.256,1.953,23.926,42.480,14.648,56.641,0
1556290873.260,8.789,20.020,39.062,14.648,93.262,0
1556290873.264,23.926,22.461,33.691,9.766,35.645,1
1556290873.268,16.602,24.414,24.902,13.672,3.418,0
1556290873.272,14.648,27.344,23.926,15.137,40.039,0
1556290873.274,20.020,26.367,28.320,4.395,20.508,0
1556290873.278,13.672,20.020,30.762,9.766,2.441,0
1556290873.282,7.324,20.508,26.367,17.578,-4.883,0
1556290873.286,7.324,20.020,24.414,6.836,-16.602,0
1556290873.290,7.324,17.578,28.320,7.812,-24.902,0
1556290873.294,15.625,20.508,30.273,12.695,-47.363,0
1556290873.298,19.043,24.414,34.668,9.277,-29.785,0
1556290873.301,5.371,24.902,39.551,12.207,6.836,0
1556290873.305,1.953,25.879,44.922,17.090,22.461,0
1556290873.309,12.695,27.344,43.945,14.648,5.371,0
1556290873.313,20.020,28.320,38.086,20.508,0.488,0
1556290873.317,20.996,30.273,38.086,22.461,29.785,0
1556290873.334,24.902,28.809,43.457,22.461,48.340,0
1556290873.338,20.020,26.367,41.504,17.578,6.836,0
1556290873.342,23.438,27.832,41.992,16.113,13.184,0
1556290873.346,31.250,29.785,43.457,15.137,24.902,0
1556290873.350,11.230,23.926,37.109,11.719,5.371,0
1556290873.354,4.883,21.484,30.273,5.859,12.207,0
1556290873.358,13.672,22.461,33.203,5.859,14.160,0
1556290873.361,14.648,22.949,36.133,8.301,51.758,0
1556290873.365,17.090,29.785,36.621,15.137,40.039,0
1556290873.369,15.625,32.715,39.062,13.672,-7.324,0
1556290873.373,12.695,29.297,37.109,4.395,52.734,0
1556290873.377,18.555,29.297,36.133,6.836,88.867,0
1556290873.379,19.043,30.273,39.062,15.625,38.086,0
1556290873.383,14.648,28.320,35.645,12.695,-2.441,0
1556290873.387,6.836,26.367,36.133,3.418,8.789,0
1556290873.391,6.348,26.367,41.016,9.277,13.184,0
1556290873.395,11.230,25.879,37.109,8.789,11.719,0
1556290873.399,5.371,22.949,29.785,9.277,48.828,0
1556290873.403,8.789,21.973,33.203,12.695,22.461,0
1556290873.406,18.555,24.414,39.551,16.602,18.555,0
1556290873.410,19.043,24.902,41.992,25.391,40.527,0
1556290873.414,18.066,24.902,43.945,18.555,22.949,0
1556290873.418,22.949,23.926,39.062,13.184,-18.066,0
1556290873.422,34.180,26.855,32.715,18.555,3.906,0
1556290873.424,35.156,29.297,37.109,21.484,36.133,0
1556290873.428,24.902,23.926,43.945,20.020,20.996,0
1556290873.432,17.090,23.438,39.062,20.996,7.812,0
1556290873.436,21.973,28.809,35.645,20.996,6.836,0
1556290873.440,20.020,32.227,41.016,14.160,35.645,0
1556290873.444,12.695,32.227,40.039,19.043,50.293,0
1556290873.448,9.766,26.855,40.039,22.461,13.184,0
1556290873.451,15.137,28.320,43.945,19.043,30.762,0
1556290873.455,27.832,30.273,40.039,12.207,38.086,0
1556290873.459,20.996,27.832,40.039,10.254,-33.203,0
1556290873.463,9.277,28.320,47.852,15.137,-36.133,0
1556290873.467,22.461,25.879,46.875,11.230,16.602,0
1556290873.470,34.180,25.391,43.457,19.531,6.836,0
1556290873.474,20.508,29.297,46.387,22.461,22.461,0
1556290873.478,11.230,33.203,46.875,15.137,7.324,0
1556290873.482,7.324,31.250,44.922,22.949,-6.348,0
1556290873.486,6.836,26.855,41.504,16.113,69.336,0
1556290873.490,17.090,27.832,39.062,13.184,64.453,0
1556290873.494,17.578,31.738,38.086,18.066,20.508,0
1556290873.497,14.160,31.250,41.016,23.438,-6.348,0
1556290873.501,23.926,28.809,47.852,25.879,-32.715,0
1556290873.505,18.555,25.879,48.340,21.484,-42.969,0
1556290873.509,11.719,24.902,46.875,28.320,-25.391,0
1556290873.513,13.184,28.809,51.758,32.227,-19.043,0
1556290873.515,17.578,28.809,52.246,26.855,-28.809,0
1556290873.519,28.809,24.414,50.781,28.809,2.930,0
1556290873.523,26.855,26.367,44.434,33.203,7.324,0
1556290873.527,16.113,33.691,40.527,27.344,4.395,0
1556290873.531,13.672,36.621,46.387,29.785,31.250,0
1556290873.535,19.043,35.156,45.410,32.715,20.508,0
1556290873.539,18.555,33.691,40.527,34.180,-3.418,0
1556290873.542,23.926,32.227,43.945,24.902,32.227,0
1556290873.546,24.902,27.344,46.875,20.996,68.359,0
1556290873.550,11.230,27.344,44.922,26.367,65.430,0
1556290873.554,12.695,27.344,43.457,17.090,15.137,0
1556290873.558,19.043,18.066,40.527,33.203,5.859,0
1556290873.560,22.461,18.066,36.621,48.340,33.691,0
1556290873.564,15.137,31.738,33.691,25.879,28.809,0
1556290873.568,21.973,37.109,30.762,12.207,33.691,0
1556290873.572,30.273,37.598,27.832,29.297,40.039,0
1556290873.576,28.809,45.410,29.297,36.621,-7.324,0
1556290873.580,38.574,49.316,26.855,33.691,-33.691,0
1556290873.584,54.199,47.852,24.902,39.062,23.438,0
1556290873.587,43.945,45.898,28.809,35.645,34.668,0
1556290873.591,25.879,43.945,21.484,30.273,13.672,0
1556290873.595,20.020,44.434,17.090,21.484,-1.465,0
1556290873.599,24.902,46.387,30.762,20.508,-1.953,0
1556290873.603,33.691,41.992,36.621,19.043,-36.621,0
1556290873.605,30.762,41.504,33.203,20.508,-22.461,0
1556290873.609,29.785,45.410,29.785,27.344,29.785,0
1556290873.613,25.391,41.016,23.926,25.391,-10.742,0
1556290873.617,27.344,34.180,20.996,28.320,17.090,0
1556290873.621,26.855,35.156,28.320,27.832,38.574,0
1556290873.625,27.344,35.645,31.250,28.809,20.996,0
1556290873.629,33.203,36.621,30.273,33.203,87.402,0
1556290873.632,34.180,38.574,34.668,26.855,82.520,0
1556290873.636,31.738,39.062,32.715,28.809,80.566,0
1556290873.640,20.508,35.156,23.926,25.391,69.824,0
1556290873.644,20.020,33.691,28.809,22.949,-1.953,0
1556290873.648,32.715,34.668,33.203,20.996,33.203,0
1556290873.664,33.203,35.156,31.738,24.414,66.406,0
1556290873.668,21.973,31.738,33.203,31.738,91.309,0
1556290873.672,28.809,29.785,27.344,27.344,126.465,0
1556290873.676,35.156,29.297,23.438,23.438,90.332,0
1556290873.680,26.855,26.855,22.949,20.508,-1.465,0
1556290873.684,26.855,24.414,25.391,20.508,-17.090,0
1556290873.688,27.832,22.461,30.762,17.578,30.273,0
1556290873.691,31.250,23.438,35.645,15.625,53.711,0
1556290873.695,34.180,24.902,34.668,20.508,23.926,0
1556290873.699,38.574,26.367,31.250,23.926,3.906,0
1556290873.703,28.809,27.344,33.203,22.461,-7.812,0
1556290873.707,24.902,22.461,30.273,31.738,-25.879,0
1556290873.710,38.086,19.043,29.785,38.574,5.859,0
1556290873.714,28.320,26.367,36.133,28.320,51.270,0
1556290873.718,9.277,30.762,42.969,28.809,46.387,0
1556290873.722,13.672,27.344,43.945,23.438,46.875,0
1556290873.726,20.996,26.367,39.062,13.672,-1.953,0
1556290873.730,24.902,30.273,37.109,12.207,-49.805,0
1556290873.734,20.996,30.273,37.598,11.230,-28.809,0
1556290873.737,14.160,30.762,35.645,9.766,-22.461,0
1556290873.741,20.020,35.156,31.738,10.742,28.809,0
1556290873.745,16.602,37.109,29.297,3.418,57.617,0
1556290873.749,-4.883,34.180,30.762,-2.441,20.020,0
1556290873.753,-1.465,37.598,33.203,0.977,41.504,0
1556290873.756,6.348,39.062,33.691,7.812,12.207,0
1556290873.760,0.000,36.621,35.156,6.348,3.418,0
1556290873.764,-13.672,38.086,34.180,-14.160,64.453,0
1556290873.768,-28.320,39.062,33.691,-27.344,27.832,0
1556290873.772,-33.203,41.504,36.621,-26.367,19.043,0
1556290873.776,-38.086,45.898,40.039,-36.133,-33.691,0
1556290873.780,-47.363,49.316,49.316,-53.223,23.926,0
1556290873.783,-62.012,57.617,51.270,-50.293,43.457,0
1556290873.787,-70.801,60.059,44.922,-66.895,-18.555,0
1556290873.791,-70.801,59.082,42.969,-96.191,24.414,0
1556290873.795,-84.961,64.941,48.340,-93.262,20.996,0
1556290873.799,-99.121,70.312,48.340,-93.262,44.922,0
1556290873.800,-111.328,79.102,38.086,-107.910,36.621,0
1556290873.804,-117.188,89.355,36.133,-120.605,30.762,0
1556290873.808,-127.441,88.867,38.574,-128.418,65.430,0
1556290873.812,-145.508,86.914,40.039,-133.301,35.156,0
1556290873.816,-169.434,92.773,38.574,-158.203,43.945,0
1556290873.820,-179.199,101.074,32.715,-181.641,24.414,0
1556290873.824,-172.852,105.469,30.762,-182.129,-16.602,0
1556290873.827,-182.617,104.492,29.785,-184.570,15.137,0
1556290873.831,-191.895,110.352,26.367,-193.359,9.766,0
1556290873.835,-195.312,105.957,25.879,-198.730,27.832,0
1556290873.839,-189.941,98.145,31.738,-181.641,43.945,0
1556290873.843,-180.664,96.191,34.180,-171.387,-4.395,0
1556290873.845,-165.039,94.238,33.203,-165.039,18.555,0
1556290873.849,-159.668,89.355,36.621,-143.066,9.766,0
1556290873.853,-142.090,77.637,37.109,-133.301,41.016,0
1556290873.857,-119.141,66.406,39.551,-128.418,61.523,0
1556290873.861,-114.746,54.199,38.086,-111.816,35.156,0
1556290873.865,-106.445,50.293,36.621,-93.262,52.734,0
1556290873.869,-81.055,50.293,44.434,-71.777,62.500,0
1556290873.872,-61.523,39.551,48.828,-59.082,28.320,0
1556290873.876,-46.875,31.250,47.363,-36.133,2.930,0
1556290873.880,-34.180,32.227,43.457,-13.672,32.227,0
1556290873.884,-20.996,31.250,41.992,-4.395,34.180,0
1556290873.888,-0.488,24.414,39.551,8.301,54.199,0
1556290873.890,19.043,20.996,42.969,23.926,48.828,0
1556290873.894,30.273,22.461,42.969,38.086,15.137,0
1556290873.898,42.480,19.043,37.109,52.734,5.371,0
1556290873.902,58.105,8.789,44.922,68.848,20.508,0
1556290873.906,69.336,6.836,50.293,82.031,-10.254,0
1556290873.910,69.824,9.277,43.457,83.984,-33.203,0
1556290873.914,73.242,3.418,42.480,86.914,-9.766,0
1556290873.917,92.285,-2.441,42.969,86.426,6.348,0
1556290873.921,100.586,0.000,42.969,89.355,11.230,0
1556290873.925,90.820,1.465,47.852,106.445,34.180,0
1556290873.929,88.867,1.953,50.293,101.562,36.621,0
1556290873.933,104.004,-1.953,47.363,96.191,10.254,0
1556290873.950,112.305,-5.371,41.016,97.168,29.785,0
1556290873.954,106.934,-0.977,38.086,101.562,20.020,0
1556290873.958,105.469,0.488,40.527,104.492,6.836,0
1556290873.962,111.328,-2.930,40.527,103.516,-17.090,0
1556290873.966,110.840,-4.395,37.109,110.352,7.324,0
1556290873.970,106.934,-7.324,40.527,112.793,49.805,0
1556290873.974,105.957,-5.859,44.434,105.957,14.160,0
1556290873.977,102.051,-0.488,42.480,101.562,45.898,0
1556290873.981,108.887,0.000,46.387,98.633,78.125,0
1556290873.985,109.375,-2.441,48.828,95.703,41.016,0
1556290873.989,104.980,0.488,43.457,90.332,40.527,0
1556290873.993,118.164,3.418,38.574,90.332,17.578,0
1556290873.980,120.117,1.465,39.551,99.609,-33.691,0
1556290873.984,102.051,1.465,39.551,106.934,-1.465,0
1556290873.988,90.820,2.930,43.945,104.004,56.641,0
1556290873.992,84.961,1.953,48.828,98.145,0.488,0
1556290873.996,83.496,2.441,37.109,92.773,3.418,0
1556290874.000,88.379,4.883,29.297,88.379,9.766,0
1556290874.004,82.031,3.418,37.109,85.938,1.465,0
1556290874.007,72.266,5.859,48.340,84.473,9.766,0
1556290874.011,77.637,8.301,52.246,75.684,42.480,0
1556290874.015,83.984,3.418,49.316,73.242,50.781,0
1556290874.019,76.660,0.977,48.340,76.172,-27.832,0
1556290874.023,71.289,5.371,45.410,63.965,-30.762,0
1556290874.040,62.012,6.836,38.086,57.617,20.508,0
1556290874.044,58.594,3.418,28.809,60.059,43.945,0
1556290874.048,65.918,3.906,32.715,64.941,27.832,0
1556290874.052,68.359,9.277,40.527,63.965,-3.906,0
1556290874.056,65.918,12.695,41.016,62.988,13.184,0
1556290874.060,56.641,11.719,45.898,64.941,-10.254,0
1556290874.064,63.965,11.719,48.340,70.801,-11.719,0
1556290874.067,73.242,19.531,43.945,66.895,34.180,0
1556290874.071,67.383,20.996,41.504,65.430,30.762,0
1556290874.075,59.570,16.602,47.363,71.777,55.664,0
1556290874.079,63.965,17.578,54.688,68.359,35.645,0
1556290874.083,59.570,20.020,51.270,55.176,3.906,0
1556290874.085,46.875,18.555,43.945,52.734,48.340,0
1556290874.089,49.316,16.113,40.039,56.641,23.438,0
1556290874.093,55.664,19.043,35.156,49.316,35.645,0
1556290874.097,59.082,20.020,36.133,46.387,45.898,0
1556290874.101,47.852,17.578,38.574,50.293,12.207,0
1556290874.105,39.551,18.066,31.738,44.434,16.113,0
1556290874.109,49.316,18.555,30.762,45.410,10.742,0
1556290874.112,49.316,18.066,40.039,56.152,9.766,0
1556290874.116,41.016,18.066,43.457,52.734,38.574,0
1556290874.120,41.016,17.578,43.945,41.504,16.602,0
1556290874.124,56.641,14.160,36.621,32.715,-24.414,0
1556290874.128,62.012,20.020,28.809,36.621,28.320,0
1556290874.130,45.898,22.949,31.250,40.527,32.227,0
1556290874.134,24.414,11.230,37.109,26.855,2.930,0
1556290874.138,18.066,1.465,43.457,19.531,19.043,0
1556290874.142,23.926,4.883,45.410,24.414,3.906,0
1556290874.146,26.367,11.230,41.504,32.715,-28.809,0
1556290874.150,23.438,9.766,39.062,40.039,-32.227,0
1556290874.154,26.855,9.277,38.574,36.133,0.977,0
1556290874.157,39.551,15.625,39.062,38.086,0.488,0
1556290874.161,41.016,20.020,43.945,41.504,9.766,0
1556290874.165,30.273,18.555,46.387,35.645,-1.953,0
1556290874.169,33.691,19.531,46.875,38.574,-0.488,0
1556290874.173,47.363,20.508,42.480,44.434,20.020,0
1556290874.175,52.734,18.555,30.762,44.922,30.762,0
1556290874.179,53.223,19.531,31.250,44.434,28.809,0
1556290874.183,46.387,14.160,39.062,32.227,-6.836,0
1556290874.187,41.016,16.602,40.039,29.785,37.598,0
1556290874.191,45.898,26.367,46.387,38.574,73.242,0
1556290874.195,41.992,28.809,52.246,35.645,51.758,0
1556290874.199,30.273,24.902,49.805,25.879,48.340,0
1556290874.202,35.645,21.973,51.758,30.762,57.129,0
1556290874.206,38.086,24.414,47.852,35.156,24.902,0
1556290874.210,38.574,24.414,36.621,34.180,3.418,0
1556290874.214,31.738,23.926,32.227,37.598,-13.184,0
1556290874.218,25.391,19.531,33.203,30.273,23.926,0
1556290874.220,38.574,14.160,32.715,24.414,55.176,0
1556290874.224,41.016,16.113,34.180,22.461,53.711,0
1556290874.228,29.785,18.555,35.645,26.367,73.242,0
1556290874.232,30.762,19.043,33.691,32.227,75.684,0
1556290874.236,42.969,22.461,39.062,38.086,44.434,0
1556290874.240,41.992,17.090,39.551,39.062,9.277,0
1556290874.244,32.227,15.137,36.133,41.504,27.832,0
1556290874.247,27.344,20.508,37.109,38.086,41.992,0
1556290874.251,31.738,20.508,36.621,25.391,38.574,0
1556290874.255,33.203,24.414,36.133,28.809,-9.277,0
1556290874.259,33.691,26.367,40.039,34.668,22.461,0
1556290874.263,33.691,23.438,43.457,29.785,98.633,0
1556290874.264,38.086,22.949,41.504,34.180,61.523,0
1556290874.268,35.156,23.926,37.598,32.715,77.148,0
1556290874.272,24.902,25.391,37.598,32.227,97.656,0
1556290874.276,22.461,25.879,40.039,36.621,43.457,0
1556290874.280,28.809,30.273,38.086,37.109,15.625,0
1556290874.284,36.133,27.344,29.785,35.156,4.395,0
1556290874.288,29.785,20.508,31.250,32.227,35.645,0
1556290874.291,22.949,23.926,38.086,28.320,47.852,0
1556290874.295,24.414,23.438,32.715,26.855,25.879,0
1556290874.299,23.438,19.043,30.762,32.227,19.531,0
1556290874.303,29.297,21.484,40.527,27.344,45.898,0
1556290874.307,23.438,21.484,49.316,30.762,48.340,0
1556290874.309,22.949,22.461,46.875,34.668,66.895,0
1556290874.313,28.320,25.879,41.504,35.156,15.137,0
1556290874.317,26.367,24.414,45.410,29.297,13.184,0
1556290874.321,20.996,24.902,44.922,26.367,18.555,0
1556290874.325,15.625,25.391,40.039,28.320,41.016,0
1556290874.329,30.273,25.391,39.062,33.203,46.875,0
1556290874.333,36.621,29.297,38.086,29.297,-17.578,0
1556290874.336,30.762,32.227,35.156,22.461,-7.324,0
1556290874.340,28.320,31.738,38.574,28.809,-9.766,0
1556290874.344,24.902,31.250,37.598,32.715,-2.441,0
1556290874.348,23.438,31.250,26.855,28.809,40.527,0
1556290874.352,25.391,30.762,30.762,31.250,50.781,0
1556290874.355,18.066,33.691,44.434,31.738,85.938,0
1556290874.359,14.160,34.180,45.898,23.926,44.434,0
1556290874.363,22.949,32.715,39.551,28.320,-4.395,0
1556290874.367,20.996,27.344,36.621,25.391,19.531,1
1556290874.371,13.184,25.391,40.039,19.531,30.762,0
1556290874.375,17.578,31.250,41.992,17.090,-25.879,0
1556290874.379,24.902,32.227,37.598,13.672,-21.973,0
1556290874.382,22.461,27.832,33.691,20.508,32.715,0
1556290874.386,26.855,27.832,32.715,25.391,0.488,0
1556290874.390,28.809,28.320,29.297,14.160,4.395,0
1556290874.394,16.113,30.762,30.273,4.883,47.852,0
1556290874.398,17.578,33.691,29.785,14.648,41.992,0
1556290874.399,12.695,28.809,28.320,20.508,31.250,0
1556290874.403,1.465,29.785,29.785,21.973,32.227,0
1556290874.407,9.766,30.273,32.227,24.902,43.457,0
1556290874.411,15.625,27.832,42.969,19.043,57.129,0
1556290874.415,18.066,32.227,49.316,20.508,83.984,0
1556290874.419,22.949,37.598,50.781,19.043,64.941,0
1556290874.423,21.484,35.645,49.316,11.230,35.645,0
1556290874.426,30.273,32.715,44.434,18.066,56.152,0
1556290874.430,34.180,33.203,48.828,22.949,4.395,0
1556290874.434,22.461,27.832,46.387,18.555,-42.969,0
1556290874.438,18.555,26.855,35.645,22.461,-29.297,0
1556290874.442,17.578,28.320,34.180,25.879,7.324,0
1556290874.459,22.949,27.344,30.273,16.602,41.504,0
1556290874.463,30.273,31.250,24.902,22.461,45.898,0
1556290874.467,25.391,31.250,32.715,32.715,31.738,0
1556290874.471,21.484,27.832,40.527,25.391,-5.371,0
1556290874.475,27.344,26.855,44.922,16.113,-21.484,0
1556290874.479,26.855,23.926,47.363,17.090,-6.836,0
1556290874.483,18.066,26.855,45.410,20.996,35.645,0
1556290874.486,12.695,29.785,37.598,14.648,3.418,0
1556290874.490,16.113,27.832,34.668,9.277,-40.039,0
1556290874.494,18.066,28.809,33.203,8.789,-19.531,0
1556290874.498,14.160,31.250,33.203,10.254,28.320,0
1556290874.502,9.766,32.227,34.668,14.648,74.707,0
1556290874.504,14.160,29.785,33.203,16.602,31.250,0
1556290874.508,26.855,28.320,38.574,17.578,-35.156,0
1556290874.512,25.879,28.320,34.180,16.602,-5.859,0
1556290874.516,13.184,27.344,31.738,16.113,34.180,0
1556290874.520,12.695,27.832,41.016,17.578,9.766,0
1556290874.524,22.949,28.320,38.574,14.160,9.766,0
1556290874.528,16.602,28.320,32.227,11.719,36.133,0
1556290874.531,10.254,26.855,32.227,10.742,27.832,0
1556290874.535,19.531,25.391,36.133,15.137,6.348,0
1556290874.539,24.414,22.461,34.668,17.578,9.277,0
1556290874.543,22.949,21.484,26.855,15.137,-18.066,0
1556290874.547,19.043,26.367,28.320,19.531,6.348,0
1556290874.549,13.184,27.832,32.227,22.949,53.223,0
1556290874.553,24.414,28.809,27.344,20.996,58.594,0
1556290874.557,37.109,31.250,20.996,24.902,33.203,0
1556290874.561,27.344,27.344,29.297,23.438,33.203,0
1556290874.565,18.555,23.438,36.621,25.879,30.273,0
1556290874.569,28.320,28.809,35.645,33.691,26.367,0
1556290874.573,24.414,33.203,39.062,24.414,14.648,0
1556290874.576,20.508,36.133,47.852,20.020,-52.734,0
1556290874.580,24.414,35.645,48.340,25.391,-32.227,0
1556290874.584,18.555,28.320,34.180,18.066,59.082,0
1556290874.588,15.137,25.391,28.320,13.184,52.246,0
1556290874.592,22.461,30.273,33.691,24.902,41.504,0
1556290874.595,22.949,33.203,34.180,30.273,58.594,0
1556290874.599,16.602,33.691,30.762,23.438,10.742,0
1556290874.603,19.043,32.715,26.855,18.555,0.488,0
1556290874.607,25.879,34.180,30.762,25.879,23.926,0
1556290874.611,21.484,35.156,38.574,29.785,30.762,0
1556290874.615,13.184,33.691,38.574,27.832,29.297,0
1556290874.619,15.137,31.250,38.086,22.461,10.742,0
1556290874.622,28.320,28.809,41.992,18.555,12.207,0
1556290874.626,28.320,29.297,43.945,21.484,58.594,0
1556290874.630,21.484,28.320,40.039,24.902,54.688,0
1556290874.634,26.855,24.902,35.645,28.320,2.930,0
1556290874.638,27.832,22.949,33.203,19.043,59.082,0
1556290874.640,15.625,22.949,33.203,13.672,43.457,0
1556290874.644,8.301,20.996,32.715,17.090,10.254,0
1556290874.648,14.160,21.484,32.715,15.137,74.219,0
1556290874.652,20.508,29.785,35.156,20.996,50.293,0
1556290874.656,16.602,32.227,35.156,24.414,35.645,0
1556290874.660,14.648,23.926,38.086,29.785,20.996,0
1556290874.664,24.414,21.484,31.738,27.344,-12.695,0
1556290874.667,25.391,26.855,27.832,14.160,-23.926,0
1556290874.671,18.066,30.762,36.133,17.578,-20.020,0
1556290874.675,16.602,30.273,40.039,14.160,9.277,0
1556290874.679,7.324,23.926,42.969,13.184,25.391,0
1556290874.683,11.719,19.043,42.480,16.113,18.066,0
1556290874.685,28.320,21.973,38.086,11.719,-1.953,0
1556290874.689,21.973,19.531,32.227,9.766,-0.977,0
1556290874.693,11.719,15.625,29.785,15.625,43.457,0
1556290874.697,15.137,20.020,32.227,16.602,26.367,0
1556290874.701,32.715,23.438,31.250,11.719,-30.273,0
1556290874.705,45.410,25.879,26.367,21.973,3.906,0
1556290874.709,36.133,26.855,33.691,34.180,65.918,0
1556290874.712,26.367,24.902,41.016,29.785,62.500,0
1556290874.716,21.484,23.926,43.457,33.203,-20.020,0
1556290874.720,25.391,21.973,43.457,41.992,-42.969,0
1556290874.724,21.484,20.508,40.039,39.551,-4.395,0
1556290874.728,6.348,22.949,39.551,35.645,5.371,0
1556290874.730,15.137,25.391,37.109,23.926,16.602,0
1556290874.734,27.344,24.902,36.621,17.578,28.320,0
1556290874.738,20.020,22.949,38.574,19.043,27.832,0
1556290874.742,11.230,24.414,37.598,12.695,22.949,0
1556290874.746,14.648,21.484,40.527,13.672,59.570,0
1556290874.750,21.484,18.066,41.504,23.926,38.574,0
1556290874.754,13.672,20.996,38.086,22.949,-24.902,0
1556290874.757,0.977,24.414,38.574,20.020,-31.738,0
1556290874.761,11.719,28.320,36.133,25.391,-26.367,0
1556290874.765,37.598,34.668,33.691,22.461,14.648,0
1556290874.769,31.738,33.691,34.668,24.902,31.738,0
1556290874.773,12.207,29.297,38.086,28.320,51.270,0
1556290874.790,11.230,26.367,42.480,21.484,50.781,0
1556290874.794,18.555,22.461,45.898,23.438,66.895,0
1556290874.798,24.902,26.367,46.387,18.555,54.199,0
1556290874.802,19.043,29.785,45.898,18.555,9.766,0
1556290874.806,12.695,21.973,43.457,24.902,-14.648,0
1556290874.810,24.902,20.508,39.551,23.438,-5.859,0
1556290874.814,30.762,31.738,42.969,15.625,35.156,0
1556290874.817,22.461,30.762,43.945,17.578,-6.348,0
1556290874.821,17.578,27.344,44.922,33.691,-36.133,0
1556290874.825,25.879,35.645,47.852,32.715,-6.348,0
1556290874.829,31.738,38.086,46.387,24.902,-8.789,0
1556290874.833,26.855,35.156,37.598,24.414,19.531,0
1556290874.835,18.066,34.668,27.344,15.137,29.297,0
1556290874.839,12.207,30.762,27.832,13.184,29.785,0
1556290874.843,15.137,27.344,36.621,15.625,8.789,0
1556290874.847,17.578,26.367,42.480,17.090,4.395,0
1556290874.851,17.578,25.879,39.062,17.578,89.844,0
1556290874.855,24.902,31.250,36.621,15.625,82.031,0
1556290874.859,19.531,33.203,39.062,19.043,82.031,0
1556290874.862,8.789,35.645,37.109,18.066,80.566,0
1556290874.866,6.348,31.738,31.738,18.555,54.688,0
1556290874.870,15.137,23.926,32.715,19.043,28.320,0
1556290874.874,20.020,27.832,32.227,9.766,-28.320,0
1556290874.878,16.602,32.715,30.273,9.277,-21.484,0
1556290874.880,27.344,32.715,33.691,18.066,-7.324,0
1556290874.884,20.020,34.180,35.645,14.648,26.855,0
1556290874.888,10.254,33.203,34.668,14.648,97.656,0
1556290874.892,20.996,28.320,28.320,21.973,47.852,0
1556290874.896,25.391,30.273,23.438,16.602,-11.719,0
1556290874.900,14.648,31.738,31.250,9.766,43.945,0
1556290874.904,7.812,29.785,41.992,5.859,41.504,0
1556290874.907,15.137,29.297,41.016,7.812,75.195,0
1556290874.911,15.625,26.855,41.504,4.883,49.805,0
1556290874.915,7.812,27.344,45.410,-4.883,-3.906,0
1556290874.919,11.719,29.785,39.551,-2.930,36.621,0
1556290874.923,23.438,25.391,37.109,12.695,5.859,0
1556290874.925,26.367,27.832,37.109,16.602,13.184,0
1556290874.929,14.160,39.551,31.250,0.000,17.578,0
1556290874.933,12.695,41.016,27.344,0.488,18.066,0
1556290874.937,27.832,36.621,22.461,-4.395,22.949,0
1556290874.941,31.738,39.062,18.555,-7.812,0.000,0
1556290874.945,22.461,38.574,19.043,0.488,-6.348,0
1556290874.949,8.301,35.156,20.996,1.465,33.691,0
1556290874.952,15.137,36.621,24.414,6.836,26.855,0
1556290874.956,20.996,31.250,29.785,0.488,-17.578,0
1556290874.960,18.555,26.855,33.203,4.883,-23.438,0
1556290874.964,13.672,30.273,31.250,22.461,4.395,0
1556290874.968,17.090,33.203,29.785,26.367,2.930,0
1556290874.970,26.367,29.785,30.762,27.344,24.902,0
1556290874.974,26.367,26.855,26.855,19.531,14.648,0
1556290874.978,22.461,29.785,24.414,18.066,34.180,0
1556290874.982,18.555,29.785,26.855,20.020,57.129,0
1556290874.986,22.461,28.320,31.738,20.020,7.324,0
1556290874.990,15.137,30.273,31.738,19.043,50.293,0
1556290874.994,9.277,31.738,22.949,15.137,67.871,0
1556290874.997,15.137,33.691,27.832,22.461,51.758,0
1556290875.001,16.113,33.203,34.668,24.902,27.832,0
1556290875.005,13.184,28.320,33.691,21.484,2.441,0
1556290875.009,12.695,27.832,35.156,22.461,19.531,0
1556290875.013,11.230,26.367,30.273,27.832,93.750,0
1556290875.015,11.230,23.438,27.832,21.973,68.359,0
1556290875.019,20.020,26.855,32.227,13.672,20.508,0
1556290875.023,14.648,33.203,36.133,12.207,5.371,0
1556290875.027,4.883,27.344,35.156,17.090,-2.930,0
1556290875.031,9.277,20.996,33.203,19.043,8.301,0
1556290875.035,10.742,26.855,31.250,19.043,51.270,0
1556290875.039,7.812,30.762,27.832,26.367,87.402,0
1556290875.042,0.488,28.320,25.879,21.973,35.645,0
1556290875.046,-1.465,27.832,25.391,15.625,-9.277,0
1556290875.050,10.254,30.273,30.273,17.578,16.602,0
1556290875.054,21.973,27.344,28.809,19.531,26.855,0
1556290875.058,12.207,27.344,24.414,13.672,0.977,0
1556290875.059,1.953,27.344,25.879,8.301,12.695,0
1556290875.063,10.742,24.414,28.809,8.789,12.207,0
1556290875.067,2.441,23.438,26.367,9.277,9.766,0
1556290875.071,-0.977,21.484,22.949,8.301,-2.930,0
1556290875.075,1.465,17.090,20.508,11.719,-3.418,0
1556290875.079,0.000,18.555,20.508,12.207,-10.742,0
1556290875.083,16.602,24.414,25.391,8.789,-23.438,0
1556290875.086,20.508,25.879,27.832,11.719,35.156,0
1556290875.090,4.395,24.414,26.367,16.602,20.508,0
1556290875.094,0.000,23.438,24.414,15.137,-9.766,0
1556290875.098,5.371,24.902,21.973,11.230,-1.953,0
1556290875.102,12.207,24.414,16.602,10.254,-36.133,0
1556290875.105,8.789,23.438,16.602,8.301,-20.020,0
1556290875.109,3.418,25.879,21.484,14.160,23.926,0
1556290875.113,12.207,27.344,28.320,17.578,33.203,0
1556290875.117,12.207,24.902,27.832,12.695,20.508,0
1556290875.121,1.953,24.414,23.438,11.719,-38.086,0
1556290875.125,1.465,22.949,27.832,13.184,-17.090,0
1556290875.129,14.648,20.508,32.227,11.719,62.012,0
1556290875.132,16.602,17.578,32.715,14.160,37.598,0
1556290875.136,17.090,15.137,27.832,17.090,57.129,0
1556290875.140,15.625,21.973,23.438,14.648,65.430,0
1556290875.144,13.672,26.367,28.809,16.602,100.098,0
1556290875.148,19.043,28.320,32.227,21.973,125.000,0
1556290875.149,36.133,30.273,27.832,19.531,37.598,0
1556290875.153,46.387,27.832,25.391,25.391,27.344,0
1556290875.157,20.508,22.949,31.250,26.855,37.598,0
1556290875.161,6.348,16.602,37.109,17.578,11.719,0
1556290875.165,19.043,16.602,41.504,19.043,31.250,0
1556290875.169,13.184,19.043,44.922,20.508,32.715,0
1556290875.173,1.953,18.066,41.016,14.648,24.902,0
1556290875.176,-5.371,17.090,31.738,4.395,48.828,0
1556290875.180,1.953,16.113,34.180,6.836,62.500,0
1556290875.184,14.160,17.090,46.387,21.484,79.102,0
1556290875.188,12.207,17.090,50.293,24.902,35.645,0
1556290875.192,10.742,16.602,41.016,17.090,43.945,0
1556290875.210,21.484,23.926,37.109,18.555,51.758,0
1556290875.214,17.090,27.832,44.922,21.973,22.949,0
1556290875.218,0.488,23.926,45.898,22.949,11.719,0
1556290875.222,0.488,22.949,40.527,20.020,31.250,0
1556290875.226,11.230,20.996,37.598,15.625,-26.367,0
1556290875.230,21.973,19.531,35.645,14.648,-31.250,0
1556290875.234,20.020,22.949,35.156,18.555,72.754,0
1556290875.237,16.602,20.996,31.250,24.902,34.668,0
1556290875.241,25.879,16.602,29.785,30.273,-24.902,0
1556290875.245,23.438,18.555,38.086,30.762,-31.250,0
1556290875.249,13.184,22.949,44.922,27.344,17.090,0
1556290875.253,8.789,28.320,43.945,32.715,29.785,0
1556290875.256,17.090,29.297,34.668,22.461,7.812,0
1556290875.260,27.344,23.926,31.738,19.043,13.672,0
1556290875.264,18.066,21.973,33.691,24.902,2.441,0
1556290875.268,11.719,27.344,34.180,24.414,-9.766,0
1556290875.272,13.672,27.832,34.180,24.414,1.953,0
1556290875.276,18.066,26.855,34.180,24.902,18.555,0
1556290875.280,29.297,30.273,31.738,34.180,67.871,0
1556290875.283,23.926,30.762,34.668,34.668,94.238,0
1556290875.287,16.113,32.715,43.457,24.414,56.152,0
1556290875.291,21.973,35.645,40.527,25.391,40.039,0
1556290875.295,17.090,33.691,37.109,21.484,33.691,0
1556290875.299,11.230,34.180,34.668,20.996,45.410,0
1556290875.300,2.930,30.273,30.762,20.996,66.406,0
1556290875.304,3.418,27.344,30.762,16.602,33.203,0
1556290875.308,15.137,29.297,31.250,22.949,64.941,0
1556290875.312,14.648,27.344,38.574,25.391,87.891,0
1556290875.316,9.277,23.926,41.992,20.508,69.336,0
1556290875.320,10.254,25.391,40.039,24.414,11.719,0
1556290875.324,10.742,30.273,36.133,26.367,-21.973,0
1556290875.327,6.348,33.203,35.156,25.391,34.668,0
1556290875.331,5.859,30.273,41.016,30.762,28.320,0
1556290875.335,9.277,27.832,42.480,17.578,2.930,0
1556290875.339,14.160,31.250,38.086,16.113,42.480,0
1556290875.343,15.625,32.227,38.574,21.484,67.383,0
1556290875.345,9.277,29.297,41.016,19.043,48.828,0
1556290875.349,11.719,30.273,43.457,22.949,56.641,0
1556290875.353,10.742,26.855,43.457,23.926,53.711,0
1556290875.357,8.789,24.902,41.016,23.926,10.742,0
1556290875.361,11.230,33.203,38.574,21.484,-1.953,0
1556290875.365,11.230,32.715,40.527,23.926,6.348,0
1556290875.369,20.996,27.832,44.922,30.762,23.438,0
1556290875.372,26.367,28.320,44.434,25.879,15.625,0
1556290875.376,27.344,27.832,42.480,20.020,-5.371,0
1556290875.380,23.926,29.297,35.645,31.738,0.977,0
1556290875.384,16.602,33.203,30.762,35.645,-17.090,0
1556290875.388,17.090,36.621,35.156,20.020,-34.668,0
1556290875.389,17.578,36.621,42.480,15.137,35.156,0
1556290875.393,20.508,35.645,45.898,23.926,62.012,0
1556290875.397,26.367,36.621,45.410,24.902,4.883,0
1556290875.401,28.320,33.203,45.898,21.973,-5.371,0
1556290875.405,23.926,33.203,48.340,26.855,-28.809,0
1556290875.409,27.832,35.156,43.945,27.344,8.789,0
1556290875.413,26.855,31.250,41.504,22.461,1.953,0
1556290875.416,35.645,30.273,43.457,18.066,-11.719,0
1556290875.420,43.457,31.738,41.504,20.020,24.414,0
1556290875.424,25.879,33.203,38.574,26.367,10.254,0
1556290875.428,29.785,35.156,39.551,37.598,-55.176,0
1556290875.432,30.762,35.156,43.945,41.504,-24.414,0
1556290875.434,20.508,29.785,45.410,39.062,27.344,0
1556290875.438,20.020,27.344,46.875,38.086,1.953,0
1556290875.442,15.137,30.273,46.875,30.762,2.441,0
1556290875.446,12.695,28.320,42.969,16.113,38.086,0
1556290875.450,19.043,27.344,43.457,13.184,56.152,0
1556290875.454,23.926,29.297,42.480,18.066,41.016,0
1556290875.458,25.391,25.391,35.156,19.043,44.434,0
1556290875.461,27.832,21.484,34.668,17.578,63.477,0
1556290875.465,20.996,28.809,38.574,17.090,43.945,0
1556290875.469,20.996,36.133,39.062,21.973,15.137,0
1556290875.473,20.508,36.133,33.203,24.902,41.992,0
1556290875.477,14.160,34.180,31.250,30.762,41.016,0
1556290875.479,22.461,30.273,37.598,24.902,45.410,0
1556290875.483,25.879,28.809,41.992,21.973,13.672,0
1556290875.487,20.508,26.855,40.039,34.668,-30.762,0
1556290875.491,25.391,24.902,38.574,27.344,35.156,2
1556290875.495,26.855,25.391,42.480,27.344,37.598,0
1556290875.499,18.066,23.438,42.969,31.250,15.625,0
1556290875.503,19.531,21.484,41.992,21.973,17.578,0
1556290875.506,23.926,23.438,39.062,24.414,1.953,0
1556290875.510,23.926,23.926,33.203,29.785,41.992,0
1556290875.514,30.273,24.414,30.273,25.879,64.453,0
1556290875.518,27.344,26.855,32.227,19.043,28.320,0
1556290875.522,5.859,25.879,31.250,20.996,26.367,0
1556290875.524,4.883,25.879,26.367,21.484,39.551,0
1556290875.528,18.555,25.391,38.086,20.996,48.340,0
1556290875.532,16.602,26.367,46.875,23.926,29.297,0
1556290875.536,11.719,33.203,44.434,19.043,18.066,0
1556290875.540,12.695,31.250,46.387,20.020,50.293,0
1556290875.544,27.832,28.320,46.387,30.273,45.410,0
1556290875.548,34.180,32.227,41.504,20.508,14.160,0
1556290875.551,20.508,34.668,30.762,6.348,21.973,0
1556290875.555,15.137,33.691,30.273,12.695,33.203,0
1556290875.559,8.301,31.250,35.156,15.625,13.184,0
1556290875.563,11.230,29.785,32.715,13.184,30.762,0
1556290875.567,8.789,28.809,33.203,15.137,68.359,0
1556290875.584,5.859,25.391,29.785,14.160,62.500,0
1556290875.588,8.301,19.531,20.996,15.137,34.180,0
1556290875.592,16.113,24.414,18.555,16.602,42.969,0
1556290875.596,26.855,24.902,23.438,18.555,19.531,0
1556290875.600,16.602,23.438,29.297,22.461,-15.137,0
1556290875.604,10.254,27.832,33.203,22.461,-13.184,0
1556290875.608,15.625,27.344,35.645,19.043,7.324,0
1556290875.611,6.348,24.902,34.180,10.742,33.691,0
1556290875.615,0.000,30.762,33.691,20.508,73.242,0
1556290875.619,7.324,36.621,38.574,30.273,21.484,0
1556290875.623,16.602,36.133,35.156,19.531,22.949,0
1556290875.627,16.113,32.715,27.832,18.066,52.246,0
1556290875.629,14.648,33.203,31.738,27.832,48.340,0
1556290875.633,10.254,30.762,35.645,27.832,65.430,0
1556290875.637,15.625,25.879,32.715,20.508,25.391,0
1556290875.641,29.297,30.273,28.320,20.508,21.973,0
1556290875.645,22.949,33.203,29.785,19.043,51.270,0
1556290875.649,4.883,33.691,37.109,21.973,49.805,0
1556290875.653,11.230,38.086,32.227,29.297,40.527,0
1556290875.656,22.949,33.691,29.785,34.668,64.453,0
1556290875.660,25.879,30.762,36.133,32.715,49.805,0
1556290875.664,25.391,30.762,35.156,26.855,51.758,0
1556290875.668,20.020,29.785,35.645,35.645,53.711,0
1556290875.672,20.508,33.691,38.086,34.668,12.695,0
1556290875.675,24.902,36.621,39.551,37.598,-20.508,0
1556290875.679,17.578,37.109,39.551,48.828,-7.812,0
1556290875.683,11.230,36.133,37.598,35.156,59.082,0
1556290875.687,22.949,32.227,34.180,26.855,59.570,0
1556290875.691,16.113,29.297,26.855,31.250,56.152,0
1556290875.695,7.812,29.785,24.902,30.273,49.805,0
1556290875.699,4.395,27.344,26.855,29.297,22.949,0
1556290875.702,2.930,24.902,33.203,25.391,36.621,0
1556290875.706,16.602,23.438,37.109,20.508,-1.953,0
1556290875.710,18.066,24.902,32.715,24.902,-16.113,0
1556290875.714,12.207,29.785,30.273,34.180,2.930,0
1556290875.718,8.301,31.250,33.691,30.273,11.719,0
1556290875.720,6.348,28.320,33.691,24.414,28.809,0
1556290875.724,10.742,27.832,35.156,31.738,25.879,0
1556290875.728,0.000,26.855,37.109,30.762,5.859,0
1556290875.732,-1.953,25.879,37.109,23.926,-4.395,0
1556290875.736,12.207,25.879,40.527,27.344,3.418,0
1556290875.740,16.113,22.949,40.527,36.133,2.930,0
1556290875.744,22.461,27.344,35.645,40.039,19.531,0
1556290875.747,19.531,32.715,30.762,38.086,-1.465,0
1556290875.751,9.766,36.133,35.156,30.762,-29.297,0
1556290875.755,7.324,37.109,41.016,32.227,-7.324,0
1556290875.759,23.926,37.598,41.016,37.598,-9.766,0
1556290875.763,23.438,34.180,38.574,40.527,-22.949,0
1556290875.765,7.812,29.785,38.574,38.574,-49.805,0
1556290875.769,22.461,28.320,40.039,43.945,-29.297,0
1556290875.773,31.738,30.273,40.039,51.758,-12.695,0
1556290875.777,17.578,33.691,43.945,44.434,-33.203,0
1556290875.781,16.113,33.203,49.316,40.039,3.418,0
1556290875.785,32.715,33.691,49.805,41.016,30.762,0
1556290875.789,29.785,35.645,46.387,44.434,60.059,0
1556290875.792,14.160,32.227,38.574,39.062,87.891,0
1556290875.796,12.207,30.762,36.621,30.762,73.730,0
1556290875.800,12.695,33.203,38.086,34.180,33.691,0
1556290875.804,24.902,36.621,44.434,42.969,-18.066,0
1556290875.808,16.602,34.180,46.875,46.875,1.953,0
1556290875.810,1.465,27.832,39.551,46.387,30.273,0
1556290875.814,13.184,27.344,38.086,40.527,-34.668,0
1556290875.818,20.020,27.344,40.527,33.203,-19.531,0
1556290875.822,18.555,21.484,40.039,31.738,16.113,0
1556290875.826,20.996,21.484,37.598,37.598,-6.836,0
1556290875.830,18.555,22.461,37.109,43.457,-3.906,0
1556290875.834,20.020,22.949,36.133,48.828,8.301,0
1556290875.837,26.367,27.832,34.668,51.270,84.473,0
1556290875.841,14.648,24.902,37.598,41.992,118.164,0
1556290875.845,6.836,24.902,37.109,43.945,41.016,0
1556290875.849,20.020,30.273,34.668,46.387,6.348,0
1556290875.853,24.414,29.785,31.738,43.457,26.855,0
1556290875.855,20.020,28.809,27.832,45.410,50.293,0
1556290875.859,10.742,25.879,34.180,51.270,45.410,0
1556290875.863,17.578,22.949,41.016,48.340,19.043,0
1556290875.867,21.484,26.855,43.457,50.781,35.156,0
1556290875.871,15.625,31.738,46.387,50.293,17.090,0
1556290875.875,21.973,36.133,46.875,43.945,-0.488,0
1556290875.879,21.973,37.109,47.363,52.734,22.949,0
1556290875.882,30.762,31.738,41.992,47.363,60.547,0
1556290875.886,30.273,27.344,33.203,42.969,33.203,0
1556290875.890,18.066,25.391,39.551,52.734,13.672,0
1556290875.894,24.414,27.344,40.527,50.781,-5.859,0
1556290875.898,25.391,27.832,33.691,41.504,-20.996,0
1556290875.915,19.043,29.297,36.621,40.527,48.340,0
1556290875.919,20.996,29.785,37.598,45.898,12.207,0
1556290875.923,17.578,26.855,35.156,37.109,2.441,0
1556290875.927,20.508,27.832,29.785,27.832,69.824,0
1556290875.931,24.902,29.297,27.344,37.109,63.965,0
1556290875.935,20.996,31.250,25.391,40.039,53.223,0
1556290875.939,24.902,31.738,27.832,34.668,76.172,0
1556290875.942,23.438,25.879,29.297,32.227,51.270,0
1556290875.946,33.691,25.391,29.297,34.668,59.570,0
1556290875.950,41.504,28.320,31.250,39.551,55.664,0
1556290875.954,28.809,26.367,33.203,44.434,9.766,0
1556290875.958,32.715,20.996,31.250,42.480,11.230,0
1556290875.960,31.738,25.391,27.832,33.203,41.504,0
1556290875.964,26.367,31.250,35.645,33.691,39.551,0
1556290875.968,26.855,32.227,38.574,43.457,8.789,0
1556290875.972,26.855,31.738,38.574,37.109,26.855,0
1556290875.976,24.414,29.785,34.668,31.250,20.508,0
1556290875.980,28.809,29.785,34.668,35.645,3.906,0
1556290875.984,30.273,31.738,39.551,32.715,0.977,0
1556290875.987,13.672,28.320,38.086,35.156,-7.812,0
1556290875.991,6.836,25.879,31.738,35.645,14.160,0
1556290875.995,18.555,31.250,26.855,21.484,18.066,0
1556290875.999,16.113,30.273,29.785,14.648,33.691,0
1556290876.003,14.160,26.855,32.227,22.949,30.273,0
1556290876.005,18.066,27.344,28.809,29.297,47.852,0
1556290876.009,12.695,30.762,25.879,36.133,40.527,0
1556290876.013,17.578,30.762,33.203,37.598,45.410,0
1556290876.017,20.020,25.879,38.574,42.480,17.090,0
1556290876.021,3.906,26.367,34.668,32.715,4.395,0
1556290876.025,-1.465,28.320,32.715,15.625,11.230,0
1556290876.029,8.301,28.320,31.738,20.996,20.020,0
1556290876.032,4.883,28.809,28.809,21.973,43.945,0
1556290876.036,5.371,29.785,26.855,24.414,-27.832,0
1556290876.040,16.602,25.391,26.855,20.020,-7.812,0
1556290876.044,19.043,23.438,33.691,21.973,42.480,0
1556290876.048,15.625,24.902,39.062,23.438,-0.977,0
1556290876.050,1.465,25.391,37.598,21.484,42.480,0
1556290876.054,1.953,30.762,41.016,24.414,71.777,0
1556290876.058,10.254,32.227,40.527,21.973,7.324,0
1556290876.062,13.184,29.297,32.715,29.297,11.230,0
1556290876.066,26.367,26.855,37.109,35.156,28.320,0
1556290876.070,22.461,26.367,40.527,16.113,35.156,0
1556290876.074,-2.930,33.203,38.086,3.418,-17.090,0
1556290876.077,-14.160,34.668,36.133,8.301,0.488,0
1556290876.081,-11.719,36.133,32.715,3.418,69.336,0
1556290876.085,-4.883,33.691,31.738,2.441,62.500,0
1556290876.089,5.859,30.762,35.156,14.160,31.250,0
1556290876.093,10.254,34.668,35.645,18.066,16.113,0
1556290876.095,8.789,31.250,30.273,12.207,-4.883,0
1556290876.099,14.160,32.715,24.902,14.648,11.719,0
1556290876.103,23.438,37.598,29.785,22.949,19.531,0
1556290876.107,33.691,36.133,40.039,21.973,20.508,0
1556290876.111,47.363,37.109,42.480,23.926,43.945,0
1556290876.115,34.668,34.668,35.156,22.461,33.691,0
1556290876.119,25.391,32.227,29.785,15.625,5.371,0
1556290876.122,26.367,28.809,33.203,21.484,-46.387,0
1556290876.126,19.043,27.832,37.598,29.785,-12.207,0
1556290876.130,14.160,29.785,37.109,25.391,74.219,0
1556290876.134,7.324,28.809,35.156,30.762,45.898,0
1556290876.138,14.160,29.297,32.715,30.762,5.371,0
1556290876.140,20.996,29.297,37.109,25.391,42.480,0
1556290876.144,14.648,27.344,42.480,28.320,3.906,0
1556290876.148,19.531,25.391,39.551,21.973,-33.691,0
1556290876.152,31.250,28.320,34.180,24.414,18.555,0
1556290876.156,28.809,33.203,31.250,28.320,33.203,0
1556290876.160,20.020,34.180,32.227,21.484,8.301,0
1556290876.164,8.301,32.715,31.250,21.484,0.000,0
1556290876.167,11.719,32.227,33.691,15.137,18.555,0
1556290876.171,23.926,28.320,34.668,7.812,20.508,0
1556290876.175,15.137,25.391,31.250,11.230,52.734,0
1556290876.179,9.766,27.832,34.180,17.578,20.020,0
1556290876.183,9.766,25.391,37.598,18.555,-23.438,0
1556290876.185,15.137,22.949,35.645,21.973,24.414,0
1556290876.189,14.648,25.391,31.738,17.578,-14.160,0
1556290876.193,10.254,21.484,31.250,17.578,-30.762,0
1556290876.197,16.602,18.066,32.227,17.090,-2.930,0
1556290876.201,23.926,23.926,31.738,10.742,9.277,0
1556290876.205,16.113,30.762,34.180,12.207,19.043,0
1556290876.209,-3.906,31.738,35.156,13.672,-7.812,0
1556290876.212,5.371,27.832,28.320,5.371,-10.742,0
1556290876.216,15.625,28.320,23.926,15.137,-28.809,0
1556290876.220,13.184,33.203,29.297,22.461,-1.953,0
1556290876.224,9.277,31.250,36.133,16.602,32.715,0
1556290876.228,16.602,25.879,34.668,16.602,24.902,0
1556290876.230,22.949,24.902,31.250,13.184,0.488,0
1556290876.234,19.531,29.297,35.156,20.996,-3.906,0
1556290876.238,14.648,30.762,35.156,27.344,37.598,0
1556290876.242,7.324,30.273,33.691,24.902,53.223,0
1556290876.246,19.531,28.809,37.598,20.020,33.203,0
1556290876.250,22.461,29.785,41.504,17.578,-10.254,0
1556290876.254,15.137,31.738,42.480,13.184,-5.859,0
1556290876.257,9.277,30.273,39.551,9.766,-1.953,0
1556290876.261,8.789,32.227,39.551,28.809,12.695,0
1556290876.265,33.691,29.297,31.738,26.855,-18.066,0
1556290876.269,33.691,24.902,22.949,15.137,-24.414,0
1556290876.273,12.695,27.832,34.668,23.438,58.105,0
1556290876.274,15.137,28.809,47.363,18.555,57.129,0
1556290876.278,21.973,31.738,45.898,20.996,31.738,0
1556290876.282,37.598,35.645,35.645,26.367,61.035,0
1556290876.286,25.879,33.203,34.668,20.996,58.105,0
1556290876.290,7.324,28.809,41.992,20.020,33.203,0
1556290876.294,21.973,27.832,42.480,15.137,9.277,0
1556290876.298,17.578,26.855,41.016,9.766,-7.324,0
1556290876.301,14.160,24.902,37.109,13.184,32.715,0
1556290876.305,9.766,27.832,38.574,13.672,67.871,0
1556290876.309,7.812,29.785,40.527,17.090,27.832,0
1556290876.313,18.066,27.832,36.133,18.555,25.391,0
1556290876.317,26.367,31.738,34.668,19.531,30.273,0
1556290876.334,17.090,30.762,36.133,26.855,9.277,0
1556290876.338,13.184,26.367,41.016,22.461,24.902,0
1556290876.342,21.484,27.832,42.969,17.578,56.152,0
1556290876.346,18.555,33.203,41.016,21.973,76.172,0
1556290876.350,21.484,35.645,38.574,18.555,54.688,0
1556290876.354,20.508,31.250,41.504,8.301,51.758,0
1556290876.358,24.414,27.832,39.551,11.719,51.758,0
1556290876.361,27.344,28.809,28.809,18.066,5.859,0
1556290876.365,19.531,28.809,29.297,18.555,-41.992,0
1556290876.369,12.207,28.320,38.086,20.508,11.230,0
1556290876.373,9.277,27.344,38.574,16.602,51.758,0
1556290876.377,18.066,23.926,33.203,9.277,20.508,0
1556290876.380,19.531,23.438,32.715,6.348,47.363,0
1556290876.384,8.789,23.926,42.480,5.371,68.848,0
1556290876.388,6.348,21.973,44.434,2.930,28.809,0
1556290876.392,8.789,21.973,38.574,4.883,27.832,0
1556290876.396,9.277,23.438,36.621,4.883,39.062,0
1556290876.400,1.953,23.926,36.621,15.137,11.719,0
1556290876.404,11.230,24.414,34.668,19.531,-5.859,0
1556290876.407,26.367,22.949,35.645,14.160,-1.465,0
1556290876.411,12.207,20.020,39.062,14.160,-25.879,0
1556290876.415,-3.906,16.602,42.480,17.090,-36.133,0
1556290876.419,0.977,18.555,34.668,13.672,-16.113,0
1556290876.423,8.301,23.438,29.785,10.254,18.066,0
1556290876.424,9.766,24.414,37.109,15.625,-6.836,0
1556290876.428,13.184,25.879,40.039,20.996,-52.734,0
1556290876.432,11.230,21.973,39.062,15.137,0.000,0
1556290876.436,10.254,18.066,43.945,10.742,81.543,0
1556290876.440,16.113,21.973,48.340,7.324,73.242,0
1556290876.444,13.672,21.973,41.016,4.883,41.504,0
1556290876.448,-2.930,21.973,35.156,4.883,60.059,0
1556290876.451,-5.859,23.926,35.156,11.719,79.590,0
1556290876.455,3.906,20.508,33.203,0.977,47.852,0
1556290876.459,7.812,20.020,33.203,-9.277,37.109,0
1556290876.463,6.836,25.391,39.551,7.324,64.453,0
1556290876.467,-2.441,27.344,44.922,5.859,41.016,0
1556290876.469,10.742,28.809,32.715,-4.883,15.137,0
1556290876.473,17.090,26.367,24.902,2.441,48.828,0
1556290876.477,5.859,26.855,37.109,17.090,17.090,0
1556290876.481,15.137,33.691,40.527,28.809,-24.902,0
1556290876.485,27.832,34.180,41.504,23.438,12.207,0
1556290876.489,17.578,28.320,54.199,13.184,8.789,0
1556290876.493,10.254,23.438,57.129,21.484,18.555,0
1556290876.496,18.555,18.066,53.223,35.645,13.672,0
1556290876.500,19.531,11.719,52.246,28.320,-11.230,0
1556290876.504,25.879,15.137,48.828,20.996,19.043,0
1556290876.508,29.785,24.414,45.410,24.902,20.020,0
1556290876.512,23.926,25.879,48.340,31.738,39.551,0
1556290876.514,21.973,24.414,46.387,34.668,55.176,0
1556290876.518,32.715,20.508,33.203,33.691,3.418,0
1556290876.522,27.832,19.531,31.250,30.762,11.719,0
1556290876.526,19.531,21.484,37.109,22.461,21.484,0
1556290876.530,25.391,12.695,39.551,25.879,12.207,0
1556290876.534,38.574,8.301,40.039,27.832,-5.371,0
1556290876.538,32.227,18.066,41.504,23.926,-14.160,0
1556290876.541,26.855,24.902,41.992,19.531,28.320,0
1556290876.545,31.250,25.391,41.016,16.602,15.625,0
1556290876.549,28.320,25.391,36.621,22.949,17.578,0
1556290876.553,39.062,24.414,31.250,26.855,42.480,0
1556290876.557,45.410,26.367,38.574,18.555,-7.812,0
1556290876.559,33.203,28.320,45.898,17.090,2.441,0
1556290876.563,28.320,30.273,41.016,20.020,25.391,0
1556290876.567,30.762,29.785,41.504,16.113,25.879,0
1556290876.571,37.109,26.367,44.434,15.625,35.156,0
1556290876.575,32.715,26.367,44.434,21.973,14.648,0
1556290876.579,23.926,24.414,45.898,26.855,43.457,0
1556290876.583,41.992,21.973,49.316,32.227,31.738,0
1556290876.586,46.875,24.414,51.758,29.297,10.254,0
1556290876.590,32.227,26.855,45.898,32.227,50.781,0
1556290876.594,33.203,28.809,36.133,35.156,56.641,0
1556290876.598,42.480,31.250,31.738,22.949,53.711,1
1556290876.602,49.805,29.785,36.621,25.879,52.246,0
1556290876.604,59.570,28.320,44.922,27.344,37.109,0
1556290876.608,48.340,28.809,49.805,36.133,40.527,0
1556290876.612,34.668,30.273,43.457,39.062,11.719,0
1556290876.616,43.457,29.785,36.621,28.809,7.324,0
1556290876.620,38.574,30.762,35.645,30.762,33.203,0
1556290876.624,36.133,31.250,39.551,30.273,10.254,0
1556290876.628,45.898,29.785,46.875,28.809,16.113,0
1556290876.631,42.969,25.391,44.434,24.414,21.484,0
1556290876.635,35.156,25.391,35.156,26.367,36.133,0
1556290876.639,25.391,29.297,30.762,23.438,43.945,0
1556290876.643,21.484,26.855,30.762,24.902,32.715,0
1556290876.647,31.738,26.367,30.273,24.902,78.125,0
1556290876.649,31.250,24.902,33.203,20.020,47.363,0
1556290876.653,23.438,26.367,41.016,25.391,-4.883,0
1556290876.657,26.367,28.320,43.945,32.715,14.160,0
1556290876.661,36.621,26.367,40.527,24.414,27.344,0
1556290876.665,41.504,25.879,37.109,17.578,47.363,0
1556290876.669,35.156,24.414,36.133,25.879,40.527,0
1556290876.673,22.949,23.438,42.480,25.879,-8.301,0
