timestamps,TP9,AF7,AF8,TP10,Right AUX,Marker0
1581445004.657,23.926,41.01600000000001,34.18,19.043,0.0,0
1581445004.661,17.578,23.438,35.645,20.02,0.0,0
1581445004.665,23.926,15.137,28.32,22.949,0.0,0
1581445004.669,31.738000000000003,26.855,30.762,22.949,0.0,0
1581445004.673,24.902,23.926,35.645,29.297,0.0,0
1581445004.677,23.438,9.766,24.902,31.738000000000003,0.0,0
1581445004.681,31.25,17.578,13.672,30.273000000000003,0.0,0
1581445004.684,29.785,43.457,10.742,19.043,0.0,0
1581445004.688,25.879,56.152,11.719,19.531,0.0,0
1581445004.6920002,18.066,47.852,27.344,22.461,0.0,0
1581445004.696,20.996,39.551,49.316,12.207,0.0,0
1581445004.7,30.762,31.25,46.875,16.113,0.0,0
1581445004.702,24.902,18.066,30.762,22.949,0.0,0
1581445004.706,17.09,24.414,19.531,26.367,0.0,0
1581445004.71,21.973000000000006,41.01600000000001,19.531,30.273000000000003,0.0,0
1581445004.714,31.25,36.621,30.273000000000003,28.809,0.0,0
1581445004.718,27.832,20.996,35.156,22.949,0.0,0
1581445004.722,15.137,26.367,21.973000000000006,19.531,0.0,0
1581445004.726,17.09,33.203,20.02,16.113,0.0,0
1581445004.729,22.461,23.926,38.086,18.555,0.0,0
1581445004.7329998,16.113,17.578,42.969,13.184,0.0,0
1581445004.7370002,14.16,18.066,41.504,11.23,0.0,0
1581445004.7410002,13.672,19.043,36.621,20.02,0.0,0
1581445004.745,15.625,29.297,18.555,17.09,0.0,0
1581445004.7470002,25.879,35.645,1.465,18.066,0.0,0
1581445004.7510002,22.461,34.668,3.418,17.09,0.0,0
1581445004.755,15.625,33.691,17.09,11.719,0.0,0
1581445004.7589998,21.484,32.715,31.25,11.719,0.0,0
1581445004.7629998,26.367,28.809,29.297,4.395,0.0,0
1581445004.7670002,28.809,16.602,25.879,15.137,0.0,0
1581445004.771,25.391,15.625,28.809,25.879,0.0,0
1581445004.774,15.137,27.832,19.043,16.602,0.0,0
1581445004.778,17.09,38.086,18.066,12.695,0.0,0
1581445004.782,21.484,39.062,23.438,17.578,0.0,0
1581445004.786,12.695,34.18,21.484,18.555,0.0,0
1581445004.79,9.766,31.25,22.461,18.555,0.0,0
1581445004.792,12.695,22.949,22.461,18.066,0.0,0
1581445004.796,12.695,23.438,24.902,17.09,0.0,0
1581445004.8,11.719,16.113,31.25,22.949,0.0,0
1581445004.804,9.277,11.23,22.949,23.438,0.0,0
1581445004.8079998,5.859,24.902,10.254,11.23,0.0,0
1581445004.812,2.93,28.809,11.719,4.395,0.0,0
1581445004.816,5.859,25.879,23.926,11.23,0.0,0
1581445004.819,4.883,17.09,24.414,17.09,0.0,0
1581445004.823,1.953,9.277,21.484,17.578,0.0,0
1581445004.827,9.766,22.949,33.203,11.719,0.0,0
1581445004.831,10.742,36.621,43.457,5.371,0.0,0
1581445004.835,2.93,37.598,43.457,12.207,0.0,0
1581445004.837,8.301,37.598,39.062,19.043,0.0,0
1581445004.841,15.625,36.621,36.621,15.625,0.0,0
1581445004.845,12.207,31.25,27.832,0.488,0.0,0
1581445004.849,6.836,33.203,31.738000000000003,5.371,0.0,0
1581445004.853,-6.348,37.598,34.668,6.836,0.0,0
1581445004.857,-22.949,25.879,23.926,-28.32,0.0,0
1581445004.861,-34.18,21.484,24.414,-50.293,0.0,0
1581445004.8639998,-44.922,34.18,25.391,-54.688,0.0,0
1581445004.8679998,-62.5,49.805,26.367,-63.477,0.0,0
1581445004.8720002,-67.383,55.176,30.273000000000003,-83.008,0.0,0
1581445004.8760002,-80.566,45.898,37.109,-106.934,0.0,0
1581445004.88,-114.258,33.691,48.828,-118.164,0.0,0
1581445004.8979998,-136.719,44.922,55.176,-136.719,0.0,0
1581445004.9020002,-150.879,50.293,61.035,-156.738,0.0,0
1581445004.906,-162.109,40.039,61.035,-172.363,0.0,0
1581445004.91,-178.22299999999996,42.48,55.664,-190.918,0.0,0
1581445004.914,-186.523,44.922,63.965,-191.406,0.0,0
1581445004.918,-188.477,41.01600000000001,65.43,-190.43,0.0,0
1581445004.9220002,-187.012,50.78100000000001,53.223,-208.008,0.0,0
1581445004.925,-182.129,44.434,67.383,-214.355,0.0,0
1581445004.929,-182.617,28.809,81.055,-190.43,0.0,0
1581445004.9329998,-177.24599999999995,49.805,65.43,-178.22299999999996,0.0,0
1581445004.937,-154.297,67.383,41.992,-170.898,0.0,0
1581445004.941,-129.395,55.176,41.01600000000001,-149.90200000000004,0.0,0
1581445004.927,-126.465,47.852,51.27,-132.812,0.0,0
1581445004.931,-120.117,42.969,49.316,-114.258,0.0,0
1581445004.935,-101.562,29.297,53.223,-105.469,0.0,0
1581445004.939,-81.543,31.25,49.316,-94.238,0.0,0
1581445004.9429998,-66.895,46.387,44.922,-68.848,0.0,0
1581445004.947,-70.312,40.527,32.715,-47.363,0.0,0
1581445004.951,-54.688,35.645,16.113,-32.715,0.0,0
1581445004.954,-20.996,37.109,5.371,-24.414,0.0,0
1581445004.958,-6.348,33.691,5.371,-9.766,0.0,0
1581445004.962,-4.883,34.668,26.367,12.695,0.0,0
1581445004.966,6.836,33.203,24.414,25.391,0.0,0
1581445004.97,32.715,28.32,6.836,33.203,0.0,0
1581445004.972,48.828,18.066,8.789,38.086,0.0,0
1581445004.976,55.664,9.766,16.602,43.945,0.0,0
1581445004.98,59.082,21.973000000000006,7.812,46.387,0.0,0
1581445004.984,58.594,39.062,-29.297,50.78100000000001,0.0,0
1581445004.988,71.289,42.969,-17.09,58.105,0.0,0
1581445004.992,67.383,38.574,30.762,59.082,0.0,0
1581445004.996,53.223,38.086,36.133,61.035,0.0,0
1581445004.9989998,66.895,21.973000000000006,20.508000000000006,72.266,0.0,0
1581445005.0029998,85.449,4.883,7.812,83.984,0.0,0
1581445005.0070002,88.37899999999998,12.695,16.602,85.449,0.0,0
1581445005.0110002,77.148,23.926,22.949,87.402,0.0,0
1581445005.015,75.195,23.926,14.16,94.238,0.0,0
1581445005.032,83.984,13.672,6.836,95.215,0.0,0
1581445005.036,81.543,7.812,-3.906,101.074,0.0,0
1581445005.04,73.242,10.742,0.977,113.281,0.0,0
1581445005.044,74.219,15.625,12.695,105.469,0.0,0
1581445005.048,86.914,15.137,9.766,96.191,0.0,0
1581445005.052,102.051,12.207,15.137,100.098,0.0,0
1581445005.056,96.191,13.672,19.531,99.609,0.0,0
1581445005.059,84.961,16.602,23.926,92.773,0.0,0
1581445005.063,96.68,26.367,20.996,92.773,0.0,0
1581445005.0670002,110.352,28.809,17.09,89.844,0.0,0
1581445005.071,106.934,28.809,2.93,98.145,0.0,0
1581445005.075,96.191,28.32,-20.508000000000006,99.121,0.0,0
1581445005.077,96.68,24.902,-8.789,83.49600000000002,0.0,0
1581445005.081,105.957,25.391,15.625,84.473,0.0,0
1581445005.085,102.539,21.973000000000006,27.344,80.566,0.0,0
1581445005.089,90.82,16.113,26.367,82.031,0.0,0
1581445005.093,89.355,11.719,21.973000000000006,86.914,0.0,0
1581445005.097,91.309,4.395,15.137,83.008,0.0,0
1581445005.101,81.543,12.207,15.137,79.59,0.0,0
1581445005.104,75.684,24.902,25.879,79.59,0.0,0
1581445005.1079998,68.848,21.973000000000006,22.461,81.055,0.0,0
1581445005.1120002,71.777,19.531,5.371,82.031,0.0,0
1581445005.1160002,83.984,22.949,12.695,82.52,0.0,0
1581445005.12,77.148,21.484,32.715,80.566,0.0,0
1581445005.123,65.918,13.672,37.109,80.566,0.0,0
1581445005.127,67.383,7.324,29.785,71.777,0.0,0
1581445005.131,73.73,11.719,25.391,63.477,0.0,0
1581445005.135,64.453,15.625,25.879,61.035,0.0,0
1581445005.139,49.316,10.254,24.902,66.406,0.0,0
1581445005.143,56.64100000000001,8.301,16.602,71.289,0.0,0
1581445005.147,69.824,11.23,11.23,63.965,0.0,0
1581445005.15,70.312,15.137,15.625,55.664,0.0,0
1581445005.154,64.453,22.461,19.531,54.199,0.0,0
1581445005.158,56.152,28.32,8.789,55.176,0.0,0
1581445005.1620002,64.453,29.297,0.0,52.734,0.0,0
1581445005.166,77.637,24.902,13.672,56.64100000000001,0.0,0
1581445005.168,69.824,15.625,30.273000000000003,62.988,0.0,0
1581445005.1720002,60.059,8.789,34.668,66.406,0.0,0
1581445005.176,68.848,15.625,28.809,76.66,0.0,0
1581445005.18,69.336,20.996,25.879,73.73,0.0,0
1581445005.184,62.988,17.578,31.25,73.242,0.0,0
1581445005.188,55.664,18.555,26.855,76.66,0.0,0
1581445005.1920002,52.734,16.113,12.207,63.477,0.0,0
1581445005.195,59.57,18.066,14.648,61.035,0.0,0
1581445005.199,60.059,27.832,30.273000000000003,66.895,0.0,0
1581445005.2029998,47.852,29.297,32.715,64.453,0.0,0
1581445005.207,44.434,18.555,19.043,64.941,0.0,0
1581445005.211,52.734,5.859,19.531,69.824,0.0,0
1581445005.2129998,47.852,7.812,34.668,65.43,0.0,0
1581445005.217,32.715,17.578,39.551,52.246,0.0,0
1581445005.221,31.738000000000003,13.184,36.133,49.805,0.0,0
1581445005.225,44.434,2.93,31.738000000000003,51.758,0.0,0
1581445005.229,51.27,7.324,15.137,46.875,0.0,0
1581445005.2329998,41.504,21.484,6.836,41.992,0.0,0
1581445005.2370002,33.691,30.273000000000003,24.902,44.434,0.0,0
1581445005.24,41.01600000000001,31.738000000000003,21.484,41.01600000000001,0.0,0
1581445005.244,49.805,21.973000000000006,7.324,38.574,0.0,0
1581445005.248,48.34,19.043,18.555,43.457,0.0,0
1581445005.252,36.621,21.973000000000006,27.832,38.086,0.0,0
1581445005.256,41.992,19.043,27.832,40.527,0.0,0
1581445005.258,62.5,27.344,18.066,42.969,0.0,0
1581445005.262,55.664,39.551,2.93,39.062,0.0,0
1581445005.266,38.574,45.41,-5.859,43.457,0.0,0
1581445005.27,44.922,33.203,6.836,42.48,0.0,0
1581445005.274,50.78100000000001,25.879,24.414,28.32,0.0,0
1581445005.278,45.41,39.062,30.273000000000003,20.996,0.0,0
1581445005.282,32.227,31.738000000000003,31.25,17.578,0.0,0
1581445005.285,31.25,14.648,26.855,16.602,0.0,0
1581445005.289,44.922,25.391,19.531,12.207,0.0,0
1581445005.293,45.41,42.48,12.207,9.277,0.0,0
1581445005.2970002,35.156,38.574,19.531,16.113,0.0,0
1581445005.301,39.062,30.273000000000003,13.672,34.668,0.0,0
1581445005.303,36.133,38.574,9.766,33.203,0.0,0
1581445005.3070002,32.227,32.227,14.16,14.648,0.0,0
1581445005.311,33.691,27.832,12.695,16.602,0.0,0
1581445005.315,26.855,21.973000000000006,25.391,22.461,0.0,0
1581445005.319,27.832,10.742,35.156,21.973000000000006,0.0,0
1581445005.323,40.527,24.902,36.621,16.602,0.0,0
1581445005.327,31.25,36.621,41.504,12.207,0.0,0
1581445005.33,16.602,37.598,37.109,17.09,0.0,0
1581445005.334,27.832,34.18,21.973000000000006,22.949,0.0,0
1581445005.3379998,38.086,31.738000000000003,19.531,23.438,0.0,0
1581445005.342,33.203,23.438,20.508000000000006,25.391,0.0,0
1581445005.346,27.344,10.742,7.324,30.273000000000003,0.0,0
1581445005.3479998,30.273000000000003,13.184,5.859,35.156,0.0,0
1581445005.3520002,35.645,21.973000000000006,24.902,25.391,0.0,0
1581445005.356,45.898,25.391,38.574,25.391,0.0,0
1581445005.36,47.852,20.996,45.41,30.273000000000003,0.0,0
1581445005.3639998,36.621,25.391,40.039,23.438,0.0,0
1581445005.3679998,38.574,33.691,28.809,28.809,0.0,0
1581445005.3720002,41.504,31.738000000000003,20.996,32.715,0.0,0
1581445005.375,48.34,31.25,14.648,28.32,0.0,0
1581445005.379,39.062,27.832,18.555,31.738000000000003,0.0,0
1581445005.383,27.344,23.926,31.25,30.273000000000003,0.0,0
1581445005.387,43.945,29.785,28.32,32.227,0.0,0
1581445005.391,43.945,27.344,27.344,38.574,0.0,0
1581445005.408,36.621,15.625,26.367,36.133,0.0,0
1581445005.4120002,33.203,16.602,19.531,46.875,0.0,0
1581445005.416,30.762,19.043,23.926,46.875,0.0,0
1581445005.42,39.062,7.324,30.273000000000003,42.48,0.0,0
1581445005.424,31.738000000000003,11.719,30.273000000000003,44.434,0.0,0
1581445005.428,19.531,31.738000000000003,25.391,41.01600000000001,0.0,0
1581445005.4320002,30.762,42.48,29.297,43.945,0.0,0
1581445005.435,32.227,36.621,38.086,34.668,0.0,0
1581445005.439,23.438,28.32,42.969,33.691,0.0,0
1581445005.4429998,17.578,26.855,40.527,44.434,0.0,0
1581445005.447,15.625,16.602,20.02,48.34,0.0,0
1581445005.451,26.367,24.414,-1.465,47.852,0.0,0
1581445005.4529998,31.25,37.598,12.695,43.945,0.0,0
1581445005.457,24.902,30.273000000000003,27.832,41.01600000000001,0.0,0
1581445005.461,20.02,20.508000000000006,28.32,44.434,0.0,0
1581445005.465,34.668,7.812,31.738000000000003,43.457,0.0,0
1581445005.469,42.48,0.488,29.785,34.18,0.0,0
1581445005.4729998,29.297,20.508000000000006,28.32,35.156,0.0,0
1581445005.4770002,27.832,48.828,24.902,41.504,0.0,0
1581445005.48,39.062,53.223,15.625,40.527,0.0,0
1581445005.484,39.551,41.504,16.113,32.227,0.0,0
1581445005.488,34.18,27.344,17.578,33.691,0.0,0
1581445005.492,34.668,22.949,18.066,48.828,0.0,0
1581445005.496,35.645,33.203,7.324,42.969,0.0,0
1581445005.498,43.457,41.01600000000001,12.695,29.297,0.0,0
1581445005.502,39.062,35.645,25.391,32.227,0.0,0
1581445005.506,35.645,21.484,21.973000000000006,36.621,0.0,0
1581445005.51,38.574,25.391,22.949,30.273000000000003,0.0,0
1581445005.514,29.785,26.367,29.297,17.09,0.0,0
1581445005.518,19.043,17.09,20.996,8.789,0.0,0
1581445005.522,15.625,18.066,16.602,20.508000000000006,0.0,0
1581445005.525,27.344,13.184,27.832,31.738000000000003,0.0,0
1581445005.529,36.133,7.324,29.785,7.812,0.0,0
1581445005.533,33.691,18.555,34.18,6.836,0.0,0
1581445005.5370002,19.043,33.691,36.133,23.926,0.0,0
1581445005.541,19.531,34.668,31.25,20.996,0.0,0
1581445005.543,29.785,29.785,26.367,13.184,0.0,0
1581445005.5470002,32.227,29.785,20.508000000000006,4.395,0.0,0
1581445005.551,24.902,29.785,27.344,0.977,0.0,0
1581445005.555,20.02,22.461,32.715,10.742,0.0,0
1581445005.559,28.809,13.672,25.879,20.508000000000006,0.0,0
1581445005.563,45.898,12.207,14.16,21.484,0.0,0
1581445005.5670002,46.387,17.578,12.207,19.531,0.0,0
1581445005.57,33.203,25.391,21.484,25.879,0.0,0
1581445005.574,31.738000000000003,25.391,20.02,20.02,0.0,0
1581445005.5779998,40.527,23.438,16.602,15.137,0.0,0
1581445005.582,44.922,21.973000000000006,26.367,13.184,0.0,0
1581445005.586,39.551,16.602,36.621,12.695,0.0,0
1581445005.5879998,42.48,22.949,41.01600000000001,22.949,0.0,0
1581445005.592,46.387,33.691,40.039,17.09,0.0,0
1581445005.596,43.457,28.809,31.25,15.137,0.0,0
1581445005.6,37.109,23.926,25.391,19.531,0.0,0
1581445005.604,36.133,26.367,24.414,21.973000000000006,0.0,0
1581445005.6079998,48.34,28.809,22.461,24.414,0.0,0
1581445005.6120002,55.176,21.484,35.156,17.578,0.0,0
1581445005.615,39.062,20.508000000000006,40.039,16.113,0.0,0
1581445005.619,35.645,23.438,31.738000000000003,16.602,0.0,0
1581445005.623,48.828,24.902,20.508000000000006,19.043,0.0,0
1581445005.627,52.734,24.902,23.926,19.531,0.0,0
1581445005.631,58.594,20.02,29.297,20.508000000000006,0.0,0
1581445005.633,51.758,22.949,25.391,21.484,0.0,0
1581445005.637,49.316,23.926,22.949,13.672,0.0,0
1581445005.641,59.082,12.695,32.227,8.301,0.0,0
1581445005.645,59.57,20.508000000000006,37.598,5.859,0.0,0
1581445005.649,48.34,38.086,28.809,6.348,0.0,0
1581445005.653,36.621,19.043,25.391,16.113,0.0,0
1581445005.657,42.48,-8.301,27.344,12.207,0.0,0
1581445005.66,41.992,17.09,22.949,-1.953,0.0,0
1581445005.664,37.598,49.316,18.066,5.371,0.0,0
1581445005.668,30.762,42.48,21.973000000000006,15.625,0.0,0
1581445005.6720002,26.367,21.484,16.602,16.113,0.0,0
1581445005.676,38.086,15.625,13.672,13.672,0.0,0
1581445005.678,33.691,20.508000000000006,25.391,16.113,0.0,0
1581445005.6820002,14.648,20.996,26.855,17.578,0.0,0
1581445005.686,17.09,16.113,33.203,21.973000000000006,0.0,0
1581445005.69,20.508000000000006,15.137,42.48,22.461,0.0,0
1581445005.694,15.137,13.672,40.527,17.09,0.0,0
1581445005.698,13.672,9.277,27.344,20.02,0.0,0
1581445005.702,21.484,3.418,28.32,32.715,0.0,0
1581445005.705,25.879,9.766,31.738000000000003,29.785,0.0,0
1581445005.709,33.203,29.785,22.461,26.367,0.0,0
1581445005.7129998,40.039,38.086,17.578,28.32,0.0,0
1581445005.717,28.32,32.715,13.672,21.973000000000006,0.0,0
1581445005.721,26.367,19.043,11.23,11.719,0.0,0
1581445005.738,30.273000000000003,16.602,23.438,11.719,0.0,0
1581445005.742,25.879,17.578,30.273000000000003,24.414,0.0,0
1581445005.746,26.855,4.395,30.762,25.391,0.0,0
1581445005.75,27.832,7.812,31.738000000000003,18.555,0.0,0
1581445005.754,25.391,21.973000000000006,27.344,19.531,0.0,0
1581445005.758,14.648,30.762,24.902,23.926,0.0,0
1581445005.762,1.953,33.203,26.855,21.484,0.0,0
1581445005.765,7.324,38.086,13.672,23.926,0.0,0
1581445005.769,21.484,28.32,5.859,26.367,0.0,0
1581445005.7729998,17.578,13.184,26.367,20.508000000000006,0.0,0
1581445005.7770002,3.418,15.137,34.668,16.602,0.0,0
1581445005.781,-2.441,21.973000000000006,20.508000000000006,7.812,0.0,0
1581445005.783,-2.93,28.32,8.789,9.277,0.0,0
1581445005.7870002,3.418,30.762,18.066,13.672,0.0,0
1581445005.791,3.906,25.391,30.273000000000003,21.484,0.0,0
1581445005.795,-0.977,17.09,27.344,25.391,0.0,0
1581445005.799,4.395,19.043,18.555,17.09,0.0,0
1581445005.803,17.578,16.113,10.254,21.484,0.0,0
1581445005.8070002,24.902,3.906,13.184,28.809,0.0,0
1581445005.81,20.508000000000006,9.277,23.926,34.18,0.0,0
1581445005.814,16.113,33.203,26.855,29.297,0.0,0
1581445005.8179998,17.578,46.387,27.344,16.113,0.0,0
1581445005.822,18.555,42.48,23.438,11.23,0.0,0
1581445005.826,10.742,32.227,11.719,18.555,0.0,0
1581445005.8279998,4.395,24.414,22.461,18.555,0.0,0
1581445005.832,27.832,15.137,31.25,18.066,0.0,0
1581445005.836,33.203,15.625,27.344,25.879,0.0,0
1581445005.84,12.207,28.809,26.855,32.227,0.0,0
1581445005.844,19.531,33.203,20.996,30.273000000000003,0.0,0
1581445005.8479998,30.762,28.32,23.438,24.902,0.0,0
1581445005.8520002,24.414,22.949,30.762,27.344,0.0,0
1581445005.855,16.602,15.625,36.133,29.785,0.0,0
1581445005.859,15.137,16.602,35.645,29.785,0.0,0
1581445005.863,20.508000000000006,21.484,24.902,20.996,0.0,0
1581445005.867,30.273000000000003,20.996,15.625,23.438,0.0,0
1581445005.871,37.598,15.625,11.719,35.156,0.0,0
1581445005.873,24.902,9.277,23.438,33.691,0.0,0
1581445005.877,19.043,22.461,34.18,31.25,0.0,0
1581445005.881,31.25,27.832,41.01600000000001,28.809,0.0,0
1581445005.885,26.367,33.691,41.01600000000001,20.02,0.0,0
1581445005.889,15.137,44.434,30.273000000000003,23.438,0.0,0
1581445005.893,20.996,28.32,25.391,33.203,0.0,0
1581445005.897,38.086,12.207,26.367,35.645,0.0,0
1581445005.9,33.203,20.996,28.32,34.668,0.0,0
1581445005.904,5.371,30.273000000000003,28.32,27.344,0.0,0
1581445005.908,-3.906,36.133,26.367,9.766,0.0,0
1581445005.9120002,8.789,39.551,32.715,8.301,0.0,0
1581445005.916,21.973000000000006,19.531,24.902,14.648,0.0,0
1581445005.917,15.625,3.418,19.531,17.09,0.0,0
1581445005.921,4.395,22.949,32.227,14.16,0.0,0
1581445005.925,16.602,46.875,33.203,8.301,0.0,0
1581445005.929,26.367,43.945,29.785,4.395,0.0,0
1581445005.9329998,26.367,35.645,25.879,6.348,0.0,0
1581445005.937,21.484,30.762,18.066,20.996,0.0,0
1581445005.941,30.273000000000003,19.043,11.719,24.414,0.0,0
1581445005.944,37.109,10.742,13.184,16.602,0.0,0
1581445005.948,24.414,6.836,26.855,17.09,0.0,0
1581445005.952,19.531,20.996,37.109,22.461,0.0,0
1581445005.956,18.555,31.25,42.969,21.484,0.0,0
1581445005.96,13.672,32.715,41.992,8.789,0.0,0
1581445005.962,9.277,30.762,36.133,9.766,0.0,0
1581445005.966,4.883,25.391,31.25,17.09,0.0,0
1581445005.97,9.277,17.09,27.344,17.578,0.0,0
1581445005.974,19.043,7.812,23.438,13.184,0.0,0
1581445005.978,20.996,21.484,21.484,13.184,0.0,0
1581445005.982,13.672,22.949,20.02,17.09,0.0,0
1581445005.986,6.348,8.301,8.789,14.648,0.0,0
1581445005.9889998,17.09,11.23,6.836,17.578,0.0,0
1581445005.9929998,29.785,17.578,21.484,12.695,0.0,0
1581445005.9970002,27.344,12.207,38.086,9.277,0.0,0
1581445006.0010002,22.949,16.602,47.363,19.043,0.0,0
1581445006.005,18.555,30.273000000000003,42.969,21.484,0.0,0
1581445006.0070002,27.832,35.645,32.715,13.672,0.0,0
1581445006.0110002,29.785,33.691,34.18,12.207,0.0,0
1581445006.015,27.832,24.414,37.598,26.855,0.0,0
1581445006.019,38.574,19.043,28.32,32.715,0.0,0
1581445006.0229998,34.18,16.602,13.672,32.227,0.0,0
1581445006.0270002,33.691,18.066,11.23,29.785,0.0,0
1581445006.031,27.344,22.461,17.578,23.926,0.0,0
1581445006.034,18.555,12.695,28.809,22.461,0.0,0
1581445006.038,16.113,14.16,33.691,21.973000000000006,0.0,0
1581445006.042,24.902,16.602,26.367,31.25,0.0,0
1581445006.046,18.066,12.695,27.344,40.527,0.0,0
1581445006.05,10.742,24.902,35.156,41.01600000000001,0.0,0
1581445006.052,22.461,33.203,33.203,34.668,0.0,0
1581445006.056,39.551,31.738000000000003,23.438,22.949,0.0,0
1581445006.06,41.01600000000001,11.719,16.113,20.996,0.0,0
1581445006.064,13.672,4.883,19.043,30.762,0.0,0
1581445006.0679998,17.09,27.832,32.227,26.367,0.0,0
1581445006.072,33.203,31.738000000000003,36.621,20.508000000000006,0.0,0
1581445006.076,18.555,24.902,35.645,15.625,0.0,0
1581445006.079,6.836,20.02,36.133,9.766,0.0,0
1581445006.083,19.043,6.348,30.762,21.484,0.0,0
1581445006.087,35.156,7.324,33.203,27.832,0.0,0
1581445006.091,32.227,24.414,29.297,18.066,0.0,0
1581445006.095,19.043,27.344,17.09,12.695,0.0,0
1581445006.1120002,30.762,31.738000000000003,17.09,18.555,0.0,1
1581445006.1160002,39.062,32.227,24.902,15.137,0.0,0
1581445006.12,30.273000000000003,26.855,28.809,7.324,0.0,0
1581445006.1239998,23.926,29.785,21.973000000000006,14.16,0.0,0
1581445006.1279998,20.508000000000006,27.344,28.32,24.414,0.0,0
1581445006.1320002,20.02,23.926,28.32,20.996,0.0,0
1581445006.1360002,20.508000000000006,19.043,24.414,18.066,0.0,0
1581445006.139,18.066,15.137,20.996,27.832,0.0,0
1581445006.143,11.23,21.484,18.066,26.855,0.0,0
1581445006.147,14.648,20.996,29.785,22.949,0.0,0
1581445006.151,34.18,18.066,26.367,26.367,0.0,0
1581445006.155,38.574,25.391,21.973000000000006,20.02,0.0,0
1581445006.157,12.695,27.832,33.203,12.207,0.0,0
1581445006.161,0.977,19.043,37.109,2.441,0.0,0
1581445006.165,11.719,17.578,35.156,-1.465,0.0,0
1581445006.169,26.367,28.32,35.645,12.207,0.0,0
1581445006.173,28.32,32.715,21.484,19.043,0.0,0
1581445006.177,21.484,21.973000000000006,18.066,16.602,0.0,0
1581445006.181,28.32,19.531,23.438,19.531,0.0,0
1581445006.184,23.438,34.668,21.484,17.09,0.0,0
1581445006.188,14.16,19.531,28.32,21.484,0.0,0
1581445006.1920002,7.324,-6.348,35.645,26.855,0.0,0
1581445006.196,10.742,1.953,38.574,11.23,0.0,0
1581445006.2,32.227,21.484,28.809,34.18,0.0,0
1581445006.202,35.156,40.527,36.133,34.18,0.0,0
1581445006.206,2.93,46.875,44.922,0.0,0.0,0
1581445006.21,-2.93,41.992,23.926,0.0,0.0,0
1581445006.214,27.344,33.691,7.812,10.254,0.0,0
1581445006.218,35.645,31.738000000000003,30.762,21.973000000000006,0.0,0
1581445006.222,11.23,22.949,39.551,21.973000000000006,0.0,0
1581445006.226,7.812,15.137,21.484,19.043,0.0,0
1581445006.229,20.996,17.09,25.391,25.879,0.0,0
1581445006.2329998,28.32,6.348,41.01600000000001,30.762,0.0,0
1581445006.2370002,26.855,5.371,11.719,31.25,0.0,0
1581445006.2410002,28.32,34.668,-20.996,49.316,0.0,0
1581445006.245,35.156,54.688,11.719,56.152,0.0,0
1581445006.2470002,25.879,36.133,51.27,29.297,0.0,0
1581445006.2510002,31.25,18.066,51.27,32.715,0.0,0
1581445006.255,28.809,13.672,51.27,42.969,0.0,0
1581445006.2589998,7.324,21.973000000000006,48.828,23.926,0.0,0
1581445006.2629998,9.766,37.598,23.926,9.277,0.0,0
1581445006.2670002,14.16,40.527,20.508000000000006,19.531,0.0,0
1581445006.271,20.02,33.691,36.133,30.273000000000003,0.0,0
1581445006.274,18.066,25.879,38.086,21.973000000000006,0.0,0
1581445006.278,22.461,21.973000000000006,36.133,17.578,0.0,0
1581445006.282,28.809,23.926,25.879,23.438,0.0,0
1581445006.286,24.902,24.414,17.578,25.391,0.0,0
1581445006.29,20.996,22.949,22.461,26.367,0.0,0
1581445006.293,30.273000000000003,12.207,18.555,22.461,0.0,0
1581445006.2970002,34.18,9.766,24.902,12.695,0.0,0
1581445006.301,26.855,26.367,25.391,18.066,0.0,0
1581445006.305,21.484,28.809,14.648,20.02,0.0,0
1581445006.309,32.715,24.414,27.344,22.461,0.0,0
1581445006.313,40.527,26.855,28.809,25.879,0.0,0
1581445006.3170002,41.992,30.762,16.602,19.043,0.0,0
1581445006.32,26.855,30.762,19.043,17.09,0.0,0
1581445006.324,19.043,20.02,28.32,23.438,0.0,0
1581445006.3279998,32.227,19.043,28.32,23.438,0.0,0
1581445006.332,37.109,4.395,30.762,22.949,0.0,0
1581445006.336,43.945,-4.395,22.949,41.504,0.0,0
1581445006.3379998,52.246,20.02,27.344,71.289,0.0,0
1581445006.342,31.738000000000003,29.785,40.039,35.645,0.0,0
1581445006.346,4.395,30.273000000000003,31.738000000000003,-13.672,0.0,0
1581445006.35,12.207,33.691,25.879,-4.395,0.0,0
1581445006.354,14.16,37.109,15.137,7.812,0.0,0
1581445006.3579998,3.418,26.855,16.602,-8.301,0.0,0
1581445006.3620002,-0.977,18.066,22.949,-27.344,0.0,0
1581445006.365,7.812,24.414,33.203,-10.742,0.0,0
1581445006.369,7.324,26.855,38.574,-4.883,0.0,0
1581445006.373,9.766,26.855,17.578,-2.441,0.0,0
1581445006.377,26.367,21.973000000000006,15.625,4.883,0.0,0
1581445006.381,29.785,11.719,39.062,-1.465,0.0,0
1581445006.383,17.09,20.02,43.945,-7.812,0.0,0
1581445006.387,10.254,23.438,32.227,1.465,0.0,0
1581445006.391,19.531,8.301,21.484,11.23,0.0,0
1581445006.395,24.902,6.836,22.461,6.836,0.0,0
1581445006.399,14.16,16.113,35.645,2.93,0.0,0
1581445006.403,-3.906,25.391,39.551,-2.93,0.0,0
1581445006.407,5.859,33.691,37.109,-1.465,0.0,0
1581445006.41,33.691,32.715,35.156,11.719,0.0,0
1581445006.414,20.02,24.902,22.461,22.461,0.0,0
1581445006.418,-3.418,20.02,22.949,28.809,0.0,0
1581445006.4220002,16.113,24.414,27.832,23.438,0.0,0
1581445006.426,30.273000000000003,23.926,28.809,17.578,0.0,0
1581445006.428,11.719,12.207,42.48,30.762,0.0,0
1581445006.4320002,0.977,11.23,35.156,26.855,0.0,0
1581445006.436,11.23,25.391,23.926,27.344,0.0,0
1581445006.44,20.508000000000006,29.297,33.691,31.738000000000003,0.0,0
1581445006.444,8.789,24.902,37.598,15.137,0.0,0
1581445006.448,-1.465,20.996,27.832,15.625,0.0,0
1581445006.452,14.648,10.254,19.531,22.461,0.0,0
1581445006.455,32.227,7.812,24.902,20.02,0.0,0
1581445006.459,28.809,20.996,31.738000000000003,18.066,0.0,0
1581445006.4629998,6.348,16.602,20.996,15.137,0.0,0
1581445006.467,0.977,7.324,21.973000000000006,15.137,0.0,0
1581445006.471,22.949,19.043,36.133,20.996,0.0,0
1581445006.4729998,31.25,25.391,23.926,18.555,0.0,0
1581445006.4770002,14.648,33.203,20.508000000000006,24.414,0.0,0
1581445006.481,15.137,32.715,27.344,26.855,0.0,0
1581445006.485,34.668,14.16,31.25,14.648,0.0,0
1581445006.4889998,36.133,20.02,32.715,6.836,0.0,0
1581445006.4929998,23.926,31.25,15.625,8.301,0.0,0
1581445006.4970002,35.645,19.531,10.254,29.785,0.0,0
1581445006.5,47.852,31.25,9.277,41.01600000000001,0.0,0
1581445006.504,49.805,49.805,16.113,28.809,0.0,0
1581445006.508,20.996,24.414,40.039,6.836,0.0,0
1581445006.512,7.812,-5.859,38.574,6.836,0.0,0
1581445006.516,23.438,7.324,31.25,12.207,0.0,0
1581445006.533,26.855,31.738000000000003,39.551,2.93,0.0,0
1581445006.5370002,30.762,31.738000000000003,20.02,9.766,0.0,0
1581445006.541,27.344,26.367,13.184,17.578,0.0,0
1581445006.545,23.438,25.391,30.762,14.16,0.0,0
1581445006.549,18.555,26.367,36.133,16.602,0.0,0
1581445006.553,25.391,25.879,32.227,18.066,0.0,0
1581445006.5570002,27.832,30.762,31.738000000000003,20.996,0.0,0
1581445006.56,20.02,38.086,35.156,20.996,0.0,0
1581445006.564,30.273000000000003,29.785,28.32,13.672,0.0,0
1581445006.5679998,43.457,15.137,10.742,16.602,0.0,0
1581445006.572,42.48,25.879,26.367,23.438,0.0,0
1581445006.576,39.062,48.828,48.34,29.297,0.0,0
1581445006.5779998,42.48,46.875,38.086,29.297,0.0,0
1581445006.582,39.551,35.156,35.156,16.113,0.0,0
1581445006.586,31.25,27.832,41.992,17.09,0.0,0
1581445006.59,17.09,28.809,26.367,18.066,0.0,0
1581445006.594,16.113,41.01600000000001,14.648,25.391,0.0,0
1581445006.5979998,30.762,35.645,15.137,30.273000000000003,0.0,0
1581445006.6020002,35.645,19.043,13.672,28.32,0.0,0
1581445006.605,38.086,11.23,19.531,39.062,0.0,0
1581445006.609,26.855,19.531,20.508000000000006,40.039,0.0,0
1581445006.613,21.484,29.297,24.902,32.715,0.0,0
1581445006.617,29.785,32.227,29.785,41.01600000000001,0.0,0
1581445006.621,23.926,31.738000000000003,20.508000000000006,48.828,0.0,0
1581445006.623,18.555,33.203,16.602,52.246,0.0,0
1581445006.627,26.367,37.598,20.02,52.246,0.0,0
1581445006.631,38.574,37.598,27.832,33.691,0.0,0
1581445006.635,38.574,28.809,26.855,29.297,0.0,0
1581445006.639,27.832,20.996,25.391,34.668,0.0,0
1581445006.643,24.414,16.602,33.203,29.297,0.0,0
1581445006.647,36.133,23.926,41.01600000000001,22.461,0.0,0
1581445006.65,43.945,35.156,18.066,25.391,0.0,0
1581445006.654,27.832,29.297,6.836,29.785,0.0,0
1581445006.658,23.926,34.18,37.109,27.344,0.0,0
1581445006.6620002,30.273000000000003,35.645,21.973000000000006,14.16,0.0,0
1581445006.666,27.832,25.391,12.207,3.906,0.0,0
1581445006.668,14.16,15.625,28.809,4.395,0.0,0
1581445006.6720002,5.859,15.137,35.156,7.812,0.0,0
1581445006.676,17.578,27.344,36.621,13.672,0.0,0
1581445006.68,19.043,22.461,31.738000000000003,13.184,0.0,0
1581445006.684,11.23,8.789,29.785,13.672,0.0,0
1581445006.688,13.184,11.23,26.367,26.855,0.0,0
1581445006.6920002,12.695,23.438,20.02,26.367,0.0,0
1581445006.695,14.648,41.992,18.555,20.508000000000006,0.0,0
1581445006.699,21.973000000000006,47.852,22.461,18.066,0.0,0
1581445006.7029998,7.324,37.598,26.367,9.766,0.0,0
1581445006.707,10.254,33.203,32.715,15.625,0.0,0
1581445006.711,20.996,26.367,41.01600000000001,23.438,0.0,0
1581445006.7129998,21.973000000000006,20.508000000000006,28.809,24.902,0.0,0
1581445006.717,24.902,20.02,31.25,34.18,0.0,0
1581445006.721,30.762,18.066,42.48,40.039,0.0,0
1581445006.725,33.203,21.484,19.043,36.621,0.0,0
1581445006.729,29.785,14.16,9.766,29.785,0.0,0
1581445006.7329998,9.277,10.742,32.715,15.137,0.0,0
1581445006.7370002,-1.953,28.809,47.363,13.672,0.0,0
1581445006.74,2.441,33.203,35.645,21.973000000000006,0.0,0
1581445006.744,9.766,25.879,31.738000000000003,25.391,0.0,0
1581445006.748,3.418,29.297,41.504,23.438,0.0,0
1581445006.752,-12.695,30.273000000000003,41.992,18.066,0.0,0
1581445006.756,-4.395,23.438,30.762,17.578,0.0,0
1581445006.758,5.371,12.695,29.297,20.996,0.0,0
1581445006.762,5.371,6.836,18.066,30.762,0.0,0
1581445006.766,4.883,15.625,1.465,34.18,0.0,0
1581445006.77,4.395,27.344,23.926,27.832,0.0,0
1581445006.774,12.207,21.484,44.434,26.855,0.0,0
1581445006.778,16.602,19.043,50.78100000000001,22.461,0.0,0
1581445006.782,2.93,30.762,42.969,15.137,0.0,0
1581445006.785,-3.418,34.18,31.25,8.789,0.0,0
1581445006.789,10.254,30.762,21.973000000000006,16.113,0.0,0
1581445006.793,15.625,29.785,6.836,21.484,0.0,0
1581445006.7970002,12.695,14.648,9.766,24.414,0.0,0
1581445006.801,4.395,1.953,15.625,31.738000000000003,0.0,0
1581445006.803,1.465,23.438,19.043,16.113,0.0,0
1581445006.8070002,14.16,42.48,37.109,9.766,0.0,0
1581445006.811,9.277,41.992,45.898,20.996,0.0,0
1581445006.815,-5.371,44.434,35.645,23.926,0.0,0
1581445006.819,-4.395,41.504,32.227,19.531,0.0,0
1581445006.823,2.93,33.691,38.086,15.625,0.0,0
1581445006.827,2.93,26.855,39.551,10.254,0.0,0
1581445006.83,-9.277,20.508000000000006,6.836,13.672,0.0,0
1581445006.834,-9.766,20.508000000000006,-3.418,20.02,0.0,0
1581445006.8379998,-2.441,15.137,36.621,11.23,0.0,0
1581445006.842,2.93,4.395,52.246,13.672,0.0,0
1581445006.846,-2.441,11.23,35.645,14.648,0.0,0
1581445006.8479998,-5.371,29.785,31.25,5.371,0.0,0
1581445006.8520002,11.23,38.574,41.992,8.301,0.0,0
1581445006.856,27.832,40.527,30.273000000000003,15.137,0.0,0
1581445006.86,15.625,36.621,15.137,16.113,0.0,0
1581445006.8639998,13.672,39.551,16.602,21.484,0.0,0
1581445006.8679998,25.879,24.414,19.531,16.113,0.0,0
1581445006.8720002,27.344,8.301,20.02,1.953,0.0,0
1581445006.875,20.996,22.461,15.625,9.766,0.0,0
1581445006.879,10.254,23.438,11.23,6.836,0.0,0
1581445006.883,12.207,10.742,25.879,-0.488,0.0,0
1581445006.887,26.855,12.207,39.062,-2.441,0.0,0
1581445006.891,27.832,28.809,35.645,-3.418,0.0,0
1581445006.908,18.066,37.109,26.855,0.977,0.0,0
1581445006.9120002,15.137,36.133,21.973000000000006,3.418,0.0,0
1581445006.916,25.391,38.574,24.414,0.0,0.0,0
1581445006.92,32.227,37.598,29.785,2.441,0.0,0
1581445006.924,23.926,31.25,22.461,13.184,0.0,0
1581445006.928,15.137,25.391,14.16,16.602,0.0,0
1581445006.9320002,23.926,13.184,22.949,9.277,0.0,0
1581445006.935,32.227,5.859,25.391,4.883,0.0,0
1581445006.939,20.508000000000006,16.602,28.32,7.324,0.0,0
1581445006.9429998,8.301,28.32,41.504,16.602,0.0,0
1581445006.947,9.766,31.738000000000003,39.551,22.949,0.0,0
1581445006.951,20.996,35.645,9.277,22.949,0.0,0
1581445006.952,30.273000000000003,33.691,7.324,26.855,0.0,0
1581445006.956,27.832,25.391,39.551,27.832,0.0,0
1581445006.96,27.832,19.531,47.363,28.809,0.0,0
1581445006.964,41.01600000000001,15.137,29.785,27.344,0.0,0
1581445006.968,45.898,15.625,20.996,25.391,0.0,0
1581445006.972,27.832,18.066,21.973000000000006,23.926,0.0,0
1581445006.976,15.137,13.672,28.32,17.578,0.0,0
1581445006.979,28.809,10.742,32.227,13.672,0.0,0
1581445006.9829998,39.551,22.461,13.672,10.742,0.0,0
1581445006.9870002,34.668,21.484,9.277,21.973000000000006,0.0,0
1581445006.9910002,24.414,23.438,27.832,15.625,0.0,0
1581445006.995,27.344,34.18,40.527,4.883,0.0,0
1581445006.9970002,39.551,32.715,35.645,17.09,0.0,0
1581445007.0010002,42.48,19.531,25.391,20.996,0.0,0
1581445007.005,35.645,7.324,25.391,25.391,0.0,0
1581445007.0089998,28.809,9.277,31.25,26.855,0.0,0
1581445007.0129998,36.621,21.484,31.25,18.066,0.0,0
1581445007.0170002,40.039,33.203,23.926,17.09,0.0,0
1581445007.021,30.762,32.227,20.996,18.555,0.0,0
1581445007.024,37.109,32.715,34.18,30.762,0.0,0
1581445007.028,58.594,20.508000000000006,35.645,28.809,0.0,0
1581445007.032,56.152,10.742,37.598,18.555,0.0,0
1581445007.036,26.367,19.531,41.01600000000001,24.414,0.0,0
1581445007.04,24.414,28.32,39.062,26.367,0.0,0
1581445007.042,47.363,22.949,29.785,26.855,0.0,0
1581445007.046,45.898,15.625,19.043,27.344,0.0,0
1581445007.05,30.762,27.832,16.113,22.461,0.0,0
1581445007.054,23.926,37.109,20.508000000000006,20.508000000000006,0.0,0
1581445007.0579998,27.344,32.715,34.18,20.996,0.0,0
1581445007.062,33.203,24.414,36.133,14.648,0.0,0
1581445007.066,31.25,17.09,36.621,15.625,0.0,0
1581445007.069,23.926,14.648,39.551,19.043,0.0,0
1581445007.073,28.32,19.531,35.156,13.184,0.0,0
1581445007.077,36.621,20.508000000000006,27.832,20.02,0.0,0
1581445007.081,38.086,20.508000000000006,12.207,18.555,0.0,0
1581445007.085,33.691,29.785,12.207,11.719,0.0,0
1581445007.087,32.715,31.738000000000003,24.414,4.395,0.0,0
1581445007.091,35.645,21.973000000000006,30.762,-1.953,0.0,0
1581445007.095,40.039,12.207,34.668,7.812,0.0,0
1581445007.099,40.527,8.301,34.668,18.066,0.0,0
1581445007.103,27.832,2.93,34.18,18.066,0.0,0
1581445007.107,26.367,2.441,39.551,16.602,0.0,0
1581445007.111,35.156,20.996,30.762,19.531,0.0,0
1581445007.1139998,36.621,31.738000000000003,23.438,19.531,0.0,0
1581445007.1179998,20.996,25.879,30.273000000000003,12.207,0.0,0
1581445007.1220002,28.809,20.508000000000006,30.273000000000003,18.066,0.0,1
1581445007.1260002,50.293,16.113,24.414,30.273000000000003,0.0,0
1581445007.13,47.852,15.137,16.113,27.832,0.0,0
1581445007.1320002,27.344,11.23,25.391,30.273000000000003,0.0,0
1581445007.1360002,33.203,-9.277,35.156,36.133,0.0,0
1581445007.14,51.758,-15.137,26.855,27.344,0.0,0
1581445007.144,49.316,10.254,24.414,28.32,0.0,0
1581445007.1479998,31.25,35.156,26.367,26.855,0.0,0
1581445007.1520002,31.25,44.922,24.414,20.02,0.0,0
1581445007.156,43.945,29.785,33.691,16.602,0.0,0
1581445007.159,46.387,20.508000000000006,36.621,14.648,0.0,0
1581445007.163,39.551,22.461,19.531,14.16,0.0,0
1581445007.167,26.855,19.531,18.066,23.438,0.0,0
1581445007.171,27.832,12.207,28.809,23.438,0.0,0
1581445007.175,42.969,14.648,21.973000000000006,25.879,0.0,0
1581445007.177,45.898,16.602,19.531,36.133,0.0,0
1581445007.181,41.01600000000001,10.254,31.738000000000003,43.457,0.0,0
1581445007.185,42.48,22.949,43.945,49.316,0.0,0
1581445007.189,36.621,40.039,41.992,32.227,0.0,0
1581445007.1929998,26.367,29.297,25.879,20.02,0.0,0
1581445007.197,16.602,15.137,15.137,25.879,0.0,0
1581445007.201,27.832,18.066,10.742,25.879,0.0,0
1581445007.204,39.551,16.113,13.184,24.902,0.0,0
1581445007.208,43.945,18.555,20.508000000000006,25.391,0.0,0
1581445007.212,39.551,15.137,36.621,24.902,0.0,0
1581445007.216,31.738000000000003,12.207,34.668,24.902,0.0,0
1581445007.22,40.527,36.621,22.949,13.184,0.0,0
1581445007.222,39.551,40.039,31.25,6.348,0.0,0
1581445007.226,34.668,19.531,31.25,9.766,0.0,0
1581445007.23,33.203,10.742,21.484,8.301,0.0,0
1581445007.234,32.715,0.977,20.996,7.324,0.0,0
1581445007.238,41.992,13.672,14.16,11.719,0.0,0
1581445007.242,41.01600000000001,24.414,20.508000000000006,10.254,0.0,0
1581445007.246,27.832,18.555,39.062,12.695,0.0,0
1581445007.2489998,16.602,48.828,39.551,11.23,0.0,0
1581445007.2529998,28.32,39.551,30.762,2.441,0.0,0
1581445007.2570002,28.32,1.953,25.391,4.395,0.0,0
1581445007.2610002,13.184,23.438,26.367,5.859,0.0,0
1581445007.265,16.113,39.551,27.832,14.16,0.0,0
1581445007.282,31.738000000000003,38.574,20.508000000000006,23.926,0.0,0
1581445007.286,27.344,38.574,14.648,19.531,0.0,0
1581445007.29,16.113,25.879,19.531,23.438,0.0,0
1581445007.294,16.113,21.973000000000006,22.461,28.32,0.0,0
1581445007.298,16.602,17.09,27.832,15.137,0.0,0
1581445007.302,18.555,-16.113,36.133,8.789,0.0,0
1581445007.306,26.367,-8.789,34.18,22.949,0.0,0
1581445007.309,23.926,35.156,25.391,20.508000000000006,0.0,0
1581445007.313,24.902,48.828,30.762,7.812,0.0,0
1581445007.3170002,35.156,41.992,28.809,5.371,0.0,0
1581445007.321,30.762,34.668,22.949,14.16,0.0,0
1581445007.325,19.043,28.809,28.809,20.996,0.0,0
1581445007.3279998,22.461,18.555,24.902,15.137,0.0,0
1581445007.332,29.785,13.672,20.996,12.695,0.0,0
1581445007.336,29.785,23.438,27.344,14.16,0.0,0
1581445007.34,30.273000000000003,29.297,36.133,17.09,0.0,0
1581445007.344,27.832,29.297,26.855,16.602,0.0,0
1581445007.3479998,31.738000000000003,33.691,17.578,19.043,0.0,0
1581445007.3520002,28.32,20.508000000000006,20.996,22.949,0.0,0
1581445007.355,29.297,15.625,16.113,27.344,0.0,0
1581445007.359,34.668,40.039,20.508000000000006,31.738000000000003,0.0,0
1581445007.363,30.762,35.156,26.855,17.578,0.0,0
1581445007.367,25.879,23.926,26.855,16.602,0.0,0
1581445007.371,11.719,36.621,23.926,17.578,0.0,0
1581445007.373,5.859,30.273000000000003,20.996,15.137,0.0,0
1581445007.377,23.438,16.602,25.879,20.508000000000006,0.0,0
1581445007.381,29.297,24.414,22.949,26.855,0.0,0
1581445007.385,25.391,25.879,15.137,35.645,0.0,0
1581445007.389,22.949,3.906,12.695,35.156,0.0,0
1581445007.393,14.16,-2.93,17.09,19.043,0.0,0
1581445007.397,24.902,19.531,29.297,13.672,0.0,0
1581445007.4,29.297,36.133,39.551,11.719,0.0,0
1581445007.404,17.09,28.809,37.109,11.719,0.0,0
1581445007.408,23.438,15.625,22.461,19.043,0.0,0
1581445007.4120002,32.715,20.02,18.066,20.02,0.0,0
1581445007.416,37.598,35.156,25.879,20.508000000000006,0.0,0
1581445007.418,25.391,33.691,20.02,20.02,0.0,0
1581445007.4220002,19.043,19.043,20.02,26.855,0.0,0
1581445007.426,29.297,7.324,32.715,26.855,0.0,0
1581445007.43,41.01600000000001,11.23,29.785,22.461,0.0,0
1581445007.434,40.527,24.902,19.531,23.926,0.0,0
1581445007.438,10.254,26.855,19.531,19.531,0.0,0
1581445007.4420002,3.906,15.625,25.391,18.555,0.0,0
1581445007.445,29.297,15.625,34.18,22.461,0.0,0
1581445007.449,24.902,13.184,36.133,19.531,0.0,0
1581445007.4529998,4.395,0.0,35.645,13.184,0.0,0
1581445007.457,8.789,9.766,32.227,11.719,0.0,0
1581445007.461,20.996,14.648,29.297,6.836,0.0,0
1581445007.4629998,24.902,1.953,35.645,8.789,0.0,0
1581445007.467,21.484,7.324,33.203,14.16,0.0,0
1581445007.471,16.113,15.137,26.367,12.695,0.0,0
1581445007.475,16.602,18.066,21.484,10.254,0.0,0
1581445007.479,19.043,16.113,17.578,6.348,0.0,0
1581445007.4829998,10.742,13.184,21.973000000000006,10.254,0.0,0
1581445007.4870002,7.324,11.23,21.484,14.648,0.0,0
1581445007.49,14.16,7.812,14.16,5.859,0.0,0
1581445007.494,20.508000000000006,13.672,18.066,4.395,0.0,0
1581445007.498,23.438,0.977,35.645,17.09,0.0,0
1581445007.502,18.555,-16.113,51.758,24.414,0.0,0
1581445007.506,11.23,4.395,42.969,20.996,0.0,0
1581445007.508,20.508000000000006,21.484,29.297,16.113,0.0,0
1581445007.512,27.344,30.273000000000003,29.785,13.184,0.0,0
1581445007.516,13.184,30.762,33.691,7.324,0.0,0
1581445007.52,13.184,28.32,39.062,1.953,0.0,0
1581445007.524,25.879,32.227,31.25,0.977,0.0,0
1581445007.528,27.344,30.273000000000003,29.297,6.836,0.0,0
1581445007.532,20.996,20.508000000000006,31.25,14.16,0.0,0
1581445007.535,19.531,13.672,26.855,13.184,0.0,0
1581445007.539,29.785,5.371,33.691,10.742,0.0,0
1581445007.543,29.785,-2.93,33.691,13.184,0.0,0
1581445007.5470002,20.508000000000006,1.953,32.227,18.066,0.0,0
1581445007.551,17.09,9.277,34.18,16.602,0.0,0
1581445007.553,22.949,19.531,38.086,16.113,0.0,0
1581445007.5570002,27.832,23.438,27.344,24.902,0.0,0
1581445007.561,21.484,21.973000000000006,16.113,28.32,0.0,0
1581445007.565,13.184,26.367,27.344,25.879,0.0,0
1581445007.569,19.531,31.738000000000003,37.598,25.391,0.0,0
1581445007.573,30.762,24.414,40.039,20.508000000000006,0.0,0
1581445007.577,29.785,11.23,28.32,18.555,0.0,0
1581445007.58,27.832,6.348,29.297,15.137,0.0,0
1581445007.584,30.273000000000003,-4.395,31.738000000000003,16.602,0.0,0
1581445007.5879998,30.762,-5.371,20.996,20.508000000000006,0.0,0
1581445007.592,28.32,8.789,24.902,10.742,0.0,0
1581445007.596,29.297,28.32,31.25,11.23,0.0,0
1581445007.5979998,29.785,36.133,18.555,9.766,0.0,0
1581445007.6020002,28.809,31.25,16.113,6.348,0.0,0
1581445007.606,35.645,23.926,20.996,15.137,0.0,0
1581445007.61,28.809,21.484,23.438,16.602,0.0,0
1581445007.6139998,18.555,21.973000000000006,33.691,13.184,0.0,0
1581445007.6179998,19.043,8.789,40.039,15.137,0.0,0
1581445007.6220002,20.02,11.23,32.227,14.16,0.0,0
1581445007.625,17.578,20.996,34.18,13.672,0.0,0
1581445007.629,14.648,18.066,36.133,21.973000000000006,0.0,0
1581445007.633,19.531,14.16,24.414,20.996,0.0,0
1581445007.637,30.762,4.395,22.461,16.113,0.0,0
1581445007.641,29.297,-8.789,28.32,18.555,0.0,0
1581445007.658,21.484,1.953,15.625,24.414,0.0,0
1581445007.6620002,15.137,3.906,1.465,22.461,0.0,0
1581445007.666,22.461,8.301,14.16,18.555,0.0,0
1581445007.67,24.414,36.621,26.367,19.531,0.0,0
1581445007.674,12.207,25.391,37.109,21.973000000000006,0.0,0
1581445007.678,8.789,12.207,52.246,25.879,0.0,0
1581445007.6820002,18.066,24.902,50.293,23.926,0.0,0
1581445007.685,27.832,23.438,32.227,22.949,0.0,0
1581445007.689,26.855,10.742,18.066,24.902,0.0,0
1581445007.6929998,22.461,4.395,21.973000000000006,24.414,0.0,0
1581445007.697,26.367,17.09,26.367,24.414,0.0,0
1581445007.701,27.832,23.926,19.043,17.09,0.0,0
1581445007.7029998,19.531,13.672,8.301,20.02,0.0,0
1581445007.707,8.301,8.789,17.578,25.391,0.0,0
1581445007.711,13.184,17.578,48.828,26.367,0.0,0
1581445007.715,23.926,26.855,49.316,31.738000000000003,0.0,0
1581445007.719,29.297,20.508000000000006,34.18,33.203,0.0,0
1581445007.7229998,20.02,13.672,30.762,24.414,0.0,0
1581445007.7270002,6.836,18.555,26.367,14.648,0.0,0
1581445007.73,7.812,21.484,21.484,13.184,0.0,0
1581445007.734,12.695,22.461,19.531,19.043,0.0,0
1581445007.738,7.812,18.066,24.414,26.855,0.0,0
1581445007.742,7.324,16.602,30.762,28.32,0.0,0
1581445007.746,15.625,12.207,26.855,21.484,0.0,0
1581445007.748,25.879,1.465,30.273000000000003,22.461,0.0,0
1581445007.752,26.367,0.488,41.992,29.785,0.0,0
1581445007.756,14.16,3.418,40.527,34.668,0.0,0
1581445007.76,18.555,8.789,19.531,35.156,0.0,0
1581445007.764,27.344,14.648,10.254,27.832,0.0,0
1581445007.768,20.508000000000006,21.973000000000006,22.461,29.785,0.0,0
1581445007.772,15.625,33.691,31.738000000000003,34.668,0.0,0
1581445007.775,21.484,27.344,36.621,31.25,0.0,0
1581445007.779,29.297,7.812,44.434,36.133,0.0,0
1581445007.783,33.203,9.277,40.527,43.945,0.0,0
1581445007.7870002,23.438,19.531,21.973000000000006,41.992,0.0,0
1581445007.791,16.602,22.461,11.23,35.645,0.0,0
1581445007.793,23.438,-0.977,21.484,39.551,0.0,0
1581445007.7970002,38.086,-30.762,35.645,36.621,0.0,0
1581445007.801,39.062,-20.02,26.367,25.391,0.0,0
1581445007.805,23.926,12.695,25.879,22.949,0.0,0
1581445007.809,35.645,38.574,28.32,34.668,0.0,0
1581445007.813,43.945,29.297,10.254,39.551,0.0,0
1581445007.8170002,23.926,33.691,30.273000000000003,28.32,0.0,0
1581445007.82,16.602,36.133,55.664,23.438,0.0,0
1581445007.824,20.996,28.809,49.805,18.066,0.0,0
1581445007.8279998,26.367,47.363,33.691,10.254,0.0,0
1581445007.832,17.09,53.223,26.855,4.883,0.0,0
1581445007.836,17.578,22.949,29.297,11.23,0.0,0
1581445007.8379998,35.156,-7.324,25.391,19.043,0.0,0
1581445007.842,33.691,14.648,21.484,16.113,0.0,0
1581445007.846,32.715,31.25,26.855,15.137,0.0,0
1581445007.85,31.738000000000003,17.09,29.297,19.043,0.0,0
1581445007.854,17.578,18.066,28.32,12.207,0.0,0
1581445007.8579998,15.625,21.973000000000006,29.785,9.766,0.0,0
1581445007.8620002,28.32,26.367,33.691,20.996,0.0,0
1581445007.865,24.902,12.695,24.902,26.367,0.0,0
1581445007.869,20.996,-29.297,10.742,31.25,0.0,0
1581445007.873,33.203,-24.902,24.414,27.832,0.0,0
1581445007.877,40.039,35.156,36.621,10.742,0.0,0
1581445007.881,26.367,61.523,36.133,4.395,0.0,0
1581445007.883,16.113,45.41,39.551,12.695,0.0,0
1581445007.887,17.09,36.133,25.391,11.719,0.0,0
1581445007.891,22.461,34.18,23.438,8.789,0.0,0
1581445007.895,25.391,29.785,27.344,10.254,0.0,0
1581445007.899,21.973000000000006,16.113,13.184,17.578,0.0,0
1581445007.903,24.902,11.23,14.16,23.926,0.0,0
1581445007.907,31.738000000000003,14.16,35.156,16.602,0.0,0
1581445007.91,29.785,19.043,37.109,20.508000000000006,0.0,0
1581445007.914,21.973000000000006,26.855,32.715,25.879,0.0,0
1581445007.918,14.648,21.484,30.273000000000003,24.414,0.0,0
1581445007.9220002,23.438,9.766,-0.488,34.18,0.0,0
1581445007.926,30.762,13.184,-6.348,32.715,0.0,0
1581445007.928,16.113,21.973000000000006,36.621,15.137,0.0,0
1581445007.9320002,3.906,6.836,59.082,8.789,0.0,0
1581445007.936,7.812,4.883,52.246,4.883,0.0,0
1581445007.94,17.578,22.461,35.156,9.277,0.0,0
1581445007.944,19.531,19.043,25.391,22.461,0.0,0
1581445007.948,13.672,16.602,29.297,29.297,0.0,0
1581445007.952,14.648,22.461,19.043,15.137,0.0,0
1581445007.955,29.297,23.926,-2.93,12.695,0.0,0
1581445007.959,30.273000000000003,38.086,-1.465,22.949,0.0,0
1581445007.9629998,16.113,24.414,18.555,28.32,0.0,0
1581445007.967,9.766,-6.836,36.621,28.32,0.0,0
1581445007.971,18.555,2.441,46.387,20.508000000000006,0.0,0
1581445007.9729998,22.461,30.762,40.039,16.113,0.0,0
1581445007.9770002,16.113,42.969,30.273000000000003,19.531,0.0,0
1581445007.981,13.184,35.645,28.809,26.367,0.0,0
1581445007.985,22.461,19.531,19.043,27.832,0.0,0
1581445007.9889998,29.297,18.066,-1.953,21.484,0.0,0
1581445007.9929998,20.996,27.832,-4.883,17.09,0.0,0
1581445007.9970002,16.602,29.785,17.09,19.531,0.0,0
1581445008.0,18.555,10.254,41.992,20.508000000000006,0.0,0
1581445008.004,21.973000000000006,-12.207,51.758,19.043,0.0,0
1581445008.008,20.508000000000006,12.695,49.805,16.602,0.0,0
1581445008.012,7.812,39.551,39.062,18.555,0.0,0
1581445008.016,6.348,37.109,18.066,24.902,0.0,0
1581445008.033,18.555,33.203,14.16,22.949,0.0,0
1581445008.0370002,24.902,21.484,8.789,22.461,0.0,0
1581445008.041,22.461,7.812,8.789,26.367,0.0,0
1581445008.045,12.695,13.184,34.18,22.461,0.0,0
1581445008.049,18.066,8.301,49.316,22.461,0.0,0
1581445008.053,30.762,-0.977,50.293,20.508000000000006,0.0,0
1581445008.0570002,26.367,13.184,44.434,20.02,0.0,0
1581445008.06,15.137,30.273000000000003,30.762,21.973000000000006,0.0,0
1581445008.064,20.508000000000006,39.551,19.043,19.531,0.0,0
1581445008.0679998,37.109,30.273000000000003,-0.488,23.438,0.0,0
1581445008.072,28.809,22.461,-2.441,22.461,0.0,0
1581445008.076,14.16,20.02,17.09,15.137,0.0,0
1581445008.0779998,15.137,12.207,32.227,15.625,0.0,0
1581445008.082,21.484,13.184,41.504,16.113,0.0,0
1581445008.086,24.902,9.766,38.574,23.438,0.0,0
1581445008.09,13.184,5.859,40.527,24.414,0.0,0
1581445008.094,5.371,14.16,32.715,20.02,0.0,0
1581445008.0979998,18.066,17.09,15.625,24.902,0.0,0
1581445008.1020002,23.926,12.695,17.09,23.438,0.0,0
1581445008.105,15.625,20.508000000000006,23.438,17.09,0.0,0
1581445008.109,9.766,29.297,25.391,20.996,0.0,0
1581445008.113,17.09,22.949,26.367,23.926,0.0,0
1581445008.117,25.391,20.02,35.156,20.996,0.0,0
1581445008.121,21.973000000000006,17.578,43.945,24.902,0.0,0
1581445008.1220002,16.113,10.254,31.738000000000003,23.438,0.0,0
1581445008.1260002,19.531,14.16,10.254,23.438,0.0,0
1581445008.13,32.227,23.438,11.23,26.367,0.0,0
1581445008.1339998,27.832,32.715,15.137,22.461,0.0,0
1581445008.1379998,25.391,32.715,15.137,32.715,0.0,0
1581445008.1420002,32.227,27.832,25.879,37.109,0.0,0
1581445008.146,41.504,26.855,32.227,31.25,0.0,0
1581445008.149,37.598,26.367,32.715,35.645,0.0,0
1581445008.153,21.484,10.254,36.621,30.762,0.0,0
1581445008.157,20.508000000000006,3.418,37.109,25.391,0.0,0
1581445008.161,31.25,14.648,38.086,20.996,0.0,0
1581445008.165,25.879,27.344,34.668,13.184,0.0,0
1581445008.167,12.207,34.18,19.043,9.277,0.0,0
1581445008.171,13.184,33.203,16.602,14.648,0.0,0
1581445008.175,23.438,33.203,26.367,20.508000000000006,0.0,0
1581445008.179,26.855,31.738000000000003,24.902,20.996,0.0,0
1581445008.1829998,29.297,22.461,28.809,30.273000000000003,0.0,0
1581445008.187,29.785,22.949,26.855,38.086,0.0,0
1581445008.191,29.297,21.973000000000006,20.508000000000006,39.062,0.0,0
1581445008.194,35.156,12.695,33.691,41.504,0.0,0
1581445008.198,27.832,7.812,35.645,32.715,0.0,0
1581445008.202,18.066,10.254,28.809,28.809,0.0,0
1581445008.206,14.16,20.508000000000006,26.367,25.391,0.0,0
1581445008.21,18.066,25.879,29.785,20.996,0.0,0
1581445008.212,21.484,35.156,24.902,17.09,0.0,0
1581445008.216,16.602,28.32,5.859,21.973000000000006,0.0,1
1581445008.22,21.484,16.113,11.719,35.156,0.0,0
1581445008.224,24.902,16.113,18.555,25.879,0.0,0
1581445008.228,20.508000000000006,16.113,11.719,15.625,0.0,0
1581445008.232,11.23,18.555,28.32,14.648,0.0,0
1581445008.236,13.672,15.625,28.32,16.113,0.0,0
1581445008.2389998,19.043,17.578,21.484,15.625,0.0,0
1581445008.2429998,24.902,22.461,34.668,8.301,0.0,0
1581445008.2470002,23.926,25.879,39.551,12.207,0.0,0
1581445008.2510002,10.742,28.809,34.18,16.113,0.0,0
1581445008.255,16.602,22.461,29.785,17.578,0.0,0
1581445008.2570002,27.832,13.184,22.461,19.043,0.0,0
1581445008.2610002,18.555,14.648,21.973000000000006,17.578,0.0,0
1581445008.265,8.301,-1.465,29.785,19.531,0.0,0
1581445008.269,7.812,-4.883,33.691,21.484,0.0,0
1581445008.2729998,15.625,5.859,33.691,22.461,0.0,0
1581445008.2770002,31.25,14.648,24.902,21.973000000000006,0.0,0
1581445008.281,23.926,34.18,20.02,23.926,0.0,0
1581445008.284,15.137,32.227,26.855,22.949,0.0,0
1581445008.288,23.926,23.438,19.531,19.531,0.0,0
1581445008.292,25.879,25.879,14.648,19.531,0.0,0
1581445008.296,19.043,19.531,24.414,20.02,0.0,0
1581445008.3,17.09,16.113,30.273000000000003,22.461,0.0,0
1581445008.302,28.32,13.672,31.25,27.344,0.0,0
1581445008.306,29.297,-4.883,31.25,25.391,0.0,0
1581445008.31,34.18,13.672,30.762,18.066,0.0,0
1581445008.314,19.531,37.109,33.691,20.508000000000006,0.0,0
1581445008.3179998,8.789,29.297,39.062,27.344,0.0,0
1581445008.322,22.949,23.438,28.32,29.297,0.0,0
1581445008.326,20.996,26.855,15.137,23.438,0.0,0
1581445008.329,8.789,21.973000000000006,20.02,19.043,0.0,0
1581445008.333,5.371,20.996,27.344,20.508000000000006,0.0,0
1581445008.337,18.555,21.973000000000006,31.25,25.391,0.0,0
1581445008.341,23.926,10.742,24.414,31.738000000000003,0.0,0
1581445008.345,17.09,5.371,22.461,30.273000000000003,0.0,0
1581445008.347,14.16,4.883,34.668,29.297,0.0,0
1581445008.351,20.508000000000006,13.184,45.41,27.832,0.0,0
1581445008.355,23.438,14.16,38.574,17.09,0.0,0
1581445008.359,22.461,15.137,18.555,10.254,0.0,0
1581445008.363,20.02,31.25,20.02,9.277,0.0,0
1581445008.367,24.902,35.156,29.297,10.254,0.0,0
1581445008.371,31.738000000000003,26.367,32.227,10.742,0.0,0
1581445008.3739998,24.902,17.578,33.203,12.695,0.0,0
1581445008.3779998,19.043,8.789,23.438,17.578,0.0,0
1581445008.3820002,18.555,1.953,2.441,15.137,0.0,0
1581445008.3860002,20.02,16.602,11.719,10.254,0.0,0
1581445008.39,19.531,36.621,36.133,22.461,0.0,0
1581445008.407,13.672,30.762,38.086,34.18,0.0,0
1581445008.411,10.742,22.949,31.25,33.691,0.0,0
1581445008.415,21.484,23.438,24.414,29.297,0.0,0
1581445008.419,18.066,18.555,24.902,26.367,0.0,0
1581445008.423,8.301,14.648,23.926,26.855,0.0,0
1581445008.427,14.16,4.395,23.926,35.156,0.0,0
1581445008.431,16.113,8.301,33.203,39.062,0.0,0
1581445008.434,10.254,18.066,37.598,34.668,0.0,0
1581445008.438,9.277,16.113,30.273000000000003,31.738000000000003,0.0,0
1581445008.4420002,8.789,15.137,10.742,32.715,0.0,0
1581445008.446,21.484,19.043,-7.324,41.992,0.0,0
1581445008.45,32.715,23.926,14.648,51.27,0.0,0
1581445008.4529998,22.461,21.484,41.992,40.039,0.0,0
1581445008.457,11.23,11.719,41.01600000000001,24.414,0.0,0
1581445008.461,17.09,20.508000000000006,36.621,17.09,0.0,0
1581445008.465,25.879,37.598,34.18,23.926,0.0,0
1581445008.469,24.902,30.273000000000003,36.133,29.785,0.0,0
1581445008.4729998,12.695,17.578,39.551,23.438,0.0,0
1581445008.4770002,9.277,4.883,30.762,24.414,0.0,0
1581445008.48,24.902,0.488,22.461,30.273000000000003,0.0,0
1581445008.484,31.738000000000003,15.137,21.484,30.762,0.0,0
1581445008.488,17.09,3.418,28.32,36.133,0.0,0
1581445008.492,27.832,-4.395,26.367,44.434,0.0,0
1581445008.496,110.84,20.508000000000006,17.578,47.363,0.0,0
1581445008.5129998,143.555,31.25,29.297,55.664,0.0,0
1581445008.5170002,102.051,13.672,31.738000000000003,50.78100000000001,0.0,0
1581445008.521,68.359,7.324,29.297,35.156,0.0,0
1581445008.525,61.035,22.949,37.109,37.109,0.0,0
1581445008.529,55.664,16.602,28.809,30.273000000000003,0.0,0
1581445008.533,50.293,-3.906,30.273000000000003,23.926,0.0,0
1581445008.5370002,43.457,14.16,36.133,28.809,0.0,0
1581445008.54,35.156,33.691,33.203,14.648,0.0,0
1581445008.544,31.738000000000003,24.902,37.598,3.906,0.0,0
1581445008.548,33.691,14.16,40.039,8.789,0.0,0
1581445008.552,28.809,5.859,30.762,20.996,0.0,0
1581445008.556,22.461,-2.441,4.883,23.926,0.0,0
1581445008.543,26.855,8.301,15.625,10.254,0.0,0
1581445008.5470002,21.973000000000006,26.367,39.551,1.953,0.0,0
1581445008.551,20.02,11.23,32.715,11.23,0.0,0
1581445008.555,22.949,8.301,23.926,26.855,0.0,0
1581445008.559,17.578,34.668,29.785,29.297,0.0,0
1581445008.563,13.184,45.41,33.203,16.113,0.0,0
1581445008.5670002,8.789,24.902,30.762,3.418,0.0,0
1581445008.57,6.348,3.906,29.785,3.418,0.0,0
1581445008.574,9.277,19.043,33.691,5.859,0.0,0
1581445008.5779998,24.414,36.621,23.926,12.695,0.0,0
1581445008.582,20.02,20.02,-8.301,29.785,0.0,0
1581445008.586,-0.488,21.484,-3.906,39.062,0.0,0
1581445008.5879998,-2.93,25.879,34.668,27.832,0.0,0
1581445008.592,11.23,14.648,51.27,17.578,0.0,0
1581445008.596,19.043,35.645,44.434,13.184,0.0,0
1581445008.6,11.23,41.01600000000001,38.574,11.23,0.0,0
1581445008.604,14.16,22.949,36.133,14.648,0.0,0
1581445008.6079998,22.461,17.578,22.461,10.254,0.0,0
1581445008.6120002,25.879,25.879,21.484,13.672,0.0,0
1581445008.615,21.484,26.855,24.902,23.438,0.0,0
1581445008.619,13.672,26.855,22.949,23.926,0.0,0
1581445008.623,14.16,25.391,20.508000000000006,13.672,0.0,0
1581445008.627,21.973000000000006,24.414,16.113,11.23,0.0,0
1581445008.631,20.02,25.391,21.973000000000006,14.16,0.0,0
1581445008.633,15.625,26.855,27.344,4.883,0.0,0
1581445008.637,18.555,24.414,28.32,1.465,0.0,0
1581445008.641,27.832,16.113,31.738000000000003,7.324,0.0,0
1581445008.645,25.879,5.371,19.531,17.09,0.0,0
1581445008.649,14.16,6.836,13.184,21.973000000000006,0.0,0
1581445008.653,8.789,22.461,28.32,16.602,0.0,0
1581445008.657,9.766,33.203,30.762,16.602,0.0,0
1581445008.66,11.23,34.668,30.762,18.066,0.0,0
1581445008.664,7.324,28.32,33.203,14.16,0.0,0
1581445008.668,6.348,17.578,31.738000000000003,11.719,0.0,0
1581445008.6720002,13.672,15.137,27.344,12.695,0.0,0
1581445008.676,23.926,-0.977,26.367,18.066,0.0,0
1581445008.678,23.438,-10.254,22.949,17.578,0.0,0
1581445008.6820002,12.695,2.93,21.973000000000006,22.461,0.0,0
1581445008.686,13.184,23.438,31.25,19.531,0.0,0
1581445008.69,20.02,39.551,35.645,6.348,0.0,0
1581445008.694,18.555,42.48,40.527,8.301,0.0,0
1581445008.698,8.301,37.598,31.738000000000003,8.301,0.0,0
1581445008.702,12.207,30.762,26.855,9.277,0.0,0
1581445008.705,23.438,22.461,26.367,8.789,0.0,0
1581445008.709,29.297,6.836,27.344,8.301,0.0,0
1581445008.7129998,21.973000000000006,-5.371,32.715,14.648,0.0,0
1581445008.717,15.625,1.953,35.156,19.043,0.0,0
1581445008.721,20.996,37.109,19.531,19.043,0.0,0
1581445008.7229998,23.926,62.988,21.484,12.207,0.0,0
1581445008.7270002,17.09,54.688,43.945,5.371,0.0,0
1581445008.731,9.766,43.945,39.551,11.719,0.0,0
1581445008.735,15.137,40.039,29.785,12.695,0.0,0
1581445008.7389998,26.855,10.742,32.715,20.02,0.0,0
1581445008.7429998,26.855,-28.809,28.32,34.18,0.0,0
1581445008.7470002,9.277,0.977,28.809,25.391,0.0,0
1581445008.75,10.254,27.344,33.691,16.602,0.0,0
1581445008.754,19.043,32.715,21.973000000000006,14.16,0.0,0
1581445008.758,16.113,60.547,26.855,13.672,0.0,0
1581445008.762,11.719,55.176,43.457,15.625,0.0,0
1581445008.766,10.742,33.691,48.34,11.719,0.0,0
1581445008.783,22.461,22.461,38.574,12.695,0.0,0
1581445008.7870002,20.02,23.926,27.832,22.949,0.0,0
1581445008.791,9.766,20.508000000000006,24.414,34.668,0.0,0
1581445008.795,16.602,14.648,33.691,38.086,0.0,0
1581445008.799,22.461,26.367,37.598,36.133,0.0,0
1581445008.803,20.508000000000006,40.527,34.18,27.344,0.0,0
1581445008.8070002,14.648,20.508000000000006,39.551,22.949,0.0,0
1581445008.81,2.93,2.93,48.828,21.973000000000006,0.0,0
1581445008.814,3.906,28.32,45.898,13.672,0.0,0
1581445008.8179998,7.812,27.832,34.18,8.301,0.0,0
1581445008.822,4.395,19.043,22.461,16.113,0.0,0
1581445008.826,7.812,13.184,16.602,27.832,0.0,0
1581445008.8279998,13.672,9.277,11.719,22.461,0.0,0
1581445008.832,23.926,28.809,18.066,20.02,0.0,0
1581445008.836,24.414,28.809,37.598,23.438,0.0,0
1581445008.84,11.719,22.949,51.27,19.531,0.0,0
1581445008.844,10.742,14.16,42.969,16.113,0.0,0
1581445008.8479998,16.602,18.555,31.25,9.766,0.0,0
1581445008.8520002,26.855,38.574,36.133,8.789,0.0,0
1581445008.855,23.926,31.738000000000003,36.133,17.578,0.0,0
1581445008.859,19.043,24.414,20.02,21.484,0.0,0
1581445008.863,25.879,22.461,16.113,15.137,0.0,0
1581445008.867,29.785,31.738000000000003,22.949,14.648,0.0,0
1581445008.871,19.043,39.062,21.973000000000006,13.672,0.0,0
1581445008.873,15.625,25.879,27.832,18.555,0.0,0
1581445008.877,26.367,9.766,32.227,23.926,0.0,0
1581445008.881,28.32,-10.742,20.02,20.508000000000006,0.0,0
1581445008.885,22.949,-20.02,0.0,30.273000000000003,0.0,0
1581445008.889,18.555,16.113,1.465,32.227,0.0,0
1581445008.893,20.996,51.758,28.809,24.414,0.0,0
1581445008.897,29.297,52.246,40.039,22.461,0.0,0
1581445008.9,28.809,43.457,42.969,32.227,0.0,0
1581445008.904,25.879,28.809,35.645,39.062,0.0,0
1581445008.908,30.273000000000003,18.555,27.832,29.297,0.0,0
1581445008.9120002,31.738000000000003,32.715,31.738000000000003,27.832,0.0,0
1581445008.916,29.785,38.086,28.32,32.715,0.0,0
1581445008.918,29.297,17.09,21.973000000000006,36.621,0.0,0
1581445008.9220002,28.809,17.09,15.625,46.387,0.0,0
1581445008.926,32.715,39.062,9.277,43.457,0.0,0
1581445008.93,34.668,41.992,16.602,41.992,0.0,0
1581445008.934,23.438,25.391,36.621,44.434,0.0,0
1581445008.938,15.625,8.789,43.457,42.969,0.0,0
1581445008.9420002,21.973000000000006,10.254,36.133,47.363,0.0,0
1581445008.945,29.297,23.438,30.762,44.922,0.0,0
1581445008.949,20.508000000000006,29.297,26.855,30.273000000000003,0.0,0
1581445008.9529998,10.254,25.391,26.367,18.066,0.0,0
1581445008.957,15.137,20.508000000000006,32.715,15.625,0.0,0
1581445008.961,24.902,23.438,39.062,12.207,0.0,0
1581445008.9629998,25.391,23.926,26.367,6.836,0.0,0
1581445008.967,20.996,22.461,14.16,12.695,0.0,0
1581445008.971,20.996,13.184,22.949,18.066,0.0,0
1581445008.975,34.18,-3.418,30.273000000000003,15.625,0.0,0
1581445008.979,37.598,12.207,25.879,14.16,0.0,0
1581445008.9829998,17.578,26.367,25.879,19.043,0.0,0
1581445008.9870002,11.23,26.367,31.25,25.391,0.0,0
1581445008.99,17.09,39.551,31.25,20.02,0.0,0
1581445008.994,18.555,38.086,34.18,11.719,0.0,0
1581445008.998,22.461,23.438,42.48,17.09,0.0,0
1581445009.002,16.113,22.949,40.039,17.09,0.0,0
1581445009.006,13.672,31.25,33.203,16.602,0.0,0
1581445009.008,20.02,36.133,38.086,22.461,0.0,0
1581445009.012,18.555,30.273000000000003,45.41,36.621,0.0,0
1581445009.016,11.23,18.066,39.062,51.758,0.0,0
1581445009.02,13.672,21.973000000000006,28.32,48.828,0.0,0
1581445009.024,29.785,10.254,32.715,40.039,0.0,0
1581445009.028,36.133,-3.418,30.762,42.48,0.0,0
1581445009.032,28.32,20.508000000000006,18.066,52.734,0.0,0
1581445009.035,27.832,39.551,29.785,49.316,0.0,0
1581445009.039,28.32,39.551,51.758,29.785,0.0,0
1581445009.043,21.973000000000006,38.086,47.363,17.09,0.0,0
1581445009.0470002,18.555,31.25,35.156,26.855,0.0,0
1581445009.051,19.043,16.602,34.18,35.156,0.0,0
1581445009.053,21.484,19.531,39.062,25.879,0.0,0
1581445009.0570002,27.344,25.879,30.762,20.508000000000006,0.0,0
1581445009.061,23.438,8.789,12.207,24.902,0.0,0
1581445009.065,14.16,5.859,20.02,24.902,0.0,0
1581445009.069,13.672,37.109,29.785,19.531,0.0,0
1581445009.073,15.625,45.898,18.066,18.555,0.0,0
1581445009.077,12.207,36.133,26.855,20.996,0.0,0
1581445009.08,6.836,29.297,43.945,22.949,0.0,0
1581445009.084,5.371,34.668,41.01600000000001,19.531,0.0,0
1581445009.0879998,14.648,29.297,37.109,25.391,0.0,0
1581445009.092,18.555,18.066,28.809,30.762,0.0,0
1581445009.096,7.324,24.902,23.438,24.902,0.0,0
1581445009.0979998,1.953,26.855,29.785,22.461,0.0,0
1581445009.1020002,5.371,15.625,28.809,18.066,0.0,0
1581445009.106,15.625,0.488,19.531,16.602,0.0,0
1581445009.11,14.16,-2.93,25.391,15.137,0.0,0
1581445009.1139998,15.625,17.09,38.574,25.879,0.0,0
1581445009.1179998,20.996,33.691,38.574,40.527,0.0,0
1581445009.1220002,22.461,35.156,29.785,30.273000000000003,0.0,0
1581445009.125,28.32,30.273000000000003,14.16,21.484,0.0,0
1581445009.129,24.902,20.508000000000006,19.043,15.625,0.0,0
1581445009.133,15.137,24.902,38.574,5.859,0.0,0
1581445009.137,20.996,26.855,45.898,5.859,0.0,0
1581445009.141,27.344,25.391,42.969,20.508000000000006,0.0,0
1581445009.158,12.695,21.973000000000006,39.062,29.297,0.0,0
1581445009.1620002,10.742,19.531,39.551,35.156,0.0,0
1581445009.166,24.414,33.203,36.133,35.645,0.0,0
1581445009.17,24.414,27.832,33.203,22.461,0.0,0
1581445009.174,17.09,1.465,33.203,18.555,0.0,0
1581445009.178,20.02,-4.883,22.461,20.996,0.0,0
1581445009.1820002,24.414,24.902,10.742,20.02,0.0,0
1581445009.185,27.832,45.41,19.531,15.137,0.0,0
1581445009.189,20.996,35.156,31.738000000000003,16.113,0.0,0
1581445009.1929998,9.766,30.762,34.668,11.719,0.0,0
1581445009.197,17.09,17.09,32.227,10.742,0.0,0
1581445009.201,29.785,16.602,31.738000000000003,16.113,0.0,0
1581445009.202,22.461,30.273000000000003,31.738000000000003,16.602,0.0,0
1581445009.206,7.324,30.762,32.227,18.555,0.0,0
1581445009.21,6.836,39.551,29.297,20.508000000000006,0.0,0
1581445009.214,15.625,31.25,18.555,21.484,0.0,0
1581445009.218,18.555,24.414,13.672,20.996,0.0,0
1581445009.222,10.254,25.391,21.973000000000006,22.949,0.0,0
1581445009.226,7.812,22.949,23.926,21.973000000000006,0.0,0
1581445009.229,20.996,17.09,27.832,27.832,0.0,0
1581445009.2329998,28.32,11.23,23.438,37.109,0.0,0
1581445009.2370002,20.996,12.207,19.043,29.785,0.0,0
1581445009.2410002,19.531,15.137,26.855,33.691,0.0,0
1581445009.245,26.855,18.555,23.438,32.715,0.0,0
1581445009.2470002,33.203,26.855,25.391,23.438,0.0,0
1581445009.2510002,27.344,38.086,30.273000000000003,29.785,0.0,0
1581445009.255,20.508000000000006,33.691,24.902,37.598,0.0,0
1581445009.2589998,22.949,23.926,22.949,41.01600000000001,0.0,0
1581445009.2629998,27.344,14.16,26.367,38.574,0.0,0
1581445009.2670002,28.32,12.695,20.996,28.32,0.0,0
1581445009.271,20.02,14.648,21.484,23.438,0.0,0
1581445009.274,16.113,14.16,31.25,15.625,0.0,0
1581445009.278,23.926,19.043,32.715,11.23,0.0,0
1581445009.282,26.367,21.484,31.738000000000003,14.16,0.0,0
1581445009.286,18.066,22.461,32.227,10.254,0.0,0
1581445009.29,17.578,25.879,25.391,4.395,0.0,0
1581445009.293,27.344,30.762,19.531,7.324,0.0,0
1581445009.2970002,28.32,23.926,19.043,11.719,0.0,0
1581445009.301,25.391,21.973000000000006,20.996,20.996,0.0,0
1581445009.305,20.996,20.508000000000006,27.344,22.461,0.0,0
1581445009.309,19.531,14.16,28.809,11.23,0.0,0
1581445009.313,23.926,12.695,27.344,10.742,0.0,0
1581445009.3170002,23.438,18.066,22.461,13.672,0.0,0
1581445009.32,20.02,22.461,20.02,14.16,0.0,0
1581445009.324,19.531,14.648,20.508000000000006,13.672,0.0,1
1581445009.3279998,26.367,12.207,21.973000000000006,10.742,0.0,0
1581445009.332,26.367,18.066,24.902,11.23,0.0,0
1581445009.336,11.23,20.508000000000006,29.785,5.859,0.0,0
1581445009.337,10.254,16.602,36.133,5.859,0.0,0
1581445009.341,20.996,4.395,27.344,3.418,0.0,0
1581445009.345,19.531,3.906,6.836,3.906,0.0,0
1581445009.349,15.625,19.043,14.648,19.531,0.0,0
1581445009.353,11.719,33.691,33.691,25.879,0.0,0
1581445009.357,10.254,29.297,38.086,19.043,0.0,0
1581445009.361,13.672,14.16,28.809,20.996,0.0,0
1581445009.3639998,8.789,16.602,23.926,23.926,0.0,0
1581445009.3679998,2.93,27.344,31.25,20.508000000000006,0.0,0
1581445009.3720002,6.348,29.785,28.809,16.113,0.0,0
1581445009.3760002,10.254,18.555,25.879,12.695,0.0,0
1581445009.38,15.625,11.719,24.414,20.508000000000006,0.0,0
1581445009.3820002,12.207,15.625,29.297,27.344,0.0,0
1581445009.3860002,5.859,19.043,26.855,22.461,0.0,0
1581445009.39,14.16,9.277,20.508000000000006,18.555,0.0,0
1581445009.394,19.531,4.883,24.414,23.438,0.0,0
1581445009.3979998,12.695,27.344,15.625,20.508000000000006,0.0,0
1581445009.4020002,13.672,28.809,16.602,20.996,0.0,0
1581445009.406,23.926,14.648,32.715,18.555,0.0,0
1581445009.409,25.391,23.926,27.344,12.207,0.0,0
1581445009.413,18.066,31.738000000000003,12.695,16.113,0.0,0
1581445009.417,15.137,22.949,16.113,20.996,0.0,0
1581445009.421,19.531,15.137,32.227,21.973000000000006,0.0,0
1581445009.425,20.02,4.395,33.203,18.555,0.0,0
1581445009.427,15.137,-0.977,30.762,17.578,0.0,0
1581445009.431,11.23,20.02,28.809,20.508000000000006,0.0,0
1581445009.435,14.648,23.438,22.949,20.996,0.0,0
1581445009.439,20.508000000000006,12.695,23.926,23.438,0.0,0
1581445009.4429998,20.508000000000006,25.391,31.25,30.273000000000003,0.0,0
1581445009.447,10.742,32.715,26.855,29.785,0.0,0
1581445009.451,7.812,26.367,19.531,26.367,0.0,0
1581445009.454,11.719,26.367,16.113,18.066,0.0,0
1581445009.458,13.672,23.438,14.648,10.254,0.0,0
1581445009.462,7.812,14.16,27.832,10.254,0.0,0
1581445009.466,4.395,28.809,35.645,15.625,0.0,0
1581445009.47,16.113,41.504,29.785,24.414,0.0,0
1581445009.472,17.09,30.273000000000003,32.227,19.043,0.0,0
1581445009.476,10.254,23.438,36.133,8.789,0.0,0
1581445009.48,15.137,20.508000000000006,28.32,12.207,0.0,0
1581445009.484,26.367,19.531,26.367,24.902,0.0,0
1581445009.488,32.227,27.832,29.785,32.715,0.0,0
1581445009.492,23.926,21.484,30.762,34.18,0.0,0
1581445009.496,17.09,20.508000000000006,27.344,36.621,0.0,0
1581445009.4989998,22.949,35.156,18.555,31.25,0.0,0
1581445009.5029998,26.367,38.086,24.902,21.973000000000006,0.0,0
1581445009.5070002,20.508000000000006,26.367,39.062,27.344,0.0,0
1581445009.5110002,12.207,20.996,34.668,35.645,0.0,0
1581445009.515,18.555,18.555,30.762,41.992,0.0,0
1581445009.533,29.297,15.625,27.832,33.691,0.0,0
1581445009.5370002,28.809,31.25,21.973000000000006,25.879,0.0,0
1581445009.541,16.602,33.203,17.578,22.949,0.0,0
1581445009.545,12.207,27.344,14.648,20.02,0.0,0
1581445009.549,25.391,23.438,17.09,24.414,0.0,0
1581445009.553,30.762,13.184,20.02,29.297,0.0,0
1581445009.5570002,24.414,16.602,32.227,28.809,0.0,0
1581445009.56,21.973000000000006,20.508000000000006,43.945,22.949,0.0,0
1581445009.564,23.438,16.113,33.203,20.02,0.0,0
1581445009.5679998,19.043,23.926,29.297,17.09,0.0,0
1581445009.572,11.719,47.852,38.086,12.695,0.0,0
1581445009.576,13.672,54.688,41.992,14.16,0.0,0
1581445009.5779998,17.578,42.48,39.062,17.09,0.0,0
1581445009.582,31.25,21.484,35.645,19.043,0.0,0
1581445009.586,30.273000000000003,1.465,31.738000000000003,18.555,0.0,0
1581445009.59,19.043,1.953,26.367,25.879,0.0,0
1581445009.594,18.555,27.832,21.973000000000006,39.062,0.0,0
1581445009.5979998,27.344,50.78100000000001,16.602,34.668,0.0,0
1581445009.6020002,33.203,47.363,26.855,34.18,0.0,0
1581445009.605,15.137,19.043,27.344,30.273000000000003,0.0,0
1581445009.609,11.719,0.977,25.391,24.902,0.0,0
1581445009.613,20.996,24.414,32.715,23.438,0.0,0
1581445009.617,24.902,40.039,25.391,20.996,0.0,0
1581445009.621,27.344,40.527,28.809,29.297,0.0,0
1581445009.623,24.414,42.48,29.785,42.969,0.0,0
1581445009.627,19.531,33.691,19.531,32.715,0.0,0
1581445009.631,20.508000000000006,33.203,23.438,15.625,0.0,0
1581445009.635,28.32,35.156,33.203,22.949,0.0,0
1581445009.639,23.438,20.508000000000006,30.273000000000003,26.367,0.0,0
1581445009.643,12.207,22.461,19.531,24.414,0.0,0
1581445009.647,17.09,31.25,20.02,25.391,0.0,0
1581445009.65,21.973000000000006,15.625,28.32,26.367,0.0,0
1581445009.654,14.648,11.23,28.32,25.879,0.0,0
1581445009.658,13.184,23.926,29.297,20.508000000000006,0.0,0
1581445009.6620002,19.531,17.09,31.738000000000003,20.508000000000006,0.0,0
1581445009.666,24.414,11.719,29.785,20.996,0.0,0
1581445009.668,21.973000000000006,18.555,27.832,20.996,0.0,0
1581445009.6720002,17.578,23.926,21.973000000000006,17.09,0.0,0
1581445009.676,18.555,30.273000000000003,21.973000000000006,8.789,0.0,0
1581445009.68,26.367,20.02,23.438,11.719,0.0,0
1581445009.684,28.809,14.16,26.855,21.973000000000006,0.0,0
1581445009.688,15.137,17.09,29.785,17.578,0.0,0
1581445009.6920002,5.859,21.973000000000006,27.344,5.371,0.0,0
1581445009.695,13.672,34.668,27.344,6.348,0.0,0
1581445009.699,19.043,26.367,28.32,10.742,0.0,0
1581445009.7029998,14.16,13.672,32.227,14.16,0.0,0
1581445009.707,12.695,20.996,25.879,18.555,0.0,0
1581445009.711,22.461,23.926,20.996,17.578,0.0,0
1581445009.7129998,25.391,12.207,23.438,11.23,0.0,0
1581445009.717,16.602,6.348,22.461,9.766,0.0,0
1581445009.721,18.555,14.648,14.16,21.484,0.0,0
1581445009.725,28.32,16.602,14.16,23.926,0.0,0
1581445009.729,22.949,22.949,26.367,9.277,0.0,0
1581445009.7329998,3.906,18.555,31.25,4.883,0.0,0
1581445009.7370002,1.953,25.879,15.137,16.602,0.0,0
1581445009.74,16.602,30.762,12.207,30.762,0.0,0
1581445009.744,25.391,9.766,30.273000000000003,38.086,0.0,0
1581445009.748,23.438,21.484,32.715,36.621,0.0,0
1581445009.752,18.066,31.738000000000003,25.879,31.738000000000003,0.0,0
1581445009.756,16.602,22.461,21.973000000000006,27.344,0.0,0
1581445009.758,23.926,18.066,12.695,18.555,0.0,0
1581445009.762,21.484,32.715,4.883,15.137,0.0,0
1581445009.766,11.23,43.945,14.16,25.879,0.0,0
1581445009.77,10.742,39.062,30.273000000000003,31.738000000000003,0.0,0
1581445009.774,14.16,34.668,24.414,27.344,0.0,0
1581445009.778,17.578,15.625,21.484,27.832,0.0,0
1581445009.782,13.672,-1.465,37.109,34.18,0.0,0
1581445009.785,12.695,16.602,37.109,27.344,0.0,0
1581445009.789,19.531,31.25,14.16,23.926,0.0,0
1581445009.793,21.973000000000006,22.949,13.672,32.227,0.0,0
1581445009.7970002,17.09,32.715,30.762,32.227,0.0,0
1581445009.801,6.836,42.969,33.203,24.902,0.0,0
1581445009.803,8.301,37.109,41.01600000000001,19.043,0.0,0
1581445009.8070002,21.973000000000006,25.879,42.48,18.066,0.0,0
1581445009.811,22.461,19.043,34.668,16.602,0.0,0
1581445009.815,10.742,22.461,32.227,16.113,0.0,0
1581445009.819,18.555,22.949,31.25,18.555,0.0,0
1581445009.823,28.32,31.25,21.484,27.832,0.0,0
1581445009.827,19.043,31.25,14.648,28.809,0.0,0
1581445009.83,11.719,30.273000000000003,26.367,29.785,0.0,0
1581445009.834,15.137,28.809,38.086,33.691,0.0,0
1581445009.8379998,29.785,25.391,36.621,33.203,0.0,0
1581445009.842,37.109,27.344,30.273000000000003,30.273000000000003,0.0,0
1581445009.846,28.32,33.691,24.414,27.832,0.0,0
1581445009.8479998,27.344,45.41,31.738000000000003,30.762,0.0,0
1581445009.8520002,25.879,32.715,30.762,24.902,0.0,0
1581445009.856,31.25,17.578,21.973000000000006,20.02,0.0,0
1581445009.86,26.855,22.949,12.695,27.832,0.0,0
1581445009.8639998,18.066,34.18,4.395,32.715,0.0,0
1581445009.8679998,26.367,32.227,20.508000000000006,31.738000000000003,0.0,0
1581445009.8720002,28.32,24.902,34.18,19.043,0.0,0
1581445009.875,25.391,39.062,41.504,16.113,0.0,0
1581445009.879,15.137,35.645,30.273000000000003,20.508000000000006,0.0,0
1581445009.883,12.695,25.879,20.508000000000006,16.602,0.0,0
1581445009.887,21.973000000000006,24.414,35.156,16.602,0.0,0
1581445009.891,20.508000000000006,29.785,35.156,14.16,0.0,0
1581445009.908,6.348,33.691,21.484,10.254,0.0,0
1581445009.9120002,8.789,26.855,17.578,20.02,0.0,0
1581445009.916,27.344,24.902,22.461,25.879,0.0,0
1581445009.92,30.273000000000003,28.32,24.902,19.531,0.0,0
1581445009.924,17.578,35.645,19.531,13.184,0.0,0
1581445009.928,6.348,33.203,25.391,8.789,0.0,0
1581445009.9320002,11.23,31.25,28.809,9.277,0.0,0
1581445009.935,16.602,25.879,24.902,10.742,0.0,0
1581445009.939,9.277,19.531,27.832,16.113,0.0,0
1581445009.9429998,0.0,18.066,26.367,8.789,0.0,0
1581445009.947,10.254,22.949,27.832,5.371,0.0,0
1581445009.951,19.531,23.926,25.879,15.137,0.0,0
1581445009.9529998,17.09,13.184,23.438,9.766,0.0,0
1581445009.957,18.555,20.996,27.344,9.766,0.0,0
1581445009.961,21.973000000000006,38.574,20.508000000000006,13.184,0.0,0
1581445009.965,27.832,42.969,17.578,13.184,0.0,0
1581445009.969,24.902,44.922,29.297,13.672,0.0,0
1581445009.9729998,19.531,42.48,33.203,21.484,0.0,0
1581445009.9770002,25.391,39.062,20.996,34.18,0.0,0
1581445009.98,37.598,26.855,14.648,30.762,0.0,0
1581445009.984,34.18,20.02,18.066,21.973000000000006,0.0,0
1581445009.988,17.09,27.832,27.832,24.414,0.0,0
1581445009.992,21.973000000000006,19.531,39.062,33.203,0.0,0
1581445009.996,30.762,9.277,32.227,26.855,0.0,0
1581445009.998,31.25,21.973000000000006,27.344,12.207,0.0,0
1581445010.002,20.996,39.062,28.32,10.254,0.0,0
1581445010.006,13.184,34.668,29.785,17.09,0.0,0
1581445010.01,18.066,33.691,29.297,21.484,0.0,0
1581445010.014,27.344,40.527,21.973000000000006,20.02,0.0,0
1581445010.018,25.391,35.645,14.648,18.066,0.0,0
1581445010.022,16.602,27.832,23.438,21.973000000000006,0.0,0
1581445010.025,14.648,28.809,31.738000000000003,22.461,0.0,0
1581445010.029,14.648,25.879,30.273000000000003,15.625,0.0,0
1581445010.033,13.672,13.672,28.32,9.277,0.0,0
1581445010.0370002,15.625,6.348,34.18,13.672,0.0,0
1581445010.041,17.09,10.254,34.668,26.367,0.0,0
1581445010.043,18.066,23.438,23.926,28.809,0.0,0
1581445010.0470002,30.273000000000003,35.156,18.066,25.879,0.0,0
1581445010.051,24.414,33.203,21.973000000000006,36.621,0.0,0
1581445010.055,6.836,29.785,35.645,44.434,0.0,0
1581445010.059,19.043,35.156,31.738000000000003,46.387,0.0,0
1581445010.063,31.25,33.691,22.949,40.039,0.0,0
1581445010.0670002,24.902,20.508000000000006,23.926,28.32,0.0,0
1581445010.07,20.508000000000006,13.184,19.043,22.949,0.0,0
1581445010.074,24.902,12.207,21.973000000000006,18.555,0.0,0
1581445010.0779998,30.762,17.09,25.879,13.672,0.0,0
1581445010.082,28.809,40.039,25.391,12.207,0.0,0
1581445010.086,25.391,49.316,28.809,10.742,0.0,0
1581445010.0879998,24.902,47.363,28.809,12.207,0.0,0
1581445010.092,29.785,41.01600000000001,22.949,14.16,0.0,0
1581445010.096,33.691,23.926,16.602,18.555,0.0,0
1581445010.1,27.344,12.695,22.949,20.508000000000006,0.0,0
1581445010.104,15.625,20.996,26.855,15.137,0.0,0
1581445010.1079998,24.414,31.25,28.32,21.484,0.0,0
1581445010.1120002,41.01600000000001,27.344,30.273000000000003,20.996,0.0,0
1581445010.115,29.785,24.414,15.625,16.602,0.0,0
1581445010.119,15.137,30.762,17.578,17.09,0.0,0
1581445010.123,24.414,34.18,28.809,8.789,0.0,0
1581445010.127,26.367,27.344,28.809,-0.977,0.0,0
1581445010.131,26.367,23.438,25.879,5.371,0.0,0
1581445010.133,24.414,28.809,27.344,19.043,0.0,0
1581445010.137,29.785,27.832,31.25,23.926,0.0,0
1581445010.141,51.27,22.949,29.297,21.973000000000006,0.0,0
1581445010.145,41.01600000000001,22.949,25.879,23.438,0.0,0
1581445010.149,26.855,27.832,21.973000000000006,23.926,0.0,0
1581445010.153,23.438,28.809,25.879,25.391,0.0,0
1581445010.157,19.531,28.32,30.273000000000003,22.461,0.0,0
1581445010.16,11.23,24.414,26.367,14.648,0.0,0
1581445010.164,4.883,18.066,30.273000000000003,16.113,0.0,0
1581445010.168,10.742,14.648,36.621,18.555,0.0,0
1581445010.1720002,12.695,10.742,27.344,20.02,0.0,0
1581445010.176,21.973000000000006,8.789,17.09,17.578,0.0,0
1581445010.178,14.648,10.742,31.25,11.719,0.0,0
1581445010.1820002,6.836,19.043,44.922,12.207,0.0,0
1581445010.186,19.043,25.391,41.504,12.695,0.0,0
1581445010.19,25.879,25.879,38.574,8.301,0.0,0
1581445010.194,21.973000000000006,24.414,34.668,8.789,0.0,0
1581445010.198,15.625,19.531,33.203,17.578,0.0,0
1581445010.202,14.648,24.902,36.621,11.23,0.0,0
1581445010.205,20.508000000000006,27.832,40.039,1.953,0.0,0
1581445010.209,19.043,21.973000000000006,41.992,12.695,0.0,0
1581445010.2129998,11.23,18.555,33.203,20.02,0.0,0
1581445010.217,17.09,22.949,24.414,18.555,0.0,0
1581445010.221,20.996,25.391,29.785,9.766,0.0,0
1581445010.2229998,18.066,22.461,37.109,7.812,0.0,0
1581445010.2270002,16.113,18.066,35.156,20.996,0.0,0
1581445010.231,7.812,15.625,29.297,23.926,0.0,0
1581445010.235,19.531,26.855,26.855,22.949,0.0,0
1581445010.2389998,36.621,32.227,35.645,21.484,0.0,0
1581445010.2429998,29.297,23.926,42.48,24.902,0.0,0
1581445010.2470002,25.391,22.949,40.039,29.785,0.0,0
1581445010.25,33.691,30.762,33.203,28.809,0.0,0
1581445010.254,27.832,32.715,32.227,27.832,0.0,0
1581445010.258,20.508000000000006,28.32,34.668,30.273000000000003,0.0,0
1581445010.262,20.02,16.602,36.133,34.668,0.0,0
1581445010.266,16.602,16.602,36.621,30.273000000000003,0.0,0
1581445010.283,25.879,21.484,40.527,25.879,0.0,0
1581445010.2870002,31.738000000000003,22.949,45.41,20.996,0.0,0
1581445010.291,16.602,44.434,34.668,22.949,0.0,0
1581445010.295,13.184,51.27,19.043,24.414,0.0,0
1581445010.299,21.484,36.133,25.879,10.254,0.0,0
1581445010.303,21.484,31.25,36.621,6.348,0.0,0
1581445010.3070002,16.113,34.668,32.715,10.254,0.0,0
1581445010.31,17.578,34.668,31.738000000000003,19.043,0.0,0
1581445010.314,24.414,29.297,41.992,28.809,0.0,0
1581445010.3179998,34.668,26.367,39.062,28.32,0.0,0
1581445010.322,30.273000000000003,25.879,25.879,28.809,0.0,0
1581445010.326,16.113,33.203,25.879,23.926,0.0,0
1581445010.327,17.09,29.297,27.832,12.207,0.0,0
1581445010.331,29.297,20.508000000000006,32.227,24.902,0.0,0
1581445010.335,30.273000000000003,23.926,32.715,35.645,0.0,0
1581445010.339,16.602,25.879,35.156,30.273000000000003,0.0,0
1581445010.343,12.207,30.273000000000003,34.668,24.902,0.0,0
1581445010.347,21.484,27.344,34.18,27.344,0.0,0
1581445010.351,23.438,16.113,34.18,31.25,0.0,0
1581445010.354,16.602,23.438,27.832,31.738000000000003,0.0,0
1581445010.3579998,7.812,24.902,27.344,31.25,0.0,0
1581445010.3620002,8.789,20.02,31.25,30.273000000000003,0.0,0
1581445010.3660002,13.184,28.32,36.621,29.785,0.0,0
1581445010.37,4.883,19.531,34.18,29.785,0.0,0
1581445010.3720002,8.301,14.16,26.367,38.086,0.0,0
1581445010.3760002,21.973000000000006,20.02,22.461,34.18,0.0,0
1581445010.38,25.391,26.855,22.461,27.344,0.0,0
1581445010.3839998,20.996,30.762,32.227,29.297,0.0,0
1581445010.3879998,17.09,29.785,31.738000000000003,31.738000000000003,0.0,0
1581445010.3920002,20.996,24.414,31.738000000000003,31.738000000000003,0.0,0
1581445010.396,30.762,23.438,42.48,30.273000000000003,0.0,0
1581445010.399,30.762,26.855,42.969,32.227,0.0,0
1581445010.403,15.137,32.227,35.645,31.738000000000003,0.0,0
1581445010.407,13.184,34.18,32.227,28.32,0.0,0
1581445010.411,27.832,35.156,30.273000000000003,31.738000000000003,0.0,0
1581445010.415,34.18,38.574,30.273000000000003,33.203,0.0,0
1581445010.417,28.809,33.203,27.832,31.738000000000003,0.0,0
1581445010.421,19.531,23.926,26.367,30.273000000000003,0.0,0
1581445010.425,22.949,14.648,12.207,23.926,0.0,0
1581445010.429,28.32,12.695,8.789,19.531,0.0,0
1581445010.4329998,22.949,29.785,29.785,16.113,0.0,0
1581445010.437,20.996,43.945,29.785,18.555,0.0,0
1581445010.441,24.414,35.645,25.879,15.625,0.0,0
1581445010.444,29.297,27.344,29.297,6.348,0.0,0
1581445010.448,30.762,35.645,34.18,18.555,0.0,0
1581445010.452,22.949,33.203,41.504,29.297,0.0,0
1581445010.456,14.648,30.273000000000003,32.715,20.02,0.0,0
1581445010.46,22.461,31.25,19.531,13.184,0.0,0
1581445010.462,29.785,28.32,14.648,20.02,0.0,0
1581445010.466,23.438,29.785,6.836,32.227,0.0,0
1581445010.47,27.344,32.227,7.324,35.645,0.0,0
1581445010.474,40.527,27.832,21.484,30.762,0.0,0
1581445010.478,40.039,24.902,29.297,25.879,0.0,0
1581445010.482,26.855,24.902,29.297,22.461,0.0,0
1581445010.486,19.043,36.621,13.672,27.832,0.0,0
1581445010.4889998,20.508000000000006,38.574,10.254,31.738000000000003,0.0,0
1581445010.4929998,22.949,33.691,24.414,25.391,0.0,2
1581445010.4970002,19.531,38.086,29.297,28.32,0.0,0
1581445010.5010002,19.531,29.297,24.902,34.18,0.0,0
1581445010.505,20.996,24.902,20.508000000000006,27.832,0.0,0
1581445010.5070002,25.391,35.156,23.926,21.484,0.0,0
1581445010.5110002,25.879,40.039,31.25,21.973000000000006,0.0,0
1581445010.515,17.09,20.508000000000006,31.25,22.949,0.0,0
1581445010.519,24.902,2.441,18.555,25.391,0.0,0
1581445010.5229998,35.156,20.02,16.113,25.391,0.0,0
1581445010.5270002,30.762,32.715,20.996,19.531,0.0,0
1581445010.531,17.09,26.367,22.461,28.32,0.0,0
1581445010.534,10.742,31.738000000000003,25.391,29.785,0.0,0
1581445010.538,14.16,41.992,18.555,13.184,0.0,0
1581445010.542,19.531,41.504,13.184,10.742,0.0,0
1581445010.546,12.207,33.691,18.066,15.137,0.0,0
1581445010.55,7.812,34.668,22.949,18.066,0.0,0
1581445010.552,19.531,33.691,31.738000000000003,22.461,0.0,0
1581445010.556,23.438,17.09,35.645,24.414,0.0,0
1581445010.56,21.973000000000006,16.602,31.738000000000003,28.32,0.0,0
1581445010.564,20.508000000000006,25.391,32.715,33.691,0.0,0
1581445010.5679998,16.602,28.32,36.133,23.438,0.0,0
1581445010.572,20.508000000000006,34.668,29.785,18.066,0.0,0
1581445010.576,20.508000000000006,37.109,22.461,16.602,0.0,0
1581445010.579,16.113,42.48,30.273000000000003,22.949,0.0,0
1581445010.583,18.555,40.039,28.809,29.297,0.0,0
1581445010.587,24.414,36.133,14.648,20.996,0.0,0
1581445010.591,28.32,42.48,16.602,24.902,0.0,0
1581445010.595,24.414,24.414,27.344,32.715,0.0,0
1581445010.597,18.066,12.207,31.25,25.391,0.0,0
1581445010.601,22.949,18.555,36.133,18.555,0.0,0
1581445010.605,23.926,22.461,43.945,17.09,0.0,0
1581445010.609,21.973000000000006,26.367,41.992,19.531,0.0,0
1581445010.613,24.902,24.414,29.297,24.414,0.0,0
1581445010.617,23.438,27.832,22.949,24.902,0.0,0
1581445010.621,27.344,23.438,23.438,25.391,0.0,0
1581445010.6239998,28.32,25.879,25.391,27.344,0.0,0
1581445010.6279998,15.625,37.598,32.715,20.02,0.0,0
1581445010.6320002,8.789,37.598,37.598,7.324,0.0,0
1581445010.6360002,16.602,31.738000000000003,37.598,2.441,0.0,0
1581445010.64,15.137,33.691,33.203,3.906,0.0,0
1581445010.657,0.488,31.25,34.18,4.395,0.0,0
1581445010.661,0.977,13.672,23.926,13.184,0.0,0
1581445010.665,14.648,12.207,14.648,10.742,0.0,0
1581445010.669,16.602,20.996,29.785,6.836,0.0,0
1581445010.673,9.766,23.438,33.203,24.902,0.0,0
1581445010.677,3.418,22.461,33.691,21.484,0.0,0
1581445010.681,8.789,23.926,31.25,6.348,0.0,0
1581445010.684,24.414,41.992,9.766,6.348,0.0,0
1581445010.688,30.762,51.758,7.324,14.648,0.0,0
1581445010.6920002,23.926,41.01600000000001,31.25,19.531,0.0,0
1581445010.696,28.809,38.086,40.039,19.531,0.0,0
1581445010.7,40.039,35.156,33.203,21.484,0.0,0
1581445010.7029998,36.621,32.227,33.203,24.414,0.0,0
1581445010.707,26.367,35.156,37.109,23.438,0.0,0
1581445010.711,31.738000000000003,24.902,35.645,21.973000000000006,0.0,0
1581445010.715,39.551,24.902,29.297,22.461,0.0,0
1581445010.719,32.715,30.762,23.926,23.438,0.0,0
1581445010.7229998,27.832,39.062,18.066,24.902,0.0,0
1581445010.7270002,19.043,49.805,24.902,20.996,0.0,0
1581445010.73,19.531,44.922,36.621,16.113,0.0,0
1581445010.734,31.25,30.273000000000003,34.18,18.555,0.0,0
1581445010.738,18.066,27.344,22.461,26.367,0.0,0
1581445010.742,11.719,17.578,22.949,34.668,0.0,0
1581445010.746,22.461,15.625,32.227,40.039,0.0,0
1581445010.748,29.297,29.785,32.715,36.133,0.0,0
1581445010.752,12.695,30.762,29.297,25.391,0.0,0
1581445010.756,-1.465,33.691,24.902,24.414,0.0,0
1581445010.76,7.324,39.551,18.066,28.809,0.0,0
1581445010.764,17.09,23.438,17.578,26.855,0.0,0
1581445010.768,18.066,22.461,30.273000000000003,22.461,0.0,0
1581445010.772,12.207,37.598,38.574,31.25,0.0,0
1581445010.775,19.043,35.645,38.086,46.875,0.0,0
1581445010.779,27.832,33.203,37.109,50.78100000000001,0.0,0
1581445010.783,36.133,30.273000000000003,26.367,56.64100000000001,0.0,0
1581445010.7870002,40.039,24.414,24.414,62.988,0.0,0
1581445010.791,29.785,20.508000000000006,26.855,46.387,0.0,0
1581445010.793,35.645,20.02,15.625,35.645,0.0,0
1581445010.7970002,38.086,25.879,10.742,36.621,0.0,0
1581445010.801,31.738000000000003,33.203,23.926,42.969,0.0,0
1581445010.805,32.715,31.25,22.461,52.734,0.0,0
1581445010.809,34.668,36.133,18.066,37.109,0.0,0
1581445010.813,36.133,42.48,30.273000000000003,22.949,0.0,0
1581445010.8170002,25.391,39.551,29.785,25.391,0.0,0
1581445010.82,22.461,34.18,28.32,29.785,0.0,0
1581445010.824,26.367,36.133,31.738000000000003,25.879,0.0,0
1581445010.8279998,24.902,24.902,30.762,16.602,0.0,0
1581445010.832,17.578,22.949,30.762,17.578,0.0,0
1581445010.836,12.695,31.738000000000003,22.949,26.367,0.0,0
1581445010.8379998,14.648,29.297,21.973000000000006,29.785,0.0,0
1581445010.842,22.461,32.715,19.043,28.32,0.0,0
1581445010.846,29.297,30.762,12.695,31.738000000000003,0.0,0
1581445010.85,24.902,35.156,18.066,37.109,0.0,0
1581445010.854,21.973000000000006,38.574,18.066,29.297,0.0,0
1581445010.8579998,32.715,44.434,26.855,21.973000000000006,0.0,0
1581445010.8620002,38.086,50.293,37.598,21.484,0.0,0
1581445010.865,29.297,44.434,29.297,22.461,0.0,0
1581445010.869,27.832,39.062,21.973000000000006,30.762,0.0,0
1581445010.873,37.598,29.297,25.391,32.715,0.0,0
1581445010.877,46.875,20.508000000000006,23.438,30.273000000000003,0.0,0
1581445010.881,44.434,35.645,21.484,27.832,0.0,0
1581445010.883,31.738000000000003,50.78100000000001,25.879,13.184,0.0,0
1581445010.887,28.32,55.664,33.203,11.719,0.0,0
1581445010.891,36.133,47.852,32.715,17.578,0.0,0
1581445010.895,34.18,32.715,26.367,19.043,0.0,0
1581445010.899,27.344,36.621,24.902,17.578,0.0,0
1581445010.903,19.531,40.527,19.043,15.625,0.0,0
1581445010.907,15.625,38.086,17.09,17.09,0.0,0
1581445010.91,11.719,29.297,17.578,8.301,0.0,0
1581445010.914,3.906,26.367,20.02,7.812,0.0,0
1581445010.918,2.93,19.531,29.785,11.23,0.0,0
1581445010.9220002,4.395,6.836,35.156,3.906,0.0,0
1581445010.926,16.602,20.02,37.598,2.441,0.0,0
1581445010.928,22.461,41.992,31.738000000000003,9.766,0.0,0
1581445010.9320002,17.09,41.504,21.484,18.555,0.0,0
1581445010.936,24.414,32.715,20.508000000000006,23.438,0.0,0
1581445010.94,32.227,33.691,20.02,14.16,0.0,0
1581445010.944,29.785,33.203,13.672,15.137,0.0,0
1581445010.948,23.926,36.133,16.113,22.461,0.0,0
1581445010.952,20.996,39.551,29.297,15.625,0.0,0
1581445010.955,28.809,34.668,30.273000000000003,7.324,0.0,0
1581445010.959,25.391,25.391,23.926,4.395,0.0,0
1581445010.9629998,17.578,20.508000000000006,20.02,14.648,0.0,0
1581445010.967,22.461,19.531,22.949,25.391,0.0,0
1581445010.971,25.879,25.879,29.785,23.438,0.0,0
1581445010.9729998,30.762,30.762,26.855,26.855,0.0,0
1581445010.9770002,23.438,29.785,20.02,28.32,0.0,0
1581445010.981,12.695,33.691,17.578,25.391,0.0,0
1581445010.985,13.672,28.809,15.625,17.578,0.0,0
1581445010.9889998,10.742,25.879,21.484,4.395,0.0,0
1581445010.9929998,7.324,34.668,35.645,5.859,0.0,0
1581445010.9970002,6.348,28.32,34.668,11.719,0.0,0
1581445011.0,17.578,10.254,30.762,20.996,0.0,0
1581445011.004,23.926,12.695,25.879,24.414,0.0,0
1581445011.008,14.648,32.715,19.531,19.531,0.0,0
1581445011.012,12.207,53.71100000000001,26.367,28.32,0.0,0
1581445011.016,19.531,57.129,30.762,35.645,0.0,0
1581445011.033,24.414,41.01600000000001,25.879,29.785,0.0,0
1581445011.0370002,27.832,28.32,30.273000000000003,34.18,0.0,0
1581445011.041,22.949,29.297,30.762,37.109,0.0,0
1581445011.045,24.902,23.438,29.297,32.227,0.0,0
1581445011.049,37.109,30.273000000000003,30.762,31.738000000000003,0.0,0
1581445011.053,30.273000000000003,45.41,26.367,33.691,0.0,0
1581445011.0570002,27.344,43.457,23.438,40.527,0.0,0
1581445011.06,27.344,38.574,22.949,30.762,0.0,0
1581445011.064,17.578,32.715,26.855,7.812,0.0,0
1581445011.0679998,21.484,30.762,33.691,0.977,0.0,0
1581445011.072,22.461,30.762,31.738000000000003,8.301,0.0,0
1581445011.076,13.672,25.391,22.949,8.301,0.0,0
1581445011.0779998,18.066,20.996,22.461,7.324,0.0,0
1581445011.082,31.25,25.879,35.645,0.977,0.0,0
1581445011.086,30.273000000000003,20.996,35.156,-0.488,0.0,0
1581445011.09,22.461,10.254,22.949,10.254,0.0,0
1581445011.094,17.09,12.695,32.715,10.742,0.0,0
1581445011.0979998,17.09,21.973000000000006,36.621,4.883,0.0,0
1581445011.1020002,18.066,21.484,31.25,0.0,0.0,0
1581445011.105,17.09,20.996,32.227,6.348,0.0,0
1581445011.109,14.16,22.461,36.133,11.23,0.0,0
1581445011.113,18.066,20.02,34.18,7.324,0.0,0
1581445011.117,32.715,22.461,23.438,13.672,0.0,0
1581445011.121,29.297,25.391,20.02,19.531,0.0,0
1581445011.123,9.277,22.949,34.668,13.184,0.0,0
1581445011.127,9.277,19.043,45.898,4.883,0.0,0
1581445011.131,17.09,20.508000000000006,38.086,2.441,0.0,0
1581445011.135,14.648,13.672,34.18,7.812,0.0,0
1581445011.139,12.207,15.137,28.32,14.648,0.0,0
1581445011.143,13.672,20.02,13.672,13.672,0.0,0
1581445011.147,16.602,9.766,19.043,6.836,0.0,0
1581445011.15,19.043,9.766,28.32,9.766,0.0,0
1581445011.154,14.648,18.555,30.273000000000003,12.695,0.0,0
1581445011.158,12.207,20.996,36.133,11.23,0.0,0
1581445011.1620002,20.996,19.531,42.969,16.113,0.0,0
1581445011.166,23.926,15.625,42.48,20.996,0.0,0
1581445011.168,17.578,13.184,36.621,23.926,0.0,0
1581445011.1720002,20.508000000000006,2.441,25.391,28.809,0.0,0
1581445011.176,31.25,8.301,16.602,27.344,0.0,0
1581445011.18,27.832,27.344,28.809,17.578,0.0,0
1581445011.184,17.578,20.996,38.086,14.648,0.0,0
1581445011.188,13.672,14.16,37.598,19.531,0.0,0
1581445011.1920002,13.184,17.578,35.645,19.531,0.0,0
1581445011.195,23.438,29.785,31.738000000000003,17.09,0.0,0
1581445011.199,19.531,29.297,24.414,23.926,0.0,0
1581445011.2029998,6.836,15.625,29.297,25.879,0.0,0
1581445011.207,15.137,20.02,33.203,22.461,0.0,0
1581445011.211,28.32,21.973000000000006,32.715,20.508000000000006,0.0,0
1581445011.2129998,27.832,26.367,33.691,16.113,0.0,0
1581445011.217,19.531,37.109,30.273000000000003,18.066,0.0,0
1581445011.221,20.508000000000006,29.297,38.574,19.531,0.0,0
1581445011.225,25.391,22.461,36.621,14.16,0.0,0
1581445011.229,33.203,25.391,32.227,15.625,0.0,0
1581445011.2329998,30.273000000000003,20.996,35.645,17.578,0.0,0
1581445011.2370002,23.438,18.555,35.645,19.531,0.0,0
1581445011.24,30.762,22.949,37.109,17.09,0.0,0
1581445011.244,33.691,31.738000000000003,30.273000000000003,5.371,0.0,0
1581445011.248,25.391,38.574,27.832,10.742,0.0,0
1581445011.252,14.16,33.203,30.273000000000003,13.672,0.0,0
1581445011.256,17.09,33.203,27.344,13.184,0.0,0
1581445011.258,29.297,34.668,26.855,19.531,0.0,0
1581445011.262,18.555,20.996,23.926,22.949,0.0,0
1581445011.266,4.395,12.695,26.367,25.391,0.0,0
1581445011.27,6.348,16.113,29.785,19.043,0.0,0
1581445011.274,12.207,17.578,22.949,20.02,0.0,0
1581445011.278,17.09,10.742,18.066,33.691,0.0,0
1581445011.282,16.113,12.695,20.02,29.297,0.0,0
1581445011.285,13.672,21.484,28.809,20.996,0.0,0
1581445011.289,25.879,28.32,37.598,24.414,0.0,0
1581445011.293,29.785,31.738000000000003,32.227,20.508000000000006,0.0,0
1581445011.2970002,19.531,25.879,25.391,22.461,0.0,0
1581445011.301,17.578,36.133,26.855,29.297,0.0,0
1581445011.303,23.438,46.875,25.391,21.973000000000006,0.0,0
1581445011.3070002,27.344,33.203,16.602,14.16,0.0,0
1581445011.311,22.949,14.16,15.625,16.113,0.0,0
1581445011.315,15.625,14.648,22.949,18.555,0.0,0
1581445011.319,16.113,26.367,29.785,13.672,0.0,0
1581445011.323,21.484,25.879,34.668,11.719,0.0,0
1581445011.327,19.043,28.32,36.133,21.973000000000006,0.0,0
1581445011.33,11.23,29.297,32.715,23.926,0.0,0
1581445011.334,13.184,27.832,27.344,23.438,0.0,0
1581445011.3379998,20.996,36.133,26.855,19.043,0.0,0
1581445011.342,17.09,43.457,32.227,12.695,0.0,0
1581445011.346,7.812,36.621,33.203,8.301,0.0,0
1581445011.3620002,7.324,28.809,30.762,5.859,0.0,0
1581445011.3660002,20.996,26.855,29.785,15.625,0.0,0
1581445011.37,29.785,18.066,36.621,21.484,0.0,0
1581445011.3739998,19.043,1.953,32.715,21.484,0.0,0
1581445011.3779998,10.254,6.836,34.668,20.508000000000006,0.0,0
1581445011.3820002,14.648,26.855,38.086,12.695,0.0,0
1581445011.3860002,21.484,40.039,33.691,10.254,0.0,0
1581445011.389,20.02,50.293,36.133,10.254,0.0,0
1581445011.393,12.207,40.039,36.133,10.742,0.0,0
1581445011.397,12.207,27.344,30.762,10.254,0.0,0
1581445011.401,23.438,34.668,27.344,5.859,0.0,0
1581445011.405,30.762,40.527,28.809,17.09,0.0,0
1581445011.407,25.879,14.16,22.949,29.785,0.0,0
1581445011.411,28.32,3.906,25.391,35.156,0.0,0
1581445011.415,29.297,21.973000000000006,30.273000000000003,29.785,0.0,0
1581445011.419,20.508000000000006,37.598,32.227,20.508000000000006,0.0,0
1581445011.423,14.648,46.875,43.457,20.02,0.0,0
1581445011.427,14.648,41.504,52.246,20.02,0.0,0
1581445011.431,16.113,35.156,43.945,13.672,0.0,0
1581445011.434,19.043,28.809,35.645,11.719,0.0,0
1581445011.438,15.137,23.926,41.01600000000001,18.555,0.0,0
1581445011.4420002,15.137,23.438,38.086,26.855,0.0,0
1581445011.446,27.832,17.09,27.344,23.438,0.0,0
1581445011.45,40.039,22.461,14.648,21.973000000000006,0.0,0
1581445011.452,42.969,41.992,23.926,25.391,0.0,0
1581445011.456,31.738000000000003,42.969,40.527,21.484,0.0,0
1581445011.46,26.367,31.25,42.969,13.672,0.0,0
1581445011.464,37.109,33.691,42.48,9.766,0.0,0
1581445011.468,39.062,42.48,34.668,11.719,0.0,0
1581445011.472,27.832,30.273000000000003,23.438,17.09,0.0,0
1581445011.476,21.484,14.16,21.484,22.949,0.0,0
1581445011.479,30.273000000000003,18.066,23.926,22.949,0.0,0
1581445011.4829998,32.227,30.762,22.461,15.625,0.0,0
1581445011.4870002,16.113,40.039,21.484,15.137,0.0,0
1581445011.4910002,9.277,48.828,18.066,15.625,0.0,0
1581445011.495,16.113,42.48,16.602,10.742,0.0,0
1581445011.4970002,19.043,24.414,25.879,5.859,0.0,0
1581445011.5010002,13.672,18.066,38.574,3.418,0.0,0
1581445011.505,11.719,10.742,35.156,9.766,0.0,0
1581445011.5089998,23.926,-4.883,28.809,20.996,0.0,0
1581445011.5129998,31.738000000000003,5.371,28.809,25.391,0.0,0
1581445011.5170002,24.414,26.855,27.344,14.648,0.0,0
1581445011.521,20.02,34.18,27.344,11.23,0.0,0
1581445011.524,18.555,41.01600000000001,29.785,14.16,0.0,0
1581445011.528,16.113,46.875,28.32,3.906,0.0,0
1581445011.532,16.113,41.01600000000001,22.461,7.324,0.0,0
1581445011.536,21.973000000000006,26.855,0.0,24.414,0.0,0
1581445011.54,23.926,18.066,-5.859,23.926,0.0,0
1581445011.542,25.391,17.09,24.414,13.672,0.0,0
1581445011.546,27.344,18.555,35.156,4.395,0.0,2
1581445011.55,19.043,18.555,35.156,8.789,0.0,0
1581445011.554,14.648,18.555,33.203,16.602,0.0,0
1581445011.5579998,23.438,9.277,27.832,15.625,0.0,0
1581445011.562,33.203,15.137,27.344,13.672,0.0,0
1581445011.566,27.344,30.273000000000003,25.391,16.113,0.0,0
1581445011.569,21.973000000000006,25.391,11.23,20.996,0.0,0
1581445011.573,24.414,20.996,5.371,19.043,0.0,0
1581445011.577,29.785,30.273000000000003,20.996,21.484,0.0,0
1581445011.581,31.25,32.227,46.387,31.25,0.0,0
1581445011.585,6.836,23.438,52.734,20.996,0.0,0
1581445011.587,3.418,27.344,36.621,9.766,0.0,0
1581445011.591,22.949,26.855,31.25,12.695,0.0,0
1581445011.595,23.926,20.996,31.738000000000003,16.602,0.0,0
1581445011.599,20.996,20.508000000000006,17.578,21.973000000000006,0.0,0
1581445011.603,26.855,22.461,8.789,17.09,0.0,0
1581445011.607,33.203,20.508000000000006,20.996,8.301,0.0,0
1581445011.611,32.227,10.742,26.855,11.23,0.0,0
1581445011.6139998,31.738000000000003,8.301,36.621,21.973000000000006,0.0,0
1581445011.6179998,28.809,11.719,45.898,27.344,0.0,0
1581445011.6220002,26.855,9.277,26.855,22.949,0.0,0
1581445011.6260002,39.551,14.648,16.602,22.949,0.0,0
1581445011.63,33.203,24.902,22.461,22.949,0.0,0
1581445011.6320002,20.02,30.762,14.16,24.414,0.0,0
1581445011.6360002,25.391,35.645,13.672,21.484,0.0,0
1581445011.64,28.32,29.785,15.137,11.719,0.0,0
1581445011.644,28.32,-1.953,25.391,12.207,0.0,0
1581445011.6479998,25.391,-17.09,43.945,24.902,0.0,0
1581445011.6520002,20.02,13.184,41.01600000000001,21.973000000000006,0.0,0
1581445011.656,21.484,33.203,27.344,9.766,0.0,0
1581445011.659,21.973000000000006,35.645,20.508000000000006,9.277,0.0,0
1581445011.663,18.066,34.668,18.066,16.113,0.0,0
1581445011.667,23.926,23.438,22.949,23.926,0.0,0
1581445011.671,36.621,14.16,4.395,27.344,0.0,0
1581445011.675,39.551,20.508000000000006,5.371,14.648,0.0,0
1581445011.677,22.949,24.414,32.715,0.488,0.0,0
1581445011.681,7.812,28.809,36.133,1.465,0.0,0
1581445011.685,12.207,36.621,31.25,0.488,0.0,0
1581445011.689,17.09,38.086,26.367,-9.766,0.0,0
1581445011.6929998,12.695,30.273000000000003,25.391,-4.883,0.0,0
1581445011.697,8.301,19.043,28.809,11.23,0.0,0
1581445011.701,11.23,12.207,23.926,15.137,0.0,0
1581445011.704,21.973000000000006,12.695,15.137,18.066,0.0,0
1581445011.708,26.367,1.953,14.648,24.414,0.0,0
1581445011.712,16.113,-0.977,25.391,21.484,0.0,0
1581445011.716,10.742,20.508000000000006,39.062,18.066,0.0,0
1581445011.72,13.184,35.156,36.133,13.184,0.0,0
1581445011.7229998,20.508000000000006,37.109,23.926,17.578,0.0,0
1581445011.7270002,26.367,24.902,27.344,27.832,0.0,0
1581445011.731,21.484,17.578,41.992,30.273000000000003,0.0,0
1581445011.735,18.555,26.367,37.598,21.484,0.0,0
1581445011.7389998,20.508000000000006,14.648,16.602,20.508000000000006,0.0,0
1581445011.7429998,20.996,10.254,26.367,23.438,0.0,0
1581445011.7470002,14.16,6.348,42.969,23.926,0.0,0
1581445011.75,15.137,-8.301,41.01600000000001,30.273000000000003,0.0,0
1581445011.754,28.32,5.371,35.156,27.832,0.0,0
1581445011.758,24.414,17.578,33.203,20.508000000000006,0.0,0
1581445011.762,20.02,12.207,31.25,27.344,0.0,0
1581445011.766,26.367,9.766,19.043,30.273000000000003,0.0,0
1581445011.783,37.598,7.324,18.555,25.391,0.0,0
1581445011.7870002,40.039,0.488,22.461,30.273000000000003,0.0,0
1581445011.791,29.785,-2.93,13.184,36.133,0.0,0
1581445011.795,29.297,-4.883,13.672,42.48,0.0,0
1581445011.799,33.691,-17.578,33.203,37.109,0.0,0
1581445011.803,31.738000000000003,-23.926,37.109,36.621,0.0,0
1581445011.8070002,21.484,-6.348,35.645,33.691,0.0,0
1581445011.81,10.742,8.789,41.504,20.508000000000006,0.0,0
1581445011.814,21.484,1.953,39.062,26.855,0.0,0
1581445011.8179998,31.738000000000003,-1.465,31.738000000000003,28.32,0.0,0
1581445011.822,16.113,7.812,20.996,14.648,0.0,0
1581445011.826,10.254,14.16,25.879,19.043,0.0,0
1581445011.8279998,18.066,5.371,9.277,22.461,0.0,0
1581445011.832,27.832,0.488,2.441,18.555,0.0,0
1581445011.836,32.715,0.977,25.879,15.137,0.0,0
1581445011.84,22.461,4.395,33.203,12.207,0.0,0
1581445011.844,20.02,4.883,28.809,11.23,0.0,0
1581445011.8479998,30.762,5.859,21.484,13.672,0.0,0
1581445011.8520002,32.227,16.602,24.902,17.09,0.0,0
1581445011.855,19.531,16.113,26.367,13.672,0.0,0
1581445011.859,16.113,5.859,20.02,10.254,0.0,0
1581445011.863,33.203,6.348,17.578,18.066,0.0,0
1581445011.867,41.01600000000001,0.977,20.996,18.555,0.0,0
1581445011.871,26.855,-3.906,16.113,15.137,0.0,0
1581445011.873,20.508000000000006,4.395,14.16,19.531,0.0,0
1581445011.877,21.484,11.23,14.648,11.23,0.0,0
1581445011.881,23.926,20.508000000000006,20.02,-0.488,0.0,0
1581445011.885,24.414,26.367,25.391,2.441,0.0,0
1581445011.889,22.461,17.09,22.461,11.23,0.0,0
1581445011.893,36.133,11.719,21.484,18.066,0.0,0
1581445011.897,45.898,19.531,21.973000000000006,20.02,0.0,0
1581445011.9,32.227,23.926,29.785,20.996,0.0,0
1581445011.904,20.996,21.484,26.367,21.973000000000006,0.0,0
1581445011.908,18.555,18.555,16.113,18.066,0.0,0
1581445011.9120002,24.902,14.648,11.23,20.996,0.0,0
1581445011.916,24.414,6.836,18.555,22.461,0.0,0
1581445011.918,14.16,10.254,31.25,22.949,0.0,0
1581445011.9220002,9.277,13.672,34.668,27.832,0.0,0
1581445011.926,14.16,16.113,38.086,21.973000000000006,0.0,0
1581445011.93,24.414,21.484,42.969,19.043,0.0,0
1581445011.934,23.926,24.902,40.527,26.855,0.0,0
1581445011.938,24.414,27.344,37.598,38.574,0.0,0
1581445011.9420002,34.668,31.25,41.01600000000001,44.434,0.0,0
1581445011.945,31.25,22.461,38.574,37.109,0.0,0
1581445011.949,19.531,17.09,36.133,20.508000000000006,0.0,0
1581445011.9529998,9.277,23.438,34.668,12.695,0.0,0
1581445011.957,-5.859,21.973000000000006,32.227,1.465,0.0,0
1581445011.961,-19.043,19.531,32.227,-23.926,0.0,0
1581445011.9629998,-24.902,24.414,40.527,-35.645,0.0,0
1581445011.967,-45.41,35.156,48.34,-50.293,0.0,0
1581445011.971,-72.75399999999998,49.805,37.109,-77.637,0.0,0
1581445011.975,-95.215,48.34,39.551,-105.957,0.0,0
1581445011.979,-123.535,40.039,49.316,-138.672,0.0,0
1581445011.9829998,-154.297,44.922,57.129,-163.57399999999996,0.0,0
1581445011.9870002,-175.293,54.688,67.383,-181.152,0.0,0
1581445011.99,-197.754,56.152,63.965,-217.285,0.0,0
1581445011.994,-210.938,58.105,60.547,-233.887,0.0,0
1581445011.998,-225.586,45.41,55.664,-236.328,0.0,0
1581445012.002,-244.629,42.48,61.523,-250.488,0.0,0
1581445012.006,-246.582,66.895,63.965,-254.883,0.0,0
1581445012.008,-241.211,74.219,61.035,-262.695,0.0,0
1581445012.012,-237.793,61.523,74.219,-260.742,0.0,0
1581445012.016,-232.422,63.965,64.941,-240.723,0.0,0
1581445012.02,-223.145,72.75399999999998,53.71100000000001,-233.398,0.0,0
1581445012.024,-195.312,69.824,68.359,-218.75,0.0,0
1581445012.028,-167.96900000000005,70.312,57.129,-199.219,0.0,0
1581445012.032,-155.762,70.801,44.434,-175.78099999999995,0.0,0
1581445012.035,-132.812,46.875,44.922,-143.066,0.0,0
1581445012.039,-106.445,30.762,41.992,-125.488,0.0,0
1581445012.043,-87.402,45.898,43.457,-110.84,0.0,0
1581445012.0470002,-64.941,54.199,28.809,-75.684,0.0,0
1581445012.051,-45.41,47.852,27.832,-49.316,0.0,0
1581445012.053,-22.949,43.945,27.344,-36.621,0.0,0
1581445012.0570002,-3.418,46.387,8.789,-22.461,0.0,0
1581445012.061,3.906,41.992,15.137,-5.371,0.0,0
1581445012.065,6.348,31.25,25.391,8.301,0.0,0
1581445012.069,22.461,24.414,14.16,19.531,0.0,0
1581445012.073,43.457,13.672,5.859,41.504,0.0,0
1581445012.077,52.734,8.301,0.488,48.828,0.0,0
1581445012.08,54.199,15.137,-5.371,50.78100000000001,0.0,0
1581445012.084,70.312,21.973000000000006,10.742,67.383,0.0,0
1581445012.0879998,86.914,18.066,14.648,68.848,0.0,0
1581445012.092,90.82,6.836,14.16,68.848,0.0,0
1581445012.096,94.238,9.277,15.625,91.797,0.0,0
1581445012.0979998,97.168,14.648,12.695,94.727,0.0,0
1581445012.1020002,100.586,13.184,6.836,83.49600000000002,0.0,0
1581445012.106,107.422,10.742,8.301,90.332,0.0,0
1581445012.11,102.539,3.418,15.137,101.562,0.0,0
1581445012.1139998,100.586,0.0,-5.859,110.352,0.0,0
1581445012.1179998,110.352,8.789,-11.719,112.793,0.0,0
1581445012.1220002,115.234,10.742,15.625,105.469,0.0,0
1581445012.125,110.352,9.766,30.273000000000003,101.562,0.0,0
1581445012.129,100.586,2.93,24.414,107.91,0.0,0
1581445012.133,108.398,-2.93,7.324,114.746,0.0,0
1581445012.137,122.07,8.301,7.812,109.863,0.0,0
1581445012.141,115.723,11.719,12.695,94.238,0.0,0
1581445012.158,103.027,-1.953,10.742,89.844,0.0,0
1581445012.1620002,104.004,-3.418,10.742,96.68,0.0,0
1581445012.166,117.676,6.836,10.742,105.469,0.0,0
1581445012.17,121.094,1.953,-5.859,106.445,0.0,0
1581445012.174,106.934,5.859,-10.254,99.121,0.0,0
1581445012.178,99.609,18.066,8.301,97.168,0.0,0
1581445012.1820002,107.422,17.09,19.043,98.145,0.0,0
1581445012.185,108.398,11.23,24.414,97.656,0.0,0
1581445012.189,97.656,13.184,15.625,96.191,0.0,0
1581445012.1929998,84.961,14.16,7.324,88.867,0.0,0
1581445012.197,85.449,9.277,9.766,81.055,0.0,0
1581445012.201,94.727,9.766,14.16,87.891,0.0,0
1581445012.2029998,89.355,11.719,6.348,93.262,0.0,0
1581445012.207,79.59,9.277,1.953,88.867,0.0,0
1581445012.211,81.055,5.371,12.207,76.172,0.0,0
1581445012.215,85.449,9.766,21.484,68.359,0.0,0
1581445012.219,84.961,17.09,25.391,73.73,0.0,0
1581445012.2229998,76.172,21.973000000000006,17.09,70.801,0.0,0
1581445012.2270002,67.87100000000001,20.508000000000006,1.465,65.43,0.0,0
1581445012.23,77.637,23.926,9.766,64.941,0.0,0
1581445012.234,81.055,20.996,20.996,62.988,0.0,0
1581445012.238,70.312,15.625,11.719,66.406,0.0,0
1581445012.242,65.43,19.531,12.207,68.848,0.0,0
1581445012.246,66.895,14.16,-2.93,67.87100000000001,0.0,0
1581445012.248,69.336,14.648,-1.465,67.87100000000001,0.0,0
1581445012.252,63.965,27.832,30.273000000000003,66.406,0.0,0
1581445012.256,54.199,23.926,41.504,63.965,0.0,0
1581445012.26,60.547,16.602,39.551,66.895,0.0,0
1581445012.264,66.895,16.602,27.344,64.941,0.0,0
1581445012.268,53.223,14.648,19.531,54.688,0.0,0
1581445012.272,46.875,24.414,22.461,55.664,0.0,0
1581445012.275,49.316,29.297,15.137,59.57,0.0,0
1581445012.279,58.105,20.508000000000006,0.0,58.594,0.0,0
1581445012.283,61.523,24.414,-7.324,55.664,0.0,0
1581445012.2870002,45.898,29.785,13.672,58.105,0.0,0
1581445012.291,35.156,25.879,28.32,56.64100000000001,0.0,0
1581445012.293,36.133,25.391,25.879,51.27,0.0,0
1581445012.2970002,41.504,24.414,20.996,53.71100000000001,0.0,0
1581445012.301,41.504,22.949,14.16,52.734,0.0,0
1581445012.305,36.133,20.996,17.09,45.41,0.0,0
1581445012.309,40.039,19.531,20.508000000000006,41.504,0.0,0
1581445012.313,49.805,17.578,12.207,43.457,0.0,0
1581445012.3170002,44.922,23.438,13.672,45.41,0.0,0
1581445012.32,35.645,28.809,27.344,46.875,0.0,0
1581445012.324,36.133,22.949,29.785,35.645,0.0,0
1581445012.3279998,40.527,27.832,23.438,29.785,0.0,0
1581445012.332,35.156,32.227,30.762,34.18,0.0,0
1581445012.336,31.738000000000003,23.926,29.785,39.551,0.0,0
1581445012.3379998,37.109,20.02,19.043,39.062,0.0,0
1581445012.342,41.992,21.973000000000006,19.043,31.25,0.0,0
1581445012.346,36.621,23.926,14.648,25.391,0.0,0
1581445012.35,28.32,28.809,15.137,26.855,0.0,0
1581445012.354,28.809,25.391,28.809,32.715,0.0,0
1581445012.3579998,33.691,18.555,34.18,25.391,0.0,0
1581445012.3620002,36.133,18.066,23.438,24.414,0.0,0
1581445012.365,35.156,12.695,12.695,33.203,0.0,0
1581445012.369,32.227,8.789,19.531,36.621,0.0,0
1581445012.373,34.18,13.184,20.996,35.645,0.0,0
1581445012.377,32.715,18.555,19.043,31.25,0.0,0
1581445012.381,22.949,24.414,25.879,27.344,0.0,0
1581445012.383,15.625,25.879,30.273000000000003,26.855,0.0,0
1581445012.387,24.414,31.738000000000003,24.414,26.855,0.0,0
1581445012.391,36.133,28.809,18.555,26.367,0.0,0
1581445012.395,34.668,20.02,26.855,31.738000000000003,0.0,0
1581445012.399,27.832,22.949,30.762,34.668,0.0,0
1581445012.403,31.25,23.438,22.949,40.527,0.0,0
1581445012.407,40.039,26.367,23.926,44.922,0.0,0
1581445012.41,40.527,28.809,33.691,35.645,0.0,0
1581445012.414,29.297,28.809,36.621,26.855,0.0,0
1581445012.418,22.461,29.297,31.25,28.32,0.0,0
1581445012.4220002,30.273000000000003,31.25,23.438,26.855,0.0,0
1581445012.426,31.738000000000003,30.273000000000003,18.555,20.996,0.0,0
1581445012.428,20.02,31.738000000000003,23.438,23.926,0.0,0
1581445012.4320002,18.555,38.574,33.691,35.156,0.0,0
1581445012.436,29.785,37.109,36.133,28.32,0.0,0
1581445012.44,28.809,37.109,35.156,20.508000000000006,0.0,0
1581445012.444,20.996,38.574,32.715,22.461,0.0,0
1581445012.448,14.16,31.738000000000003,35.156,30.762,0.0,0
1581445012.452,17.578,26.855,30.273000000000003,34.18,0.0,0
1581445012.455,28.809,31.738000000000003,14.16,23.438,0.0,0
1581445012.459,29.297,35.156,16.602,26.855,0.0,0
1581445012.4629998,20.996,34.668,24.414,29.297,0.0,0
1581445012.467,18.066,36.621,22.949,23.926,0.0,0
1581445012.471,29.785,38.574,25.391,22.461,0.0,0
1581445012.4729998,40.527,37.109,31.25,26.855,0.0,0
1581445012.4770002,29.297,30.762,31.25,31.738000000000003,0.0,0
1581445012.481,25.391,33.691,24.414,31.738000000000003,0.0,0
1581445012.485,36.133,37.109,24.414,28.32,0.0,0
1581445012.4889998,29.785,33.203,30.762,27.344,0.0,0
1581445012.4929998,21.484,25.391,34.18,32.227,0.0,0
1581445012.4970002,16.113,25.879,31.738000000000003,31.25,0.0,0
1581445012.5,13.672,42.48,26.855,21.484,0.0,0
1581445012.504,19.531,46.875,31.25,16.113,0.0,0
1581445012.508,19.043,43.457,29.297,19.531,0.0,0
1581445012.512,9.277,39.551,23.926,25.391,0.0,0
1581445012.516,15.137,41.504,26.855,34.18,0.0,0
1581445012.533,25.391,45.898,25.879,23.926,0.0,0
1581445012.5370002,19.043,35.156,17.09,9.277,0.0,0
1581445012.541,13.672,23.438,12.207,18.066,0.0,0
1581445012.545,19.531,28.809,24.414,26.367,0.0,0
1581445012.549,21.484,34.18,34.668,20.996,0.0,0
1581445012.553,24.902,31.738000000000003,34.668,20.02,0.0,0
1581445012.5570002,22.949,38.086,27.344,13.672,0.0,0
1581445012.56,15.137,38.574,22.949,8.789,0.0,0
1581445012.564,28.809,30.762,22.949,11.23,0.0,0
1581445012.5679998,29.785,29.297,24.414,9.277,0.0,0
1581445012.572,17.578,26.367,19.043,5.371,0.0,0
1581445012.576,11.719,16.113,17.09,5.371,0.0,0
1581445012.577,8.301,20.02,17.09,1.465,0.0,0
1581445012.581,16.113,25.879,14.16,-2.93,0.0,0
1581445012.585,24.414,28.809,19.531,6.348,0.0,0
1581445012.589,18.555,32.227,23.438,9.766,0.0,0
1581445012.593,20.02,32.227,21.484,6.836,0.0,0
1581445012.597,18.555,33.203,18.555,5.371,0.0,0
1581445012.601,11.23,33.203,19.043,1.953,0.0,0
1581445012.604,10.742,35.156,20.508000000000006,5.859,0.0,0
1581445012.6079998,11.719,31.25,17.09,11.23,0.0,0
1581445012.6120002,14.16,20.508000000000006,17.578,4.883,0.0,0
1581445012.6160002,20.996,24.902,24.414,7.324,0.0,0
1581445012.62,16.113,29.297,23.926,20.508000000000006,0.0,0
1581445012.6220002,6.348,25.391,16.602,21.973000000000006,0.0,0
1581445012.6260002,14.16,26.367,20.508000000000006,20.02,0.0,0
1581445012.63,25.879,22.949,21.973000000000006,22.461,0.0,0
1581445012.6339998,17.578,20.996,21.484,24.414,0.0,0
1581445012.6379998,9.766,26.855,18.555,29.785,0.0,0
1581445012.6420002,8.789,23.438,19.043,26.367,0.0,0
1581445012.646,14.16,18.066,23.438,17.09,0.0,0
1581445012.649,19.043,15.137,20.996,22.949,0.0,0
1581445012.653,5.859,14.648,24.414,25.879,0.0,0
1581445012.657,9.277,29.297,27.832,24.902,0.0,0
1581445012.661,25.391,39.551,24.902,20.02,0.0,0
1581445012.665,25.879,39.062,21.973000000000006,18.555,0.0,0
1581445012.667,14.16,36.133,17.578,20.02,0.0,0
1581445012.671,12.695,34.18,20.508000000000006,17.09,0.0,0
1581445012.675,19.531,19.531,14.648,14.16,0.0,0
1581445012.679,18.555,11.23,3.418,10.254,0.0,0
1581445012.6829998,13.184,21.973000000000006,13.184,11.719,0.0,0
1581445012.687,6.348,25.879,14.16,15.625,0.0,0
1581445012.691,11.23,21.973000000000006,15.137,13.672,0.0,0
1581445012.694,22.461,21.484,28.809,11.719,0.0,0
1581445012.698,12.207,21.973000000000006,31.738000000000003,10.254,0.0,0
1581445012.702,1.953,19.531,27.344,12.207,0.0,0
1581445012.706,6.836,20.02,25.391,14.16,0.0,0
1581445012.71,16.602,22.949,21.973000000000006,8.789,0.0,0
1581445012.712,20.508000000000006,22.461,17.09,7.812,0.0,0
1581445012.716,5.859,19.531,15.625,6.836,0.0,0
1581445012.72,7.812,13.672,20.02,8.301,0.0,0
1581445012.724,25.391,6.348,25.391,9.277,0.0,0
1581445012.728,28.32,4.395,26.855,10.742,0.0,0
1581445012.732,16.602,6.348,22.461,10.742,0.0,0
1581445012.736,7.812,16.602,18.066,19.043,0.0,0
1581445012.7389998,19.043,23.438,16.602,18.555,0.0,0
1581445012.7429998,27.832,29.785,24.414,3.418,0.0,2
1581445012.7470002,19.531,36.133,31.25,4.395,0.0,0
1581445012.7510002,13.672,37.598,29.297,11.23,0.0,0
1581445012.755,16.602,22.949,27.344,14.16,0.0,0
1581445012.7570002,22.949,14.16,29.297,14.16,0.0,0
1581445012.7610002,18.066,24.902,20.508000000000006,17.578,0.0,0
1581445012.765,7.324,26.855,20.996,17.09,0.0,0
1581445012.769,14.16,19.531,27.832,17.09,0.0,0
1581445012.7729998,20.996,26.855,17.578,20.02,0.0,0
1581445012.7770002,21.973000000000006,38.574,6.836,20.996,0.0,0
1581445012.781,12.207,41.504,10.254,27.344,0.0,0
1581445012.784,6.836,35.645,22.949,25.391,0.0,0
1581445012.788,18.555,31.25,25.879,17.09,0.0,0
1581445012.792,20.02,28.809,23.926,9.766,0.0,0
1581445012.796,13.184,27.344,22.949,14.648,0.0,0
1581445012.8,19.043,28.32,23.926,25.391,0.0,0
1581445012.8170002,28.809,21.484,23.438,15.137,0.0,0
1581445012.821,28.809,34.668,13.672,12.207,0.0,0
1581445012.825,23.438,44.922,10.742,15.625,0.0,0
1581445012.829,15.625,42.48,11.719,9.766,0.0,0
1581445012.833,22.461,35.645,10.742,17.09,0.0,0
1581445012.837,38.574,25.391,17.09,18.555,0.0,0
1581445012.841,29.785,31.738000000000003,17.578,4.883,0.0,0
1581445012.844,14.648,45.898,16.602,2.93,0.0,0
1581445012.8479998,21.484,38.574,24.902,9.766,0.0,0
1581445012.8520002,21.484,23.438,30.273000000000003,3.906,0.0,0
1581445012.856,16.602,27.832,26.855,-4.883,0.0,0
1581445012.86,8.301,33.691,27.344,1.465,0.0,0
1581445012.847,-2.441,31.25,27.344,6.348,0.0,0
1581445012.851,9.766,24.902,26.855,7.324,0.0,0
1581445012.855,23.926,25.879,31.25,10.742,0.0,0
1581445012.859,24.414,32.227,19.043,15.625,0.0,0
1581445012.863,24.414,24.414,11.719,18.066,0.0,0
1581445012.867,34.668,18.066,24.902,18.555,0.0,0
1581445012.871,37.109,28.32,20.996,14.648,0.0,0
1581445012.8739998,23.438,42.48,14.16,9.277,0.0,0
1581445012.8779998,18.555,43.945,22.461,15.137,0.0,0
1581445012.8820002,20.996,39.551,19.531,14.648,0.0,0
1581445012.8860002,26.855,38.574,5.371,6.836,0.0,0
1581445012.89,28.809,32.715,11.23,11.23,0.0,0
1581445012.908,17.09,25.391,24.414,17.09,0.0,0
1581445012.9120002,20.996,29.785,25.391,16.113,0.0,0
1581445012.916,33.691,32.227,23.926,15.625,0.0,0
1581445012.92,19.043,29.297,20.02,16.113,0.0,0
1581445012.924,12.207,30.273000000000003,24.414,25.391,0.0,0
1581445012.928,14.16,28.809,30.762,30.273000000000003,0.0,0
1581445012.9320002,15.625,27.832,23.438,26.855,0.0,0
1581445012.935,24.414,34.18,15.625,25.391,0.0,0
1581445012.939,19.531,41.992,15.625,25.391,0.0,0
1581445012.9429998,12.207,38.574,18.555,34.18,0.0,0
1581445012.947,19.043,21.973000000000006,15.137,32.227,0.0,0
1581445012.951,32.227,20.508000000000006,7.324,24.414,0.0,0
1581445012.9529998,33.691,23.438,18.066,31.25,0.0,0
1581445012.957,24.902,8.301,20.996,36.621,0.0,0
1581445012.961,31.25,20.508000000000006,16.602,39.062,0.0,0
1581445012.965,32.227,40.527,14.16,37.109,0.0,0
1581445012.969,23.926,42.48,18.555,27.832,0.0,0
1581445012.9729998,19.531,46.875,13.672,28.809,0.0,0
1581445012.9770002,16.602,45.41,6.836,28.32,0.0,0
1581445012.98,31.738000000000003,37.109,27.832,38.574,0.0,0
1581445012.984,36.133,24.414,40.527,52.734,0.0,0
1581445012.988,22.949,24.902,17.578,41.01600000000001,0.0,0
1581445012.992,18.555,28.32,7.324,22.949,0.0,0
1581445012.996,20.02,21.973000000000006,21.973000000000006,17.09,0.0,0
1581445012.998,25.879,16.602,25.879,21.973000000000006,0.0,0
1581445013.002,24.902,24.414,31.25,25.391,0.0,0
1581445013.006,14.16,34.18,34.18,23.926,0.0,0
1581445013.01,13.184,36.621,35.645,22.949,0.0,0
1581445013.014,18.066,34.668,28.809,22.949,0.0,0
1581445013.018,11.23,30.762,23.438,24.902,0.0,0
1581445013.022,6.348,31.25,20.02,23.926,0.0,0
1581445013.025,15.625,40.527,21.484,28.809,0.0,0
1581445013.029,26.855,41.992,29.297,27.344,0.0,0
1581445013.033,29.785,32.227,32.715,22.461,0.0,0
1581445013.0370002,20.996,32.227,32.715,20.996,0.0,0
1581445013.041,19.531,27.344,30.762,11.719,0.0,0
1581445013.043,31.738000000000003,22.949,30.273000000000003,8.789,0.0,0
1581445013.0470002,36.133,28.809,29.785,10.254,0.0,0
1581445013.051,25.391,36.621,31.738000000000003,4.395,0.0,0
1581445013.055,15.137,49.805,30.762,3.906,0.0,0
1581445013.059,32.227,47.852,25.391,5.859,0.0,0
1581445013.063,38.574,36.621,27.344,2.93,0.0,0
1581445013.0670002,26.855,37.109,32.715,9.766,0.0,0
1581445013.07,20.996,42.969,26.855,15.137,0.0,0
1581445013.074,23.926,39.551,25.879,6.836,0.0,0
1581445013.0779998,30.273000000000003,34.18,24.414,5.859,0.0,0
1581445013.082,21.973000000000006,40.039,28.32,12.207,0.0,0
1581445013.086,9.277,37.109,34.18,10.254,0.0,0
1581445013.0879998,10.254,26.855,27.832,17.578,0.0,0
1581445013.092,20.508000000000006,33.691,21.973000000000006,23.438,0.0,0
1581445013.096,18.555,35.156,22.949,14.16,0.0,0
1581445013.1,10.742,33.691,20.996,16.602,0.0,0
1581445013.104,10.742,39.062,11.719,14.648,0.0,0
1581445013.1079998,20.02,33.691,15.137,3.906,0.0,0
1581445013.1120002,30.762,22.461,26.855,6.836,0.0,0
1581445013.115,20.996,21.484,31.738000000000003,14.16,0.0,0
1581445013.119,20.996,37.598,38.086,20.02,0.0,0
1581445013.123,33.691,50.78100000000001,41.01600000000001,20.02,0.0,0
1581445013.127,33.691,44.434,32.715,16.113,0.0,0
1581445013.131,28.809,25.879,30.273000000000003,20.508000000000006,0.0,0
1581445013.133,17.578,7.324,27.832,30.273000000000003,0.0,0
1581445013.137,16.113,17.578,26.855,40.527,0.0,0
1581445013.141,20.508000000000006,19.043,21.484,32.715,0.0,0
1581445013.145,21.484,4.883,8.789,24.902,0.0,0
1581445013.149,14.648,29.785,14.648,29.785,0.0,0
1581445013.153,9.766,48.34,20.508000000000006,22.949,0.0,0
1581445013.157,16.113,45.41,33.203,10.742,0.0,0
1581445013.16,16.113,41.01600000000001,38.086,11.23,0.0,0
1581445013.164,11.719,32.715,29.785,19.043,0.0,0
1581445013.168,14.16,26.367,38.086,21.484,0.0,0
1581445013.1720002,27.344,31.738000000000003,40.039,18.066,0.0,0
1581445013.176,37.109,30.273000000000003,34.668,10.254,0.0,0
1581445013.178,26.855,17.578,42.48,14.16,0.0,0
1581445013.1820002,20.02,27.344,36.133,22.461,0.0,0
1581445013.186,23.438,35.156,29.297,20.508000000000006,0.0,0
1581445013.19,29.297,28.809,36.133,16.602,0.0,0
1581445013.194,20.02,27.832,22.949,12.207,0.0,0
1581445013.198,7.324,29.297,11.719,11.23,0.0,0
1581445013.202,9.766,29.785,22.949,11.23,0.0,0
1581445013.205,13.672,38.574,30.762,3.418,0.0,0
1581445013.209,11.719,42.48,29.297,0.488,0.0,0
1581445013.2129998,5.371,38.574,29.785,4.395,0.0,0
1581445013.217,6.348,30.762,29.785,5.859,0.0,0
1581445013.221,14.648,18.066,20.996,1.465,0.0,0
1581445013.2229998,17.578,16.602,16.602,-5.859,0.0,0
1581445013.2270002,6.836,21.484,15.625,-3.906,0.0,0
1581445013.231,7.812,29.785,22.461,7.324,0.0,0
1581445013.235,17.578,34.18,37.109,11.719,0.0,0
1581445013.2389998,18.066,33.691,32.715,8.789,0.0,0
1581445013.2429998,9.766,39.062,16.602,7.324,0.0,0
1581445013.2470002,7.812,36.133,22.949,8.301,0.0,0
1581445013.25,18.555,30.273000000000003,29.297,7.812,0.0,0
1581445013.254,26.367,33.691,17.578,3.906,0.0,0
1581445013.258,24.902,26.367,12.695,8.789,0.0,0
1581445013.262,11.23,26.855,14.16,10.254,0.0,0
1581445013.266,8.789,38.574,25.391,12.695,0.0,0
1581445013.283,30.762,25.879,40.527,20.996,0.0,0
1581445013.2870002,32.715,13.672,45.898,19.531,0.0,0
1581445013.291,9.277,22.461,33.203,23.438,0.0,0
1581445013.295,12.695,30.273000000000003,27.832,30.273000000000003,0.0,0
1581445013.299,21.973000000000006,31.738000000000003,34.668,33.203,0.0,0
1581445013.303,21.484,27.832,34.18,32.227,0.0,0
1581445013.3070002,19.531,30.273000000000003,29.297,33.203,0.0,0
1581445013.31,21.973000000000006,28.32,29.785,33.203,0.0,0
1581445013.314,29.297,9.766,26.855,28.809,0.0,0
1581445013.3179998,25.879,10.254,20.996,18.066,0.0,0
1581445013.322,15.625,30.273000000000003,23.926,18.066,0.0,0
1581445013.326,15.137,41.992,30.762,27.832,0.0,0
1581445013.3279998,23.926,42.48,40.039,23.926,0.0,0
1581445013.332,35.156,33.691,32.715,18.555,0.0,0
1581445013.336,29.785,29.785,24.414,17.578,0.0,0
1581445013.34,18.555,31.738000000000003,32.227,19.043,0.0,0
1581445013.344,17.09,31.738000000000003,31.25,17.09,0.0,0
1581445013.3479998,22.949,35.156,31.738000000000003,8.301,0.0,0
1581445013.3520002,21.973000000000006,33.203,36.621,10.254,0.0,0
1581445013.355,16.113,35.156,31.25,17.09,0.0,0
1581445013.359,23.438,28.809,17.09,23.438,0.0,0
1581445013.363,23.926,15.625,18.555,24.902,0.0,0
1581445013.367,23.438,24.902,31.738000000000003,17.09,0.0,0
1581445013.371,13.672,31.25,37.109,18.555,0.0,0
1581445013.381,4.883,22.949,32.715,20.02,0.0,0
1581445013.385,14.648,24.902,28.809,11.719,0.0,0
1581445013.389,19.043,40.039,29.297,7.812,0.0,0
1581445013.393,17.578,46.387,30.762,17.578,0.0,0
1581445013.397,9.277,38.086,25.391,18.555,0.0,0
1581445013.401,7.812,31.738000000000003,19.531,9.277,0.0,0
1581445013.405,19.043,31.738000000000003,25.391,3.418,0.0,0
1581445013.408,19.531,33.203,26.855,10.254,0.0,0
1581445013.4120002,13.672,32.715,21.973000000000006,14.16,0.0,0
1581445013.416,11.719,32.715,28.809,6.836,0.0,0
1581445013.42,26.367,34.18,41.992,6.348,0.0,0
1581445013.424,31.738000000000003,30.762,42.969,6.836,0.0,0
1581445013.418,17.09,18.066,35.156,6.836,0.0,0
1581445013.4220002,10.254,18.066,32.715,4.883,0.0,0
1581445013.426,18.066,23.438,32.227,10.254,0.0,0
1581445013.43,24.414,28.809,30.762,9.277,0.0,0
1581445013.434,18.066,35.156,29.297,-0.977,0.0,0
1581445013.438,9.766,40.527,30.273000000000003,3.906,0.0,0
1581445013.4420002,18.066,42.48,28.32,10.254,0.0,0
1581445013.445,36.133,38.574,29.297,14.648,0.0,0
1581445013.449,28.32,31.25,24.414,16.602,0.0,0
1581445013.4529998,14.648,29.297,29.297,27.344,0.0,0
1581445013.457,25.879,30.273000000000003,35.645,24.902,0.0,0
1581445013.461,25.879,15.625,30.762,10.254,0.0,0
1581445013.4629998,15.137,11.719,39.062,12.695,0.0,0
1581445013.467,8.789,26.367,32.715,10.742,0.0,0
1581445013.471,10.254,29.297,27.832,8.789,0.0,0
1581445013.475,22.949,31.738000000000003,32.715,16.602,0.0,0
1581445013.479,20.02,31.738000000000003,32.227,10.742,0.0,0
1581445013.4829998,7.324,27.832,26.855,8.301,0.0,0
1581445013.4870002,10.254,22.949,24.414,18.066,0.0,0
1581445013.49,21.973000000000006,25.391,28.809,14.648,0.0,0
1581445013.494,17.578,37.109,25.391,4.883,0.0,0
1581445013.498,11.23,40.527,15.137,10.254,0.0,0
1581445013.502,10.254,25.879,20.02,20.02,0.0,0
1581445013.506,14.16,17.578,30.762,20.508000000000006,0.0,0
1581445013.508,19.531,25.391,24.414,19.531,0.0,0
1581445013.512,14.648,26.855,15.137,23.438,0.0,0
1581445013.516,11.719,30.273000000000003,14.16,25.879,0.0,0
1581445013.52,16.602,33.691,23.438,28.809,0.0,0
1581445013.524,20.508000000000006,31.25,31.25,32.227,0.0,0
1581445013.528,21.484,24.902,31.738000000000003,31.738000000000003,0.0,0
