timestamps,TP9,AF7,AF8,TP10,Right AUX,Marker0
1581609954.5089998,-48.828,32.227,-946.7769999999999,26.855,0.0,0
1581609954.5129998,-58.593999999999994,16.113,-943.3589999999999,12.207,0.0,0
1581609954.5170002,-82.031,-0.488,-977.539,23.438000000000002,0.0,0
1581609954.5210001,-102.051,29.785,-946.7769999999999,24.901999999999997,0.0,0
1581609954.525,-114.258,50.78100000000001,-947.2660000000001,-41.992,0.0,0
1581609954.529,-129.395,54.688,-979.492,-69.824,0.0,0
1581609954.533,-115.723,44.922,-964.355,-31.25,0.0,0
1581609954.536,-109.863,26.855,-903.809,-8.301,0.0,0
1581609954.54,-97.16799999999999,24.414,-835.449,-39.062,0.0,0
1581609954.544,-83.984,17.09,-899.9019999999997,-85.93799999999996,0.0,0
1581609954.5479999,-88.867,18.555,-969.238,-105.469,0.0,0
1581609954.552,-72.266,45.41,-916.5039999999999,-100.098,0.0,0
1581609954.569,-36.133,56.152,-911.6210000000001,-87.402,0.0,0
1581609954.573,-35.156,39.551,-958.9839999999999,-95.70299999999999,0.0,0
1581609954.5770001,-54.199,32.227,-951.66,-102.051,0.0,0
1581609954.581,-25.391,25.879,-873.047,-92.773,0.0,0
1581609954.585,9.766,28.32,-911.133,-86.426,0.0,0
1581609954.589,14.648,31.738000000000003,-967.285,-105.469,0.0,0
1581609954.593,-29.296999999999997,18.555,-979.98,-142.09,0.0,0
1581609954.596,-71.777,22.461,-950.195,-122.07,0.0,0
1581609954.6,-82.031,47.852,-891.602,-83.008,0.0,0
1581609954.6039999,-81.543,47.852,-960.938,-69.336,0.0,0
1581609954.6079998,-74.219,29.785,-941.895,-76.66,0.0,0
1581609954.6120002,-64.941,24.414,-873.047,-88.867,0.0,0
1581609954.599,-73.73,24.414,-925.7810000000001,-73.73,0.0,0
1581609954.603,-90.82,22.461,-977.051,-74.219,0.0,0
1581609954.607,-63.477,13.184000000000001,-964.8439999999999,-50.78100000000001,0.0,0
1581609954.611,-48.828,34.18,-908.203,-22.949,0.0,0
1581609954.615,-73.242,53.71100000000001,-916.992,-18.066,0.0,0
1581609954.619,-87.402,50.293,-972.6560000000001,-12.207,0.0,0
1581609954.623,-79.59,46.875,-978.0269999999999,-19.531,0.0,0
1581609954.6260002,-63.477,19.043,-952.148,-14.16,0.0,0
1581609954.63,-61.035,17.09,-939.453,14.16,0.0,0
1581609954.6339998,-46.387,43.945,-980.957,37.109,0.0,0
1581609954.6379998,-14.16,46.875,-946.289,38.086,0.0,0
1581609954.6420002,15.137,41.992,-878.9060000000003,27.831999999999997,0.0,0
1581609954.644,8.789,8.301,-945.801,41.992,0.0,0
1581609954.6479998,0.488,-0.977,-926.758,61.035,0.0,0
1581609954.6520002,16.602,29.785,-815.43,37.598,0.0,0
1581609954.6560001,22.949,22.461,-890.625,31.25,0.0,0
1581609954.66,30.273000000000003,27.344,-976.562,55.663999999999994,0.0,0
1581609954.664,22.461,53.223,-971.191,56.152,0.0,0
1581609954.668,27.831999999999997,60.547,-969.727,45.41,0.0,0
1581609954.671,28.32,19.531,-966.309,16.602,0.0,0
1581609954.675,29.785,-10.742,-984.375,39.551,0.0,0
1581609954.679,36.133,23.438000000000002,-875.977,91.79700000000001,0.0,0
1581609954.6829998,14.16,50.78100000000001,-669.922,63.477,0.0,0
1581609954.687,19.531,53.71100000000001,-735.352,17.09,0.0,0
1581609954.689,21.484,66.895,-882.324,20.02,0.0,0
1581609954.6929998,7.812,63.477,-879.883,50.293,0.0,0
1581609954.697,-1.465,41.504,-820.312,47.852,0.0,0
1581609954.701,8.301,34.18,-845.703,13.184000000000001,0.0,0
1581609954.705,5.859,26.855,-917.9689999999999,3.418,0.0,0
1581609954.7089999,-31.738000000000003,-2.93,-942.8710000000001,20.02,0.0,0
1581609954.7129998,-41.01600000000001,-12.695,-922.852,33.203,0.0,0
1581609954.716,-32.715,15.137,-887.695,31.738000000000003,0.0,0
1581609954.72,-23.438000000000002,47.363,-966.797,35.156,0.0,0
1581609954.724,-12.207,67.87100000000001,-866.211,12.207,0.0,0
1581609954.728,-44.434,64.941,-794.922,0.488,0.0,0
1581609954.732,-34.18,53.71100000000001,-872.07,15.137,0.0,0
1581609954.734,10.254000000000001,41.01600000000001,-896.4839999999997,14.16,0.0,0
1581609954.738,-11.23,17.09,-860.84,0.488,0.0,0
1581609954.742,-44.922,-3.906,-845.215,-14.648,0.0,0
1581609954.746,-38.086,-21.97300000000001,-926.758,-10.742,0.0,0
1581609954.75,9.277000000000001,-2.93,-981.445,-2.441,0.0,0
1581609954.754,8.789,40.039,-967.285,2.441,0.0,0
1581609954.758,-6.836,44.434,-967.773,28.32,0.0,0
1581609954.7610002,18.066,33.203,-977.051,15.625,0.0,0
1581609954.765,39.062,30.761999999999997,-940.918,-8.789,0.0,0
1581609954.769,51.27,51.27,-839.8439999999997,19.043,0.0,0
1581609954.7729998,34.18,42.48,-820.312,42.968999999999994,0.0,0
1581609954.7770002,11.23,16.113,-876.953,51.758,0.0,0
1581609954.78,-1.465,29.296999999999997,-833.008,36.621,0.0,0
1581609954.784,-6.836,36.621,-738.2810000000003,13.672,0.0,0
1581609954.7879999,-5.371,12.695,-853.0269999999997,34.668,0.0,0
1581609954.792,-15.137,-5.859,-895.508,38.574,0.0,0
1581609954.796,-7.812,26.366999999999997,-753.418,28.32,0.0,0
1581609954.8,0.488,57.129,-866.211,16.113,0.0,0
1581609954.804,-6.348,59.082,-991.211,-6.836,0.0,0
1581609954.8070002,-9.766,24.414,-938.477,46.387,0.0,0
1581609954.811,13.184000000000001,3.906,-880.8589999999997,80.566,0.0,0
1581609954.815,47.852,16.602,-841.309,30.761999999999997,0.0,0
1581609954.819,54.688,35.645,-878.418,0.488,0.0,0
1581609954.823,37.598,55.663999999999994,-910.645,-15.625,0.0,0
1581609954.825,42.48,50.78100000000001,-821.7769999999997,-13.184000000000001,0.0,0
1581609954.829,62.012,43.945,-805.176,-20.02,0.0,0
1581609954.833,85.93799999999996,34.18,-868.164,-21.97300000000001,0.0,0
1581609954.8370001,79.59,13.184000000000001,-866.699,-9.277000000000001,0.0,0
1581609954.841,44.922,-3.418,-815.918,-30.761999999999997,0.0,0
1581609954.845,60.547,6.836,-882.812,-51.758,0.0,0
1581609954.849,64.453,45.898,-989.258,-59.57,0.0,0
1581609954.8520002,43.945,52.246,-916.0160000000001,-41.01600000000001,0.0,0
1581609954.856,54.199,44.434,-781.25,10.742,0.0,0
1581609954.86,50.293,47.852,-843.262,-4.395,0.0,0
1581609954.8639998,40.039,28.809,-936.035,-50.293,0.0,0
1581609954.8679998,30.273000000000003,23.438000000000002,-825.684,-52.246,0.0,0
1581609954.8839998,13.184000000000001,29.785,-721.191,-27.344,0.0,0
1581609954.8879998,11.23,7.812,-833.008,-2.441,0.0,0
1581609954.8920002,39.551,12.695,-916.0160000000001,9.277000000000001,0.0,0
1581609954.8960001,57.129,23.926,-829.102,25.391,0.0,0
1581609954.9,17.09,-15.137,-814.453,41.992,0.0,0
1581609954.904,-16.602,-6.348,-914.551,25.391,0.0,0
1581609954.908,-2.441,41.504,-960.938,-7.812,0.0,0
1581609954.911,33.691,55.176,-812.5,5.371,0.0,0
1581609954.915,29.785,63.477,-696.7769999999997,31.25,0.0,0
1581609954.919,-15.137,41.01600000000001,-812.988,15.625,0.0,0
1581609954.9229999,-8.301,33.203,-866.211,-1.953,0.0,0
1581609954.927,20.02,51.27,-751.465,-13.672,0.0,0
1581609954.929,0.488,28.32,-816.895,-7.812,0.0,0
1581609954.9329998,-1.465,-18.066,-958.008,27.831999999999997,0.0,0
1581609954.937,31.25,2.93,-848.633,17.09,0.0,0
1581609954.941,29.296999999999997,58.593999999999994,-779.785,-43.945,0.0,0
1581609954.945,9.277000000000001,70.312,-802.7339999999997,-71.777,0.0,0
1581609954.949,4.883,64.941,-856.934,-41.992,0.0,0
1581609954.9529998,4.395,23.926,-965.332,-1.465,0.0,0
1581609954.956,12.695,-10.254000000000001,-906.25,-0.488,0.0,0
1581609954.96,-8.789,12.695,-833.9839999999997,-32.227,0.0,0
1581609954.964,-29.785,41.992,-947.7539999999999,-40.039,0.0,0
1581609954.968,-30.761999999999997,43.457,-910.1560000000001,-34.668,0.0,0
1581609954.9720001,-25.391,37.598,-713.867,-25.391,0.0,0
1581609954.975,-14.648,19.531,-786.133,-20.508000000000006,0.0,0
1581609954.9789999,-21.97300000000001,6.836,-887.695,-10.254000000000001,0.0,0
1581609954.9829998,-20.02,13.184000000000001,-772.949,2.441,0.0,0
1581609954.9870002,-18.555,29.296999999999997,-821.289,5.859,0.0,0
1581609954.9910002,-4.395,36.133,-903.809,5.371,0.0,0
1581609954.995,0.977,24.414,-953.613,4.395,0.0,0
1581609954.9989998,-10.742,32.227,-941.4060000000001,11.719000000000001,0.0,0
1581609955.002,-9.766,24.414,-799.316,0.977,0.0,0
1581609955.006,3.906,15.625,-837.8910000000003,-9.766,0.0,0
1581609955.01,3.418,29.296999999999997,-953.613,2.441,0.0,0
1581609955.014,-2.441,56.64100000000001,-773.438,23.926,0.0,0
1581609955.018,13.672,56.152,-701.172,46.875,0.0,0
1581609955.019,35.645,-0.488,-791.0160000000003,36.621,0.0,0
1581609955.0229998,42.48,-11.719000000000001,-762.207,6.348,0.0,0
1581609955.0270002,31.738000000000003,32.715,-661.133,8.301,0.0,0
1581609955.0310001,15.625,66.406,-752.93,15.625,0.0,0
1581609955.035,28.32,80.078,-887.695,10.742,0.0,0
1581609955.039,45.41,52.733999999999995,-924.316,8.301,0.0,0
1581609955.043,25.879,16.602,-932.617,11.719000000000001,0.0,0
1581609955.046,9.766,3.906,-891.113,22.949,0.0,0
1581609955.05,-0.977,9.766,-937.5,4.395,0.0,0
1581609955.054,3.418,25.879,-958.4960000000001,-22.461,0.0,0
1581609955.0579998,25.391,35.645,-850.586,-12.695,0.0,0
1581609955.062,26.855,32.715,-825.684,0.0,0.0,0
1581609955.065,30.761999999999997,23.926,-879.883,-15.137,0.0,0
1581609955.069,51.27,31.25,-870.117,-18.555,0.0,0
1581609955.073,34.668,32.715,-824.707,-6.836,0.0,0
1581609955.0770001,20.02,33.203,-869.6289999999997,12.695,0.0,0
1581609955.081,43.457,8.301,-933.5939999999999,33.691,0.0,0
1581609955.085,46.387,-7.812,-950.684,27.831999999999997,0.0,0
1581609955.089,36.133,15.137,-969.238,-2.441,0.0,0
1581609955.092,26.366999999999997,27.831999999999997,-955.566,-4.395,0.0,0
1581609955.096,28.32,37.109,-972.6560000000001,7.324,0.0,0
1581609955.1,59.57,34.18,-975.586,4.395,0.0,0
1581609955.1039999,84.961,18.066,-895.9960000000003,35.156,0.0,0
1581609955.1079998,80.078,4.883,-921.875,58.593999999999994,0.0,0
1581609955.11,84.961,7.324,-903.32,72.75399999999998,0.0,0
1581609955.1139998,102.051,14.16,-752.93,82.031,0.0,0
1581609955.1179998,108.887,10.742,-744.6289999999997,59.57,0.0,0
1581609955.1220002,79.59,15.137,-876.953,61.523,0.0,0
1581609955.1260002,38.086,47.363,-868.164,63.477,0.0,0
1581609955.13,34.668,55.176,-886.7189999999997,51.27,0.0,0
1581609955.1339998,52.733999999999995,42.48,-981.934,71.777,0.0,0
1581609955.137,71.777,31.25,-965.332,73.73,0.0,0
1581609955.141,56.152,20.02,-977.539,66.895,0.0,0
1581609955.145,38.574,13.672,-836.426,82.52,0.0,0
1581609955.149,67.87100000000001,14.648,-768.066,77.148,0.0,0
1581609955.1529999,87.402,21.484,-905.273,72.266,0.0,0
1581609955.154,69.824,9.766,-942.8710000000001,75.684,0.0,0
1581609955.158,46.875,3.418,-850.0980000000003,66.895,0.0,0
1581609955.1620002,42.968999999999994,21.484,-847.6560000000003,49.316,0.0,0
1581609955.1660001,78.613,39.551,-930.664,41.504,0.0,0
1581609955.17,102.051,48.34,-831.543,48.34,0.0,0
1581609955.174,87.402,38.574,-878.9060000000003,70.312,0.0,0
1581609955.178,64.453,16.113,-982.91,74.219,0.0,0
1581609955.181,59.57,16.113,-955.078,64.941,0.0,0
1581609955.185,76.172,23.926,-836.426,95.215,0.0,0
1581609955.189,59.082,27.831999999999997,-728.5160000000003,100.098,0.0,0
1581609955.1929998,26.855,33.691,-855.957,52.246,0.0,0
1581609955.197,34.668,27.831999999999997,-892.09,37.598,0.0,0
1581609955.199,40.039,36.621,-779.785,59.082,0.0,0
1581609955.2029998,46.387,10.742,-798.828,87.402,0.0,0
1581609955.207,54.199,-23.926,-890.137,102.539,0.0,0
1581609955.211,44.922,17.09,-958.008,73.242,0.0,0
1581609955.215,32.715,60.059,-890.625,20.996,0.0,0
1581609955.2189999,28.809,42.968999999999994,-915.5269999999999,14.16,0.0,0
1581609955.2229998,26.366999999999997,37.598,-979.0039999999999,29.296999999999997,0.0,0
1581609955.226,35.645,49.316,-976.074,2.441,0.0,0
1581609955.23,57.617,44.922,-943.3589999999999,-16.602,0.0,0
1581609955.234,81.543,42.968999999999994,-870.117,2.441,0.0,0
1581609955.238,99.609,1.953,-913.574,41.504,0.0,0
1581609955.242,102.051,-33.691,-878.418,72.75399999999998,0.0,0
1581609955.2589998,97.656,0.0,-845.703,39.062,0.0,0
1581609955.2629998,63.477,56.64100000000001,-934.082,19.531,0.0,0
1581609955.2670002,25.391,69.824,-935.547,51.27,0.0,0
1581609955.2710001,8.789,40.039,-814.453,57.129,0.0,0
1581609955.275,20.02,30.761999999999997,-813.965,19.043,0.0,0
1581609955.279,27.344,38.574,-949.2189999999999,3.906,0.0,0
1581609955.283,14.648,39.062,-980.4689999999999,23.926,0.0,0
1581609955.286,31.25,12.695,-965.332,42.48,0.0,0
1581609955.29,53.223,-24.901999999999997,-894.5310000000003,32.227,0.0,0
1581609955.294,54.688,11.719000000000001,-922.363,10.742,0.0,0
1581609955.2979999,39.551,57.129,-923.34,18.555,0.0,0
1581609955.302,42.48,44.434,-814.453,27.831999999999997,0.0,0
1581609955.304,62.5,38.086,-796.875,21.97300000000001,0.0,0
1581609955.3079998,66.406,48.828,-900.8789999999999,4.883,0.0,0
1581609955.312,60.059,41.504,-959.4730000000001,17.09,0.0,0
1581609955.316,65.918,22.949,-862.793,36.133,0.0,0
1581609955.32,72.75399999999998,29.296999999999997,-824.2189999999997,60.547,0.0,0
1581609955.324,63.477,23.926,-927.7339999999999,58.593999999999994,0.0,0
1581609955.3279998,54.199,17.09,-981.445,35.645,0.0,0
1581609955.331,40.527,38.574,-832.0310000000003,41.992,0.0,0
1581609955.335,54.688,43.457,-841.309,68.848,0.0,0
1581609955.339,64.941,24.414,-984.863,62.5,0.0,0
1581609955.343,58.593999999999994,32.227,-937.988,42.48,0.0,0
1581609955.3470001,49.316,44.434,-838.867,47.363,0.0,0
1581609955.349,36.621,31.25,-885.2539999999997,59.57,0.0,0
1581609955.353,45.898,0.977,-948.242,62.5,0.0,0
1581609955.357,35.156,-18.066,-875.0,23.926,0.0,0
1581609955.361,14.16,30.761999999999997,-788.086,0.488,0.0,0
1581609955.365,-4.883,57.129,-850.586,24.901999999999997,0.0,0
1581609955.369,-8.789,29.785,-968.262,46.387,0.0,0
1581609955.373,-5.859,34.668,-976.074,16.113,0.0,0
1581609955.3760002,-26.366999999999997,39.551,-953.613,-30.273000000000003,0.0,0
1581609955.38,-56.152,24.901999999999997,-948.73,-39.062,0.0,0
1581609955.3839998,-60.059,15.625,-974.1210000000001,-40.039,0.0,0
1581609955.3879998,-51.27,21.97300000000001,-969.727,-67.383,0.0,0
1581609955.3920002,-40.527,38.574,-963.3789999999999,-86.914,0.0,0
1581609955.394,-25.879,37.598,-975.586,-70.801,0.0,0
1581609955.3979998,-23.438000000000002,20.02,-891.113,-69.336,0.0,0
1581609955.4020002,5.371,17.09,-805.176,-76.172,0.0,1
1581609955.4060001,22.949,26.855,-810.547,-95.215,0.0,0
1581609955.41,8.789,20.996,-887.695,-119.62899999999999,0.0,0
1581609955.414,27.831999999999997,42.48,-959.961,-102.539,0.0,0
1581609955.418,49.316,42.48,-970.703,-85.449,0.0,0
1581609955.421,56.152,22.949,-964.8439999999999,-97.16799999999999,0.0,0
1581609955.425,42.968999999999994,25.879,-977.051,-109.375,0.0,0
1581609955.429,23.926,33.203,-918.945,-107.42200000000001,0.0,0
1581609955.4329998,-2.93,24.901999999999997,-781.738,-108.398,0.0,0
1581609955.437,-25.879,25.879,-825.684,-109.863,0.0,0
1581609955.439,-41.01600000000001,52.733999999999995,-895.508,-89.355,0.0,0
1581609955.4429998,-58.105,65.43,-799.316,-62.012,0.0,0
1581609955.447,-59.082,48.34,-773.438,-60.059,0.0,0
1581609955.451,-64.453,8.301,-864.7460000000003,-57.129,0.0,0
1581609955.455,-60.547,9.766,-850.586,-43.945,0.0,0
1581609955.4589999,-70.801,42.968999999999994,-920.41,-9.766,0.0,0
1581609955.4629998,-104.00399999999999,39.551,-910.1560000000001,14.648,0.0,0
1581609955.466,-123.04700000000001,27.831999999999997,-846.68,10.742,0.0,0
1581609955.47,-144.531,47.852,-964.8439999999999,2.441,0.0,0
1581609955.474,-155.762,39.551,-827.148,16.602,0.0,0
1581609955.478,-156.738,3.906,-721.68,55.176,0.0,0
1581609955.482,-144.531,-10.254000000000001,-883.789,48.828,0.0,0
1581609955.484,-133.789,10.254000000000001,-935.059,38.574,0.0,0
1581609955.488,-137.207,38.574,-812.988,56.64100000000001,0.0,0
1581609955.492,-125.488,51.27,-772.461,81.055,0.0,0
1581609955.496,-112.79299999999999,45.41,-842.773,107.42200000000001,0.0,0
1581609955.5,-109.863,8.301,-860.352,96.191,0.0,0
1581609955.504,-108.398,9.277000000000001,-909.18,107.42200000000001,0.0,0
1581609955.508,-125.0,38.574,-977.051,136.23,0.0,0
1581609955.5110002,-119.141,30.273000000000003,-973.145,136.719,0.0,0
1581609955.515,-72.266,26.855,-945.312,139.16,0.0,0
1581609955.519,-45.41,30.273000000000003,-802.2460000000003,148.92600000000004,0.0,0
1581609955.5229998,-52.733999999999995,19.531,-779.297,179.688,0.0,0
1581609955.5270002,-60.059,11.23,-840.82,195.312,0.0,0
1581609955.529,-72.266,18.066,-764.648,168.945,0.0,0
1581609955.533,-94.727,33.691,-682.1289999999998,155.273,0.0,0
1581609955.5370002,-110.84,58.105,-743.164,161.13299999999995,0.0,0
1581609955.5410001,-118.164,50.78100000000001,-813.965,163.57399999999996,0.0,0
1581609955.545,-104.00399999999999,20.508000000000006,-810.059,138.184,0.0,0
1581609955.549,-68.848,12.695,-854.0039999999997,117.676,0.0,0
1581609955.553,-77.148,12.695,-939.941,108.887,0.0,0
1581609955.556,-89.844,33.691,-917.48,83.008,0.0,0
1581609955.56,-63.477,37.598,-805.176,51.758,0.0,0
1581609955.564,-48.828,26.855,-802.7339999999997,31.25,0.0,0
1581609955.5679998,-58.593999999999994,10.742,-863.77,35.156,0.0,0
1581609955.572,-50.78100000000001,14.648,-817.383,75.195,0.0,0
1581609955.574,-39.551,62.5,-653.32,67.87100000000001,0.0,0
1581609955.5779998,-16.602,68.359,-591.309,-11.23,0.0,0
1581609955.582,-19.043,36.133,-712.4019999999997,-66.895,0.0,0
1581609955.586,-50.293,38.574,-755.8589999999997,-61.523,0.0,0
1581609955.59,-57.129,34.668,-659.18,-36.133,0.0,0
1581609955.5939999,-58.105,0.488,-739.7460000000003,-37.598,0.0,0
1581609955.5979998,-29.296999999999997,-9.766,-948.242,-67.383,0.0,0
1581609955.601,-28.809,10.742,-874.512,-62.5,0.0,0
1581609955.605,-40.039,31.25,-611.816,-37.598,0.0,0
1581609955.609,-26.855,38.086,-601.0740000000002,-45.41,0.0,0
1581609955.613,-8.301,58.593999999999994,-685.059,-71.289,0.0,0
1581609955.617,-19.531,55.663999999999994,-761.7189999999997,-80.078,0.0,0
1581609955.635,-40.039,28.32,-755.8589999999997,-73.242,0.0,0
1581609955.639,-34.668,26.366999999999997,-732.422,-74.219,0.0,0
1581609955.643,-19.531,20.02,-755.8589999999997,-82.52,0.0,0
1581609955.647,6.348,5.371,-650.391,-88.37899999999998,0.0,0
1581609955.651,4.883,-7.812,-633.789,-97.16799999999999,0.0,0
1581609955.655,-26.855,9.766,-822.2660000000003,-98.145,0.0,0
1581609955.659,-43.945,41.01600000000001,-953.125,-89.355,0.0,0
1581609955.6620002,-17.578,54.199,-790.039,-87.891,0.0,0
1581609955.6660001,3.906,58.105,-604.492,-83.008,0.0,0
1581609955.67,14.16,35.645,-641.602,-46.875,0.0,0
1581609955.674,26.366999999999997,10.742,-714.355,-17.578,0.0,0
1581609955.678,13.184000000000001,14.648,-633.3009999999998,-34.668,0.0,0
1581609955.68,3.418,20.996,-617.188,-43.945,0.0,0
1581609955.684,-3.418,23.438000000000002,-694.824,-51.758,0.0,0
1581609955.688,15.625,33.691,-773.438,-61.035,0.0,0
1581609955.6920002,45.41,30.761999999999997,-734.375,-75.195,0.0,0
1581609955.696,32.227,39.551,-701.172,-85.93799999999996,0.0,0
1581609955.7,20.02,45.41,-796.387,-41.992,0.0,0
1581609955.704,28.32,32.715,-830.078,-49.805,0.0,0
1581609955.707,60.059,15.625,-753.9060000000003,-74.707,0.0,0
1581609955.711,76.66,7.324,-704.102,-63.477,0.0,0
1581609955.715,35.156,28.809,-886.7189999999997,-94.238,0.0,0
1581609955.7189999,41.504,34.668,-881.836,-95.70299999999999,0.0,0
1581609955.7229998,74.219,7.324,-641.113,-93.75,0.0,0
1581609955.724,83.984,29.785,-690.918,-95.70299999999999,0.0,0
1581609955.728,85.93799999999996,50.293,-833.008,-62.012,0.0,0
1581609955.732,69.336,41.01600000000001,-752.441,-39.062,0.0,0
1581609955.736,62.988,41.992,-684.57,-47.363,0.0,0
1581609955.74,81.055,26.366999999999997,-756.836,-54.199,0.0,0
1581609955.744,77.637,15.625,-875.0,-41.01600000000001,0.0,0
1581609955.748,67.383,19.531,-965.82,-21.484,0.0,0
1581609955.7510002,57.617,31.25,-924.316,-6.348,0.0,0
1581609955.755,57.617,24.414,-886.23,-26.855,0.0,0
1581609955.7589998,76.66,14.648,-961.426,-11.719000000000001,0.0,0
1581609955.7629998,70.312,29.296999999999997,-825.684,25.879,0.0,0
1581609955.7670002,59.57,40.527,-737.305,2.93,0.0,0
1581609955.769,72.266,52.246,-860.84,-13.184000000000001,0.0,0
1581609955.7729998,68.848,42.48,-868.6519999999997,-17.578,0.0,0
1581609955.7770002,77.637,18.555,-811.035,-18.066,0.0,0
1581609955.7810001,98.145,-8.301,-805.664,5.859,0.0,0
1581609955.785,81.543,-20.02,-848.145,11.719000000000001,0.0,0
1581609955.789,85.449,20.508000000000006,-947.2660000000001,12.207,0.0,0
1581609955.793,122.07,37.598,-981.445,62.012,0.0,0
1581609955.796,126.465,25.391,-897.949,99.12100000000001,0.0,0
1581609955.8,113.77,42.48,-924.316,64.453,0.0,0
1581609955.804,112.305,49.805,-896.9730000000003,13.672,0.0,0
1581609955.8079998,102.051,42.48,-739.258,11.719000000000001,0.0,0
1581609955.812,92.773,30.273000000000003,-759.7660000000003,48.34,0.0,0
1581609955.814,103.516,13.672,-825.684,35.156,0.0,0
1581609955.8179998,125.0,-0.488,-789.062,20.996,0.0,0
1581609955.822,122.559,5.371,-739.7460000000003,51.27,0.0,0
1581609955.826,91.79700000000001,35.645,-835.938,56.64100000000001,0.0,0
1581609955.83,97.16799999999999,13.184000000000001,-881.3480000000003,37.109,0.0,0
1581609955.8339999,121.094,-3.906,-893.066,14.648,0.0,0
1581609955.8379998,110.84,45.898,-936.035,10.742,0.0,0
1581609955.841,81.543,65.918,-929.199,22.949,0.0,0
1581609955.845,69.336,45.41,-950.195,23.438000000000002,0.0,0
1581609955.849,93.75,20.02,-830.566,23.926,0.0,0
1581609955.853,125.0,-6.836,-773.438,20.996,0.0,0
1581609955.857,116.211,5.859,-901.855,34.18,0.0,0
1581609955.859,100.098,35.645,-886.23,51.758,0.0,0
1581609955.863,98.633,47.363,-818.8480000000003,22.461,0.0,0
1581609955.867,93.262,28.809,-842.773,-22.461,0.0,0
1581609955.871,78.125,5.371,-894.043,-40.527,0.0,0
1581609955.875,91.79700000000001,23.926,-845.215,7.324,0.0,0
1581609955.879,109.375,23.926,-874.512,41.504,0.0,0
1581609955.883,93.75,6.348,-980.957,10.742,0.0,0
1581609955.8860002,84.473,19.531,-972.6560000000001,-20.02,0.0,0
1581609955.89,86.914,30.273000000000003,-935.059,-10.742,0.0,0
1581609955.894,100.586,23.926,-763.184,36.133,0.0,0
1581609955.8979998,87.891,27.831999999999997,-758.301,25.391,0.0,0
1581609955.9020002,70.312,50.78100000000001,-872.07,-31.25,0.0,0
1581609955.905,81.055,56.64100000000001,-783.203,-34.668,0.0,0
1581609955.909,91.79700000000001,25.879,-738.77,-9.766,0.0,0
1581609955.9129999,105.469,3.418,-862.793,11.719000000000001,0.0,0
1581609955.917,97.16799999999999,11.719000000000001,-908.691,-3.906,0.0,0
1581609955.921,81.543,22.461,-785.1560000000003,-24.901999999999997,0.0,0
1581609955.925,83.008,33.203,-838.867,-14.648,0.0,0
1581609955.929,84.961,33.203,-949.2189999999999,-29.785,0.0,0
1581609955.9320002,98.145,17.09,-971.191,-37.598,0.0,0
1581609955.936,122.07,11.23,-863.77,-9.766,0.0,0
1581609955.94,99.609,27.831999999999997,-743.164,3.418,0.0,0
1581609955.944,93.262,35.645,-830.566,-7.812,0.0,0
1581609955.948,130.371,27.344,-850.0980000000003,-23.926,0.0,0
1581609955.95,121.094,21.97300000000001,-770.02,-24.414,0.0,0
1581609955.954,100.098,33.691,-793.457,-14.16,0.0,0
1581609955.958,102.539,43.945,-866.211,2.441,0.0,0
1581609955.9620001,101.074,31.25,-834.961,-7.324,0.0,0
1581609955.966,110.352,28.32,-828.125,-48.34,0.0,0
1581609955.97,111.32799999999999,1.465,-933.5939999999999,-34.668,0.0,0
1581609955.974,85.449,-18.066,-984.375,0.488,0.0,0
1581609955.9770002,68.359,20.996,-916.992,-15.137,0.0,0
1581609955.981,55.176,44.922,-777.832,-45.898,0.0,0
1581609955.985,48.828,33.691,-769.043,-42.968999999999994,0.0,0
1581609955.9889998,52.246,22.461,-850.0980000000003,-23.438000000000002,0.0,0
1581609955.9929998,65.918,13.184000000000001,-839.8439999999997,-20.02,0.0,0
1581609956.0089998,95.215,26.366999999999997,-775.3910000000003,-24.901999999999997,0.0,0
1581609956.0129998,92.285,30.273000000000003,-841.797,-19.531,0.0,0
1581609956.0170002,64.453,2.93,-938.477,0.488,0.0,0
1581609956.0210001,51.758,24.414,-817.383,12.695,0.0,0
1581609956.025,79.59,45.41,-803.2230000000003,-13.672,0.0,0
1581609956.029,95.215,27.344,-948.242,-25.391,0.0,0
1581609956.033,72.75399999999998,31.25,-944.824,2.441,0.0,0
1581609956.036,90.82,31.738000000000003,-909.668,18.066,0.0,0
1581609956.04,107.42200000000001,18.555,-917.9689999999999,8.789,0.0,0
1581609956.044,97.16799999999999,24.414,-914.062,-3.418,0.0,0
1581609956.0479999,68.848,11.719000000000001,-924.316,-13.184000000000001,0.0,0
1581609956.052,70.312,4.883,-800.7810000000003,11.719000000000001,0.0,0
1581609956.054,99.12100000000001,28.32,-792.48,26.366999999999997,0.0,0
1581609956.0579998,106.445,41.01600000000001,-934.082,1.465,0.0,0
1581609956.062,120.117,29.296999999999997,-884.7660000000003,8.789,0.0,0
1581609956.066,125.488,28.32,-762.695,28.809,0.0,0
1581609956.07,85.449,21.484,-829.59,-8.301,0.0,0
1581609956.074,59.082,28.32,-917.9689999999999,-32.227,0.0,0
1581609956.0779998,73.73,37.598,-987.793,-8.301,0.0,0
1581609956.081,79.59,19.531,-914.551,16.602,0.0,0
1581609956.085,69.824,26.855,-850.0980000000003,6.348,0.0,0
1581609956.089,60.059,19.531,-937.988,-15.137,0.0,0
1581609956.093,59.57,10.742,-997.559,-1.953,0.0,0
1581609956.0970001,60.547,26.366999999999997,-903.809,20.02,0.0,0
1581609956.1,37.598,18.066,-872.07,14.16,0.0,0
1581609956.1039999,40.039,23.438000000000002,-892.578,10.742,0.0,0
1581609956.1079998,55.663999999999994,34.18,-812.5,18.066,0.0,0
1581609956.1120002,36.621,28.809,-783.203,18.555,0.0,0
1581609956.1160002,4.395,39.062,-839.355,14.648,0.0,0
1581609956.12,-7.324,43.945,-970.215,13.672,0.0,0
1581609956.1239998,54.199,43.945,-982.422,31.25,0.0,0
1581609956.127,100.098,51.758,-939.941,46.875,0.0,0
1581609956.131,63.965,41.01600000000001,-922.852,46.387,0.0,0
1581609956.135,60.059,21.97300000000001,-963.3789999999999,39.062,0.0,0
1581609956.139,87.402,-0.977,-863.2810000000003,34.18,0.0,0
1581609956.143,107.91,-10.254000000000001,-722.6560000000003,43.945,0.0,0
1581609956.145,109.863,22.949,-785.645,67.383,0.0,0
1581609956.149,56.152,33.691,-881.3480000000003,72.266,0.0,0
1581609956.1529999,27.831999999999997,28.809,-891.113,71.777,0.0,0
1581609956.157,40.527,59.082,-812.5,83.984,0.0,0
1581609956.161,38.086,63.477,-826.172,90.82,0.0,0
1581609956.165,61.523,23.926,-908.691,82.52,0.0,0
1581609956.169,104.98,8.789,-918.945,67.383,0.0,0
1581609956.1720002,89.355,18.555,-911.133,46.875,0.0,0
1581609956.176,60.059,48.828,-949.2189999999999,50.293,0.0,0
1581609956.18,81.055,70.801,-901.855,63.965,0.0,0
1581609956.184,94.727,40.039,-738.77,51.758,0.0,0
1581609956.188,120.605,-3.906,-780.762,37.598,0.0,0
1581609956.19,115.723,10.254000000000001,-894.5310000000003,31.25,0.0,0
1581609956.194,86.914,48.828,-819.336,14.16,0.0,0
1581609956.198,76.172,31.738000000000003,-723.145,-12.695,0.0,0
1581609956.2020001,95.70299999999999,11.719000000000001,-808.5939999999997,-22.949,0.0,0
1581609956.206,94.727,28.32,-939.941,-19.531,0.0,0
1581609956.21,79.59,56.152,-969.727,-12.695,0.0,0
1581609956.214,83.984,69.824,-930.176,-6.836,0.0,0
1581609956.217,69.336,47.852,-949.2189999999999,-39.551,0.0,0
1581609956.221,52.733999999999995,16.113,-946.289,-70.801,0.0,0
1581609956.225,44.434,24.901999999999997,-796.875,-49.805,0.0,0
1581609956.2289999,35.645,27.344,-708.008,-41.504,0.0,0
1581609956.2329998,27.831999999999997,3.906,-783.691,-82.52,0.0,0
1581609956.234,38.574,19.531,-836.914,-101.56200000000001,0.0,0
1581609956.238,70.801,42.968999999999994,-794.434,-81.543,0.0,0
1581609956.242,83.008,35.156,-759.2769999999997,-78.613,0.0,0
1581609956.246,61.523,19.531,-777.3439999999997,-103.516,0.0,0
1581609956.25,106.934,26.366999999999997,-853.5160000000003,-117.676,0.0,0
1581609956.254,142.09,28.32,-951.172,-120.605,0.0,0
1581609956.258,104.98,18.066,-973.145,-119.141,0.0,0
1581609956.2610002,97.16799999999999,22.949,-976.074,-99.12100000000001,0.0,0
1581609956.265,102.051,39.062,-875.488,-87.402,0.0,0
1581609956.269,83.49600000000002,47.852,-729.98,-78.613,0.0,0
1581609956.2729998,65.918,43.945,-767.09,-34.668,0.0,0
1581609956.2770002,71.289,32.715,-807.617,-37.109,0.0,0
1581609956.279,79.59,-0.488,-730.957,-76.172,0.0,0
1581609956.283,59.57,-10.742,-689.941,-82.52,0.0,0
1581609956.2870002,36.621,14.648,-779.785,-69.824,0.0,0
1581609956.2910001,11.719000000000001,48.34,-823.242,-46.387,0.0,0
1581609956.295,-5.859,65.918,-716.797,-21.484,0.0,0
1581609956.299,14.648,60.547,-834.4730000000003,-8.301,0.0,0
1581609956.303,-5.371,41.01600000000001,-960.449,-19.531,0.0,0
1581609956.306,-35.645,32.227,-958.4960000000001,-20.02,0.0,0
1581609956.31,-40.039,22.461,-834.961,-5.371,0.0,0
1581609956.314,-8.301,0.0,-704.59,-0.488,0.0,0
1581609956.3179998,27.344,19.531,-796.875,22.461,0.0,0
1581609956.322,29.296999999999997,43.457,-818.8480000000003,64.941,0.0,0
1581609956.324,16.602,36.621,-754.883,48.34,0.0,0
1581609956.3279998,42.968999999999994,33.691,-718.262,35.156,0.0,0
1581609956.332,68.359,39.062,-805.176,32.715,0.0,0
1581609956.336,49.805,28.32,-851.074,36.621,0.0,0
1581609956.34,37.109,27.344,-777.832,69.336,0.0,0
1581609956.3439999,25.879,17.09,-881.836,64.941,0.0,0
1581609956.3479998,20.02,1.953,-981.934,25.391,0.0,0
1581609956.351,28.32,28.809,-965.332,27.831999999999997,0.0,0
1581609956.355,21.97300000000001,54.199,-849.6089999999997,48.828,0.0,0
1581609956.359,13.672,45.898,-793.945,31.25,0.0,0
1581609956.363,25.879,33.691,-888.184,5.859,0.0,0
1581609956.367,31.25,39.551,-836.914,6.836,0.0,0
1581609956.369,18.066,47.363,-713.3789999999997,17.09,0.0,0
1581609956.373,41.01600000000001,32.715,-836.426,29.785,0.0,0
1581609956.377,61.035,10.254000000000001,-876.465,45.898,0.0,0
1581609956.381,64.941,20.02,-773.438,56.152,0.0,0
1581609956.385,76.66,30.273000000000003,-786.133,45.898,0.0,0
1581609956.389,70.801,28.32,-907.227,21.97300000000001,0.0,0
1581609956.393,90.82,41.992,-943.3589999999999,13.184000000000001,0.0,0
1581609956.3960001,140.625,47.852,-834.4730000000003,5.859,0.0,0
1581609956.4,145.996,26.366999999999997,-801.758,24.901999999999997,0.0,0
1581609956.404,129.395,14.16,-903.32,60.547,0.0,0
1581609956.408,114.74600000000001,16.602,-909.668,41.01600000000001,0.0,0
1581609956.4120002,125.0,30.273000000000003,-762.695,24.901999999999997,0.0,0
1581609956.429,136.23,54.688,-742.676,38.574,0.0,0
1581609956.4329998,119.62899999999999,57.617,-850.586,26.366999999999997,0.0,0
1581609956.437,149.414,31.738000000000003,-889.16,8.301,0.0,0
1581609956.441,174.805,19.531,-815.918,-6.348,0.0,0
1581609956.445,142.578,10.254000000000001,-893.555,-1.953,0.0,0
1581609956.449,150.391,2.441,-988.77,17.578,0.0,1
1581609956.4529998,159.668,13.184000000000001,-931.1519999999999,26.855,0.0,0
1581609956.456,129.88299999999998,27.344,-834.961,23.438000000000002,0.0,0
1581609956.46,135.74200000000002,61.523,-835.449,27.831999999999997,0.0,0
1581609956.464,113.77,59.082,-945.801,30.273000000000003,0.0,0
1581609956.468,107.42200000000001,46.875,-955.078,36.133,0.0,0
1581609956.4720001,140.625,41.01600000000001,-841.797,22.461,0.0,0
1581609956.474,194.824,16.602,-884.7660000000003,38.574,0.0,0
1581609956.478,226.562,6.348,-958.4960000000001,66.895,0.0,0
1581609956.482,208.49599999999998,43.457,-844.238,66.406,0.0,0
1581609956.486,191.895,79.59,-697.7539999999997,38.574,0.0,0
1581609956.49,172.852,46.387,-786.133,-9.766,0.0,0
1581609956.494,165.52700000000004,27.344,-966.797,0.977,0.0,0
1581609956.498,144.531,22.461,-981.445,22.461,0.0,0
1581609956.5010002,110.352,17.09,-938.965,11.719000000000001,0.0,0
1581609956.505,117.18799999999999,13.672,-935.059,19.531,0.0,0
1581609956.5089998,110.352,14.648,-932.1289999999999,29.785,0.0,0
1581609956.5129998,100.098,36.133,-790.039,42.968999999999994,0.0,0
1581609956.5170002,106.445,56.152,-696.289,61.035,0.0,0
1581609956.519,100.586,64.941,-773.438,55.176,0.0,0
1581609956.5229998,101.074,61.035,-816.895,55.663999999999994,0.0,0
1581609956.5270002,90.33200000000001,49.805,-752.441,48.828,0.0,0
1581609956.5310001,86.914,18.066,-717.773,37.109,0.0,0
1581609956.535,111.816,-3.418,-805.664,30.273000000000003,0.0,0
1581609956.539,139.648,9.277000000000001,-944.336,14.648,0.0,0
1581609956.543,132.812,24.901999999999997,-976.562,21.484,0.0,0
1581609956.546,89.844,43.945,-922.363,59.082,0.0,0
1581609956.55,80.078,40.039,-941.4060000000001,54.688,0.0,0
1581609956.554,117.676,36.621,-973.145,21.484,0.0,0
1581609956.5579998,154.785,43.457,-954.102,4.395,0.0,0
1581609956.562,176.75799999999995,29.296999999999997,-936.523,21.97300000000001,0.0,0
1581609956.564,165.52700000000004,9.766,-884.7660000000003,33.691,0.0,0
1581609956.5679998,158.203,-3.906,-783.691,26.855,0.0,0
1581609956.572,175.293,27.831999999999997,-740.7230000000003,35.156,0.0,0
1581609956.576,144.043,56.64100000000001,-843.262,44.922,0.0,0
1581609956.58,117.18799999999999,36.621,-829.59,72.75399999999998,0.0,0
1581609956.5839999,147.94899999999996,40.039,-817.383,56.64100000000001,0.0,0
1581609956.5879998,179.199,35.645,-807.617,30.761999999999997,0.0,0
1581609956.591,188.477,3.418,-808.105,64.453,0.0,0
1581609956.595,189.453,1.465,-961.914,79.59,0.0,0
1581609956.599,178.71099999999996,9.277000000000001,-785.645,65.918,0.0,0
1581609956.603,179.199,17.09,-656.738,64.453,0.0,0
1581609956.607,205.56599999999997,41.01600000000001,-810.547,66.406,0.0,0
1581609956.609,185.05900000000003,58.593999999999994,-820.801,62.012,0.0,0
1581609956.613,154.785,54.199,-843.262,31.738000000000003,0.0,0
1581609956.617,165.52700000000004,21.484,-770.9960000000003,7.324,0.0,0
1581609956.621,184.57,11.23,-772.949,13.184000000000001,0.0,0
1581609956.625,161.621,20.02,-821.289,13.184000000000001,0.0,0
1581609956.629,143.066,4.883,-818.3589999999997,7.812,0.0,0
1581609956.633,144.531,32.715,-928.2230000000001,0.977,0.0,0
1581609956.6360002,136.719,36.621,-967.285,-1.465,0.0,0
1581609956.64,118.164,21.97300000000001,-891.113,15.625,0.0,0
1581609956.644,110.352,54.199,-688.965,15.625,0.0,0
1581609956.6479998,116.699,33.691,-701.172,-7.324,0.0,0
1581609956.6520002,95.215,11.23,-803.711,-21.97300000000001,0.0,0
1581609956.655,57.617,45.898,-699.2189999999997,-24.414,0.0,0
1581609956.659,50.293,59.57,-601.0740000000002,-4.883,0.0,0
1581609956.6629999,67.87100000000001,39.062,-746.0939999999997,16.602,0.0,0
1581609956.667,74.707,4.395,-868.6519999999997,2.441,0.0,0
1581609956.671,47.852,-21.97300000000001,-790.5269999999997,0.488,0.0,0
1581609956.675,7.812,27.831999999999997,-768.066,32.227,0.0,0
1581609956.679,-9.766,69.824,-886.7189999999997,28.809,0.0,0
1581609956.6820002,-7.812,56.64100000000001,-927.2460000000001,-1.953,0.0,0
1581609956.686,-20.02,55.176,-722.168,-4.395,0.0,0
1581609956.69,-23.438000000000002,42.968999999999994,-589.355,27.344,0.0,0
1581609956.694,-17.578,5.371,-656.25,46.875,0.0,0
1581609956.698,-10.254000000000001,10.742,-657.715,34.18,0.0,0
1581609956.699,-4.883,45.898,-633.3009999999998,18.066,0.0,0
1581609956.7029998,-28.809,35.156,-692.383,14.16,0.0,0
1581609956.707,-42.48,27.344,-731.445,30.761999999999997,0.0,0
1581609956.711,-23.926,30.273000000000003,-701.66,45.898,0.0,0
1581609956.715,-11.23,11.23,-651.855,20.996,0.0,0
1581609956.7189999,-9.766,13.672,-713.867,20.02,0.0,0
1581609956.7229998,-22.949,27.344,-911.133,47.852,0.0,0
1581609956.726,-32.715,20.996,-915.5269999999999,16.602,0.0,0
1581609956.73,-40.039,17.578,-642.09,-15.137,0.0,0
1581609956.734,-48.828,39.551,-624.512,-3.906,0.0,0
1581609956.738,-37.109,41.504,-737.305,19.531,0.0,0
1581609956.742,-49.316,17.578,-673.34,21.97300000000001,0.0,0
1581609956.76,-63.965,2.441,-642.09,13.672,0.0,0
1581609956.764,-59.082,1.465,-729.492,8.789,0.0,0
1581609956.768,-57.129,1.953,-801.27,34.668,0.0,0
1581609956.772,-60.547,15.625,-695.312,50.78100000000001,0.0,0
1581609956.776,-41.504,56.152,-679.688,38.574,0.0,0
1581609956.78,-46.387,51.27,-878.9060000000003,22.461,0.0,0
1581609956.784,-70.312,13.672,-957.52,7.812,0.0,0
1581609956.7870002,-70.801,2.441,-862.305,-10.254000000000001,0.0,0
1581609956.7910001,-62.988,30.273000000000003,-745.117,-24.901999999999997,0.0,0
1581609956.795,-59.082,49.316,-808.5939999999997,-15.625,0.0,0
1581609956.799,-71.289,19.531,-940.43,0.0,0.0,0
1581609956.803,-72.75399999999998,11.23,-778.809,-0.977,0.0,0
1581609956.805,-62.5,17.09,-678.711,-12.207,0.0,0
1581609956.809,-64.453,38.574,-811.035,-23.926,0.0,0
1581609956.813,-79.59,39.062,-841.309,-36.621,0.0,0
1581609956.8170002,-94.727,13.672,-733.398,-41.992,0.0,0
1581609956.821,-94.727,21.484,-686.523,-21.97300000000001,0.0,0
1581609956.825,-83.008,35.156,-861.328,-26.855,0.0,0
1581609956.829,-71.777,29.296999999999997,-979.98,-31.738000000000003,0.0,0
1581609956.832,-76.66,13.184000000000001,-798.34,6.348,0.0,0
1581609956.836,-79.102,26.855,-673.828,14.16,0.0,0
1581609956.84,-62.5,20.508000000000006,-878.418,-14.16,0.0,0
1581609956.8439999,-62.012,19.531,-927.7339999999999,-6.836,0.0,0
1581609956.8479998,-58.105,40.039,-710.938,22.949,0.0,0
1581609956.865,-41.992,32.715,-777.3439999999997,40.527,0.0,0
1581609956.869,-42.968999999999994,22.461,-849.1210000000003,40.527,0.0,0
1581609956.873,-43.945,20.996,-735.84,11.719000000000001,0.0,0
1581609956.877,-50.293,26.855,-694.336,38.574,0.0,0
1581609956.881,-76.172,26.855,-769.5310000000003,83.49600000000002,0.0,0
1581609956.885,-93.262,23.438000000000002,-890.137,77.148,0.0,0
1581609956.889,-83.984,36.133,-888.184,69.336,0.0,0
1581609956.8920002,-84.961,47.363,-783.203,81.055,0.0,0
1581609956.8960001,-83.008,40.527,-828.613,88.867,0.0,0
1581609956.9,-63.965,27.831999999999997,-962.4019999999999,90.33200000000001,0.0,0
1581609956.904,-53.223,9.277000000000001,-826.66,79.102,0.0,0
1581609956.908,-54.199,2.441,-718.75,60.059,0.0,0
1581609956.894,-78.613,19.043,-807.617,68.359,0.0,0
1581609956.8979998,-109.375,37.109,-787.1089999999997,62.988,0.0,0
1581609956.9020002,-81.543,41.992,-657.715,57.129,0.0,0
1581609956.9060001,-51.27,44.434,-763.184,71.289,0.0,0
1581609956.91,-59.57,40.527,-855.4689999999997,74.707,0.0,0
1581609956.914,-56.152,26.855,-847.6560000000003,84.961,0.0,0
1581609956.918,-28.32,6.836,-884.2769999999997,102.051,0.0,0
1581609956.921,-33.203,-0.977,-775.8789999999997,101.074,0.0,0
1581609956.925,-73.73,4.395,-754.395,67.87100000000001,0.0,0
1581609956.929,-69.336,21.97300000000001,-719.238,56.64100000000001,0.0,0
1581609956.9329998,-62.988,40.527,-624.023,64.941,0.0,0
1581609956.937,-62.5,51.27,-660.1560000000002,30.761999999999997,0.0,0
1581609956.94,-52.246,53.223,-897.949,-3.418,0.0,0
1581609956.944,-50.78100000000001,48.828,-855.957,11.23,0.0,0
1581609956.948,-43.457,39.062,-616.211,34.18,0.0,0
1581609956.9520001,-30.273000000000003,-0.488,-704.102,26.366999999999997,0.0,0
1581609956.956,-35.156,-3.906,-761.7189999999997,20.508000000000006,0.0,0
1581609956.96,-63.477,19.043,-825.195,20.996,0.0,0
1581609956.964,-90.33200000000001,30.273000000000003,-830.078,2.93,0.0,0
1581609956.967,-91.309,27.344,-844.727,-10.742,0.0,0
1581609956.971,-81.543,10.742,-905.762,-17.09,0.0,0
1581609956.975,-76.66,16.602,-685.059,-3.906,0.0,0
1581609956.9789999,-94.238,15.137,-541.504,21.484,0.0,0
1581609956.9829998,-109.375,25.391,-573.242,-9.766,0.0,0
1581609956.984,-102.539,47.363,-592.285,-35.156,0.0,0
1581609956.988,-95.70299999999999,59.57,-552.246,-27.344,0.0,0
1581609956.992,-101.56200000000001,58.593999999999994,-575.684,-29.296999999999997,0.0,0
1581609956.996,-105.95700000000001,44.434,-602.539,-28.32,0.0,0
1581609957.0,-93.262,29.785,-576.172,-39.062,0.0,0
1581609957.004,-81.055,16.602,-596.68,-53.71100000000001,0.0,0
1581609957.008,-74.707,26.855,-666.5039999999998,-36.133,0.0,0
1581609957.0110002,-53.223,10.742,-822.7539999999997,-25.879,0.0,0
1581609957.015,-24.901999999999997,-7.324,-783.691,-52.733999999999995,0.0,0
1581609957.019,-15.137,27.344,-586.914,-68.848,0.0,0
1581609957.0229998,-40.039,37.598,-618.164,-55.663999999999994,0.0,0
1581609957.0270002,-56.64100000000001,47.852,-580.078,-29.785,0.0,0
1581609957.03,-25.879,56.152,-467.285,-33.691,0.0,0
1581609957.034,-12.695,20.02,-432.129,-46.875,0.0,0
1581609957.0379999,-33.203,-20.996,-572.266,-28.809,0.0,0
1581609957.042,-55.176,-27.831999999999997,-600.0980000000002,8.301,0.0,0
1581609957.046,-42.968999999999994,22.949,-522.461,16.602,0.0,0
1581609957.05,-36.621,56.152,-547.852,18.066,0.0,0
1581609957.054,-53.223,50.78100000000001,-685.547,33.691,0.0,0
1581609957.0570002,-65.43,47.363,-854.0039999999997,58.593999999999994,0.0,0
1581609957.061,-80.566,37.109,-609.863,65.918,0.0,0
1581609957.065,-91.309,23.438000000000002,-483.88699999999994,51.758,0.0,0
1581609957.069,-82.031,8.789,-596.191,56.64100000000001,0.0,0
1581609957.073,-62.5,23.926,-561.035,80.566,0.0,0
1581609957.074,-50.78100000000001,31.738000000000003,-523.9259999999998,91.309,0.0,0
1581609957.0779998,-44.922,10.742,-508.301,85.93799999999996,0.0,0
1581609957.082,-43.945,13.672,-532.227,80.566,0.0,0
1581609957.086,-40.039,46.387,-536.621,109.863,0.0,0
1581609957.09,-41.01600000000001,64.453,-448.24199999999996,112.79299999999999,0.0,0
1581609957.0939999,-18.066,61.523,-596.191,102.051,0.0,0
1581609957.0979998,15.625,41.504,-883.789,109.863,0.0,0
1581609957.101,12.207,20.508000000000006,-848.633,102.539,0.0,0
1581609957.105,-20.508000000000006,9.277000000000001,-568.8480000000002,111.32799999999999,0.0,0
1581609957.109,-19.531,17.578,-558.594,133.30100000000002,0.0,0
1581609957.113,9.277000000000001,32.715,-644.043,115.723,0.0,0
1581609957.117,8.301,13.184000000000001,-551.27,91.79700000000001,0.0,0
1581609957.119,-20.996,11.23,-529.297,90.82,0.0,0
1581609957.123,-28.809,39.062,-599.609,91.309,0.0,0
1581609957.127,-7.812,49.316,-635.742,88.37899999999998,0.0,0
1581609957.131,-7.324,51.758,-677.7339999999998,86.914,0.0,0
1581609957.135,-17.578,38.086,-589.355,104.492,0.0,0
1581609957.139,-22.949,19.531,-627.441,128.418,0.0,0
1581609957.143,-12.695,19.531,-767.09,121.094,0.0,0
1581609957.1460001,-3.906,19.531,-602.0509999999998,98.145,0.0,0
1581609957.15,-10.742,8.301,-483.88699999999994,100.098,0.0,0
1581609957.154,-59.57,1.953,-681.1519999999998,98.145,0.0,0
1581609957.158,-83.984,26.366999999999997,-743.164,85.449,0.0,0
1581609957.1620002,-58.105,47.852,-559.082,72.266,0.0,0
1581609957.179,-57.617,52.246,-491.211,91.309,0.0,0
1581609957.1829998,-72.266,48.828,-542.969,134.766,0.0,0
1581609957.187,-71.289,42.48,-572.266,143.066,0.0,0
1581609957.191,-55.663999999999994,21.97300000000001,-519.531,125.0,0.0,0
1581609957.195,-63.965,8.301,-555.1759999999998,113.281,0.0,0
1581609957.199,-79.102,24.414,-678.711,114.258,0.0,0
1581609957.2029998,-70.801,20.996,-798.828,118.164,0.0,0
1581609957.206,-54.199,4.395,-786.133,112.79299999999999,0.0,0
1581609957.21,-30.273000000000003,7.812,-700.195,105.95700000000001,0.0,0
1581609957.214,-25.879,5.859,-804.688,133.30100000000002,0.0,0
1581609957.218,-35.156,9.766,-765.625,163.57399999999996,0.0,0
1581609957.2220001,-20.996,38.086,-560.059,109.863,0.0,0
1581609957.224,13.184000000000001,62.5,-602.539,73.73,0.0,0
1581609957.228,52.246,57.617,-656.738,102.539,0.0,0
1581609957.232,57.129,35.156,-577.148,112.305,0.0,0
1581609957.236,62.5,19.531,-529.785,91.309,0.0,0
1581609957.24,86.914,6.348,-598.145,92.285,0.0,0
1581609957.244,78.125,8.789,-724.6089999999997,112.79299999999999,0.0,0
1581609957.248,65.43,28.32,-760.2539999999997,121.094,0.0,0
1581609957.2510002,88.867,38.574,-557.617,123.04700000000001,0.0,0
1581609957.255,90.82,40.527,-640.137,123.04700000000001,0.0,0
1581609957.2589998,57.617,47.852,-856.445,118.652,0.0,0
1581609957.2629998,46.387,46.387,-615.7230000000002,108.887,0.0,0
1581609957.2670002,39.062,11.719000000000001,-499.023,109.375,0.0,0
1581609957.269,28.32,0.0,-564.941,102.539,0.0,0
1581609957.2729998,17.578,32.227,-552.734,83.49600000000002,0.0,0
1581609957.2770002,2.441,34.668,-526.855,80.078,0.0,0
1581609957.2810001,0.0,26.855,-562.988,93.262,0.0,0
1581609957.285,24.414,45.41,-618.164,98.633,0.0,0
1581609957.289,55.663999999999994,45.898,-697.2660000000003,83.984,0.0,0
1581609957.293,55.176,30.273000000000003,-749.023,65.43,0.0,0
1581609957.296,36.133,26.855,-639.16,54.199,0.0,0
1581609957.3,53.223,24.414,-753.418,30.761999999999997,0.0,0
1581609957.304,65.918,10.742,-784.668,2.441,0.0,0
1581609957.3079998,37.109,-5.371,-518.066,-3.906,0.0,0
1581609957.312,14.648,1.953,-571.289,15.625,0.0,0
1581609957.314,31.25,38.086,-667.9689999999998,27.831999999999997,0.0,0
1581609957.3179998,44.434,44.922,-618.6519999999998,-15.137,0.0,0
1581609957.322,10.742,22.461,-539.5509999999998,-49.316,0.0,0
1581609957.326,-26.366999999999997,30.761999999999997,-580.566,-39.551,0.0,0
1581609957.33,-34.18,48.828,-580.566,-26.366999999999997,0.0,0
1581609957.3339999,-7.812,21.484,-620.117,-14.648,0.0,0
1581609957.3379998,14.648,0.0,-730.957,12.695,0.0,0
1581609957.341,4.395,19.531,-772.949,45.41,0.0,0
1581609957.345,-10.254000000000001,41.504,-868.6519999999997,63.477,0.0,0
1581609957.349,-8.301,37.598,-635.254,68.848,0.0,0
1581609957.353,-30.273000000000003,26.366999999999997,-509.277,50.78100000000001,0.0,0
1581609957.357,-57.617,34.18,-635.742,38.574,0.0,0
1581609957.359,-74.219,24.414,-653.809,47.852,0.0,0
1581609957.363,-46.387,18.555,-592.773,65.918,0.0,0
1581609957.367,-8.789,26.366999999999997,-649.9019999999998,73.242,0.0,0
1581609957.371,-38.574,29.785,-730.4689999999997,97.656,0.0,0
1581609957.375,-68.359,42.968999999999994,-592.773,116.699,0.0,0
1581609957.379,-77.637,53.71100000000001,-583.984,84.473,0.0,0
1581609957.383,-45.898,34.668,-631.3480000000002,56.152,0.0,0
1581609957.3860002,-43.457,30.761999999999997,-777.3439999999997,54.199,0.0,0
1581609957.39,-65.918,38.086,-731.934,87.891,0.0,0
1581609957.394,-50.293,9.277000000000001,-468.75,114.74600000000001,0.0,0
1581609957.3979998,-18.066,15.625,-456.543,104.98,0.0,0
1581609957.4020002,-20.508000000000006,24.901999999999997,-521.484,58.105,0.0,0
1581609957.404,-27.831999999999997,0.488,-500.977,35.645,0.0,0
1581609957.408,-19.043,13.672,-473.145,53.223,0.0,0
1581609957.4120002,1.953,42.968999999999994,-519.531,53.223,0.0,0
1581609957.4160001,12.695,36.621,-557.617,42.48,0.0,0
1581609957.42,-19.043,9.277000000000001,-469.23800000000006,49.805,0.0,0
1581609957.424,-32.715,-2.441,-504.395,67.87100000000001,0.0,0
1581609957.428,-26.366999999999997,11.23,-705.566,67.383,0.0,0
1581609957.431,-45.41,37.109,-817.8710000000003,41.01600000000001,0.0,0
1581609957.435,-48.828,49.805,-605.469,57.617,0.0,0
1581609957.439,-25.879,47.852,-476.074,92.285,0.0,0
1581609957.4429998,-18.555,20.02,-562.988,87.402,0.0,0
1581609957.447,-18.066,5.371,-521.9730000000002,65.43,0.0,0
1581609957.449,-21.484,12.695,-407.227,51.27,0.0,0
1581609957.4529998,-22.461,23.438000000000002,-418.945,67.383,0.0,0
1581609957.457,-25.879,39.062,-451.66,72.75399999999998,0.0,0
1581609957.461,-19.531,34.18,-436.035,43.457,0.0,0
1581609957.465,-7.324,17.578,-427.246,29.785,0.0,0
1581609957.4689999,-18.555,10.254000000000001,-490.723,62.5,0.0,0
1581609957.4729998,-37.109,28.809,-743.6519999999997,67.87100000000001,0.0,0
1581609957.476,-38.574,51.758,-700.195,45.41,0.0,0
1581609957.48,-32.715,46.387,-440.43,43.945,0.0,0
1581609957.484,-28.32,41.504,-496.094,53.223,0.0,0
1581609957.488,-15.137,29.785,-500.977,68.359,0.0,0
1581609957.492,17.578,27.344,-399.414,71.289,0.0,0
1581609957.494,20.996,29.296999999999997,-348.145,36.621,0.0,0
1581609957.498,-0.488,5.371,-392.09,7.812,0.0,0
1581609957.502,-2.441,0.488,-473.63300000000004,34.18,0.0,0
1581609957.506,-8.301,0.488,-430.664,38.574,0.0,0
1581609957.51,14.648,18.066,-341.79699999999997,21.97300000000001,0.0,0
1581609957.514,21.484,23.926,-566.895,17.578,0.0,0
1581609957.518,-0.488,30.761999999999997,-786.133,17.09,0.0,0
1581609957.5210001,17.09,43.945,-530.273,39.551,0.0,1
1581609957.525,42.968999999999994,33.203,-332.52,33.203,0.0,0
1581609957.529,50.78100000000001,28.809,-439.45300000000003,8.301,0.0,0
1581609957.533,44.922,19.531,-470.70300000000003,25.391,0.0,0
1581609957.5370002,20.02,-1.953,-441.406,41.01600000000001,0.0,0
1581609957.554,14.648,14.16,-499.023,12.695,0.0,0
1581609957.5579998,31.25,51.758,-464.355,-8.789,0.0,0
1581609957.562,19.043,55.663999999999994,-435.059,-13.184000000000001,0.0,0
1581609957.566,19.531,37.598,-399.414,7.324,0.0,0
1581609957.57,20.508000000000006,21.484,-396.48400000000004,19.043,0.0,0
1581609957.574,30.761999999999997,4.395,-562.988,8.789,0.0,0
1581609957.5779998,42.48,-12.695,-569.8240000000002,6.348,0.0,0
1581609957.581,12.695,16.113,-397.949,20.508000000000006,0.0,0
1581609957.585,4.395,53.223,-389.648,18.555,0.0,0
1581609957.589,27.831999999999997,53.71100000000001,-537.5980000000002,-1.953,0.0,0
1581609957.593,37.598,43.457,-533.691,-2.441,0.0,0
1581609957.5970001,15.137,27.344,-349.60900000000015,0.977,0.0,0
1581609957.599,1.465,7.324,-370.11699999999996,6.348,0.0,0
1581609957.603,27.831999999999997,-11.23,-464.355,-3.418,0.0,0
1581609957.607,37.109,-2.441,-487.793,-10.742,0.0,0
1581609957.611,31.25,20.02,-464.355,-10.742,0.0,0
1581609957.615,44.434,41.504,-451.17199999999997,0.488,0.0,0
1581609957.619,68.848,56.152,-554.1990000000002,17.578,0.0,0
1581609957.623,52.246,50.78100000000001,-575.684,-15.625,0.0,0
1581609957.6260002,4.395,31.738000000000003,-478.51599999999996,-55.176,0.0,0
1581609957.63,-1.953,12.207,-591.309,-43.945,0.0,0
1581609957.6339998,3.906,-11.719000000000001,-711.426,-47.363,0.0,0
1581609957.6379998,23.926,17.578,-453.125,-49.316,0.0,0
1581609957.6420002,36.621,48.828,-369.14099999999996,-10.254000000000001,0.0,0
1581609957.644,24.414,35.156,-393.066,12.207,0.0,0
1581609957.6479998,36.133,32.715,-410.156,18.066,0.0,0
1581609957.6520002,25.879,45.41,-299.316,12.207,0.0,0
1581609957.6560001,24.414,50.78100000000001,-274.414,8.301,0.0,0
1581609957.66,27.831999999999997,20.508000000000006,-377.93,17.578,0.0,0
1581609957.664,-2.441,4.883,-440.918,23.926,0.0,0
1581609957.668,-6.348,4.395,-540.5269999999998,17.09,0.0,0
1581609957.671,16.113,26.855,-534.18,4.883,0.0,0
1581609957.675,9.277000000000001,46.875,-584.961,14.648,0.0,0
1581609957.679,-14.648,38.086,-519.531,19.531,0.0,0
1581609957.6829998,-0.977,48.34,-252.93,21.97300000000001,0.0,0
1581609957.687,24.901999999999997,55.663999999999994,-251.953,29.296999999999997,0.0,0
1581609957.689,23.926,39.551,-311.035,35.645,0.0,0
1581609957.6929998,-1.953,25.391,-198.24200000000002,54.688,0.0,0
1581609957.697,8.301,14.648,-111.816,58.593999999999994,0.0,0
1581609957.701,23.926,-22.461,-230.957,56.64100000000001,0.0,0
1581609957.705,23.926,-9.766,-349.60900000000015,79.102,0.0,0
1581609957.7089999,2.441,29.296999999999997,-366.211,75.684,0.0,0
1581609957.7129998,-33.203,39.551,-389.648,68.848,0.0,0
1581609957.716,-43.945,63.965,-408.691,64.453,0.0,0
1581609957.72,-25.391,71.289,-529.785,58.593999999999994,0.0,0
1581609957.724,2.441,43.457,-318.3590000000001,77.637,0.0,0
1581609957.728,-17.578,10.254000000000001,-103.516,83.984,0.0,0
1581609957.732,-17.578,1.465,-238.77,73.73,0.0,0
1581609957.735,0.488,3.418,-287.598,65.43,0.0,0
1581609957.7389998,6.836,25.879,-141.113,78.125,0.0,0
1581609957.7429998,-8.301,40.527,-175.78099999999995,83.984,0.0,0
1581609957.7470002,-17.09,19.043,-297.8520000000001,67.87100000000001,0.0,0
1581609957.7510002,9.766,7.812,-303.711,60.547,0.0,0
1581609957.755,2.93,30.761999999999997,-333.496,66.895,0.0,0
1581609957.7589998,-41.504,29.785,-380.371,48.828,0.0,0
1581609957.762,-54.688,21.97300000000001,-551.27,8.301,0.0,0
1581609957.766,-39.062,32.227,-495.605,-24.414,0.0,0
1581609957.77,-50.78100000000001,31.25,-190.918,-41.504,0.0,0
1581609957.774,-64.941,18.066,-210.938,-27.831999999999997,0.0,0
1581609957.7779999,-41.01600000000001,42.48,-319.336,22.461,0.0,0
1581609957.779,-22.949,46.875,-255.37099999999998,32.227,0.0,0
1581609957.783,-42.48,2.441,-192.38299999999998,4.883,0.0,0
1581609957.7870002,-76.172,20.02,-221.68,-16.113,0.0,0
1581609957.7910001,-89.355,53.71100000000001,-180.176,-50.293,0.0,0
1581609957.795,-73.242,42.48,-158.691,-77.148,0.0,0
1581609957.799,-52.733999999999995,35.156,-260.742,-86.914,0.0,0
1581609957.803,-39.062,50.293,-420.898,-70.801,0.0,0
1581609957.806,-34.668,41.504,-489.746,-36.621,0.0,0
1581609957.81,-41.992,14.648,-270.02,-32.227,0.0,0
1581609957.814,-41.01600000000001,24.901999999999997,-141.113,-46.875,0.0,0
1581609957.8179998,-44.922,44.922,-222.168,-41.01600000000001,0.0,0
1581609957.822,-47.852,34.18,-219.727,-3.906,0.0,0
1581609957.825,-46.387,21.97300000000001,-112.305,-1.465,0.0,0
1581609957.829,-43.457,25.391,-158.691,-47.852,0.0,0
1581609957.833,-30.761999999999997,30.273000000000003,-294.434,-44.922,0.0,0
1581609957.8370001,-31.25,35.645,-252.93,-26.855,0.0,0
1581609957.841,-46.875,36.621,-134.766,-26.366999999999997,0.0,0
1581609957.845,-65.918,38.574,-263.184,-21.97300000000001,0.0,0
1581609957.849,-53.223,32.227,-593.262,-15.625,0.0,0
1581609957.8520002,-43.945,30.273000000000003,-530.273,11.719000000000001,0.0,0
1581609957.856,-49.316,19.043,-183.59400000000002,32.227,0.0,0
1581609957.86,-47.363,13.672,-161.621,18.066,0.0,0
1581609957.8639998,-53.223,24.414,-252.93,15.137,0.0,0
1581609957.8679998,-67.383,20.02,-191.40599999999998,48.34,0.0,0
1581609957.869,-55.663999999999994,21.97300000000001,-106.445,84.961,0.0,0
1581609957.873,-49.805,20.996,-207.03099999999998,79.102,0.0,0
1581609957.877,-50.78100000000001,14.648,-287.1090000000001,55.663999999999994,0.0,0
1581609957.881,-49.805,29.785,-160.156,61.035,0.0,0
1581609957.885,-65.918,41.504,-93.75,52.733999999999995,0.0,0
1581609957.889,-71.289,33.203,-238.77,41.01600000000001,0.0,0
1581609957.893,-57.129,34.18,-430.664,40.039,0.0,0
1581609957.8960001,-49.805,32.715,-290.039,46.875,0.0,0
1581609957.9,-65.43,31.738000000000003,-49.316,83.49600000000002,0.0,0
1581609957.904,-54.199,30.761999999999997,-227.53900000000002,83.49600000000002,0.0,0
1581609957.908,-13.672,8.789,-347.168,57.129,0.0,0
1581609957.9120002,-8.789,11.23,-110.352,54.199,0.0,0
1581609957.93,-56.152,18.555,-52.733999999999995,53.223,0.0,0
1581609957.934,-80.566,12.207,-147.94899999999996,61.035,0.0,0
1581609957.938,-59.082,38.574,-161.13299999999995,73.73,0.0,0
1581609957.9420002,-15.625,58.593999999999994,-82.031,68.359,0.0,0
1581609957.946,4.395,41.01600000000001,-82.031,64.941,0.0,0
1581609957.95,-19.043,16.113,-266.60200000000003,74.219,0.0,0
1581609957.954,-15.137,2.93,-275.39099999999996,75.684,0.0,0
1581609957.957,-2.441,17.578,-183.105,65.43,0.0,0
1581609957.961,-1.953,45.41,-234.863,44.434,0.0,0
1581609957.965,-13.184000000000001,50.293,-367.18800000000016,49.805,0.0,0
1581609957.9689999,-9.766,8.301,-337.402,88.37899999999998,0.0,0
1581609957.9729998,20.02,-2.93,-91.309,79.102,0.0,0
1581609957.975,15.625,20.996,-102.051,49.316,0.0,0
1581609957.9789999,-10.254000000000001,19.043,-257.812,58.593999999999994,0.0,0
1581609957.9829998,-19.531,21.484,-125.0,60.059,0.0,0
1581609957.9870002,-9.766,26.855,-12.207,47.852,0.0,0
1581609957.9910002,-0.488,34.18,-162.59799999999996,66.406,0.0,0
1581609957.995,4.883,53.71100000000001,-312.012,108.398,0.0,0
1581609957.9989998,21.97300000000001,52.733999999999995,-321.777,79.59,0.0,0
1581609958.002,31.738000000000003,43.945,-167.48,11.719000000000001,0.0,0
1581609958.006,18.555,11.23,-274.902,-29.296999999999997,0.0,0
1581609958.01,2.441,-7.324,-484.375,-34.668,0.0,0
1581609958.014,0.488,2.441,-229.00400000000002,4.395,0.0,0
1581609958.018,20.996,6.836,-167.48,43.945,0.0,0
1581609958.019,61.523,31.738000000000003,-260.742,48.828,0.0,0
1581609958.0229998,74.707,52.733999999999995,-133.789,28.809,0.0,0
1581609958.0270002,55.663999999999994,52.246,-30.273000000000003,17.09,0.0,0
1581609958.0310001,39.551,49.316,-13.184000000000001,18.555,0.0,0
1581609958.035,53.71100000000001,42.968999999999994,-65.918,19.531,0.0,0
1581609958.039,65.43,19.043,-233.398,31.25,0.0,0
1581609958.043,37.109,-7.324,-296.387,53.223,0.0,0
1581609958.046,21.97300000000001,5.371,-193.359,46.875,0.0,0
1581609958.05,41.992,24.414,-320.312,49.316,0.0,0
1581609958.054,46.387,17.09,-340.82,49.316,0.0,0
1581609958.0579998,34.668,33.691,-25.879,40.527,0.0,0
1581609958.062,5.859,42.968999999999994,0.488,33.203,0.0,0
1581609958.065,9.277000000000001,37.109,-22.949,41.992,0.0,0
1581609958.069,40.527,17.578,-61.523,52.733999999999995,0.0,0
1581609958.073,53.223,8.789,-126.465,64.941,0.0,0
1581609958.0770001,39.551,29.785,-62.988,74.707,0.0,0
1581609958.081,34.668,15.137,-65.918,37.109,0.0,0
1581609958.085,48.34,4.395,-128.906,13.184000000000001,0.0,0
1581609958.089,51.27,42.968999999999994,-74.707,20.996,0.0,0
1581609958.092,44.922,33.691,-40.527,45.41,0.0,0
1581609958.096,46.387,13.184000000000001,-218.262,32.715,0.0,0
1581609958.1,58.105,37.109,-65.918,-8.301,0.0,0
1581609958.1039999,64.453,54.199,45.898,-25.879,0.0,0
1581609958.1079998,64.941,45.898,-41.504,-18.555,0.0,0
1581609958.11,63.477,34.668,-24.414,-8.301,0.0,0
1581609958.1139998,64.941,32.227,81.055,-9.766,0.0,0
1581609958.1179998,64.453,26.366999999999997,66.895,-16.602,0.0,0
1581609958.1220002,63.477,-8.301,19.043,0.977,0.0,0
1581609958.1260002,53.223,-14.648,8.789,23.926,0.0,0
1581609958.13,33.691,39.062,-52.246,1.465,0.0,0
1581609958.1339998,35.156,58.593999999999994,-48.828,-13.184000000000001,0.0,0
1581609958.137,37.109,38.574,-223.63299999999998,-9.766,0.0,0
1581609958.141,18.066,29.785,-172.852,11.23,0.0,0
1581609958.145,11.23,32.715,207.52,35.156,0.0,0
1581609958.149,21.484,31.738000000000003,172.363,24.901999999999997,0.0,0
1581609958.1529999,21.484,27.344,30.273000000000003,22.949,0.0,0
1581609958.155,11.719000000000001,17.578,118.652,43.457,0.0,0
1581609958.159,37.598,0.977,244.141,72.75399999999998,0.0,0
1581609958.1629999,52.246,11.23,134.27700000000002,78.613,0.0,0
1581609958.167,29.296999999999997,19.531,71.289,60.059,0.0,0
1581609958.171,29.785,25.391,160.645,53.71100000000001,0.0,0
1581609958.175,20.02,42.968999999999994,74.707,38.574,0.0,0
1581609958.179,24.414,44.922,-8.789,20.996,0.0,0
1581609958.1820002,51.27,41.992,-113.281,23.438000000000002,0.0,0
1581609958.186,63.965,26.366999999999997,36.621,48.828,0.0,0
1581609958.19,45.41,21.484,246.582,39.551,0.0,0
1581609958.194,24.414,34.18,194.33599999999998,11.23,0.0,0
1581609958.198,39.551,23.438000000000002,174.31599999999997,-0.488,0.0,0
1581609958.199,45.898,13.672,256.836,-7.324,0.0,0
1581609958.2029998,39.062,33.691,277.832,11.23,0.0,0
1581609958.207,47.363,43.945,231.93400000000003,20.508000000000006,0.0,0
1581609958.211,65.43,40.039,213.37900000000002,7.812,0.0,0
1581609958.215,62.5,32.227,231.445,-9.277000000000001,0.0,0
1581609958.2189999,47.363,14.16,184.57,-7.324,0.0,0
1581609958.2229998,52.246,16.602,-40.527,7.812,0.0,0
1581609958.226,72.266,17.09,-21.484,29.296999999999997,0.0,0
1581609958.23,70.312,13.184000000000001,239.25799999999998,31.25,0.0,0
1581609958.234,41.992,35.645,267.578,11.719000000000001,0.0,0
1581609958.238,20.996,29.785,135.254,-8.789,0.0,0
1581609958.242,13.184000000000001,3.906,143.555,-8.301,0.0,0
1581609958.244,30.273000000000003,18.555,284.18,0.0,0.0,0
1581609958.248,28.809,39.062,180.176,5.859,0.0,0
1581609958.252,3.418,46.875,181.641,21.97300000000001,0.0,0
1581609958.256,11.719000000000001,42.48,345.215,15.625,0.0,0
1581609958.26,65.918,-7.324,368.652,12.695,0.0,0
1581609958.264,100.586,-13.184000000000001,100.098,45.41,0.0,0
1581609958.268,63.965,33.691,-41.992,48.34,0.0,0
1581609958.2710001,39.062,58.593999999999994,224.12099999999998,22.949,0.0,0
1581609958.275,21.97300000000001,57.129,365.23400000000004,-13.184000000000001,0.0,0
1581609958.279,-7.324,41.992,283.203,-14.16,0.0,0
1581609958.283,-5.371,43.457,248.047,19.043,0.0,0
1581609958.2870002,2.93,33.203,405.273,13.184000000000001,0.0,0
1581609958.305,14.16,6.348,521.9730000000002,10.254000000000001,0.0,0
1581609958.309,31.25,13.184000000000001,361.32800000000003,-2.93,0.0,0
1581609958.313,37.109,4.395,269.043,-14.16,0.0,0
1581609958.3170002,32.715,-8.789,402.344,3.418,0.0,0
1581609958.321,49.316,-1.465,409.18,16.113,0.0,0
1581609958.325,71.777,7.324,236.328,8.301,0.0,0
1581609958.329,66.895,36.621,218.262,3.906,0.0,0
1581609958.332,46.387,51.27,370.11699999999996,13.672,0.0,0
1581609958.336,38.086,58.105,419.92199999999997,21.97300000000001,0.0,0
1581609958.34,44.922,41.504,250.488,2.93,0.0,0
1581609958.3439999,39.551,27.344,210.938,-23.926,0.0,0
1581609958.3479998,26.366999999999997,23.926,383.789,-16.113,0.0,0
1581609958.349,21.97300000000001,-31.738000000000003,395.996,19.043,0.0,0
1581609958.353,34.668,-34.668,318.848,25.879,0.0,0
1581609958.357,45.41,31.738000000000003,331.055,-1.465,0.0,0
1581609958.361,62.5,57.617,470.70300000000003,36.133,0.0,0
1581609958.365,61.523,36.133,463.379,66.895,0.0,0
1581609958.369,23.926,33.691,278.32,41.504,0.0,0
1581609958.373,29.785,20.996,217.285,12.695,0.0,0
1581609958.3760002,44.922,-10.254000000000001,388.67199999999997,22.949,0.0,0
1581609958.38,12.695,22.949,338.86699999999996,24.901999999999997,0.0,0
1581609958.3839998,19.531,48.828,143.066,33.203,0.0,0
1581609958.3879998,56.152,21.484,375.977,50.293,0.0,0
1581609958.3920002,37.598,32.227,513.184,33.691,0.0,0
1581609958.394,2.93,48.34,407.715,30.273000000000003,0.0,0
1581609958.3979998,3.418,32.715,396.48400000000004,31.738000000000003,0.0,0
1581609958.4020002,35.645,36.133,525.391,60.059,0.0,0
1581609958.4060001,49.805,21.97300000000001,553.2230000000002,94.727,0.0,0
1581609958.41,27.344,6.348,427.246,64.941,0.0,0
1581609958.414,11.719000000000001,25.879,296.387,37.109,0.0,0
1581609958.418,33.691,25.879,320.801,33.203,0.0,0
1581609958.421,50.293,14.648,378.906,19.043,0.0,0
1581609958.425,17.578,37.109,200.195,22.949,0.0,0
1581609958.429,6.836,59.082,234.375,47.363,0.0,0
1581609958.4329998,38.086,54.199,559.082,54.688,0.0,0
1581609958.437,46.387,37.109,567.383,42.968999999999994,0.0,0
1581609958.439,39.551,0.977,420.898,53.223,0.0,0
1581609958.4429998,53.223,-21.97300000000001,457.52,102.051,0.0,0
1581609958.447,62.012,13.184000000000001,590.82,104.492,0.0,0
1581609958.451,61.523,34.18,507.324,71.289,0.0,0
1581609958.455,40.039,31.738000000000003,467.285,42.968999999999994,0.0,0
1581609958.4589999,29.296999999999997,50.293,432.129,17.09,0.0,0
1581609958.4629998,40.527,51.27,344.727,27.831999999999997,0.0,0
1581609958.466,30.761999999999997,35.156,324.707,35.156,0.0,0
1581609958.47,33.691,38.086,247.55900000000003,23.438000000000002,0.0,0
1581609958.474,44.434,29.785,416.99199999999996,38.086,0.0,0
1581609958.478,41.01600000000001,12.207,529.297,55.663999999999994,0.0,0
1581609958.482,44.434,27.344,507.324,45.41,0.0,0
1581609958.484,72.266,39.062,557.617,66.406,0.0,0
1581609958.488,74.707,15.137,650.879,97.16799999999999,0.0,0
1581609958.492,49.805,8.301,665.039,57.129,0.0,0
1581609958.496,30.273000000000003,33.203,589.355,0.977,0.0,0
1581609958.5,13.184000000000001,40.527,529.297,-24.901999999999997,0.0,0
1581609958.504,17.578,33.203,429.199,-9.277000000000001,0.0,0
1581609958.508,11.23,20.508000000000006,444.336,20.02,0.0,0
1581609958.5110002,3.418,13.184000000000001,292.969,7.812,0.0,0
1581609958.515,21.484,29.296999999999997,230.46900000000002,-15.137,0.0,0
1581609958.519,32.227,39.062,543.457,2.93,0.0,0
1581609958.5229998,32.227,44.434,605.469,17.09,0.0,0
1581609958.5270002,51.27,46.387,527.832,9.766,0.0,0
1581609958.529,85.449,7.812,608.887,23.926,0.0,0
1581609958.533,106.445,-13.672,616.6990000000002,50.293,0.0,0
1581609958.5370002,73.242,-6.348,519.531,41.992,0.0,0
1581609958.5410001,23.926,20.996,551.758,11.23,0.0,0
1581609958.545,24.414,40.039,644.043,-12.207,0.0,0
1581609958.549,42.968999999999994,39.062,598.145,-19.043,0.0,0
1581609958.553,21.484,44.922,444.824,-0.488,0.0,0
1581609958.556,13.184000000000001,30.273000000000003,376.465,12.207,0.0,0
1581609958.56,51.27,4.883,569.336,24.414,0.0,0
1581609958.564,57.617,-7.812,670.898,48.34,0.0,0
1581609958.5679998,36.621,32.715,628.906,44.922,0.0,0
1581609958.572,52.733999999999995,54.688,610.84,74.219,0.0,0
1581609958.574,50.78100000000001,35.156,690.918,101.074,0.0,0
1581609958.5779998,34.18,11.23,710.449,40.527,0.0,0
1581609958.582,27.344,23.438000000000002,608.887,3.906,0.0,0
1581609958.586,22.461,31.738000000000003,594.727,13.672,0.0,0
1581609958.59,29.785,8.301,600.586,32.715,0.0,0
1581609958.5939999,29.296999999999997,20.02,573.242,46.387,0.0,0
1581609958.5979998,15.625,58.593999999999994,381.348,31.738000000000003,0.0,2
1581609958.601,1.953,54.688,403.32,46.875,0.0,0
1581609958.605,2.441,28.32,719.727,68.848,0.0,0
1581609958.609,-25.879,28.32,750.977,45.41,0.0,0
1581609958.613,-50.78100000000001,34.18,670.898,38.574,0.0,0
1581609958.617,-1.465,39.062,736.816,69.336,0.0,0
1581609958.649,61.523,20.508000000000006,798.34,71.289,0.0,0
1581609958.6529999,53.71100000000001,14.648,709.961,40.527,0.0,0
1581609958.657,19.043,14.16,630.371,25.879,0.0,0
1581609958.661,-3.906,10.742,698.73,23.926,0.0,0
1581609958.665,-2.93,43.457,773.926,34.18,0.0,0
1581609958.669,7.812,53.223,616.211,34.18,0.0,0
1581609958.6729999,-7.812,45.898,343.26199999999994,7.324,0.0,0
1581609958.676,-26.855,32.227,453.125,3.906,0.0,0
1581609958.68,-47.852,20.996,674.805,6.836,0.0,0
1581609958.684,-46.875,26.366999999999997,649.414,11.23,0.0,0
1581609958.688,-24.414,28.32,606.934,18.066,0.0,0
1581609958.6920002,-6.836,14.16,689.941,31.25,0.0,0
1581609958.679,-3.906,9.277000000000001,691.895,36.133,0.0,0
1581609958.6829998,-11.23,27.344,620.605,19.043,0.0,0
1581609958.687,-19.043,25.879,637.207,-20.02,0.0,0
1581609958.691,-4.395,28.32,739.7460000000003,-61.523,0.0,0
1581609958.695,-12.207,60.059,728.0269999999997,-51.27,0.0,0
1581609958.699,-27.831999999999997,56.152,583.008,-32.715,0.0,0
1581609958.7029998,4.883,29.785,579.102,-47.363,0.0,0
1581609958.706,23.926,23.926,673.828,-76.172,0.0,0
1581609958.71,28.32,39.062,683.5939999999998,-70.312,0.0,0
1581609958.714,38.086,36.621,684.57,-35.645,0.0,0
1581609958.718,58.105,21.484,701.172,-19.531,0.0,0
1581609958.7220001,72.266,-3.906,759.2769999999997,-35.156,0.0,0
1581609958.724,42.968999999999994,11.719000000000001,754.883,-56.152,0.0,0
1581609958.728,21.97300000000001,46.387,570.312,-55.663999999999994,0.0,0
1581609958.732,16.113,45.898,645.996,-47.852,0.0,0
1581609958.736,14.16,42.48,821.289,-34.18,0.0,0
1581609958.74,7.812,39.551,725.586,-49.805,0.0,0
1581609958.744,4.883,30.761999999999997,601.0740000000002,-54.688,0.0,0
1581609958.748,-10.254000000000001,22.461,615.7230000000002,-33.203,0.0,0
1581609958.7510002,-16.113,32.715,804.688,-25.879,0.0,0
1581609958.755,11.23,32.715,764.648,-7.812,0.0,0
1581609958.7589998,20.996,16.113,500.48800000000006,9.277000000000001,0.0,0
1581609958.7629998,9.277000000000001,-14.648,697.2660000000003,21.97300000000001,0.0,0
1581609958.7670002,31.25,-14.648,862.793,49.316,0.0,0
1581609958.769,52.733999999999995,31.25,760.2539999999997,38.086,0.0,0
1581609958.7729998,26.366999999999997,28.32,709.961,22.461,0.0,0
1581609958.7770002,23.438000000000002,25.879,786.6210000000003,38.086,0.0,0
1581609958.7810001,41.504,44.434,837.4019999999997,37.598,0.0,0
1581609958.785,44.434,40.527,748.047,12.695,0.0,0
1581609958.789,49.316,43.457,626.953,-4.883,0.0,0
1581609958.793,50.78100000000001,23.438000000000002,634.2769999999998,17.578,0.0,0
1581609958.796,57.617,-8.789,764.648,46.875,0.0,0
1581609958.8,83.008,18.066,655.273,59.082,0.0,0
1581609958.804,100.098,19.531,632.3240000000002,50.78100000000001,0.0,0
1581609958.8079998,74.707,11.719000000000001,875.0,48.34,0.0,0
1581609958.812,53.223,26.855,879.395,71.777,0.0,0
1581609958.815,56.64100000000001,17.578,804.199,48.34,0.0,0
1581609958.819,63.965,46.387,870.117,18.555,0.0,0
1581609958.823,62.5,52.246,979.0039999999999,15.625,0.0,0
1581609958.8270001,52.733999999999995,26.855,857.422,11.23,0.0,0
1581609958.831,29.785,31.25,769.5310000000003,11.719000000000001,0.0,0
1581609958.835,18.555,36.133,811.035,17.578,0.0,0
1581609958.839,34.18,17.09,800.293,29.296999999999997,0.0,0
1581609958.842,25.391,4.395,744.6289999999997,48.828,0.0,0
1581609958.846,-5.371,27.344,653.32,39.062,0.0,0
1581609958.85,0.0,28.809,879.883,2.93,0.0,0
1581609958.8539999,7.324,30.273000000000003,979.0039999999999,4.395,0.0,0
1581609958.8579998,-5.859,41.504,823.73,30.761999999999997,0.0,0
1581609958.86,0.0,31.25,822.7539999999997,31.25,0.0,0
1581609958.8639998,19.043,39.551,955.078,45.898,0.0,0
1581609958.8679998,12.207,24.414,991.211,48.34,0.0,0
1581609958.8720002,-3.906,8.301,919.434,21.97300000000001,0.0,0
1581609958.8760002,-14.16,36.621,951.172,26.366999999999997,0.0,0
1581609958.88,-21.484,34.668,934.57,11.719000000000001,0.0,0
1581609958.8839998,1.465,14.16,831.055,1.953,0.0,0
1581609958.887,24.901999999999997,31.25,659.18,14.648,0.0,0
1581609958.891,26.366999999999997,38.574,752.441,31.25,0.0,0
1581609958.895,27.344,24.901999999999997,-975.586,39.551,0.0,0
1581609958.899,32.227,21.484,989.258,25.879,0.0,0
1581609958.9029999,23.438000000000002,6.836,932.617,9.766,0.0,0
1581609958.905,24.414,15.137,964.8439999999999,13.672,0.0,0
1581609958.909,25.879,50.78100000000001,-984.375,11.23,0.0,0
1581609958.9129999,29.296999999999997,62.5,970.215,12.695,0.0,0
1581609958.917,41.504,55.176,922.363,19.531,0.0,0
1581609958.921,33.203,49.316,974.1210000000001,21.484,0.0,0
1581609958.925,20.996,26.855,-999.512,12.695,0.0,0
1581609958.929,27.344,-15.625,929.199,9.766,0.0,0
1581609958.9320002,44.922,-27.344,796.387,27.344,0.0,0
1581609958.936,28.32,15.625,927.7339999999999,33.691,0.0,0
1581609958.94,5.371,58.593999999999994,-980.957,33.691,0.0,0
1581609958.944,19.531,73.73,984.863,37.598,0.0,0
1581609958.948,51.27,51.27,996.0939999999999,23.926,0.0,0
1581609958.95,53.71100000000001,33.691,-999.512,18.066,0.0,0
1581609958.954,30.761999999999997,34.18,999.023,22.949,0.0,0
1581609958.958,13.184000000000001,31.738000000000003,999.512,27.344,0.0,0
1581609958.9620001,19.531,20.996,996.0939999999999,20.996,0.0,0
1581609958.966,50.78100000000001,23.926,998.047,1.465,0.0,0
1581609958.97,63.965,32.227,-1000.0,20.996,0.0,0
1581609958.974,46.875,24.901999999999997,780.762,37.109,0.0,0
1581609958.9770002,30.273000000000003,17.09,797.852,24.414,0.0,0
1581609958.981,15.137,34.668,-977.539,14.16,0.0,0
1581609958.985,27.831999999999997,54.199,995.117,-6.348,0.0,0
1581609958.9889998,57.617,50.293,991.211,-9.766,0.0,0
1581609958.9929998,55.176,44.434,-1000.0,6.836,0.0,0
1581609959.01,48.828,23.926,993.6519999999999,-8.789,0.0,0
1581609959.014,46.875,-14.16,995.117,-13.672,0.0,0
1581609959.018,19.043,-1.953,-998.047,-4.883,0.0,0
1581609959.022,11.23,43.945,989.7460000000001,-10.254000000000001,0.0,0
1581609959.026,15.625,53.223,-981.934,-7.812,0.0,0
1581609959.03,11.719000000000001,42.48,945.801,17.09,0.0,0
1581609959.034,15.625,33.203,830.078,32.715,0.0,0
1581609959.0370002,33.691,28.809,966.309,27.831999999999997,0.0,0
1581609959.0410001,60.547,32.227,-984.863,42.968999999999994,0.0,0
1581609959.045,39.551,29.296999999999997,983.887,25.391,0.0,0
1581609959.049,-13.184000000000001,24.414,996.0939999999999,4.883,0.0,0
1581609959.053,-30.273000000000003,22.949,-999.023,16.113,0.0,0
1581609959.054,-11.23,29.296999999999997,999.023,18.066,0.0,0
1581609959.0579998,0.977,34.18,997.559,25.879,0.0,0
1581609959.062,11.719000000000001,36.133,998.535,35.645,0.0,0
1581609959.066,11.719000000000001,27.344,999.512,54.199,0.0,0
1581609959.07,13.672,22.949,999.512,71.777,0.0,0
1581609959.074,38.574,23.438000000000002,998.047,57.617,0.0,0
1581609959.0779998,39.551,22.461,992.676,30.761999999999997,0.0,0
1581609959.081,7.324,36.621,991.699,33.691,0.0,0
1581609959.085,-2.93,38.086,-977.539,22.949,0.0,0
1581609959.089,7.324,33.691,879.395,-11.23,0.0,0
1581609959.093,25.391,40.527,864.258,-1.953,0.0,0
1581609959.0970001,28.809,26.855,-983.887,37.598,0.0,0
1581609959.099,15.625,12.207,997.07,48.828,0.0,0
1581609959.103,22.461,14.16,997.559,49.805,0.0,0
1581609959.107,28.32,29.785,997.559,49.316,0.0,0
1581609959.111,29.785,45.41,-997.559,49.805,0.0,0
1581609959.115,18.555,39.551,993.164,51.27,0.0,0
1581609959.119,17.09,30.761999999999997,959.961,13.184000000000001,0.0,0
1581609959.123,53.71100000000001,27.831999999999997,961.426,6.836,0.0,0
1581609959.1260002,39.551,12.207,-996.0939999999999,31.738000000000003,0.0,0
1581609959.13,-8.789,26.855,959.961,20.02,0.0,0
1581609959.1339998,-4.395,60.547,894.5310000000003,10.742,0.0,0
1581609959.1379998,19.531,38.086,990.2339999999999,-3.906,0.0,0
1581609959.1420002,34.668,-0.977,-993.164,5.859,0.0,0
1581609959.145,38.086,-9.277000000000001,994.1410000000001,52.246,0.0,0
1581609959.149,21.97300000000001,28.809,-999.512,47.852,0.0,0
1581609959.1529999,38.086,68.359,999.512,21.484,0.0,0
1581609959.157,46.875,55.176,999.512,0.977,0.0,0
1581609959.161,25.391,36.621,999.512,23.438000000000002,0.0,0
1581609959.165,19.043,14.648,999.023,59.57,0.0,0
1581609959.169,42.48,17.09,996.0939999999999,34.668,0.0,0
1581609959.1720002,27.831999999999997,23.438000000000002,-987.793,11.719000000000001,0.0,0
1581609959.176,2.441,33.691,934.082,26.855,0.0,0
1581609959.18,3.418,31.738000000000003,922.852,37.598,0.0,0
1581609959.184,10.742,21.484,-991.699,19.043,0.0,0
1581609959.188,20.508000000000006,33.691,998.535,-10.254000000000001,0.0,0
1581609959.19,26.366999999999997,22.461,998.047,-5.371,0.0,0
1581609959.194,33.203,13.672,999.512,18.066,0.0,0
1581609959.198,59.57,12.207,999.512,45.898,0.0,0
1581609959.2020001,78.613,16.113,999.512,62.012,0.0,0
1581609959.206,66.406,27.831999999999997,-1000.0,45.41,0.0,0
1581609959.21,45.898,32.715,996.582,28.32,0.0,0
1581609959.214,14.648,34.18,-995.117,-7.812,0.0,0
1581609959.217,16.602,37.598,987.793,-38.574,0.0,0
1581609959.221,27.344,25.391,958.4960000000001,-31.738000000000003,0.0,0
1581609959.225,37.109,10.254000000000001,995.117,-2.441,0.0,0
1581609959.2289999,68.848,29.785,-997.07,51.27,0.0,0
1581609959.2329998,84.473,32.227,997.07,69.336,0.0,0
1581609959.234,68.359,7.324,-1000.0,28.809,0.0,0
1581609959.238,34.18,15.625,999.512,14.16,0.0,0
1581609959.242,12.207,35.645,999.512,13.184000000000001,0.0,0
1581609959.246,5.859,41.01600000000001,999.512,-2.93,0.0,0
1581609959.25,6.836,44.434,999.023,-29.785,0.0,0
1581609959.254,15.137,35.156,997.07,-32.227,0.0,0
1581609959.258,5.859,12.695,-991.211,0.0,0.0,0
1581609959.2610002,2.93,4.395,952.637,13.184000000000001,0.0,0
1581609959.265,38.574,18.555,949.2189999999999,12.695,0.0,0
1581609959.269,57.129,27.831999999999997,-992.188,25.879,0.0,0
1581609959.2729998,45.41,44.434,997.559,27.831999999999997,0.0,0
1581609959.2770002,37.109,37.598,999.023,29.296999999999997,0.0,0
1581609959.28,34.18,16.113,999.512,15.625,0.0,0
1581609959.284,27.344,32.227,999.512,-31.738000000000003,0.0,0
1581609959.2879999,11.23,51.27,999.512,-20.508000000000006,0.0,0
1581609959.292,12.207,44.922,999.512,9.277000000000001,0.0,0
1581609959.296,40.527,33.691,999.023,20.508000000000006,0.0,0
1581609959.3,47.363,11.23,-1000.0,37.598,0.0,0
1581609959.304,33.691,6.348,997.559,29.296999999999997,0.0,0
1581609959.3070002,8.789,27.344,992.676,14.648,0.0,0
1581609959.311,6.836,40.527,998.535,37.109,0.0,0
1581609959.315,34.668,39.551,-1000.0,40.039,0.0,0
1581609959.319,21.484,30.761999999999997,999.023,27.344,0.0,0
1581609959.323,-11.23,27.831999999999997,999.512,36.133,0.0,0
1581609959.325,-18.555,23.926,999.512,26.855,0.0,0
1581609959.329,2.93,20.996,999.512,14.16,0.0,0
1581609959.333,17.09,13.672,999.512,39.062,0.0,0
1581609959.3370001,4.883,9.277000000000001,999.512,55.663999999999994,0.0,0
1581609959.341,2.441,15.137,999.023,37.109,0.0,0
1581609959.345,16.602,25.879,-999.512,34.18,0.0,0
1581609959.349,-1.465,42.968999999999994,994.6289999999999,29.785,0.0,0
1581609959.3520002,-10.254000000000001,55.176,993.6519999999999,9.766,0.0,0
1581609959.356,11.23,48.34,-999.512,36.621,0.0,0
1581609959.36,11.23,34.668,999.023,38.574,0.0,0
1581609959.3639998,13.184000000000001,27.344,999.512,15.137,0.0,0
1581609959.3679998,19.531,9.766,999.512,39.062,0.0,0
1581609959.369,37.109,4.883,999.512,71.289,0.0,0
1581609959.373,42.48,20.996,999.512,62.5,0.0,0
1581609959.377,29.785,25.391,999.512,29.296999999999997,0.0,0
1581609959.381,41.992,24.414,999.512,12.695,0.0,0
1581609959.385,35.156,32.715,999.512,24.901999999999997,0.0,0
1581609959.389,14.16,41.992,999.512,40.039,0.0,0
1581609959.393,29.296999999999997,47.852,999.512,40.039,0.0,0
1581609959.3960001,55.176,36.133,999.512,38.086,0.0,0
1581609959.4,40.039,5.859,999.512,16.602,0.0,0
1581609959.404,21.484,4.395,999.512,13.672,0.0,0
1581609959.408,41.01600000000001,15.625,999.512,7.324,0.0,0
1581609959.4120002,53.223,41.992,999.512,16.113,0.0,0
1581609959.429,17.578,61.523,999.512,44.434,0.0,0
1581609959.4329998,-19.531,41.01600000000001,999.512,33.203,0.0,0
1581609959.437,-24.414,31.25,999.512,-1.953,0.0,0
1581609959.441,9.277000000000001,37.598,999.512,-8.301,0.0,0
1581609959.445,45.41,22.949,999.512,20.508000000000006,0.0,0
1581609959.449,47.852,-9.766,999.512,29.785,0.0,0
1581609959.4529998,52.733999999999995,7.324,999.512,24.901999999999997,0.0,0
1581609959.456,55.176,52.733999999999995,999.512,13.672,0.0,0
1581609959.46,51.27,60.547,999.512,19.043,0.0,0
1581609959.464,35.156,59.57,999.512,49.805,0.0,0
1581609959.468,40.527,47.852,999.512,41.01600000000001,0.0,0
1581609959.4720001,53.71100000000001,13.672,999.512,6.836,0.0,0
1581609959.474,40.527,8.789,999.512,9.766,0.0,0
1581609959.478,39.062,25.879,999.512,30.761999999999997,0.0,0
1581609959.482,54.688,36.133,999.512,40.039,0.0,0
1581609959.486,71.289,31.738000000000003,999.512,19.531,0.0,0
1581609959.49,61.035,32.227,999.512,21.97300000000001,0.0,0
1581609959.494,39.062,53.223,999.512,60.547,0.0,0
1581609959.498,43.945,61.035,999.512,59.082,0.0,0
1581609959.5010002,37.598,40.039,999.512,29.785,0.0,0
1581609959.505,29.296999999999997,-4.395,999.512,10.742,0.0,0
1581609959.5089998,23.926,-22.949,999.512,9.766,0.0,0
1581609959.5129998,20.508000000000006,15.625,999.512,39.551,0.0,0
1581609959.5170002,32.715,45.898,999.512,60.059,0.0,0
1581609959.519,26.855,33.203,999.512,39.551,0.0,0
1581609959.5229998,28.32,47.363,999.512,31.25,0.0,0
1581609959.5270002,24.414,58.105,999.512,37.109,0.0,0
1581609959.5310001,2.441,38.086,999.512,42.968999999999994,0.0,0
1581609959.535,8.789,33.203,999.512,19.531,0.0,0
1581609959.539,-1.953,30.761999999999997,999.512,-11.23,0.0,0
1581609959.543,-20.02,-7.324,999.512,-9.766,0.0,0
1581609959.546,-25.391,-8.789,999.512,-15.625,0.0,0
1581609959.55,-21.484,40.527,999.512,-40.527,0.0,0
1581609959.554,-22.949,36.621,999.512,-49.316,0.0,0
1581609959.5579998,-30.273000000000003,30.273000000000003,999.512,-33.691,0.0,0
1581609959.562,-30.273000000000003,49.805,999.512,-38.574,0.0,0
1581609959.564,-15.625,47.852,999.512,-67.87100000000001,0.0,0
1581609959.5679998,11.719000000000001,45.898,999.512,-97.656,0.0,0
1581609959.572,17.578,52.246,999.512,-107.91,0.0,0
1581609959.576,15.137,24.414,999.512,-99.12100000000001,0.0,0
1581609959.58,41.992,-21.97300000000001,999.512,-112.79299999999999,0.0,0
1581609959.5839999,65.43,-3.418,999.512,-117.18799999999999,0.0,0
1581609959.5879998,48.34,47.363,999.512,-121.58200000000001,0.0,0
1581609959.591,26.366999999999997,47.852,999.512,-138.672,0.0,0
1581609959.595,24.901999999999997,46.875,999.512,-133.789,0.0,0
1581609959.599,40.039,52.246,999.512,-124.023,0.0,0
1581609959.603,45.898,38.574,999.512,-116.211,0.0,0
1581609959.607,30.761999999999997,43.945,999.512,-98.145,0.0,0
1581609959.609,10.254000000000001,37.598,999.512,-104.00399999999999,0.0,0
1581609959.613,5.371,27.831999999999997,999.512,-114.74600000000001,0.0,0
1581609959.617,22.949,42.48,999.512,-96.68,0.0,0
1581609959.621,34.668,32.227,999.512,-73.73,0.0,0
1581609959.625,40.039,-1.953,999.512,-59.082,0.0,0
1581609959.629,28.809,-10.742,999.512,-68.848,0.0,0
1581609959.633,20.02,24.414,999.512,-79.59,0.0,0
1581609959.6360002,10.742,32.715,999.512,-59.082,0.0,0
1581609959.64,-18.555,37.598,999.512,-25.879,0.0,0
1581609959.644,-19.531,43.945,999.512,-10.742,0.0,0
1581609959.6479998,-8.301,40.527,999.512,1.465,0.0,0
1581609959.6520002,10.254000000000001,39.062,999.512,0.488,0.0,0
1581609959.654,35.156,26.366999999999997,999.512,22.949,0.0,0
1581609959.658,46.875,13.672,999.512,72.75399999999998,0.0,0
1581609959.6620002,43.457,5.371,999.512,69.336,0.0,0
1581609959.6660001,45.898,24.901999999999997,999.512,30.273000000000003,0.0,0
1581609959.67,45.41,30.273000000000003,999.512,24.414,0.0,2
1581609959.674,48.34,24.414,999.512,46.387,0.0,0
1581609959.678,51.758,28.809,999.512,51.758,0.0,0
1581609959.681,60.547,15.625,999.512,51.758,0.0,0
1581609959.685,76.66,6.348,999.512,65.43,0.0,0
1581609959.689,72.75399999999998,20.996,999.512,78.125,0.0,0
1581609959.6929998,74.707,44.922,999.512,81.543,0.0,0
1581609959.697,98.145,42.968999999999994,999.512,98.145,0.0,0
1581609959.699,85.93799999999996,23.438000000000002,999.512,99.12100000000001,0.0,0
1581609959.7029998,47.852,19.043,999.512,92.773,0.0,0
1581609959.707,40.039,9.766,999.512,96.191,0.0,0
1581609959.711,39.062,15.625,999.512,76.172,0.0,0
1581609959.715,32.227,40.039,999.512,68.848,0.0,0
1581609959.7189999,5.859,34.18,999.512,92.285,0.0,0
1581609959.7229998,-29.296999999999997,29.296999999999997,999.512,106.445,0.0,0
1581609959.726,-16.602,41.01600000000001,999.512,105.95700000000001,0.0,0
1581609959.73,7.324,32.227,999.512,80.566,0.0,0
1581609959.734,1.465,19.531,999.512,64.941,0.0,0
1581609959.738,0.488,27.831999999999997,999.512,83.008,0.0,0
1581609959.742,6.348,17.578,999.512,69.824,0.0,0
1581609959.7589998,24.414,38.086,999.512,36.133,0.0,0
1581609959.7629998,53.223,62.988,999.512,29.785,0.0,0
1581609959.7670002,54.688,40.527,999.512,28.809,0.0,0
1581609959.7710001,39.062,18.066,999.512,11.719000000000001,0.0,0
1581609959.775,42.48,11.719000000000001,999.512,-3.906,0.0,0
1581609959.779,44.922,16.602,999.512,-4.395,0.0,0
1581609959.783,27.344,20.508000000000006,999.512,12.207,0.0,0
1581609959.786,27.831999999999997,37.598,999.512,29.785,0.0,0
1581609959.79,68.848,59.082,999.512,18.555,0.0,0
1581609959.794,100.098,57.129,999.512,-15.137,0.0,0
1581609959.7979999,99.12100000000001,33.203,999.512,-12.695,0.0,0
1581609959.802,79.59,23.438000000000002,999.512,14.648,0.0,0
1581609959.804,39.551,29.296999999999997,999.512,-4.395,0.0,0
1581609959.8079998,43.945,36.621,999.512,-22.949,0.0,0
1581609959.812,57.129,30.273000000000003,999.512,7.324,0.0,0
1581609959.816,40.527,27.344,999.512,27.831999999999997,0.0,0
1581609959.82,49.805,46.875,999.512,16.602,0.0,0
1581609959.824,86.426,27.344,999.512,29.785,0.0,0
1581609959.8279998,136.23,5.859,999.512,32.715,0.0,0
1581609959.831,129.395,11.23,999.512,-1.465,0.0,0
1581609959.835,95.70299999999999,28.32,999.512,-15.137,0.0,0
1581609959.839,100.586,43.457,999.512,-17.09,0.0,0
1581609959.843,103.516,43.457,999.512,-12.695,0.0,0
1581609959.8470001,79.59,51.27,999.512,24.414,0.0,0
1581609959.849,39.062,46.387,999.512,23.438000000000002,0.0,0
1581609959.853,26.855,23.926,999.512,-10.254000000000001,0.0,0
1581609959.857,54.688,31.25,999.512,-6.836,0.0,0
1581609959.861,55.176,24.414,999.512,-7.812,0.0,0
1581609959.865,29.296999999999997,4.883,999.512,-41.01600000000001,0.0,0
1581609959.869,54.199,24.901999999999997,999.512,-59.57,0.0,0
1581609959.873,88.37899999999998,34.668,999.512,-61.035,0.0,0
1581609959.8760002,83.008,31.25,999.512,-63.477,0.0,0
1581609959.88,72.266,52.246,999.512,-72.75399999999998,0.0,0
1581609959.8839998,84.961,52.733999999999995,999.512,-80.566,0.0,0
1581609959.8879998,82.52,35.645,999.512,-84.961,0.0,0
1581609959.8920002,69.336,29.296999999999997,999.512,-77.637,0.0,0
1581609959.894,63.965,27.831999999999997,999.512,-81.543,0.0,0
1581609959.8979998,54.688,19.531,999.512,-94.238,0.0,0
1581609959.9020002,53.223,0.488,999.512,-74.707,0.0,0
1581609959.9060001,43.457,-6.348,999.512,-64.453,0.0,0
1581609959.91,23.926,18.555,999.512,-55.176,0.0,0
1581609959.914,7.324,38.086,999.512,-50.293,0.0,0
1581609959.918,10.742,48.34,999.512,-53.223,0.0,0
1581609959.921,6.348,56.152,999.512,-41.504,0.0,0
1581609959.925,-20.996,48.828,999.512,-32.715,0.0,0
1581609959.929,-24.414,26.855,999.512,3.418,0.0,0
1581609959.9329998,11.719000000000001,34.668,999.512,36.621,0.0,0
1581609959.937,16.113,16.602,999.512,-9.277000000000001,0.0,0
1581609959.94,10.742,10.742,999.512,-13.184000000000001,0.0,0
1581609959.944,3.906,32.715,999.512,23.438000000000002,0.0,0
1581609959.948,-17.09,1.953,999.512,0.488,0.0,0
1581609959.9520001,0.0,-10.742,999.512,-34.668,0.0,0
1581609959.956,10.254000000000001,29.296999999999997,999.512,-34.668,0.0,0
1581609959.96,5.859,61.523,999.512,-1.465,0.0,0
1581609959.964,23.438000000000002,61.523,999.512,29.296999999999997,0.0,0
1581609959.967,45.41,22.949,999.512,11.23,0.0,0
1581609959.971,41.504,3.906,999.512,-14.16,0.0,0
1581609959.975,12.207,24.901999999999997,999.512,-15.625,0.0,0
1581609959.9789999,4.395,19.043,999.512,-25.391,0.0,0
1581609959.9829998,19.043,10.742,999.512,-41.01600000000001,0.0,0
1581609959.984,21.97300000000001,10.742,999.512,-35.156,0.0,0
1581609959.988,30.761999999999997,16.113,999.512,-19.043,0.0,0
1581609959.992,64.453,51.27,999.512,1.465,0.0,0
1581609959.996,62.988,54.199,999.512,8.789,0.0,0
1581609960.0,49.805,15.625,999.512,-12.695,0.0,0
1581609960.004,73.242,-8.789,999.512,-13.672,0.0,0
1581609960.008,58.593999999999994,7.324,999.512,-15.625,0.0,0
1581609960.0110002,29.296999999999997,25.391,999.512,-34.18,0.0,0
1581609960.015,42.968999999999994,28.809,999.512,-51.27,0.0,0
1581609960.019,77.148,41.992,999.512,-47.363,0.0,0
1581609960.0229998,75.684,33.203,999.512,-28.809,0.0,0
1581609960.0270002,50.293,24.414,999.512,-14.648,0.0,0
1581609960.029,78.125,16.113,999.512,0.488,0.0,0
1581609960.033,77.148,-29.785,999.512,7.812,0.0,0
1581609960.0370002,51.27,-7.324,999.512,0.488,0.0,0
1581609960.0410001,66.895,41.504,999.512,-17.09,0.0,0
1581609960.045,97.656,26.855,999.512,-37.598,0.0,0
1581609960.049,82.031,33.691,999.512,-41.01600000000001,0.0,0
1581609960.053,46.387,47.852,999.512,-24.901999999999997,0.0,0
1581609960.056,51.27,61.523,999.512,-19.043,0.0,0
1581609960.06,62.988,37.109,999.512,-23.438000000000002,0.0,0
1581609960.064,69.336,10.254000000000001,999.512,-31.738000000000003,0.0,0
1581609960.0679998,79.102,26.366999999999997,999.512,-24.901999999999997,0.0,0
1581609960.072,68.848,22.949,999.512,-7.812,0.0,0
1581609960.075,71.777,11.23,999.512,-4.883,0.0,0
1581609960.079,67.383,25.391,999.512,-44.434,0.0,0
1581609960.083,38.574,41.504,999.512,-76.66,0.0,0
1581609960.0870001,32.227,37.109,999.512,-51.27,0.0,0
1581609960.091,52.733999999999995,28.809,999.512,-34.668,0.0,0
1581609960.095,50.78100000000001,26.366999999999997,999.512,-58.105,0.0,0
1581609960.099,41.504,20.508000000000006,999.512,-78.613,0.0,0
1581609960.1020002,50.293,38.086,999.512,-45.41,0.0,0
1581609960.106,62.5,39.062,999.512,-21.97300000000001,0.0,0
1581609960.11,61.523,17.09,999.512,-34.668,0.0,0
1581609960.1139998,76.66,14.16,999.512,-29.296999999999997,0.0,0
1581609960.1179998,88.37899999999998,8.789,999.512,-41.01600000000001,0.0,0
1581609960.1339998,79.59,23.438000000000002,999.512,-63.477,0.0,0
1581609960.1379998,103.516,43.457,999.512,-55.176,0.0,0
1581609960.1420002,119.62899999999999,31.738000000000003,999.512,-52.246,0.0,0
1581609960.1460001,112.79299999999999,25.879,999.512,-64.941,0.0,0
1581609960.15,121.094,47.363,999.512,-30.761999999999997,0.0,0
1581609960.154,112.305,46.387,999.512,-9.277000000000001,0.0,0
1581609960.158,101.074,17.09,999.512,-55.663999999999994,0.0,0
1581609960.161,109.375,5.371,999.512,-86.914,0.0,0
1581609960.165,97.656,7.324,999.512,-62.5,0.0,0
1581609960.169,63.477,27.344,999.512,-42.968999999999994,0.0,0
1581609960.1729999,47.852,37.109,999.512,-41.504,0.0,0
1581609960.177,55.176,26.855,999.512,-51.758,0.0,0
1581609960.179,40.039,34.668,999.512,-41.504,0.0,0
1581609960.1829998,44.434,40.527,999.512,-6.836,0.0,0
1581609960.187,32.715,29.785,999.512,-5.371,0.0,0
1581609960.191,14.648,17.578,999.512,-26.855,0.0,0
1581609960.195,24.901999999999997,6.836,999.512,-15.137,0.0,0
1581609960.199,15.625,9.766,999.512,-13.672,0.0,0
1581609960.2029998,28.32,25.391,999.512,-13.184000000000001,0.0,0
1581609960.206,68.359,30.761999999999997,999.512,-13.672,0.0,0
1581609960.21,70.312,22.461,999.512,-13.184000000000001,0.0,0
1581609960.214,22.949,18.066,999.512,38.086,0.0,0
1581609960.218,14.16,32.715,999.512,59.082,0.0,0
1581609960.2220001,20.996,30.761999999999997,999.512,23.438000000000002,0.0,0
1581609960.225,21.97300000000001,20.02,999.512,26.855,0.0,0
1581609960.2289999,42.48,49.805,999.512,57.617,0.0,0
1581609960.2329998,25.391,63.477,999.512,43.457,0.0,0
1581609960.2370002,2.93,40.527,999.512,20.02,0.0,0
1581609960.2410002,-4.883,27.344,999.512,10.742,0.0,0
1581609960.245,3.906,15.625,999.512,22.461,0.0,0
1581609960.2489998,15.137,-15.137,999.512,48.34,0.0,0
1581609960.252,-3.418,4.883,999.512,67.383,0.0,0
1581609960.256,-10.254000000000001,49.316,999.512,60.547,0.0,0
1581609960.26,-1.465,43.457,999.512,58.593999999999994,0.0,0
1581609960.264,-0.977,37.598,999.512,45.41,0.0,0
1581609960.268,-4.883,27.344,999.512,23.926,0.0,0
1581609960.269,-2.93,8.789,999.512,19.043,0.0,0
1581609960.2729998,-7.812,7.324,999.512,25.879,0.0,0
1581609960.2770002,-17.578,20.996,999.512,46.387,0.0,0
1581609960.2810001,-25.879,17.578,999.512,53.71100000000001,0.0,0
1581609960.285,-30.761999999999997,14.16,999.512,44.434,0.0,0
1581609960.289,-19.043,39.551,999.512,47.852,0.0,0
1581609960.293,0.0,53.71100000000001,999.512,68.848,0.0,0
1581609960.296,-7.812,34.18,999.512,66.406,0.0,0
1581609960.3,-27.831999999999997,16.113,999.512,42.968999999999994,0.0,0
1581609960.304,-45.898,24.901999999999997,999.512,29.785,0.0,0
1581609960.3079998,-57.129,29.296999999999997,999.512,34.668,0.0,0
1581609960.312,-59.57,27.344,999.512,69.824,0.0,0
1581609960.315,-41.504,31.738000000000003,999.512,87.402,0.0,0
1581609960.319,-13.672,39.551,999.512,44.434,0.0,0
1581609960.323,-25.391,37.109,999.512,20.508000000000006,0.0,0
1581609960.3270001,-51.758,22.949,999.512,32.715,0.0,0
1581609960.331,-45.898,13.184000000000001,999.512,35.156,0.0,0
1581609960.335,-31.738000000000003,10.742,999.512,26.366999999999997,0.0,0
1581609960.339,-16.602,37.109,999.512,37.598,0.0,0
1581609960.342,-18.066,38.574,999.512,51.758,0.0,0
1581609960.346,-36.133,41.504,999.512,48.34,0.0,0
1581609960.35,-2.441,48.34,999.512,41.01600000000001,0.0,0
1581609960.3539999,27.344,16.113,999.512,54.199,0.0,0
1581609960.3579998,-7.812,12.695,999.512,86.426,0.0,0
1581609960.36,-34.18,34.18,999.512,85.93799999999996,0.0,0
1581609960.3639998,-20.508000000000006,11.23,999.512,79.102,0.0,0
1581609960.3679998,-2.441,20.996,999.512,81.055,0.0,0
1581609960.3720002,-12.207,56.64100000000001,999.512,83.008,0.0,0
1581609960.3760002,-35.156,48.828,999.512,100.098,0.0,0
1581609960.38,-24.414,32.715,999.512,111.816,0.0,0
1581609960.3839998,-21.484,26.855,999.512,97.16799999999999,0.0,0
1581609960.387,-40.039,35.156,999.512,71.777,0.0,0
1581609960.391,-37.109,46.387,999.512,83.008,0.0,0
1581609960.395,-12.207,39.062,999.512,72.75399999999998,0.0,0
1581609960.399,23.926,10.742,999.512,53.223,0.0,0
1581609960.4029999,38.574,1.953,999.512,77.637,0.0,0
1581609960.405,16.602,30.761999999999997,999.512,79.102,0.0,0
1581609960.409,-18.555,42.968999999999994,999.512,54.688,0.0,0
1581609960.4129999,7.324,29.296999999999997,999.512,33.203,0.0,0
1581609960.417,47.363,30.273000000000003,999.512,17.09,0.0,0
1581609960.421,27.831999999999997,53.223,999.512,14.16,0.0,0
1581609960.425,-0.977,55.176,999.512,3.418,0.0,0
1581609960.429,15.625,38.574,999.512,-17.09,0.0,0
1581609960.4320002,25.391,28.809,999.512,-50.78100000000001,0.0,0
1581609960.436,20.508000000000006,28.32,999.512,-36.133,0.0,0
1581609960.44,17.578,34.18,999.512,-10.742,0.0,0
1581609960.444,1.465,18.066,999.512,-42.968999999999994,0.0,0
1581609960.448,14.16,-11.23,999.512,-64.941,0.0,0
1581609960.449,11.23,5.859,999.512,-73.242,0.0,0
1581609960.4529998,-8.789,72.75399999999998,999.512,-69.336,0.0,0
1581609960.457,-7.812,72.75399999999998,999.512,-83.984,0.0,0
1581609960.461,16.602,15.625,999.512,-109.375,0.0,0
1581609960.465,39.551,11.719000000000001,999.512,-97.656,0.0,0
1581609960.4689999,48.34,44.922,999.512,-52.733999999999995,0.0,0
1581609960.4729998,54.199,58.105,999.512,-14.648,0.0,0
1581609960.476,61.035,47.852,999.512,-42.968999999999994,0.0,0
1581609960.48,78.613,14.648,999.512,-68.359,0.0,0
1581609960.484,63.965,22.461,999.512,-25.879,0.0,0
1581609960.488,34.668,61.523,999.512,4.883,0.0,0
1581609960.492,31.25,48.828,999.512,-16.113,0.0,0
1581609960.525,41.504,26.855,999.512,-34.18,0.0,0
1581609960.529,40.527,33.691,999.512,-24.901999999999997,0.0,0
1581609960.533,45.41,34.18,999.512,12.695,0.0,0
1581609960.5370002,27.344,15.137,999.512,32.227,0.0,0
1581609960.5410001,7.324,40.039,999.512,30.273000000000003,0.0,0
1581609960.545,3.418,55.663999999999994,999.512,41.01600000000001,0.0,0
1581609960.549,-16.113,42.968999999999994,999.512,71.777,0.0,0
1581609960.552,-9.277000000000001,50.78100000000001,999.512,85.93799999999996,0.0,0
1581609960.556,16.113,11.719000000000001,999.512,56.152,0.0,0
1581609960.56,18.066,-9.766,999.512,34.18,0.0,0
1581609960.564,4.883,31.25,999.512,44.434,0.0,0
1581609960.5679998,-16.113,41.504,999.512,47.363,0.0,0
1581609960.555,-8.301,44.922,999.512,49.805,0.0,0
1581609960.559,21.484,34.18,999.512,48.34,0.0,0
1581609960.563,30.761999999999997,18.555,999.512,55.176,0.0,0
1581609960.5670002,19.043,24.901999999999997,999.512,71.777,0.0,0
1581609960.571,18.555,10.742,999.512,74.219,0.0,0
1581609960.575,40.039,-10.742,999.512,70.801,0.0,0
1581609960.579,48.34,15.137,999.512,83.008,0.0,0
1581609960.582,28.809,53.71100000000001,999.512,88.867,0.0,0
1581609960.586,34.668,68.848,999.512,88.37899999999998,0.0,0
1581609960.59,52.246,67.87100000000001,999.512,78.613,0.0,0
1581609960.5939999,53.71100000000001,35.156,999.512,83.008,0.0,0
1581609960.5979998,51.758,13.184000000000001,999.512,98.633,0.0,0
1581609960.599,52.246,12.695,999.512,102.539,0.0,0
1581609960.603,38.574,-3.418,999.512,93.75,0.0,0
1581609960.607,22.949,15.137,999.512,75.195,0.0,0
1581609960.611,40.039,29.296999999999997,999.512,77.637,0.0,0
1581609960.615,52.246,26.366999999999997,999.512,101.56200000000001,0.0,0
1581609960.619,32.715,47.852,999.512,95.70299999999999,0.0,0
1581609960.623,26.855,48.828,999.512,71.777,0.0,0
1581609960.6260002,44.922,27.344,999.512,99.12100000000001,0.0,0
1581609960.63,17.09,29.785,999.512,133.30100000000002,0.0,0
1581609960.6339998,-8.301,29.785,999.512,105.95700000000001,0.0,0
1581609960.6379998,-2.93,23.926,999.512,78.125,0.0,0
1581609960.6420002,-5.371,25.391,999.512,86.426,0.0,0
1581609960.644,-16.113,21.484,999.512,118.164,0.0,0
1581609960.6479998,-19.531,24.901999999999997,999.512,144.043,0.0,0
1581609960.6520002,5.371,42.968999999999994,999.512,124.023,0.0,0
1581609960.6560001,1.465,26.366999999999997,999.512,89.355,0.0,0
1581609960.66,-32.227,-17.578,999.512,69.336,0.0,0
1581609960.664,-42.968999999999994,12.695,999.512,69.824,0.0,0
1581609960.668,-20.508000000000006,27.831999999999997,999.512,66.406,0.0,0
1581609960.671,15.625,-2.93,999.512,62.5,0.0,0
1581609960.675,34.18,14.16,999.512,78.613,0.0,0
1581609960.679,30.273000000000003,38.086,999.512,102.539,0.0,0
1581609960.6829998,25.391,47.852,999.512,101.56200000000001,0.0,0
1581609960.687,31.738000000000003,54.688,999.512,100.586,0.0,0
1581609960.689,20.02,40.527,999.512,118.652,0.0,0
1581609960.6929998,1.465,25.879,999.512,121.58200000000001,0.0,0
1581609960.697,10.742,41.01600000000001,999.512,107.91,0.0,0
1581609960.701,11.719000000000001,43.457,999.512,90.82,0.0,0
1581609960.705,19.043,37.598,999.512,91.79700000000001,0.0,0
1581609960.7089999,39.062,42.48,999.512,82.52,0.0,0
1581609960.7129998,37.598,24.414,999.512,81.543,0.0,0
1581609960.716,30.273000000000003,17.578,999.512,84.961,0.0,0
1581609960.72,21.484,32.227,999.512,87.402,0.0,0
1581609960.724,11.719000000000001,29.785,999.512,98.145,0.0,0
1581609960.728,7.324,7.324,999.512,99.12100000000001,0.0,0
1581609960.732,-2.441,-3.906,999.512,104.492,0.0,0
1581609960.734,14.16,16.113,999.512,98.633,0.0,0
1581609960.738,16.602,56.152,999.512,75.195,0.0,0
1581609960.742,0.488,39.551,999.512,71.777,0.0,0
1581609960.746,5.371,28.809,999.512,82.031,0.0,0
1581609960.75,2.441,34.668,999.512,56.64100000000001,0.0,0
1581609960.754,-16.113,11.23,999.512,39.551,0.0,0
1581609960.758,-10.254000000000001,9.277000000000001,999.512,49.316,0.0,0
1581609960.7610002,0.977,11.23,999.512,37.598,0.0,0
1581609960.765,-5.371,34.18,999.512,9.766,0.0,0
1581609960.769,-5.371,58.593999999999994,999.512,-8.789,0.0,0
1581609960.7729998,-20.996,51.758,999.512,3.418,0.0,0
1581609960.7770002,-10.742,43.457,999.512,18.555,0.0,0
1581609960.779,-5.859,23.926,999.512,11.23,0.0,0
1581609960.783,-16.602,13.672,999.512,9.277000000000001,0.0,0
1581609960.7870002,-21.484,19.531,999.512,16.602,0.0,0
1581609960.7910001,-14.16,15.625,999.512,28.32,0.0,0
1581609960.795,4.395,41.504,999.512,22.949,0.0,0
1581609960.799,-7.812,46.387,999.512,-2.441,0.0,0
1581609960.803,-41.992,17.578,999.512,-11.23,0.0,0
1581609960.806,-42.968999999999994,20.02,999.512,8.301,0.0,2
1581609960.81,-17.09,49.805,999.512,22.949,0.0,0
1581609960.814,14.16,58.105,999.512,26.855,0.0,0
1581609960.8179998,37.598,44.922,999.512,67.87100000000001,0.0,0
1581609960.822,36.621,29.785,999.512,90.82,0.0,0
1581609960.824,28.809,11.23,999.512,105.469,0.0,0
1581609960.8279998,37.109,5.371,999.512,102.539,0.0,0
1581609960.832,28.809,41.01600000000001,999.512,59.082,0.0,0
1581609960.836,0.488,54.199,999.512,43.457,0.0,0
1581609960.84,15.625,44.434,999.512,44.922,0.0,0
1581609960.8439999,65.918,50.78100000000001,999.512,58.593999999999994,0.0,0
1581609960.8479998,82.031,54.199,999.512,64.941,0.0,0
1581609960.851,75.684,43.457,999.512,79.59,0.0,0
1581609960.855,78.125,5.371,999.512,74.707,0.0,0
1581609960.859,58.105,-13.184000000000001,999.512,14.648,0.0,0
1581609960.863,67.87100000000001,20.996,999.512,-6.348,0.0,0
1581609960.867,85.449,44.434,999.512,21.97300000000001,0.0,0
1581609960.8839998,69.336,45.898,999.512,37.598,0.0,0
1581609960.8879998,77.148,52.733999999999995,999.512,41.992,0.0,0
1581609960.8920002,86.914,19.531,999.512,47.852,0.0,0
1581609960.8960001,111.32799999999999,7.812,999.512,65.918,0.0,0
1581609960.9,113.77,29.785,999.512,75.684,0.0,0
1581609960.904,66.895,17.09,999.512,31.738000000000003,0.0,0
1581609960.908,63.477,30.273000000000003,999.512,-0.488,0.0,0
1581609960.911,72.75399999999998,33.203,999.512,20.02,0.0,0
1581609960.915,56.152,26.855,999.512,50.78100000000001,0.0,0
1581609960.919,50.78100000000001,39.551,999.512,60.547,0.0,0
1581609960.9229999,67.383,32.715,999.512,70.801,0.0,0
1581609960.927,83.49600000000002,35.156,999.512,96.68,0.0,0
1581609960.929,64.941,50.293,999.512,85.93799999999996,0.0,0
1581609960.9329998,16.602,15.137,999.512,55.176,0.0,0
1581609960.937,26.855,-3.418,999.512,54.688,0.0,0
1581609960.941,64.941,42.48,999.512,61.523,0.0,0
1581609960.945,28.32,58.593999999999994,999.512,48.34,0.0,0
1581609960.949,-0.977,43.457,999.512,47.363,0.0,0
1581609960.9529998,18.066,31.738000000000003,999.512,52.733999999999995,0.0,0
1581609960.956,50.78100000000001,24.901999999999997,999.512,60.059,0.0,0
1581609960.96,89.355,46.875,999.512,92.773,0.0,0
1581609960.964,83.984,45.41,999.512,97.656,0.0,0
1581609960.968,42.968999999999994,15.625,999.512,52.733999999999995,0.0,0
1581609960.9720001,28.32,16.113,999.512,19.043,0.0,0
1581609960.974,37.109,13.184000000000001,999.512,9.277000000000001,0.0,0
1581609960.978,42.48,4.395,999.512,32.715,0.0,0
1581609960.982,45.41,30.273000000000003,999.512,60.547,0.0,0
1581609960.986,55.176,57.617,999.512,51.27,0.0,0
1581609960.99,45.41,45.898,999.512,21.484,0.0,0
1581609960.994,12.695,19.043,999.512,36.621,0.0,0
1581609960.998,32.227,33.203,999.512,88.37899999999998,0.0,0
1581609961.0010002,56.64100000000001,56.64100000000001,999.512,90.82,0.0,0
1581609961.005,26.855,27.344,999.512,37.598,0.0,0
1581609961.0089998,2.93,18.066,999.512,15.625,0.0,0
1581609961.0129998,25.879,18.066,999.512,40.039,0.0,0
1581609961.0170002,30.761999999999997,7.324,999.512,61.523,0.0,0
1581609961.019,5.859,36.133,999.512,49.316,0.0,0
1581609961.0229998,13.184000000000001,64.453,999.512,73.242,0.0,0
1581609961.0270002,32.227,43.457,999.512,113.77,0.0,0
1581609961.0310001,8.301,18.066,999.512,95.70299999999999,0.0,0
1581609961.035,-20.02,37.109,999.512,54.688,0.0,0
1581609961.039,18.066,41.01600000000001,999.512,45.41,0.0,0
1581609961.043,28.809,28.809,999.512,58.593999999999994,0.0,0
1581609961.046,7.812,33.691,999.512,68.359,0.0,0
1581609961.05,23.926,52.246,999.512,81.055,0.0,0
1581609961.054,59.57,40.527,999.512,101.074,0.0,0
1581609961.0579998,54.199,15.625,999.512,99.12100000000001,0.0,0
1581609961.062,19.043,36.621,999.512,83.49600000000002,0.0,0
1581609961.064,6.836,49.316,999.512,90.33200000000001,0.0,0
1581609961.0679998,-1.953,35.156,999.512,64.941,0.0,0
1581609961.072,-7.324,30.273000000000003,999.512,44.922,0.0,0
1581609961.076,13.672,17.09,999.512,68.359,0.0,0
1581609961.08,13.672,2.93,999.512,93.262,0.0,0
1581609961.0839999,10.254000000000001,32.227,999.512,92.773,0.0,0
1581609961.0879998,22.461,45.898,999.512,88.867,0.0,0
1581609961.091,7.812,28.809,999.512,106.445,0.0,0
1581609961.095,-12.695,53.223,999.512,92.773,0.0,0
1581609961.099,-15.625,61.523,999.512,57.617,0.0,0
1581609961.103,11.719000000000001,37.598,999.512,53.71100000000001,0.0,0
1581609961.107,19.531,44.434,999.512,80.078,0.0,0
1581609961.109,8.301,18.555,999.512,102.539,0.0,0
1581609961.113,16.602,-0.977,999.512,98.145,0.0,0
1581609961.117,14.648,36.133,999.512,77.148,0.0,0
1581609961.121,-5.371,37.109,999.512,113.281,0.0,0
1581609961.125,-14.16,35.645,999.512,150.879,0.0,0
1581609961.129,-9.766,34.668,999.512,120.605,0.0,0
1581609961.133,-24.414,1.953,999.512,78.613,0.0,0
1581609961.1360002,-19.043,24.414,999.512,86.914,0.0,0
1581609961.14,-8.301,51.758,999.512,130.859,0.0,0
1581609961.144,-14.648,38.574,999.512,130.371,0.0,0
1581609961.1479998,-1.465,19.531,999.512,84.473,0.0,0
1581609961.1520002,21.97300000000001,26.855,999.512,82.52,0.0,0
1581609961.155,21.484,25.391,999.512,112.305,0.0,0
1581609961.159,5.371,10.254000000000001,999.512,125.488,0.0,0
1581609961.1629999,11.719000000000001,42.48,999.512,108.398,0.0,0
1581609961.167,27.831999999999997,71.289,999.512,73.73,0.0,0
1581609961.171,14.648,52.733999999999995,999.512,76.66,0.0,0
1581609961.175,3.418,21.484,999.512,102.539,0.0,0
1581609961.179,12.695,14.648,999.512,124.512,0.0,0
1581609961.1820002,11.23,14.16,999.512,136.719,0.0,0
1581609961.186,-2.441,6.348,999.512,125.977,0.0,0
1581609961.19,4.883,21.484,999.512,101.074,0.0,0
1581609961.194,18.066,53.223,999.512,69.336,0.0,0
1581609961.198,4.883,41.01600000000001,999.512,41.504,0.0,0
1581609961.2,-28.809,23.926,999.512,24.901999999999997,0.0,0
1581609961.204,-38.086,35.156,999.512,46.387,0.0,0
1581609961.208,-13.184000000000001,25.879,999.512,58.593999999999994,0.0,0
1581609961.2120001,13.672,-3.906,999.512,51.27,0.0,0
1581609961.216,2.93,-4.883,999.512,49.316,0.0,0
1581609961.22,-40.039,27.344,999.512,54.688,0.0,0
1581609961.224,-37.598,45.898,999.512,58.593999999999994,0.0,0
1581609961.2270002,3.906,46.875,999.512,52.246,0.0,0
1581609961.231,3.906,43.945,999.512,53.223,0.0,0
1581609961.235,-28.32,40.527,999.512,55.176,0.0,0
1581609961.2389998,-63.965,20.02,999.512,27.831999999999997,0.0,0
1581609961.2429998,-63.477,-1.465,999.512,-13.184000000000001,0.0,0
1581609961.244,-50.293,6.836,999.512,-28.809,0.0,0
1581609961.248,-51.758,40.527,999.512,-20.02,0.0,0
1581609961.252,-42.48,38.086,999.512,3.418,0.0,0
1581609961.256,-51.27,20.996,999.512,-3.418,0.0,0
1581609961.26,-34.18,36.621,999.512,-40.039,0.0,0
1581609961.264,1.953,41.01600000000001,999.512,-33.691,0.0,0
1581609961.268,2.441,24.901999999999997,999.512,-14.648,0.0,0
1581609961.2710001,-8.301,2.93,999.512,-38.574,0.0,0
1581609961.275,-20.996,13.184000000000001,999.512,-77.148,0.0,0
1581609961.279,-33.691,54.199,999.512,-98.633,0.0,0
1581609961.283,-29.296999999999997,63.965,999.512,-111.32799999999999,0.0,0
1581609961.2870002,-2.93,29.785,999.512,-95.70299999999999,0.0,0
1581609961.304,-7.812,7.812,999.512,-63.477,0.0,0
1581609961.3079998,-34.668,1.465,999.512,-75.684,0.0,0
1581609961.312,-30.273000000000003,-1.953,999.512,-77.637,0.0,0
1581609961.316,-40.039,29.296999999999997,999.512,-69.824,0.0,0
1581609961.32,-50.78100000000001,48.34,999.512,-55.176,0.0,0
1581609961.324,-39.062,41.01600000000001,999.512,-37.598,0.0,0
1581609961.3279998,-50.293,39.062,999.512,-29.296999999999997,0.0,0
1581609961.331,-82.52,11.719000000000001,999.512,-16.602,0.0,0
1581609961.335,-77.637,-21.484,999.512,-11.719000000000001,0.0,0
1581609961.339,-71.289,-7.812,999.512,-19.531,0.0,0
1581609961.343,-73.242,52.733999999999995,999.512,-41.992,0.0,0
1581609961.3470001,-62.012,78.613,999.512,-20.508000000000006,0.0,0
1581609961.35,-47.852,43.945,999.512,11.23,0.0,0
1581609961.3539999,-48.34,16.602,999.512,-17.09,0.0,0
1581609961.3579998,-39.062,20.02,999.512,-21.484,0.0,0
1581609961.3620002,-55.663999999999994,41.992,999.512,22.461,0.0,0
1581609961.3660002,-68.359,20.508000000000006,999.512,54.199,0.0,0
1581609961.37,-26.366999999999997,-4.395,999.512,35.645,0.0,0
1581609961.3739998,-15.625,-0.977,999.512,2.441,0.0,0
1581609961.377,-29.785,20.508000000000006,999.512,2.441,0.0,0
1581609961.381,-38.086,43.945,999.512,8.301,0.0,0
1581609961.385,-34.18,59.57,999.512,0.488,0.0,0
1581609961.389,-7.324,41.01600000000001,999.512,-2.441,0.0,0
1581609961.393,0.0,8.789,999.512,7.812,0.0,0
1581609961.394,-14.16,28.32,999.512,27.344,0.0,0
1581609961.3979998,-24.901999999999997,34.18,999.512,23.438000000000002,0.0,0
1581609961.4020002,-8.789,34.18,999.512,27.831999999999997,0.0,0
1581609961.4060001,8.789,22.461,999.512,42.968999999999994,0.0,0
1581609961.41,12.695,3.906,999.512,29.296999999999997,0.0,0
1581609961.414,28.32,23.926,999.512,30.273000000000003,0.0,0
1581609961.418,43.945,54.688,999.512,23.926,0.0,0
1581609961.421,17.578,51.758,999.512,11.719000000000001,0.0,0
1581609961.425,-20.996,34.18,999.512,24.901999999999997,0.0,0
1581609961.429,-32.227,24.901999999999997,999.512,39.551,0.0,0
1581609961.4329998,3.906,11.719000000000001,999.512,53.71100000000001,0.0,0
1581609961.437,26.855,24.901999999999997,999.512,53.223,0.0,0
1581609961.439,21.484,27.831999999999997,999.512,56.64100000000001,0.0,0
1581609961.4429998,35.156,-1.953,999.512,77.637,0.0,0
1581609961.447,30.761999999999997,16.602,999.512,88.867,0.0,0
1581609961.451,18.555,70.801,999.512,63.965,0.0,0
1581609961.455,10.742,81.543,999.512,26.366999999999997,0.0,0
1581609961.4589999,-8.789,34.18,999.512,19.531,0.0,0
1581609961.4629998,4.883,18.555,999.512,33.203,0.0,0
1581609961.466,19.531,26.366999999999997,999.512,20.996,0.0,0
1581609961.47,17.578,28.809,999.512,11.23,0.0,0
1581609961.474,4.883,20.996,999.512,16.113,0.0,0
1581609961.478,15.625,-6.348,999.512,12.695,0.0,0
1581609961.482,66.406,-5.371,999.512,30.273000000000003,0.0,0
1581609961.484,67.383,25.391,999.512,30.273000000000003,0.0,0
1581609961.488,30.761999999999997,59.082,999.512,2.441,0.0,0
1581609961.492,25.879,62.5,999.512,4.395,0.0,0
1581609961.496,37.109,49.316,999.512,7.812,0.0,0
1581609961.5,70.312,36.621,999.512,8.789,0.0,0
1581609961.504,60.547,20.996,999.512,26.855,0.0,0
1581609961.508,40.527,-8.789,999.512,57.617,0.0,0
1581609961.5110002,47.363,-13.184000000000001,999.512,54.688,0.0,0
1581609961.515,53.71100000000001,32.227,999.512,57.129,0.0,0
1581609961.519,69.336,58.593999999999994,999.512,115.723,0.0,0
1581609961.5229998,58.105,52.733999999999995,999.512,102.539,0.0,0
1581609961.5270002,26.366999999999997,44.434,999.512,42.48,0.0,0
1581609961.529,27.831999999999997,25.879,999.512,26.855,0.0,0
1581609961.533,45.898,0.977,999.512,16.602,0.0,0
1581609961.5370002,25.879,11.719000000000001,999.512,33.203,0.0,0
1581609961.5410001,18.555,27.831999999999997,999.512,56.152,0.0,0
1581609961.545,33.691,43.945,999.512,46.875,0.0,0
1581609961.549,19.531,40.039,999.512,41.992,0.0,0
1581609961.553,41.504,23.926,999.512,60.547,0.0,0
1581609961.556,64.941,8.301,999.512,61.035,0.0,0
1581609961.56,46.875,6.348,999.512,14.648,0.0,0
1581609961.564,51.758,39.551,999.512,-27.831999999999997,0.0,0
1581609961.5679998,35.645,66.406,999.512,-35.156,0.0,0
1581609961.572,2.93,59.082,999.512,-17.09,0.0,0
1581609961.575,6.836,34.18,999.512,-21.484,0.0,0
1581609961.579,24.414,24.901999999999997,999.512,-55.176,0.0,0
1581609961.583,24.901999999999997,32.227,999.512,-65.43,0.0,0
1581609961.5870001,37.109,24.901999999999997,999.512,-44.922,0.0,0
1581609961.591,51.758,27.831999999999997,999.512,-30.273000000000003,0.0,0
1581609961.595,59.57,3.906,999.512,-31.25,0.0,0
1581609961.599,49.805,-26.366999999999997,999.512,-41.504,0.0,0
1581609961.6020002,18.066,17.09,999.512,-44.434,0.0,0
1581609961.606,6.348,43.457,999.512,-32.715,0.0,0
1581609961.61,11.23,54.199,999.512,-18.555,0.0,0
1581609961.6139998,11.719000000000001,67.87100000000001,999.512,-17.578,0.0,0
1581609961.6179998,6.348,59.082,999.512,-1.465,0.0,0
1581609961.6339998,1.953,44.434,999.512,52.246,0.0,0
1581609961.6379998,1.953,7.324,999.512,48.828,0.0,0
1581609961.6420002,4.395,-19.043,999.512,4.395,0.0,0
1581609961.6460001,0.488,2.93,999.512,19.531,0.0,0
1581609961.65,2.441,40.527,999.512,51.758,0.0,0
1581609961.654,-5.371,48.828,999.512,34.668,0.0,0
1581609961.658,14.16,46.875,999.512,18.555,0.0,0
1581609961.661,45.41,45.898,999.512,39.062,0.0,0
1581609961.665,24.414,38.574,999.512,44.434,0.0,0
1581609961.669,14.16,33.203,999.512,41.504,0.0,0
1581609961.6729999,22.461,19.043,999.512,37.598,0.0,0
1581609961.677,28.32,17.09,999.512,10.742,0.0,0
1581609961.679,34.668,10.254000000000001,999.512,22.949,0.0,0
1581609961.6829998,24.414,2.441,999.512,21.97300000000001,0.0,0
1581609961.687,20.996,19.531,999.512,-10.254000000000001,0.0,0
1581609961.691,58.105,33.203,999.512,10.254000000000001,0.0,0
1581609961.695,74.707,26.366999999999997,999.512,24.901999999999997,0.0,0
1581609961.699,34.668,29.785,999.512,22.949,0.0,0
1581609961.7029998,41.504,51.27,999.512,30.761999999999997,0.0,0
1581609961.706,56.64100000000001,40.039,999.512,23.438000000000002,0.0,0
1581609961.71,41.504,26.366999999999997,999.512,25.391,0.0,0
1581609961.714,6.348,25.879,999.512,7.812,0.0,0
1581609961.718,7.812,17.578,999.512,-10.254000000000001,0.0,0
1581609961.7220001,53.71100000000001,22.949,999.512,-12.695,0.0,0
1581609961.724,54.199,20.02,999.512,-4.395,0.0,0
1581609961.728,33.203,16.113,999.512,25.391,0.0,0
1581609961.732,44.922,41.504,999.512,37.109,0.0,0
1581609961.736,65.43,45.41,999.512,29.785,0.0,0
1581609961.74,71.777,20.996,999.512,27.831999999999997,0.0,0
1581609961.744,55.663999999999994,18.555,999.512,25.879,0.0,0
1581609961.748,34.668,20.508000000000006,999.512,14.648,0.0,0
1581609961.7510002,21.484,26.855,999.512,-19.531,0.0,0
1581609961.755,15.137,34.668,999.512,-36.621,0.0,0
1581609961.7589998,9.277000000000001,28.809,999.512,-3.906,0.0,0
1581609961.7629998,0.977,41.992,999.512,24.414,0.0,0
1581609961.7670002,11.23,34.668,999.512,10.254000000000001,0.0,0
1581609961.769,26.366999999999997,18.555,999.512,-24.901999999999997,0.0,0
1581609961.7729998,29.785,19.531,999.512,-11.23,0.0,0
1581609961.7770002,60.059,11.23,999.512,45.898,0.0,0
1581609961.7810001,70.312,21.97300000000001,999.512,59.082,0.0,0
1581609961.785,48.34,48.34,999.512,27.831999999999997,0.0,0
1581609961.789,31.738000000000003,66.406,999.512,-2.93,0.0,0
1581609961.793,17.578,46.387,999.512,-14.648,0.0,0
1581609961.796,16.113,19.531,999.512,0.977,0.0,0
1581609961.8,23.438000000000002,34.18,999.512,9.277000000000001,0.0,0
1581609961.804,41.504,33.203,999.512,0.977,0.0,0
1581609961.8079998,47.852,27.831999999999997,999.512,9.277000000000001,0.0,0
1581609961.812,21.484,40.039,999.512,41.01600000000001,0.0,0
1581609961.814,13.672,46.387,999.512,31.25,0.0,0
1581609961.8179998,39.551,41.504,999.512,3.418,0.0,0
1581609961.822,27.831999999999997,9.766,999.512,17.09,0.0,0
1581609961.826,11.719000000000001,-22.461,999.512,26.855,0.0,0
1581609961.83,20.508000000000006,-13.184000000000001,999.512,36.133,0.0,0
1581609961.8339999,27.831999999999997,24.414,999.512,21.484,0.0,0
1581609961.8379998,21.484,52.246,999.512,-5.371,0.0,0
1581609961.841,26.855,59.082,999.512,16.602,0.0,0
1581609961.845,39.062,32.715,999.512,24.414,0.0,0
1581609961.849,24.414,19.043,999.512,-4.395,0.0,0
1581609961.853,18.555,-0.488,999.512,-20.02,0.0,0
1581609961.857,30.273000000000003,7.324,999.512,2.93,0.0,0
1581609961.859,35.645,56.64100000000001,999.512,33.203,0.0,0
1581609961.863,36.133,70.312,999.512,26.366999999999997,0.0,0
1581609961.867,46.387,27.344,999.512,9.766,0.0,0
1581609961.871,44.434,0.488,999.512,20.02,0.0,0
1581609961.875,40.039,19.531,999.512,43.457,0.0,0
1581609961.879,27.344,25.391,999.512,14.16,0.0,0
1581609961.883,18.555,35.645,999.512,-15.137,0.0,0
1581609961.8860002,19.043,41.992,999.512,-5.371,0.0,0
1581609961.89,9.277000000000001,49.316,999.512,15.137,0.0,0
1581609961.894,27.831999999999997,56.64100000000001,999.512,42.48,0.0,0
1581609961.8979998,58.593999999999994,33.203,999.512,44.434,0.0,0
1581609961.9020002,63.477,4.395,999.512,44.922,0.0,0
1581609961.904,45.41,3.418,999.512,62.988,0.0,0
1581609961.908,15.137,9.766,999.512,44.434,0.0,0
1581609961.9120002,18.066,13.672,999.512,16.602,0.0,0
1581609961.9160001,29.785,32.227,999.512,12.207,0.0,0
1581609961.92,35.645,47.852,999.512,24.901999999999997,0.0,0
1581609961.924,35.645,47.363,999.512,51.27,0.0,0
1581609961.928,23.926,35.645,999.512,36.133,0.0,0
1581609961.931,32.227,38.574,999.512,-8.301,0.0,1
1581609961.935,37.109,41.992,999.512,-15.137,0.0,0
1581609961.939,23.438000000000002,35.156,999.512,-2.441,0.0,0
1581609961.9429998,20.02,36.133,999.512,0.977,0.0,0
1581609961.947,30.273000000000003,34.18,999.512,-13.184000000000001,0.0,0
1581609961.949,41.992,20.508000000000006,999.512,-16.113,0.0,0
1581609961.9529998,55.176,12.207,999.512,-9.277000000000001,0.0,0
1581609961.957,58.593999999999994,21.97300000000001,999.512,-2.441,0.0,0
1581609961.961,54.199,31.738000000000003,999.512,5.371,0.0,0
1581609961.965,41.992,34.668,999.512,-8.301,0.0,0
1581609961.9689999,9.277000000000001,32.715,999.512,-5.859,0.0,0
1581609961.9729998,-6.836,11.23,999.512,13.184000000000001,0.0,0
1581609961.976,18.066,17.578,999.512,12.695,0.0,0
1581609961.98,44.922,53.71100000000001,999.512,15.625,0.0,0
1581609961.984,20.996,34.18,999.512,7.324,0.0,0
1581609961.988,6.348,3.906,999.512,9.766,0.0,0
1581609961.992,39.551,31.25,999.512,33.203,0.0,0
1581609961.994,55.663999999999994,57.129,999.512,32.715,0.0,0
1581609961.998,32.715,52.246,999.512,32.715,0.0,0
1581609962.002,42.48,36.621,999.512,46.875,0.0,0
1581609962.006,30.273000000000003,37.109,999.512,41.504,0.0,0
1581609962.01,18.066,25.879,999.512,45.898,0.0,0
1581609962.014,54.688,5.371,999.512,75.684,0.0,0
1581609962.018,36.133,20.02,999.512,61.523,0.0,0
1581609962.0210001,1.465,41.504,999.512,33.691,0.0,0
1581609962.025,22.949,43.945,999.512,36.621,0.0,0
1581609962.029,40.039,44.434,999.512,61.523,0.0,0
1581609962.033,13.184000000000001,33.691,999.512,79.59,0.0,0
1581609962.0370002,6.836,28.32,999.512,86.426,0.0,0
1581609962.054,26.855,45.898,999.512,71.777,0.0,0
1581609962.0579998,41.504,13.672,999.512,45.41,0.0,0
1581609962.062,44.922,-26.366999999999997,999.512,46.875,0.0,0
1581609962.066,61.523,20.508000000000006,999.512,63.965,0.0,0
1581609962.07,58.593999999999994,64.453,999.512,57.617,0.0,0
1581609962.074,13.672,57.129,999.512,31.25,0.0,0
1581609962.0779998,-20.996,46.875,999.512,4.883,0.0,0
1581609962.081,-33.691,39.062,999.512,12.695,0.0,0
1581609962.085,-47.363,28.32,999.512,17.09,0.0,0
1581609962.089,-64.453,8.789,999.512,2.93,0.0,0
1581609962.093,-56.64100000000001,8.789,999.512,7.324,0.0,0
1581609962.0970001,-36.133,5.859,999.512,26.366999999999997,0.0,0
1581609962.099,-68.848,-11.23,999.512,-9.766,0.0,0
1581609962.103,-82.52,23.438000000000002,999.512,-32.715,0.0,0
1581609962.107,-45.898,70.312,999.512,18.066,0.0,0
1581609962.111,-45.898,49.316,999.512,19.043,0.0,0
1581609962.115,-41.992,8.789,999.512,6.348,0.0,0
1581609962.119,-20.508000000000006,31.25,999.512,-12.207,0.0,0
1581609962.123,-20.02,51.27,999.512,-59.082,0.0,0
1581609962.1260002,-6.836,16.113,999.512,-69.336,0.0,0
1581609962.13,22.949,-24.414,999.512,-45.898,0.0,0
1581609962.1339998,45.41,9.766,999.512,-52.733999999999995,0.0,0
1581609962.1379998,36.133,64.941,999.512,-67.383,0.0,0
1581609962.1420002,29.785,85.449,999.512,-38.086,0.0,0
1581609962.144,24.414,63.965,999.512,-7.324,0.0,0
1581609962.1479998,2.93,15.137,999.512,-36.621,0.0,0
1581609962.1520002,10.742,0.488,999.512,-59.57,0.0,0
1581609962.1560001,26.366999999999997,21.484,999.512,-31.25,0.0,0
1581609962.16,7.812,20.996,999.512,-25.879,0.0,0
1581609962.164,-1.953,-1.953,999.512,-55.663999999999994,0.0,0
1581609962.168,4.883,20.02,999.512,-62.988,0.0,0
1581609962.171,14.648,47.852,999.512,-41.992,0.0,0
1581609962.175,7.812,52.733999999999995,999.512,-23.926,0.0,0
1581609962.179,17.578,41.504,999.512,-31.738000000000003,0.0,0
1581609962.1829998,34.18,38.086,999.512,-20.508000000000006,0.0,0
1581609962.187,23.926,22.461,999.512,15.137,0.0,0
1581609962.189,18.066,-9.277000000000001,999.512,2.93,0.0,0
1581609962.1929998,41.992,8.301,999.512,-10.254000000000001,0.0,0
1581609962.197,42.968999999999994,41.992,999.512,9.766,0.0,0
1581609962.201,9.766,44.922,999.512,26.366999999999997,0.0,0
1581609962.205,-14.648,40.039,999.512,32.715,0.0,0
1581609962.2089999,-21.97300000000001,48.828,999.512,41.992,0.0,0
1581609962.2129998,-26.366999999999997,39.551,999.512,41.992,0.0,0
1581609962.216,-22.949,24.414,999.512,28.809,0.0,0
1581609962.22,2.441,41.504,999.512,28.32,0.0,0
1581609962.224,3.906,15.625,999.512,28.32,0.0,0
1581609962.228,-21.97300000000001,-10.254000000000001,999.512,22.461,0.0,0
1581609962.232,-22.461,17.578,999.512,13.184000000000001,0.0,0
1581609962.235,-8.789,32.715,999.512,-11.23,0.0,0
1581609962.2389998,-20.996,42.968999999999994,999.512,-16.113,0.0,0
1581609962.2429998,-27.344,48.828,999.512,6.348,0.0,0
1581609962.2470002,-15.625,33.203,999.512,11.23,0.0,0
1581609962.2510002,-7.812,22.949,999.512,-15.137,0.0,0
1581609962.255,-12.207,6.836,999.512,0.488,0.0,0
1581609962.2589998,-27.831999999999997,7.324,999.512,21.484,0.0,0
1581609962.262,-51.27,36.621,999.512,-5.371,0.0,0
1581609962.266,-45.41,35.645,999.512,-18.066,0.0,0
1581609962.27,-32.715,34.668,999.512,-0.488,0.0,0
1581609962.274,-41.504,38.086,999.512,20.996,0.0,0
1581609962.2779999,-33.691,30.273000000000003,999.512,64.453,0.0,0
1581609962.28,-20.996,20.996,999.512,60.547,0.0,0
1581609962.284,-36.133,2.93,999.512,36.621,0.0,0
1581609962.2879999,-63.477,18.066,999.512,59.57,0.0,0
1581609962.292,-61.035,36.621,999.512,39.551,0.0,0
1581609962.296,-39.062,39.062,999.512,3.418,0.0,0
1581609962.3,-47.363,22.949,999.512,25.391,0.0,0
1581609962.304,-35.645,11.719000000000001,999.512,73.242,0.0,0
1581609962.3070002,-11.719000000000001,9.766,999.512,87.402,0.0,0
1581609962.311,-5.859,24.414,999.512,71.289,0.0,0
1581609962.315,19.531,37.109,999.512,39.551,0.0,0
1581609962.319,21.97300000000001,21.484,999.512,23.926,0.0,0
1581609962.323,2.441,44.434,999.512,37.598,0.0,0
1581609962.325,5.859,63.477,999.512,51.27,0.0,0
1581609962.329,47.852,43.945,999.512,38.086,0.0,0
1581609962.333,52.733999999999995,18.066,999.512,7.324,0.0,0
1581609962.3370001,31.25,5.859,999.512,31.738000000000003,0.0,0
1581609962.341,29.785,22.461,999.512,56.64100000000001,0.0,0
1581609962.345,23.926,24.414,999.512,32.227,0.0,0
1581609962.349,20.996,12.695,999.512,34.668,0.0,0
1581609962.3520002,17.09,5.371,999.512,49.805,0.0,0
1581609962.356,21.484,30.273000000000003,999.512,46.387,0.0,0
1581609962.36,22.461,58.593999999999994,999.512,46.387,0.0,0
1581609962.3639998,12.695,52.733999999999995,999.512,57.129,0.0,0
1581609962.3679998,14.16,48.828,999.512,74.707,0.0,0
1581609962.369,17.09,33.203,999.512,86.914,0.0,0
1581609962.373,36.621,0.0,999.512,77.637,0.0,0
1581609962.377,49.316,-0.488,999.512,59.57,0.0,0
1581609962.381,8.301,16.113,999.512,40.527,0.0,0
1581609962.385,-2.441,16.602,999.512,13.672,0.0,0
1581609962.389,26.366999999999997,7.812,999.512,-4.883,0.0,0
1581609962.393,43.457,24.414,999.512,8.789,0.0,0
1581609962.3960001,53.71100000000001,28.809,999.512,10.254000000000001,0.0,0
1581609962.4,70.312,26.855,999.512,35.156,0.0,0
1581609962.404,97.16799999999999,41.504,999.512,45.41,0.0,0
1581609962.408,91.79700000000001,20.508000000000006,999.512,-1.953,0.0,0
1581609962.4120002,83.49600000000002,25.879,999.512,-15.137,0.0,0
1581609962.429,82.52,60.547,999.512,30.273000000000003,0.0,0
1581609962.4329998,77.148,51.758,999.512,45.41,0.0,0
1581609962.437,80.078,27.344,999.512,17.09,0.0,0
1581609962.441,91.79700000000001,21.484,999.512,-6.836,0.0,0
1581609962.445,75.684,27.344,999.512,16.113,0.0,0
1581609962.449,58.105,28.32,999.512,62.012,0.0,0
1581609962.4529998,69.336,38.086,999.512,92.285,0.0,0
1581609962.456,68.359,37.598,999.512,72.75399999999998,0.0,0
1581609962.46,49.316,23.926,999.512,36.621,0.0,0
1581609962.464,31.25,16.113,999.512,54.199,0.0,0
1581609962.468,44.434,31.25,999.512,66.406,0.0,0
1581609962.4720001,55.663999999999994,49.805,999.512,35.645,0.0,0
1581609962.475,41.504,30.273000000000003,999.512,21.97300000000001,0.0,0
