timestamps,TP9,AF7,AF8,TP10,Right AUX,Marker0
1581606595.8920002,509.277,56.152,12.207,-31.25,0.0,0
1581606595.8960001,-859.375,44.434,8.789,-36.621,0.0,0
1581606595.9,-1000.0,30.273000000000003,10.742,-38.574,0.0,0
1581606595.904,-919.922,33.203,11.719000000000001,-7.812,0.0,0
1581606595.908,-986.328,41.504,11.719000000000001,-11.23,0.0,0
1581606595.9120002,-972.168,34.18,17.578,-42.48,0.0,0
1581606595.9160001,-972.6560000000001,35.645,17.578,-33.691,0.0,0
1581606595.919,-975.0980000000001,41.992,14.16,-21.97300000000001,0.0,0
1581606595.9229999,-907.227,46.387,7.324,-30.273000000000003,0.0,0
1581606595.927,-1000.0,39.551,-0.977,-19.043,0.0,0
1581606595.931,-235.84,28.809,5.859,-19.531,0.0,0
1581606595.935,-946.7769999999999,33.691,18.066,-29.296999999999997,0.0,0
1581606595.937,990.7230000000001,36.621,21.484,-26.855,0.0,0
1581606595.941,968.262,45.41,20.02,-31.25,0.0,0
1581606595.945,-992.676,51.758,22.461,-23.926,0.0,0
1581606595.949,999.512,49.316,27.344,-21.97300000000001,0.0,0
1581606595.9529998,999.512,51.758,18.555,-16.602,0.0,0
1581606595.957,999.512,41.992,18.066,-1.953,0.0,0
1581606595.961,999.512,31.25,25.391,-10.742,0.0,0
1581606595.964,999.512,32.227,19.531,-22.461,0.0,0
1581606595.968,999.512,25.391,14.648,-27.831999999999997,0.0,0
1581606595.9720001,999.512,25.391,13.672,-27.344,0.0,0
1581606595.976,999.512,36.133,20.508000000000006,-20.02,0.0,0
1581606595.98,999.512,41.01600000000001,26.366999999999997,-11.23,0.0,0
1581606595.982,999.512,40.527,24.901999999999997,-7.324,0.0,0
1581606595.986,999.512,29.296999999999997,25.391,-5.371,0.0,0
1581606595.99,999.512,21.484,29.296999999999997,-12.207,0.0,0
1581606595.994,999.512,27.344,31.25,-7.812,0.0,0
1581606595.998,-999.023,34.18,22.461,5.371,0.0,0
1581606596.002,996.0939999999999,26.855,20.508000000000006,-3.906,0.0,0
1581606596.006,979.0039999999999,25.879,25.879,-17.09,0.0,0
1581606596.0089998,-985.84,43.945,27.831999999999997,-12.695,0.0,0
1581606596.0129998,662.5980000000002,46.875,27.831999999999997,-7.324,0.0,0
1581606596.0170002,-332.031,39.551,22.461,-15.137,0.0,0
1581606596.0210001,-987.793,36.621,20.02,-27.344,0.0,0
1581606596.025,-814.453,33.203,23.438000000000002,-13.672,0.0,0
1581606596.0270002,-849.1210000000003,37.598,19.043,-1.465,0.0,0
1581606596.0310001,-1000.0,28.809,23.926,0.488,0.0,0
1581606596.035,-963.3789999999999,14.648,36.133,-5.859,0.0,0
1581606596.039,-973.633,18.555,31.25,-27.344,0.0,0
1581606596.043,-972.168,14.648,20.996,-41.01600000000001,0.0,0
1581606596.0470002,-972.168,10.254000000000001,17.09,-34.668,0.0,0
1581606596.051,-974.1210000000001,19.043,16.602,-27.831999999999997,0.0,0
1581606596.054,-968.262,24.414,15.625,-17.09,0.0,0
1581606596.0579998,-918.945,9.766,23.926,-20.02,0.0,0
1581606596.062,-1000.0,1.953,23.438000000000002,-48.828,0.0,0
1581606596.066,-138.184,14.16,14.648,-32.227,0.0,0
1581606596.07,-933.105,28.809,19.531,-20.02,0.0,0
1581606596.0870001,980.957,33.691,28.809,-20.508000000000006,0.0,0
1581606596.091,974.6089999999999,37.109,27.344,-18.066,0.0,0
1581606596.095,-994.1410000000001,26.366999999999997,28.809,-11.23,0.0,0
1581606596.099,-993.164,18.066,30.273000000000003,3.906,0.0,0
1581606596.103,967.285,23.438000000000002,26.366999999999997,4.883,0.0,0
1581606596.107,-999.023,28.32,30.761999999999997,4.395,0.0,0
1581606596.111,997.559,29.785,31.738000000000003,-13.672,0.0,0
1581606596.1139998,-254.88299999999998,22.461,22.949,-25.879,0.0,0
1581606596.1179998,-1000.0,13.184000000000001,30.273000000000003,-21.97300000000001,0.0,0
1581606596.1220002,-916.0160000000001,12.695,27.831999999999997,-25.391,0.0,0
1581606596.1260002,-972.168,12.695,18.066,-3.418,0.0,0
1581606596.13,-973.145,0.977,27.831999999999997,1.953,0.0,0
1581606596.1320002,-972.168,-9.766,31.738000000000003,-12.695,0.0,0
1581606596.1360002,-972.168,-9.766,29.785,-8.789,0.0,0
1581606596.14,-972.168,-16.602,20.02,-4.883,0.0,0
1581606596.144,-972.168,-19.043,8.789,-13.184000000000001,0.0,0
1581606596.1479998,-972.168,-11.719000000000001,14.16,-25.879,0.0,0
1581606596.1520002,-972.168,5.371,24.414,-41.01600000000001,0.0,0
1581606596.1560001,-972.168,22.949,28.32,-36.133,0.0,0
1581606596.159,-972.168,19.043,24.901999999999997,-15.625,0.0,0
1581606596.1629999,-972.168,14.648,21.484,-18.555,0.0,0
1581606596.167,-972.168,23.438000000000002,18.555,-34.668,0.0,0
1581606596.171,-972.168,26.366999999999997,15.625,-29.296999999999997,0.0,0
1581606596.175,-972.168,18.066,20.508000000000006,-26.366999999999997,0.0,0
1581606596.177,-972.168,2.441,9.766,-34.668,0.0,0
1581606596.181,-972.168,-3.906,1.953,-35.156,0.0,0
1581606596.185,-972.168,16.113,23.926,-37.598,0.0,0
1581606596.189,-972.168,39.062,30.761999999999997,-23.926,0.0,0
1581606596.1929998,-972.168,32.715,23.926,-16.113,0.0,0
1581606596.197,-972.168,12.207,20.02,-16.602,0.0,0
1581606596.201,-972.168,0.488,14.16,-30.273000000000003,0.0,0
1581606596.204,-972.168,3.906,18.066,-41.01600000000001,0.0,0
1581606596.208,-972.168,-2.441,23.438000000000002,-43.945,0.0,0
1581606596.2120001,-972.168,-5.371,25.879,-45.41,0.0,0
1581606596.216,-972.168,9.766,32.227,-26.366999999999997,0.0,0
1581606596.22,-972.168,14.16,34.668,-21.484,0.0,0
1581606596.2220001,-979.492,14.648,26.366999999999997,-40.039,0.0,0
1581606596.226,-903.32,17.578,21.484,-33.203,0.0,0
1581606596.23,-1000.0,17.578,18.066,-44.922,0.0,0
1581606596.234,-328.61300000000006,0.977,17.09,-47.363,0.0,0
1581606596.238,-991.699,0.0,19.531,-27.831999999999997,0.0,0
1581606596.242,952.148,16.113,20.508000000000006,-37.109,0.0,0
1581606596.246,-912.1089999999999,18.555,24.901999999999997,-35.645,0.0,0
1581606596.2489998,160.156,11.23,22.949,-27.831999999999997,0.0,0
1581606596.2529998,-1000.0,-5.371,13.184000000000001,-33.691,0.0,0
1581606596.2570002,-954.102,-11.719000000000001,13.672,-41.01600000000001,0.0,0
1581606596.2610002,-952.637,-7.812,18.555,-49.316,0.0,0
1581606596.265,310.547,2.93,14.16,-67.383,0.0,0
1581606596.268,-875.488,21.484,20.02,-53.223,0.0,0
1581606596.272,937.5,13.184000000000001,32.715,-41.01600000000001,0.0,0
1581606596.276,-997.559,1.465,23.926,-52.246,0.0,0
1581606596.28,999.512,11.23,15.137,-69.824,0.0,0
1581606596.284,999.512,20.02,12.695,-58.105,0.0,0
1581606596.2879999,999.512,20.02,13.672,-63.965,0.0,0
1581606596.292,999.512,2.441,20.996,-82.52,0.0,0
1581606596.295,-993.6519999999999,-6.836,21.484,-81.543,0.0,0
1581606596.299,969.727,7.812,24.901999999999997,-89.355,0.0,0
1581606596.303,997.559,24.414,19.043,-94.238,0.0,0
1581606596.3070002,997.07,22.461,20.02,-79.59,0.0,0
1581606596.311,-219.238,8.301,25.391,-71.289,0.0,0
1581606596.313,-1000.0,-8.301,12.207,-74.219,0.0,0
1581606596.3170002,-889.16,-13.184000000000001,10.742,-73.242,0.0,0
1581606596.321,-1000.0,-16.602,19.531,-63.477,0.0,0
1581606596.325,-640.625,-15.137,12.695,-65.43,0.0,0
1581606596.329,444.336,-3.418,12.207,-81.543,0.0,0
1581606596.333,-958.9839999999999,2.441,27.831999999999997,-66.895,0.0,0
1581606596.3370001,969.727,12.207,32.715,-40.039,0.0,0
1581606596.34,731.445,20.996,33.203,-61.035,0.0,0
1581606596.3439999,856.934,19.043,38.086,-51.27,0.0,0
1581606596.3479998,-779.785,8.789,31.738000000000003,-37.109,0.0,0
1581606596.3520002,83.984,16.113,21.484,-62.5,0.0,0
1581606596.356,-68.848,9.277000000000001,22.949,-74.707,0.0,0
1581606596.3579998,-877.441,2.93,16.113,-75.684,0.0,0
1581606596.3620002,987.305,7.324,6.836,-61.523,0.0,0
1581606596.3660002,978.5160000000001,2.93,4.883,-49.805,0.0,0
1581606596.37,-997.559,-0.488,7.324,-46.875,0.0,0
1581606596.3739998,999.512,-4.395,11.719000000000001,-50.78100000000001,0.0,0
1581606596.3779998,999.512,-16.602,14.16,-49.316,0.0,0
1581606596.3820002,999.512,-9.277000000000001,4.883,-42.48,0.0,0
1581606596.385,999.512,-0.977,3.418,-46.387,0.0,0
1581606596.389,-995.117,-6.348,10.742,-48.34,0.0,0
1581606596.393,969.727,3.906,14.16,-44.434,0.0,0
1581606596.397,-994.6289999999999,9.766,28.809,-47.363,0.0,0
1581606596.401,-968.262,15.137,36.621,-21.484,0.0,0
1581606596.4029999,-133.789,9.277000000000001,32.227,6.348,0.0,0
1581606596.407,-195.801,-3.906,28.809,-9.766,0.0,0
1581606596.411,924.316,4.883,30.761999999999997,-4.883,0.0,0
1581606596.415,-992.676,12.695,29.785,-2.93,0.0,0
1581606596.419,976.562,7.324,28.809,-14.16,0.0,0
1581606596.4229999,-998.047,8.789,26.366999999999997,-6.836,0.0,0
1581606596.427,999.512,9.277000000000001,22.461,1.465,0.0,0
1581606596.43,999.512,7.812,22.461,-14.648,0.0,0
1581606596.434,999.512,2.93,22.461,-15.137,0.0,0
1581606596.438,999.512,-0.977,17.09,-17.578,0.0,0
1581606596.4420002,999.512,2.93,9.766,-25.391,0.0,0
1581606596.446,999.512,10.254000000000001,18.066,-18.555,0.0,0
1581606596.448,999.512,13.672,23.438000000000002,-17.09,0.0,0
1581606596.4520001,999.512,12.207,19.043,-19.531,0.0,0
1581606596.456,999.512,10.254000000000001,20.996,-14.648,0.0,0
1581606596.46,-999.512,10.254000000000001,19.531,-5.371,0.0,0
1581606596.464,992.188,15.137,11.719000000000001,-5.859,0.0,0
1581606596.468,995.117,17.578,10.742,-15.137,0.0,0
1581606596.4720001,955.566,10.742,19.531,-30.273000000000003,0.0,0
1581606596.475,613.281,3.418,28.32,-22.949,0.0,0
1581606596.4789999,-97.16799999999999,2.441,28.809,-17.578,0.0,0
1581606596.4829998,264.64799999999997,-0.488,29.785,-20.508000000000006,0.0,0
1581606596.4870002,-938.965,5.859,27.344,-24.414,0.0,0
1581606596.4910002,991.211,3.906,25.391,-39.062,0.0,0
1581606596.508,975.586,-4.883,30.273000000000003,-13.184000000000001,0.0,0
1581606596.512,963.3789999999999,3.418,27.831999999999997,-23.438000000000002,0.0,0
1581606596.516,-935.547,12.695,21.484,-51.758,0.0,0
1581606596.52,156.738,11.23,20.508000000000006,-31.738000000000003,0.0,0
1581606596.524,-991.699,0.977,20.02,-21.484,0.0,0
1581606596.5279999,-965.332,-8.301,22.461,-29.296999999999997,0.0,0
1581606596.532,-945.312,-8.789,20.996,-41.992,0.0,0
1581606596.535,-979.492,-0.977,23.926,-52.733999999999995,0.0,0
1581606596.539,-972.168,-5.371,26.855,-35.645,0.0,0
1581606596.543,-972.168,-4.883,21.484,-28.809,0.0,0
1581606596.5470002,-972.168,2.441,22.949,-30.273000000000003,0.0,0
1581606596.551,-972.168,4.883,35.645,-35.156,0.0,0
1581606596.553,-972.168,7.324,36.621,-30.761999999999997,0.0,0
1581606596.5570002,-972.168,0.977,25.391,-29.296999999999997,0.0,0
1581606596.561,-972.168,-8.789,29.296999999999997,-30.761999999999997,0.0,0
1581606596.565,-972.168,-3.906,34.18,-38.086,0.0,0
1581606596.569,-972.168,-1.465,19.043,-34.18,0.0,0
1581606596.573,-972.168,-15.137,19.531,-16.602,0.0,0
1581606596.5770001,-972.168,-18.555,33.691,-21.97300000000001,0.0,0
1581606596.58,-972.168,-4.395,34.668,-22.949,0.0,0
1581606596.5839999,-972.168,-6.348,28.32,-32.715,0.0,0
1581606596.5879998,-972.168,-10.254000000000001,25.879,-39.062,0.0,0
1581606596.592,-972.168,-5.859,26.855,-33.203,0.0,0
1581606596.596,-972.168,-7.812,27.831999999999997,-24.901999999999997,0.0,0
1581606596.5979998,-972.168,-8.789,25.391,-31.738000000000003,0.0,0
1581606596.6020002,-972.168,-8.789,25.391,-41.01600000000001,0.0,0
1581606596.606,-972.168,-7.812,21.484,-27.344,0.0,0
1581606596.61,-972.6560000000001,0.488,15.137,-17.578,0.0,0
1581606596.6139998,-961.914,3.906,15.137,-34.18,0.0,0
1581606596.6179998,-1000.0,-4.395,15.137,-22.949,0.0,0
1581606596.6220002,-814.453,-6.348,26.855,-9.277000000000001,0.0,0
1581606596.625,-770.9960000000003,-8.301,31.25,-28.32,0.0,0
1581606596.629,-992.188,-9.277000000000001,26.855,-28.32,0.0,0
1581606596.633,-978.0269999999999,-8.301,20.02,-35.156,0.0,0
1581606596.637,-938.965,-11.719000000000001,20.02,-33.203,0.0,0
1581606596.641,-975.586,-9.766,16.113,-22.461,0.0,0
1581606596.643,-935.547,-9.766,19.531,-21.484,0.0,0
1581606596.647,240.72299999999998,-9.766,27.344,-18.555,0.0,0
1581606596.651,-913.086,-9.277000000000001,22.949,-18.555,0.0,0
1581606596.655,957.0310000000001,-11.719000000000001,17.09,-26.855,0.0,0
1581606596.659,993.164,1.465,13.184000000000001,-24.414,0.0,0
1581606596.6629999,-998.047,6.836,12.207,-40.039,0.0,0
1581606596.667,999.512,-6.836,3.418,-51.758,0.0,0
1581606596.67,999.512,-12.695,9.766,-34.668,0.0,0
1581606596.674,999.512,-3.418,20.996,-41.504,0.0,0
1581606596.678,999.512,2.93,20.996,-40.039,0.0,0
1581606596.6820002,999.512,-2.93,22.461,-16.113,0.0,0
1581606596.686,999.512,-7.812,23.926,-19.531,0.0,0
1581606596.688,999.512,-6.836,13.672,-33.691,0.0,0
1581606596.6920002,999.512,-14.648,13.672,-30.273000000000003,0.0,0
1581606596.696,999.512,-18.066,23.438000000000002,-36.621,0.0,0
1581606596.7,999.512,-10.742,19.531,-28.809,0.0,0
1581606596.704,999.512,-6.348,23.926,-20.02,0.0,0
1581606596.708,999.512,-6.348,24.414,-33.691,0.0,0
1581606596.7120001,999.512,5.371,18.066,-30.273000000000003,0.0,0
1581606596.715,999.512,18.066,25.879,-38.574,0.0,0
1581606596.7189999,999.512,15.625,29.785,-40.039,0.0,0
1581606596.7229998,999.512,13.184000000000001,25.391,-31.738000000000003,0.0,0
1581606596.7270002,999.512,16.113,26.366999999999997,-22.949,0.0,0
1581606596.731,999.512,15.137,22.461,-17.09,0.0,0
1581606596.7329998,999.512,13.184000000000001,16.113,-27.344,0.0,0
1581606596.7370002,999.512,10.742,12.207,-19.043,0.0,0
1581606596.7410002,999.512,1.465,13.672,-40.527,0.0,0
1581606596.745,999.512,-1.465,18.555,-52.733999999999995,0.0,0
1581606596.7489998,999.512,-0.977,13.672,-23.926,0.0,0
1581606596.7529998,999.512,-5.371,16.602,-18.066,0.0,0
1581606596.7570002,999.512,8.301,16.113,-34.668,0.0,0
1581606596.76,999.512,16.113,0.0,-49.805,0.0,0
1581606596.764,999.512,8.301,-1.953,-48.828,0.0,0
1581606596.768,999.512,4.395,10.742,-42.48,0.0,0
1581606596.772,999.512,1.953,9.277000000000001,-32.227,0.0,0
1581606596.776,999.512,1.953,5.859,-38.086,0.0,0
1581606596.7779999,999.512,-0.977,15.137,-59.57,0.0,0
1581606596.782,999.512,2.93,19.531,-49.316,0.0,0
1581606596.786,999.512,15.625,26.366999999999997,-38.574,0.0,0
1581606596.79,999.512,16.602,27.831999999999997,-29.296999999999997,0.0,0
1581606596.794,999.512,7.812,22.461,-13.184000000000001,0.0,0
1581606596.7979999,999.512,0.977,25.879,-16.602,0.0,0
1581606596.802,999.512,1.953,23.438000000000002,-26.855,0.0,0
1581606596.805,999.512,5.859,20.996,-34.18,0.0,0
1581606596.809,-999.512,13.184000000000001,24.901999999999997,-20.02,0.0,0
1581606596.813,990.2339999999999,19.043,27.344,-23.438000000000002,0.0,0
1581606596.8170002,-995.605,18.066,31.25,-28.809,0.0,0
1581606596.821,934.082,8.301,28.809,-1.465,0.0,0
1581606596.823,644.043,-3.906,26.366999999999997,-20.996,0.0,0
1581606596.8270001,78.613,-7.812,27.344,-40.039,0.0,0
1581606596.831,330.566,-4.883,21.97300000000001,-43.457,0.0,0
1581606596.835,-957.52,-2.441,17.09,-62.5,0.0,0
1581606596.839,996.582,-12.207,17.09,-32.715,0.0,0
1581606596.843,982.422,-17.578,14.648,-22.461,0.0,0
1581606596.8470001,-996.582,-7.324,12.207,-50.78100000000001,0.0,0
1581606596.85,999.512,6.836,13.672,-51.27,0.0,0
1581606596.8539999,999.512,13.184000000000001,13.184000000000001,-46.875,0.0,0
1581606596.8579998,999.512,4.395,15.625,-42.968999999999994,0.0,0
1581606596.8620002,999.512,-1.465,20.02,-46.875,0.0,0
1581606596.8660002,999.512,-8.301,21.484,-52.733999999999995,0.0,0
1581606596.8820002,-999.023,-11.23,21.97300000000001,-55.176,0.0,0
1581606596.8860002,997.559,-14.16,26.366999999999997,-55.663999999999994,0.0,0
1581606596.89,957.0310000000001,-19.531,26.366999999999997,-46.875,0.0,0
1581606596.894,-935.547,-12.207,17.578,-39.551,0.0,0
1581606596.8979998,412.10900000000004,-7.324,17.09,-26.366999999999997,0.0,0
1581606596.9020002,-796.387,-9.766,19.531,-23.438000000000002,0.0,0
1581606596.9060001,-1000.0,-17.09,17.09,-19.043,0.0,0
1581606596.909,-936.035,-12.207,11.719000000000001,-20.996,0.0,0
1581606596.9129999,-978.0269999999999,-1.953,15.625,-30.761999999999997,0.0,0
1581606596.917,-972.6560000000001,-2.93,25.879,-41.992,0.0,0
1581606596.921,-972.168,-3.418,22.949,-42.968999999999994,0.0,0
1581606596.925,-972.168,-4.883,21.484,-32.227,0.0,0
1581606596.927,-972.168,-14.648,24.901999999999997,-31.25,0.0,0
1581606596.931,-972.168,-23.438000000000002,21.97300000000001,-32.715,0.0,0
1581606596.935,-972.168,-20.508000000000006,20.996,-38.086,0.0,0
1581606596.939,-972.168,-4.395,15.137,-39.551,0.0,0
1581606596.9429998,-972.168,0.488,16.113,-37.109,0.0,0
1581606596.947,-972.168,-9.766,19.043,-34.668,0.0,0
1581606596.951,-973.633,-14.16,22.461,-38.086,0.0,0
1581606596.954,-972.168,-15.137,26.855,-39.062,0.0,0
1581606596.958,-929.688,-8.789,21.484,-33.203,0.0,0
1581606596.9620001,-1000.0,-5.859,23.438000000000002,-35.156,0.0,0
1581606596.966,-442.871,-8.301,30.273000000000003,-50.78100000000001,0.0,0
1581606596.97,774.414,-3.906,26.855,-58.593999999999994,0.0,0
1581606596.9720001,-964.355,-1.953,19.531,-52.246,0.0,0
1581606596.976,960.938,-0.977,17.09,-48.34,0.0,0
1581606596.98,-995.117,-3.418,15.625,-49.316,0.0,0
1581606596.984,999.512,-10.742,12.695,-42.968999999999994,0.0,0
1581606596.988,999.512,-9.766,12.695,-42.968999999999994,0.0,0
1581606596.992,999.512,-8.301,17.578,-44.922,0.0,0
1581606596.996,999.512,-5.371,18.555,-36.133,0.0,0
1581606596.9989998,999.512,1.465,18.555,-39.551,0.0,0
1581606597.0029998,999.512,3.906,15.625,-44.434,0.0,0
1581606597.0070002,999.512,-2.93,13.672,-50.293,0.0,0
1581606597.0110002,999.512,-7.324,12.207,-40.039,0.0,0
1581606597.015,999.512,-5.859,6.348,-22.949,0.0,0
1581606597.0170002,999.512,-10.254000000000001,8.301,-24.901999999999997,0.0,0
1581606597.0210001,999.512,-6.836,14.648,-35.156,0.0,0
1581606597.025,999.512,-2.93,13.184000000000001,-34.18,0.0,0
1581606597.029,999.512,0.488,4.883,-49.805,0.0,0
1581606597.033,999.512,7.812,-1.953,-62.012,0.0,0
1581606597.0370002,999.512,3.418,7.324,-45.41,0.0,0
1581606597.0410001,999.512,0.977,20.996,-42.48,0.0,0
1581606597.044,999.512,11.23,26.855,-39.062,0.0,0
1581606597.0479999,-992.676,10.254000000000001,29.785,-50.78100000000001,0.0,0
1581606597.052,931.6410000000001,4.395,23.926,-56.64100000000001,0.0,0
1581606597.056,-873.535,6.836,15.137,-45.41,0.0,0
1581606597.06,407.227,0.488,17.578,-44.434,0.0,0
1581606597.062,-943.8480000000001,-14.16,18.555,-50.293,0.0,0
1581606597.066,-990.7230000000001,-15.137,15.625,-41.504,0.0,0
1581606597.07,-930.176,-9.766,19.531,-33.691,0.0,0
1581606597.074,-983.398,-6.836,18.555,-37.598,0.0,0
1581606597.0779998,-972.168,-11.23,17.578,-57.617,0.0,0
1581606597.082,-972.168,-9.766,16.602,-65.918,0.0,0
1581606597.086,-972.168,-4.395,12.207,-55.663999999999994,0.0,0
1581606597.089,-972.168,-1.465,14.16,-62.012,0.0,0
1581606597.093,-972.168,-2.441,11.719000000000001,-56.152,0.0,0
1581606597.0970001,-972.168,-9.277000000000001,8.789,-48.34,0.0,1
1581606597.101,-972.168,-8.789,8.789,-50.293,0.0,0
1581606597.105,-972.168,-8.301,9.766,-37.109,0.0,0
1581606597.107,-972.168,-9.277000000000001,13.184000000000001,-40.527,0.0,0
1581606597.111,-979.0039999999999,-9.277000000000001,20.02,-49.805,0.0,0
1581606597.115,-939.453,-9.277000000000001,15.625,-60.059,0.0,0
1581606597.119,-986.328,-14.648,4.883,-64.453,0.0,0
1581606597.123,-888.184,-20.508000000000006,13.672,-58.105,0.0,0
1581606597.127,309.082,-14.648,28.32,-53.223,0.0,0
1581606597.131,-917.48,2.93,31.25,-51.758,0.0,0
1581606597.1339998,956.055,11.719000000000001,29.785,-59.57,0.0,0
1581606597.1379998,995.605,1.465,27.831999999999997,-54.199,0.0,0
1581606597.1420002,991.699,-3.418,20.996,-56.152,0.0,0
1581606597.1460001,-993.6519999999999,0.488,19.043,-48.34,0.0,0
1581606597.15,870.117,1.953,22.949,-32.715,0.0,0
1581606597.1520002,452.63699999999994,-14.16,21.97300000000001,-47.363,0.0,0
1581606597.1560001,-92.773,-22.461,19.531,-58.593999999999994,0.0,0
1581606597.16,-122.559,-15.137,19.531,-52.733999999999995,0.0,0
1581606597.164,-485.352,-14.16,9.277000000000001,-41.992,0.0,0
1581606597.168,-1000.0,-11.23,-3.418,-59.57,0.0,0
1581606597.1720002,-964.355,-5.371,1.953,-91.79700000000001,0.0,0
1581606597.176,-902.3439999999999,-4.883,19.531,-86.426,0.0,0
1581606597.179,-1000.0,-2.93,30.761999999999997,-69.824,0.0,0
1581606597.1829998,-352.539,-0.977,29.785,-63.965,0.0,0
1581606597.187,952.148,0.977,26.855,-60.547,0.0,0
1581606597.191,-984.863,1.953,19.531,-49.316,0.0,0
1581606597.195,960.938,0.488,16.113,-64.941,0.0,0
1581606597.197,-991.699,-5.371,13.672,-71.289,0.0,0
1581606597.201,-994.6289999999999,-11.719000000000001,13.672,-51.27,0.0,0
1581606597.205,955.566,-7.812,15.137,-51.758,0.0,0
1581606597.2089999,-945.801,-5.371,13.672,-55.176,0.0,0
1581606597.2129998,708.008,-10.254000000000001,20.996,-62.012,0.0,0
1581606597.217,-527.832,-11.719000000000001,23.926,-53.223,0.0,0
1581606597.221,-1000.0,-12.695,23.438000000000002,-56.64100000000001,0.0,0
1581606597.224,-931.6410000000001,-16.602,19.531,-72.75399999999998,0.0,0
1581606597.228,-972.168,-16.602,13.672,-72.75399999999998,0.0,0
1581606597.232,-973.633,-13.184000000000001,11.719000000000001,-68.359,0.0,0
1581606597.236,-972.168,-15.625,9.277000000000001,-56.152,0.0,0
1581606597.24,-972.168,-15.625,14.16,-57.617,0.0,0
1581606597.2570002,-976.074,-14.16,21.484,-46.875,0.0,0
1581606597.2610002,-929.688,-20.508000000000006,18.555,-42.968999999999994,0.0,0
1581606597.265,-1000.0,-20.02,13.184000000000001,-59.57,0.0,0
1581606597.269,-549.316,-12.207,15.137,-62.012,0.0,0
1581606597.2729998,-189.94099999999997,-9.277000000000001,10.254000000000001,-70.801,0.0,0
1581606597.2770002,-893.555,-18.066,0.488,-96.191,0.0,0
1581606597.2810001,-950.195,-20.508000000000006,6.836,-80.566,0.0,0
1581606597.284,-925.7810000000001,-7.324,15.137,-70.312,0.0,0
1581606597.2879999,-1000.0,0.977,13.184000000000001,-86.914,0.0,0
1581606597.292,284.668,4.883,2.93,-90.33200000000001,0.0,0
1581606597.296,507.324,2.93,-2.441,-75.684,0.0,0
1581606597.3,-967.773,-8.301,-2.441,-66.406,0.0,0
1581606597.302,214.355,-8.789,-4.883,-70.801,0.0,0
1581606597.306,-856.445,-2.93,-3.906,-72.75399999999998,0.0,0
1581606597.31,940.918,-3.906,-2.441,-60.547,0.0,0
1581606597.314,994.6289999999999,1.953,-3.906,-50.293,0.0,0
1581606597.3179998,-998.535,-5.859,-6.836,-78.613,0.0,0
1581606597.322,999.512,-20.508000000000006,-2.93,-86.914,0.0,0
1581606597.326,999.512,-18.066,-1.465,-78.125,0.0,0
1581606597.329,999.512,-11.719000000000001,-1.465,-91.79700000000001,0.0,0
1581606597.333,999.512,-3.906,5.371,-100.586,0.0,0
1581606597.3370001,999.512,3.418,3.418,-94.238,0.0,0
1581606597.341,999.512,-2.93,2.441,-71.289,0.0,0
1581606597.345,999.512,-6.836,10.254000000000001,-77.148,0.0,0
1581606597.3479998,999.512,3.906,8.301,-78.613,0.0,0
1581606597.3520002,999.512,3.418,3.418,-65.43,0.0,0
1581606597.356,999.512,-1.953,-1.953,-95.70299999999999,0.0,0
1581606597.36,999.512,-2.441,-5.859,-101.074,0.0,0
1581606597.3639998,999.512,-8.789,6.348,-88.37899999999998,0.0,0
1581606597.3679998,999.512,-9.766,16.602,-95.215,0.0,0
1581606597.3720002,999.512,-6.348,14.648,-83.49600000000002,0.0,0
1581606597.375,999.023,-4.883,16.602,-66.895,0.0,0
1581606597.379,999.512,1.465,17.09,-63.965,0.0,0
1581606597.383,999.023,2.93,11.23,-74.707,0.0,0
1581606597.387,995.117,2.441,11.719000000000001,-81.543,0.0,0
1581606597.391,998.535,2.441,16.602,-80.078,0.0,0
1581606597.393,-1000.0,5.371,14.648,-62.012,0.0,0
1581606597.397,-993.164,10.254000000000001,10.254000000000001,-62.5,0.0,0
1581606597.401,965.82,12.695,8.789,-63.477,0.0,0
1581606597.405,-992.676,8.789,8.301,-47.852,0.0,0
1581606597.409,968.262,-0.977,4.395,-53.223,0.0,0
1581606597.4129999,-276.367,-1.465,6.348,-54.688,0.0,0
1581606597.417,-1000.0,1.953,10.742,-47.363,0.0,0
1581606597.42,-916.0160000000001,3.418,14.16,-51.758,0.0,0
1581606597.424,-973.145,4.883,18.555,-70.312,0.0,0
1581606597.428,-914.551,5.371,13.184000000000001,-76.66,0.0,0
1581606597.4320002,-1000.0,0.977,9.277000000000001,-68.848,0.0,0
1581606597.436,-325.195,-5.371,8.789,-61.523,0.0,0
1581606597.438,913.086,-3.418,1.465,-64.453,0.0,0
1581606597.4420002,-899.414,1.953,-1.465,-65.43,0.0,0
1581606597.446,658.691,6.836,8.789,-75.684,0.0,0
1581606597.45,-362.305,9.766,19.043,-69.336,0.0,0
1581606597.454,317.871,8.301,14.648,-71.777,0.0,0
1581606597.458,-883.789,1.953,3.906,-87.402,0.0,0
1581606597.4620001,907.715,-3.906,2.441,-90.33200000000001,0.0,0
1581606597.465,967.773,4.395,3.906,-82.52,0.0,0
1581606597.4689999,-989.258,9.766,2.441,-76.66,0.0,0
1581606597.4729998,995.605,1.953,1.465,-87.891,0.0,0
1581606597.4770002,-999.512,-0.977,3.418,-93.262,0.0,0
1581606597.481,999.512,8.789,7.324,-97.656,0.0,0
1581606597.4829998,999.512,9.766,5.371,-81.055,0.0,0
1581606597.4870002,999.512,8.301,11.23,-71.777,0.0,0
1581606597.4910002,999.512,11.719000000000001,16.113,-83.008,0.0,0
1581606597.495,999.512,18.066,16.113,-73.242,0.0,0
1581606597.4989998,999.512,21.97300000000001,12.695,-75.195,0.0,0
1581606597.5029998,999.512,23.438000000000002,2.441,-78.613,0.0,0
1581606597.5070002,999.512,23.926,-7.812,-61.035,0.0,0
1581606597.51,999.512,19.531,-4.883,-62.5,0.0,0
1581606597.514,-997.559,8.789,10.742,-68.359,0.0,0
1581606597.518,977.051,8.789,14.648,-76.172,0.0,0
1581606597.522,-963.3789999999999,14.648,7.324,-85.449,0.0,0
1581606597.526,860.84,1.465,5.371,-66.895,0.0,0
1581606597.5279999,412.10900000000004,-3.906,8.301,-74.707,0.0,0
1581606597.532,469.727,8.789,7.812,-74.219,0.0,0
1581606597.536,606.934,22.949,8.301,-82.52,0.0,0
1581606597.54,611.816,27.831999999999997,8.301,-95.70299999999999,0.0,0
1581606597.544,869.6289999999997,22.461,2.441,-75.195,0.0,0
1581606597.5479999,915.039,17.578,-0.977,-82.031,0.0,0
1581606597.552,407.715,13.672,1.953,-89.844,0.0,0
1581606597.555,-402.344,9.766,0.0,-89.355,0.0,0
1581606597.559,-972.6560000000001,1.953,-0.977,-96.68,0.0,0
1581606597.563,-963.867,-2.93,1.465,-102.539,0.0,0
1581606597.5670002,-959.961,0.977,3.418,-82.031,0.0,0
1581606597.571,-976.074,0.0,6.348,-80.566,0.0,0
1581606597.573,-972.168,-0.977,7.324,-79.102,0.0,0
1581606597.5770001,-972.168,4.395,15.137,-78.613,0.0,0
1581606597.581,-972.168,9.766,15.137,-77.148,0.0,0
1581606597.585,-973.633,14.16,3.418,-76.66,0.0,0
1581606597.589,-964.355,7.812,8.789,-79.59,0.0,0
1581606597.593,-983.398,3.906,20.996,-92.285,0.0,0
1581606597.5970001,-929.199,6.348,13.672,-98.145,0.0,0
1581606597.6,-695.801,2.93,10.254000000000001,-84.473,0.0,0
1581606597.6039999,-670.41,-1.953,14.648,-73.242,0.0,0
1581606597.6079998,-878.9060000000003,-10.742,7.324,-70.312,0.0,0
1581606597.6120002,-885.2539999999997,-10.254000000000001,3.418,-81.055,0.0,0
1581606597.6160002,115.723,9.277000000000001,9.277000000000001,-84.961,0.0,0
1581606597.633,992.676,20.02,18.555,-83.49600000000002,0.0,0
1581606597.637,984.375,20.02,28.32,-73.73,0.0,0
1581606597.641,977.539,19.043,26.366999999999997,-72.266,0.0,0
1581606597.645,963.3789999999999,12.207,21.97300000000001,-64.453,0.0,0
1581606597.649,-910.1560000000001,11.719000000000001,21.97300000000001,-67.87100000000001,0.0,0
1581606597.6529999,277.832,8.301,22.461,-68.848,0.0,0
1581606597.657,-675.293,-0.488,17.578,-62.988,0.0,0
1581606597.66,-71.289,-4.395,14.648,-74.219,0.0,0
1581606597.664,96.68,5.859,16.602,-70.312,0.0,0
1581606597.668,-580.566,4.395,18.066,-63.477,0.0,0
1581606597.6720002,-946.289,1.953,12.695,-82.52,0.0,0
1581606597.676,-967.773,7.812,10.254000000000001,-86.426,0.0,0
1581606597.678,-962.8910000000001,9.277000000000001,16.602,-64.453,0.0,0
1581606597.6820002,-975.0980000000001,7.324,12.695,-77.637,0.0,0
1581606597.686,-972.168,2.441,9.766,-85.449,0.0,0
1581606597.69,-972.168,7.812,19.043,-79.59,0.0,0
1581606597.694,-972.168,11.719000000000001,20.508000000000006,-77.637,0.0,0
1581606597.698,-971.68,2.441,20.02,-65.43,0.0,0
1581606597.7020001,-971.191,2.93,19.043,-63.965,0.0,0
1581606597.705,-961.914,8.789,17.578,-59.082,0.0,0
1581606597.7089999,-978.0269999999999,2.441,15.625,-70.312,0.0,0
1581606597.7129998,-636.719,8.301,8.301,-78.125,0.0,0
1581606597.717,-595.215,18.066,11.23,-66.406,0.0,0
1581606597.721,-987.305,17.09,22.461,-79.102,0.0,0
1581606597.7229998,-1000.0,15.625,26.855,-96.191,0.0,0
1581606597.7270002,-172.852,23.438000000000002,25.879,-77.637,0.0,0
1581606597.731,-62.5,35.156,28.809,-70.312,0.0,0
1581606597.735,-176.75799999999995,34.668,29.296999999999997,-68.848,0.0,0
1581606597.7389998,193.84799999999998,27.344,26.366999999999997,-64.453,0.0,0
1581606597.7429998,-456.543,20.508000000000006,33.691,-63.477,0.0,0
1581606597.7470002,-156.25,4.883,42.48,-62.5,0.0,0
1581606597.75,295.89799999999997,7.812,37.109,-79.102,0.0,0
1581606597.754,729.0039999999997,22.461,27.831999999999997,-78.613,0.0,0
1581606597.758,-967.773,22.949,31.25,-67.87100000000001,0.0,0
1581606597.762,968.262,33.691,40.039,-55.176,0.0,0
1581606597.766,-959.4730000000001,37.598,35.645,-55.663999999999994,0.0,0
1581606597.768,789.062,32.227,22.461,-63.477,0.0,0
1581606597.772,743.6519999999997,39.062,21.484,-61.035,0.0,0
1581606597.776,-974.6089999999999,42.968999999999994,28.809,-73.73,0.0,0
1581606597.78,997.559,34.668,24.901999999999997,-71.777,0.0,0
1581606597.784,994.1410000000001,29.296999999999997,17.578,-62.5,0.0,0
1581606597.7879999,-999.512,33.691,20.02,-76.66,0.0,0
1581606597.792,999.512,22.461,22.461,-91.79700000000001,0.0,0
1581606597.795,999.512,16.113,23.926,-93.75,0.0,0
1581606597.799,999.512,26.855,27.344,-91.309,0.0,0
1581606597.803,999.512,27.831999999999997,27.344,-87.891,0.0,0
1581606597.8070002,999.512,19.043,30.273000000000003,-64.941,0.0,0
1581606597.811,999.512,23.926,35.645,-62.5,0.0,0
1581606597.813,999.512,30.761999999999997,36.133,-57.129,0.0,0
1581606597.8170002,999.512,31.738000000000003,32.227,-40.039,0.0,0
1581606597.821,999.512,22.949,30.761999999999997,-53.71100000000001,0.0,0
1581606597.825,999.512,16.602,30.273000000000003,-77.148,0.0,0
1581606597.829,999.512,21.484,24.901999999999997,-76.172,0.0,0
1581606597.833,999.512,23.926,20.996,-60.547,0.0,0
1581606597.8370001,999.512,26.366999999999997,22.461,-43.457,0.0,0
1581606597.84,999.512,21.484,30.273000000000003,-66.406,0.0,0
1581606597.8439999,999.512,17.09,31.25,-83.49600000000002,0.0,0
1581606597.8479998,999.512,15.137,31.25,-54.199,0.0,0
1581606597.8520002,999.512,16.602,29.785,-57.129,0.0,0
1581606597.856,999.512,20.508000000000006,26.366999999999997,-80.566,0.0,0
1581606597.8579998,-999.512,24.901999999999997,16.113,-81.543,0.0,0
1581606597.8620002,996.0939999999999,21.97300000000001,16.113,-62.5,0.0,0
1581606597.8660002,956.543,17.09,31.738000000000003,-49.805,0.0,0
1581606597.87,-916.0160000000001,20.508000000000006,27.831999999999997,-68.848,0.0,0
1581606597.8739998,421.875,24.901999999999997,22.949,-69.336,0.0,0
1581606597.8779998,-732.91,21.97300000000001,33.203,-54.688,0.0,0
1581606597.8820002,-388.67199999999997,7.324,34.668,-45.898,0.0,0
1581606597.885,61.523,8.301,26.855,-66.895,0.0,0
1581606597.889,290.527,10.742,26.855,-76.66,0.0,0
1581606597.893,968.75,4.883,30.761999999999997,-65.43,0.0,0
1581606597.897,990.2339999999999,16.602,29.296999999999997,-65.918,0.0,0
1581606597.901,-991.211,14.648,21.97300000000001,-56.152,0.0,0
1581606597.9029999,711.426,11.23,21.484,-45.898,0.0,0
1581606597.907,-183.59400000000002,16.113,32.715,-48.828,0.0,0
1581606597.911,-771.4839999999997,3.906,29.785,-69.336,0.0,0
1581606597.915,-959.4730000000001,7.324,18.066,-82.52,0.0,0
1581606597.919,-683.105,21.484,20.02,-73.242,0.0,0
1581606597.9229999,-13.184000000000001,22.949,21.484,-55.663999999999994,0.0,0
1581606597.927,654.785,23.438000000000002,18.555,-57.617,0.0,0
1581606597.93,-148.438,21.97300000000001,17.09,-82.52,0.0,0
1581606597.934,-1000.0,18.066,18.555,-76.172,0.0,0
1581606597.938,-939.453,14.16,16.113,-53.71100000000001,0.0,0
1581606597.9420002,-959.961,0.488,21.97300000000001,-56.64100000000001,0.0,0
1581606597.946,-975.586,-5.371,32.715,-66.895,0.0,0
1581606597.947,-972.168,8.301,36.133,-62.5,0.0,0
1581606597.951,-972.168,14.648,36.621,-72.266,0.0,0
1581606597.955,-972.168,16.113,33.203,-74.707,0.0,0
1581606597.9589999,-972.168,21.97300000000001,29.785,-71.289,0.0,0
1581606597.9629998,-972.168,20.508000000000006,24.414,-60.059,0.0,0
1581606597.967,-973.633,16.113,18.066,-41.992,0.0,0
1581606597.971,-972.168,17.09,19.043,-74.707,0.0,0
1581606597.974,-914.062,15.137,23.438000000000002,-85.93799999999996,0.0,0
1581606597.978,-1000.0,9.277000000000001,26.855,-57.617,0.0,0
1581606597.982,-222.168,4.883,26.366999999999997,-40.527,0.0,0
1581606597.986,-968.262,10.742,24.414,-46.387,0.0,0
1581606597.99,993.6519999999999,20.508000000000006,27.344,-56.64100000000001,0.0,0
1581606598.0070002,968.75,19.531,26.366999999999997,-60.059,0.0,0
1581606598.0110002,-992.676,20.508000000000006,26.366999999999997,-44.434,0.0,0
1581606598.015,999.512,35.156,25.391,-59.082,0.0,0
1581606598.019,999.512,38.574,27.831999999999997,-71.777,0.0,0
1581606598.0229998,999.512,33.203,27.344,-66.406,0.0,0
1581606598.0270002,999.512,27.831999999999997,25.391,-76.172,0.0,0
1581606598.0310001,999.512,22.461,30.273000000000003,-81.543,0.0,0
1581606598.034,999.512,27.344,27.344,-74.707,0.0,0
1581606598.0379999,999.512,35.156,20.996,-69.824,0.0,0
1581606598.042,999.512,39.062,28.32,-75.684,0.0,0
1581606598.046,999.512,30.761999999999997,37.598,-70.312,0.0,0
1581606598.05,999.512,20.996,33.691,-65.43,0.0,0
1581606598.052,999.512,26.366999999999997,27.344,-69.824,0.0,0
1581606598.056,999.512,31.738000000000003,29.296999999999997,-58.593999999999994,0.0,0
1581606598.06,999.512,33.203,35.156,-47.852,0.0,0
1581606598.064,999.512,37.109,34.668,-60.059,0.0,0
1581606598.0679998,999.512,36.621,32.715,-59.082,0.0,0
1581606598.072,999.512,31.738000000000003,36.133,-47.852,0.0,0
1581606598.076,999.512,22.461,34.18,-55.176,0.0,0
1581606598.079,999.512,23.438000000000002,30.761999999999997,-73.73,0.0,0
1581606598.083,999.512,29.296999999999997,25.879,-65.43,0.0,0
1581606598.0870001,999.512,26.855,19.043,-63.477,0.0,0
1581606598.091,999.512,24.414,30.761999999999997,-59.082,0.0,0
1581606598.095,999.512,24.901999999999997,45.898,-55.176,0.0,0
1581606598.0970001,999.512,33.691,47.363,-43.945,0.0,0
1581606598.101,999.512,33.203,36.133,-39.551,0.0,0
1581606598.105,999.512,21.484,30.273000000000003,-64.941,0.0,0
1581606598.109,999.512,21.97300000000001,27.831999999999997,-78.125,0.0,0
1581606598.113,999.512,28.809,27.344,-65.43,0.0,0
1581606598.117,999.512,36.133,33.691,-33.691,0.0,0
1581606598.121,999.512,43.457,31.738000000000003,-48.34,0.0,0
1581606598.1239998,999.512,43.945,31.25,-68.848,0.0,0
1581606598.1279998,999.512,36.133,37.109,-71.289,0.0,0
1581606598.1320002,999.512,22.461,37.598,-57.617,0.0,2
1581606598.1360002,999.512,22.461,37.598,-40.039,0.0,0
1581606598.14,999.512,30.273000000000003,38.574,-57.129,0.0,0
1581606598.1420002,999.512,29.296999999999997,37.109,-75.684,0.0,0
1581606598.1460001,999.512,22.949,28.32,-58.105,0.0,0
1581606598.15,999.512,19.043,24.901999999999997,-47.363,0.0,0
1581606598.154,999.512,23.926,29.296999999999997,-58.105,0.0,0
1581606598.158,-998.047,31.738000000000003,24.414,-56.64100000000001,0.0,0
1581606598.1620002,986.328,33.691,26.366999999999997,-54.688,0.0,0
1581606598.1660001,-989.258,21.97300000000001,28.809,-62.988,0.0,0
1581606598.169,984.863,13.672,20.02,-63.477,0.0,0
1581606598.1729999,557.129,19.043,20.508000000000006,-61.035,0.0,0
1581606598.177,594.238,26.366999999999997,26.366999999999997,-72.266,0.0,0
1581606598.181,-61.035,27.831999999999997,32.227,-65.43,0.0,0
1581606598.185,-1000.0,19.043,34.668,-72.266,0.0,0
1581606598.187,-911.133,10.254000000000001,31.738000000000003,-77.148,0.0,0
1581606598.191,-1000.0,8.301,33.691,-71.289,0.0,0
1581606598.195,-673.828,13.184000000000001,24.414,-62.5,0.0,0
1581606598.199,320.801,13.184000000000001,21.97300000000001,-62.012,0.0,0
1581606598.2029998,-213.86700000000002,13.184000000000001,25.879,-77.148,0.0,0
1581606598.207,-1000.0,13.184000000000001,27.831999999999997,-56.152,0.0,0
1581606598.211,-952.637,13.184000000000001,36.133,-44.922,0.0,0
1581606598.214,-958.4960000000001,16.602,35.645,-53.223,0.0,0
1581606598.218,-976.562,16.113,33.203,-42.48,0.0,0
1581606598.2220001,-972.168,12.695,36.621,-46.875,0.0,0
1581606598.226,-972.168,3.906,36.621,-50.293,0.0,0
1581606598.23,-972.168,-4.395,32.227,-49.316,0.0,0
1581606598.232,-972.168,5.371,31.738000000000003,-60.547,0.0,0
1581606598.236,-972.168,15.625,38.086,-57.617,0.0,0
1581606598.24,-972.168,16.602,41.01600000000001,-58.105,0.0,0
1581606598.244,-972.168,12.207,37.598,-49.805,0.0,0
1581606598.248,-972.168,13.184000000000001,31.738000000000003,-46.875,0.0,0
1581606598.252,-972.168,18.555,27.831999999999997,-45.41,0.0,0
1581606598.256,-972.168,20.996,30.761999999999997,-38.086,0.0,0
1581606598.2589998,-972.6560000000001,20.02,32.715,-63.477,0.0,0
1581606598.2629998,-972.168,14.16,25.391,-70.312,0.0,0
1581606598.2670002,-972.168,25.391,25.879,-60.547,0.0,0
1581606598.2710001,-972.168,27.831999999999997,38.574,-45.898,0.0,0
1581606598.275,-972.168,13.672,44.434,-46.387,0.0,0
1581606598.2770002,-972.168,15.137,34.18,-69.336,0.0,0
1581606598.2810001,-972.168,6.836,28.32,-67.87100000000001,0.0,0
1581606598.285,-972.168,3.906,36.621,-61.035,0.0,0
1581606598.289,-972.168,11.719000000000001,41.992,-55.663999999999994,0.0,0
1581606598.293,-972.168,12.695,42.48,-39.551,0.0,0
1581606598.2970002,-972.168,20.508000000000006,43.945,-39.062,0.0,0
1581606598.301,-972.168,16.113,43.457,-66.895,0.0,0
1581606598.304,-972.168,12.695,41.992,-76.66,0.0,0
1581606598.3079998,-972.168,15.625,38.086,-58.593999999999994,0.0,0
1581606598.312,-972.168,10.254000000000001,34.668,-45.41,0.0,0
1581606598.316,-972.168,11.719000000000001,37.109,-46.875,0.0,0
1581606598.32,-972.168,17.09,36.133,-47.852,0.0,0
1581606598.323,-972.168,13.672,38.574,-31.25,0.0,0
1581606598.3270001,-972.168,9.766,38.574,-35.156,0.0,0
1581606598.331,-972.168,13.672,38.574,-44.434,0.0,0
1581606598.335,-972.168,19.043,41.992,-48.828,0.0,0
1581606598.339,-972.168,18.066,39.062,-54.688,0.0,0
1581606598.343,-972.168,16.602,36.133,-33.691,0.0,0
1581606598.3470001,-972.168,13.672,30.761999999999997,-47.363,0.0,0
1581606598.35,-972.168,11.719000000000001,27.344,-63.965,0.0,0
1581606598.3539999,-972.168,8.301,27.831999999999997,-39.062,0.0,0
1581606598.3579998,-972.168,4.395,34.668,-24.414,0.0,0
1581606598.3620002,-972.168,3.906,28.809,-36.621,0.0,0
1581606598.3660002,-972.168,-2.93,17.578,-48.828,0.0,0
1581606598.383,-972.168,-0.488,22.949,-57.129,0.0,0
1581606598.387,-972.168,12.207,25.879,-60.547,0.0,0
1581606598.391,-972.168,18.066,25.391,-51.27,0.0,0
1581606598.395,-972.6560000000001,17.578,22.949,-49.805,0.0,0
1581606598.399,-956.543,12.695,26.366999999999997,-41.504,0.0,0
1581606598.4029999,-1000.0,15.625,31.25,-30.273000000000003,0.0,0
1581606598.407,-761.23,20.508000000000006,29.296999999999997,-43.457,0.0,0
1581606598.41,-670.41,16.602,17.578,-51.27,0.0,0
1581606598.414,-976.562,8.789,16.602,-37.109,0.0,0
1581606598.418,-1000.0,8.789,24.901999999999997,-39.551,0.0,0
1581606598.4220002,-843.75,18.555,30.761999999999997,-48.34,0.0,0
1581606598.426,-639.648,19.043,35.645,-55.176,0.0,0
1581606598.428,-885.2539999999997,15.625,32.715,-64.941,0.0,0
1581606598.4320002,-945.312,17.09,30.761999999999997,-56.152,0.0,0
1581606598.436,-728.5160000000003,17.578,31.25,-52.733999999999995,0.0,0
1581606598.44,-528.809,15.137,32.715,-47.852,0.0,0
1581606598.444,-711.426,5.859,24.414,-43.457,0.0,0
1581606598.448,-995.605,3.906,23.926,-40.039,0.0,0
1581606598.4520001,-966.797,7.812,31.25,-45.898,0.0,0
1581606598.455,-960.449,9.766,29.785,-71.289,0.0,0
1581606598.4589999,-990.2339999999999,12.695,31.25,-60.059,0.0,0
1581606598.4629998,-912.5980000000001,20.996,27.831999999999997,-48.828,0.0,0
1581606598.467,-867.188,24.414,23.926,-40.039,0.0,0
1581606598.471,-972.6560000000001,17.578,29.296999999999997,-35.645,0.0,0
1581606598.4729998,-978.5160000000001,16.602,33.203,-50.293,0.0,0
1581606598.4770002,-946.7769999999999,18.555,30.273000000000003,-57.129,0.0,0
1581606598.481,-978.0269999999999,18.066,29.296999999999997,-42.48,0.0,0
1581606598.485,-831.543,20.02,34.668,-38.574,0.0,0
1581606598.4889998,148.92600000000004,21.97300000000001,38.086,-52.246,0.0,0
1581606598.4929998,989.258,24.901999999999997,37.109,-53.223,0.0,0
1581606598.4970002,989.7460000000001,25.391,37.109,-50.78100000000001,0.0,0
1581606598.5,980.957,13.672,33.691,-49.316,0.0,0
1581606598.504,-995.605,13.672,27.344,-66.895,0.0,0
1581606598.508,999.512,23.438000000000002,29.785,-57.617,0.0,0
1581606598.512,999.512,23.926,29.296999999999997,-40.039,0.0,0
1581606598.516,999.512,24.901999999999997,24.901999999999997,-39.062,0.0,0
1581606598.518,999.512,23.438000000000002,21.97300000000001,-49.805,0.0,0
1581606598.522,999.512,18.555,17.578,-60.059,0.0,0
1581606598.526,-998.047,20.996,23.926,-37.109,0.0,0
1581606598.53,987.305,22.949,25.879,-39.062,0.0,0
1581606598.534,945.801,9.766,21.484,-51.27,0.0,0
1581606598.5379999,-835.938,10.742,18.555,-56.152,0.0,0
1581606598.542,-36.133,23.438000000000002,20.996,-59.57,0.0,0
1581606598.545,-880.3710000000003,11.719000000000001,19.531,-53.223,0.0,0
1581606598.549,621.582,19.043,14.648,-63.965,0.0,0
1581606598.553,-899.414,32.227,19.043,-62.988,0.0,0
1581606598.5570002,938.965,28.32,22.949,-49.316,0.0,0
1581606598.561,-992.676,32.227,22.949,-54.199,0.0,0
1581606598.563,999.512,31.738000000000003,20.996,-42.968999999999994,0.0,0
1581606598.5670002,999.512,34.18,20.508000000000006,-36.621,0.0,0
1581606598.571,999.512,36.621,29.296999999999997,-42.968999999999994,0.0,0
1581606598.575,999.512,34.668,34.18,-30.273000000000003,0.0,0
1581606598.579,999.512,33.691,29.785,-51.758,0.0,0
1581606598.583,999.512,33.203,30.761999999999997,-59.082,0.0,0
1581606598.5870001,999.512,28.809,31.738000000000003,-37.598,0.0,0
1581606598.59,999.512,25.391,33.691,-41.01600000000001,0.0,0
1581606598.5939999,999.512,21.97300000000001,32.715,-57.129,0.0,0
1581606598.5979998,999.512,20.02,33.203,-39.062,0.0,0
1581606598.6020002,999.512,24.414,31.25,-15.137,0.0,0
1581606598.606,999.512,21.484,25.391,-37.109,0.0,0
1581606598.6079998,999.512,14.16,26.366999999999997,-62.012,0.0,0
1581606598.6120002,999.512,15.625,22.949,-59.082,0.0,0
1581606598.6160002,999.512,18.555,21.97300000000001,-46.875,0.0,0
1581606598.62,999.512,20.996,25.391,-39.551,0.0,0
1581606598.6239998,999.512,24.414,21.97300000000001,-43.457,0.0,0
1581606598.6279998,999.512,26.855,21.484,-45.898,0.0,0
1581606598.6320002,999.512,26.366999999999997,18.066,-45.41,0.0,0
1581606598.635,999.512,22.461,14.16,-57.617,0.0,0
1581606598.639,999.512,23.438000000000002,20.996,-56.64100000000001,0.0,0
1581606598.643,999.512,18.066,30.273000000000003,-51.27,0.0,0
1581606598.647,999.512,14.648,24.901999999999997,-62.988,0.0,0
1581606598.651,999.512,24.414,14.16,-51.758,0.0,0
1581606598.6529999,999.512,33.203,13.672,-43.945,0.0,0
1581606598.657,999.512,33.691,22.949,-47.363,0.0,0
1581606598.661,999.512,24.901999999999997,29.785,-39.551,0.0,0
1581606598.665,999.512,22.461,29.296999999999997,-64.453,0.0,0
1581606598.669,-996.0939999999999,29.296999999999997,29.785,-60.547,0.0,0
1581606598.6729999,979.492,37.598,33.691,-46.387,0.0,0
1581606598.677,979.492,26.855,36.621,-56.64100000000001,0.0,0
1581606598.68,-967.773,21.97300000000001,34.18,-46.875,0.0,0
1581606598.684,-83.984,22.949,33.691,-55.176,0.0,0
1581606598.688,-1000.0,13.672,29.785,-63.477,0.0,0
1581606598.6920002,-931.6410000000001,17.09,23.438000000000002,-38.574,0.0,0
1581606598.696,-919.922,21.484,18.066,-37.598,0.0,0
1581606598.698,-388.184,17.09,12.207,-54.199,0.0,0
1581606598.7020001,484.375,12.207,21.484,-70.312,0.0,0
1581606598.706,961.914,11.719000000000001,27.831999999999997,-67.383,0.0,0
1581606598.71,-972.168,15.625,30.761999999999997,-60.059,0.0,0
1581606598.714,653.809,21.97300000000001,34.18,-59.57,0.0,0
1581606598.718,603.0269999999998,24.414,28.809,-68.359,0.0,0
1581606598.7220001,-974.6089999999999,26.366999999999997,28.32,-63.477,0.0,0
1581606598.725,-997.559,30.761999999999997,28.809,-46.387,0.0,0
1581606598.7289999,987.793,29.296999999999997,27.344,-45.898,0.0,0
1581606598.7329998,-998.535,22.949,29.785,-39.062,0.0,0
1581606598.7370002,999.512,28.32,35.156,-37.598,0.0,0
1581606598.7410002,999.512,30.761999999999997,37.598,-54.199,0.0,0
1581606598.758,999.512,26.366999999999997,31.738000000000003,-56.64100000000001,0.0,0
1581606598.762,999.512,28.32,25.879,-41.992,0.0,0
1581606598.766,999.512,19.043,26.366999999999997,-24.414,0.0,0
1581606598.77,999.512,14.16,33.691,-30.761999999999997,0.0,0
1581606598.774,999.512,25.879,41.504,-27.831999999999997,0.0,0
1581606598.7779999,999.512,32.715,41.504,-33.203,0.0,0
1581606598.782,999.512,37.598,33.691,-53.71100000000001,0.0,0
1581606598.785,999.512,39.062,30.273000000000003,-58.593999999999994,0.0,0
1581606598.789,999.512,40.039,31.25,-68.359,0.0,0
1581606598.793,999.512,38.086,27.831999999999997,-52.246,0.0,0
1581606598.7970002,999.512,33.691,27.831999999999997,-53.71100000000001,0.0,0
1581606598.801,999.512,28.32,29.296999999999997,-64.453,0.0,0
1581606598.803,999.512,24.901999999999997,26.855,-47.363,0.0,0
1581606598.8070002,-990.2339999999999,23.438000000000002,32.227,-45.898,0.0,0
1581606598.811,942.8710000000001,20.02,31.25,-40.527,0.0,0
1581606598.815,-923.828,15.625,19.531,-32.715,0.0,0
1581606598.819,692.383,9.766,21.97300000000001,-41.992,0.0,0
1581606598.823,-664.551,7.812,23.438000000000002,-31.738000000000003,0.0,0
1581606598.8270001,-1000.0,9.766,29.296999999999997,-34.18,0.0,0
1581606598.83,-917.9689999999999,9.766,37.109,-45.898,0.0,0
1581606598.8339999,-981.445,11.719000000000001,33.691,-20.996,0.0,0
1581606598.8379998,-972.168,12.695,34.18,-41.01600000000001,0.0,0
1581606598.842,-972.168,10.254000000000001,28.809,-63.965,0.0,0
1581606598.846,-972.168,16.602,23.926,-42.968999999999994,0.0,0
1581606598.8479998,-972.168,20.996,27.344,-43.457,0.0,0
1581606598.8520002,-972.168,13.184000000000001,23.926,-58.105,0.0,0
1581606598.856,-972.168,14.16,20.02,-57.617,0.0,0
1581606598.86,-972.168,12.695,18.555,-48.34,0.0,0
1581606598.8639998,-972.168,-0.977,20.02,-66.406,0.0,0
1581606598.8679998,-972.168,9.277000000000001,24.901999999999997,-71.289,0.0,0
1581606598.8720002,-972.168,22.949,26.366999999999997,-57.617,0.0,0
1581606598.875,-972.168,26.366999999999997,23.438000000000002,-62.988,0.0,0
1581606598.879,-972.168,21.484,20.996,-49.316,0.0,0
1581606598.883,-972.168,11.719000000000001,25.879,-54.199,0.0,0
1581606598.887,-976.562,4.883,25.879,-56.152,0.0,0
1581606598.891,-953.613,-3.418,22.461,-43.945,0.0,0
1581606598.893,-965.82,-0.488,28.32,-50.293,0.0,0
1581606598.897,-916.5039999999999,6.348,25.879,-44.922,0.0,0
1581606598.901,19.531,14.648,23.926,-53.71100000000001,0.0,0
1581606598.905,966.309,23.438000000000002,24.901999999999997,-66.895,0.0,0
1581606598.909,994.6289999999999,27.344,28.32,-47.852,0.0,0
1581606598.9129999,977.539,32.227,32.227,-42.968999999999994,0.0,0
1581606598.917,-995.117,33.203,27.344,-62.988,0.0,0
1581606598.92,999.512,24.414,21.484,-48.34,0.0,0
1581606598.924,999.512,22.461,20.508000000000006,-37.109,0.0,0
1581606598.928,999.512,20.02,26.366999999999997,-36.621,0.0,0
1581606598.9320002,999.512,13.184000000000001,28.809,-26.366999999999997,0.0,0
1581606598.936,999.512,12.207,23.438000000000002,-24.901999999999997,0.0,0
1581606598.937,999.512,18.555,20.996,-46.875,0.0,0
1581606598.941,999.512,23.438000000000002,16.602,-55.663999999999994,0.0,0
1581606598.945,999.512,24.414,24.901999999999997,-46.875,0.0,0
1581606598.949,999.512,24.414,34.18,-61.035,0.0,0
1581606598.9529998,999.512,27.344,31.25,-58.105,0.0,0
1581606598.957,999.512,27.831999999999997,33.691,-53.223,0.0,0
1581606598.961,999.512,28.809,38.086,-48.34,0.0,0
1581606598.964,999.512,27.344,32.227,-48.828,0.0,0
1581606598.968,999.512,23.438000000000002,26.855,-40.039,0.0,0
1581606598.9720001,999.512,28.32,28.32,-43.457,0.0,0
1581606598.976,999.512,31.25,26.855,-61.523,0.0,0
1581606598.98,999.512,31.738000000000003,31.25,-33.691,0.0,0
1581606598.982,999.512,27.831999999999997,32.715,-19.531,0.0,0
1581606598.986,999.512,18.066,28.809,-32.715,0.0,0
1581606598.99,999.512,15.137,28.809,-41.01600000000001,0.0,0
1581606598.994,-1000.0,18.066,24.901999999999997,-40.039,0.0,0
1581606598.998,999.023,20.996,24.901999999999997,-30.273000000000003,0.0,0
1581606599.002,961.426,17.578,28.32,-34.668,0.0,0
1581606599.006,-933.5939999999999,15.625,25.391,-46.875,0.0,0
1581606599.0089998,533.691,19.043,20.996,-43.945,0.0,0
1581606599.0129998,-514.16,20.996,22.949,-50.293,0.0,0
1581606599.0170002,-588.867,24.414,27.344,-40.527,0.0,0
1581606599.0210001,492.18800000000016,27.831999999999997,26.855,-34.18,0.0,0
1581606599.025,-929.199,24.901999999999997,20.02,-40.039,0.0,0
1581606599.042,958.008,16.602,20.508000000000006,-40.039,0.0,0
1581606599.046,997.559,14.648,24.901999999999997,-46.387,0.0,0
1581606599.05,-999.023,20.996,20.996,-58.105,0.0,0
1581606599.054,999.023,25.879,15.137,-66.406,0.0,0
1581606599.0579998,996.0939999999999,27.344,13.184000000000001,-60.059,0.0,0
1581606599.062,-989.258,31.738000000000003,19.531,-46.875,0.0,0
1581606599.066,939.941,29.785,29.785,-41.992,0.0,0
1581606599.069,927.7339999999999,23.438000000000002,26.855,-70.801,0.0,0
1581606599.073,973.145,25.391,21.97300000000001,-72.75399999999998,0.0,0
1581606599.0770001,-950.195,30.761999999999997,19.531,-49.805,0.0,0
1581606599.081,685.059,26.855,14.648,-41.504,0.0,0
1581606599.085,-271.48400000000004,15.137,23.438000000000002,-37.109,0.0,0
1581606599.072,-266.113,17.09,29.785,-44.922,0.0,0
1581606599.076,311.035,19.043,30.761999999999997,-53.223,0.0,0
1581606599.08,-31.738000000000003,18.555,29.296999999999997,-56.64100000000001,0.0,0
1581606599.0839999,-294.922,22.949,24.901999999999997,-64.941,0.0,0
1581606599.0879998,-569.8240000000002,23.438000000000002,27.344,-40.039,0.0,0
1581606599.092,-1000.0,15.137,22.461,-18.555,0.0,0
1581606599.096,-552.734,11.23,22.461,-33.203,0.0,0
1581606599.099,531.738,13.672,29.296999999999997,-51.27,0.0,0
1581606599.103,578.125,18.066,26.855,-41.01600000000001,0.0,0
1581606599.107,147.461,18.066,28.809,-28.32,0.0,0
1581606599.111,259.76599999999996,10.742,28.809,-54.688,0.0,0
1581606599.115,231.445,14.648,20.996,-53.223,0.0,0
1581606599.1320002,-120.117,19.043,22.461,-28.809,0.0,0
1581606599.1360002,-736.328,15.625,22.461,-29.785,0.0,0
1581606599.14,-867.188,23.438000000000002,21.97300000000001,-30.273000000000003,0.0,0
1581606599.144,-802.2460000000003,24.901999999999997,20.996,-38.574,0.0,0
1581606599.1479998,-993.164,19.531,19.531,-40.527,0.0,0
1581606599.1520002,-969.727,18.555,24.414,-32.715,0.0,1
1581606599.1560001,-970.215,17.09,22.461,-50.293,0.0,0
1581606599.159,-972.6560000000001,12.695,21.484,-52.733999999999995,0.0,0
1581606599.1629999,-972.168,9.766,21.97300000000001,-40.527,0.0,0
1581606599.167,-972.168,9.766,15.625,-47.852,0.0,0
1581606599.171,-972.168,8.301,13.672,-63.965,0.0,0
1581606599.175,-972.168,14.16,14.16,-61.035,0.0,0
1581606599.177,-972.168,15.137,15.137,-33.203,0.0,0
1581606599.181,-972.168,6.348,23.438000000000002,-21.97300000000001,0.0,0
1581606599.185,-972.168,6.836,21.484,-47.363,0.0,0
1581606599.189,-972.168,15.625,16.602,-47.852,0.0,0
1581606599.1929998,-972.168,22.461,21.484,-30.761999999999997,0.0,0
1581606599.197,-972.168,21.97300000000001,24.414,-28.32,0.0,0
1581606599.201,-972.168,14.648,26.366999999999997,-12.207,0.0,0
1581606599.204,-972.168,9.277000000000001,20.996,-34.18,0.0,0
1581606599.208,-972.168,13.184000000000001,13.184000000000001,-49.316,0.0,0
1581606599.2120001,-972.168,13.672,18.555,-46.875,0.0,0
1581606599.216,-972.168,13.184000000000001,26.855,-55.176,0.0,0
1581606599.22,-974.1210000000001,13.184000000000001,32.715,-36.133,0.0,0
1581606599.2220001,-959.961,5.859,33.203,-34.18,0.0,0
1581606599.226,-1000.0,-1.465,33.203,-29.296999999999997,0.0,0
1581606599.23,-843.262,0.977,33.203,-29.296999999999997,0.0,0
1581606599.234,-806.1519999999997,6.836,28.809,-41.01600000000001,0.0,0
1581606599.238,-849.6089999999997,6.836,20.02,-30.761999999999997,0.0,0
1581606599.242,-436.035,12.207,21.484,-31.738000000000003,0.0,0
1581606599.246,-567.871,4.883,24.414,-40.039,0.0,0
1581606599.2489998,-492.676,-0.977,22.461,-61.523,0.0,0
1581606599.2529998,138.672,5.859,25.391,-55.663999999999994,0.0,0
1581606599.2570002,797.363,12.207,24.901999999999997,-62.5,0.0,0
1581606599.2610002,-976.074,22.461,23.438000000000002,-51.758,0.0,0
1581606599.265,977.051,22.461,27.831999999999997,-34.18,0.0,0
1581606599.2670002,-998.535,11.23,27.831999999999997,-40.039,0.0,0
1581606599.2710001,999.512,22.461,24.901999999999997,-14.16,0.0,0
1581606599.275,999.512,38.574,25.391,-17.09,0.0,0
1581606599.279,999.512,28.809,29.785,-32.715,0.0,0
1581606599.283,999.512,25.391,30.273000000000003,-41.504,0.0,0
1581606599.2870002,999.512,30.273000000000003,22.461,-53.223,0.0,0
1581606599.2910001,999.512,25.391,20.02,-57.129,0.0,0
1581606599.294,999.512,20.996,20.02,-56.152,0.0,0
1581606599.2979999,999.512,19.043,19.043,-45.41,0.0,0
1581606599.302,-992.676,19.531,20.996,-46.875,0.0,0
1581606599.306,953.613,10.254000000000001,17.09,-44.434,0.0,0
1581606599.31,-951.66,9.766,11.23,-38.574,0.0,0
1581606599.312,785.645,29.785,20.996,-46.875,0.0,0
1581606599.316,-490.23400000000004,32.227,26.855,-52.246,0.0,0
1581606599.32,-1000.0,24.414,23.926,-56.64100000000001,0.0,0
1581606599.324,-773.438,20.508000000000006,29.296999999999997,-40.527,0.0,0
1581606599.3279998,-828.125,17.09,29.296999999999997,-37.598,0.0,0
1581606599.332,-722.168,11.23,21.97300000000001,-46.387,0.0,0
1581606599.336,509.277,4.395,24.901999999999997,-33.203,0.0,0
1581606599.339,-924.316,16.602,28.809,-36.621,0.0,0
1581606599.343,945.312,26.855,30.761999999999997,-31.25,0.0,0
1581606599.3470001,-993.164,28.32,22.461,-25.391,0.0,0
1581606599.351,-997.07,25.879,22.949,-32.227,0.0,0
1581606599.355,731.445,12.207,33.203,-30.273000000000003,0.0,0
1581606599.3579998,818.3589999999997,1.465,29.296999999999997,-39.062,0.0,0
1581606599.3620002,-961.914,9.766,23.926,-54.688,0.0,0
1581606599.3660002,930.176,14.648,20.508000000000006,-67.383,0.0,0
1581606599.37,964.355,15.625,18.555,-44.434,0.0,0
1581606599.3739998,-997.07,26.855,20.508000000000006,-40.527,0.0,0
1581606599.3779998,971.191,31.738000000000003,20.508000000000006,-39.062,0.0,0
1581606599.3820002,964.8439999999999,30.273000000000003,19.531,-11.23,0.0,0
1581606599.385,192.38299999999998,29.785,25.391,-31.738000000000003,0.0,0
1581606599.389,-880.8589999999997,16.602,27.344,-49.316,0.0,0
1581606599.393,-990.7230000000001,6.348,25.879,-27.831999999999997,0.0,0
1581606599.397,-939.453,10.742,28.809,-33.691,0.0,0
1581606599.401,-979.98,9.277000000000001,32.227,-45.898,0.0,0
1581606599.4029999,-972.168,9.277000000000001,32.715,-37.598,0.0,0
1581606599.407,-972.168,20.02,30.761999999999997,-37.598,0.0,0
1581606599.411,-972.168,22.461,30.761999999999997,-49.316,0.0,0
1581606599.415,-972.168,17.578,25.391,-46.875,0.0,0
1581606599.419,-972.168,23.926,25.879,-37.598,0.0,0
1581606599.4229999,-972.168,30.273000000000003,26.366999999999997,-39.551,0.0,0
1581606599.427,-972.168,17.578,21.97300000000001,-49.316,0.0,0
1581606599.43,-972.168,8.301,27.831999999999997,-38.574,0.0,0
1581606599.434,-972.168,12.207,24.901999999999997,-29.296999999999997,0.0,0
1581606599.438,-972.168,8.301,21.484,-52.733999999999995,0.0,0
1581606599.4420002,-972.6560000000001,5.859,24.901999999999997,-70.801,0.0,0
1581606599.446,-976.074,14.16,21.484,-53.223,0.0,0
1581606599.448,-915.5269999999999,16.113,20.508000000000006,-34.18,0.0,0
1581606599.4520001,-1000.0,15.625,25.879,-40.527,0.0,0
1581606599.456,-409.18,17.09,24.901999999999997,-45.41,0.0,0
1581606599.46,884.7660000000003,14.16,22.949,-60.059,0.0,0
1581606599.464,-973.633,5.371,24.901999999999997,-52.246,0.0,0
1581606599.468,958.9839999999999,-4.395,25.879,-27.831999999999997,0.0,0
1581606599.4720001,-992.676,-0.488,24.414,-29.296999999999997,0.0,0
1581606599.475,999.512,15.625,21.97300000000001,-32.227,0.0,0
1581606599.4789999,999.512,22.461,26.366999999999997,-31.25,0.0,0
1581606599.4829998,999.512,20.508000000000006,30.761999999999997,-49.805,0.0,0
1581606599.4870002,999.512,19.043,35.645,-41.992,0.0,0
1581606599.4910002,999.512,18.555,37.598,-17.09,0.0,0
1581606599.508,999.512,11.23,31.738000000000003,-35.645,0.0,0
1581606599.512,999.512,10.742,32.227,-59.57,0.0,0
1581606599.516,999.512,21.97300000000001,28.32,-45.898,0.0,0
1581606599.52,999.512,23.926,25.879,-22.949,0.0,0
1581606599.524,999.512,18.555,28.32,-27.344,0.0,0
1581606599.5279999,999.512,21.97300000000001,24.414,-56.64100000000001,0.0,0
1581606599.532,999.512,23.926,20.508000000000006,-46.875,0.0,0
1581606599.535,999.512,16.113,23.926,-39.062,0.0,0
1581606599.539,999.512,13.184000000000001,23.926,-44.922,0.0,0
1581606599.543,999.512,23.926,20.996,-48.828,0.0,0
1581606599.5470002,999.512,28.32,23.438000000000002,-66.406,0.0,0
1581606599.551,999.512,23.438000000000002,27.344,-61.523,0.0,0
1581606599.553,999.512,20.02,22.949,-36.133,0.0,0
1581606599.5570002,999.512,9.277000000000001,18.555,-44.922,0.0,0
1581606599.561,999.512,8.789,22.461,-61.035,0.0,0
1581606599.565,999.512,11.23,20.996,-61.523,0.0,0
1581606599.569,999.512,3.418,22.461,-48.34,0.0,0
1581606599.573,999.512,0.488,27.344,-47.852,0.0,0
1581606599.5770001,999.512,7.812,28.809,-57.129,0.0,0
1581606599.58,999.512,12.695,17.09,-60.059,0.0,0
1581606599.5839999,999.512,13.184000000000001,13.672,-44.922,0.0,0
1581606599.5879998,999.512,17.578,29.785,-37.598,0.0,0
1581606599.592,999.512,23.438000000000002,36.133,-56.64100000000001,0.0,0
1581606599.596,999.512,27.831999999999997,31.25,-62.988,0.0,0
1581606599.5979998,999.512,26.855,24.414,-56.64100000000001,0.0,0
1581606599.6020002,999.512,23.438000000000002,20.02,-55.663999999999994,0.0,0
1581606599.606,999.512,24.901999999999997,17.578,-45.41,0.0,0
1581606599.61,999.512,20.996,17.578,-46.387,0.0,0
1581606599.6139998,999.512,18.555,21.484,-55.663999999999994,0.0,0
1581606599.6179998,999.512,24.414,19.531,-39.551,0.0,0
1581606599.6220002,-995.605,26.366999999999997,20.508000000000006,-44.434,0.0,0
1581606599.625,935.059,19.043,20.508000000000006,-56.64100000000001,0.0,0
1581606599.629,-874.512,8.789,15.625,-68.848,0.0,0
1581606599.633,357.42199999999997,8.301,18.066,-83.49600000000002,0.0,0
1581606599.637,-958.9839999999999,18.555,23.438000000000002,-64.453,0.0,0
1581606599.641,-982.422,16.602,22.949,-61.523,0.0,0
1581606599.643,-934.57,2.93,19.531,-71.777,0.0,0
1581606599.647,-981.934,0.977,19.043,-75.195,0.0,0
1581606599.651,-972.168,4.395,17.09,-52.733999999999995,0.0,0
1581606599.655,-972.168,4.395,22.949,-45.41,0.0,0
1581606599.659,-972.168,2.441,30.761999999999997,-60.547,0.0,0
1581606599.6629999,-973.145,-1.953,26.855,-41.992,0.0,0
1581606599.667,-968.262,-5.859,24.414,-36.133,0.0,0
1581606599.67,-960.938,-6.348,25.879,-46.875,0.0,0
1581606599.674,-999.512,2.441,26.366999999999997,-50.78100000000001,0.0,0
1581606599.678,-541.504,12.207,24.901999999999997,-49.805,0.0,0
1581606599.6820002,-497.559,9.766,28.32,-47.852,0.0,0
1581606599.686,-1000.0,7.324,25.391,-42.968999999999994,0.0,0
1581606599.688,-972.6560000000001,13.672,23.926,-53.223,0.0,0
1581606599.6920002,-959.961,9.277000000000001,28.32,-59.082,0.0,0
1581606599.696,-974.6089999999999,8.789,25.391,-53.71100000000001,0.0,0
1581606599.7,-972.168,24.901999999999997,18.555,-47.363,0.0,0
1581606599.704,-972.168,28.809,20.996,-41.504,0.0,0
1581606599.708,-972.168,20.02,24.414,-34.18,0.0,0
1581606599.7120001,-972.168,13.672,28.32,-25.391,0.0,0
1581606599.715,-972.168,14.648,26.366999999999997,-35.156,0.0,0
1581606599.7189999,-972.168,20.02,20.508000000000006,-45.41,0.0,0
1581606599.7229998,-975.586,20.508000000000006,25.879,-37.109,0.0,0
1581606599.7270002,-944.336,18.066,31.25,-56.152,0.0,0
1581606599.731,-1000.0,17.09,28.32,-67.383,0.0,0
1581606599.7329998,-823.73,7.812,29.785,-61.035,0.0,0
1581606599.7370002,-100.098,1.953,30.273000000000003,-59.082,0.0,0
1581606599.7410002,-493.652,13.672,25.879,-37.598,0.0,0
1581606599.745,-1000.0,14.648,22.949,-29.296999999999997,0.0,0
1581606599.7489998,-919.922,13.184000000000001,20.02,-57.129,0.0,0
1581606599.7529998,-990.7230000000001,14.16,21.484,-64.453,0.0,0
1581606599.7570002,69.336,1.953,19.531,-40.527,0.0,0
1581606599.76,-925.293,-4.883,14.16,-58.105,0.0,0
1581606599.764,969.238,9.766,10.742,-62.012,0.0,0
1581606599.768,984.863,22.461,9.766,-46.387,0.0,0
1581606599.772,-993.6519999999999,25.391,9.766,-49.316,0.0,0
1581606599.776,948.73,26.366999999999997,7.324,-44.922,0.0,0
1581606599.7779999,-915.039,22.461,15.137,-50.78100000000001,0.0,0
1581606599.782,478.51599999999996,15.625,22.461,-62.012,0.0,0
1581606599.786,-778.809,8.301,16.113,-82.52,0.0,0
1581606599.79,-1000.0,1.465,8.789,-80.078,0.0,0
1581606599.794,-933.105,0.488,8.301,-60.059,0.0,0
1581606599.7979999,-978.5160000000001,4.883,9.277000000000001,-66.406,0.0,0
1581606599.802,-972.6560000000001,12.695,18.066,-72.75399999999998,0.0,0
1581606599.805,-972.168,12.207,22.949,-70.801,0.0,0
1581606599.809,-972.168,4.883,18.555,-65.43,0.0,0
1581606599.813,-972.168,-0.977,13.184000000000001,-62.988,0.0,0
1581606599.8170002,-972.168,2.93,16.113,-72.75399999999998,0.0,0
1581606599.821,-972.168,13.184000000000001,17.09,-69.336,0.0,0
1581606599.823,-972.6560000000001,15.625,10.254000000000001,-59.57,0.0,0
1581606599.8270001,-972.168,8.301,10.254000000000001,-65.43,0.0,0
1581606599.831,-972.168,8.301,12.207,-61.523,0.0,0
1581606599.835,-972.168,16.113,12.695,-48.34,0.0,0
1581606599.839,-972.168,12.695,16.113,-57.129,0.0,0
1581606599.843,-972.168,13.672,13.184000000000001,-72.75399999999998,0.0,0
1581606599.8470001,-972.168,11.23,10.254000000000001,-78.125,0.0,0
1581606599.85,-972.168,3.906,11.719000000000001,-67.383,0.0,0
1581606599.8539999,-972.168,11.719000000000001,9.277000000000001,-53.71100000000001,0.0,0
1581606599.8579998,-972.168,20.508000000000006,13.184000000000001,-44.922,0.0,0
1581606599.8620002,-972.168,22.949,14.648,-38.086,0.0,0
1581606599.8660002,-972.168,23.926,9.766,-37.109,0.0,0
1581606599.883,-972.168,21.97300000000001,7.324,-45.41,0.0,0
1581606599.887,-972.168,6.836,6.836,-59.082,0.0,0
1581606599.891,-972.168,-1.465,7.812,-80.078,0.0,0
1581606599.895,-972.168,1.465,5.371,-86.914,0.0,0
1581606599.899,-972.168,0.488,5.859,-67.383,0.0,0
1581606599.9029999,-972.168,2.93,10.742,-46.875,0.0,0
1581606599.907,-972.168,6.348,6.836,-69.336,0.0,0
1581606599.91,-972.168,4.883,3.906,-83.008,0.0,0
1581606599.914,-972.168,7.324,7.812,-68.848,0.0,0
1581606599.918,-972.168,9.277000000000001,11.23,-73.73,0.0,0
1581606599.9220002,-972.168,3.418,6.348,-90.82,0.0,0
1581606599.926,-972.168,-0.488,-0.488,-92.773,0.0,0
1581606599.928,-972.168,1.465,-0.977,-87.402,0.0,0
1581606599.9320002,-972.168,1.465,2.93,-91.309,0.0,0
1581606599.936,-972.168,2.441,10.742,-98.633,0.0,0
1581606599.94,-972.168,-5.371,11.719000000000001,-98.633,0.0,0
1581606599.944,-972.168,-7.812,9.766,-78.125,0.0,0
1581606599.948,-972.168,-6.348,9.277000000000001,-74.219,0.0,0
1581606599.9520001,-972.168,-3.906,9.277000000000001,-82.52,0.0,0
1581606599.955,-972.168,3.906,13.184000000000001,-86.914,0.0,0
1581606599.9589999,-972.168,5.859,9.277000000000001,-83.49600000000002,0.0,0
1581606599.9629998,-972.168,6.836,7.812,-104.492,0.0,0
1581606599.967,-972.168,4.883,9.766,-99.12100000000001,0.0,0
1581606599.971,-972.168,-0.977,8.789,-83.49600000000002,0.0,0
1581606599.9729998,-972.168,-4.395,8.789,-85.449,0.0,0
1581606599.9770002,-972.168,-5.859,2.93,-88.37899999999998,0.0,0
1581606599.981,-972.168,-3.418,-1.465,-90.33200000000001,0.0,0
1581606599.985,-972.168,-0.977,-0.977,-80.566,0.0,0
1581606599.9889998,-972.168,0.488,-3.906,-79.102,0.0,0
1581606599.9929998,-972.168,2.441,0.977,-62.012,0.0,0
1581606599.9970002,-972.168,2.93,5.371,-70.801,0.0,0
1581606600.0,-972.168,-0.488,1.465,-86.914,0.0,0
1581606600.004,-972.168,-1.465,0.0,-82.52,0.0,0
1581606600.008,-972.168,-1.465,-7.324,-95.215,0.0,0
1581606600.012,-972.168,-3.418,-12.207,-109.863,0.0,0
1581606600.016,-972.168,-7.812,-8.789,-95.70299999999999,0.0,0
1581606600.018,-972.168,-12.207,-6.836,-98.145,0.0,0
1581606600.022,-972.168,-17.578,-11.23,-95.70299999999999,0.0,0
1581606600.026,-972.168,-18.555,-11.719000000000001,-92.773,0.0,0
1581606600.03,-972.168,-8.301,-8.301,-109.863,0.0,0
1581606600.034,-972.168,-0.977,-5.371,-91.79700000000001,0.0,0
1581606600.0379999,-972.168,0.977,-3.418,-85.449,0.0,0
1581606600.042,-972.168,-1.953,-2.441,-88.37899999999998,0.0,0
1581606600.045,-972.168,-6.836,0.488,-71.289,0.0,0
1581606600.049,-972.168,0.0,4.883,-75.684,0.0,0
1581606600.053,-972.168,10.254000000000001,4.883,-85.449,0.0,0
1581606600.0570002,-972.168,9.277000000000001,6.836,-68.359,0.0,0
1581606600.061,-972.168,12.695,10.254000000000001,-73.242,0.0,0
1581606600.063,-972.6560000000001,12.207,2.93,-99.609,0.0,0
1581606600.0670002,-970.215,14.16,-2.441,-100.098,0.0,0
1581606600.071,-968.75,7.324,8.301,-64.941,0.0,0
1581606600.075,-941.895,-10.742,4.883,-77.637,0.0,0
1581606600.079,-788.574,-3.418,-7.324,-102.051,0.0,0
1581606600.083,-468.75,26.855,-0.977,-85.449,0.0,0
1581606600.0870001,-152.344,40.527,6.836,-68.848,0.0,0
1581606600.09,-544.434,22.461,9.277000000000001,-62.988,0.0,0
1581606600.0939999,-1000.0,7.324,2.93,-94.727,0.0,0
1581606600.0979998,-958.008,0.488,4.883,-95.215,0.0,0
1581606600.1020002,-972.6560000000001,-2.93,8.301,-71.777,0.0,0
1581606600.106,-921.875,-4.395,7.324,-72.75399999999998,0.0,0
1581606600.1079998,-1000.0,11.719000000000001,14.16,-62.988,0.0,0
1581606600.1120002,-616.6990000000002,11.23,8.789,-52.246,0.0,0
1581606600.1160002,699.707,-5.371,1.465,-72.266,0.0,0
1581606600.12,-937.988,7.812,-6.836,-74.707,0.0,0
1581606600.1239998,949.707,21.97300000000001,-20.02,-63.477,0.0,0
1581606600.1279998,-993.164,38.086,-10.742,-72.266,0.0,0
1581606600.1320002,999.512,50.293,0.977,-74.707,0.0,0
1581606600.135,999.512,42.968999999999994,0.977,-82.52,0.0,0
1581606600.139,999.512,34.668,-1.465,-65.43,0.0,0
1581606600.143,999.512,33.203,9.277000000000001,-45.41,0.0,0
1581606600.147,999.512,30.761999999999997,19.043,-53.223,0.0,0
1581606600.151,999.512,23.926,17.09,-57.129,0.0,0
1581606600.1520002,999.512,20.02,8.301,-65.43,0.0,0
1581606600.1560001,999.512,21.97300000000001,4.395,-62.5,0.0,0
1581606600.16,999.512,20.996,2.441,-51.758,0.0,0
1581606600.164,999.512,16.602,4.883,-58.105,0.0,0
1581606600.168,999.512,13.672,11.719000000000001,-46.875,0.0,0
1581606600.1720002,999.512,17.09,10.254000000000001,-57.129,0.0,0
1581606600.176,999.512,18.066,5.859,-67.383,0.0,0
1581606600.179,999.512,17.09,7.324,-38.086,0.0,0
1581606600.1829998,999.512,22.461,6.836,-41.992,0.0,0
1581606600.187,-998.047,26.855,6.836,-66.895,0.0,0
1581606600.191,977.539,23.926,8.301,-68.848,0.0,0
1581606600.195,-997.07,20.996,8.301,-63.477,0.0,0
1581606600.197,-928.711,20.02,12.695,-58.105,0.0,0
1581606600.201,158.691,9.277000000000001,13.184000000000001,-50.78100000000001,0.0,0
1581606600.205,380.371,7.324,9.766,-44.922,0.0,0
1581606600.2089999,-861.816,20.508000000000006,10.742,-44.922,0.0,0
1581606600.2129998,954.102,31.25,5.859,-64.941,0.0,0
1581606600.217,-997.559,38.086,3.418,-68.359,0.0,0
1581606600.221,999.512,32.715,6.348,-62.988,0.0,0
1581606600.224,999.512,22.461,5.371,-63.477,0.0,0
1581606600.228,999.512,28.32,2.93,-48.34,0.0,0
1581606600.232,999.512,33.203,-0.488,-65.43,0.0,0
1581606600.236,999.512,32.227,-0.488,-91.79700000000001,0.0,0
1581606600.24,999.512,30.761999999999997,4.395,-84.961,0.0,0
1581606600.2570002,999.512,27.831999999999997,9.766,-64.941,0.0,0
1581606600.2610002,999.512,29.785,15.625,-45.898,0.0,0
1581606600.265,999.512,27.344,15.137,-47.852,0.0,0
1581606600.269,999.512,25.879,1.953,-50.293,0.0,0
1581606600.2729998,999.512,24.414,1.465,-43.457,0.0,0
1581606600.2770002,999.512,21.484,7.812,-49.805,0.0,0
1581606600.2810001,999.512,24.901999999999997,0.977,-64.453,0.0,0
1581606600.284,999.512,31.25,-0.488,-69.336,0.0,0
1581606600.2879999,997.07,29.785,0.0,-72.266,0.0,0
1581606600.292,-997.07,30.273000000000003,2.93,-71.777,0.0,0
1581606600.296,994.1410000000001,29.296999999999997,5.371,-76.172,0.0,0
1581606600.3,883.301,17.09,7.324,-69.824,0.0,0
1581606600.302,-925.7810000000001,16.113,7.812,-72.75399999999998,0.0,0
1581606600.306,76.66,20.02,8.789,-81.055,0.0,0
1581606600.31,-1000.0,13.672,14.16,-77.148,0.0,0
1581606600.314,-872.07,7.812,9.766,-84.473,0.0,0
1581606600.3179998,-1000.0,-2.441,7.324,-80.566,0.0,0
1581606600.322,-396.48400000000004,-1.465,6.348,-73.73,0.0,0
1581606600.326,942.8710000000001,6.348,1.953,-77.148,0.0,0
1581606600.329,-979.0039999999999,24.414,0.977,-68.359,0.0,0
1581606600.333,957.52,38.574,1.465,-81.055,0.0,1
1581606600.3370001,-990.7230000000001,36.133,4.395,-96.68,0.0,0
1581606600.341,999.512,27.344,8.789,-77.637,0.0,0
1581606600.345,999.512,27.831999999999997,10.742,-76.66,0.0,0
1581606600.3470001,999.512,32.227,10.742,-86.914,0.0,0
1581606600.351,999.512,25.879,8.789,-85.93799999999996,0.0,0
1581606600.355,999.512,19.531,-6.348,-77.148,0.0,0
1581606600.359,999.512,22.461,-11.719000000000001,-76.172,0.0,0
1581606600.363,999.512,27.344,-1.465,-75.684,0.0,0
1581606600.367,999.512,29.785,5.371,-70.312,0.0,0
1581606600.371,999.512,26.366999999999997,9.766,-67.87100000000001,0.0,0
1581606600.3739998,999.512,26.366999999999997,8.301,-60.059,0.0,0
1581606600.3779998,999.512,30.761999999999997,4.883,-81.055,0.0,0
1581606600.3820002,999.512,28.32,6.348,-69.824,0.0,0
1581606600.3860002,999.512,32.715,8.301,-63.477,0.0,0
1581606600.39,999.512,39.551,7.324,-79.59,0.0,0
1581606600.3920002,-990.7230000000001,37.109,11.23,-76.66,0.0,0
1581606600.3960001,950.195,31.738000000000003,10.742,-77.148,0.0,0
1581606600.4,-951.172,33.691,9.277000000000001,-68.848,0.0,0
1581606600.404,817.8710000000003,37.598,11.23,-68.359,0.0,0
1581606600.408,-503.418,32.715,2.93,-73.73,0.0,0
1581606600.4120002,-1000.0,23.926,4.883,-65.43,0.0,0
1581606600.4160001,-677.2460000000002,24.414,9.766,-63.477,0.0,0
1581606600.419,-647.9490000000002,23.926,13.672,-81.543,0.0,0
1581606600.4229999,-987.305,14.16,14.648,-83.008,0.0,0
1581606600.427,-983.887,7.324,11.23,-77.637,0.0,0
1581606600.431,-927.2460000000001,16.113,11.719000000000001,-70.312,0.0,0
1581606600.435,-997.559,17.09,10.742,-57.617,0.0,0
1581606600.437,-842.773,13.672,15.625,-59.57,0.0,0
1581606600.441,367.18800000000016,23.438000000000002,10.254000000000001,-55.663999999999994,0.0,0
1581606600.445,-921.875,31.25,9.766,-53.223,0.0,0
1581606600.449,957.0310000000001,35.156,13.672,-74.707,0.0,0
1581606600.4529998,978.5160000000001,31.25,8.301,-91.79700000000001,0.0,0
1581606600.457,-961.426,26.855,14.648,-74.707,0.0,0
1581606600.461,858.887,33.691,22.461,-55.176,0.0,0
1581606600.464,540.5269999999998,33.203,18.066,-62.5,0.0,0
1581606600.468,827.637,23.438000000000002,13.672,-71.777,0.0,0
1581606600.4720001,-963.867,20.508000000000006,12.207,-75.195,0.0,0
1581606600.476,983.398,30.273000000000003,5.859,-83.49600000000002,0.0,0
1581606600.48,-1000.0,32.227,6.348,-71.289,0.0,0
1581606600.482,999.512,25.391,5.859,-81.055,0.0,0
1581606600.486,999.512,30.273000000000003,2.93,-96.191,0.0,0
1581606600.49,999.512,27.344,4.883,-80.566,0.0,0
1581606600.494,999.512,22.949,7.812,-68.359,0.0,0
1581606600.498,999.512,23.926,12.207,-70.801,0.0,0
1581606600.502,999.512,21.484,12.207,-67.87100000000001,0.0,0
1581606600.506,999.512,20.996,14.648,-62.988,0.0,0
1581606600.5089998,999.512,22.949,16.113,-74.219,0.0,0
1581606600.5129998,999.512,28.809,12.207,-72.266,0.0,0
1581606600.5170002,999.512,28.809,9.766,-64.941,0.0,0
1581606600.5210001,999.512,22.949,8.301,-62.5,0.0,0
1581606600.525,999.512,25.391,13.672,-58.593999999999994,0.0,0
1581606600.5279999,999.512,29.785,22.949,-42.968999999999994,0.0,0
1581606600.532,999.512,26.366999999999997,21.484,-34.18,0.0,0
1581606600.536,999.512,29.296999999999997,16.602,-38.574,0.0,0
1581606600.54,999.512,41.992,19.043,-59.57,0.0,0
1581606600.544,999.512,44.922,17.578,-56.152,0.0,0
1581606600.5479999,999.512,38.086,12.207,-50.78100000000001,0.0,0
1581606600.552,999.512,35.156,10.254000000000001,-57.617,0.0,0
1581606600.555,999.512,36.133,8.301,-54.199,0.0,0
1581606600.559,999.512,30.761999999999997,14.16,-47.363,0.0,0
1581606600.563,999.512,28.809,17.09,-57.617,0.0,0
1581606600.5670002,999.512,32.715,16.113,-60.547,0.0,0
1581606600.571,999.512,33.203,21.484,-48.34,0.0,0
1581606600.573,999.512,31.25,18.555,-34.668,0.0,0
1581606600.5770001,-995.117,28.809,17.09,-50.78100000000001,0.0,0
1581606600.581,971.191,27.831999999999997,14.648,-67.87100000000001,0.0,0
1581606600.585,-988.2810000000001,30.761999999999997,18.066,-62.012,0.0,0
1581606600.589,932.1289999999999,29.296999999999997,27.344,-57.129,0.0,0
1581606600.593,-75.684,30.273000000000003,22.461,-53.223,0.0,0
1581606600.5970001,-628.418,27.831999999999997,19.043,-66.406,0.0,0
1581606600.6,78.125,21.484,19.043,-75.195,0.0,0
1581606600.6039999,816.4060000000003,28.32,12.695,-66.406,0.0,0
1581606600.6079998,-961.914,37.598,17.09,-58.593999999999994,0.0,0
1581606600.6120002,859.863,46.875,25.879,-44.922,0.0,0
1581606600.6160002,-288.574,48.828,21.484,-46.875,0.0,0
1581606600.633,-1000.0,39.551,15.625,-62.5,0.0,0
1581606600.637,-934.082,31.25,22.949,-59.082,0.0,0
1581606600.641,-967.285,24.901999999999997,30.273000000000003,-64.453,0.0,0
1581606600.645,-975.586,20.996,19.043,-72.75399999999998,0.0,0
1581606600.649,-972.168,18.555,14.648,-68.359,0.0,0
1581606600.6529999,-972.168,20.996,19.043,-64.941,0.0,0
1581606600.657,-972.168,22.461,20.996,-61.523,0.0,0
1581606600.66,-972.168,20.508000000000006,19.043,-58.105,0.0,0
1581606600.664,-972.168,20.996,11.719000000000001,-62.012,0.0,0
1581606600.668,-972.168,19.043,11.719000000000001,-61.523,0.0,0
1581606600.6720002,-972.168,21.97300000000001,10.742,-57.129,0.0,0
1581606600.676,-972.6560000000001,26.855,12.695,-63.965,0.0,0
1581606600.678,-974.6089999999999,28.809,17.09,-60.547,0.0,0
1581606600.6820002,-937.5,28.809,18.066,-44.434,0.0,0
1581606600.686,-1000.0,28.32,18.555,-48.828,0.0,0
1581606600.69,-596.191,31.25,19.531,-52.246,0.0,0
1581606600.694,1.465,32.715,23.438000000000002,-60.059,0.0,0
1581606600.698,-254.88299999999998,23.926,22.461,-63.477,0.0,0
1581606600.7020001,-46.875,18.066,21.97300000000001,-60.059,0.0,0
1581606600.705,-349.60900000000015,18.555,18.066,-60.059,0.0,0
1581606600.7089999,-1000.0,20.996,14.16,-59.57,0.0,0
1581606600.7129998,-962.8910000000001,29.296999999999997,18.555,-65.43,0.0,0
1581606600.717,-959.4730000000001,39.062,21.97300000000001,-58.593999999999994,0.0,0
1581606600.721,-975.586,40.039,21.484,-47.852,0.0,0
1581606600.7229998,-972.168,41.01600000000001,24.414,-45.898,0.0,0
1581606600.7270002,-972.168,38.086,24.414,-70.312,0.0,0
1581606600.731,-972.168,32.227,19.043,-76.172,0.0,0
1581606600.735,-972.168,27.831999999999997,20.02,-53.71100000000001,0.0,0
1581606600.7389998,-972.168,18.555,24.414,-55.663999999999994,0.0,0
1581606600.7429998,-972.168,29.785,24.414,-51.758,0.0,0
1581606600.7470002,-972.168,40.039,20.508000000000006,-37.109,0.0,0
1581606600.75,-972.168,34.18,19.043,-37.109,0.0,0
1581606600.754,-972.168,22.461,25.879,-66.406,0.0,0
1581606600.758,-972.168,9.766,27.344,-76.66,0.0,0
1581606600.762,-972.168,13.184000000000001,26.366999999999997,-67.383,0.0,0
1581606600.766,-972.168,33.691,23.438000000000002,-69.824,0.0,0
1581606600.768,-972.168,41.01600000000001,17.578,-64.453,0.0,0
1581606600.772,-972.168,30.761999999999997,19.043,-54.688,0.0,0
1581606600.776,-972.168,30.273000000000003,17.09,-58.105,0.0,0
1581606600.78,-972.168,32.227,18.555,-51.27,0.0,0
1581606600.784,-972.168,31.25,27.831999999999997,-32.715,0.0,0
1581606600.7879999,-972.168,30.273000000000003,28.32,-27.831999999999997,0.0,0
1581606600.792,-972.168,23.438000000000002,20.508000000000006,-47.363,0.0,0
1581606600.795,-972.168,23.438000000000002,19.043,-57.129,0.0,0
1581606600.799,-972.168,23.926,23.438000000000002,-68.359,0.0,0
1581606600.803,-972.168,22.949,24.414,-70.312,0.0,0
1581606600.8070002,-972.168,27.831999999999997,23.926,-58.593999999999994,0.0,0
1581606600.811,-972.168,33.691,26.366999999999997,-46.387,0.0,0
1581606600.813,-972.168,24.414,27.344,-35.645,0.0,0
1581606600.8170002,-972.168,12.207,25.879,-66.406,0.0,0
1581606600.821,-972.168,18.555,17.578,-77.148,0.0,0
1581606600.825,-972.168,23.926,13.184000000000001,-56.152,0.0,0
1581606600.829,-972.168,22.461,22.461,-42.968999999999994,0.0,0
1581606600.833,-972.168,19.531,31.738000000000003,-46.875,0.0,0
1581606600.8370001,-977.051,23.438000000000002,27.344,-41.504,0.0,0
1581606600.84,-936.035,34.18,22.949,-40.039,0.0,0
1581606600.8439999,-1000.0,32.227,22.949,-49.805,0.0,0
1581606600.8479998,-733.887,28.809,21.484,-59.57,0.0,0
1581606600.8520002,427.246,38.574,24.414,-76.172,0.0,0
1581606600.856,-955.078,40.527,22.461,-55.176,0.0,0
1581606600.873,967.285,29.296999999999997,20.996,-41.992,0.0,0
1581606600.877,993.6519999999999,18.555,26.366999999999997,-42.48,0.0,0
1581606600.881,-997.559,24.414,23.438000000000002,-43.457,0.0,0
1581606600.885,-999.512,41.504,15.137,-51.27,0.0,0
1581606600.889,995.117,46.875,20.02,-53.71100000000001,0.0,0
1581606600.893,998.535,32.227,28.809,-39.551,0.0,0
1581606600.897,985.84,28.809,32.715,-27.831999999999997,0.0,0
1581606600.9,767.578,40.039,31.25,-52.733999999999995,0.0,0
1581606600.904,562.988,43.457,21.97300000000001,-68.359,0.0,0
1581606600.908,-135.74200000000002,43.945,20.02,-58.593999999999994,0.0,0
1581606600.9120002,-961.426,36.133,18.066,-46.875,0.0,0
1581606600.9160001,-972.6560000000001,31.738000000000003,13.672,-50.293,0.0,0
1581606600.9029999,-951.172,32.227,17.578,-60.059,0.0,0
1581606600.907,-978.0269999999999,27.344,21.97300000000001,-47.363,0.0,0
1581606600.911,-972.168,27.344,21.97300000000001,-38.574,0.0,0
1581606600.915,-972.168,28.32,23.438000000000002,-44.434,0.0,0
1581606600.919,-972.168,31.738000000000003,21.97300000000001,-47.363,0.0,0
1581606600.9229999,-972.168,32.227,16.113,-52.246,0.0,0
1581606600.927,-972.168,32.715,19.043,-57.129,0.0,0
1581606600.93,-972.168,34.18,19.043,-52.246,0.0,0
1581606600.934,-972.168,22.949,14.16,-42.968999999999994,0.0,0
1581606600.938,-972.168,24.901999999999997,10.254000000000001,-38.574,0.0,0
1581606600.9420002,-972.168,36.133,16.113,-46.875,0.0,0
1581606600.946,-972.168,34.668,20.508000000000006,-67.383,0.0,0
1581606600.948,-972.168,27.831999999999997,15.625,-62.012,0.0,0
1581606600.9520001,-972.168,25.391,19.043,-58.105,0.0,0
1581606600.956,-972.168,25.879,27.831999999999997,-52.246,0.0,0
1581606600.96,-972.168,27.344,31.25,-31.738000000000003,0.0,0
1581606600.964,-972.168,25.391,27.344,-31.25,0.0,0
1581606600.968,-972.168,25.879,24.414,-34.668,0.0,0
1581606600.9720001,-972.168,32.715,25.391,-36.133,0.0,0
1581606600.975,-972.168,30.273000000000003,29.785,-51.758,0.0,0
1581606600.9789999,-972.168,25.879,31.25,-46.875,0.0,0
1581606600.9829998,-972.168,20.996,24.414,-44.434,0.0,0
1581606600.9870002,-972.168,19.531,20.02,-57.617,0.0,0
1581606600.9910002,-972.168,15.625,22.461,-56.64100000000001,0.0,0
1581606601.008,-972.168,8.789,20.996,-62.5,0.0,0
1581606601.012,-972.168,16.602,18.066,-63.965,0.0,0
1581606601.016,-972.168,22.949,18.555,-53.71100000000001,0.0,0
1581606601.02,-972.168,27.831999999999997,12.695,-51.758,0.0,0
1581606601.024,-972.168,37.598,9.277000000000001,-56.64100000000001,0.0,0
1581606601.0279999,-972.168,43.457,18.066,-51.758,0.0,0
1581606601.032,-972.168,37.109,26.366999999999997,-50.293,0.0,0
1581606601.035,-972.168,22.949,27.344,-58.593999999999994,0.0,0
1581606601.039,-972.168,24.414,24.901999999999997,-70.312,0.0,0
1581606601.043,-971.68,27.831999999999997,22.461,-77.637,0.0,0
1581606601.0470002,-972.6560000000001,16.113,29.296999999999997,-73.73,0.0,0
1581606601.051,-972.6560000000001,12.695,28.32,-62.5,0.0,0
1581606601.053,-964.8439999999999,27.344,21.484,-52.246,0.0,0
1581606601.0570002,-968.75,33.203,23.926,-49.805,0.0,0
1581606601.061,-973.633,29.785,21.97300000000001,-48.828,0.0,0
1581606601.065,-972.168,33.691,17.578,-46.875,0.0,0
1581606601.069,-956.543,36.133,20.02,-54.199,0.0,0
1581606601.073,-998.535,28.32,20.02,-59.082,0.0,0
1581606601.0770001,-833.4960000000003,21.484,16.113,-55.663999999999994,0.0,0
1581606601.08,-378.906,16.602,17.09,-49.805,0.0,0
1581606601.0839999,-577.148,-2.441,26.855,-28.32,0.0,0
1581606601.0879998,-1000.0,-8.789,25.391,-48.34,0.0,0
1581606601.092,-891.602,7.324,11.719000000000001,-84.961,0.0,0
1581606601.096,-899.9019999999997,24.901999999999997,10.254000000000001,-65.918,0.0,0
1581606601.0979998,-987.793,35.645,17.09,-50.293,0.0,0
1581606601.1020002,-968.75,37.598,13.672,-46.387,0.0,0
1581606601.106,-972.168,32.227,17.09,-51.758,0.0,0
1581606601.11,-971.68,28.32,26.366999999999997,-48.34,0.0,0
1581606601.1139998,-974.1210000000001,30.273000000000003,19.043,-52.246,0.0,0
1581606601.1179998,-965.82,33.203,17.09,-52.733999999999995,0.0,0
1581606601.1220002,-956.055,23.926,12.207,-40.527,0.0,0
1581606601.125,-979.0039999999999,13.672,10.254000000000001,-48.828,0.0,0
1581606601.129,-944.336,24.414,19.043,-79.59,0.0,0
1581606601.133,-692.8710000000003,34.18,28.32,-77.148,0.0,0
1581606601.137,-708.9839999999997,30.761999999999997,28.32,-53.223,0.0,0
1581606601.141,-970.703,25.879,20.508000000000006,-63.965,0.0,0
1581606601.143,-974.1210000000001,22.949,14.648,-66.895,0.0,0
1581606601.147,-956.055,25.391,13.672,-52.246,0.0,0
1581606601.151,-990.7230000000001,21.484,16.113,-45.898,0.0,0
1581606601.155,-788.086,20.508000000000006,20.508000000000006,-33.203,0.0,0
1581606601.159,-531.25,24.414,20.508000000000006,-47.363,0.0,0
1581606601.1629999,-477.051,17.09,20.02,-60.547,0.0,0
1581606601.167,-661.6210000000002,9.277000000000001,13.672,-44.922,0.0,0
1581606601.17,-809.082,15.625,13.184000000000001,-42.48,0.0,0
1581606601.174,-860.352,15.625,18.555,-43.945,0.0,0
1581606601.178,-983.887,5.371,12.207,-42.48,0.0,0
1581606601.1820002,-963.867,9.277000000000001,16.113,-45.41,0.0,0
1581606601.186,-983.398,19.531,23.438000000000002,-32.227,0.0,0
1581606601.188,-854.492,30.273000000000003,25.879,-33.203,0.0,0
1581606601.1920002,-782.227,35.156,27.344,-49.316,0.0,0
1581606601.196,-370.11699999999996,33.203,25.879,-38.574,0.0,0
1581606601.2,524.414,32.227,23.438000000000002,-44.922,0.0,0
1581606601.204,660.1560000000002,29.296999999999997,16.113,-52.733999999999995,0.0,0
1581606601.208,84.473,24.901999999999997,13.672,-46.875,0.0,0
1581606601.2120001,-305.176,20.996,22.461,-36.621,0.0,0
1581606601.215,-188.477,24.901999999999997,26.366999999999997,-33.203,0.0,0
1581606601.2189999,-140.625,29.785,14.648,-41.504,0.0,0
1581606601.2229998,-291.992,31.25,5.371,-38.574,0.0,0
1581606601.2270002,70.312,33.203,9.277000000000001,-54.199,0.0,0
1581606601.231,256.348,31.25,20.02,-68.359,0.0,0
1581606601.232,538.086,28.32,21.97300000000001,-53.71100000000001,0.0,0
1581606601.236,977.539,33.203,21.97300000000001,-63.477,0.0,0
1581606601.24,-998.047,37.109,24.901999999999997,-61.523,0.0,0
1581606601.244,988.2810000000001,32.227,20.996,-49.805,0.0,0
1581606601.248,-998.047,29.296999999999997,21.97300000000001,-53.223,0.0,0
1581606601.252,999.512,23.438000000000002,24.414,-49.316,0.0,0
1581606601.256,999.512,26.366999999999997,25.879,-49.316,0.0,0
1581606601.2589998,999.512,35.156,20.996,-59.082,0.0,0
1581606601.2629998,999.512,27.831999999999997,16.113,-53.71100000000001,0.0,0
1581606601.2670002,999.512,29.785,22.949,-53.71100000000001,0.0,0
1581606601.2710001,999.512,41.992,28.809,-47.852,0.0,0
1581606601.275,999.512,41.01600000000001,29.296999999999997,-32.227,0.0,0
1581606601.2770002,999.512,35.645,26.855,-31.738000000000003,0.0,0
1581606601.2810001,999.512,31.738000000000003,26.366999999999997,-43.945,0.0,0
1581606601.285,-999.512,25.879,26.855,-44.434,0.0,0
1581606601.289,977.539,29.785,24.414,-27.831999999999997,0.0,0
1581606601.293,-958.4960000000001,34.668,25.879,-23.438000000000002,0.0,0
1581606601.2970002,781.25,39.551,31.738000000000003,-31.738000000000003,0.0,0
1581606601.301,308.594,41.992,33.203,-31.738000000000003,0.0,0
1581606601.304,329.102,42.968999999999994,26.366999999999997,-43.457,0.0,0
1581606601.3079998,290.527,41.01600000000001,22.461,-41.01600000000001,0.0,0
1581606601.312,-130.859,38.086,23.438000000000002,-37.598,0.0,0
1581606601.316,-357.91,36.133,21.484,-42.48,0.0,0
1581606601.32,-157.227,32.715,21.484,-39.551,0.0,0
1581606601.322,424.316,34.18,22.949,-41.504,0.0,0
1581606601.326,970.215,32.715,21.484,-48.828,0.0,0
1581606601.33,999.023,32.715,17.578,-52.246,0.0,0
1581606601.3339999,985.352,40.039,14.16,-66.895,0.0,0
1581606601.3379998,-997.07,41.01600000000001,17.09,-74.219,0.0,0
1581606601.342,999.512,42.968999999999994,14.16,-68.848,0.0,0
1581606601.346,999.512,42.968999999999994,11.23,-68.848,0.0,0
1581606601.349,999.512,33.203,15.625,-63.965,0.0,0
1581606601.353,999.512,30.273000000000003,29.785,-49.316,0.0,0
1581606601.357,999.512,41.01600000000001,36.133,-49.805,0.0,0
1581606601.361,999.512,42.48,32.227,-56.64100000000001,0.0,0
1581606601.365,999.512,39.551,29.785,-62.5,0.0,0
1581606601.3820002,999.512,44.922,24.414,-50.78100000000001,0.0,0
1581606601.3860002,999.512,43.457,21.484,-28.32,0.0,0
1581606601.39,999.512,36.621,20.996,-39.551,0.0,0
1581606601.394,-999.023,32.715,21.484,-49.316,0.0,0
1581606601.3979998,982.422,27.344,13.184000000000001,-36.133,0.0,0
1581606601.4020002,-986.328,31.738000000000003,17.09,-36.133,0.0,0
1581606601.4060001,849.6089999999997,33.203,25.879,-39.062,0.0,0
1581606601.409,248.535,26.366999999999997,26.366999999999997,-31.25,0.0,1
1581606601.4129999,-351.56199999999984,24.901999999999997,26.855,-41.01600000000001,0.0,0
1581606601.417,-480.957,27.831999999999997,24.901999999999997,-34.18,0.0,0
1581606601.421,-387.695,35.156,22.949,-36.621,0.0,0
1581606601.425,-628.418,35.645,30.273000000000003,-36.621,0.0,0
1581606601.427,-932.617,23.438000000000002,34.668,-35.156,0.0,0
1581606601.431,-923.34,24.901999999999997,27.831999999999997,-46.875,0.0,0
1581606601.435,-891.113,37.109,26.855,-42.48,0.0,0
1581606601.439,-875.488,40.039,29.296999999999997,-38.574,0.0,0
1581606601.4429998,-937.5,36.621,32.227,-38.574,0.0,0
1581606601.447,-966.309,30.273000000000003,35.156,-54.199,0.0,0
1581606601.451,-876.953,24.901999999999997,30.761999999999997,-49.805,0.0,0
1581606601.454,-942.383,21.484,26.366999999999997,-40.527,0.0,0
1581606601.458,-982.91,25.391,26.366999999999997,-57.617,0.0,0
1581606601.4620001,-966.797,38.086,27.344,-64.941,0.0,0
1581606601.466,-973.633,37.598,25.391,-65.918,0.0,0
1581606601.47,-973.145,33.691,23.926,-48.828,0.0,0
1581606601.4720001,-958.4960000000001,25.391,20.02,-53.71100000000001,0.0,0
1581606601.476,-995.605,14.648,19.043,-72.266,0.0,0
1581606601.48,-863.2810000000003,19.043,24.901999999999997,-40.527,0.0,0
1581606601.484,-515.625,21.97300000000001,26.366999999999997,-34.668,0.0,0
1581606601.488,-683.5939999999998,22.949,25.879,-45.41,0.0,0
1581606601.492,-914.062,28.809,29.296999999999997,-35.645,0.0,0
1581606601.496,-788.574,28.32,22.949,-25.879,0.0,0
1581606601.4989998,-769.5310000000003,22.949,18.066,-23.438000000000002,0.0,0
1581606601.5029998,-677.7339999999998,29.785,24.414,-43.457,0.0,0
1581606601.5070002,242.676,37.598,20.996,-56.152,0.0,0
1581606601.5110002,-960.938,43.457,21.484,-54.199,0.0,0
1581606601.515,979.492,38.574,22.461,-47.852,0.0,0
1581606601.5170002,985.84,33.203,18.066,-45.41,0.0,0
1581606601.5210001,-996.582,29.296999999999997,16.113,-64.453,0.0,0
1581606601.525,999.512,29.296999999999997,15.137,-53.223,0.0,0
1581606601.529,999.512,32.715,18.555,-50.78100000000001,0.0,0
1581606601.533,999.512,25.879,18.555,-54.199,0.0,0
1581606601.5370002,999.512,22.461,20.508000000000006,-25.879,0.0,0
1581606601.5410001,999.512,30.761999999999997,25.879,-40.527,0.0,0
1581606601.544,999.512,39.551,24.901999999999997,-54.199,0.0,0
1581606601.5479999,999.512,38.086,20.508000000000006,-47.363,0.0,0
1581606601.552,999.512,28.809,21.97300000000001,-44.922,0.0,0
1581606601.556,999.512,34.668,22.949,-40.527,0.0,0
1581606601.56,999.512,42.968999999999994,26.366999999999997,-41.01600000000001,0.0,0
1581606601.562,999.512,40.527,32.227,-34.668,0.0,0
1581606601.566,999.512,36.621,28.809,-32.227,0.0,0
1581606601.57,999.512,27.831999999999997,21.97300000000001,-41.504,0.0,0
1581606601.574,999.512,23.438000000000002,22.949,-42.968999999999994,0.0,0
1581606601.5779998,999.512,26.366999999999997,23.438000000000002,-34.668,0.0,0
1581606601.582,999.512,25.879,24.901999999999997,-35.156,0.0,0
1581606601.586,999.512,25.879,18.555,-41.504,0.0,0
1581606601.589,999.512,22.949,17.09,-67.87100000000001,0.0,0
1581606601.593,999.512,23.438000000000002,16.602,-68.848,0.0,0
1581606601.5970001,999.512,27.344,2.441,-49.805,0.0,0
1581606601.601,999.512,27.831999999999997,5.371,-54.199,0.0,0
1581606601.605,999.512,33.691,16.602,-46.387,0.0,0
1581606601.6079998,999.512,39.062,16.113,-62.988,0.0,0
1581606601.6120002,999.512,27.344,20.508000000000006,-51.27,0.0,0
1581606601.6160002,999.512,17.578,23.438000000000002,-41.504,0.0,0
1581606601.62,999.512,27.831999999999997,26.366999999999997,-50.293,0.0,0
1581606601.6239998,999.512,38.574,26.366999999999997,-45.41,0.0,0
1581606601.6279998,999.512,38.574,21.97300000000001,-29.785,0.0,0
1581606601.6320002,999.512,30.273000000000003,18.066,-19.531,0.0,0
1581606601.635,999.512,22.949,14.648,-32.227,0.0,0
1581606601.639,999.512,28.32,11.719000000000001,-34.18,0.0,0
1581606601.643,999.512,35.156,16.113,-34.18,0.0,0
1581606601.647,999.512,28.32,28.32,-37.109,0.0,0
1581606601.651,999.512,23.438000000000002,29.785,-28.32,0.0,0
1581606601.6529999,999.512,24.901999999999997,25.879,-33.203,0.0,0
1581606601.657,999.512,19.531,28.32,-47.363,0.0,0
1581606601.661,999.512,21.484,29.296999999999997,-57.617,0.0,0
1581606601.665,999.512,28.809,26.855,-43.945,0.0,0
1581606601.669,999.512,30.273000000000003,22.461,-33.203,0.0,0
1581606601.6729999,999.512,27.831999999999997,22.949,-30.761999999999997,0.0,0
1581606601.677,999.512,29.785,28.809,-32.715,0.0,0
1581606601.68,999.512,35.645,28.32,-41.992,0.0,0
1581606601.684,999.512,30.273000000000003,30.761999999999997,-34.18,0.0,0
1581606601.688,999.023,32.227,33.203,-33.203,0.0,0
1581606601.6920002,999.512,34.18,25.879,-42.48,0.0,0
1581606601.696,993.6519999999999,27.344,21.484,-43.457,0.0,0
1581606601.698,-999.023,18.555,26.855,-31.738000000000003,0.0,0
1581606601.7020001,885.742,17.578,30.761999999999997,-26.855,0.0,0
1581606601.706,799.316,27.344,34.18,-37.598,0.0,0
1581606601.71,958.4960000000001,34.668,33.691,-21.97300000000001,0.0,0
1581606601.714,-988.77,30.761999999999997,34.18,-20.996,0.0,0
1581606601.718,992.676,26.366999999999997,33.691,-30.761999999999997,0.0,0
1581606601.7220001,-999.023,31.25,28.32,-43.945,0.0,0
1581606601.725,995.117,28.32,30.761999999999997,-51.27,0.0,0
1581606601.7289999,-999.023,26.855,30.273000000000003,-37.109,0.0,0
1581606601.7329998,959.4730000000001,30.761999999999997,28.32,-30.273000000000003,0.0,0
1581606601.7370002,810.059,28.809,36.133,-40.039,0.0,0
1581606601.7410002,480.469,29.785,38.086,-48.828,0.0,0
1581606601.758,239.74599999999998,32.715,30.761999999999997,-40.039,0.0,0
1581606601.762,376.465,28.809,27.831999999999997,-40.039,0.0,0
1581606601.766,244.62900000000002,27.344,28.809,-43.457,0.0,0
1581606601.77,-146.484,28.809,30.273000000000003,-40.039,0.0,0
1581606601.774,189.94099999999997,28.32,35.156,-24.901999999999997,0.0,0
1581606601.7779999,707.0310000000003,29.785,35.156,-36.133,0.0,0
1581606601.782,799.805,30.761999999999997,27.831999999999997,-68.359,0.0,0
1581606601.785,945.801,29.785,23.438000000000002,-55.176,0.0,0
1581606601.789,994.1410000000001,28.32,19.043,-42.48,0.0,0
1581606601.793,-996.0939999999999,30.273000000000003,15.137,-50.78100000000001,0.0,0
1581606601.7970002,729.492,25.391,17.578,-47.363,0.0,0
1581606601.801,69.336,20.996,18.066,-50.293,0.0,0
1581606601.803,-368.652,22.461,12.207,-44.434,0.0,0
1581606601.8070002,-465.332,20.508000000000006,7.812,-28.809,0.0,0
1581606601.811,-431.64099999999996,22.461,13.184000000000001,-29.296999999999997,0.0,0
1581606601.815,-367.676,30.273000000000003,20.508000000000006,-44.434,0.0,0
1581606601.819,285.645,29.296999999999997,17.09,-61.035,0.0,0
1581606601.823,989.7460000000001,23.438000000000002,8.301,-70.312,0.0,0
1581606601.8270001,995.117,16.113,6.348,-53.71100000000001,0.0,0
1581606601.83,982.91,20.996,13.184000000000001,-41.992,0.0,0
1581606601.8339999,-996.582,33.691,16.113,-43.457,0.0,0
1581606601.8379998,999.512,30.761999999999997,17.09,-46.875,0.0,0
1581606601.842,999.512,26.855,17.09,-54.199,0.0,0
1581606601.846,-997.559,27.831999999999997,22.949,-41.504,0.0,0
1581606601.8479998,982.422,26.366999999999997,28.32,-34.18,0.0,0
1581606601.8520002,-992.676,23.926,26.855,-45.898,0.0,0
1581606601.856,904.297,27.831999999999997,25.391,-41.992,0.0,0
1581606601.86,267.09,27.344,25.879,-43.945,0.0,0
1581606601.8639998,-407.715,21.97300000000001,20.508000000000006,-40.527,0.0,0
1581606601.8679998,-778.809,14.648,24.414,-24.414,0.0,0
1581606601.8720002,-964.8439999999999,7.812,26.855,-31.25,0.0,0
1581606601.875,-969.238,18.066,24.901999999999997,-46.875,0.0,0
1581606601.879,-968.75,27.344,25.391,-64.453,0.0,0
1581606601.883,-973.633,19.531,18.555,-73.242,0.0,0
1581606601.887,-972.6560000000001,10.742,20.02,-50.78100000000001,0.0,0
1581606601.891,-974.1210000000001,7.324,23.926,-40.039,0.0,0
1581606601.893,-953.613,4.883,21.484,-50.78100000000001,0.0,0
1581606601.897,-991.699,5.859,23.926,-50.78100000000001,0.0,0
1581606601.901,-806.1519999999997,8.301,24.901999999999997,-49.316,0.0,0
1581606601.905,-205.078,11.719000000000001,26.366999999999997,-48.34,0.0,0
1581606601.909,311.52299999999997,19.043,20.508000000000006,-45.41,0.0,0
1581606601.9129999,482.91,25.879,15.137,-43.945,0.0,0
1581606601.917,520.996,27.344,17.578,-52.733999999999995,0.0,0
1581606601.92,818.3589999999997,27.831999999999997,16.113,-54.688,0.0,0
1581606601.924,966.797,30.273000000000003,14.16,-47.363,0.0,0
1581606601.928,954.102,34.668,12.207,-43.945,0.0,0
1581606601.9320002,966.309,25.391,13.672,-58.105,0.0,0
1581606601.936,552.734,13.184000000000001,14.648,-73.242,0.0,0
1581606601.938,267.09,14.648,14.648,-67.383,0.0,0
1581606601.9420002,619.141,15.625,20.02,-55.176,0.0,0
1581606601.946,966.797,15.625,12.695,-41.504,0.0,0
1581606601.95,997.559,16.602,9.766,-31.25,0.0,0
1581606601.954,992.188,16.602,17.578,-35.645,0.0,0
1581606601.958,990.2339999999999,13.672,20.508000000000006,-56.64100000000001,0.0,0
1581606601.9620001,-989.258,18.066,26.855,-39.551,0.0,0
1581606601.965,895.02,13.672,26.855,-41.01600000000001,0.0,0
1581606601.9689999,571.7769999999998,4.395,26.855,-65.43,0.0,0
1581606601.9729998,530.273,14.648,23.926,-37.109,0.0,0
1581606601.9770002,572.754,10.254000000000001,20.508000000000006,-30.761999999999997,0.0,0
1581606601.981,226.074,4.883,19.531,-62.988,0.0,0
1581606601.9829998,-33.203,16.113,11.23,-56.152,0.0,0
1581606601.9870002,272.461,20.02,12.207,-48.34,0.0,0
1581606601.9910002,572.754,20.508000000000006,30.761999999999997,-52.733999999999995,0.0,0
1581606601.995,634.766,22.949,37.109,-45.898,0.0,0
1581606601.9989998,601.0740000000002,14.648,36.133,-35.645,0.0,0
1581606602.0029998,573.242,-2.93,35.645,-21.484,0.0,0
1581606602.0070002,317.383,6.836,31.738000000000003,-21.97300000000001,0.0,0
1581606602.01,-142.09,23.438000000000002,36.133,-36.621,0.0,0
1581606602.014,-342.773,18.555,35.156,-39.551,0.0,0
1581606602.018,-502.93,16.602,29.785,-53.223,0.0,0
1581606602.022,-778.32,22.461,25.391,-48.828,0.0,0
1581606602.026,-951.172,20.02,20.508000000000006,-39.551,0.0,0
1581606602.0279999,-973.145,20.02,22.949,-41.992,0.0,0
1581606602.032,-967.285,16.602,29.785,-35.645,0.0,0
1581606602.036,-973.633,11.23,32.227,-33.203,0.0,0
1581606602.04,-972.168,9.766,23.438000000000002,-48.34,0.0,0
1581606602.044,-972.168,1.465,21.484,-54.199,0.0,0
1581606602.0479999,-972.168,-0.977,26.855,-54.688,0.0,0
1581606602.052,-972.168,6.348,30.761999999999997,-53.71100000000001,0.0,0
1581606602.055,-972.168,7.324,25.879,-57.129,0.0,0
1581606602.059,-972.6560000000001,4.395,20.508000000000006,-57.617,0.0,0
1581606602.063,-972.168,7.812,22.949,-42.968999999999994,0.0,0
1581606602.0670002,-972.168,5.371,21.484,-36.621,0.0,0
1581606602.071,-972.168,4.883,20.508000000000006,-59.082,0.0,0
1581606602.073,-972.168,10.254000000000001,19.043,-60.059,0.0,0
1581606602.0770001,-972.168,8.301,16.113,-48.828,0.0,0
1581606602.081,-972.168,5.859,20.02,-39.551,0.0,0
1581606602.085,-972.168,15.137,19.043,-27.344,0.0,0
1581606602.089,-973.633,17.578,17.09,-45.898,0.0,0
1581606602.093,-969.238,16.602,19.531,-33.691,0.0,0
1581606602.0970001,-954.102,11.719000000000001,20.996,-29.296999999999997,0.0,0
1581606602.1,-1000.0,6.836,21.484,-60.547,0.0,0
1581606602.1039999,-598.145,6.348,21.97300000000001,-65.43,0.0,0
1581606602.1079998,-1.465,15.137,23.438000000000002,-41.01600000000001,0.0,0
1581606602.1120002,311.035,24.901999999999997,26.855,-37.109,0.0,0
1581606602.1160002,696.7769999999997,14.648,27.831999999999997,-47.363,0.0,0
1581606602.133,964.355,15.137,26.855,-52.733999999999995,0.0,0
1581606602.137,-997.07,27.831999999999997,27.831999999999997,-51.27,0.0,0
1581606602.141,991.211,29.785,27.344,-47.363,0.0,0
1581606602.145,-998.535,28.32,27.831999999999997,-42.968999999999994,0.0,0
1581606602.149,999.512,29.785,32.715,-33.691,0.0,0
1581606602.1529999,999.512,24.414,32.715,-33.203,0.0,0
1581606602.157,999.512,20.508000000000006,31.738000000000003,-27.344,0.0,0
1581606602.16,999.512,20.996,35.645,-35.156,0.0,0
1581606602.164,999.512,18.555,37.598,-34.18,0.0,0
1581606602.168,999.512,20.02,31.738000000000003,-38.086,0.0,0
1581606602.1720002,999.512,20.508000000000006,28.809,-56.152,0.0,0
1581606602.176,999.512,14.16,21.484,-55.663999999999994,0.0,0
1581606602.178,999.512,15.137,15.137,-60.059,0.0,0
1581606602.1820002,-998.535,22.949,18.066,-46.387,0.0,0
1581606602.186,983.887,27.831999999999997,25.391,-41.992,0.0,0
1581606602.19,-993.164,26.855,28.809,-44.434,0.0,0
1581606602.194,924.805,17.09,19.531,-54.199,0.0,0
1581606602.198,336.426,8.301,12.207,-71.777,0.0,0
1581606602.2020001,-52.246,5.859,9.766,-74.707,0.0,0
1581606602.205,270.02,9.277000000000001,14.16,-74.219,0.0,0
1581606602.2089999,776.367,18.555,13.184000000000001,-73.242,0.0,0
1581606602.2129998,944.824,22.461,9.277000000000001,-64.453,0.0,0
1581606602.217,905.273,12.207,18.555,-59.082,0.0,0
1581606602.221,-968.262,8.301,23.438000000000002,-56.152,0.0,0
1581606602.2229998,835.449,20.508000000000006,23.926,-60.547,0.0,0
1581606602.2270002,680.664,14.16,19.043,-77.637,0.0,0
1581606602.231,72.75399999999998,10.254000000000001,12.695,-61.523,0.0,0
1581606602.235,-934.082,14.648,20.02,-35.156,0.0,0
1581606602.2389998,-988.77,11.719000000000001,26.366999999999997,-26.366999999999997,0.0,0
1581606602.2429998,-879.395,10.254000000000001,25.391,-22.461,0.0,0
1581606602.2470002,-399.414,17.578,34.668,-21.97300000000001,0.0,0
1581606602.25,246.582,24.901999999999997,38.086,-26.366999999999997,0.0,0
1581606602.254,590.332,20.508000000000006,32.227,-34.668,0.0,0
1581606602.258,751.953,19.531,33.691,-46.387,0.0,0
1581606602.262,944.824,32.715,33.691,-41.01600000000001,0.0,0
1581606602.266,-990.7230000000001,41.504,31.25,-17.578,0.0,0
1581606602.268,992.188,37.109,35.156,-13.672,0.0,0
1581606602.272,-1000.0,26.366999999999997,33.203,-40.527,0.0,0
1581606602.276,-999.512,20.508000000000006,28.809,-53.71100000000001,0.0,0
1581606602.28,993.164,17.09,28.32,-58.105,0.0,0
1581606602.284,993.6519999999999,16.602,25.391,-54.688,0.0,0
1581606602.2879999,-999.512,19.531,27.831999999999997,-44.922,0.0,0
1581606602.292,999.023,24.414,29.785,-45.41,0.0,0
1581606602.295,-1000.0,24.901999999999997,31.25,-43.945,0.0,0
1581606602.299,995.605,17.09,31.25,-66.406,0.0,0
1581606602.303,995.117,11.23,29.785,-66.406,0.0,0
1581606602.3070002,-999.023,9.766,29.785,-41.504,0.0,0
1581606602.311,753.9060000000003,12.207,25.391,-47.852,0.0,0
1581606602.313,581.055,12.695,20.996,-78.125,0.0,0
1581606602.3170002,625.977,12.695,22.461,-84.473,0.0,0
1581606602.321,629.883,15.625,31.738000000000003,-47.852,0.0,0
1581606602.325,874.512,19.531,39.551,-33.691,0.0,0
1581606602.329,-983.887,20.996,32.715,-45.41,0.0,0
1581606602.333,989.7460000000001,18.066,31.738000000000003,-34.18,0.0,0
1581606602.3370001,999.023,21.484,34.18,-25.879,0.0,0
1581606602.34,999.512,25.391,29.785,-41.992,0.0,0
1581606602.3439999,999.512,25.391,28.809,-43.945,0.0,0
1581606602.3479998,999.512,19.531,27.344,-44.922,0.0,0
1581606602.3520002,999.512,15.137,26.855,-58.593999999999994,0.0,0
1581606602.356,993.164,22.949,31.738000000000003,-52.246,0.0,0
1581606602.3579998,-989.258,31.738000000000003,30.273000000000003,-42.968999999999994,0.0,0
1581606602.3620002,922.363,31.25,22.949,-55.663999999999994,0.0,0
1581606602.3660002,753.418,20.02,28.32,-49.316,0.0,0
1581606602.37,723.145,18.066,29.296999999999997,-46.875,0.0,0
1581606602.3739998,801.758,27.831999999999997,19.531,-43.945,0.0,0
1581606602.3779998,805.664,25.391,22.461,-33.691,0.0,0
1581606602.3820002,807.1289999999997,26.366999999999997,34.18,-38.086,0.0,0
1581606602.385,919.922,41.01600000000001,35.645,-43.457,0.0,0
1581606602.389,-983.887,47.852,29.296999999999997,-37.109,0.0,0
1581606602.393,951.172,41.992,28.809,-26.855,0.0,0
1581606602.397,938.965,30.761999999999997,35.156,-30.273000000000003,0.0,0
1581606602.401,-995.605,26.366999999999997,36.133,-27.831999999999997,0.0,0
1581606602.4029999,999.512,35.645,34.18,-34.18,0.0,0
1581606602.407,997.559,34.668,34.18,-42.968999999999994,0.0,0
1581606602.411,999.512,23.926,35.645,-48.828,0.0,0
1581606602.415,999.512,13.184000000000001,26.366999999999997,-43.457,0.0,0
1581606602.419,999.512,2.93,27.831999999999997,-32.715,0.0,0
1581606602.4229999,999.512,17.578,36.621,-16.113,0.0,0
1581606602.427,999.512,33.691,25.391,-25.879,0.0,0
1581606602.43,999.512,35.645,25.879,-51.27,0.0,0
1581606602.434,-1000.0,30.273000000000003,33.691,-41.992,0.0,0
1581606602.438,996.0939999999999,24.901999999999997,25.879,-35.645,0.0,0
1581606602.4420002,-994.1410000000001,19.531,15.137,-43.457,0.0,0
1581606602.446,982.91,20.508000000000006,25.391,-41.504,0.0,0
1581606602.447,935.547,16.602,33.691,-41.504,0.0,0
1581606602.451,977.539,6.836,35.156,-43.945,0.0,0
1581606602.455,-996.0939999999999,1.465,32.227,-52.733999999999995,0.0,0
1581606602.4589999,987.793,0.977,28.809,-53.223,0.0,0
1581606602.4629998,-994.6289999999999,10.254000000000001,32.227,-40.039,0.0,0
1581606602.467,916.992,16.113,36.133,-35.156,0.0,0
1581606602.471,521.484,21.97300000000001,39.062,-46.387,0.0,0
1581606602.474,273.926,34.18,36.133,-58.593999999999994,0.0,0
1581606602.478,224.12099999999998,34.18,30.273000000000003,-49.316,0.0,0
1581606602.482,-41.504,26.855,20.02,-41.01600000000001,0.0,0
1581606602.486,-130.371,21.484,21.97300000000001,-39.551,0.0,0
1581606602.49,62.012,20.996,28.809,-36.133,0.0,0
1581606602.5070002,392.09,22.949,29.296999999999997,-32.715,0.0,0
1581606602.5110002,731.445,20.996,27.344,-30.273000000000003,0.0,0
1581606602.515,924.805,19.531,20.996,-32.227,0.0,0
1581606602.519,979.98,23.438000000000002,21.484,-51.27,0.0,0
1581606602.5229998,-990.7230000000001,25.879,25.391,-55.663999999999994,0.0,0
1581606602.5270002,372.07,24.414,27.344,-49.316,0.0,0
1581606602.5310001,-341.309,20.508000000000006,25.879,-46.387,0.0,0
1581606602.534,-13.184000000000001,16.602,25.391,-39.551,0.0,0
1581606602.5379999,281.25,23.926,18.066,-39.062,0.0,0
1581606602.542,337.402,25.879,17.09,-39.062,0.0,0
1581606602.546,260.742,19.531,28.809,-41.01600000000001,0.0,0
1581606602.55,-64.453,24.414,36.133,-41.504,0.0,0
1581606602.552,-610.84,31.738000000000003,33.203,-37.109,0.0,0
1581606602.556,-984.863,17.09,23.438000000000002,-28.32,0.0,0
1581606602.56,-962.4019999999999,7.812,22.949,-31.738000000000003,0.0,0
1581606602.564,-963.3789999999999,11.719000000000001,28.32,-48.34,0.0,0
1581606602.5679998,-972.6560000000001,12.695,31.25,-49.805,0.0,0
1581606602.572,-933.105,5.859,30.761999999999997,-47.363,0.0,0
1581606602.576,-789.062,7.812,29.785,-38.574,0.0,0
1581606602.579,-647.461,15.625,24.901999999999997,-30.761999999999997,0.0,0
1581606602.583,-655.273,8.789,23.926,-50.293,0.0,0
1581606602.5870001,-701.172,8.301,23.926,-68.359,0.0,2
1581606602.591,-809.57,12.207,20.02,-47.852,0.0,0
1581606602.595,-933.5939999999999,10.742,27.344,-38.086,0.0,0
1581606602.5970001,-969.238,16.602,31.25,-26.855,0.0,0
1581606602.601,-971.68,19.531,19.043,-37.109,0.0,0
1581606602.605,-971.191,12.695,16.113,-54.199,0.0,0
1581606602.609,-972.6560000000001,6.348,31.25,-31.738000000000003,0.0,0
1581606602.613,-975.0980000000001,2.93,39.062,-38.574,0.0,0
1581606602.617,-948.242,3.906,39.551,-52.246,0.0,0
1581606602.621,-1000.0,9.277000000000001,41.504,-43.457,0.0,0
1581606602.6239998,-825.684,11.23,43.945,-29.296999999999997,0.0,0
1581606602.6279998,-90.82,11.23,39.551,-31.25,0.0,0
1581606602.6320002,-98.633,9.277000000000001,37.109,-42.968999999999994,0.0,0
1581606602.6360002,-514.648,18.555,37.109,-39.551,0.0,0
1581606602.64,-118.652,26.855,28.809,-45.41,0.0,0
1581606602.6420002,259.277,31.25,26.366999999999997,-51.27,0.0,0
1581606602.6460001,284.668,32.227,32.715,-38.574,0.0,0
1581606602.65,-60.547,26.366999999999997,31.738000000000003,-20.508000000000006,0.0,0
1581606602.654,-592.285,17.09,26.366999999999997,-21.484,0.0,0
1581606602.658,-666.0160000000002,13.184000000000001,26.855,-31.738000000000003,0.0,0
1581606602.6620002,-424.316,22.949,33.203,-40.527,0.0,0
1581606602.6660001,-232.91,26.366999999999997,36.133,-50.78100000000001,0.0,0
1581606602.669,-149.414,25.391,33.203,-52.733999999999995,0.0,0
1581606602.6729999,-123.535,27.831999999999997,33.203,-46.387,0.0,0
1581606602.677,-28.32,22.461,31.25,-41.992,0.0,0
1581606602.681,-39.062,15.137,32.227,-41.01600000000001,0.0,0
1581606602.685,16.113,19.531,31.738000000000003,-49.805,0.0,0
1581606602.687,208.49599999999998,24.901999999999997,27.831999999999997,-53.223,0.0,0
1581606602.691,296.387,20.02,27.344,-43.945,0.0,0
1581606602.695,488.77,13.672,31.25,-32.715,0.0,0
1581606602.699,765.137,21.97300000000001,37.109,-38.574,0.0,0
1581606602.7029998,796.387,22.461,39.062,-43.457,0.0,0
1581606602.707,690.43,16.602,25.879,-45.898,0.0,0
1581606602.711,887.695,18.555,17.578,-53.223,0.0,0
1581606602.714,-981.445,20.508000000000006,23.438000000000002,-42.968999999999994,0.0,0
1581606602.718,990.7230000000001,18.066,21.484,-56.152,0.0,0
1581606602.7220001,999.023,18.555,20.02,-55.176,0.0,0
1581606602.726,999.512,20.02,25.391,-32.227,0.0,0
1581606602.73,999.512,14.648,19.531,-35.645,0.0,0
1581606602.732,999.512,13.184000000000001,19.531,-44.434,0.0,0
1581606602.736,999.512,17.09,22.949,-48.34,0.0,0
1581606602.74,999.512,20.508000000000006,20.02,-56.64100000000001,0.0,0
1581606602.744,999.512,26.855,26.855,-47.363,0.0,0
1581606602.748,999.512,31.738000000000003,32.227,-44.434,0.0,0
1581606602.752,999.512,31.25,29.296999999999997,-42.48,0.0,0
1581606602.756,999.512,31.25,28.809,-32.227,0.0,0
1581606602.7589998,999.512,25.391,30.273000000000003,-45.41,0.0,0
1581606602.7629998,999.512,20.508000000000006,28.32,-49.805,0.0,0
1581606602.7670002,999.512,20.508000000000006,29.296999999999997,-30.273000000000003,0.0,0
1581606602.7710001,999.512,27.344,33.691,-22.949,0.0,0
1581606602.775,999.512,32.715,38.574,-31.25,0.0,0
1581606602.7779999,999.512,30.761999999999997,36.621,-24.901999999999997,0.0,0
1581606602.782,999.512,23.438000000000002,34.18,-22.949,0.0,0
1581606602.786,999.512,16.113,28.809,-32.715,0.0,0
1581606602.79,999.512,19.043,19.043,-29.785,0.0,0
1581606602.794,999.512,19.531,24.414,-24.414,0.0,0
1581606602.7979999,999.512,19.043,30.273000000000003,-30.273000000000003,0.0,0
1581606602.802,999.512,19.531,28.809,-50.78100000000001,0.0,0
1581606602.805,999.512,18.555,27.344,-57.617,0.0,0
1581606602.809,995.117,20.508000000000006,28.809,-28.809,0.0,0
1581606602.813,-994.6289999999999,21.484,31.25,-16.602,0.0,0
1581606602.8170002,946.7769999999999,23.438000000000002,27.344,-26.855,0.0,0
1581606602.821,831.055,21.484,22.461,-24.901999999999997,0.0,0
1581606602.823,718.262,25.879,20.508000000000006,-16.113,0.0,0
1581606602.8270001,824.2189999999997,29.785,21.484,-24.901999999999997,0.0,0
1581606602.831,-986.816,28.809,20.508000000000006,-42.968999999999994,0.0,0
1581606602.835,909.18,29.296999999999997,26.366999999999997,-48.34,0.0,0
1581606602.839,791.5039999999997,23.926,31.25,-48.34,0.0,0
1581606602.843,827.637,18.066,32.715,-47.363,0.0,0
1581606602.8470001,624.023,20.508000000000006,29.785,-56.152,0.0,0
1581606602.85,229.00400000000002,18.066,29.785,-51.27,0.0,0
1581606602.8539999,-108.887,15.137,32.227,-46.387,0.0,0
1581606602.8579998,-196.77700000000002,18.066,29.785,-55.663999999999994,0.0,0
1581606602.8620002,-439.45300000000003,12.695,20.508000000000006,-61.523,0.0,0
1581606602.8660002,-948.242,8.789,8.789,-60.547,0.0,0
1581606602.883,-981.445,9.277000000000001,15.625,-44.922,0.0,0
1581606602.887,-956.543,13.672,22.949,-56.152,0.0,0
1581606602.891,-976.074,9.277000000000001,21.97300000000001,-67.383,0.0,0
1581606602.895,-972.6560000000001,0.488,28.32,-57.129,0.0,0
1581606602.899,-972.168,10.254000000000001,30.273000000000003,-39.062,0.0,0
1581606602.9029999,-972.168,21.484,29.296999999999997,-27.831999999999997,0.0,0
1581606602.907,-972.168,9.277000000000001,30.761999999999997,-33.691,0.0,0
1581606602.91,-972.168,2.93,27.344,-28.32,0.0,0
1581606602.914,-972.168,13.672,27.344,-28.809,0.0,0
1581606602.918,-972.168,16.113,24.901999999999997,-41.01600000000001,0.0,0
1581606602.9220002,-972.168,19.043,20.02,-48.828,0.0,0
1581606602.926,-972.168,14.648,16.602,-45.898,0.0,0
1581606602.928,-972.168,9.277000000000001,13.184000000000001,-42.968999999999994,0.0,0
1581606602.9320002,-972.168,12.207,17.09,-37.598,0.0,0
1581606602.936,-972.168,14.16,19.531,-32.715,0.0,0
1581606602.94,-972.168,14.16,20.508000000000006,-37.109,0.0,0
1581606602.944,-972.168,4.883,20.508000000000006,-61.523,0.0,0
1581606602.948,-972.168,-0.977,22.461,-62.5,0.0,0
1581606602.9520001,-972.168,3.418,23.438000000000002,-53.223,0.0,0
1581606602.955,-972.168,2.93,21.484,-75.684,0.0,0
1581606602.9589999,-972.168,6.836,20.996,-64.941,0.0,0
1581606602.9629998,-972.168,6.836,19.531,-48.34,0.0,0
1581606602.967,-972.168,1.953,20.02,-54.688,0.0,0
1581606602.971,-972.6560000000001,6.836,17.09,-44.434,0.0,0
1581606602.9729998,-972.168,6.836,15.625,-50.78100000000001,0.0,0
1581606602.9770002,-972.168,5.859,14.648,-50.293,0.0,0
1581606602.981,-972.168,4.883,10.742,-43.457,0.0,0
1581606602.985,-972.168,-2.93,11.719000000000001,-45.898,0.0,0
1581606602.9889998,-972.168,-12.695,14.16,-58.593999999999994,0.0,0
1581606602.9929998,-972.168,-12.695,12.695,-61.523,0.0,0
1581606602.9970002,-972.168,-2.441,8.789,-42.968999999999994,0.0,0
1581606603.0,-972.168,6.836,6.836,-52.246,0.0,0
1581606603.004,-972.168,10.742,9.766,-64.941,0.0,0
1581606603.008,-972.168,12.207,12.207,-63.477,0.0,0
1581606603.012,-972.168,17.09,14.16,-53.223,0.0,0
1581606603.016,-972.168,16.113,11.719000000000001,-38.574,0.0,0
1581606603.018,-972.168,9.766,11.23,-35.156,0.0,0
1581606603.022,-972.168,-1.953,11.23,-45.898,0.0,0
1581606603.026,-972.168,-7.324,9.766,-52.246,0.0,0
1581606603.03,-972.168,4.395,11.719000000000001,-50.293,0.0,0
1581606603.034,-972.168,9.277000000000001,11.23,-42.968999999999994,0.0,0
1581606603.0379999,-972.168,0.488,11.719000000000001,-40.039,0.0,0
1581606603.042,-972.168,1.465,12.207,-52.733999999999995,0.0,0
1581606603.045,-972.168,10.742,10.742,-50.293,0.0,0
1581606603.049,-972.6560000000001,13.184000000000001,12.695,-51.758,0.0,0
1581606603.053,-972.168,5.859,11.719000000000001,-42.48,0.0,0
1581606603.0570002,-965.332,8.301,9.766,-37.598,0.0,0
1581606603.061,-978.0269999999999,17.09,14.16,-58.593999999999994,0.0,0
1581606603.063,-875.488,16.602,12.695,-42.968999999999994,0.0,0
1581606603.0670002,-576.66,9.766,10.254000000000001,-39.062,0.0,0
1581606603.071,-288.086,6.836,14.648,-45.898,0.0,0
1581606603.075,-190.43,17.578,20.996,-35.645,0.0,0
1581606603.079,-315.918,20.508000000000006,20.996,-35.156,0.0,0
1581606603.083,-782.227,4.395,19.531,-27.831999999999997,0.0,0
1581606603.0870001,-1000.0,-3.906,20.996,-38.086,0.0,0
1581606603.09,-952.637,3.418,29.296999999999997,-54.199,0.0,0
1581606603.0939999,-973.633,10.254000000000001,30.761999999999997,-62.012,0.0,0
1581606603.0979998,-972.6560000000001,10.254000000000001,26.366999999999997,-46.875,0.0,0
1581606603.1020002,-972.168,10.742,25.391,-39.551,0.0,0
1581606603.106,-972.168,11.23,23.438000000000002,-52.246,0.0,0
1581606603.1079998,-972.168,4.395,22.949,-40.527,0.0,0
1581606603.1120002,-973.145,11.23,21.484,-37.109,0.0,0
1581606603.1160002,-968.75,18.066,21.484,-47.852,0.0,0
1581606603.12,-976.074,18.555,22.949,-47.363,0.0,0
1581606603.1239998,-967.773,20.02,19.043,-40.039,0.0,0
1581606603.1279998,-890.137,15.625,18.066,-32.227,0.0,0
1581606603.1320002,-930.176,4.395,17.09,-36.621,0.0,0
1581606603.135,-983.887,-1.465,15.137,-55.663999999999994,0.0,0
1581606603.139,-967.773,-3.418,18.066,-62.5,0.0,0
1581606603.143,-972.6560000000001,-5.371,14.648,-46.875,0.0,0
1581606603.147,-972.168,1.465,15.625,-47.852,0.0,0
1581606603.151,-972.168,7.324,18.066,-42.48,0.0,0
1581606603.1529999,-973.633,8.301,15.625,-28.809,0.0,0
1581606603.157,-967.285,5.371,18.066,-41.992,0.0,0
1581606603.161,-971.68,5.859,20.02,-50.78100000000001,0.0,0
1581606603.165,-967.285,7.324,17.578,-44.922,0.0,0
1581606603.169,-749.512,4.883,11.23,-51.758,0.0,0
1581606603.1729999,-582.031,6.348,12.695,-55.176,0.0,0
1581606603.177,-639.648,12.695,10.254000000000001,-57.129,0.0,0
1581606603.18,-593.75,21.484,13.672,-52.246,0.0,0
1581606603.184,-434.57,23.438000000000002,22.461,-53.223,0.0,0
1581606603.188,-284.18,27.344,22.949,-68.359,0.0,0
1581606603.1920002,-189.453,21.484,26.855,-64.941,0.0,0
1581606603.196,-15.137,13.184000000000001,27.831999999999997,-49.316,0.0,0
1581606603.198,161.621,20.02,16.113,-48.34,0.0,0
1581606603.2020001,232.422,30.273000000000003,18.066,-46.875,0.0,0
1581606603.206,256.348,24.901999999999997,27.344,-36.621,0.0,0
1581606603.21,206.543,14.648,23.438000000000002,-35.156,0.0,0
1581606603.214,43.945,14.648,19.043,-42.968999999999994,0.0,0
1581606603.218,-145.996,13.672,19.043,-48.34,0.0,0
1581606603.2220001,-217.773,10.742,21.97300000000001,-50.78100000000001,0.0,0
1581606603.225,-269.531,12.207,24.414,-42.48,0.0,0
1581606603.2289999,-530.273,8.301,20.508000000000006,-58.105,0.0,0
1581606603.2329998,-811.523,-1.465,18.555,-79.102,0.0,0
1581606603.2370002,-948.73,3.906,20.508000000000006,-54.199,0.0,0
1581606603.2410002,-973.145,9.277000000000001,20.508000000000006,-43.945,0.0,0
1581606603.258,-968.262,4.883,26.855,-45.898,0.0,0
1581606603.262,-973.145,4.883,29.296999999999997,-46.875,0.0,0
1581606603.266,-972.168,9.766,31.738000000000003,-49.316,0.0,0
1581606603.27,-972.168,19.531,31.25,-48.828,0.0,0
1581606603.274,-972.168,17.09,28.32,-42.48,0.0,0
1581606603.2779999,-972.168,13.672,26.855,-42.968999999999994,0.0,0
1581606603.282,-972.168,14.648,27.344,-61.035,0.0,0
1581606603.285,-967.773,18.555,25.879,-63.965,0.0,0
1581606603.289,-984.375,16.602,20.996,-60.547,0.0,0
1581606603.293,-895.508,14.648,19.531,-53.223,0.0,0
1581606603.2970002,-799.805,13.184000000000001,19.531,-34.668,0.0,0
1581606603.301,-798.828,10.742,19.531,-27.831999999999997,0.0,0
1581606603.303,-649.414,19.531,20.02,-31.25,0.0,0
1581606603.3070002,-510.254,21.97300000000001,21.484,-31.25,0.0,0
1581606603.311,-451.66,18.066,19.043,-27.344,0.0,0
1581606603.315,-517.09,20.996,22.461,-37.598,0.0,0
1581606603.319,-834.961,18.555,25.391,-37.598,0.0,0
1581606603.323,-984.863,11.719000000000001,24.414,-37.598,0.0,0
1581606603.3270001,-963.3789999999999,13.184000000000001,18.066,-46.875,0.0,0
1581606603.33,-971.191,12.695,12.207,-38.574,0.0,0
1581606603.3339999,-973.145,15.137,13.672,-30.273000000000003,0.0,0
1581606603.3379998,-972.168,21.484,20.996,-34.668,0.0,0
1581606603.342,-972.168,22.461,30.273000000000003,-35.645,0.0,0
1581606603.346,-972.168,23.926,28.32,-39.062,0.0,0
1581606603.3479998,-972.168,20.996,21.97300000000001,-33.203,0.0,0
1581606603.3520002,-972.6560000000001,11.23,28.809,-37.109,0.0,0
1581606603.356,-972.168,9.766,28.809,-53.71100000000001,0.0,0
1581606603.36,-972.168,9.766,20.508000000000006,-46.875,0.0,0
1581606603.3639998,-972.168,5.859,26.366999999999997,-39.062,0.0,0
1581606603.3679998,-972.168,9.277000000000001,26.366999999999997,-44.922,0.0,0
1581606603.3720002,-972.168,11.719000000000001,19.531,-55.663999999999994,0.0,0
1581606603.375,-972.168,12.207,24.901999999999997,-59.57,0.0,0
1581606603.379,-972.168,14.648,27.344,-50.293,0.0,0
1581606603.383,-972.168,12.695,24.901999999999997,-59.082,0.0,0
1581606603.387,-972.168,5.371,23.926,-60.059,0.0,0
1581606603.391,-972.168,3.418,21.97300000000001,-36.133,0.0,0
1581606603.393,-972.168,7.812,20.996,-39.551,0.0,0
1581606603.397,-972.168,9.277000000000001,19.531,-55.663999999999994,0.0,0
1581606603.401,-972.168,8.301,14.648,-47.363,0.0,0
1581606603.405,-974.1210000000001,10.254000000000001,16.113,-31.738000000000003,0.0,0
1581606603.409,-963.867,9.766,21.97300000000001,-43.457,0.0,0
1581606603.4129999,-975.0980000000001,14.16,15.625,-55.663999999999994,0.0,0
1581606603.417,-937.012,17.09,12.207,-49.805,0.0,0
1581606603.42,-614.258,16.113,14.648,-49.805,0.0,0
1581606603.424,-269.531,15.137,16.602,-59.082,0.0,0
1581606603.428,-67.87100000000001,12.695,18.555,-55.176,0.0,0
1581606603.4320002,69.336,15.137,19.043,-58.105,0.0,0
1581606603.436,-42.48,19.043,15.137,-46.875,0.0,0
1581606603.437,-221.19099999999997,20.508000000000006,14.16,-42.968999999999994,0.0,0
1581606603.441,-285.645,19.531,18.066,-41.992,0.0,0
1581606603.445,-250.488,18.555,20.996,-30.761999999999997,0.0,0
1581606603.449,-257.812,18.066,21.97300000000001,-46.387,0.0,0
1581606603.4529998,-340.82,17.578,25.391,-51.758,0.0,0
1581606603.457,-361.816,15.137,23.926,-43.945,0.0,0
1581606603.461,-263.672,12.207,25.879,-49.805,0.0,0
1581606603.464,-82.031,16.113,25.391,-43.945,0.0,0
1581606603.468,22.949,24.901999999999997,26.855,-41.504,0.0,0
1581606603.4720001,145.50799999999995,31.25,27.831999999999997,-34.668,0.0,0
1581606603.476,300.781,29.296999999999997,21.97300000000001,-33.203,0.0,0
1581606603.48,314.941,27.831999999999997,24.901999999999997,-44.922,0.0,0
1581606603.482,356.445,25.879,26.366999999999997,-41.01600000000001,0.0,0
1581606603.486,491.211,23.438000000000002,22.949,-53.223,0.0,0
1581606603.49,390.13699999999994,23.438000000000002,22.461,-43.945,0.0,0
1581606603.494,211.91400000000002,20.508000000000006,17.09,-37.109,0.0,0
1581606603.498,161.13299999999995,21.484,19.043,-45.41,0.0,0
1581606603.502,148.92600000000004,26.366999999999997,23.926,-53.223,0.0,0
1581606603.506,312.5,21.97300000000001,24.414,-50.293,0.0,0
1581606603.5089998,544.434,24.414,24.901999999999997,-55.663999999999994,0.0,0
1581606603.5129998,544.434,24.414,20.996,-65.918,0.0,0
1581606603.5170002,614.258,22.949,17.09,-57.617,0.0,0
1581606603.5210001,717.773,23.926,21.97300000000001,-55.176,0.0,0
1581606603.525,544.434,21.484,24.414,-51.27,0.0,0
1581606603.5270002,336.914,17.578,23.438000000000002,-39.062,0.0,0
1581606603.5310001,312.988,11.719000000000001,23.926,-34.18,0.0,0
1581606603.535,388.67199999999997,13.184000000000001,20.996,-36.133,0.0,0
1581606603.539,370.605,16.602,22.461,-46.875,0.0,0
1581606603.543,365.723,16.113,24.414,-41.01600000000001,0.0,0
1581606603.5470002,404.29699999999997,17.578,20.508000000000006,-19.043,0.0,0
1581606603.551,345.70300000000015,22.949,20.996,-40.527,0.0,0
1581606603.554,324.707,23.926,23.438000000000002,-56.152,0.0,0
1581606603.5579998,465.332,19.531,21.484,-50.293,0.0,0
1581606603.562,570.8009999999998,12.695,21.97300000000001,-45.41,0.0,0
1581606603.566,577.148,5.859,23.438000000000002,-39.551,0.0,0
1581606603.57,561.523,7.324,24.901999999999997,-40.039,0.0,0
1581606603.572,528.809,16.113,23.438000000000002,-45.898,0.0,0
1581606603.576,505.85900000000004,24.901999999999997,22.461,-47.363,0.0,0
1581606603.58,429.199,20.996,27.344,-39.551,0.0,0
1581606603.5839999,284.18,21.484,29.296999999999997,-38.086,0.0,0
1581606603.5879998,137.207,26.855,23.926,-36.621,0.0,0
1581606603.592,102.051,23.438000000000002,16.602,-44.922,0.0,0
1581606603.596,221.68,23.926,13.672,-58.593999999999994,0.0,0
1581606603.599,376.95300000000003,23.926,9.766,-62.012,0.0,0
1581606603.603,673.828,22.461,15.137,-43.457,0.0,0
1581606603.607,937.5,21.484,23.926,-22.949,0.0,0
1581606603.611,839.8439999999997,14.16,22.461,-43.945,0.0,2
1581606603.615,545.898,10.742,20.996,-63.477,0.0,0
1581606603.6320002,303.711,11.719000000000001,20.02,-54.688,0.0,0
1581606603.6360002,-117.676,16.602,26.366999999999997,-41.992,0.0,0
1581606603.64,-580.566,21.97300000000001,31.25,-34.668,0.0,0
1581606603.644,-688.477,18.066,29.296999999999997,-41.01600000000001,0.0,0
1581606603.6479998,-561.035,11.719000000000001,28.809,-51.27,0.0,0
1581606603.6520002,-241.699,18.066,28.32,-32.715,0.0,0
1581606603.6560001,121.58200000000001,22.949,29.785,-29.785,0.0,0
1581606603.659,300.781,20.996,27.344,-44.434,0.0,0
