timestamps,TP9,AF7,AF8,TP10,Right AUX,Marker0
1582060590.418,34.18,29.297,35.645,30.762,0.0,0
1582060590.4220002,27.344,25.879,27.832,22.949,0.0,0
1582060590.426,31.738000000000003,9.766,27.832,22.949,0.0,0
1582060590.43,28.809,12.695,27.344,23.926,0.0,0
1582060590.434,28.809,37.598,21.973000000000006,24.414,0.0,0
1582060590.438,33.203,44.922,26.855,30.762,0.0,0
1582060590.4420002,26.367,24.902,32.715,32.715,0.0,0
1582060590.445,20.508000000000006,13.184,31.738000000000003,30.762,0.0,0
1582060590.449,25.391,33.203,33.691,29.297,0.0,0
1582060590.4529998,19.531,30.273000000000003,28.809,21.484,0.0,0
1582060590.457,9.766,19.043,25.391,19.531,0.0,0
1582060590.461,14.648,21.484,29.785,20.996,0.0,0
1582060590.4629998,23.438,23.926,33.691,22.461,0.0,0
1582060590.467,28.809,36.133,39.551,21.484,0.0,0
1582060590.471,26.855,38.574,36.621,20.508000000000006,0.0,0
1582060590.475,20.02,26.855,31.738000000000003,18.555,0.0,0
1582060590.479,29.297,14.648,35.645,18.555,0.0,0
1582060590.4829998,27.832,20.996,37.109,17.578,0.0,0
1582060590.4870002,26.855,36.133,37.109,20.996,0.0,0
1582060590.49,28.809,31.738000000000003,41.504,23.438,0.0,0
1582060590.494,19.043,8.789,33.691,20.02,0.0,0
1582060590.498,27.344,8.301,29.297,17.09,0.0,0
1582060590.502,27.832,20.508000000000006,37.109,20.02,0.0,0
1582060590.506,16.602,30.762,33.203,25.879,0.0,0
1582060590.508,21.484,40.039,35.645,22.461,0.0,0
1582060590.512,25.391,35.645,35.156,17.578,0.0,0
1582060590.516,22.461,33.203,26.367,14.16,0.0,0
1582060590.52,24.414,26.367,28.809,11.23,0.0,0
1582060590.524,26.367,21.973000000000006,30.762,13.184,0.0,0
1582060590.528,33.203,26.367,28.32,16.602,0.0,0
1582060590.532,37.109,22.949,29.785,19.531,0.0,0
1582060590.535,35.156,20.996,32.715,16.113,0.0,0
1582060590.539,35.156,22.461,32.715,10.742,0.0,0
1582060590.543,34.668,21.484,31.738000000000003,12.695,0.0,0
1582060590.5470002,22.461,20.996,27.344,17.09,0.0,0
1582060590.551,0.0,34.668,28.32,22.461,0.0,0
1582060590.553,-12.695,41.992,33.203,30.273000000000003,0.0,0
1582060590.5570002,-11.23,30.762,28.809,28.32,0.0,0
1582060590.561,-1.953,22.949,25.391,19.531,0.0,0
1582060590.565,4.395,19.043,24.902,16.602,0.0,0
1582060590.569,7.812,32.715,26.855,20.508000000000006,0.0,0
1582060590.573,18.555,44.922,32.227,21.484,0.0,0
1582060590.577,21.973000000000006,28.32,33.691,20.996,0.0,0
1582060590.58,21.973000000000006,25.391,32.715,15.137,0.0,0
1582060590.584,22.461,38.574,31.738000000000003,8.301,0.0,0
1582060590.5879998,28.32,33.203,34.668,18.555,0.0,0
1582060590.592,38.574,22.949,28.809,26.367,0.0,0
1582060590.596,33.691,30.273000000000003,22.461,19.531,0.0,0
1582060590.5979998,32.715,26.855,31.25,18.066,0.0,0
1582060590.6020002,34.668,17.578,35.645,20.02,0.0,0
1582060590.606,33.691,11.23,29.785,19.043,0.0,0
1582060590.61,34.668,1.465,30.762,24.902,0.0,0
1582060590.6139998,34.18,26.855,30.273000000000003,29.785,0.0,0
1582060590.6179998,32.715,41.992,18.555,24.414,0.0,0
1582060590.6220002,29.785,29.297,22.461,21.484,0.0,0
1582060590.625,30.273000000000003,26.367,29.297,21.973000000000006,0.0,0
1582060590.629,28.32,27.344,26.367,19.531,0.0,0
1582060590.633,26.367,33.203,26.855,21.973000000000006,0.0,0
1582060590.637,33.203,32.715,29.785,25.391,0.0,0
1582060590.641,36.621,36.133,34.668,32.715,0.0,0
1582060590.658,40.039,31.738000000000003,33.203,33.203,0.0,0
1582060590.6620002,38.574,24.414,27.832,31.25,0.0,0
1582060590.666,31.25,32.227,28.809,36.133,0.0,0
1582060590.67,23.438,22.949,35.156,35.156,0.0,0
1582060590.674,21.973000000000006,11.23,33.691,30.273000000000003,0.0,0
1582060590.678,26.855,25.391,30.273000000000003,31.25,0.0,0
1582060590.6820002,26.367,34.18,30.762,31.25,0.0,0
1582060590.685,29.785,20.508000000000006,27.344,30.273000000000003,0.0,0
1582060590.689,33.691,25.879,31.25,31.738000000000003,0.0,0
1582060590.6929998,33.691,37.109,30.273000000000003,31.738000000000003,0.0,0
1582060590.697,33.203,24.414,23.438,24.902,0.0,0
1582060590.701,34.668,18.066,30.762,20.02,0.0,0
1582060590.704,31.738000000000003,19.043,32.715,22.949,0.0,0
1582060590.708,27.832,20.996,32.227,23.926,0.0,0
1582060590.712,22.949,22.949,32.227,21.484,0.0,0
1582060590.716,33.691,24.902,29.785,16.602,0.0,0
1582060590.72,34.668,34.668,28.809,17.578,0.0,0
1582060590.724,26.855,28.32,33.203,20.02,0.0,0
1582060590.728,21.973000000000006,20.996,34.18,19.531,0.0,0
1582060590.731,16.602,23.438,28.32,11.23,0.0,0
1582060590.735,21.973000000000006,30.273000000000003,28.809,7.324,0.0,0
1582060590.7389998,25.879,34.668,20.508000000000006,7.812,0.0,0
1582060590.7429998,20.996,30.762,21.973000000000006,15.137,0.0,0
1582060590.7470002,21.484,23.926,29.785,20.508000000000006,0.0,0
1582060590.7489998,29.785,28.32,24.414,13.672,0.0,0
1582060590.7529998,29.785,39.551,29.297,16.113,0.0,0
1582060590.7570002,20.996,34.18,36.133,18.066,0.0,0
1582060590.7610002,19.531,18.555,37.109,9.766,0.0,0
1582060590.765,17.578,13.672,34.668,10.742,0.0,0
1582060590.769,12.695,22.461,34.18,12.207,0.0,0
1582060590.7729998,14.648,24.414,23.926,4.395,0.0,0
1582060590.776,17.09,21.484,8.301,2.93,0.0,0
1582060590.78,10.742,27.344,19.043,4.395,0.0,0
1582060590.784,10.742,38.574,31.25,3.418,0.0,0
1582060590.788,16.113,36.133,33.203,11.719,0.0,0
1582060590.792,13.672,28.809,32.715,13.672,0.0,0
1582060590.794,16.113,26.367,31.738000000000003,15.137,0.0,0
1582060590.798,16.602,25.391,30.273000000000003,16.113,0.0,0
1582060590.802,13.672,28.32,27.832,10.742,0.0,0
1582060590.806,12.695,30.762,29.297,12.207,0.0,0
1582060590.81,4.395,32.715,34.18,10.254,0.0,0
1582060590.814,2.441,31.25,38.574,9.766,0.0,0
1582060590.8179998,-1.953,30.273000000000003,33.203,0.0,0.0,0
1582060590.821,-1.465,30.273000000000003,22.461,-21.973000000000006,0.0,0
1582060590.825,13.672,35.645,19.043,-22.461,0.0,0
1582060590.829,10.254,40.527,26.367,-23.438,0.0,0
1582060590.833,-17.09,40.039,26.855,-40.527,0.0,0
1582060590.837,-62.012,35.156,26.367,-40.527,0.0,0
1582060590.839,-94.727,27.832,35.645,-36.621,0.0,0
1582060590.843,-95.215,34.18,39.551,-49.316,0.0,0
1582060590.847,-85.93799999999997,40.527,41.01600000000001,-55.176,0.0,0
1582060590.851,-84.473,47.363,34.668,-63.477,0.0,0
1582060590.855,-92.773,50.78100000000001,25.879,-74.707,0.0,0
1582060590.859,-97.656,52.246,25.879,-74.219,0.0,0
1582060590.863,-93.75,46.875,33.691,-73.73,0.0,0
1582060590.8660002,-98.633,37.598,36.621,-86.426,0.0,0
1582060590.87,-108.887,33.203,39.551,-93.262,0.0,0
1582060590.8739998,-110.352,37.598,47.363,-91.309,0.0,0
1582060590.8779998,-104.98,41.504,50.293,-94.238,0.0,0
1582060590.8820002,-96.191,32.715,53.223,-80.078,0.0,0
1582060590.8839998,-97.656,31.738000000000003,53.223,-73.242,0.0,0
1582060590.8879998,-100.098,35.156,53.223,-78.125,0.0,0
1582060590.8920002,-88.37899999999998,34.18,48.828,-75.195,0.0,0
1582060590.896,-88.37899999999998,29.785,41.504,-74.707,0.0,0
1582060590.9,-91.797,32.715,47.363,-71.777,0.0,0
1582060590.904,-79.59,38.086,54.688,-61.523,0.0,0
1582060590.908,-74.707,25.391,51.27,-55.176,0.0,0
1582060590.911,-72.266,13.184,44.922,-56.152,0.0,0
1582060590.915,-55.176,5.859,48.34,-46.387,0.0,0
1582060590.919,-41.504,12.207,42.48,-31.25,0.0,0
1582060590.923,-31.738000000000003,33.691,35.156,-18.066,0.0,0
1582060590.927,-11.23,25.391,44.922,-2.441,0.0,0
1582060590.929,11.719,0.488,60.059,20.996,0.0,0
1582060590.9329998,22.461,5.859,65.43,40.039,0.0,0
1582060590.937,45.41,15.625,63.477,63.965,0.0,0
1582060590.941,76.66,22.461,55.664,89.355,0.0,0
1582060590.945,88.37899999999998,28.32,47.363,97.656,0.0,0
1582060590.949,91.797,13.672,40.527,108.398,0.0,0
1582060590.9529998,108.887,-6.836,39.062,131.836,0.0,0
1582060590.956,128.906,-11.23,42.48,148.438,0.0,0
1582060590.96,133.789,2.441,36.621,151.855,0.0,0
1582060590.964,138.184,7.324,33.691,164.062,0.0,0
1582060590.968,147.461,-14.648,31.25,178.22299999999996,0.0,0
1582060590.972,154.785,-15.137,31.25,180.664,0.0,0
1582060590.974,158.203,14.16,35.645,177.24599999999995,0.0,0
1582060590.978,165.52700000000004,18.066,37.109,179.688,0.0,0
1582060590.982,162.59799999999996,11.23,40.527,178.71099999999996,0.0,0
1582060590.986,152.344,22.461,35.645,166.99200000000005,0.0,0
1582060590.99,151.36700000000005,5.859,33.203,172.363,0.0,0
1582060590.994,152.832,-36.621,33.691,178.22299999999996,0.0,0
1582060590.998,145.50799999999995,-16.602,27.344,163.086,0.0,0
1582060591.0010002,135.254,32.227,22.461,152.832,0.0,0
1582060591.005,130.859,29.297,19.531,156.25,0.0,0
1582060591.0089998,141.602,26.367,23.926,160.156,0.0,0
1582060591.0129998,143.555,35.156,28.809,154.297,0.0,0
1582060591.0170002,134.27700000000002,-0.977,27.832,143.066,0.0,0
1582060591.034,140.625,-27.344,33.203,142.578,0.0,0
1582060591.038,138.672,17.578,23.438,140.137,0.0,0
1582060591.042,122.07,46.387,20.02,130.859,0.0,0
1582060591.046,109.375,29.297,31.738000000000003,128.418,0.0,0
1582060591.05,102.051,18.555,34.18,131.836,0.0,0
1582060591.054,95.703,20.996,33.203,128.906,0.0,0
1582060591.0579998,100.098,11.719,32.715,130.859,0.0,0
1582060591.061,103.516,6.348,30.762,132.32399999999998,0.0,0
1582060591.065,98.145,12.695,34.18,129.88299999999998,0.0,0
1582060591.069,99.609,19.531,38.574,125.977,0.0,0
1582060591.073,96.68,16.113,36.133,115.723,0.0,0
1582060591.077,94.727,4.395,34.18,111.816,0.0,0
1582060591.079,90.332,2.441,37.598,106.445,0.0,0
1582060591.083,85.449,21.973000000000006,35.645,104.492,0.0,0
1582060591.087,87.891,24.414,31.738000000000003,107.91,0.0,0
1582060591.091,85.449,17.09,33.691,104.98,0.0,0
1582060591.095,84.961,20.996,39.551,100.586,0.0,0
1582060591.099,87.891,14.16,40.527,97.168,0.0,0
1582060591.103,96.191,9.766,38.574,96.191,0.0,0
1582060591.106,91.797,12.695,35.645,90.82,0.0,0
1582060591.11,82.031,19.531,34.668,85.449,0.0,0
1582060591.1139998,90.82,14.648,31.25,87.891,0.0,0
1582060591.1179998,88.37899999999998,23.438,30.762,83.008,0.0,0
1582060591.1220002,77.637,22.461,32.227,81.543,0.0,0
1582060591.1239998,73.242,7.812,33.691,80.566,0.0,0
1582060591.1279998,68.848,22.949,35.156,71.777,0.0,0
1582060591.1320002,72.266,21.973000000000006,40.527,72.75399999999998,0.0,0
1582060591.1360002,72.266,1.465,45.41,77.637,0.0,0
1582060591.14,62.988,11.719,38.574,69.824,0.0,0
1582060591.144,52.734,25.879,31.25,56.64100000000001,0.0,0
1582060591.1479998,50.78100000000001,15.625,36.621,53.223,0.0,0
1582060591.151,51.758,10.254,33.691,53.71100000000001,0.0,0
1582060591.155,44.922,18.066,19.043,55.664,0.0,0
1582060591.159,42.969,20.508000000000006,18.066,51.758,0.0,0
1582060591.163,41.992,20.02,26.367,43.457,0.0,0
1582060591.167,46.875,22.949,34.668,41.504,0.0,0
1582060591.169,41.01600000000001,19.043,35.645,35.156,0.0,0
1582060591.173,31.738000000000003,21.484,32.227,33.691,0.0,0
1582060591.177,34.18,4.883,34.668,36.133,0.0,0
1582060591.181,34.18,-2.93,36.133,30.273000000000003,0.0,0
1582060591.185,29.785,26.855,31.25,24.414,0.0,0
1582060591.189,24.902,33.203,29.785,21.973000000000006,0.0,0
1582060591.1929998,19.043,26.855,32.227,25.879,0.0,0
1582060591.196,20.02,25.879,29.785,23.926,0.0,0
1582060591.2,30.273000000000003,29.785,33.203,24.902,0.0,0
1582060591.204,30.762,21.484,33.203,26.855,0.0,0
1582060591.208,29.785,22.949,22.949,25.879,0.0,0
1582060591.212,33.203,29.297,23.438,28.32,0.0,0
1582060591.214,41.992,17.578,28.809,27.344,0.0,0
1582060591.218,45.898,23.438,24.902,26.367,0.0,0
1582060591.222,39.062,28.809,24.902,28.809,0.0,0
1582060591.226,41.504,31.25,25.391,33.203,0.0,0
1582060591.23,45.41,31.25,22.461,30.273000000000003,0.0,0
1582060591.234,30.273000000000003,31.738000000000003,27.832,26.855,0.0,0
1582060591.238,20.02,30.273000000000003,32.227,31.738000000000003,0.0,0
1582060591.2410002,25.879,18.066,35.156,35.156,0.0,0
1582060591.245,30.762,21.484,39.551,36.133,0.0,0
1582060591.2489998,29.297,34.18,37.109,35.645,0.0,0
1582060591.2529998,26.367,18.555,30.762,33.691,0.0,0
1582060591.2570002,25.391,11.23,28.809,31.25,0.0,0
1582060591.2589998,22.461,39.062,26.855,26.855,0.0,0
1582060591.2629998,23.926,43.945,31.738000000000003,25.391,0.0,0
1582060591.2670002,27.832,28.809,35.645,25.391,0.0,0
1582060591.271,25.879,20.508000000000006,31.25,25.879,0.0,0
1582060591.275,24.414,19.043,29.785,25.879,0.0,0
1582060591.279,28.809,8.301,31.25,24.414,0.0,0
1582060591.283,31.738000000000003,5.859,31.25,20.02,0.0,0
1582060591.286,23.926,33.691,20.02,14.648,0.0,0
1582060591.29,16.113,43.457,7.324,8.301,0.0,0
1582060591.294,18.066,24.902,14.648,3.418,0.0,0
1582060591.298,17.578,27.344,20.996,1.953,0.0,0
1582060591.302,15.625,31.738000000000003,20.996,0.977,0.0,0
1582060591.303,21.484,18.066,27.344,6.348,0.0,0
1582060591.3070002,20.508000000000006,21.973000000000006,30.273000000000003,11.719,0.0,0
1582060591.311,22.949,30.762,32.715,17.578,0.0,0
1582060591.315,30.273000000000003,25.879,35.156,24.414,0.0,0
1582060591.319,24.414,19.043,35.156,24.902,0.0,0
1582060591.323,24.414,19.043,37.109,25.879,0.0,0
1582060591.327,34.18,23.438,41.01600000000001,28.809,0.0,0
1582060591.33,36.133,26.855,32.227,35.645,0.0,0
1582060591.334,38.086,22.949,28.32,41.01600000000001,0.0,0
1582060591.3379998,44.434,4.395,37.109,47.852,0.0,0
1582060591.342,41.992,4.395,36.133,48.828,0.0,0
1582060591.346,43.457,22.949,34.668,48.828,0.0,0
1582060591.3479998,49.805,25.391,34.18,55.664,0.0,0
1582060591.3520002,60.547,24.902,29.785,54.688,0.0,0
1582060591.356,62.988,24.902,25.391,57.129,0.0,0
1582060591.36,57.129,21.484,31.25,57.617,0.0,0
1582060591.3639998,57.617,23.438,38.574,56.152,0.0,0
1582060591.3679998,53.223,10.742,40.527,54.199,0.0,0
1582060591.3720002,55.664,-4.395,34.668,50.78100000000001,0.0,0
1582060591.375,56.152,17.578,29.785,56.152,0.0,0
1582060591.379,41.01600000000001,20.996,27.344,55.664,0.0,0
1582060591.383,33.203,8.301,27.832,52.246,0.0,0
1582060591.387,40.527,22.949,35.156,53.71100000000001,0.0,0
1582060591.391,46.387,20.996,37.109,56.152,0.0,0
1582060591.408,53.223,9.766,39.062,56.152,0.0,0
1582060591.4120002,55.176,21.973000000000006,35.645,51.758,0.0,0
1582060591.416,42.969,20.508000000000006,27.832,43.457,0.0,0
1582060591.42,35.156,18.066,27.832,42.48,0.0,0
1582060591.424,40.039,27.832,34.668,47.852,0.0,0
1582060591.428,37.109,28.32,37.109,39.062,0.0,0
1582060591.4320002,35.156,25.879,34.18,37.598,0.0,0
1582060591.435,41.01600000000001,24.902,28.32,40.527,0.0,0
1582060591.439,39.551,22.461,29.297,41.504,0.0,0
1582060591.4429998,46.875,20.508000000000006,36.133,43.945,0.0,0
1582060591.447,46.387,22.461,39.551,46.387,0.0,0
1582060591.451,40.527,16.602,35.156,46.387,0.0,0
1582060591.454,42.48,-3.418,34.668,46.387,0.0,0
1582060591.458,38.086,-4.883,31.738000000000003,53.71100000000001,0.0,0
1582060591.462,41.01600000000001,13.672,26.367,52.734,0.0,0
1582060591.466,39.062,25.879,35.156,46.875,0.0,0
1582060591.47,32.715,30.273000000000003,37.598,44.922,0.0,0
1582060591.474,32.227,32.227,34.18,45.41,0.0,0
1582060591.478,27.344,33.691,28.809,35.645,0.0,0
1582060591.481,32.227,30.762,27.344,27.832,0.0,0
1582060591.485,43.457,28.32,29.785,28.32,0.0,0
1582060591.4889998,47.852,26.855,34.668,30.273000000000003,0.0,0
1582060591.4929998,35.645,36.621,37.598,36.621,0.0,0
1582060591.4970002,26.855,34.18,34.18,40.039,0.0,0
1582060591.498,31.25,17.578,29.785,40.527,0.0,0
1582060591.502,30.762,20.02,26.855,41.992,0.0,0
1582060591.506,31.738000000000003,22.461,30.762,41.992,0.0,0
1582060591.51,29.297,25.391,33.203,41.01600000000001,0.0,0
1582060591.514,29.785,33.691,34.18,44.434,0.0,0
1582060591.518,38.574,27.832,33.203,43.945,0.0,0
1582060591.522,35.156,29.297,33.691,35.645,0.0,0
1582060591.525,24.414,22.461,35.156,28.809,0.0,2
1582060591.529,17.578,8.301,37.598,26.855,0.0,0
1582060591.533,23.438,29.785,33.691,26.855,0.0,0
1582060591.5370002,26.855,48.828,23.438,21.484,0.0,0
1582060591.541,16.602,35.156,26.367,17.578,0.0,0
1582060591.543,14.16,28.32,31.25,18.066,0.0,0
1582060591.5470002,21.973000000000006,31.738000000000003,29.297,17.09,0.0,0
1582060591.551,26.367,21.484,21.973000000000006,20.02,0.0,0
1582060591.555,27.344,18.555,24.902,26.367,0.0,0
1582060591.559,26.855,19.043,27.344,23.438,0.0,0
1582060591.563,29.297,22.461,27.832,18.555,0.0,0
1582060591.5670002,36.621,29.297,30.273000000000003,26.855,0.0,0
1582060591.57,23.438,16.602,35.156,21.484,0.0,0
1582060591.574,14.648,21.484,39.062,9.277,0.0,0
1582060591.5779998,8.789,28.32,32.227,5.371,0.0,0
1582060591.582,-4.883,23.438,31.25,-1.953,0.0,0
1582060591.586,7.812,27.832,33.203,-2.93,0.0,0
1582060591.5879998,8.301,19.531,30.762,0.0,0.0,0
1582060591.592,0.0,7.324,22.949,-4.883,0.0,0
1582060591.596,4.395,19.043,27.832,-5.371,0.0,0
1582060591.6,9.277,24.902,30.762,-1.953,0.0,0
1582060591.604,10.742,19.043,31.738000000000003,5.371,0.0,0
1582060591.6079998,1.953,16.113,32.715,2.93,0.0,0
1582060591.6120002,-5.859,25.391,27.832,-3.418,0.0,0
1582060591.615,4.395,29.297,31.738000000000003,3.906,0.0,0
1582060591.619,6.836,24.902,34.18,0.977,0.0,0
1582060591.623,0.977,19.531,28.809,-0.488,0.0,0
1582060591.627,7.812,10.254,24.902,4.395,0.0,0
1582060591.631,22.461,20.996,23.926,5.859,0.0,0
1582060591.6339998,37.109,21.973000000000006,25.879,7.324,0.0,0
1582060591.6379998,44.434,6.836,27.832,9.277,0.0,0
1582060591.6420002,41.01600000000001,29.785,28.809,16.113,0.0,0
1582060591.646,23.926,46.387,27.832,20.508000000000006,0.0,0
1582060591.65,11.23,22.949,22.949,22.949,0.0,0
1582060591.654,18.066,22.461,26.855,24.414,0.0,0
1582060591.658,10.254,41.504,22.949,15.625,0.0,0
1582060591.661,-2.93,41.01600000000001,19.531,17.09,0.0,0
1582060591.665,-4.395,41.504,27.832,21.484,0.0,0
1582060591.669,0.977,33.203,30.762,19.043,0.0,0
1582060591.673,6.348,27.344,30.762,16.113,0.0,0
1582060591.677,15.137,21.973000000000006,31.738000000000003,13.672,0.0,0
1582060591.678,25.391,18.066,30.273000000000003,17.09,0.0,0
1582060591.6820002,22.949,32.227,26.855,20.996,0.0,0
1582060591.686,26.855,43.945,32.715,20.508000000000006,0.0,0
1582060591.69,30.762,28.32,38.086,20.996,0.0,0
1582060591.694,28.32,-21.973000000000006,38.086,20.508000000000006,0.0,0
1582060591.698,24.902,-13.672,31.738000000000003,24.902,0.0,0
1582060591.702,17.09,27.344,23.438,22.949,0.0,0
1582060591.705,21.973000000000006,32.227,24.414,13.184,0.0,0
1582060591.709,27.832,50.293,26.855,12.695,0.0,0
1582060591.7129998,23.438,61.035,26.367,9.766,0.0,0
1582060591.717,25.391,44.922,30.273000000000003,0.977,0.0,0
1582060591.721,24.414,28.809,30.273000000000003,0.488,0.0,0
1582060591.7229998,8.301,32.715,27.344,2.93,0.0,0
1582060591.7270002,-1.465,38.086,31.738000000000003,0.977,0.0,0
1582060591.731,5.371,44.922,31.25,-11.23,0.0,0
1582060591.735,-23.926,46.387,25.391,-56.64100000000001,0.0,0
1582060591.7389998,-79.102,45.41,22.461,-97.168,0.0,0
1582060591.7429998,-102.539,41.01600000000001,21.484,-113.281,0.0,0
1582060591.7470002,-105.469,30.762,19.531,-131.34799999999998,0.0,0
1582060591.75,-133.789,42.48,8.789,-167.48,0.0,0
1582060591.754,-164.062,68.359,-3.418,-191.895,0.0,0
1582060591.758,-177.24599999999995,70.801,-3.418,-202.148,0.0,0
1582060591.762,-189.453,73.73,0.488,-212.891,0.0,0
1582060591.766,-211.914,76.172,6.348,-241.699,0.0,0
1582060591.784,-223.633,62.012,2.441,-259.766,0.0,0
1582060591.788,-203.125,70.801,4.883,-251.953,0.0,0
1582060591.792,-206.543,95.215,6.348,-264.648,0.0,0
1582060591.796,-215.332,110.352,-0.977,-267.09,0.0,0
1582060591.8,-200.68400000000003,107.422,2.93,-256.836,0.0,0
1582060591.804,-185.05900000000003,96.68,6.836,-238.281,0.0,0
1582060591.8079998,-163.57399999999996,83.008,-14.648,-220.703,0.0,0
1582060591.811,-152.344,78.613,-26.367,-215.82,0.0,0
1582060591.815,-136.719,84.473,-22.461,-200.68400000000003,0.0,0
1582060591.819,-121.094,78.125,-23.438,-187.988,0.0,0
1582060591.823,-103.027,81.055,-16.602,-174.31599999999997,0.0,0
1582060591.827,-80.566,76.66,-18.555,-153.809,0.0,0
1582060591.829,-68.359,58.105,-14.648,-125.977,0.0,0
1582060591.833,-44.922,59.082,-8.789,-104.98,0.0,0
1582060591.837,-50.293,59.082,-14.648,-114.258,0.0,0
1582060591.841,-40.039,65.43,-17.578,-112.793,0.0,0
1582060591.845,-22.949,84.961,-20.02,-99.121,0.0,0
1582060591.849,-29.785,92.773,-20.02,-92.285,0.0,0
1582060591.853,-17.09,72.75399999999998,-5.859,-77.637,0.0,0
1582060591.856,-0.977,66.406,3.906,-61.035,0.0,0
1582060591.86,4.883,60.547,0.977,-49.805,0.0,0
1582060591.8639998,13.672,31.738000000000003,2.441,-32.227,0.0,0
1582060591.8679998,23.438,19.043,4.883,-13.184,0.0,0
1582060591.8720002,29.297,31.25,11.23,-5.371,0.0,0
1582060591.873,40.527,41.504,21.973000000000006,8.301,0.0,0
1582060591.877,48.828,39.062,20.02,16.113,0.0,0
1582060591.881,48.828,28.32,16.602,27.344,0.0,0
1582060591.885,54.199,25.879,27.832,40.039,0.0,0
1582060591.889,56.64100000000001,20.996,32.227,43.945,0.0,0
1582060591.893,60.547,16.602,21.973000000000006,49.316,0.0,0
1582060591.897,66.406,19.531,22.461,53.71100000000001,0.0,0
1582060591.9,73.242,17.578,27.344,53.71100000000001,0.0,0
1582060591.904,81.055,14.648,27.832,56.152,0.0,0
1582060591.908,73.73,14.648,20.508000000000006,54.688,0.0,0
1582060591.9120002,65.43,11.23,16.113,52.246,0.0,0
1582060591.916,71.777,18.066,30.273000000000003,58.594,0.0,0
1582060591.919,77.637,11.719,36.621,67.87100000000001,0.0,0
1582060591.923,78.613,6.348,27.344,71.289,0.0,0
1582060591.927,79.102,13.184,20.508000000000006,69.336,0.0,0
1582060591.931,79.102,5.371,30.762,66.406,0.0,0
1582060591.935,84.473,20.996,37.109,64.941,0.0,0
1582060591.939,85.449,25.879,37.598,65.43,0.0,0
1582060591.9429998,88.867,15.137,34.18,62.988,0.0,0
1582060591.946,101.074,19.043,18.066,56.152,0.0,0
1582060591.95,104.98,28.809,19.531,49.316,0.0,0
1582060591.954,84.473,34.668,36.133,46.387,0.0,0
1582060591.958,61.035,22.949,39.551,53.223,0.0,0
1582060591.962,48.828,7.812,38.086,60.059,0.0,0
1582060591.964,48.828,9.766,35.156,62.988,0.0,0
1582060591.968,54.199,12.695,35.156,66.895,0.0,0
1582060591.972,35.156,21.973000000000006,31.738000000000003,65.43,0.0,0
1582060591.976,30.273000000000003,31.25,25.391,61.035,0.0,0
1582060591.98,35.645,28.32,26.367,56.64100000000001,0.0,0
1582060591.984,38.086,22.949,30.762,57.129,0.0,0
1582060591.988,35.645,21.484,27.344,54.688,0.0,0
1582060591.9910002,44.922,23.438,24.414,46.387,0.0,0
1582060591.995,47.852,9.277,19.531,43.457,0.0,0
1582060591.9989998,46.875,20.508000000000006,17.578,46.875,0.0,0
1582060592.0029998,51.27,41.992,28.32,44.922,0.0,0
1582060592.0070002,49.316,31.738000000000003,30.273000000000003,40.039,0.0,0
1582060592.0089998,50.78100000000001,26.367,27.344,36.133,0.0,0
1582060592.0129998,48.828,21.484,26.367,32.227,0.0,0
1582060592.0170002,59.57,8.789,24.902,38.086,0.0,0
1582060592.021,73.242,15.625,25.391,48.34,0.0,0
1582060592.025,45.41,11.719,30.273000000000003,42.969,0.0,0
1582060592.029,34.18,7.812,29.297,37.598,0.0,0
1582060592.033,49.316,20.508000000000006,30.273000000000003,45.41,0.0,0
1582060592.036,33.203,19.043,35.156,35.645,0.0,0
1582060592.04,26.855,11.23,33.691,30.273000000000003,0.0,0
1582060592.044,41.504,12.207,28.809,37.109,0.0,0
1582060592.048,44.434,-5.859,24.414,42.48,0.0,0
1582060592.052,45.41,-3.906,29.785,46.875,0.0,0
1582060592.054,46.875,18.555,37.109,52.734,0.0,0
1582060592.0579998,37.598,18.066,36.133,50.78100000000001,0.0,0
1582060592.062,36.621,18.066,27.832,41.01600000000001,0.0,0
1582060592.066,32.227,19.043,29.297,37.598,0.0,0
1582060592.07,27.832,7.324,36.621,31.738000000000003,0.0,0
1582060592.074,31.25,5.371,32.715,28.32,0.0,0
1582060592.0779998,36.621,6.836,27.344,29.297,0.0,0
1582060592.081,35.645,11.23,25.879,28.32,0.0,0
1582060592.085,32.227,29.297,25.391,27.344,0.0,0
1582060592.089,25.879,21.973000000000006,33.203,19.531,0.0,0
1582060592.093,26.367,19.531,40.039,14.648,0.0,0
1582060592.097,40.039,22.461,39.062,23.438,0.0,0
1582060592.099,53.71100000000001,12.207,42.48,30.762,0.0,0
1582060592.103,54.688,10.742,39.062,32.227,0.0,0
1582060592.107,28.32,27.344,33.691,32.715,0.0,0
1582060592.111,20.508000000000006,42.969,32.715,34.668,0.0,0
1582060592.115,33.691,36.133,30.762,30.762,0.0,0
1582060592.119,33.203,26.855,30.762,26.367,0.0,0
1582060592.123,38.086,20.996,27.832,26.367,0.0,0
1582060592.1260002,47.363,21.973000000000006,25.391,26.855,0.0,0
1582060592.13,36.133,20.508000000000006,22.949,27.832,0.0,0
1582060592.1339998,28.809,22.461,22.461,31.25,0.0,0
1582060592.1379998,28.32,24.902,32.715,34.668,0.0,0
1582060592.1420002,32.227,23.438,37.109,32.227,0.0,0
1582060592.159,36.621,28.809,34.668,30.762,0.0,0
1582060592.163,28.809,27.832,24.414,33.691,0.0,0
1582060592.167,25.879,1.465,17.578,32.227,0.0,0
1582060592.171,28.809,-13.672,32.227,26.855,0.0,0
1582060592.175,24.902,11.719,37.598,28.809,0.0,0
1582060592.179,17.09,29.785,34.668,31.738000000000003,0.0,0
1582060592.1829998,22.949,28.809,36.133,26.367,0.0,0
1582060592.186,35.156,32.227,30.273000000000003,29.785,0.0,0
1582060592.19,30.273000000000003,37.109,26.855,30.762,0.0,0
1582060592.194,34.668,39.551,27.832,24.414,0.0,0
1582060592.198,35.156,38.574,25.391,25.879,0.0,0
1582060592.202,28.809,28.809,23.926,25.391,0.0,0
1582060592.204,34.668,20.02,27.344,20.508000000000006,0.0,0
1582060592.208,37.109,15.137,30.273000000000003,18.066,0.0,0
1582060592.212,35.156,18.066,31.738000000000003,16.602,0.0,0
1582060592.216,30.273000000000003,29.785,28.809,15.625,0.0,0
1582060592.22,26.855,35.156,28.32,11.719,0.0,0
1582060592.224,26.367,34.18,24.902,17.578,0.0,0
1582060592.228,23.926,19.043,21.484,21.484,0.0,0
1582060592.231,24.902,18.555,25.391,17.578,0.0,0
1582060592.235,35.156,33.203,27.832,23.438,0.0,0
1582060592.2389998,39.551,19.043,30.273000000000003,30.762,0.0,0
1582060592.2429998,30.273000000000003,6.836,33.203,35.645,0.0,0
1582060592.2470002,24.414,30.762,28.32,39.062,0.0,0
1582060592.2489998,30.762,40.039,26.367,38.086,0.0,0
1582060592.2529998,37.109,28.809,18.555,33.691,0.0,0
1582060592.2570002,35.156,14.16,14.648,29.297,0.0,0
1582060592.2610002,35.156,24.902,16.602,28.809,0.0,0
1582060592.265,22.949,36.133,14.648,22.949,0.0,0
1582060592.269,21.973000000000006,23.438,27.832,25.879,0.0,0
1582060592.2729998,34.668,13.672,34.18,32.227,0.0,0
1582060592.276,39.062,13.672,33.203,34.668,0.0,0
1582060592.28,43.457,26.367,38.086,34.18,0.0,0
1582060592.284,42.48,28.32,39.062,29.297,0.0,0
1582060592.288,30.762,30.762,30.273000000000003,30.762,0.0,0
1582060592.292,28.809,30.762,25.391,38.574,0.0,0
1582060592.294,24.414,30.273000000000003,32.227,41.992,0.0,0
1582060592.298,14.16,27.344,38.086,35.645,0.0,0
1582060592.302,18.555,30.762,35.156,31.738000000000003,0.0,0
1582060592.306,22.949,30.273000000000003,34.18,32.227,0.0,0
1582060592.31,22.949,20.996,41.01600000000001,34.668,0.0,0
1582060592.314,21.484,19.043,37.109,32.227,0.0,0
1582060592.3179998,34.18,18.066,37.109,39.062,0.0,0
1582060592.321,43.945,13.184,42.969,50.293,0.0,0
1582060592.325,30.762,7.324,35.645,39.551,0.0,0
1582060592.329,27.832,21.973000000000006,24.902,31.738000000000003,0.0,0
1582060592.333,36.621,40.039,18.555,32.715,0.0,0
1582060592.337,36.621,35.156,26.855,29.785,0.0,0
1582060592.339,39.551,22.461,38.086,31.25,0.0,0
1582060592.343,42.48,27.344,40.039,34.668,0.0,0
1582060592.347,41.504,41.01600000000001,32.227,36.621,0.0,0
1582060592.351,41.504,32.715,27.344,36.621,0.0,0
1582060592.355,44.434,29.297,35.645,33.691,0.0,0
1582060592.359,53.223,37.109,38.086,32.227,0.0,0
1582060592.363,51.758,37.598,34.18,25.879,0.0,0
1582060592.3660002,38.574,19.043,31.738000000000003,20.996,0.0,0
1582060592.37,34.668,18.066,30.273000000000003,25.391,0.0,0
1582060592.3739998,29.785,28.809,24.902,27.832,0.0,0
1582060592.3779998,32.715,13.184,31.25,32.227,0.0,0
1582060592.3820002,34.668,19.043,33.203,34.18,0.0,0
1582060592.383,22.949,28.32,28.32,31.25,0.0,0
1582060592.387,27.832,32.227,34.668,35.156,0.0,0
1582060592.391,34.668,45.898,36.621,44.922,0.0,0
1582060592.395,36.621,40.527,31.25,45.41,0.0,0
1582060592.399,35.156,32.227,27.832,32.227,0.0,0
1582060592.403,35.645,36.133,29.297,31.738000000000003,0.0,0
1582060592.407,33.203,32.227,27.344,30.762,0.0,0
1582060592.41,33.691,24.902,23.926,25.879,0.0,0
1582060592.414,31.738000000000003,30.762,25.879,26.855,0.0,0
1582060592.418,32.715,33.691,31.25,29.297,0.0,0
1582060592.4220002,29.785,18.066,31.25,26.367,0.0,0
1582060592.426,26.367,13.672,30.273000000000003,21.973000000000006,0.0,0
1582060592.4429998,31.25,28.809,30.762,21.484,0.0,0
1582060592.447,27.344,46.387,20.996,16.602,0.0,0
1582060592.451,26.367,35.645,19.043,18.066,0.0,0
1582060592.455,26.367,24.902,21.484,14.648,0.0,0
1582060592.459,26.855,27.344,25.391,10.742,0.0,0
1582060592.4629998,23.926,28.809,31.738000000000003,12.207,0.0,0
1582060592.467,16.113,16.602,32.715,11.719,0.0,0
1582060592.47,27.344,22.949,36.621,10.254,0.0,0
1582060592.474,35.156,39.551,28.809,15.625,0.0,0
1582060592.478,21.973000000000006,34.18,20.508000000000006,13.672,0.0,0
1582060592.482,15.625,31.738000000000003,27.832,14.16,0.0,0
1582060592.486,11.719,12.207,26.367,13.184,0.0,0
1582060592.4729998,13.184,7.812,21.973000000000006,6.836,0.0,0
1582060592.4770002,13.184,10.742,21.973000000000006,9.277,0.0,0
1582060592.481,3.418,9.766,23.438,10.742,0.0,0
1582060592.485,-1.465,36.621,20.02,8.789,0.0,0
1582060592.4889998,1.953,47.363,21.484,6.836,0.0,0
1582060592.4929998,4.883,35.645,35.156,11.23,0.0,0
1582060592.4970002,11.23,37.109,39.062,12.695,0.0,0
1582060592.5,14.648,38.574,36.621,6.836,0.0,0
1582060592.504,17.09,23.438,34.668,6.836,0.0,0
1582060592.508,23.926,17.09,35.645,10.254,0.0,0
1582060592.512,16.113,29.785,36.133,7.324,0.0,0
1582060592.516,9.277,35.156,29.785,7.812,0.0,0
1582060592.533,15.625,20.02,20.996,13.672,0.0,0
1582060592.5370002,25.391,20.02,24.414,17.09,0.0,0
1582060592.541,28.809,28.809,31.738000000000003,14.16,0.0,0
1582060592.545,27.832,24.902,26.367,20.02,0.0,2
1582060592.549,35.645,8.301,23.926,22.949,0.0,0
1582060592.553,39.551,3.418,32.715,21.484,0.0,0
1582060592.5570002,42.969,15.625,30.273000000000003,26.367,0.0,0
1582060592.56,37.109,27.344,16.602,19.043,0.0,0
1582060592.564,30.273000000000003,28.32,12.207,10.742,0.0,0
1582060592.5679998,13.184,28.32,14.16,11.719,0.0,0
1582060592.572,0.977,40.039,25.879,11.719,0.0,0
1582060592.576,1.953,31.25,38.574,15.137,0.0,0
1582060592.5779998,-2.441,11.719,39.551,16.602,0.0,0
1582060592.582,-0.488,19.531,34.668,9.277,0.0,0
1582060592.586,1.465,20.02,34.668,3.906,0.0,0
1582060592.59,10.254,20.02,38.574,7.324,0.0,0
1582060592.594,16.602,28.809,37.598,10.254,0.0,0
1582060592.5979998,14.648,21.973000000000006,35.156,9.277,0.0,0
1582060592.6020002,13.672,14.16,34.668,11.719,0.0,0
1582060592.605,14.648,26.855,32.715,16.113,0.0,0
1582060592.609,14.648,21.973000000000006,31.25,19.531,0.0,0
1582060592.613,17.09,10.742,33.203,18.066,0.0,0
1582060592.617,25.391,20.02,42.48,20.02,0.0,0
1582060592.621,27.344,31.738000000000003,41.992,27.832,0.0,0
1582060592.623,22.949,28.809,35.645,24.902,0.0,0
1582060592.627,20.508000000000006,29.785,42.48,27.344,0.0,0
1582060592.631,23.438,32.715,41.504,33.203,0.0,0
1582060592.635,23.926,25.391,33.691,29.297,0.0,0
1582060592.639,26.855,25.879,31.738000000000003,31.25,0.0,0
1582060592.643,28.809,13.184,30.762,31.738000000000003,0.0,0
1582060592.647,19.043,16.113,31.738000000000003,27.832,0.0,0
1582060592.65,20.996,34.18,29.785,28.809,0.0,0
1582060592.654,28.809,32.715,27.832,27.832,0.0,0
1582060592.658,27.344,23.926,34.668,23.438,0.0,0
1582060592.6620002,20.996,26.855,33.691,16.113,0.0,0
1582060592.666,17.09,35.156,28.32,4.395,0.0,0
1582060592.668,24.902,33.203,31.738000000000003,4.395,0.0,0
1582060592.6720002,25.391,38.086,30.273000000000003,10.254,0.0,0
1582060592.676,3.906,31.25,33.691,-0.488,0.0,0
1582060592.68,-5.859,21.973000000000006,37.598,-6.348,0.0,0
1582060592.684,0.0,21.973000000000006,41.01600000000001,1.953,0.0,0
1582060592.688,7.324,21.484,38.086,7.324,0.0,0
1582060592.6920002,8.301,17.578,38.086,13.672,0.0,0
1582060592.695,-2.93,12.207,42.48,16.602,0.0,0
1582060592.699,-4.883,9.277,46.875,16.602,0.0,0
1582060592.7029998,-2.441,6.348,48.828,17.578,0.0,0
1582060592.707,7.812,5.859,46.875,27.832,0.0,0
1582060592.711,13.184,7.324,50.78100000000001,39.062,0.0,0
1582060592.7129998,17.09,4.395,54.688,40.039,0.0,0
1582060592.717,26.855,5.371,54.688,51.27,0.0,0
1582060592.721,24.414,7.324,57.129,64.453,0.0,0
1582060592.725,35.645,4.883,61.035,70.801,0.0,0
1582060592.729,45.898,4.883,53.71100000000001,80.078,0.0,0
1582060592.7329998,50.293,-2.441,55.664,85.93799999999997,0.0,0
1582060592.7370002,62.012,-21.973000000000006,66.895,95.215,0.0,0
1582060592.74,69.824,-17.09,70.801,100.098,0.0,0
1582060592.744,77.148,2.93,70.801,103.516,0.0,0
1582060592.748,94.727,-1.953,64.941,115.723,0.0,0
1582060592.752,107.91,-2.441,64.941,119.141,0.0,0
1582060592.756,95.215,2.93,68.848,127.441,0.0,0
1582060592.7589998,89.355,3.906,69.336,134.766,0.0,0
1582060592.7629998,104.98,-1.465,62.5,133.30100000000002,0.0,0
1582060592.7670002,106.445,0.0,61.035,132.812,0.0,0
1582060592.771,105.469,5.371,62.988,136.23,0.0,0
1582060592.775,104.492,0.488,52.734,137.207,0.0,0
1582060592.779,101.562,-2.93,48.828,133.30100000000002,0.0,0
1582060592.783,100.586,0.977,54.199,133.30100000000002,0.0,0
1582060592.786,92.285,5.371,54.199,124.512,0.0,0
1582060592.79,82.52,4.395,53.71100000000001,122.559,0.0,0
1582060592.794,84.473,1.953,53.223,126.465,0.0,0
1582060592.798,89.355,-13.672,53.223,124.512,0.0,0
1582060592.802,88.867,-14.648,59.082,119.141,0.0,0
1582060592.804,84.961,9.766,51.27,110.352,0.0,0
1582060592.8079998,76.172,20.02,37.109,100.586,0.0,0
1582060592.812,83.49600000000002,20.508000000000006,37.598,93.75,0.0,0
1582060592.816,93.262,21.484,38.086,94.238,0.0,0
1582060592.82,89.844,18.555,36.621,91.309,0.0,0
1582060592.824,82.031,21.484,35.645,86.914,0.0,0
1582060592.8279998,83.49600000000002,23.926,36.621,84.473,0.0,0
1582060592.831,86.426,4.883,39.551,81.055,0.0,0
1582060592.835,83.984,8.301,33.691,80.078,0.0,0
1582060592.839,77.148,34.668,33.203,76.66,0.0,0
1582060592.843,72.75399999999998,34.18,41.992,72.75399999999998,0.0,0
1582060592.847,70.312,20.02,40.039,69.336,0.0,0
1582060592.849,58.105,27.344,34.18,65.43,0.0,0
1582060592.853,52.734,31.25,30.762,59.082,0.0,0
1582060592.857,51.27,22.949,26.855,60.059,0.0,0
1582060592.861,46.875,20.996,32.227,61.035,0.0,0
1582060592.865,48.34,23.926,33.691,56.64100000000001,0.0,0
1582060592.869,44.434,27.832,30.273000000000003,55.664,0.0,0
1582060592.873,44.434,26.367,28.32,53.71100000000001,0.0,0
1582060592.8760002,47.852,22.949,33.691,55.176,0.0,0
1582060592.88,47.852,20.996,36.133,56.64100000000001,0.0,0
1582060592.8839998,52.734,23.926,36.133,54.199,0.0,0
1582060592.8879998,52.246,22.949,38.086,59.082,0.0,0
1582060592.8920002,52.246,23.438,32.715,52.734,0.0,0
1582060592.909,55.176,25.391,28.32,48.828,0.0,0
1582060592.913,47.852,21.484,31.25,51.758,0.0,0
1582060592.917,43.457,19.531,34.18,50.78100000000001,0.0,0
1582060592.921,52.246,21.973000000000006,37.598,49.805,0.0,0
1582060592.925,56.64100000000001,27.344,41.01600000000001,45.898,0.0,0
1582060592.929,48.34,37.109,37.598,36.621,0.0,0
1582060592.9329998,38.574,32.715,33.691,25.879,0.0,0
1582060592.936,40.527,23.926,30.273000000000003,20.02,0.0,0
1582060592.94,41.992,24.902,27.832,20.02,0.0,0
1582060592.944,41.504,29.297,29.785,22.949,0.0,0
1582060592.948,39.551,39.062,29.297,26.367,0.0,0
1582060592.952,36.621,29.785,26.855,33.203,0.0,0
1582060592.954,46.387,27.344,24.414,38.086,0.0,0
1582060592.958,46.875,40.527,24.902,38.574,0.0,0
1582060592.962,38.086,43.945,31.25,34.18,0.0,0
1582060592.966,32.227,34.18,30.273000000000003,27.344,0.0,0
1582060592.97,23.926,25.391,26.367,28.32,0.0,0
1582060592.974,20.508000000000006,28.32,31.738000000000003,33.691,0.0,0
1582060592.978,20.02,28.32,35.156,34.18,0.0,0
1582060592.981,18.555,37.598,35.156,33.203,0.0,0
1582060592.985,24.414,36.133,33.203,33.203,0.0,0
1582060592.9889998,25.391,21.484,30.762,30.273000000000003,0.0,0
1582060592.9929998,26.855,24.414,30.273000000000003,26.367,0.0,0
1582060592.9970002,28.32,23.438,30.762,27.344,0.0,0
1582060592.9989998,28.32,19.531,28.32,23.438,0.0,0
1582060593.0029998,35.156,20.508000000000006,24.902,24.902,0.0,0
1582060593.0070002,30.273000000000003,25.879,20.996,24.902,0.0,0
1582060593.0110002,26.855,25.879,22.461,25.879,0.0,0
1582060593.015,37.598,24.414,24.902,34.18,0.0,0
1582060593.019,44.922,26.855,24.902,38.574,0.0,0
1582060593.0229998,46.387,32.227,20.508000000000006,37.598,0.0,0
1582060593.026,43.457,31.25,14.648,34.18,0.0,0
1582060593.03,40.527,21.484,22.461,34.18,0.0,0
1582060593.034,46.875,29.297,25.391,34.18,0.0,0
1582060593.038,47.363,32.715,25.879,38.574,0.0,0
1582060593.042,43.457,25.391,33.691,41.01600000000001,0.0,0
1582060593.044,41.992,25.391,35.156,36.621,0.0,0
1582060593.048,42.48,22.461,28.809,34.18,0.0,0
1582060593.052,41.01600000000001,25.391,25.879,36.621,0.0,0
1582060593.056,41.01600000000001,27.832,26.855,39.551,0.0,0
1582060593.06,40.039,27.344,26.367,38.574,0.0,0
1582060593.064,39.551,13.184,30.762,36.133,0.0,0
1582060593.0679998,47.363,20.02,31.25,37.598,0.0,0
1582060593.071,44.434,41.992,23.438,38.574,0.0,0
1582060593.075,41.504,36.133,25.391,30.273000000000003,0.0,0
1582060593.079,37.598,20.996,28.809,26.367,0.0,0
1582060593.083,34.18,27.832,24.414,32.227,0.0,0
1582060593.087,38.574,35.645,26.367,34.668,0.0,0
1582060593.089,37.598,14.16,33.203,34.18,0.0,0
1582060593.093,32.715,16.113,26.855,31.25,0.0,0
1582060593.097,38.086,37.109,22.461,33.203,0.0,0
1582060593.101,48.34,34.18,32.715,36.621,0.0,0
1582060593.105,44.922,31.738000000000003,36.133,37.109,0.0,0
1582060593.109,39.551,36.133,33.691,34.18,0.0,0
1582060593.113,38.086,36.133,32.227,30.273000000000003,0.0,0
1582060593.1160002,36.133,31.738000000000003,31.25,28.32,0.0,0
1582060593.12,36.133,25.391,23.438,25.391,0.0,0
1582060593.1239998,33.691,26.367,22.949,25.879,0.0,0
1582060593.1279998,35.645,24.902,32.227,30.762,0.0,0
1582060593.1320002,39.551,26.367,32.227,31.738000000000003,0.0,0
1582060593.1339998,34.18,29.297,26.855,33.203,0.0,0
1582060593.1379998,29.785,16.113,30.762,38.574,0.0,0
1582060593.1420002,24.902,22.949,36.133,38.574,0.0,0
1582060593.146,18.066,33.203,29.297,31.25,0.0,0
1582060593.15,19.043,29.297,29.785,29.297,0.0,0
1582060593.154,22.461,22.461,28.809,28.32,0.0,0
1582060593.158,28.32,19.531,28.32,27.344,0.0,0
1582060593.161,33.203,32.715,27.344,32.227,0.0,0
1582060593.165,34.668,29.785,22.949,35.645,0.0,0
1582060593.169,21.973000000000006,18.066,32.227,31.25,0.0,0
1582060593.173,15.625,30.273000000000003,36.621,25.879,0.0,0
1582060593.177,24.902,32.227,37.109,21.973000000000006,0.0,0
1582060593.179,26.855,24.902,28.809,18.066,0.0,0
1582060593.1829998,16.602,24.414,17.09,15.625,0.0,0
1582060593.187,11.719,29.297,24.414,14.16,0.0,0
1582060593.191,15.625,30.762,26.367,16.602,0.0,0
1582060593.195,17.578,26.855,21.973000000000006,16.113,0.0,0
1582060593.199,27.344,31.738000000000003,22.461,20.996,0.0,0
1582060593.2029998,29.785,39.062,27.344,27.344,0.0,0
1582060593.206,24.414,24.902,31.738000000000003,23.926,0.0,0
1582060593.21,24.902,7.812,22.461,20.996,0.0,0
1582060593.214,29.297,26.367,20.996,20.996,0.0,0
1582060593.218,34.18,41.992,25.391,25.879,0.0,0
1582060593.222,27.344,34.18,23.438,25.879,0.0,0
1582060593.224,18.555,26.367,21.484,21.973000000000006,0.0,0
1582060593.228,21.973000000000006,28.32,22.949,15.137,0.0,0
1582060593.232,20.02,32.227,21.973000000000006,10.254,0.0,0
1582060593.236,24.902,34.18,27.344,19.043,0.0,0
1582060593.24,23.438,41.504,28.809,19.043,0.0,0
1582060593.244,11.23,44.922,19.531,8.301,0.0,0
1582060593.248,5.859,38.086,17.578,-1.953,0.0,0
1582060593.2510002,8.789,37.598,13.184,-2.441,0.0,0
1582060593.255,15.137,30.762,12.695,4.883,0.0,0
1582060593.2589998,15.625,23.438,27.344,1.953,0.0,0
1582060593.2629998,9.766,27.832,28.32,-1.953,0.0,0
1582060593.2670002,9.277,33.691,21.484,-2.93,0.0,0
1582060593.284,11.719,30.273000000000003,16.602,3.906,0.0,0
1582060593.288,14.16,20.508000000000006,21.973000000000006,10.254,0.0,0
1582060593.292,17.09,20.996,32.227,12.695,0.0,0
1582060593.296,16.113,28.32,32.227,16.113,0.0,0
1582060593.3,23.926,27.832,27.344,15.137,0.0,0
1582060593.304,34.668,23.438,20.996,13.672,0.0,0
1582060593.3079998,31.25,28.32,20.996,14.16,0.0,0
1582060593.311,33.203,30.273000000000003,23.438,12.695,0.0,0
1582060593.315,30.273000000000003,31.25,25.391,10.742,0.0,0
1582060593.319,15.137,36.621,29.785,12.695,0.0,0
1582060593.323,19.531,30.273000000000003,36.621,14.648,0.0,0
1582060593.327,15.625,22.461,38.086,11.719,0.0,0
1582060593.329,0.977,21.973000000000006,33.203,9.277,0.0,0
1582060593.333,4.883,17.09,32.715,12.207,0.0,0
1582060593.337,-0.488,19.043,33.203,16.113,0.0,0
1582060593.341,-1.953,29.297,28.32,18.066,0.0,0
1582060593.345,12.207,33.691,27.832,24.902,0.0,0
1582060593.349,16.113,31.738000000000003,30.762,20.02,0.0,0
1582060593.353,21.484,34.18,32.227,14.16,0.0,0
1582060593.356,26.367,31.25,32.715,17.09,0.0,0
1582060593.36,21.973000000000006,31.25,35.156,15.137,0.0,0
1582060593.3639998,19.531,35.156,37.109,12.207,0.0,0
1582060593.3679998,23.438,34.668,33.691,8.301,0.0,0
1582060593.3720002,25.391,30.273000000000003,25.391,9.277,0.0,0
1582060593.3739998,30.762,31.738000000000003,25.391,13.672,0.0,0
1582060593.3779998,25.879,40.039,30.273000000000003,12.207,0.0,0
1582060593.3820002,20.02,37.598,27.344,13.184,0.0,0
1582060593.3860002,21.484,20.996,25.879,13.184,0.0,0
1582060593.39,20.02,18.066,33.691,15.625,0.0,0
1582060593.394,17.09,30.273000000000003,38.086,15.625,0.0,0
1582060593.3979998,15.137,31.738000000000003,28.809,10.254,0.0,0
1582060593.401,14.648,24.902,24.902,15.625,0.0,0
1582060593.405,19.531,21.973000000000006,25.391,18.555,0.0,0
1582060593.409,22.461,24.902,25.879,12.695,0.0,0
1582060593.413,11.719,29.785,31.738000000000003,16.602,0.0,0
1582060593.417,5.859,29.785,32.227,18.555,0.0,0
1582060593.419,11.719,28.32,31.738000000000003,16.113,0.0,0
1582060593.423,12.695,25.879,31.25,18.555,0.0,0
1582060593.427,12.695,19.531,30.273000000000003,20.02,0.0,0
1582060593.431,12.207,24.414,35.645,22.461,0.0,0
1582060593.435,20.508000000000006,32.227,33.691,19.043,0.0,0
1582060593.439,25.879,35.645,34.18,18.066,0.0,0
1582060593.4429998,21.484,30.273000000000003,29.785,17.578,0.0,0
1582060593.446,20.996,22.461,27.832,17.578,0.0,0
1582060593.45,22.949,22.461,33.691,19.043,0.0,0
1582060593.454,28.809,35.156,33.203,15.625,0.0,0
1582060593.458,26.367,28.809,27.344,14.16,0.0,0
1582060593.462,18.066,20.02,29.785,14.648,0.0,0
1582060593.464,20.02,29.785,35.645,16.602,0.0,0
1582060593.468,20.02,23.926,32.715,16.602,0.0,0
1582060593.472,16.602,18.066,25.879,14.16,0.0,0
1582060593.476,18.555,17.578,29.785,15.625,0.0,0
1582060593.48,22.949,22.949,35.645,20.996,0.0,0
1582060593.484,23.438,39.551,29.785,20.508000000000006,0.0,0
1582060593.488,21.484,41.01600000000001,26.855,17.09,0.0,0
1582060593.4910002,20.508000000000006,28.32,34.18,18.555,0.0,0
1582060593.495,15.625,23.438,36.133,17.578,0.0,0
1582060593.4989998,12.207,28.809,27.832,10.742,0.0,0
1582060593.5029998,14.16,33.203,26.855,16.602,0.0,0
1582060593.5070002,13.672,25.391,35.156,19.531,0.0,0
1582060593.5089998,20.508000000000006,18.066,33.691,14.16,0.0,0
1582060593.5129998,26.367,30.273000000000003,27.832,14.648,0.0,0
1582060593.5170002,21.484,39.062,28.32,15.137,0.0,0
1582060593.521,24.414,40.039,32.715,18.555,0.0,0
1582060593.525,29.785,34.18,33.203,18.066,0.0,0
1582060593.529,38.086,27.344,36.621,24.414,0.0,0
1582060593.533,38.574,34.18,34.18,25.879,0.0,0
1582060593.536,27.344,36.133,20.508000000000006,16.113,0.0,0
1582060593.54,21.973000000000006,29.297,24.414,17.09,0.0,0
1582060593.544,20.02,23.438,32.715,22.461,0.0,0
1582060593.548,15.625,19.531,31.738000000000003,19.043,0.0,0
1582060593.552,10.254,16.602,32.715,19.531,0.0,0
1582060593.554,7.812,28.32,30.762,21.973000000000006,0.0,0
1582060593.5579998,3.906,34.18,25.879,20.02,0.0,0
1582060593.562,2.93,29.785,28.809,20.02,0.0,0
1582060593.566,6.836,30.762,29.785,19.043,0.0,0
1582060593.57,8.301,27.832,22.461,20.996,0.0,0
1582060593.574,6.348,25.391,25.391,19.531,0.0,0
1582060593.5779998,14.648,29.785,30.762,14.648,0.0,0
1582060593.581,25.391,36.133,28.32,14.16,0.0,0
1582060593.585,22.949,35.645,23.438,13.184,0.0,0
1582060593.589,20.996,24.902,27.344,14.648,0.0,0
1582060593.593,26.855,20.996,27.832,19.043,0.0,0
1582060593.597,28.32,24.902,28.809,20.508000000000006,0.0,0
1582060593.599,22.461,17.578,32.715,16.602,0.0,0
1582060593.603,17.578,14.648,27.832,12.695,0.0,0
1582060593.607,18.066,20.508000000000006,23.926,14.16,0.0,0
1582060593.611,22.949,24.414,28.32,20.508000000000006,0.0,0
1582060593.615,21.973000000000006,17.09,30.762,19.531,0.0,0
1582060593.619,13.672,12.695,24.902,17.09,0.0,0
1582060593.623,11.23,23.926,24.414,15.137,0.0,0
1582060593.6260002,10.254,27.832,25.879,11.23,0.0,0
1582060593.63,14.648,32.715,32.715,13.184,0.0,0
1582060593.6339998,15.625,31.738000000000003,31.25,12.695,0.0,0
1582060593.6379998,6.348,20.508000000000006,20.996,7.324,0.0,0
1582060593.6420002,6.348,17.578,21.484,5.371,0.0,0
1582060593.659,16.602,25.879,26.367,8.789,0.0,0
1582060593.663,11.719,36.621,27.344,5.371,0.0,0
1582060593.667,9.766,23.926,21.973000000000006,4.395,0.0,0
1582060593.671,14.648,7.324,20.996,5.371,0.0,0
1582060593.675,15.625,23.926,22.949,7.812,0.0,0
1582060593.679,21.973000000000006,37.598,25.391,12.695,0.0,0
1582060593.6829998,26.855,43.945,23.438,8.789,0.0,0
1582060593.686,27.832,44.434,23.926,9.766,0.0,0
1582060593.69,27.832,36.621,27.832,16.602,0.0,0
1582060593.694,35.156,36.621,24.414,19.043,0.0,0
1582060593.698,31.25,33.203,20.02,18.066,0.0,0
1582060593.702,20.02,15.137,25.879,18.555,0.0,0
1582060593.707,24.414,16.602,28.809,21.484,0.0,0
1582060593.711,22.949,32.715,28.809,19.531,0.0,0
1582060593.715,14.648,40.039,34.18,20.996,0.0,0
1582060593.719,13.184,33.203,36.621,26.855,0.0,0
1582060593.7229998,14.648,24.414,35.156,27.344,0.0,0
1582060593.7270002,15.137,24.902,28.809,24.902,0.0,0
1582060593.731,12.207,14.648,28.809,23.438,0.0,0
1582060593.734,5.371,11.719,36.621,27.344,0.0,0
1582060593.738,3.906,20.02,33.203,29.785,0.0,0
1582060593.742,8.301,21.484,26.855,25.391,0.0,0
1582060593.746,10.254,23.926,25.879,23.438,0.0,0
1582060593.75,16.602,18.555,28.32,26.367,0.0,0
1582060593.748,19.043,4.883,28.809,30.273000000000003,0.0,0
1582060593.752,24.902,21.973000000000006,32.227,30.273000000000003,0.0,0
1582060593.756,29.785,34.668,32.715,27.832,0.0,0
1582060593.76,29.297,29.785,32.227,28.809,0.0,0
1582060593.764,34.18,31.25,35.156,29.297,0.0,0
1582060593.768,39.062,33.691,27.832,23.438,0.0,0
1582060593.772,40.527,39.551,23.926,17.09,0.0,0
1582060593.775,39.551,39.551,31.25,19.531,0.0,0
1582060593.779,37.598,36.133,36.621,21.973000000000006,0.0,0
1582060593.783,34.18,23.438,35.645,21.973000000000006,0.0,0
1582060593.7870002,32.227,19.531,31.25,22.949,0.0,0
1582060593.791,31.738000000000003,34.18,22.461,19.043,0.0,0
1582060593.793,27.832,41.01600000000001,17.578,18.066,0.0,0
1582060593.7970002,23.926,31.738000000000003,22.461,18.066,0.0,0
1582060593.801,34.668,24.414,28.32,16.113,0.0,0
1582060593.805,30.273000000000003,25.391,27.832,15.625,0.0,0
1582060593.809,12.207,26.367,30.762,17.578,0.0,0
1582060593.813,15.137,31.25,32.227,20.02,0.0,0
1582060593.8170002,18.555,22.949,29.297,14.648,0.0,0
1582060593.82,20.02,9.277,25.879,12.207,0.0,0
1582060593.824,14.648,22.949,22.461,11.23,0.0,0
1582060593.8279998,12.695,17.578,25.391,13.184,0.0,0
1582060593.832,13.672,1.465,26.367,10.742,0.0,0
1582060593.836,10.742,28.809,18.066,1.465,0.0,0
1582060593.8379998,12.207,45.41,13.184,3.418,0.0,0
1582060593.842,10.254,40.039,19.043,0.977,0.0,0
1582060593.846,12.207,39.062,22.461,0.0,0.0,0
1582060593.85,14.16,33.691,30.273000000000003,5.859,0.0,0
1582060593.854,19.531,29.785,32.227,9.766,0.0,0
1582060593.8579998,19.043,29.297,29.785,9.766,0.0,0
1582060593.8620002,17.578,29.297,29.297,8.301,0.0,0
1582060593.865,29.297,26.367,27.344,11.23,0.0,0
1582060593.869,30.762,27.832,29.785,15.137,0.0,0
1582060593.873,20.02,27.344,28.32,15.625,0.0,0
1582060593.877,30.273000000000003,26.855,31.738000000000003,23.926,0.0,0
1582060593.881,39.551,14.16,29.297,25.391,0.0,0
1582060593.8839998,37.598,13.184,24.414,21.484,0.0,0
1582060593.8879998,34.668,36.133,29.785,27.344,0.0,0
1582060593.8920002,29.785,44.922,32.227,28.809,0.0,0
1582060593.896,33.203,27.832,25.391,28.809,0.0,0
1582060593.9,30.273000000000003,11.719,22.949,28.32,0.0,0
1582060593.904,25.391,22.949,29.785,26.855,0.0,0
1582060593.908,20.02,38.086,33.691,27.832,0.0,0
1582060593.911,25.879,41.504,35.645,31.738000000000003,0.0,0
1582060593.915,39.062,43.457,37.109,38.574,0.0,0
1582060593.919,34.668,39.062,33.203,32.715,0.0,0
1582060593.923,21.973000000000006,18.066,27.832,21.484,0.0,0
1582060593.927,20.508000000000006,21.973000000000006,26.367,20.996,0.0,0
1582060593.929,24.414,40.039,25.879,18.555,0.0,0
1582060593.9329998,27.832,42.48,29.785,19.043,0.0,0
1582060593.937,27.344,32.715,34.668,22.949,0.0,0
1582060593.941,16.113,18.555,38.086,21.484,0.0,0
1582060593.945,17.578,10.254,35.156,29.785,0.0,0
1582060593.949,34.668,19.043,28.32,37.598,0.0,0
1582060593.9529998,37.109,41.01600000000001,25.879,27.344,0.0,0
1582060593.956,28.809,45.898,23.926,19.043,0.0,0
1582060593.96,35.645,41.992,18.066,21.484,0.0,0
1582060593.964,43.457,41.01600000000001,18.066,20.996,0.0,0
1582060593.968,39.551,44.434,23.438,16.113,0.0,0
1582060593.972,41.992,50.293,23.926,19.043,0.0,0
1582060593.974,45.898,53.223,16.602,22.949,0.0,0
1582060593.978,50.293,64.941,5.859,20.02,0.0,0
1582060593.982,48.828,75.684,1.953,23.438,0.0,0
1582060593.986,54.199,75.684,1.953,28.32,0.0,0
1582060593.99,66.895,71.289,1.953,30.273000000000003,0.0,0
1582060593.994,69.824,61.523,4.395,38.086,0.0,0
1582060593.998,60.547,60.059,9.766,37.598,0.0,0
1582060594.0010002,47.363,63.477,8.789,29.785,0.0,0
1582060594.005,48.34,66.406,11.23,30.273000000000003,0.0,0
1582060594.0089998,56.152,62.5,12.695,25.391,0.0,0
1582060594.0129998,53.223,32.227,6.348,20.508000000000006,0.0,0
1582060594.0170002,43.945,31.25,4.395,20.02,0.0,0
1582060594.034,38.574,55.664,3.418,17.09,0.0,0
1582060594.038,39.551,61.035,8.789,21.484,0.0,0
1582060594.042,42.969,62.988,13.184,21.973000000000006,0.0,0
1582060594.046,41.992,62.012,10.254,19.043,0.0,0
1582060594.05,42.969,56.152,17.09,23.926,0.0,0
1582060594.054,40.527,60.059,23.438,21.484,0.0,0
1582060594.0579998,41.01600000000001,46.387,19.531,19.531,0.0,0
1582060594.061,49.805,41.01600000000001,22.949,22.461,0.0,0
1582060594.065,51.758,64.453,22.949,26.855,0.0,0
1582060594.069,52.734,56.152,19.043,30.273000000000003,0.0,0
1582060594.073,59.57,44.434,18.066,29.297,0.0,0
1582060594.077,63.965,46.387,19.531,33.691,0.0,0
1582060594.079,54.688,44.434,21.973000000000006,34.668,0.0,0
1582060594.083,45.898,40.039,21.973000000000006,35.156,0.0,0
1582060594.087,43.945,45.898,21.484,32.227,0.0,0
1582060594.091,40.039,41.01600000000001,22.461,26.855,0.0,0
1582060594.095,35.156,27.832,22.461,26.855,0.0,0
1582060594.099,35.156,41.992,19.531,24.902,0.0,0
1582060594.103,37.109,47.852,20.02,23.926,0.0,0
1582060594.106,37.598,41.504,21.973000000000006,25.879,0.0,0
1582060594.11,34.18,33.691,22.949,27.832,0.0,0
1582060594.1139998,33.203,28.809,26.367,26.855,0.0,0
1582060594.1179998,28.32,36.133,22.949,24.902,0.0,0
1582060594.1220002,29.297,38.086,20.996,27.832,0.0,0
1582060594.1239998,32.227,32.227,20.02,26.367,0.0,0
1582060594.1279998,22.461,24.902,22.949,22.949,0.0,0
1582060594.1320002,16.602,25.391,27.344,22.461,0.0,0
1582060594.1360002,20.508000000000006,38.574,30.273000000000003,23.926,0.0,0
1582060594.14,24.414,37.598,28.809,18.555,0.0,0
1582060594.144,13.672,33.691,21.973000000000006,10.254,0.0,0
1582060594.1479998,9.277,38.086,17.09,10.254,0.0,0
1582060594.151,18.555,41.992,14.16,11.23,0.0,0
1582060594.155,30.762,41.992,15.625,8.789,0.0,0
1582060594.159,29.297,40.039,21.973000000000006,8.789,0.0,0
1582060594.163,22.949,34.18,24.902,13.672,0.0,0
1582060594.167,32.227,29.785,25.879,16.113,0.0,0
1582060594.169,41.01600000000001,24.902,27.344,21.973000000000006,0.0,0
1582060594.173,37.109,26.367,25.391,25.879,0.0,0
1582060594.177,30.762,28.809,23.438,18.066,0.0,0
1582060594.181,35.156,38.086,24.414,18.066,0.0,0
1582060594.185,37.109,33.203,25.879,19.531,0.0,0
1582060594.189,34.668,14.648,28.32,20.508000000000006,0.0,0
1582060594.1929998,31.25,20.02,28.32,18.066,0.0,0
1582060594.196,26.367,39.062,22.461,16.113,0.0,0
1582060594.2,27.832,38.574,22.461,19.043,0.0,0
1582060594.204,26.367,31.25,22.461,18.066,0.0,0
1582060594.208,30.273000000000003,35.645,19.531,24.902,0.0,0
1582060594.212,27.832,33.203,26.367,29.297,0.0,0
1582060594.214,33.691,34.18,25.879,34.668,0.0,0
1582060594.218,31.25,38.086,21.484,32.227,0.0,0
1582060594.222,24.902,33.691,30.273000000000003,30.273000000000003,0.0,0
1582060594.226,30.762,28.809,30.762,34.668,0.0,0
1582060594.23,30.273000000000003,30.762,27.344,31.738000000000003,0.0,0
1582060594.234,30.762,35.156,30.762,29.297,0.0,0
1582060594.238,32.715,32.715,27.344,29.297,0.0,0
1582060594.2410002,37.109,32.227,26.367,27.344,0.0,0
1582060594.245,38.086,14.648,28.32,28.32,0.0,0
1582060594.2489998,35.645,3.418,27.832,29.297,0.0,0
1582060594.2529998,30.273000000000003,20.508000000000006,28.32,25.879,0.0,0
1582060594.2570002,25.391,38.574,26.855,25.879,0.0,0
1582060594.2589998,27.344,41.504,21.484,21.973000000000006,0.0,0
1582060594.2629998,30.273000000000003,39.062,20.508000000000006,22.949,0.0,0
1582060594.2670002,26.855,32.715,18.066,21.484,0.0,0
1582060594.271,23.438,36.621,19.043,16.602,0.0,0
1582060594.275,20.02,37.109,20.02,18.066,0.0,0
1582060594.279,21.484,24.414,20.996,19.043,0.0,0
1582060594.283,29.297,33.203,26.855,23.926,0.0,0
1582060594.286,22.949,35.645,28.809,21.484,0.0,0
1582060594.29,18.555,26.367,27.832,21.484,0.0,0
1582060594.294,22.461,22.949,24.902,21.484,0.0,0
1582060594.298,19.531,29.785,30.762,21.973000000000006,0.0,0
1582060594.302,21.484,28.809,32.227,23.926,0.0,0
1582060594.304,18.066,22.949,26.367,18.066,0.0,0
1582060594.3079998,21.484,30.273000000000003,24.414,20.996,0.0,0
1582060594.312,24.902,25.879,20.996,21.484,0.0,0
1582060594.316,28.32,25.391,24.414,19.531,0.0,0
1582060594.32,26.367,29.785,27.832,24.414,0.0,0
1582060594.324,20.02,24.414,26.367,32.227,0.0,0
1582060594.3279998,28.32,27.344,27.832,26.367,0.0,0
1582060594.331,27.832,35.645,22.949,20.02,0.0,0
1582060594.335,20.508000000000006,29.297,23.926,25.391,0.0,0
1582060594.339,24.414,22.949,28.809,26.367,0.0,0
1582060594.343,26.367,28.809,28.809,26.367,0.0,0
1582060594.347,32.227,30.762,28.32,28.32,0.0,0
1582060594.349,38.574,30.762,25.879,20.996,0.0,0
1582060594.353,24.902,35.645,25.391,6.348,0.0,0
1582060594.357,11.719,38.574,25.879,-4.883,0.0,0
1582060594.361,12.695,41.504,25.879,-4.883,0.0,0
1582060594.365,11.719,38.086,24.902,-5.371,0.0,0
1582060594.369,2.441,30.273000000000003,22.949,-7.324,0.0,0
1582060594.373,-1.953,26.367,22.461,-10.254,0.0,0
1582060594.3760002,4.395,30.273000000000003,28.32,-6.836,0.0,0
1582060594.38,9.277,40.527,31.25,10.742,0.0,0
1582060594.3839998,5.859,26.855,26.855,17.09,0.0,0
1582060594.3879998,5.371,26.367,25.391,23.926,0.0,0
1582060594.3920002,1.465,39.551,26.855,35.156,0.0,0
1582060594.409,-2.93,17.09,30.762,33.203,0.0,0
1582060594.413,8.301,15.625,32.715,12.207,0.0,0
1582060594.417,20.508000000000006,31.738000000000003,28.32,-10.742,0.0,0
1582060594.421,21.973000000000006,28.809,20.508000000000006,-12.207,0.0,0
1582060594.425,25.879,38.086,16.113,-3.418,0.0,0
1582060594.429,29.785,43.457,20.996,4.883,0.0,0
1582060594.4329998,23.926,41.504,28.809,4.883,0.0,0
1582060594.436,21.484,32.227,32.227,9.766,0.0,0
1582060594.44,23.926,27.832,29.297,14.16,0.0,0
1582060594.444,25.879,37.109,29.297,14.648,0.0,0
1582060594.448,22.461,42.969,32.715,9.766,0.0,0
1582060594.452,22.949,38.086,28.32,5.859,0.0,0
1582060594.454,28.32,34.18,25.391,11.719,0.0,0
1582060594.458,24.902,38.086,24.414,14.16,0.0,0
1582060594.462,14.648,30.762,24.414,15.137,0.0,0
1582060594.466,14.648,27.344,24.902,23.438,0.0,0
1582060594.47,20.02,27.344,28.809,24.414,0.0,0
1582060594.474,20.02,20.996,29.297,20.996,0.0,0
1582060594.478,14.648,20.996,26.855,20.996,0.0,0
1582060594.481,12.695,24.414,24.902,20.02,0.0,0
1582060594.485,17.09,25.391,24.414,20.02,0.0,0
1582060594.4889998,20.996,22.949,27.344,18.066,0.0,0
1582060594.4929998,21.484,34.18,25.391,12.695,0.0,0
1582060594.4970002,18.555,29.297,24.902,5.859,0.0,0
1582060594.4989998,9.277,9.277,23.926,6.348,0.0,0
1582060594.5029998,3.418,18.555,22.461,9.277,0.0,0
1582060594.5070002,12.207,23.438,27.832,12.207,0.0,0
1582060594.5110002,19.043,27.344,24.414,15.137,0.0,0
1582060594.515,12.695,38.086,18.066,15.625,0.0,0
1582060594.519,20.996,36.133,22.949,13.672,0.0,0
1582060594.5229998,28.32,29.785,27.344,14.16,0.0,0
1582060594.526,27.344,29.785,28.809,14.648,0.0,0
1582060594.53,30.273000000000003,37.109,36.133,14.648,0.0,0
1582060594.534,28.809,35.156,35.645,17.578,0.0,0
1582060594.538,34.668,26.855,32.227,18.555,0.0,0
1582060594.542,32.227,28.809,34.668,22.949,0.0,0
1582060594.544,22.461,28.32,33.203,23.926,0.0,0
1582060594.548,21.973000000000006,25.391,31.738000000000003,20.02,0.0,0
1582060594.552,32.715,21.484,33.203,23.926,0.0,0
1582060594.556,38.574,17.09,33.203,28.32,0.0,0
1582060594.56,31.738000000000003,30.762,32.227,25.391,0.0,0
1582060594.564,22.461,38.086,32.227,17.09,0.0,0
1582060594.5679998,27.832,27.344,31.738000000000003,18.066,0.0,0
1582060594.571,38.086,22.461,32.715,25.391,0.0,0
1582060594.575,30.273000000000003,28.809,32.227,19.531,0.0,0
1582060594.579,17.09,40.039,33.203,15.137,0.0,0
1582060594.583,16.602,45.898,27.832,16.113,0.0,0
1582060594.587,20.02,44.922,20.02,16.113,0.0,0
1582060594.589,22.949,46.387,24.902,20.02,0.0,0
1582060594.593,20.02,31.738000000000003,26.855,20.996,0.0,0
1582060594.597,22.949,16.113,27.344,18.555,0.0,0
1582060594.601,25.879,30.273000000000003,26.367,19.531,0.0,0
1582060594.605,28.809,39.062,24.902,21.484,0.0,0
1582060594.609,29.297,32.715,31.25,19.043,0.0,0
1582060594.613,28.32,39.062,32.715,25.391,0.0,0
1582060594.6160002,24.902,41.504,28.32,22.949,0.0,0
1582060594.62,26.367,44.922,30.762,17.578,0.0,0
1582060594.6239998,24.414,48.828,29.297,24.902,0.0,0
1582060594.6279998,21.973000000000006,32.227,23.438,20.508000000000006,0.0,0
1582060594.6320002,33.203,27.832,24.902,19.531,0.0,0
1582060594.6339998,39.551,24.414,28.809,22.949,0.0,0
1582060594.6379998,33.203,26.855,28.809,24.414,0.0,0
1582060594.6420002,23.926,40.527,29.297,22.461,0.0,0
1582060594.646,19.531,48.34,26.855,20.996,0.0,0
1582060594.65,26.367,40.527,25.879,25.391,0.0,0
1582060594.654,33.691,29.297,33.203,25.391,0.0,0
1582060594.658,29.785,30.762,37.109,24.902,0.0,0
1582060594.661,21.973000000000006,40.527,37.598,19.531,0.0,0
1582060594.665,23.438,43.945,37.109,14.648,0.0,0
1582060594.669,25.391,27.832,35.645,15.625,0.0,0
1582060594.673,22.461,11.23,31.25,9.766,0.0,0
1582060594.677,20.02,27.832,26.367,4.883,0.0,0
1582060594.679,17.578,37.598,30.273000000000003,6.348,0.0,0
1582060594.6829998,16.602,31.738000000000003,32.715,7.324,0.0,0
1582060594.687,12.207,27.832,34.18,6.348,0.0,0
1582060594.691,4.395,29.297,30.762,3.906,0.0,0
1582060594.695,12.695,44.434,30.762,5.859,0.0,0
1582060594.699,23.926,40.527,35.156,10.742,0.0,0
1582060594.7029998,16.602,26.855,32.227,14.16,0.0,0
1582060594.706,18.555,38.574,23.926,12.207,0.0,0
1582060594.71,27.832,33.203,22.461,13.184,0.0,0
1582060594.714,25.879,27.344,31.25,17.09,0.0,0
1582060594.718,26.855,38.086,32.715,17.09,0.0,0
1582060594.722,33.203,39.551,32.715,18.066,0.0,0
1582060594.7389998,31.25,32.715,32.715,22.461,0.0,0
1582060594.7429998,37.109,29.297,35.645,28.809,0.0,0
1582060594.7470002,46.387,19.531,43.457,33.691,0.0,0
1582060594.7510002,41.504,23.438,41.504,34.18,0.0,0
1582060594.755,36.621,33.203,33.691,25.879,0.0,0
1582060594.7589998,42.48,30.762,30.273000000000003,27.344,0.0,0
1582060594.7629998,43.945,29.785,33.691,28.32,0.0,0
1582060594.766,29.785,32.715,34.668,22.949,0.0,0
1582060594.77,25.391,42.969,30.762,24.414,0.0,0
1582060594.774,26.367,38.574,29.297,16.113,0.0,0
1582060594.778,23.438,30.273000000000003,31.25,9.277,0.0,0
1582060594.782,18.066,28.809,36.133,14.648,0.0,0
1582060594.784,18.555,31.25,34.18,16.113,0.0,0
1582060594.788,23.438,24.414,24.414,14.648,0.0,0
1582060594.792,30.762,26.855,23.438,15.137,0.0,0
1582060594.796,26.367,25.879,25.879,9.277,0.0,0
1582060594.8,23.926,20.02,28.809,17.578,0.0,0
1582060594.804,25.391,26.367,29.785,23.926,0.0,0
1582060594.8079998,26.367,35.156,30.762,19.531,0.0,0
1582060594.811,27.832,18.066,33.691,17.578,0.0,0
1582060594.815,24.902,6.836,32.227,18.555,0.0,0
1582060594.819,22.949,32.227,36.621,23.926,0.0,0
1582060594.823,28.809,42.969,40.527,23.438,0.0,0
1582060594.827,32.227,31.25,31.738000000000003,22.949,0.0,0
1582060594.829,29.297,24.902,30.762,25.879,0.0,0
1582060594.833,24.902,27.344,33.203,27.832,0.0,0
1582060594.837,26.855,27.832,29.297,32.227,0.0,0
1582060594.841,29.785,33.691,27.344,32.715,0.0,0
1582060594.845,24.902,35.156,24.414,25.879,0.0,0
1582060594.849,20.996,34.668,20.508000000000006,22.949,0.0,0
1582060594.853,22.461,37.598,26.855,29.297,0.0,0
1582060594.856,26.855,37.598,33.203,28.32,0.0,0
1582060594.86,31.25,25.391,29.785,21.973000000000006,0.0,0
1582060594.8639998,30.273000000000003,15.137,24.414,19.531,0.0,0
1582060594.8679998,31.25,27.832,19.531,15.625,0.0,0
1582060594.8720002,36.621,39.062,21.484,18.555,0.0,0
1582060594.8739998,29.785,21.484,22.461,17.578,0.0,0
1582060594.8779998,20.508000000000006,1.465,20.996,17.578,0.0,0
1582060594.8820002,23.438,29.785,25.391,23.438,0.0,0
1582060594.8860002,22.949,49.805,24.902,21.973000000000006,0.0,0
1582060594.89,21.484,45.898,20.996,20.996,0.0,0
1582060594.894,20.996,42.969,25.879,25.391,0.0,0
1582060594.8979998,24.414,28.32,25.879,28.32,0.0,0
1582060594.901,25.391,25.879,21.973000000000006,24.414,0.0,0
1582060594.905,22.949,29.785,26.367,24.414,0.0,0
1582060594.909,21.973000000000006,27.832,27.832,22.949,0.0,0
1582060594.913,20.996,33.203,26.855,19.531,0.0,0
1582060594.917,17.09,26.855,32.715,20.02,0.0,0
1582060594.919,11.719,21.973000000000006,34.18,19.531,0.0,0
1582060594.923,14.648,33.203,30.273000000000003,17.578,0.0,0
1582060594.927,11.719,35.156,29.297,10.254,0.0,0
1582060594.931,7.324,23.926,35.156,9.277,0.0,0
1582060594.935,12.207,7.324,35.156,12.207,0.0,0
1582060594.939,15.137,10.742,33.691,12.695,0.0,0
1582060594.9429998,9.766,28.32,30.762,9.766,0.0,0
1582060594.946,10.254,38.086,30.273000000000003,7.812,0.0,0
1582060594.95,16.602,37.598,33.203,12.695,0.0,0
1582060594.954,20.508000000000006,30.762,29.785,12.207,0.0,0
1582060594.958,23.926,30.273000000000003,28.32,12.207,0.0,0
1582060594.962,30.762,34.18,32.227,19.043,0.0,0
1582060594.964,33.691,25.391,31.25,24.414,0.0,0
1582060594.968,35.156,20.02,30.273000000000003,23.438,0.0,0
1582060594.972,34.18,18.066,28.809,24.414,0.0,0
1582060594.976,20.996,25.879,23.926,23.926,0.0,0
1582060594.98,20.508000000000006,33.691,29.297,23.438,0.0,0
1582060594.984,28.32,21.484,33.691,26.855,0.0,0
1582060594.988,25.391,17.578,30.762,22.949,0.0,0
1582060594.9910002,23.438,22.949,29.785,16.113,0.0,0
1582060594.995,22.949,15.625,33.691,15.137,0.0,0
1582060594.9989998,18.555,30.273000000000003,32.227,12.207,0.0,0
1582060595.0029998,18.066,40.039,26.855,11.23,0.0,0
1582060595.0070002,12.207,27.832,24.414,8.789,0.0,0
1582060595.0089998,9.766,29.297,24.902,5.859,0.0,0
1582060595.0129998,16.602,29.785,28.32,11.719,0.0,0
1582060595.0170002,17.578,21.484,25.879,12.695,0.0,0
1582060595.021,20.02,31.738000000000003,26.367,11.23,0.0,0
1582060595.025,14.16,36.621,30.273000000000003,10.254,0.0,0
1582060595.029,9.766,31.25,32.227,14.16,0.0,0
1582060595.033,15.625,19.531,33.203,17.578,0.0,0
1582060595.036,19.043,22.949,34.18,15.625,0.0,0
1582060595.04,11.719,31.738000000000003,28.809,11.23,0.0,0
1582060595.044,8.301,13.672,24.414,10.742,0.0,0
1582060595.048,11.23,17.578,27.344,14.16,0.0,0
1582060595.052,16.113,36.133,28.32,13.672,0.0,0
1582060595.054,14.648,28.32,28.32,16.602,0.0,0
1582060595.0579998,15.137,27.832,34.18,21.484,0.0,0
1582060595.062,21.973000000000006,29.785,38.086,26.855,0.0,0
1582060595.066,22.949,22.949,34.668,20.996,0.0,0
1582060595.07,19.043,31.25,34.18,17.09,0.0,0
1582060595.074,16.113,35.645,32.715,17.578,0.0,0
1582060595.0779998,21.973000000000006,16.602,34.18,20.02,0.0,0
1582060595.081,28.32,13.184,33.203,22.949,0.0,0
1582060595.085,28.809,32.227,31.25,20.02,0.0,0
1582060595.089,25.391,35.645,37.109,20.508000000000006,0.0,0
1582060595.093,20.508000000000006,31.25,34.668,20.508000000000006,0.0,0
1582060595.097,22.461,29.297,34.668,27.344,0.0,0
1582060595.099,27.832,20.996,42.969,29.785,0.0,0
1582060595.103,24.902,27.832,41.01600000000001,26.367,0.0,0
1582060595.107,31.738000000000003,32.715,36.133,30.273000000000003,0.0,0
1582060595.111,37.598,15.137,34.668,32.227,0.0,0
1582060595.115,35.156,23.438,36.621,36.133,0.0,0
1582060595.119,24.414,41.504,33.203,34.18,0.0,0
1582060595.123,21.484,21.484,28.32,29.297,0.0,0
1582060595.1260002,27.832,18.066,30.273000000000003,27.832,0.0,0
1582060595.13,29.785,34.18,35.156,25.391,0.0,0
1582060595.1339998,31.25,18.066,35.156,17.09,0.0,0
1582060595.1379998,22.949,14.16,25.879,3.418,0.0,0
1582060595.1420002,17.578,38.574,20.02,-3.418,0.0,0
1582060595.158,19.043,41.01600000000001,20.02,-3.906,0.0,0
1582060595.1620002,19.531,41.504,24.414,-1.465,0.0,0
1582060595.166,13.672,41.504,29.297,3.418,0.0,0
1582060595.17,12.695,34.668,22.461,7.324,0.0,0
1582060595.174,20.996,27.832,20.996,10.742,0.0,0
1582060595.178,24.414,26.855,32.715,17.09,0.0,0
1582060595.1820002,20.02,25.879,34.18,14.16,0.0,0
1582060595.185,16.602,21.484,29.785,11.719,0.0,0
1582060595.189,16.113,26.367,30.273000000000003,15.625,0.0,0
1582060595.1929998,21.484,34.18,30.273000000000003,16.602,0.0,0
1582060595.197,23.926,41.01600000000001,29.785,20.02,0.0,0
1582060595.201,13.672,42.48,28.32,17.09,0.0,0
1582060595.2029998,5.859,35.645,26.855,11.23,0.0,0
1582060595.207,12.695,29.785,29.785,13.672,0.0,0
1582060595.211,9.277,30.273000000000003,29.785,14.16,0.0,0
1582060595.215,-3.906,31.25,32.715,8.789,0.0,0
1582060595.219,-7.812,31.738000000000003,40.039,3.418,0.0,0
1582060595.2229998,-1.953,38.574,42.48,-0.488,0.0,0
1582060595.2270002,-7.812,37.109,41.504,-9.277,0.0,0
1582060595.23,-22.949,34.668,33.203,-24.414,0.0,0
1582060595.234,-20.02,44.434,30.762,-26.367,0.0,0
1582060595.238,-29.785,42.48,42.48,-33.691,0.0,0
1582060595.242,-44.922,43.945,45.898,-48.828,0.0,0
1582060595.246,-56.152,51.758,41.01600000000001,-63.477,0.0,0
1582060595.248,-75.195,48.34,41.992,-79.102,0.0,0
1582060595.252,-94.727,46.387,47.852,-93.75,0.0,0
1582060595.256,-107.91,52.246,50.293,-108.398,0.0,0
1582060595.26,-128.906,55.664,47.852,-125.488,0.0,0
1582060595.264,-154.297,53.223,46.875,-148.438,0.0,0
1582060595.268,-160.156,52.246,56.152,-155.273,0.0,0
1582060595.272,-168.457,51.27,53.71100000000001,-155.762,0.0,0
1582060595.275,-173.828,41.504,54.199,-166.50400000000005,0.0,0
1582060595.279,-174.31599999999997,41.504,67.87100000000001,-172.363,0.0,0
1582060595.283,-168.945,54.199,67.87100000000001,-168.457,0.0,0
1582060595.2870002,-156.738,45.41,64.453,-150.879,0.0,0
1582060595.291,-137.207,40.039,58.105,-130.859,0.0,0
1582060595.293,-118.652,52.246,48.828,-118.164,0.0,0
1582060595.2970002,-105.469,45.898,49.805,-104.004,0.0,0
1582060595.301,-84.961,36.621,48.34,-83.984,0.0,0
1582060595.305,-65.918,45.41,41.992,-64.941,0.0,0
1582060595.309,-48.828,52.734,39.551,-45.898,0.0,0
1582060595.313,-29.297,43.457,33.203,-26.367,0.0,0
1582060595.3170002,-2.93,23.926,32.227,-2.93,0.0,0
1582060595.32,20.996,24.902,30.273000000000003,13.672,0.0,0
1582060595.324,33.203,36.133,24.902,24.902,0.0,0
1582060595.3279998,47.852,34.668,18.555,45.898,0.0,0
1582060595.332,68.848,26.367,16.113,60.547,0.0,0
1582060595.336,90.332,26.855,20.996,79.102,0.0,0
1582060595.3379998,100.098,5.859,23.438,96.68,0.0,0
1582060595.342,104.004,-5.371,20.508000000000006,101.562,0.0,0
1582060595.346,105.957,8.789,15.137,103.516,0.0,0
1582060595.35,105.469,11.23,12.207,105.469,0.0,0
1582060595.354,109.863,25.879,9.277,103.516,0.0,0
1582060595.3579998,110.84,26.367,10.742,102.051,0.0,0
1582060595.3620002,113.77,19.043,15.137,107.91,0.0,0
1582060595.365,118.164,22.461,17.578,113.281,0.0,0
1582060595.369,117.676,27.344,17.578,106.934,0.0,0
1582060595.373,110.84,17.578,15.137,100.098,0.0,0
1582060595.377,107.91,9.277,15.625,97.168,0.0,0
1582060595.381,111.328,19.531,12.695,89.844,0.0,0
1582060595.3839998,117.188,19.531,10.254,92.773,0.0,0
1582060595.3879998,113.281,16.113,12.695,95.215,0.0,0
1582060595.3920002,108.398,18.066,16.113,94.727,0.0,0
1582060595.396,107.91,20.02,13.184,98.145,0.0,0
1582060595.4,106.934,19.043,10.254,99.121,0.0,0
1582060595.404,105.469,15.137,16.113,101.562,0.0,0
1582060595.408,101.074,13.184,19.531,103.516,0.0,0
1582060595.411,96.68,8.301,19.043,104.98,0.0,0
1582060595.415,90.332,9.766,16.602,105.469,0.0,0
1582060595.419,85.449,16.602,12.695,104.004,0.0,0
1582060595.423,89.844,12.695,16.113,107.422,0.0,0
1582060595.427,91.309,-5.859,21.484,106.445,0.0,0
1582060595.429,87.402,5.859,22.461,102.051,0.0,0
1582060595.4329998,95.703,31.25,20.508000000000006,105.957,0.0,0
1582060595.437,103.516,25.391,21.973000000000006,105.957,0.0,0
1582060595.441,93.75,11.719,23.926,102.539,0.0,0
1582060595.445,93.262,16.602,26.367,96.68,0.0,0
1582060595.449,100.098,17.578,26.367,90.82,0.0,0
1582060595.4529998,95.215,14.16,22.949,88.37899999999998,0.0,0
1582060595.456,86.426,20.508000000000006,21.484,76.172,0.0,0
1582060595.46,81.543,23.926,20.508000000000006,71.777,0.0,0
1582060595.464,86.426,25.391,19.531,72.75399999999998,0.0,0
1582060595.468,82.52,24.414,17.578,62.988,0.0,0
1582060595.472,74.219,26.367,12.695,57.617,0.0,0
1582060595.474,72.266,29.785,14.648,60.059,0.0,0
1582060595.478,72.75399999999998,27.344,27.832,64.941,0.0,0
1582060595.482,70.312,23.926,32.227,65.918,0.0,0
1582060595.486,61.523,20.02,28.32,66.406,0.0,0
1582060595.49,58.594,20.508000000000006,29.297,66.406,0.0,0
1582060595.494,59.082,16.113,28.809,68.848,0.0,0
1582060595.498,56.152,14.648,30.273000000000003,67.87100000000001,0.0,0
1582060595.5010002,50.78100000000001,16.113,30.762,62.5,0.0,0
1582060595.505,47.363,13.672,27.832,59.57,0.0,0
1582060595.5089998,53.223,16.113,30.762,62.5,0.0,0
1582060595.5129998,54.688,26.367,30.762,62.5,0.0,0
1582060595.5170002,51.27,27.832,24.414,54.199,0.0,0
1582060595.534,53.223,24.414,29.297,50.293,0.0,0
1582060595.538,50.293,30.762,31.738000000000003,49.316,0.0,0
1582060595.542,52.734,21.973000000000006,30.762,47.363,0.0,0
1582060595.546,52.734,6.348,26.855,41.01600000000001,0.0,0
1582060595.55,44.922,17.578,18.555,32.715,0.0,0
1582060595.554,41.504,31.738000000000003,20.996,22.949,0.0,0
1582060595.5579998,42.48,30.762,24.414,21.973000000000006,0.0,0
1582060595.561,41.504,26.367,25.391,22.949,0.0,0
1582060595.565,31.738000000000003,30.273000000000003,27.832,18.555,0.0,0
1582060595.569,31.25,29.785,30.273000000000003,20.508000000000006,0.0,0
1582060595.573,25.391,22.461,28.809,17.578,0.0,0
1582060595.577,22.461,19.531,29.297,19.043,0.0,0
1582060595.579,24.902,21.484,28.32,21.973000000000006,0.0,0
1582060595.583,25.391,26.855,27.344,23.438,0.0,0
1582060595.587,29.297,27.344,33.203,29.297,0.0,0
1582060595.591,34.668,15.137,33.203,35.156,0.0,0
1582060595.595,34.18,16.602,33.691,40.527,0.0,0
1582060595.599,31.738000000000003,18.555,34.18,39.062,0.0,0
1582060595.603,38.574,16.113,32.715,42.969,0.0,0
1582060595.606,48.34,33.203,36.621,49.805,0.0,0
1582060595.61,49.805,34.18,37.598,48.34,0.0,0
1582060595.6139998,37.598,23.926,39.551,42.48,0.0,0
1582060595.6179998,40.039,24.902,31.25,42.48,0.0,0
1582060595.6220002,46.875,24.414,21.484,40.039,0.0,0
1582060595.6239998,34.668,28.809,27.832,16.602,0.0,0
1582060595.6279998,9.766,37.109,28.809,-18.066,0.0,0
1582060595.6320002,-4.395,46.387,19.043,-24.902,0.0,0
1582060595.6360002,-4.395,45.41,9.766,-33.691,0.0,0
1582060595.64,-16.113,36.621,9.766,-49.316,0.0,0
1582060595.644,-26.855,36.133,8.301,-51.758,0.0,0
1582060595.6479998,-22.949,48.34,6.348,-55.664,0.0,0
1582060595.651,-14.16,66.895,10.254,-52.246,0.0,0
1582060595.655,-15.625,58.594,9.766,-57.129,0.0,0
1582060595.659,-16.602,34.668,11.719,-55.176,0.0,0
1582060595.663,-18.066,44.434,7.324,-51.27,0.0,0
1582060595.667,-17.578,57.617,0.488,-51.758,0.0,0
1582060595.669,-3.906,51.758,10.254,-41.01600000000001,0.0,0
1582060595.673,6.348,45.41,15.137,-33.203,0.0,0
1582060595.677,11.23,40.039,15.137,-25.879,0.0,0
1582060595.681,12.207,43.457,17.09,-14.648,0.0,0
1582060595.685,13.672,47.363,14.648,-11.719,0.0,0
1582060595.689,21.973000000000006,39.062,19.043,-5.371,0.0,0
1582060595.6929998,19.531,33.203,20.996,0.0,0.0,0
1582060595.696,13.672,30.273000000000003,17.578,-1.953,0.0,0
1582060595.7,22.461,33.691,22.461,4.395,0.0,0
1582060595.704,27.344,33.691,27.344,8.789,0.0,0
1582060595.708,23.926,38.574,20.996,7.812,0.0,0
1582060595.712,23.438,40.039,17.09,10.254,0.0,0
1582060595.714,20.02,17.09,22.949,14.648,0.0,0
1582060595.718,24.414,18.555,25.391,15.137,0.0,0
1582060595.722,28.32,41.01600000000001,20.996,10.742,0.0,0
1582060595.726,20.996,44.434,15.137,9.277,0.0,0
1582060595.73,18.066,32.227,20.508000000000006,9.277,0.0,0
1582060595.734,24.902,14.16,24.902,10.742,0.0,0
1582060595.738,25.879,21.484,22.949,14.16,0.0,0
1582060595.7410002,23.438,33.691,22.949,18.555,0.0,0
1582060595.745,21.484,28.32,19.043,17.578,0.0,0
1582060595.7489998,22.461,26.367,18.066,18.555,0.0,0
1582060595.7529998,23.926,30.273000000000003,23.926,22.461,0.0,0
1582060595.7570002,17.09,27.344,21.484,23.438,0.0,0
1582060595.7610002,13.672,22.949,21.484,24.414,0.0,0
1582060595.765,20.508000000000006,13.672,37.598,28.809,0.0,0
1582060595.769,21.973000000000006,16.602,39.551,25.391,0.0,0
1582060595.7729998,15.625,27.832,30.273000000000003,17.09,0.0,0
1582060595.7770002,0.0,32.227,24.414,9.277,0.0,0
1582060595.781,2.441,28.32,25.879,12.207,0.0,0
1582060595.785,14.648,26.855,27.832,15.137,0.0,0
1582060595.788,11.23,23.438,28.809,11.23,0.0,0
1582060595.792,13.672,16.602,31.25,14.648,0.0,0
1582060595.796,16.113,26.367,29.785,14.16,0.0,0
1582060595.8,20.508000000000006,41.01600000000001,31.25,14.648,0.0,0
1582060595.804,22.461,37.598,30.273000000000003,14.648,0.0,0
1582060595.804,17.09,22.461,26.367,7.812,0.0,0
1582060595.8079998,17.09,18.066,22.949,9.277,0.0,0
1582060595.812,29.785,21.973000000000006,17.09,11.719,0.0,0
1582060595.816,38.086,21.973000000000006,19.043,13.672,0.0,0
1582060595.82,40.039,31.738000000000003,24.902,12.207,0.0,0
1582060595.824,44.434,46.875,26.855,10.742,0.0,0
1582060595.8279998,44.922,44.434,27.344,8.301,0.0,0
1582060595.831,35.156,34.18,24.902,7.812,0.0,0
1582060595.835,18.555,27.344,26.855,18.555,0.0,0
1582060595.839,19.043,14.16,29.297,25.879,0.0,0
1582060595.843,22.461,23.926,24.414,22.949,0.0,0
1582060595.847,26.367,36.133,22.949,23.926,0.0,0
1582060595.849,25.391,29.297,23.926,26.855,0.0,0
1582060595.853,24.414,10.742,25.879,27.832,0.0,0
1582060595.857,29.297,2.93,28.809,31.25,0.0,0
1582060595.861,31.738000000000003,23.926,31.738000000000003,33.691,0.0,0
1582060595.865,26.367,36.133,30.762,32.715,0.0,0
1582060595.869,25.879,21.973000000000006,30.273000000000003,28.809,0.0,0
1582060595.873,23.926,9.277,34.18,26.855,0.0,0
1582060595.8760002,28.809,10.742,30.273000000000003,28.809,0.0,0
1582060595.88,37.109,15.625,25.879,29.785,0.0,0
1582060595.8839998,34.668,25.391,29.297,25.391,0.0,0
1582060595.8879998,35.156,26.855,31.25,24.414,0.0,0
1582060595.8920002,42.969,23.438,30.273000000000003,26.367,0.0,0
1582060595.909,49.316,31.738000000000003,30.273000000000003,25.879,0.0,0
1582060595.913,45.41,37.598,29.785,21.973000000000006,0.0,0
1582060595.917,44.922,35.645,24.902,21.973000000000006,0.0,0
1582060595.921,44.922,38.086,22.949,24.414,0.0,0
1582060595.925,42.969,34.668,27.832,27.344,0.0,0
1582060595.929,46.875,23.438,30.273000000000003,31.25,0.0,0
1582060595.9329998,42.48,21.973000000000006,26.367,29.297,0.0,0
1582060595.936,35.645,28.32,24.414,30.762,0.0,0
1582060595.94,35.156,25.879,26.367,33.203,0.0,0
1582060595.944,38.574,20.02,26.367,33.691,0.0,0
1582060595.948,38.574,24.414,25.391,32.715,0.0,0
1582060595.952,35.156,19.043,24.902,26.367,0.0,0
1582060595.954,32.715,20.02,20.996,24.902,0.0,0
1582060595.958,27.832,41.504,23.926,28.809,0.0,0
1582060595.962,26.855,44.922,29.297,28.32,0.0,0
1582060595.966,23.926,31.25,28.809,22.949,0.0,0
1582060595.97,20.508000000000006,21.484,33.691,25.879,0.0,0
1582060595.974,17.578,26.367,29.297,21.484,0.0,0
1582060595.978,17.578,33.203,31.738000000000003,13.672,0.0,0
1582060595.981,14.16,35.156,32.715,12.207,0.0,0
1582060595.985,12.207,31.25,25.879,9.766,0.0,0
1582060595.9889998,11.23,20.508000000000006,27.344,9.766,0.0,0
1582060595.9929998,6.836,15.137,27.832,10.742,0.0,0
1582060595.9970002,7.324,26.367,32.227,12.695,0.0,0
1582060595.9989998,10.742,20.508000000000006,36.133,17.09,0.0,0
1582060596.0029998,17.09,25.391,33.203,18.066,0.0,0
1582060596.0070002,19.531,30.762,29.785,21.484,0.0,0
1582060596.0110002,17.578,26.855,20.996,21.484,0.0,0
1582060596.015,20.996,27.832,19.043,22.949,0.0,0
1582060596.019,27.344,32.227,24.902,29.297,0.0,0
1582060596.0229998,31.738000000000003,35.645,24.902,29.785,0.0,0
1582060596.026,36.133,29.785,18.555,30.762,0.0,0
1582060596.03,33.691,24.902,20.996,33.691,0.0,0
1582060596.034,34.18,25.879,27.832,29.785,0.0,0
1582060596.038,44.922,33.691,31.738000000000003,31.25,0.0,0
1582060596.042,42.48,32.227,32.715,33.691,0.0,0
1582060596.044,34.18,23.438,28.32,25.391,0.0,0
1582060596.048,36.133,22.949,27.832,25.391,0.0,0
1582060596.052,31.25,18.555,27.832,27.344,0.0,0
1582060596.056,26.367,21.973000000000006,31.25,26.855,0.0,0
1582060596.06,26.855,33.203,31.738000000000003,28.32,0.0,0
1582060596.064,27.832,14.648,31.738000000000003,25.879,0.0,0
1582060596.0679998,34.18,10.254,34.668,27.344,0.0,0
1582060596.071,39.062,30.273000000000003,37.598,31.25,0.0,0
1582060596.075,31.738000000000003,39.551,40.039,28.32,0.0,0
1582060596.079,19.043,37.598,32.227,23.926,0.0,0
1582060596.083,12.207,31.738000000000003,29.297,20.02,0.0,0
1582060596.087,21.973000000000006,33.691,36.133,19.531,0.0,0
1582060596.089,28.32,28.809,38.086,24.902,0.0,0
1582060596.093,34.18,11.719,39.551,28.32,0.0,0
1582060596.097,38.574,7.324,35.645,28.32,0.0,0
1582060596.101,36.621,24.902,35.156,31.738000000000003,0.0,0
1582060596.105,39.062,34.668,37.598,37.109,0.0,0
1582060596.109,28.809,37.598,31.25,38.574,0.0,0
1582060596.113,22.949,33.691,29.297,41.992,0.0,0
1582060596.1160002,25.879,28.809,31.25,42.48,0.0,0
1582060596.12,26.855,20.02,30.273000000000003,40.527,0.0,0
1582060596.1239998,25.391,13.672,24.902,39.551,0.0,0
1582060596.1279998,25.879,21.484,24.902,38.086,0.0,0
1582060596.1320002,29.297,30.762,28.32,34.668,0.0,0
1582060596.1339998,27.344,40.039,32.227,32.715,0.0,0
1582060596.1379998,21.484,39.062,32.227,31.25,0.0,0
1582060596.1420002,17.09,26.855,30.762,32.715,0.0,0
1582060596.146,22.949,20.508000000000006,34.668,40.039,0.0,0
1582060596.15,28.32,23.926,39.551,40.527,0.0,0
1582060596.154,25.879,25.879,34.18,27.344,0.0,0
1582060596.158,21.484,26.367,34.668,22.461,0.0,0
1582060596.161,18.066,23.438,39.062,21.973000000000006,0.0,0
1582060596.165,21.484,26.855,38.574,18.066,0.0,0
1582060596.169,25.391,19.043,39.551,14.648,0.0,0
1582060596.173,23.438,15.137,38.574,11.719,0.0,0
1582060596.177,21.973000000000006,23.926,34.668,14.648,0.0,0
1582060596.179,21.484,18.066,35.645,18.066,0.0,0
1582060596.1829998,24.902,17.09,34.668,20.02,0.0,0
1582060596.187,28.809,25.391,31.738000000000003,23.438,0.0,0
1582060596.191,23.438,34.18,32.227,24.414,0.0,0
1582060596.195,31.25,34.668,32.227,30.273000000000003,0.0,0
1582060596.199,42.48,25.879,35.156,36.133,0.0,0
1582060596.2029998,36.133,22.461,39.551,35.156,0.0,0
1582060596.206,27.832,18.555,39.062,27.832,0.0,0
1582060596.21,25.391,6.348,39.062,26.855,0.0,0
1582060596.214,24.414,17.09,40.039,27.832,0.0,0
1582060596.218,21.973000000000006,25.879,37.598,23.438,0.0,0
1582060596.222,21.484,24.414,32.715,21.484,0.0,0
1582060596.224,18.555,32.227,29.297,20.02,0.0,0
1582060596.228,16.113,31.738000000000003,37.598,17.578,0.0,0
1582060596.232,24.414,30.273000000000003,40.527,17.578,0.0,0
1582060596.236,28.32,25.391,40.527,18.555,0.0,0
1582060596.24,25.879,20.508000000000006,39.551,18.555,0.0,0
1582060596.244,25.879,21.973000000000006,32.227,13.184,0.0,0
1582060596.248,28.32,19.043,35.156,17.578,0.0,0
1582060596.2510002,30.273000000000003,8.789,39.062,28.809,0.0,0
1582060596.255,25.391,5.371,41.504,28.32,0.0,0
1582060596.2589998,25.879,19.043,42.48,18.555,0.0,0
1582060596.2629998,27.344,29.297,40.039,16.602,0.0,0
1582060596.2670002,25.879,28.32,38.086,18.555,0.0,0
1582060596.284,19.531,29.297,37.109,15.625,0.0,0
1582060596.288,14.648,18.066,37.109,20.996,0.0,0
1582060596.292,18.066,15.625,34.18,21.484,0.0,0
1582060596.296,20.508000000000006,26.367,31.25,16.113,0.0,0
1582060596.3,21.484,17.09,34.18,20.02,0.0,0
1582060596.304,18.555,15.625,35.645,20.508000000000006,0.0,0
1582060596.3079998,23.438,29.297,35.645,19.043,0.0,0
1582060596.311,30.273000000000003,32.715,35.645,22.461,0.0,0
1582060596.315,27.832,26.367,30.762,21.484,0.0,0
1582060596.319,25.391,15.625,27.344,18.555,0.0,0
1582060596.323,33.691,14.16,31.25,20.02,0.0,0
1582060596.327,36.133,26.855,32.227,20.02,0.0,0
1582060596.329,27.344,32.227,31.738000000000003,15.625,0.0,0
1582060596.333,27.344,30.762,33.203,14.648,0.0,0
1582060596.337,26.855,38.086,29.297,14.648,0.0,0
1582060596.341,23.926,35.645,19.531,9.277,0.0,0
1582060596.345,22.461,23.926,21.484,6.348,0.0,0
1582060596.349,20.508000000000006,21.484,25.391,10.254,0.0,0
1582060596.353,16.602,24.902,23.438,9.277,0.0,0
1582060596.356,20.996,34.18,26.367,11.23,0.0,0
1582060596.36,22.461,30.273000000000003,28.32,13.672,0.0,0
1582060596.3639998,15.625,25.879,28.809,13.184,0.0,0
1582060596.3679998,11.719,17.09,28.32,14.16,0.0,0
1582060596.3720002,18.555,12.695,29.297,18.066,0.0,0
1582060596.3739998,24.902,21.973000000000006,31.25,21.484,0.0,0
1582060596.3779998,25.391,26.367,35.645,25.879,0.0,0
1582060596.3820002,31.738000000000003,36.621,35.645,31.738000000000003,0.0,0
1582060596.3860002,34.18,36.133,27.344,31.738000000000003,0.0,0
1582060596.39,32.227,23.926,21.484,29.785,0.0,0
1582060596.394,30.273000000000003,22.461,19.531,29.785,0.0,0
1582060596.3979998,29.297,27.832,25.391,33.203,0.0,0
1582060596.401,30.273000000000003,32.227,29.785,33.203,0.0,0
1582060596.405,27.344,28.32,26.855,25.879,0.0,0
1582060596.409,21.973000000000006,21.973000000000006,25.391,18.066,0.0,0
1582060596.413,16.602,21.484,28.809,17.09,0.0,0
1582060596.417,21.973000000000006,28.809,33.203,23.926,0.0,0
1582060596.419,23.438,34.18,32.227,26.855,0.0,0
1582060596.423,17.578,19.043,25.391,23.438,0.0,0
1582060596.427,17.578,12.207,27.832,23.926,0.0,0
1582060596.431,19.531,35.645,25.391,23.438,0.0,0
1582060596.435,20.508000000000006,34.18,20.508000000000006,18.555,0.0,0
1582060596.439,22.461,22.949,24.902,14.648,0.0,0
1582060596.4429998,22.461,33.691,26.855,13.672,0.0,0
1582060596.446,18.555,44.434,29.297,18.066,0.0,0
1582060596.45,23.438,27.344,31.738000000000003,19.043,0.0,0
1582060596.454,27.344,8.789,26.367,16.113,0.0,0
1582060596.458,21.484,23.438,20.02,16.113,0.0,0
1582060596.462,22.949,38.086,27.344,17.09,0.0,0
1582060596.464,26.367,31.738000000000003,28.809,10.742,0.0,0
1582060596.468,27.832,20.996,25.391,9.766,0.0,0
1582060596.472,41.504,29.785,23.926,17.578,0.0,0
1582060596.476,42.969,32.227,28.809,30.273000000000003,0.0,0
1582060596.48,33.203,11.719,41.504,39.551,0.0,0
1582060596.484,30.273000000000003,15.625,44.922,48.828,0.0,0
1582060596.488,15.625,24.902,43.945,51.758,0.0,0
1582060596.4910002,9.277,14.648,41.504,46.387,0.0,0
1582060596.495,13.672,-0.488,45.898,41.992,0.0,0
1582060596.4989998,12.695,-14.648,45.41,33.203,0.0,0
1582060596.5029998,7.324,-1.465,40.527,20.996,0.0,0
1582060596.5070002,-9.766,10.254,37.598,8.301,0.0,0
1582060596.5089998,-10.254,5.371,40.039,13.672,0.0,0
1582060596.5129998,-11.23,6.836,43.945,19.043,0.0,0
1582060596.5170002,-9.766,-7.812,40.039,16.602,0.0,0
1582060596.521,0.0,-20.02,40.527,25.391,0.0,0
1582060596.525,-4.395,-1.953,41.992,24.414,0.0,0
1582060596.529,0.977,14.648,40.527,20.996,0.0,0
1582060596.533,8.301,12.695,39.062,24.902,0.0,0
1582060596.536,11.719,5.371,39.062,24.414,0.0,0
1582060596.54,14.648,1.953,38.086,23.926,0.0,0
1582060596.544,13.672,-2.93,38.086,23.438,0.0,0
1582060596.548,22.949,-1.953,37.598,37.598,0.0,0
1582060596.552,31.738000000000003,0.0,40.527,51.27,0.0,0
1582060596.554,26.855,-1.953,41.992,48.34,0.0,0
1582060596.5579998,18.555,-9.766,37.109,47.852,0.0,0
1582060596.562,21.484,-15.137,41.992,42.969,0.0,0
1582060596.566,21.973000000000006,-1.953,47.852,32.227,0.0,0
1582060596.57,21.484,3.906,45.898,35.156,0.0,0
1582060596.574,24.902,3.906,43.945,40.527,0.0,0
1582060596.5779998,23.438,-1.953,42.969,41.01600000000001,0.0,0
1582060596.581,25.391,-0.977,41.504,40.527,0.0,0
1582060596.585,27.344,9.277,39.062,39.551,0.0,0
1582060596.589,22.461,-1.953,40.039,44.922,0.0,0
1582060596.593,16.602,-8.789,43.945,50.293,0.0,0
1582060596.597,16.602,6.836,41.992,50.78100000000001,0.0,0
1582060596.599,19.043,16.113,38.086,48.828,0.0,0
1582060596.603,19.043,22.949,37.109,40.527,0.0,0
1582060596.607,17.578,18.555,36.621,28.809,0.0,0
1582060596.611,21.484,1.953,37.109,25.879,0.0,0
1582060596.615,32.715,6.348,37.109,33.203,0.0,0
1582060596.619,29.785,19.531,36.133,36.133,0.0,0
1582060596.623,26.855,16.113,38.086,38.086,0.0,0
1582060596.6260002,30.273000000000003,10.742,39.062,40.039,0.0,0
1582060596.63,35.645,20.508000000000006,39.551,41.504,0.0,0
1582060596.6339998,34.668,29.297,44.434,38.574,0.0,0
1582060596.6379998,25.391,23.438,42.969,33.203,0.0,0
1582060596.6420002,26.855,22.461,36.133,28.809,0.0,0
1582060596.659,25.391,22.461,36.133,24.902,0.0,0
1582060596.663,19.043,19.043,39.062,23.438,0.0,0
1582060596.667,18.066,19.043,39.062,22.461,0.0,0
1582060596.671,13.184,21.484,40.527,19.531,0.0,0
1582060596.675,10.742,17.578,41.504,15.625,0.0,0
1582060596.679,11.23,13.672,40.039,20.508000000000006,0.0,0
1582060596.6829998,10.742,20.508000000000006,42.48,32.227,0.0,0
1582060596.686,6.836,20.996,41.01600000000001,36.133,0.0,0
1582060596.69,8.301,19.043,35.156,38.574,0.0,0
1582060596.694,12.207,15.137,36.133,17.09,0.0,0
1582060596.698,15.137,16.113,37.598,-12.695,0.0,0
1582060596.702,12.695,21.484,38.086,-18.066,0.0,0
1582060596.704,6.836,18.066,40.039,-6.836,0.0,0
1582060596.708,13.184,16.113,40.527,9.766,0.0,0
1582060596.712,12.695,19.531,42.48,19.043,0.0,0
1582060596.716,2.441,18.555,44.434,21.484,0.0,0
1582060596.72,1.465,17.09,46.875,21.973000000000006,0.0,0
1582060596.724,0.0,20.02,44.922,15.137,0.0,0
1582060596.728,2.93,20.02,45.898,11.23,0.0,0
1582060596.731,0.977,19.531,47.363,10.742,0.0,0
1582060596.735,-3.906,23.926,49.316,15.137,0.0,0
1582060596.7389998,-9.766,24.902,47.852,15.625,0.0,0
1582060596.7429998,-5.371,20.02,43.945,13.184,0.0,0
1582060596.7470002,-2.441,23.926,43.457,6.348,0.0,0
1582060596.7489998,-12.695,24.902,41.01600000000001,-6.348,0.0,0
1582060596.7529998,-18.555,25.879,41.504,-1.465,0.0,0
1582060596.7570002,-19.043,25.391,41.504,2.93,0.0,0
1582060596.7610002,-19.531,21.973000000000006,35.156,-3.906,0.0,0
1582060596.765,-27.344,27.344,32.715,-15.625,0.0,0
1582060596.769,-32.715,30.762,33.691,-18.555,0.0,0
1582060596.7729998,-22.949,30.273000000000003,30.762,-11.719,0.0,0
1582060596.776,-27.832,32.227,36.133,-27.832,0.0,0
1582060596.78,-57.129,32.227,41.01600000000001,-63.477,0.0,0
1582060596.784,-80.566,29.297,42.969,-76.66,0.0,0
1582060596.788,-85.449,28.809,45.41,-71.777,0.0,0
1582060596.792,-90.82,27.344,43.457,-79.102,0.0,0
1582060596.794,-99.121,26.367,44.434,-94.238,0.0,0
1582060596.798,-107.422,25.391,49.316,-99.609,0.0,0
1582060596.802,-132.812,24.902,47.363,-107.91,0.0,0
1582060596.806,-144.043,22.949,42.48,-114.258,0.0,0
1582060596.81,-143.555,20.508000000000006,41.992,-108.398,0.0,0
1582060596.814,-146.484,26.855,44.922,-106.934,0.0,0
1582060596.8179998,-145.50799999999995,27.344,50.78100000000001,-121.582,0.0,0
1582060596.821,-139.648,24.902,47.852,-134.766,0.0,0
1582060596.825,-143.555,29.297,43.457,-137.207,0.0,0
1582060596.829,-146.97299999999996,20.996,50.78100000000001,-144.531,0.0,0
1582060596.833,-131.34799999999998,14.648,54.199,-129.88299999999998,0.0,0
1582060596.837,-118.164,13.672,58.105,-100.586,0.0,0
1582060596.839,-107.91,7.324,60.059,-83.008,0.0,0
1582060596.843,-87.891,4.883,63.965,-59.57,0.0,0
1582060596.847,-72.75399999999998,1.465,68.359,-34.18,0.0,0
1582060596.851,-64.941,-3.906,68.848,-7.812,0.0,0
1582060596.855,-51.27,-10.254,69.336,19.531,0.0,0
1582060596.859,-32.227,-7.812,63.477,36.133,0.0,0
1582060596.863,-13.672,-1.953,56.64100000000001,35.645,0.0,0
1582060596.8660002,-4.883,-7.324,49.316,9.766,0.0,0
1582060596.87,16.602,-11.23,47.852,13.672,0.0,0
1582060596.8739998,31.738000000000003,-6.348,52.246,45.898,0.0,0
1582060596.8779998,42.48,-3.418,43.945,69.824,0.0,0
1582060596.8820002,65.43,3.418,37.598,86.426,0.0,0
1582060596.8839998,78.125,9.277,32.227,87.402,0.0,0
1582060596.8879998,90.332,8.301,27.832,90.332,0.0,0
1582060596.8920002,105.469,15.625,29.297,99.609,0.0,0
1582060596.896,108.398,20.996,29.785,99.609,0.0,0
1582060596.9,106.445,20.996,24.414,105.469,0.0,0
1582060596.904,110.84,22.461,21.484,130.859,0.0,0
1582060596.908,112.793,25.391,23.926,159.18,0.0,0
1582060596.911,114.258,31.738000000000003,22.949,164.551,0.0,0
1582060596.915,114.746,32.715,23.926,154.785,0.0,0
1582060596.919,120.605,30.273000000000003,21.973000000000006,137.695,0.0,0
1582060596.923,118.652,29.785,18.555,131.836,0.0,0
1582060596.927,104.492,32.715,19.043,125.488,0.0,0
1582060596.929,93.75,39.551,16.113,85.449,0.0,0
1582060596.9329998,92.773,40.527,10.254,58.105,0.0,0
1582060596.937,89.844,34.668,14.16,75.684,0.0,0
1582060596.941,79.102,31.25,22.949,94.238,0.0,0
1582060596.945,70.312,29.785,20.02,89.355,0.0,0
1582060596.949,71.289,30.762,17.09,75.684,0.0,0
1582060596.9529998,67.87100000000001,31.738000000000003,26.367,72.266,0.0,0
1582060596.956,57.129,30.273000000000003,31.25,62.012,0.0,0
1582060596.96,56.152,30.762,30.762,54.199,0.0,0
1582060596.964,60.547,33.691,31.25,64.941,0.0,0
1582060596.968,59.57,34.668,32.715,83.008,0.0,0
1582060596.972,51.27,34.18,32.715,94.238,0.0,0
1582060596.974,38.086,32.227,30.762,101.562,0.0,0
1582060596.978,37.598,30.273000000000003,33.691,113.77,0.0,0
1582060596.982,43.457,30.762,31.738000000000003,109.375,0.0,0
1582060596.986,42.48,29.297,29.785,116.699,0.0,0
1582060596.99,27.832,27.832,35.645,121.094,0.0,0
1582060596.994,31.25,28.809,29.785,76.172,0.0,0
1582060596.998,39.551,27.832,23.438,44.922,0.0,0
1582060597.0010002,39.062,33.203,24.414,37.109,0.0,0
1582060597.005,36.621,37.109,21.973000000000006,24.902,0.0,0
1582060597.0089998,36.621,39.551,21.484,15.625,0.0,0
1582060597.0129998,43.457,47.363,21.973000000000006,17.09,0.0,0
1582060597.0170002,43.945,43.457,19.531,24.414,0.0,0
1582060597.034,41.992,36.621,20.996,32.715,0.0,0
1582060597.038,40.527,38.086,21.973000000000006,39.062,0.0,0
1582060597.042,40.039,39.551,21.484,39.551,0.0,0
1582060597.046,34.18,41.992,20.02,24.414,0.0,0
1582060597.05,23.926,40.527,17.578,29.785,0.0,0
1582060597.054,24.414,34.18,25.879,44.434,0.0,0
1582060597.0579998,43.457,36.621,28.32,60.059,0.0,0
1582060597.061,54.688,41.504,24.902,62.5,0.0,0
1582060597.065,41.992,35.156,27.344,43.457,0.0,0
1582060597.069,47.363,37.109,30.273000000000003,48.34,0.0,0
1582060597.073,61.035,42.969,33.691,98.633,0.0,0
1582060597.077,59.082,42.969,32.227,94.238,0.0,0
1582060597.079,60.547,44.922,29.297,68.359,0.0,0
1582060597.083,56.64100000000001,40.527,26.367,87.402,0.0,0
1582060597.087,52.246,39.062,24.902,80.078,0.0,0
1582060597.091,54.199,39.062,28.32,68.848,0.0,0
1582060597.095,51.758,37.109,26.855,57.617,0.0,0
1582060597.099,44.922,37.598,24.414,38.086,0.0,0
1582060597.103,37.598,32.715,26.855,43.945,0.0,0
1582060597.106,28.32,31.25,30.273000000000003,60.547,0.0,0
1582060597.11,29.297,33.203,31.25,61.035,0.0,0
1582060597.1139998,38.086,30.762,29.785,42.48,0.0,0
1582060597.1179998,44.922,32.227,27.832,14.648,0.0,0
1582060597.1220002,43.457,33.203,29.785,32.227,0.0,0
1582060597.1239998,38.086,29.297,30.762,65.918,0.0,0
1582060597.1279998,31.25,27.344,32.715,68.848,0.0,0
1582060597.1320002,30.273000000000003,25.879,34.18,70.801,0.0,0
1582060597.1360002,31.738000000000003,27.832,35.645,69.824,0.0,0
1582060597.14,31.25,33.691,38.086,77.637,0.0,0
1582060597.144,27.344,34.18,37.598,83.49600000000002,0.0,0
1582060597.1479998,22.461,29.785,34.18,78.613,0.0,0
1582060597.151,24.902,30.273000000000003,26.367,66.895,0.0,0
1582060597.155,24.902,34.18,25.391,66.895,0.0,0
1582060597.159,21.484,36.621,31.25,43.457,0.0,0
1582060597.163,16.602,35.645,30.762,-7.324,0.0,0
1582060597.167,19.531,37.109,29.297,3.906,0.0,0
1582060597.169,29.297,41.01600000000001,34.18,31.25,0.0,0
1582060597.173,27.832,41.504,34.18,-7.812,0.0,0
1582060597.177,19.043,42.48,30.762,-29.785,0.0,0
1582060597.181,14.648,41.01600000000001,32.227,15.137,0.0,0
1582060597.185,9.766,39.062,33.691,63.965,0.0,0
1582060597.189,2.93,37.598,33.691,72.75399999999998,0.0,0
1582060597.1929998,9.766,36.621,30.273000000000003,20.508000000000006,0.0,0
1582060597.196,9.766,37.598,30.273000000000003,-9.277,0.0,0
1582060597.2,6.836,37.598,35.156,19.043,0.0,0
1582060597.204,11.719,38.086,39.062,46.387,0.0,0
1582060597.208,12.207,39.551,40.527,76.66,0.0,0
1582060597.212,10.742,38.086,37.109,90.82,0.0,0
1582060597.214,12.207,37.109,36.133,76.172,0.0,0
1582060597.218,13.184,35.645,37.109,47.852,0.0,0
1582060597.222,13.184,34.668,36.621,35.156,0.0,0
1582060597.226,19.531,34.668,36.133,48.34,0.0,0
1582060597.23,23.926,35.645,37.109,38.086,0.0,0
1582060597.234,40.039,36.133,36.133,42.48,0.0,0
1582060597.238,48.34,35.156,34.668,44.922,0.0,0
1582060597.2410002,52.734,37.598,39.551,36.621,0.0,0
1582060597.245,60.547,36.621,41.992,73.73,0.0,0
1582060597.2489998,66.406,37.109,35.156,82.52,0.0,0
1582060597.2529998,83.008,39.551,30.762,40.527,0.0,0
1582060597.2570002,79.102,35.645,34.18,68.848,0.0,0
1582060597.2589998,66.406,36.133,38.086,129.395,0.0,0
1582060597.2629998,57.129,36.133,42.48,143.555,0.0,0
1582060597.2670002,56.64100000000001,31.25,41.992,108.887,0.0,0
1582060597.271,58.594,31.25,37.109,67.383,0.0,0
1582060597.275,48.34,33.203,38.574,85.93799999999997,0.0,0
1582060597.279,40.039,30.762,41.01600000000001,124.512,0.0,0
1582060597.283,40.039,28.809,40.039,135.74200000000002,0.0,0
1582060597.286,43.457,30.762,37.109,83.984,0.0,0
1582060597.29,47.363,29.297,34.668,73.73,0.0,0
1582060597.294,37.598,25.391,30.762,125.977,0.0,0
1582060597.298,35.156,26.367,31.25,97.168,0.0,0
1582060597.302,47.852,28.32,36.621,31.25,0.0,0
1582060597.304,56.64100000000001,30.762,33.203,-29.785,0.0,0
1582060597.3079998,52.246,31.738000000000003,30.762,-62.012,0.0,0
1582060597.312,51.758,28.32,35.156,-27.832,0.0,0
1582060597.316,57.129,26.367,39.551,35.645,0.0,0
1582060597.32,49.316,28.809,41.504,86.426,0.0,0
1582060597.324,27.832,28.809,42.969,136.23,0.0,0
1582060597.3279998,15.137,24.902,40.527,120.117,0.0,0
1582060597.331,27.344,24.902,36.621,16.602,0.0,0
1582060597.335,40.039,26.855,35.156,-70.801,0.0,0
1582060597.339,30.762,23.926,38.086,-30.762,0.0,0
1582060597.343,18.555,20.508000000000006,40.527,64.453,0.0,0
1582060597.347,12.695,17.578,43.945,147.461,0.0,0
1582060597.349,1.465,16.602,45.898,155.762,0.0,0
1582060597.353,0.0,17.09,42.48,52.246,0.0,0
1582060597.357,0.977,21.484,42.48,0.488,0.0,0
1582060597.361,-0.977,19.043,46.875,38.574,0.0,0
1582060597.365,-4.883,14.16,49.805,72.75399999999998,0.0,0
1582060597.369,-7.324,14.648,47.363,60.547,0.0,0
1582060597.373,-5.371,12.207,45.898,46.875,0.0,0
1582060597.3760002,-4.883,14.648,45.898,64.453,0.0,0
1582060597.38,-14.16,17.09,40.039,29.297,0.0,0
1582060597.3839998,-7.324,10.254,39.551,-20.02,0.0,0
1582060597.3879998,7.324,15.137,39.062,-24.902,0.0,0
1582060597.3920002,-13.672,31.25,38.574,-0.977,0.0,0
1582060597.409,-41.01600000000001,32.715,38.574,-11.23,0.0,0
1582060597.413,-54.199,35.156,36.133,16.602,0.0,0
1582060597.417,-77.637,42.969,31.25,-0.977,0.0,0
1582060597.421,-97.656,46.387,15.137,-80.078,0.0,0
1582060597.425,-110.84,45.898,11.23,-109.375,0.0,0
1582060597.429,-126.465,46.875,14.648,-119.141,0.0,0
1582060597.4329998,-139.648,47.363,11.23,-106.934,0.0,0
1582060597.436,-163.086,48.828,10.742,-87.891,0.0,0
1582060597.44,-170.898,54.199,4.883,-101.074,0.0,0
1582060597.444,-154.785,63.965,1.953,-143.066,0.0,0
1582060597.448,-148.92600000000004,65.918,4.883,-145.50799999999995,0.0,0
1582060597.452,-149.90200000000004,62.5,2.441,-125.488,0.0,0
1582060597.454,-144.531,60.547,4.883,-131.836,0.0,0
1582060597.458,-140.137,63.477,1.465,-135.74200000000002,0.0,0
1582060597.462,-136.23,68.359,-5.859,-159.668,0.0,0
1582060597.466,-143.555,68.848,-1.953,-145.996,0.0,0
1582060597.47,-165.52700000000004,64.941,5.371,-67.87100000000001,0.0,0
1582060597.474,-150.391,68.359,-0.488,-89.355,0.0,0
1582060597.478,-118.164,74.707,-9.277,-250.488,0.0,0
1582060597.481,-102.539,75.684,-15.137,-343.26199999999994,0.0,0
1582060597.485,-99.609,83.008,-15.137,-236.328,0.0,0
1582060597.4889998,-96.191,90.82,-9.277,-121.582,0.0,0
1582060597.4929998,-84.961,93.262,-5.371,-76.66,0.0,0
1582060597.4970002,-83.49600000000002,91.797,-7.324,-138.184,0.0,0
1582060597.4989998,-66.406,93.262,-13.184,-245.605,0.0,0
1582060597.5029998,-56.152,96.191,-17.09,-230.469,0.0,0
1582060597.5070002,-66.406,86.914,-12.695,-140.137,0.0,0
1582060597.5110002,-66.895,90.82,-9.277,-100.098,0.0,0
1582060597.515,-72.75399999999998,95.703,-5.859,-71.289,0.0,0
1582060597.519,-58.105,99.121,-2.441,-18.066,0.0,0
1582060597.5229998,-43.457,102.539,-7.812,-15.625,0.0,0
1582060597.526,-46.387,104.492,-8.789,-38.086,0.0,0
1582060597.53,-46.387,104.004,-3.906,-8.301,0.0,0
1582060597.534,-42.48,103.516,-10.254,-21.484,0.0,0
1582060597.538,-23.926,113.77,-20.996,-154.785,0.0,0
1582060597.542,-12.207,114.258,-16.602,-158.203,0.0,0
1582060597.544,-20.508000000000006,112.305,-10.254,-52.734,0.0,0
1582060597.548,-21.973000000000006,116.699,-14.648,-135.254,0.0,0
1582060597.552,-11.719,116.699,-16.602,-215.332,0.0,0
1582060597.556,-0.488,115.723,-10.742,-144.531,0.0,0
1582060597.56,-15.625,113.281,-8.789,-29.297,0.0,0
1582060597.564,-28.809,111.328,-10.254,12.207,0.0,0
1582060597.5679998,-9.766,104.98,-12.207,-61.523,0.0,0
1582060597.571,9.277,102.539,-13.184,-122.07,0.0,0
1582060597.575,26.367,110.352,-13.672,-121.094,0.0,0
1582060597.579,29.785,112.305,-15.625,-83.008,0.0,0
1582060597.583,38.086,110.84,-13.672,-75.684,0.0,0
1582060597.587,57.617,104.98,-9.766,-37.109,0.0,0
1582060597.589,64.453,97.168,-9.277,69.824,0.0,0
1582060597.593,57.617,93.262,-6.836,164.551,0.0,0
1582060597.597,77.148,97.656,-7.812,104.492,0.0,0
1582060597.601,96.191,98.633,-7.324,56.152,0.0,0
1582060597.605,84.961,94.238,-7.324,62.5,0.0,0
1582060597.609,92.773,93.75,-14.16,6.348,0.0,0
1582060597.613,104.98,93.75,-12.695,23.438,0.0,0
1582060597.6160002,82.031,86.426,-4.395,125.488,0.0,0
1582060597.62,89.355,85.449,-9.766,116.699,0.0,0
1582060597.6239998,110.84,89.355,-18.066,-30.273000000000003,0.0,0
1582060597.6279998,112.793,87.891,-11.23,-65.43,0.0,0
1582060597.6320002,124.023,84.961,-6.836,7.324,0.0,0
1582060597.6339998,126.465,83.984,-8.789,6.348,0.0,0
1582060597.6379998,104.98,80.566,-7.324,-11.23,0.0,0
1582060597.6420002,97.168,74.707,-2.441,52.734,0.0,0
1582060597.646,91.797,67.383,5.371,106.934,0.0,0
1582060597.65,90.332,61.523,6.836,124.023,0.0,0
1582060597.654,87.402,55.664,3.418,100.586,0.0,0
1582060597.658,81.543,47.363,7.324,108.887,0.0,0
1582060597.661,62.5,36.133,16.602,147.94899999999996,0.0,0
1582060597.665,62.5,31.738000000000003,18.555,101.074,0.0,0
1582060597.669,80.078,33.691,15.137,43.945,0.0,0
1582060597.673,76.66,29.297,22.461,109.375,0.0,0
1582060597.677,86.914,29.297,29.785,156.738,0.0,0
1582060597.679,87.891,29.785,28.809,99.121,0.0,0
1582060597.6829998,80.566,24.902,29.785,70.801,0.0,0
1582060597.687,88.867,22.461,29.297,62.988,0.0,0
1582060597.691,85.449,21.484,19.531,43.945,0.0,0
1582060597.695,77.637,21.973000000000006,17.578,105.469,0.0,0
1582060597.699,83.984,25.391,19.043,92.773,0.0,0
1582060597.7029998,91.309,26.855,14.648,-32.227,0.0,0
1582060597.706,86.914,24.902,20.02,-29.785,0.0,0
1582060597.71,62.988,21.484,23.438,60.059,0.0,0
1582060597.714,58.594,19.043,27.344,110.84,0.0,0
1582060597.718,77.148,22.461,26.367,59.082,0.0,0
1582060597.722,80.566,20.508000000000006,19.531,-2.441,0.0,0
1582060597.724,66.406,12.207,22.949,46.875,0.0,0
1582060597.728,58.105,15.625,25.391,97.656,0.0,0
1582060597.732,50.78100000000001,17.578,22.461,85.93799999999997,0.0,0
1582060597.736,31.25,15.137,17.578,0.0,0.0,0
1582060597.74,31.738000000000003,18.555,20.996,-2.93,0.0,0
1582060597.744,24.414,18.555,29.297,91.797,0.0,0
1582060597.748,19.043,14.16,30.762,109.863,0.0,0
1582060597.7510002,23.926,9.766,27.344,63.965,0.0,0
1582060597.755,28.32,15.625,20.508000000000006,3.906,0.0,0
1582060597.7589998,32.227,21.484,20.02,26.367,0.0,0
1582060597.7629998,40.527,19.043,27.832,85.93799999999997,0.0,0
1582060597.7670002,50.293,20.02,24.902,33.203,0.0,0
1582060597.784,39.551,17.578,20.02,-47.363,0.0,0
1582060597.788,37.109,19.043,22.461,-34.18,0.0,0
1582060597.792,42.48,23.438,21.973000000000006,37.109,0.0,0
1582060597.796,56.152,27.832,30.273000000000003,64.941,0.0,0
1582060597.8,74.219,29.297,33.203,13.672,0.0,0
1582060597.804,76.66,22.949,25.391,-15.625,0.0,0
1582060597.8079998,90.332,18.555,26.855,21.973000000000006,0.0,0
1582060597.811,109.863,28.809,27.832,32.715,0.0,0
1582060597.815,97.168,28.809,25.391,42.969,0.0,0
1582060597.819,65.43,25.879,25.391,74.219,0.0,0
1582060597.823,38.574,33.203,19.531,41.504,0.0,0
1582060597.827,35.156,38.086,13.672,-25.391,0.0,0
1582060597.832,23.926,36.133,12.207,-39.551,0.0,0
1582060597.836,15.137,41.504,10.742,-0.488,0.0,0
1582060597.84,-1.953,49.316,11.23,20.996,0.0,0
1582060597.844,6.348,46.875,9.277,-0.488,0.0,0
1582060597.8479998,25.391,47.363,-0.977,-19.531,0.0,0
1582060597.8520002,19.043,53.223,-2.441,-24.902,0.0,0
1582060597.856,19.043,51.758,6.348,-23.438,0.0,0
1582060597.859,21.973000000000006,46.875,3.418,-34.668,0.0,0
1582060597.863,28.32,44.434,4.883,-47.852,0.0,0
1582060597.867,27.832,44.922,17.578,-27.832,0.0,0
1582060597.871,21.484,39.551,20.508000000000006,-20.996,0.0,0
1582060597.875,39.062,30.273000000000003,20.508000000000006,-22.461,0.0,0
1582060597.8739998,50.78100000000001,19.043,25.391,-10.254,0.0,0
1582060597.8779998,48.34,17.09,21.484,-15.625,0.0,0
1582060597.8820002,47.363,25.391,13.672,-5.859,0.0,0
1582060597.8860002,45.898,35.156,13.672,8.301,0.0,0
1582060597.89,66.895,39.062,14.16,6.348,0.0,0
1582060597.894,103.027,37.109,16.602,7.812,0.0,0
1582060597.8979998,104.98,33.203,22.949,15.137,0.0,0
1582060597.901,112.305,11.719,22.461,10.742,0.0,0
1582060597.905,99.121,7.812,20.996,20.02,0.0,0
1582060597.909,19.531,27.344,26.367,33.691,0.0,0
1582060597.913,-38.574,33.203,31.25,21.484,0.0,0
1582060597.917,-29.297,37.109,31.738000000000003,5.371,0.0,0
1582060597.919,-2.441,37.598,27.344,24.902,0.0,0
1582060597.923,11.23,39.551,31.25,28.809,0.0,0
1582060597.927,14.648,39.062,31.738000000000003,11.719,0.0,0
1582060597.931,13.672,24.414,24.902,5.859,0.0,0
1582060597.935,22.949,19.043,22.949,-8.301,0.0,0
1582060597.939,37.598,26.855,27.832,0.977,0.0,0
1582060597.9429998,46.387,30.762,31.25,15.625,0.0,0
1582060597.946,50.293,34.18,30.762,24.902,0.0,0
1582060597.95,48.828,31.738000000000003,29.297,16.602,0.0,0
1582060597.954,58.105,28.32,26.855,-8.301,0.0,0
1582060597.958,72.266,28.32,25.391,-7.812,0.0,0
1582060597.962,70.801,26.855,26.367,10.254,0.0,0
1582060597.964,73.73,21.484,27.344,17.09,0.0,0
1582060597.968,85.449,16.113,27.344,2.441,0.0,0
1582060597.972,80.078,19.043,27.832,3.418,0.0,0
1582060597.976,63.965,21.973000000000006,29.785,18.555,0.0,0
1582060597.98,56.152,29.785,29.297,20.02,0.0,0
1582060597.984,37.109,34.668,33.203,23.438,0.0,0
1582060597.988,20.02,22.461,31.25,39.551,0.0,0
1582060597.9910002,9.766,15.137,25.879,34.668,0.0,0
1582060597.995,2.93,25.879,29.297,17.09,0.0,0
1582060597.9989998,13.184,38.086,31.738000000000003,10.254,0.0,0
1582060598.0029998,24.414,36.621,28.32,7.324,0.0,0
1582060598.0070002,30.762,34.18,27.344,5.371,0.0,0
1582060598.0089998,28.32,31.25,28.809,17.09,0.0,0
1582060598.0129998,20.02,19.531,27.344,31.738000000000003,0.0,0
1582060598.0170002,29.785,20.996,26.367,28.32,0.0,0
1582060598.021,40.039,29.785,29.297,8.301,0.0,0
1582060598.025,38.086,30.762,27.832,-0.977,0.0,0
1582060598.029,41.01600000000001,32.227,25.391,5.371,0.0,0
1582060598.033,38.086,33.691,22.461,4.395,0.0,0
1582060598.036,27.832,31.738000000000003,24.414,-3.906,0.0,0
1582060598.04,31.738000000000003,25.391,32.227,-3.418,0.0,0
1582060598.044,26.367,22.461,25.879,-10.742,0.0,0
1582060598.048,21.484,23.926,24.902,-7.324,0.0,0
1582060598.052,32.227,16.602,30.273000000000003,-1.465,0.0,0
1582060598.054,36.133,20.02,26.855,-16.602,0.0,0
1582060598.0579998,27.832,31.738000000000003,20.996,-40.039,0.0,0
1582060598.062,29.297,32.715,21.484,-40.527,0.0,0
1582060598.066,47.852,29.785,26.855,-24.902,0.0,0
1582060598.07,31.738000000000003,15.137,29.297,-20.02,0.0,0
1582060598.074,-18.555,8.301,28.32,-2.441,0.0,0
1582060598.0779998,-36.133,19.043,24.902,5.371,0.0,0
1582060598.081,-19.531,26.367,22.949,0.977,0.0,0
1582060598.085,0.977,22.949,30.762,1.953,0.0,0
1582060598.089,9.277,20.996,31.25,0.977,0.0,0
1582060598.093,16.602,25.391,26.855,10.254,0.0,0
1582060598.097,31.25,32.715,31.25,16.113,0.0,0
1582060598.099,36.621,37.598,33.691,9.766,0.0,0
1582060598.103,29.785,32.715,28.809,3.418,0.0,0
1582060598.107,20.996,25.879,26.855,1.465,0.0,0
1582060598.111,23.438,26.855,32.227,4.395,0.0,0
1582060598.115,31.738000000000003,26.855,34.18,2.93,0.0,0
1582060598.119,28.809,24.414,28.809,0.488,0.0,0
1582060598.123,28.32,28.32,29.785,5.371,0.0,0
1582060598.1260002,27.344,30.762,35.156,14.16,0.0,0
1582060598.13,25.879,18.066,34.668,13.672,0.0,0
1582060598.1339998,21.973000000000006,10.742,31.738000000000003,6.348,0.0,0
1582060598.1379998,17.578,17.09,25.879,1.953,0.0,0
1582060598.1420002,23.438,27.344,19.043,-7.324,0.0,0
1582060598.159,24.414,36.621,20.02,-7.324,0.0,0
1582060598.163,21.973000000000006,42.969,20.02,-1.953,0.0,0
1582060598.167,6.836,44.922,18.555,-6.836,0.0,0
1582060598.171,-10.742,40.039,21.484,-8.301,0.0,0
1582060598.175,-50.78100000000001,33.691,20.02,-17.09,0.0,0
1582060598.179,-42.969,30.273000000000003,20.508000000000006,-33.203,0.0,0
1582060598.1829998,10.254,41.992,15.625,-32.227,0.0,0
1582060598.186,-15.137,45.41,15.625,-28.32,0.0,0
1582060598.19,-28.809,40.527,21.484,-32.715,0.0,0
1582060598.194,-22.949,43.945,20.02,-44.922,0.0,0
1582060598.198,-37.598,48.34,17.578,-57.617,0.0,0
1582060598.202,-45.898,42.48,21.973000000000006,-61.035,0.0,0
1582060598.2029998,-51.27,41.992,26.367,-65.43,0.0,0
1582060598.207,-63.965,46.875,23.438,-76.66,0.0,0
1582060598.211,-69.336,48.828,23.438,-77.148,0.0,0
1582060598.215,-76.66,46.875,22.949,-71.777,0.0,0
1582060598.219,-82.031,41.504,25.391,-66.406,0.0,0
1582060598.2229998,-76.172,43.457,24.414,-69.824,0.0,0
1582060598.2270002,-70.312,43.945,21.973000000000006,-69.824,0.0,0
1582060598.23,-75.684,41.504,24.414,-75.684,0.0,0
1582060598.234,-93.262,35.156,27.832,-84.961,0.0,0
1582060598.238,-91.309,31.738000000000003,25.391,-92.285,0.0,0
1582060598.242,-83.49600000000002,36.133,29.785,-92.285,0.0,0
1582060598.246,-86.426,31.25,33.691,-83.008,0.0,0
1582060598.248,-82.031,28.809,33.203,-80.566,0.0,0
1582060598.252,-62.988,24.414,38.086,-65.918,0.0,0
1582060598.256,-47.363,11.719,36.133,-48.828,0.0,0
1582060598.26,-60.547,24.414,33.691,-46.875,0.0,0
1582060598.264,-70.801,36.621,35.156,-43.945,0.0,0
1582060598.268,-58.105,32.227,39.551,-33.203,0.0,0
1582060598.272,-52.246,23.438,37.598,-39.062,0.0,0
1582060598.275,-30.273000000000003,15.137,35.156,-26.367,0.0,0
1582060598.279,-13.672,2.441,47.852,-1.953,0.0,0
1582060598.283,-4.395,0.488,52.246,12.207,0.0,0
1582060598.2870002,11.23,-3.418,51.758,34.18,0.0,0
1582060598.291,29.297,-22.461,55.176,49.805,0.0,0
1582060598.293,40.527,-27.344,52.246,66.895,0.0,0
1582060598.2970002,50.293,-31.738000000000003,54.688,91.797,0.0,0
1582060598.301,85.449,-28.32,58.594,109.863,0.0,0
1582060598.305,101.074,-40.527,63.965,126.953,0.0,0
1582060598.309,108.398,-54.688,66.895,150.879,0.0,0
1582060598.313,125.488,-35.156,66.406,165.52700000000004,0.0,0
1582060598.3170002,133.789,-16.602,63.477,169.43400000000003,0.0,0
1582060598.32,148.92600000000004,-22.949,62.012,185.05900000000003,0.0,0
1582060598.324,156.25,-27.344,61.035,194.336,0.0,0
1582060598.3279998,143.066,-22.461,62.012,189.453,0.0,0
1582060598.332,145.996,-28.809,64.453,193.359,0.0,0
1582060598.336,157.715,-38.574,53.223,195.801,0.0,0
1582060598.3379998,152.832,-32.715,49.316,184.57,0.0,0
1582060598.342,140.625,-28.32,57.617,178.22299999999996,0.0,0
1582060598.346,133.30100000000002,-25.879,57.617,168.457,0.0,0
1582060598.35,129.88299999999998,-17.578,52.734,159.668,0.0,0
1582060598.354,120.117,-10.254,49.805,154.785,0.0,0
1582060598.3579998,107.91,-5.371,48.828,139.648,0.0,0
1582060598.3620002,104.492,-2.441,45.41,130.371,0.0,0
1582060598.365,102.051,-6.348,38.086,124.512,0.0,0
1582060598.369,102.539,-6.836,33.691,114.258,0.0,0
1582060598.373,104.98,1.953,26.855,103.516,0.0,0
1582060598.377,86.426,3.906,24.414,94.727,0.0,0
1582060598.381,84.473,7.324,30.762,93.262,0.0,0
1582060598.3839998,100.586,16.602,32.715,88.37899999999998,0.0,0
1582060598.3879998,93.75,13.672,30.273000000000003,79.59,0.0,0
1582060598.3920002,94.238,0.0,30.273000000000003,78.613,0.0,0
1582060598.396,91.797,2.441,33.691,94.238,0.0,0
1582060598.4,81.543,17.578,36.621,106.934,0.0,0
1582060598.404,91.309,29.785,37.109,99.609,0.0,0
1582060598.408,91.309,36.621,33.203,95.215,0.0,0
1582060598.411,87.402,37.109,31.738000000000003,97.656,0.0,0
1582060598.415,93.262,30.273000000000003,31.25,94.238,0.0,0
1582060598.419,88.867,24.902,29.785,93.262,0.0,0
1582060598.423,81.055,28.32,23.438,83.49600000000002,0.0,0
1582060598.427,80.566,27.832,21.484,73.242,0.0,0
1582060598.429,71.777,27.832,28.809,72.75399999999998,0.0,0
1582060598.4329998,61.523,24.902,17.578,67.87100000000001,0.0,0
1582060598.437,60.547,20.996,14.16,60.547,0.0,0
1582060598.441,57.617,27.832,20.508000000000006,53.71100000000001,0.0,0
1582060598.445,45.898,29.297,22.461,51.758,0.0,0
1582060598.449,54.688,30.273000000000003,26.367,55.176,0.0,0
1582060598.4529998,60.547,30.273000000000003,24.902,53.223,0.0,0
1582060598.456,40.039,25.879,22.949,45.41,0.0,0
1582060598.46,39.551,23.926,22.949,49.316,0.0,0
1582060598.464,51.27,27.344,20.02,46.875,0.0,0
1582060598.468,38.574,37.598,19.043,34.18,0.0,0
1582060598.472,33.203,28.32,19.531,27.832,0.0,0
1582060598.474,40.039,16.602,17.09,26.855,0.0,0
1582060598.478,41.01600000000001,30.762,19.043,25.879,0.0,0
1582060598.482,38.574,41.504,20.508000000000006,28.32,0.0,0
1582060598.486,35.156,40.527,18.066,29.297,0.0,0
1582060598.49,41.504,35.156,19.043,24.414,0.0,0
1582060598.494,48.828,33.691,19.043,20.996,0.0,0
1582060598.498,52.734,36.621,18.555,16.602,0.0,0
1582060598.5010002,49.316,34.668,21.484,21.484,0.0,0
1582060598.505,43.945,30.762,22.949,28.32,0.0,0
1582060598.5089998,37.109,27.832,23.438,30.273000000000003,0.0,0
1582060598.5129998,27.832,31.25,25.391,32.715,0.0,0
1582060598.5170002,25.391,33.203,26.367,33.203,0.0,0
1582060598.534,27.344,26.855,27.832,33.691,0.0,0
1582060598.538,23.438,26.367,30.762,39.062,0.0,0
1582060598.542,21.973000000000006,20.996,26.855,35.645,0.0,0
1582060598.546,35.645,23.926,19.043,34.18,0.0,0
1582060598.55,32.715,31.25,22.461,39.551,0.0,0
1582060598.554,13.184,31.25,28.809,35.645,0.0,0
1582060598.5579998,28.32,35.156,24.414,31.25,0.0,0
1582060598.561,44.922,41.504,19.043,34.668,0.0,0
1582060598.565,33.691,39.062,21.484,27.832,0.0,0
1582060598.569,32.227,39.551,18.066,15.625,0.0,0
1582060598.573,46.875,39.551,13.672,24.902,0.0,0
1582060598.577,55.176,29.785,21.484,40.527,0.0,0
1582060598.579,52.246,31.738000000000003,31.25,29.297,0.0,0
1582060598.583,31.738000000000003,33.203,32.715,6.348,0.0,0
1582060598.587,18.066,23.438,40.039,12.207,0.0,0
1582060598.591,24.414,11.23,49.805,24.414,0.0,0
1582060598.595,32.715,6.348,48.828,23.926,0.0,0
1582060598.599,33.203,2.93,50.78100000000001,29.785,0.0,0
1582060598.603,15.137,-8.301,55.176,20.996,0.0,0
1582060598.606,12.695,-11.719,63.477,33.691,0.0,0
1582060598.61,0.0,-18.555,66.406,34.668,0.0,0
1582060598.6139998,-17.578,-34.668,64.941,23.926,0.0,0
1582060598.6179998,-12.207,-38.574,68.848,24.902,0.0,0
1582060598.6220002,-6.348,-33.203,67.87100000000001,28.32,0.0,0
1582060598.6239998,-6.836,-30.762,72.266,47.363,0.0,0
1582060598.6279998,-22.949,-29.785,74.219,45.41,0.0,0
1582060598.6320002,-21.484,-31.25,63.965,33.691,0.0,0
1582060598.6360002,-1.465,-29.297,59.57,35.645,0.0,0
1582060598.64,-8.789,-21.973000000000006,59.082,30.762,0.0,0
1582060598.644,-6.836,-17.578,60.547,22.461,0.0,0
1582060598.6479998,5.859,-15.137,61.523,22.461,0.0,0
1582060598.651,-7.324,-14.16,60.059,24.414,0.0,0
1582060598.655,0.977,-7.812,62.012,25.879,0.0,0
1582060598.659,14.16,-4.395,62.012,31.738000000000003,0.0,0
1582060598.663,-7.324,-9.277,58.105,18.066,0.0,0
1582060598.667,-5.859,-12.695,53.71100000000001,8.789,0.0,0
1582060598.669,12.695,-12.695,43.457,15.625,0.0,0
1582060598.673,9.277,-0.977,43.457,17.09,0.0,0
1582060598.677,19.043,10.742,42.969,23.926,0.0,0
1582060598.681,20.02,0.0,45.898,23.926,0.0,0
1582060598.685,17.578,-7.324,48.34,24.414,0.0,0
1582060598.689,28.809,8.789,38.574,26.855,0.0,0
1582060598.6929998,26.367,25.391,33.203,28.32,0.0,0
1582060598.696,18.066,31.738000000000003,37.109,27.344,0.0,0
1582060598.7,22.949,23.926,43.457,36.621,0.0,0
1582060598.704,19.043,21.484,48.828,45.41,0.0,0
1582060598.708,21.973000000000006,24.414,48.828,46.387,0.0,0
1582060598.712,40.039,25.879,47.852,47.363,0.0,0
1582060598.714,37.109,20.996,41.992,42.48,0.0,0
1582060598.718,36.621,19.531,31.738000000000003,36.621,0.0,0
1582060598.722,37.598,22.461,31.738000000000003,34.668,0.0,0
1582060598.726,31.738000000000003,31.738000000000003,35.645,40.039,0.0,0
1582060598.73,33.203,39.062,35.156,40.527,0.0,0
1582060598.734,33.203,37.109,37.598,34.18,0.0,0
1582060598.738,35.156,33.691,35.156,31.25,0.0,0
1582060598.7410002,39.062,33.203,28.809,26.367,0.0,0
1582060598.745,35.645,38.086,25.879,16.113,0.0,0
1582060598.7489998,31.25,34.668,23.926,8.789,0.0,0
1582060598.7529998,25.391,28.32,28.32,19.043,0.0,0
1582060598.7570002,21.484,27.832,27.832,25.391,0.0,0
1582060598.7589998,37.598,33.203,27.344,24.414,0.0,0
1582060598.7629998,40.039,37.109,22.949,22.949,0.0,0
1582060598.7670002,38.086,36.621,19.043,29.297,0.0,0
1582060598.771,36.621,32.227,23.438,32.227,0.0,0
1582060598.775,31.738000000000003,23.926,25.879,34.18,0.0,0
1582060598.779,33.203,25.391,30.273000000000003,29.785,0.0,0
1582060598.783,26.367,25.391,28.809,3.906,0.0,0
1582060598.786,19.531,26.367,20.02,0.0,0.0,0
1582060598.79,26.855,34.668,24.414,9.766,0.0,0
1582060598.794,27.832,37.109,27.832,12.695,0.0,0
1582060598.798,13.672,35.645,21.484,7.324,0.0,0
1582060598.802,17.578,35.156,19.043,3.906,0.0,0
1582060598.804,31.738000000000003,37.598,24.414,13.672,0.0,0
1582060598.8079998,24.414,36.133,26.367,8.301,0.0,0
1582060598.812,20.508000000000006,33.691,24.414,5.371,0.0,0
1582060598.816,19.043,35.156,24.902,7.812,0.0,0
1582060598.82,23.926,34.18,17.578,8.789,0.0,0
1582060598.824,26.855,31.738000000000003,21.973000000000006,15.137,0.0,0
1582060598.8279998,24.902,36.621,23.926,15.137,0.0,0
1582060598.831,25.879,38.574,23.926,18.066,0.0,0
1582060598.835,31.738000000000003,38.086,28.32,24.414,0.0,0
1582060598.839,37.598,34.668,20.02,17.09,0.0,0
1582060598.843,35.156,36.621,21.973000000000006,14.16,0.0,0
1582060598.847,39.551,33.203,34.18,25.879,0.0,0
1582060598.8479998,43.457,22.949,30.762,20.996,0.0,0
1582060598.8520002,35.156,27.832,22.461,14.648,0.0,0
1582060598.856,30.273000000000003,32.227,25.879,14.648,0.0,0
1582060598.86,33.691,35.645,29.297,16.602,0.0,0
1582060598.8639998,41.01600000000001,41.01600000000001,25.879,21.484,0.0,0
1582060598.8679998,44.434,41.504,27.344,24.902,0.0,0
1582060598.8720002,39.551,40.039,30.273000000000003,26.367,0.0,0
1582060598.875,29.297,44.434,27.832,23.926,0.0,0
1582060598.879,32.227,42.48,24.902,19.531,0.0,0
1582060598.883,37.598,37.598,30.762,23.926,0.0,0
1582060598.887,35.156,41.992,26.367,21.973000000000006,0.0,0
1582060598.891,29.785,38.086,21.973000000000006,0.977,0.0,0
1582060598.908,32.227,34.668,26.855,3.906,0.0,0
1582060598.9120002,37.598,46.875,22.949,13.184,0.0,0
1582060598.916,28.32,49.316,20.996,10.742,0.0,0
1582060598.92,22.949,41.504,23.926,10.254,0.0,0
1582060598.924,28.809,41.992,22.949,17.09,0.0,0
1582060598.928,28.32,42.48,24.902,16.113,0.0,0
1582060598.9320002,26.855,43.457,22.461,7.812,0.0,0
1582060598.935,20.02,44.922,18.066,10.254,0.0,0
1582060598.939,12.207,40.527,23.438,20.508000000000006,0.0,0
1582060598.9429998,19.043,39.551,28.809,28.809,0.0,0
1582060598.947,22.461,39.551,27.832,27.832,0.0,0
1582060598.951,29.785,42.48,27.832,24.902,0.0,0
1582060598.9529998,28.809,46.387,30.273000000000003,23.926,0.0,0
1582060598.957,21.973000000000006,46.875,30.273000000000003,22.461,0.0,0
1582060598.961,20.508000000000006,45.898,25.391,17.578,0.0,0
1582060598.965,24.414,42.48,28.32,16.113,0.0,0
1582060598.969,20.508000000000006,42.969,30.273000000000003,23.438,0.0,0
1582060598.9729998,24.414,37.598,25.879,24.414,0.0,0
1582060598.9770002,41.504,34.18,26.855,23.926,0.0,0
1582060598.98,41.504,43.945,26.855,22.949,0.0,0
1582060598.984,31.738000000000003,46.875,25.391,13.184,0.0,0
1582060598.988,28.809,42.969,24.414,17.09,0.0,0
1582060598.992,34.18,43.457,26.855,26.855,0.0,0
1582060598.996,33.203,43.457,29.785,26.367,0.0,0
1582060598.998,33.691,47.363,29.297,28.32,0.0,0
1582060599.002,41.992,49.316,23.438,29.785,0.0,0
1582060599.006,37.598,44.434,23.438,25.391,0.0,0
1582060599.01,24.902,41.504,31.25,21.484,0.0,0
1582060599.014,31.738000000000003,44.434,34.668,24.902,0.0,0
1582060599.018,33.203,46.387,29.785,20.508000000000006,0.0,0
1582060599.022,22.949,41.504,23.438,16.602,0.0,0
1582060599.025,37.598,46.875,24.414,12.207,0.0,0
1582060599.029,46.875,46.875,27.344,21.484,0.0,0
1582060599.033,23.438,38.086,25.879,23.926,0.0,0
1582060599.0370002,18.555,38.574,25.391,13.672,0.0,0
1582060599.041,30.762,43.945,26.855,20.508000000000006,0.0,0
1582060599.043,25.879,42.48,29.297,22.949,0.0,0
1582060599.0470002,19.043,39.062,29.785,16.602,0.0,0
1582060599.051,27.832,38.574,28.809,18.066,0.0,0
1582060599.055,27.832,35.156,28.32,11.719,0.0,0
1582060599.059,16.113,28.32,28.809,4.395,0.0,0
1582060599.063,17.578,24.902,28.32,12.695,0.0,0
1582060599.0670002,32.227,30.273000000000003,27.832,19.531,0.0,0
1582060599.07,41.992,33.691,25.391,33.691,0.0,0
1582060599.074,37.598,28.32,26.855,34.668,0.0,0
1582060599.0779998,41.504,25.391,23.438,35.645,0.0,0
1582060599.082,46.387,24.414,20.996,41.504,0.0,0
1582060599.086,47.852,34.668,31.25,41.992,0.0,0
1582060599.0879998,47.363,41.504,39.551,42.969,0.0,0
1582060599.092,42.48,30.273000000000003,36.133,39.551,0.0,0
1582060599.096,34.18,24.414,30.273000000000003,28.32,0.0,0
1582060599.1,32.715,24.414,30.273000000000003,21.973000000000006,0.0,0
1582060599.104,35.156,32.227,27.344,18.555,0.0,0
1582060599.1079998,31.25,35.156,26.367,20.996,0.0,0
1582060599.1120002,28.809,31.25,26.367,11.719,0.0,0
1582060599.115,28.32,29.785,25.879,2.93,0.0,0
1582060599.119,30.273000000000003,32.227,26.367,12.207,0.0,0
1582060599.123,37.109,31.738000000000003,24.414,19.531,0.0,0
1582060599.127,34.18,26.855,22.461,21.973000000000006,0.0,0
1582060599.131,34.668,27.832,31.25,34.18,0.0,0
1582060599.133,42.48,36.133,37.109,34.668,0.0,0
1582060599.137,39.551,35.156,26.855,29.297,0.0,0
1582060599.141,34.668,31.738000000000003,21.973000000000006,29.785,0.0,0
1582060599.145,30.762,32.715,22.949,28.32,0.0,0
1582060599.149,31.738000000000003,34.668,19.043,26.855,0.0,0
1582060599.153,35.156,35.156,20.996,30.762,0.0,0
1582060599.157,44.434,37.598,26.855,29.297,0.0,0
1582060599.16,30.762,33.203,28.32,32.715,0.0,0
1582060599.164,13.184,27.344,34.18,41.504,0.0,0
1582060599.168,22.949,32.227,31.738000000000003,35.645,0.0,0
1582060599.1720002,22.949,34.668,27.832,32.227,0.0,0
1582060599.176,19.531,36.621,25.391,28.809,0.0,0
1582060599.178,18.555,31.738000000000003,24.902,25.391,0.0,0
1582060599.1820002,24.902,31.738000000000003,27.832,31.738000000000003,0.0,0
1582060599.186,33.691,25.879,28.809,30.762,0.0,0
1582060599.19,29.297,24.902,33.691,33.691,0.0,0
1582060599.194,33.203,34.668,38.574,34.18,0.0,0
1582060599.198,35.156,26.855,38.086,26.367,0.0,0
1582060599.202,30.273000000000003,24.414,37.598,33.203,0.0,0
1582060599.205,36.621,31.738000000000003,38.574,29.785,0.0,0
1582060599.209,41.504,35.156,32.715,24.902,0.0,0
1582060599.2129998,39.062,34.18,35.645,28.32,0.0,0
